SpectraSuite Data File
++++++++++++++++++++++++++++++++++++
Date: Fri Oct 04 11:48:34 GMT-05:00 2013
User: price-jones
Dark Spectrum Present: No
Reference Spectrum Present: No
Number of Sampled Component Spectra: 1
Spectrometers: USB2+H05261
Integration Time (usec): 100000 (USB2+H05261)
Spectra Averaged: 1 (USB2+H05261)
Boxcar Smoothing: 0 (USB2+H05261)
Correct for Electrical Dark: No (USB2+H05261)
Strobe/Lamp Enabled: No (USB2+H05261)
Correct for Detector Non-linearity: No (USB2+H05261)
Correct for Stray Light: No (USB2+H05261)
Number of Pixels in Processed Spectrum: 2048
>>>>>Begin Processed Spectral Data<<<<<
365.73	51.49
365.92	51.49
366.12	51.49
366.32	0.00
366.52	0.00
366.72	0.00
366.91	0.00
367.11	0.00
367.31	0.00
367.51	0.00
367.70	0.00
367.90	0.00
368.10	0.00
368.30	0.00
368.49	0.00
368.69	0.00
368.89	0.00
369.09	0.00
369.28	0.00
369.48	0.00
369.68	0.00
369.87	16.38
370.07	25.75
370.27	56.17
370.47	102.98
370.66	220.01
370.86	280.86
371.06	330.02
371.25	346.40
371.45	348.74
371.65	287.89
371.84	341.72
372.04	306.61
372.24	311.29
372.44	362.78
372.63	470.45
372.83	358.10
373.03	407.25
373.22	423.64
373.42	365.12
373.62	404.91
373.81	332.36
374.01	411.93
374.21	428.32
374.40	358.10
374.60	395.55
374.79	409.59
374.99	407.25
375.19	421.30
375.38	444.70
375.58	418.96
375.78	442.36
375.97	444.70
376.17	437.68
376.37	435.34
376.56	367.46
376.76	458.74
376.95	463.43
377.15	510.24
377.35	433.00
377.54	465.77
377.74	456.40
377.93	486.83
378.13	454.06
378.33	538.32
378.52	498.53
378.72	482.15
378.91	521.94
379.11	407.25
379.31	456.40
379.50	470.45
379.70	582.79
379.89	440.02
380.09	559.39
380.28	514.92
380.48	559.39
380.68	496.19
380.87	517.26
381.07	524.28
381.26	507.90
381.46	557.05
381.65	524.28
381.85	531.30
382.04	505.56
382.24	580.45
382.43	517.26
382.63	561.73
382.83	437.68
383.02	608.54
383.22	573.43
383.41	512.58
383.61	653.01
383.80	641.31
384.00	587.47
384.19	573.43
384.39	526.62
384.58	599.18
384.78	631.94
384.97	627.26
385.17	655.35
385.36	526.62
385.56	634.29
385.75	564.07
385.95	627.26
386.14	674.07
386.34	568.75
386.53	615.56
386.72	634.29
386.92	716.20
387.11	725.57
387.31	650.67
387.50	568.75
387.70	603.86
387.89	657.69
388.09	596.84
388.28	627.26
388.48	669.39
388.67	692.80
388.86	751.31
389.06	718.54
389.25	751.31
389.45	795.78
389.64	653.01
389.84	828.55
390.03	816.85
390.22	826.21
390.42	760.67
390.61	730.25
390.81	814.51
391.00	763.01
391.19	873.02
391.39	748.97
391.58	763.01
391.78	795.78
391.97	779.40
392.16	840.25
392.36	798.12
392.55	835.57
392.75	835.57
392.94	837.91
393.13	847.27
393.33	880.04
393.52	938.55
393.71	889.40
393.91	856.64
394.10	866.00
394.29	861.32
394.49	866.00
394.68	943.24
394.88	917.49
395.07	889.40
395.26	950.26
395.46	964.30
395.65	1004.09
395.84	1034.52
396.04	1139.84
396.23	983.02
396.42	1102.39
396.62	1090.69
396.81	983.02
397.00	936.21
397.19	947.92
397.39	980.68
397.58	1071.97
397.77	1071.97
397.97	990.05
398.16	1067.28
398.35	1015.79
398.55	1062.60
398.74	1025.15
398.93	1071.97
399.12	1095.37
399.32	1153.88
399.51	1064.94
399.70	1111.75
399.90	1221.76
400.09	1174.95
400.28	1233.46
400.47	1153.88
400.67	1090.69
400.86	1228.78
401.05	1160.91
401.24	1207.72
401.44	1275.59
401.63	1245.16
401.82	1303.68
402.01	1256.87
402.21	1364.53
402.40	1306.02
402.59	1308.36
402.78	1291.98
402.97	1362.19
403.17	1366.87
403.36	1423.05
403.55	1338.79
403.74	1357.51
403.93	1350.49
404.13	1437.09
404.32	1519.01
404.51	1434.75
404.70	1558.80
404.89	1511.99
405.09	1542.41
405.28	1526.03
405.47	1416.02
405.66	1519.01
405.85	1540.07
406.05	1535.39
406.24	1666.46
406.43	1633.69
406.62	1636.03
406.81	1675.82
407.00	1617.31
407.20	1680.50
407.39	1675.82
407.58	1715.61
407.77	1771.79
407.96	1717.95
408.15	1811.57
408.34	1713.27
408.54	1858.39
408.73	1811.57
408.92	1874.77
409.11	1856.04
409.30	1820.94
409.49	1909.88
409.68	1994.14
409.87	1870.09
410.07	1980.09
410.26	1947.33
410.45	1926.26
410.64	1928.60
410.83	1987.11
411.02	1977.75
411.21	2101.80
411.40	1989.46
411.59	2024.56
411.78	2221.17
411.98	2160.31
412.17	2207.13
412.36	2260.96
412.55	2200.10
412.74	2176.70
412.93	2174.36
413.12	2200.10
413.31	2399.05
413.50	2370.96
413.69	2417.77
413.88	2401.39
414.07	2443.52
414.26	2462.24
414.45	2394.37
414.64	2424.80
414.83	2520.76
415.02	2609.70
415.22	2520.76
415.41	2574.59
415.60	2499.69
415.79	2569.91
415.98	2665.87
416.17	2658.85
416.36	2588.63
416.55	2644.81
416.74	2700.98
416.93	2740.77
417.12	2827.37
417.31	2813.32
417.50	2813.32
417.69	3047.38
417.88	2871.84
418.07	2799.28
418.26	2981.84
418.45	2979.50
418.64	3052.06
418.83	3016.95
419.02	2897.58
419.21	2942.05
419.39	3070.78
419.58	2897.58
419.77	2956.10
419.96	3171.43
420.15	3248.66
420.34	3007.59
420.53	3119.93
420.72	3199.51
420.91	3110.57
421.10	3176.11
421.29	3300.16
421.48	3138.66
421.67	3232.28
421.86	3222.92
422.05	3337.60
422.24	3243.98
422.43	3361.01
422.61	3321.22
422.80	3393.78
422.99	3459.31
423.18	3325.90
423.37	3431.23
423.56	3311.86
423.75	3337.60
423.94	3353.99
424.13	3155.04
424.32	3311.86
424.50	3412.50
424.69	3475.70
424.88	3543.57
425.07	3435.91
425.26	3321.22
425.45	3382.07
425.64	3459.31
425.83	3379.73
426.01	3541.23
426.20	3440.59
426.39	3585.70
426.58	3529.53
426.77	3506.12
426.96	3391.44
427.15	3449.95
427.33	3391.44
427.52	3534.21
427.71	3510.80
427.90	3548.25
428.09	3611.45
428.28	3705.07
428.46	3831.46
428.65	3847.84
428.84	3646.55
429.03	3684.00
429.22	3545.91
429.40	3761.24
429.59	3721.45
429.78	3765.92
429.97	3564.64
430.16	3651.24
430.34	3810.39
430.53	3686.34
430.72	4117.00
430.91	3864.22
431.10	3751.88
431.28	3981.25
431.47	3887.63
431.66	4028.06
431.85	4149.77
432.03	4060.83
432.22	4074.87
432.41	4070.19
432.60	4182.54
432.79	4154.45
432.97	4105.30
433.16	4095.94
433.35	4210.62
433.54	4102.96
433.72	4166.15
433.91	4294.88
434.10	4358.08
434.28	4121.68
434.47	4166.15
434.66	4276.16
434.85	4339.35
435.03	4224.67
435.22	4320.63
435.41	4641.28
435.59	4482.13
435.78	4292.54
435.97	4393.19
436.16	4528.94
436.34	4395.53
436.53	4315.95
436.72	4636.60
436.90	4545.32
437.09	4554.68
437.28	4430.63
437.46	4559.36
437.65	4531.28
437.84	4550.00
438.02	4627.24
438.21	4580.43
438.40	4557.02
438.58	4840.23
438.77	4781.71
438.96	4678.73
439.14	4947.89
439.33	4901.08
439.52	4919.81
439.70	4994.70
439.89	4997.04
440.08	5071.94
440.26	5064.92
440.45	5067.26
440.63	5317.70
440.82	5174.92
441.01	5130.45
441.19	5261.52
441.38	5359.83
441.57	5226.42
441.75	5406.64
441.94	5631.33
442.12	5472.17
442.31	5530.69
442.50	5490.90
442.68	5399.62
442.87	5507.28
443.05	5572.82
443.24	5657.07
443.43	5591.54
443.61	5664.10
443.80	5703.89
443.98	5500.26
444.17	5528.35
444.35	5802.19
444.54	5811.55
444.73	5708.57
444.91	5692.18
445.10	5703.89
445.28	5886.45
445.47	5806.87
445.65	5856.02
445.84	6029.22
446.02	5893.47
446.21	5722.61
446.39	5846.66
446.58	5809.21
446.77	5895.81
446.95	5671.12
447.14	5980.07
447.32	5879.43
447.51	5860.70
447.69	5963.68
447.88	5902.83
448.06	6054.97
448.25	5884.11
448.43	5816.23
448.62	6017.52
448.80	5844.32
448.99	6090.07
449.17	6026.88
449.36	5989.43
449.54	6235.19
449.73	6272.64
449.91	6106.46
450.10	6186.04
450.28	6289.02
450.46	6134.54
450.65	6218.80
450.83	6239.87
451.02	6303.06
451.20	6324.13
451.39	6338.17
451.57	6284.34
451.76	6399.02
451.94	6375.62
452.13	6370.94
452.31	6466.90
452.49	6431.79
452.68	6513.71
452.86	6387.32
453.05	6513.71
453.23	6588.61
453.42	6534.78
453.60	6485.62
453.78	6534.78
453.97	6602.65
454.15	6523.07
454.34	6853.09
454.52	6700.95
454.70	6778.19
454.89	6916.28
455.07	6731.38
455.26	6775.85
455.44	6888.20
455.62	6951.39
455.81	6810.96
455.99	6876.49
456.17	7019.27
456.36	6937.35
456.54	6953.73
456.73	7185.44
456.91	7176.08
457.09	7124.59
457.28	7297.79
457.46	7178.42
457.64	7309.49
457.83	7302.47
458.01	7040.33
458.19	7363.33
458.38	7243.96
458.56	7379.71
458.74	7332.90
458.93	7412.48
459.11	7489.71
459.29	7246.30
459.48	7501.42
459.66	7435.88
459.84	7541.21
460.03	7716.75
460.21	7559.93
460.39	7627.81
460.57	7445.24
460.76	7555.25
460.94	7728.45
461.12	7545.89
461.31	7658.23
461.49	7714.41
461.67	7557.59
461.85	7950.80
462.04	7754.19
462.22	8299.54
462.40	7871.22
462.59	7899.31
462.77	7801.01
462.95	7812.71
463.13	7941.44
463.32	7995.27
463.50	7894.63
463.68	7920.37
463.86	8208.26
464.05	8013.99
464.23	8081.87
464.41	8182.51
464.59	8081.87
464.78	8283.16
464.96	8271.45
465.14	8264.43
465.32	8360.39
465.50	8395.50
465.69	8358.05
465.87	8182.51
466.05	8369.76
466.23	8416.57
466.41	8477.42
466.60	8608.49
466.78	8219.96
466.96	8493.80
467.14	8561.68
467.32	8390.82
467.51	8636.58
467.69	8444.65
467.87	8542.96
468.05	8444.65
468.23	8477.42
468.41	8615.51
468.60	8631.90
468.78	8765.31
468.96	8648.28
469.14	8674.03
469.32	8674.03
469.50	8557.00
469.69	8802.75
469.87	9069.58
470.05	9069.58
470.23	9142.13
470.41	9137.45
470.59	9013.40
470.77	9088.30
470.95	9252.14
471.14	9362.14
471.32	9020.42
471.50	9261.50
471.68	9233.41
471.86	9331.72
472.04	9415.98
472.22	9635.99
472.40	9465.13
472.58	9549.39
472.77	9509.60
472.95	9462.79
473.13	10157.92
473.31	9561.09
473.49	9673.43
473.67	9888.76
473.85	9596.20
474.03	10125.16
474.21	9956.64
474.39	9729.61
474.57	10111.11
474.75	10127.50
474.93	10410.70
475.12	10396.66
475.30	10546.45
475.48	10293.68
475.66	10387.30
475.84	10408.36
476.02	10509.01
476.20	10480.92
476.38	10829.66
476.56	10820.30
476.74	10761.78
476.92	10619.01
477.10	10801.57
477.28	11131.59
477.46	10946.69
477.64	11187.76
477.82	11061.37
478.00	11646.51
478.18	11592.67
478.36	11562.25
478.54	11566.93
478.72	11808.00
478.90	12042.06
479.08	12058.44
479.26	12273.77
479.44	12086.53
479.62	12102.91
479.80	12215.26
479.98	12470.37
480.16	12697.41
480.34	12475.06
480.52	12533.57
480.70	12379.09
480.88	12781.67
481.06	12695.07
481.24	13135.09
481.41	13015.72
481.59	13200.62
481.77	13282.54
481.95	13324.67
482.13	13294.24
482.31	13528.30
482.49	13631.28
482.67	13844.27
482.85	13958.96
483.03	14003.43
483.21	14155.56
483.39	14445.79
483.57	14075.98
483.74	14523.02
483.92	14705.59
484.10	14565.15
484.28	14920.92
484.46	15012.20
484.64	15199.44
484.82	15152.63
485.00	14979.43
485.18	15538.82
485.35	15679.25
485.53	15672.23
485.71	16058.42
485.89	15950.75
486.07	16135.65
486.25	16189.49
486.43	16451.63
486.61	16130.97
486.78	16575.67
486.96	16601.42
487.14	16638.87
487.32	16964.20
487.50	16964.20
487.68	17284.86
487.85	17252.09
488.03	17474.44
488.21	17488.48
488.39	17525.93
488.57	17680.41
488.75	17982.34
488.92	18190.64
489.10	18036.17
489.28	17975.31
489.46	18618.96
489.64	18389.59
489.81	18693.86
489.99	18731.31
490.17	19026.21
490.35	19243.88
490.53	19161.97
490.70	19410.06
490.88	19412.40
491.06	19623.05
491.24	19501.34
491.41	19683.91
491.59	19775.19
491.77	20292.44
491.95	20304.15
492.13	20414.15
492.30	20287.76
492.48	20685.65
492.66	20556.93
492.84	21069.50
493.01	20493.73
493.19	21060.14
493.37	21418.24
493.54	21006.31
493.72	21362.07
493.90	21488.46
494.08	21678.04
494.25	21788.05
494.43	22272.54
494.61	22089.98
494.79	22293.60
494.96	22333.39
495.14	22155.51
495.32	22759.37
495.49	22630.64
495.67	22815.54
495.85	23098.75
496.02	23061.30
496.20	23307.05
496.38	23173.64
496.55	23316.42
496.73	23718.99
496.91	23777.50
497.09	23864.10
497.26	23742.39
497.44	23969.43
497.62	24046.66
497.79	24308.80
497.97	24510.09
498.14	24748.82
498.32	24802.66
498.50	24893.94
498.67	25104.59
498.85	24900.96
499.03	24999.26
499.20	24863.51
499.38	25523.54
499.56	25539.93
499.73	25230.98
499.91	25750.57
500.08	25788.02
500.26	25600.78
500.44	25610.14
500.61	26003.35
500.79	25823.13
500.97	25958.88
501.14	26349.75
501.32	26171.87
501.49	26338.05
501.67	26511.25
501.84	26551.04
502.02	26855.31
502.20	26754.66
502.37	26717.22
502.55	26740.62
502.72	26890.41
502.90	27028.51
503.07	27208.73
503.25	27311.71
503.43	26972.33
503.60	27541.08
503.78	27903.87
503.95	27683.86
504.13	27737.69
504.30	27480.23
504.48	27679.18
504.65	27948.34
504.83	28224.52
505.01	28414.10
505.18	28091.11
505.36	28580.28
505.53	28332.18
505.71	28634.11
505.88	28790.93
506.06	28741.78
506.23	28879.87
506.41	28851.78
506.58	29195.84
506.76	28851.78
506.93	29008.60
507.11	28940.72
507.28	29195.84
507.46	29521.18
507.63	29890.98
507.81	29912.05
507.98	29661.61
508.16	29802.04
508.33	29797.36
508.50	29844.17
508.68	29968.22
508.85	29996.31
509.03	30354.41
509.20	30225.68
509.38	30462.07
509.55	30742.94
509.73	30712.51
509.90	30595.48
510.08	30593.14
510.25	30808.47
510.42	30848.26
510.60	31152.53
510.77	31145.51
510.95	31112.74
511.12	31309.35
511.30	31358.50
511.47	31330.41
511.64	31590.21
511.82	31913.20
511.99	31791.50
512.17	31927.25
512.34	32025.55
512.51	32041.93
512.69	31859.37
512.86	32580.26
513.04	32687.92
513.21	32795.59
513.38	32407.06
513.56	32568.55
513.73	32205.77
513.90	32666.86
514.08	32826.01
514.25	32811.97
514.43	32893.89
514.60	33233.27
514.77	33137.30
514.95	33390.08
515.12	33137.30
515.29	33338.59
515.47	33249.65
515.64	33802.02
515.81	33645.20
515.99	34237.36
516.16	33993.94
516.33	33926.07
516.51	34213.95
516.68	33670.95
516.85	33853.51
517.03	34307.57
517.20	34298.21
517.37	34618.86
517.54	34705.46
517.72	34913.77
517.89	34209.27
518.06	34148.42
518.24	34864.62
518.41	34815.47
518.58	34494.82
518.75	34782.70
518.93	35260.17
519.10	34747.59
519.27	35178.25
519.45	35063.57
519.62	35093.99
519.79	35105.70
519.96	35178.25
520.14	36055.95
520.31	35555.08
520.48	35807.86
520.65	35798.49
520.83	35653.38
521.00	35732.96
521.17	35831.26
521.34	36034.89
521.52	36175.32
521.69	36013.82
521.86	36388.31
522.03	35845.30
522.20	36175.32
522.38	36222.13
522.55	36278.30
522.72	36538.10
522.89	36671.51
523.07	37179.41
523.24	36641.09
523.41	36940.68
523.58	36856.42
523.75	37219.20
523.92	37006.21
524.10	37280.05
524.27	37273.03
524.44	37479.00
524.61	37776.25
524.78	37413.46
524.96	37558.58
525.13	37722.41
525.30	37359.63
525.47	37745.82
525.64	37514.11
525.81	38169.46
525.98	37921.36
526.16	37993.92
526.33	38026.68
526.50	38096.90
526.67	37570.28
526.84	38258.40
527.01	38398.83
527.18	38443.30
527.36	38574.37
527.53	38494.79
527.70	38955.88
527.87	39035.45
528.04	38504.15
528.21	38677.35
528.38	38600.12
528.55	38834.17
528.72	38934.81
528.89	39040.14
529.07	38892.68
529.24	38473.73
529.41	39210.99
529.58	38787.36
529.75	39136.10
529.92	39079.92
530.09	39047.16
530.26	39739.96
530.43	39391.22
530.60	39108.01
530.77	39250.78
530.94	39693.15
531.11	39440.37
531.28	39328.02
531.46	39723.57
531.63	39817.19
531.80	40107.42
531.97	39882.73
532.14	39838.26
532.31	39660.38
532.48	39990.39
532.65	39856.98
532.82	39772.72
532.99	40423.39
533.16	40081.67
533.33	40568.51
533.50	41043.63
533.67	40439.78
533.84	40222.11
534.01	40664.47
534.18	40189.34
534.35	40421.05
534.52	40861.07
534.69	40816.60
534.86	41284.71
535.03	40584.89
535.20	40830.65
535.37	41422.80
535.54	41010.87
535.71	40507.65
535.88	41134.92
536.05	40865.75
536.22	41486.00
536.38	41237.90
536.55	41268.33
536.72	41537.49
536.89	41287.05
537.06	41860.48
537.23	41893.25
537.40	41560.89
537.57	41265.99
537.74	41528.13
537.91	41886.23
538.08	42202.20
538.25	41553.87
538.42	41949.42
538.59	41996.23
538.75	41858.14
538.92	42333.27
539.09	41764.52
539.26	42087.51
539.43	42286.46
539.60	42218.58
539.77	42359.02
539.94	42637.54
540.11	42293.48
540.28	42033.68
540.44	42497.11
540.61	42485.40
540.78	42422.21
540.95	42696.05
541.12	42981.60
541.29	42749.88
541.46	42529.87
541.62	42815.42
541.79	42440.93
541.96	42150.71
542.13	42937.13
542.30	42925.42
542.47	43192.25
542.63	42981.60
542.80	43159.48
542.97	42859.89
543.14	43372.47
543.31	42899.68
543.48	43271.82
543.64	43927.17
543.81	43775.04
543.98	43849.94
544.15	43749.29
544.32	44194.00
544.48	43962.28
544.65	43372.47
544.82	43622.90
544.99	44112.08
545.16	44044.20
545.32	43852.28
545.49	44278.25
545.66	43798.44
545.83	44669.12
546.00	44348.47
546.16	43512.90
546.33	44172.93
546.50	43751.63
546.67	44238.47
546.83	43426.30
547.00	44175.27
547.17	44100.37
547.34	44428.05
547.50	44011.43
547.67	44589.55
547.84	44498.26
548.00	44683.17
548.17	44694.87
548.34	44514.65
548.51	44753.38
548.67	44933.60
548.84	45076.38
549.01	44584.86
549.18	44879.77
549.34	45013.18
549.51	44617.63
549.68	44811.90
549.84	44512.31
550.01	45460.23
550.18	45013.18
550.34	45200.43
550.51	45097.44
550.68	44631.68
550.84	45034.25
551.01	45500.01
551.18	44671.46
551.34	44992.12
551.51	45595.98
551.68	45036.59
551.84	45649.81
552.01	45319.79
552.18	45352.56
552.34	45219.15
552.51	45785.56
552.68	45708.32
552.84	45375.97
553.01	45752.79
553.18	45567.89
553.34	45874.50
553.51	45825.35
553.67	45979.82
553.84	46237.28
554.01	45621.72
554.17	45537.46
554.34	45780.88
554.51	45603.00
554.67	46373.03
554.84	45902.59
555.00	46192.81
555.17	45722.37
555.33	46506.44
555.50	45933.01
555.67	46000.89
555.83	45963.44
556.00	45911.95
556.16	46436.23
556.33	46113.23
556.50	46312.18
556.66	45979.82
556.83	46103.87
556.99	46464.32
557.16	46653.90
557.32	46281.75
557.49	46410.48
557.65	46267.71
557.82	46354.31
557.98	46600.07
558.15	46349.63
558.32	46230.26
558.48	46799.01
558.65	46597.73
558.81	46499.42
558.98	46607.09
559.14	46401.12
559.31	46756.88
559.47	46560.28
559.64	46450.27
559.80	46653.90
559.97	46993.28
560.13	46857.52
560.30	47164.14
560.46	47030.72
560.63	47037.75
560.79	46684.33
560.96	47147.75
561.12	46637.51
561.29	46707.73
561.45	46894.97
561.61	47126.69
561.78	47107.96
561.94	46993.28
562.11	46995.62
562.27	46923.06
562.44	46834.12
562.60	46806.03
562.77	47138.39
562.93	47239.03
563.10	47508.19
563.26	47182.86
563.42	47295.21
563.59	46962.85
563.75	47421.59
563.92	47220.31
564.08	47334.99
564.24	47428.62
564.41	47576.07
564.57	46841.14
564.74	47407.55
564.90	47543.30
565.07	47669.69
565.23	47763.31
565.39	47714.16
565.56	47519.90
565.72	47290.52
565.88	47194.56
566.05	47295.21
566.21	46920.72
566.38	47533.94
566.54	47456.70
566.70	47800.76
566.87	47618.20
567.03	47482.45
567.19	48095.67
567.36	47655.65
567.52	47370.10
567.68	47767.99
567.85	47437.98
568.01	47374.78
568.17	47686.07
568.34	47569.05
568.50	47526.92
568.66	47767.99
568.83	47669.69
568.99	47442.66
569.15	47767.99
569.32	47384.15
569.48	47751.61
569.64	48121.41
569.81	47681.39
569.97	47688.42
570.13	47625.22
570.30	47545.64
570.46	47665.01
570.62	47489.47
570.78	47550.32
570.95	47271.80
571.11	47433.30
571.27	47316.27
571.43	47407.55
571.60	47805.44
571.76	47936.51
571.92	48055.88
572.09	47950.56
572.25	48088.65
572.41	47938.85
572.57	47772.67
572.74	48114.39
572.90	47955.24
573.06	47709.48
573.22	47452.02
573.38	47997.37
573.55	47796.08
573.71	47964.60
573.87	48086.31
574.03	47817.14
574.20	47693.10
574.36	47395.85
574.52	47767.99
574.68	47739.91
574.84	47878.00
575.01	47718.84
575.17	48210.35
575.33	47880.34
575.49	48053.54
575.65	47978.64
575.82	48280.57
575.98	47739.91
576.14	48280.57
576.30	47908.43
576.46	48554.41
576.62	47789.06
576.79	47885.02
576.95	47941.19
577.11	48072.26
577.27	47784.38
577.43	48516.96
577.59	48196.31
577.75	48212.70
577.92	47327.97
578.08	47882.68
578.24	47716.50
578.40	47988.00
578.56	47899.06
578.72	48133.12
578.88	48453.77
579.04	48453.77
579.21	47966.94
579.37	47807.78
579.53	48182.27
579.69	47796.08
579.85	48193.97
580.01	48076.94
580.17	47966.94
580.33	48027.79
580.49	48339.08
580.65	48076.94
580.82	48449.09
580.98	48140.14
581.14	47988.00
581.30	48318.02
581.46	48184.61
581.62	48025.45
581.78	48285.25
581.94	48079.28
582.10	47707.14
582.26	48086.31
582.42	47906.08
582.58	48137.80
582.74	48622.29
582.90	48493.56
583.06	48325.04
583.22	48158.86
583.38	48189.29
583.54	48147.16
583.70	47913.11
583.86	48322.70
584.02	48016.09
584.18	48428.02
584.34	48264.19
584.50	48559.09
584.66	48542.71
584.82	47725.86
584.98	48224.40
585.14	48200.99
585.30	48133.12
585.46	48273.55
585.62	48126.10
585.78	48664.42
585.94	47948.21
586.10	48196.31
586.26	48030.13
586.42	48514.62
586.58	48250.14
586.74	48369.51
586.90	47990.34
587.06	48032.47
587.22	48381.21
587.38	47978.64
587.54	48320.36
587.70	48636.33
587.86	48413.98
588.02	48521.65
588.18	48673.78
588.34	48289.93
588.49	48196.31
588.65	48318.02
588.81	48179.93
588.97	48280.57
589.13	48285.25
589.29	48327.38
589.45	48706.55
589.61	48369.51
589.77	48428.02
589.93	48835.28
590.08	48624.63
590.24	48861.02
590.40	48694.85
590.56	48788.47
