SpectraSuite Data File
++++++++++++++++++++++++++++++++++++
Date: Fri Oct 04 11:48:41 GMT-05:00 2013
User: price-jones
Dark Spectrum Present: No
Reference Spectrum Present: No
Number of Sampled Component Spectra: 1
Spectrometers: USB2+H05261
Integration Time (usec): 100000 (USB2+H05261)
Spectra Averaged: 1 (USB2+H05261)
Boxcar Smoothing: 0 (USB2+H05261)
Correct for Electrical Dark: No (USB2+H05261)
Strobe/Lamp Enabled: No (USB2+H05261)
Correct for Detector Non-linearity: No (USB2+H05261)
Correct for Stray Light: No (USB2+H05261)
Number of Pixels in Processed Spectrum: 2048
>>>>>Begin Processed Spectral Data<<<<<
365.73	0.00
365.92	0.00
366.12	0.00
366.32	0.00
366.52	0.00
366.72	0.00
366.91	0.00
367.11	0.00
367.31	0.00
367.51	0.00
367.70	0.00
367.90	0.00
368.10	0.00
368.30	0.00
368.49	0.00
368.69	0.00
368.89	0.00
369.09	0.00
369.28	0.00
369.48	0.00
369.68	0.00
369.87	0.00
370.07	0.00
370.27	16.38
370.47	98.30
370.66	292.57
370.86	337.04
371.06	245.76
371.25	369.80
371.45	397.89
371.65	433.00
371.84	306.61
372.04	372.15
372.24	388.53
372.44	461.09
372.63	437.68
372.83	547.69
373.03	458.74
373.22	425.98
373.42	533.64
373.62	507.90
373.81	468.11
374.01	447.04
374.21	505.56
374.40	510.24
374.60	547.69
374.79	491.51
374.99	561.73
375.19	580.45
375.38	435.34
375.58	510.24
375.78	524.28
375.97	580.45
376.17	568.75
376.37	561.73
376.56	613.22
376.76	545.34
376.95	554.71
377.15	620.24
377.35	528.96
377.54	575.77
377.74	573.43
377.93	617.90
378.13	648.33
378.33	650.67
378.52	566.41
378.72	655.35
378.91	627.26
379.11	578.11
379.31	596.84
379.50	599.18
379.70	620.24
379.89	704.50
380.09	573.43
380.28	624.92
380.48	667.05
380.68	564.07
380.87	664.71
381.07	713.86
381.26	725.57
381.46	645.99
381.65	690.46
381.85	676.41
382.04	746.63
382.24	608.54
382.43	688.12
382.63	648.33
382.83	706.84
383.02	816.85
383.22	734.93
383.41	692.80
383.61	777.06
383.80	744.29
384.00	795.78
384.19	809.83
384.39	734.93
384.58	685.78
384.78	716.20
384.97	758.33
385.17	856.64
385.36	840.25
385.56	763.01
385.75	730.25
385.95	823.87
386.14	807.48
386.34	821.53
386.53	844.93
386.72	730.25
386.92	833.23
387.11	870.68
387.31	809.83
387.50	814.51
387.70	723.23
387.89	777.06
388.09	856.64
388.28	863.66
388.48	896.43
388.67	959.62
388.86	908.13
389.06	814.51
389.25	931.53
389.45	837.91
389.64	950.26
389.84	1001.75
390.03	1004.09
390.22	922.17
390.42	929.19
390.61	917.49
390.81	983.02
391.00	999.41
391.19	1011.11
391.39	980.68
391.58	910.47
391.78	1057.92
391.97	980.68
392.16	947.92
392.36	1025.15
392.55	1018.13
392.75	1078.99
392.94	1004.09
393.13	1116.44
393.33	1090.69
393.52	1116.44
393.71	1139.84
393.91	1069.62
394.10	1036.86
394.29	1132.82
394.49	1123.46
394.68	1095.37
394.88	1116.44
395.07	1174.95
395.26	1179.63
395.46	1193.67
395.65	1217.08
395.84	1256.87
396.04	1249.85
396.23	1224.10
396.42	1261.55
396.62	1308.36
396.81	1254.53
397.00	1291.98
397.19	1231.12
397.39	1200.69
397.58	1280.27
397.77	1268.57
397.97	1280.27
398.16	1306.02
398.35	1409.00
398.55	1401.98
398.74	1341.13
398.93	1369.21
399.12	1411.34
399.32	1380.92
399.51	1334.11
399.70	1434.75
399.90	1446.45
400.09	1455.81
400.28	1514.33
400.47	1530.71
400.67	1537.73
400.86	1481.56
401.05	1472.20
401.24	1624.33
401.44	1652.42
401.63	1490.92
401.82	1516.67
402.01	1596.25
402.21	1685.19
402.40	1596.25
402.59	1547.09
402.78	1739.02
402.97	1624.33
403.17	1703.91
403.36	1624.33
403.55	1717.95
403.74	1729.66
403.93	1689.87
404.13	1722.63
404.32	1776.47
404.51	1706.25
404.70	1827.96
404.89	1771.79
405.09	1914.56
405.28	1809.23
405.47	1926.26
405.66	2008.18
405.85	1949.67
406.05	1816.26
406.24	1949.67
406.43	1952.01
406.62	1933.28
406.81	1996.48
407.00	1956.69
407.20	1867.75
407.39	1994.14
407.58	2029.24
407.77	1902.86
407.96	2052.65
408.15	2111.16
408.34	2176.70
408.54	2155.63
408.73	2134.57
408.92	2150.95
409.11	2307.77
409.30	2326.49
409.49	2160.31
409.68	2275.00
409.87	2221.17
410.07	2401.39
410.26	2249.25
410.45	2310.11
410.64	2275.00
410.83	2408.41
411.02	2286.70
411.21	2464.58
411.40	2462.24
411.59	2516.08
411.78	2394.37
411.98	2312.45
412.17	2487.99
412.36	2532.46
412.55	2502.03
412.74	2663.53
412.93	2588.63
413.12	2621.40
413.31	2787.58
413.50	2759.49
413.69	2827.37
413.88	2743.11
414.07	2806.30
414.26	2881.20
414.45	2832.05
414.64	2785.24
414.83	2911.63
415.02	2862.48
415.22	2970.14
415.41	2972.48
415.60	3045.04
415.79	3047.38
415.98	3141.00
416.17	3087.17
416.36	3108.23
416.55	3173.77
416.74	3183.13
416.93	3276.75
417.12	3208.87
417.31	3297.81
417.50	3225.26
417.69	3361.01
417.88	3492.08
418.07	3442.93
418.26	3417.18
418.45	3445.27
418.64	3433.57
418.83	3459.31
419.02	3461.65
419.21	3459.31
419.39	3641.87
419.58	3419.52
419.77	3485.06
419.96	3639.53
420.15	3480.38
420.34	3595.06
420.53	3655.92
420.72	3695.71
420.91	3714.43
421.10	3772.94
421.29	3815.07
421.48	3684.00
421.67	3859.54
421.86	3868.91
422.05	3744.86
422.24	3810.39
422.43	3852.52
422.61	3850.18
422.80	3768.26
422.99	3850.18
423.18	3925.08
423.37	3824.44
423.56	3929.76
423.75	3960.19
423.94	3911.04
424.13	3620.81
424.32	3789.33
424.50	3913.38
424.69	4035.08
424.88	3950.82
425.07	3674.64
425.26	3946.14
425.45	3817.41
425.64	3896.99
425.83	3861.88
426.01	4016.36
426.20	4002.32
426.39	4002.32
426.58	3955.51
426.77	3990.61
426.96	4011.68
427.15	4016.36
427.33	4154.45
427.52	4105.30
427.71	4250.41
427.90	4046.79
428.09	4344.03
428.28	4152.11
428.46	4285.52
428.65	4308.93
428.84	4280.84
429.03	4334.67
429.22	4273.82
429.40	4320.63
429.59	4372.12
429.78	4229.35
429.97	4109.98
430.16	4238.71
430.34	4517.23
430.53	4458.72
430.72	4571.07
430.91	4376.80
431.10	4437.66
431.28	4360.42
431.47	4622.56
431.66	4669.37
431.85	4407.23
432.03	4791.08
432.22	4737.24
432.41	4739.58
432.60	4784.06
432.79	4702.14
432.97	4746.61
433.16	4760.65
433.35	4788.74
433.54	4755.97
433.72	4723.20
433.91	4793.42
434.10	4882.36
434.28	4851.93
434.47	4896.40
434.66	5001.72
434.85	4975.98
435.03	4873.00
435.22	4898.74
435.41	5111.73
435.59	5097.69
435.78	5174.92
435.97	5071.94
436.16	5142.16
436.34	5135.14
436.53	5128.11
436.72	5200.67
436.90	5203.01
437.09	5270.89
437.28	5064.92
437.46	5191.31
437.65	5221.74
437.84	5446.43
438.02	5240.46
438.21	5357.49
438.40	5156.20
438.58	5497.92
438.77	5582.18
438.96	5397.28
439.14	5612.60
439.33	5713.25
439.52	5820.91
439.70	5884.11
439.89	5806.87
440.08	5764.74
440.26	5797.51
440.45	5912.19
440.63	5914.53
440.82	6026.88
441.01	5996.45
441.19	6033.90
441.38	6293.70
441.57	6237.53
441.75	6202.42
441.94	6279.66
442.12	6319.45
442.31	6406.05
442.50	6352.21
442.68	6310.08
442.87	6277.32
443.05	6441.15
443.24	6541.80
443.43	6633.08
443.61	6314.77
443.80	6754.79
443.98	6417.75
444.17	6289.02
444.35	6761.81
444.54	6689.25
444.73	6558.18
444.91	6569.88
445.10	6609.67
445.28	6813.30
445.47	6630.74
445.65	6523.07
445.84	6726.70
446.02	6813.30
446.21	6682.23
446.39	6705.63
446.58	6710.32
446.77	6836.70
446.95	6675.21
447.14	6558.18
447.32	6890.54
447.51	6565.20
447.69	6745.42
447.88	6747.76
448.06	6773.51
448.25	6670.53
448.43	6806.28
448.62	6925.65
448.80	6918.62
448.99	6787.55
449.17	6904.58
449.36	6904.58
449.54	7014.59
449.73	7157.36
449.91	7070.76
450.10	7119.91
450.28	7070.76
450.46	7138.63
450.65	7119.91
450.83	7213.53
451.02	7040.33
451.20	7335.24
451.39	7403.11
451.57	7131.61
451.76	7328.22
451.94	7403.11
452.13	7145.66
452.31	7485.03
452.49	7414.82
452.68	7489.71
452.86	7382.05
453.05	7494.40
453.23	7576.31
453.42	7438.22
453.60	7480.35
453.78	7555.25
453.97	7674.62
454.15	7611.42
454.34	7342.26
454.52	7784.62
454.70	7480.35
454.89	7744.83
455.07	7765.90
455.26	7885.26
455.44	7812.71
455.62	7981.23
455.81	7918.03
455.99	7817.39
456.17	8072.51
456.36	8152.09
456.54	8145.06
456.73	8124.00
456.91	8255.07
457.09	8318.26
457.28	8393.16
457.46	8140.38
457.64	8526.57
457.83	8599.13
458.01	8257.41
458.19	8446.99
458.38	8425.93
458.56	8812.12
458.74	8479.76
458.93	8430.61
459.11	8414.23
459.29	8617.85
459.48	8669.34
459.66	8571.04
459.84	8737.22
460.03	8865.95
460.21	8568.70
460.39	8791.05
460.57	8751.26
460.76	8877.65
460.94	8762.97
461.12	8938.51
461.31	8926.80
461.49	8835.52
461.67	8863.61
461.85	9170.22
462.04	9071.92
462.22	9598.54
462.40	9226.39
462.59	9291.93
462.77	9284.91
462.95	9338.74
463.13	9411.29
463.32	9291.93
463.50	9476.83
463.68	9331.72
463.86	9242.78
464.05	9090.64
464.23	9387.89
464.41	9231.07
464.59	9352.78
464.78	9596.20
464.96	9504.92
465.14	9551.73
465.32	9610.24
465.50	9781.10
465.69	9521.30
465.87	9727.27
466.05	9518.96
466.23	9666.41
466.41	9799.82
466.60	10094.73
466.78	9612.58
466.96	9888.76
467.14	9729.61
467.32	9797.48
467.51	10005.79
467.69	9921.53
467.87	10193.03
468.05	10047.92
468.23	10008.13
468.41	9998.77
468.60	10029.20
468.78	10291.34
468.96	9912.17
469.14	10045.58
469.32	10335.81
469.50	9884.08
469.69	10235.16
469.87	10473.90
470.05	10389.64
470.23	10523.05
470.41	10356.87
470.59	10480.92
470.77	10361.55
470.95	10532.41
471.14	10768.80
471.32	10509.01
471.50	11002.86
471.68	10836.68
471.86	10888.17
472.04	11049.67
472.22	11103.50
472.40	10869.45
472.58	11166.70
472.77	11304.79
472.95	11136.27
473.13	11255.64
473.31	11157.33
473.49	11236.91
473.67	11421.81
473.85	11400.75
474.03	11506.07
474.21	11651.19
474.39	11798.64
474.57	11508.41
474.75	12002.27
474.93	11758.85
475.12	11962.48
475.30	11932.05
475.48	12035.03
475.66	12315.90
475.84	12308.88
476.02	12196.53
476.20	12152.06
476.38	12332.28
476.56	12807.41
476.74	12475.06
476.92	12800.39
477.10	12952.52
477.28	13067.21
477.46	13067.21
477.64	13151.47
477.82	13212.32
478.00	13518.93
478.18	13490.85
478.36	13570.43
478.54	13584.47
478.72	13598.51
478.90	13865.33
479.08	14092.37
479.26	14242.16
479.44	14064.28
479.62	14153.22
479.80	14235.14
479.98	14480.89
480.16	14413.02
480.34	14658.78
480.52	14885.81
480.70	14902.19
480.88	14679.84
481.06	15225.18
481.24	14857.72
481.41	15279.02
481.59	15583.29
481.77	15681.59
481.95	15681.59
482.13	15915.64
482.31	15791.59
482.49	15992.88
482.67	15995.22
482.85	16306.51
483.03	16259.70
483.21	16435.24
483.39	16795.68
483.57	16699.72
483.74	17074.21
483.92	16971.22
484.10	17135.06
484.28	17261.45
484.46	17455.72
484.64	17944.89
484.82	17584.44
485.00	17895.74
485.18	18209.37
485.35	18094.68
485.53	18356.82
485.71	18696.20
485.89	18628.32
486.07	18527.68
486.25	18373.21
486.43	18890.46
486.61	19040.26
486.78	19229.84
486.96	19147.92
487.14	19522.41
487.32	19681.56
487.50	19971.79
487.68	20065.41
487.85	19974.13
488.03	20477.35
488.21	20652.89
488.39	20662.25
488.57	20732.47
488.75	21113.97
488.92	21317.60
489.10	21301.22
489.28	21678.04
489.46	21509.52
489.64	21834.86
489.81	21991.67
489.99	21923.80
490.17	22232.75
490.35	22731.28
490.53	22731.28
490.70	22726.60
490.88	22806.18
491.06	23005.13
491.24	23028.53
491.41	23300.03
491.59	23154.92
491.77	23487.28
491.95	23967.09
492.13	23946.02
492.30	24086.45
492.48	24060.71
492.66	24261.99
492.84	24002.19
493.01	24685.63
493.19	24414.13
493.37	24805.00
493.54	24678.61
493.72	25359.70
493.90	25081.18
494.08	25025.01
494.25	25633.55
494.43	25687.38
494.61	26204.64
494.79	25729.51
494.96	26078.25
495.14	26434.01
495.32	26670.40
495.49	26548.70
495.67	26932.54
495.85	26892.76
496.02	27454.48
496.20	26972.33
496.38	27269.58
496.55	27740.03
496.73	27810.25
496.91	27625.34
497.09	28123.88
497.26	27920.25
497.44	28006.85
497.62	27871.10
497.79	28507.72
497.97	28306.44
498.14	29186.48
498.32	29282.44
498.50	29099.88
498.67	29427.56
498.85	29046.05
499.03	29373.72
499.20	29511.81
499.38	29923.75
499.56	29862.90
499.73	30075.88
499.91	29841.83
500.08	30082.91
500.26	29827.79
500.44	30223.34
500.61	30536.97
500.79	30464.41
500.97	30675.06
501.14	30918.48
501.32	31192.32
501.49	30993.37
501.67	30965.29
501.84	31269.56
502.02	31328.07
502.20	31728.30
502.37	31299.98
502.55	31662.77
502.72	31913.20
502.90	31901.50
503.07	31660.43
503.25	32201.09
503.43	32130.87
503.60	32355.57
503.78	32498.34
503.95	32318.12
504.13	32804.95
504.30	32917.29
504.48	32744.09
504.65	32870.48
504.83	33490.73
505.01	33500.09
505.18	33261.35
505.36	33610.09
505.53	33165.39
505.71	33469.66
505.88	33614.77
506.06	33436.89
506.23	33986.92
506.41	33638.18
506.58	34305.23
506.76	34129.69
506.93	34637.59
507.11	34511.20
507.28	34518.22
507.46	34740.57
507.63	34742.91
507.81	34810.79
507.98	34836.53
508.16	35070.59
508.33	35058.88
508.50	35047.18
508.68	35519.97
508.85	35122.08
509.03	35505.93
509.20	35674.45
509.38	35945.95
509.55	36105.10
509.73	35882.75
509.90	35857.01
510.08	36149.57
510.25	36346.18
510.42	36196.38
510.60	36432.78
510.77	36636.41
510.95	36753.43
511.12	36514.70
511.30	36940.68
511.47	37074.09
511.64	36772.16
511.82	37516.45
511.99	37373.67
512.17	37731.78
512.34	37448.57
512.51	37420.48
512.69	37624.11
512.86	37933.06
513.04	38223.29
513.21	37968.17
513.38	38319.25
513.56	38567.35
513.73	38181.16
513.90	38333.29
514.08	38256.06
514.25	38223.29
514.43	38417.55
514.60	38806.08
514.77	38778.00
514.95	39201.63
515.12	38646.93
515.29	38920.77
515.47	39426.32
515.64	39452.07
515.81	39372.49
515.99	39789.11
516.16	39859.32
516.33	39854.64
516.51	39882.73
516.68	39604.20
516.85	39913.16
517.03	40030.18
517.20	40512.33
517.37	40334.45
517.54	40570.85
517.72	40357.86
517.89	40294.66
518.06	40048.91
518.24	40385.94
518.41	40521.69
518.58	40774.47
518.75	40924.27
518.93	40952.35
519.10	40811.92
519.27	41170.02
519.45	41127.89
519.62	40751.07
519.79	41240.24
519.96	41535.15
520.14	42117.94
520.31	41755.16
520.48	42417.53
520.65	41792.61
520.83	41951.76
521.00	41956.44
521.17	41883.89
521.34	42054.75
521.52	42064.11
521.69	42429.23
521.86	42192.84
522.03	42583.71
522.20	42635.20
522.38	42539.24
522.55	42485.40
522.72	42981.60
522.89	42590.73
523.07	43379.49
523.24	42960.53
523.41	43220.33
523.58	43363.11
523.75	43311.61
523.92	42941.81
524.10	43180.54
524.27	43477.79
524.44	43903.77
524.61	44390.60
524.78	43798.44
524.96	43863.98
525.13	43398.21
525.30	43906.11
525.47	44198.68
525.64	44329.75
525.81	44458.48
525.98	44044.20
526.16	44470.18
526.33	44414.01
526.50	44945.31
526.67	44325.07
526.84	44587.21
527.01	44392.94
527.18	44598.91
527.36	44996.80
527.53	44893.82
527.70	45748.11
527.87	45303.41
528.04	44828.28
528.21	45230.85
528.38	45038.93
528.55	45118.51
528.72	45394.69
528.89	45455.54
529.07	45453.20
529.24	45319.79
529.41	45689.60
529.58	45792.58
529.75	45413.41
529.92	45844.07
530.09	45703.64
530.26	45869.82
530.43	45577.25
530.60	45979.82
530.77	45904.93
530.94	46251.33
531.11	45705.98
531.28	46122.60
531.46	46157.70
531.63	46330.90
531.80	46602.41
531.97	46698.37
532.14	46911.36
532.31	46162.39
532.48	46237.28
532.65	46803.69
532.82	46557.94
532.99	47327.97
533.16	46586.02
533.33	47398.19
533.50	47435.64
533.67	47349.04
533.84	47107.96
534.01	47260.10
534.18	46920.72
534.35	47524.58
534.52	47206.26
534.69	47487.13
534.86	47611.18
535.03	47468.40
535.20	47767.99
535.37	47540.96
535.54	47702.46
535.71	47477.77
535.88	47791.40
536.05	47407.55
536.22	48102.69
536.38	48240.78
536.55	47913.11
536.72	48034.81
536.89	47969.28
537.06	47840.55
537.23	48254.82
537.40	48385.89
537.57	48041.84
537.74	48046.52
537.91	48521.65
538.08	48875.07
538.25	48250.14
538.42	48383.55
538.59	48725.27
538.75	48299.30
538.92	48519.31
539.09	48947.62
539.26	49092.74
539.43	48648.03
539.60	49127.84
539.77	48603.56
539.94	49083.37
540.11	48711.23
540.28	48896.13
540.44	48945.28
540.61	49226.15
540.78	48825.92
540.95	49528.08
541.12	49338.49
541.29	49446.16
541.46	49343.17
541.62	48884.43
541.79	49504.67
541.96	49069.33
542.13	49776.17
542.30	50026.61
542.47	49888.52
542.63	49848.73
542.80	50054.70
542.97	49982.14
543.14	50141.30
543.31	49907.24
543.48	49787.88
543.64	50344.92
543.81	50349.60
543.98	50298.11
544.15	50557.91
544.32	50614.08
544.48	50335.56
544.65	50471.31
544.82	50122.57
544.99	50415.14
545.16	50642.17
545.32	50621.11
545.49	50766.22
545.66	50885.59
545.83	50944.10
546.00	51047.08
546.16	50859.84
546.33	50628.13
546.50	50438.54
546.67	51136.02
546.83	50358.97
547.00	51037.72
547.17	50646.85
547.34	50979.21
547.50	50827.07
547.67	50986.23
547.84	51040.06
548.00	50948.78
548.17	51227.31
548.34	51208.58
548.51	51648.60
548.67	51323.27
548.84	51344.33
549.01	51297.52
549.18	51454.34
549.34	51529.23
549.51	51459.02
549.68	51332.63
549.84	51608.81
550.01	51519.87
550.18	51323.27
550.34	51627.54
550.51	51913.08
550.68	51767.97
550.84	51409.87
551.01	51672.01
551.18	51643.92
551.34	51585.41
551.51	51655.62
551.68	52006.70
551.84	52144.80
552.01	51971.60
552.18	52282.89
552.34	52027.77
552.51	52388.21
552.68	51931.81
552.84	52069.90
553.01	52287.57
553.18	52238.42
553.34	52245.44
553.51	52549.71
553.67	52404.59
553.84	52776.74
554.01	52467.79
554.17	52367.15
554.34	52385.87
554.51	52329.70
554.67	52687.80
554.84	52718.23
555.00	52542.69
555.17	52538.01
555.33	52666.73
555.50	52334.38
555.67	52530.98
555.83	52552.05
556.00	52512.26
556.16	53003.77
556.33	52708.86
556.50	52711.20
556.66	52626.95
556.83	52488.85
556.99	53256.55
557.16	53099.73
557.32	52942.92
557.49	53013.13
557.65	52456.09
557.82	52598.86
557.98	53097.39
558.15	52928.87
558.32	53099.73
558.48	52882.06
558.65	53085.69
558.81	53317.40
558.98	53148.88
559.14	53212.08
559.31	53137.18
559.47	53158.25
559.64	53392.30
559.80	53359.53
559.97	53378.26
560.13	53048.24
560.30	53055.26
560.46	53045.90
560.63	53174.63
560.79	53340.81
560.96	53453.15
561.12	52947.60
561.29	53193.36
561.45	53132.50
561.61	53312.72
561.78	53350.17
561.94	53394.64
562.11	53333.79
562.27	53357.19
562.44	53195.70
562.60	53371.24
562.77	53654.44
562.93	53411.02
563.10	53464.86
563.26	53591.25
563.42	53907.22
563.59	53626.35
563.75	53474.22
563.92	53727.00
564.08	53478.90
564.24	53563.16
564.41	53329.11
564.57	53474.22
564.74	53762.11
564.90	53698.91
565.07	53918.92
565.23	54047.65
565.39	53722.32
565.56	53521.03
565.72	53382.94
565.88	53532.73
566.05	53401.66
566.21	53743.38
566.38	53530.39
566.54	53890.83
566.70	53916.58
566.87	53902.54
567.03	53741.04
567.19	54124.89
567.36	53928.28
567.52	53818.28
567.68	54157.66
567.85	53605.29
568.01	53811.26
568.17	53944.67
568.34	53986.80
568.50	54073.40
568.66	53914.24
568.83	54307.45
568.99	53881.47
569.15	53904.88
569.32	53993.82
569.48	53759.76
569.64	53935.30
569.81	53881.47
569.97	53897.86
570.13	54375.33
570.30	54188.08
570.46	53958.71
570.62	53951.69
570.78	53902.54
570.95	53909.56
571.11	53755.08
571.27	54019.56
571.43	53998.50
571.60	54335.54
571.76	54209.15
571.92	54160.00
572.09	54167.02
572.25	54195.10
572.41	54106.16
572.57	54218.51
572.74	53991.48
572.90	53893.18
573.06	54010.20
573.22	54061.69
573.38	54344.90
573.55	54152.97
573.71	54515.76
573.87	54300.43
574.03	54052.33
574.20	54188.08
574.36	54232.55
574.52	54447.88
574.68	54277.02
574.84	54270.00
575.01	54487.67
575.17	54337.88
575.33	54389.37
575.49	54459.58
575.65	54560.23
575.82	54494.69
575.98	54190.42
576.14	54705.34
576.30	54452.56
576.46	54155.32
576.62	54181.06
576.79	54167.02
576.95	54398.73
577.11	54209.15
577.27	54396.39
577.43	54466.61
577.59	54745.13
577.75	54461.93
577.92	54094.46
578.08	54248.94
578.24	54302.77
578.40	54363.62
578.56	54288.73
578.72	54422.14
578.88	54557.89
579.04	54354.26
579.21	54410.43
579.37	54246.60
579.53	54752.15
579.69	54082.76
579.85	54291.07
580.01	54160.00
580.17	54298.09
580.33	54431.50
580.49	54504.06
580.65	54679.60
580.82	54644.49
580.98	54248.94
581.14	54464.27
581.30	54784.92
581.46	54398.73
581.62	54370.64
581.78	54415.11
581.94	54270.00
582.10	54384.69
582.26	54726.41
582.42	54501.71
582.58	54911.31
582.74	54763.85
582.90	54724.07
583.06	54681.94
583.22	54504.06
583.38	54396.39
583.54	54527.46
583.70	54595.34
583.86	54571.93
584.02	54658.53
584.18	54401.07
584.34	54721.72
584.50	54871.52
584.66	54536.82
584.82	54522.78
584.98	54567.25
585.14	54677.25
585.30	54635.13
585.46	54405.75
585.62	54621.08
585.78	54742.79
585.94	54216.17
586.10	54756.83
586.26	54480.65
586.42	54997.91
586.58	54925.35
586.74	54646.83
586.90	54494.69
587.06	54494.69
587.22	54798.96
587.38	54635.13
587.54	54857.48
587.70	54614.06
587.86	54571.93
588.02	54712.36
588.18	54838.75
588.34	54855.14
588.49	54630.44
588.65	54602.36
588.81	54777.90
588.97	54632.78
589.13	54698.32
589.29	54763.85
589.45	54890.24
589.61	55084.51
589.77	54749.81
589.93	55042.38
590.08	54972.16
