SpectraSuite Data File
++++++++++++++++++++++++++++++++++++
Date: Fri Oct 04 11:48:44 GMT-05:00 2013
User: price-jones
Dark Spectrum Present: No
Reference Spectrum Present: No
Number of Sampled Component Spectra: 1
Spectrometers: USB2+H05261
Integration Time (usec): 100000 (USB2+H05261)
Spectra Averaged: 1 (USB2+H05261)
Boxcar Smoothing: 0 (USB2+H05261)
Correct for Electrical Dark: No (USB2+H05261)
Strobe/Lamp Enabled: No (USB2+H05261)
Correct for Detector Non-linearity: No (USB2+H05261)
Correct for Stray Light: No (USB2+H05261)
Number of Pixels in Processed Spectrum: 2048
>>>>>Begin Processed Spectral Data<<<<<
365.73	0.00
365.92	0.00
366.12	0.00
366.32	0.00
366.52	0.00
366.72	0.00
366.91	0.00
367.11	0.00
367.31	0.00
367.51	0.00
367.70	9.36
367.90	0.00
368.10	0.00
368.30	0.00
368.49	0.00
368.69	0.00
368.89	0.00
369.09	0.00
369.28	2.34
369.48	0.00
369.68	0.00
369.87	23.41
370.07	0.00
370.27	98.30
370.47	212.99
370.66	540.66
370.86	566.41
371.06	751.31
371.25	599.18
371.45	538.32
371.65	599.18
371.84	615.56
372.04	650.67
372.24	685.78
372.44	641.31
372.63	718.54
372.83	765.36
373.03	706.84
373.22	704.50
373.42	763.01
373.62	664.71
373.81	770.04
374.01	826.21
374.21	833.23
374.40	795.78
374.60	849.61
374.79	819.19
374.99	809.83
375.19	840.25
375.38	863.66
375.58	851.96
375.78	837.91
375.97	814.51
376.17	973.66
376.37	926.85
376.56	1039.20
376.76	856.64
376.95	898.77
377.15	875.36
377.35	931.53
377.54	966.64
377.74	983.02
377.93	861.32
378.13	973.66
378.33	997.07
378.52	1027.50
378.72	1116.44
378.91	1041.54
379.11	1039.20
379.31	1057.92
379.50	999.41
379.70	1055.58
379.89	983.02
380.09	1069.62
380.28	1083.67
380.48	1060.26
380.68	1116.44
380.87	1067.28
381.07	1102.39
381.26	1121.12
381.46	1036.86
381.65	1109.41
381.85	1165.59
382.04	1177.29
382.24	1263.89
382.43	1144.52
382.63	1135.16
382.83	1284.95
383.02	1252.19
383.22	1259.21
383.41	1240.48
383.61	1203.04
383.80	1336.45
384.00	1240.48
384.19	1299.00
384.39	1329.42
384.58	1188.99
384.78	1240.48
384.97	1270.91
385.17	1329.42
385.36	1357.51
385.56	1378.58
385.75	1336.45
385.95	1366.87
386.14	1366.87
386.34	1488.58
386.53	1406.66
386.72	1418.36
386.92	1495.60
387.11	1357.51
387.31	1488.58
387.50	1348.15
387.70	1479.22
387.89	1476.88
388.09	1467.52
388.28	1462.83
388.48	1530.71
388.67	1528.37
388.86	1579.86
389.06	1551.78
389.25	1549.43
389.45	1680.50
389.64	1626.67
389.84	1547.09
390.03	1682.85
390.22	1713.27
390.42	1619.65
390.61	1675.82
390.81	1673.48
391.00	1612.63
391.19	1657.10
391.39	1748.38
391.58	1743.70
391.78	1750.72
391.97	1898.17
392.16	1825.62
392.36	1888.81
392.55	1743.70
392.75	1837.32
392.94	1846.68
393.13	1905.20
393.33	1844.34
393.52	1834.98
393.71	1863.07
393.91	1968.39
394.10	1966.05
394.29	1956.69
394.49	1870.09
394.68	1952.01
394.88	2012.86
395.07	2099.46
395.26	1961.37
395.46	2160.31
395.65	1963.71
395.84	2069.03
396.04	2183.72
396.23	2141.59
396.42	2143.93
396.62	2239.89
396.81	2270.32
397.00	2291.38
397.19	2179.04
397.39	2193.08
397.58	2277.34
397.77	2345.22
397.97	2267.98
398.16	2232.87
398.35	2286.70
398.55	2314.79
398.74	2305.43
398.93	2429.48
399.12	2326.49
399.32	2356.92
399.51	2420.11
399.70	2396.71
399.90	2392.03
400.09	2502.03
400.28	2684.59
400.47	2555.86
400.67	2588.63
400.86	2621.40
401.05	2644.81
401.24	2553.52
401.44	2588.63
401.63	2548.84
401.82	2682.25
402.01	2579.27
402.21	2733.75
402.40	2818.00
402.59	2747.79
402.78	2839.07
402.97	2635.44
403.17	2871.84
403.36	2780.56
403.55	2832.05
403.74	2946.73
403.93	3019.29
404.13	2970.14
404.32	2846.09
404.51	3014.61
404.70	2916.31
404.89	2986.52
405.09	3089.51
405.28	3073.12
405.47	3084.83
405.66	3337.60
405.85	3283.77
406.05	3187.81
406.24	3225.26
406.43	3122.27
406.62	3304.84
406.81	3328.24
407.00	3339.94
407.20	3276.75
407.39	3201.85
407.58	3487.40
407.77	3417.18
407.96	3627.83
408.15	3461.65
408.34	3524.85
408.54	3709.75
408.73	3545.91
408.92	3655.92
409.11	3658.26
409.30	3616.13
409.49	3632.51
409.68	3763.58
409.87	3658.26
410.07	3789.33
410.26	3653.58
410.45	3747.20
410.64	3758.90
410.83	3882.95
411.02	3864.22
411.21	4011.68
411.40	4037.42
411.59	4084.23
411.78	4154.45
411.98	4035.08
412.17	4198.92
412.36	4133.39
412.55	4201.26
412.74	4273.82
412.93	4292.54
413.12	4231.69
413.31	4507.87
413.50	4425.95
413.69	4519.57
413.88	4489.15
414.07	4444.68
414.26	4542.98
414.45	4650.64
414.64	4624.90
414.83	4751.29
415.02	4746.61
415.22	4877.68
415.41	4849.59
415.60	4903.42
415.79	5062.58
415.98	4945.55
416.17	5177.26
416.36	4997.04
416.55	4999.38
416.74	5177.26
416.93	5224.08
417.12	5144.50
417.31	5383.23
417.50	5203.01
417.69	5549.41
417.88	5544.73
418.07	5430.04
418.26	5516.64
418.45	5617.29
418.64	5715.59
418.83	5530.69
419.02	5657.07
419.21	5715.59
419.39	5657.07
419.58	5771.76
419.77	5708.57
419.96	5755.38
420.15	5685.16
420.34	5914.53
420.53	5879.43
420.72	5895.81
420.91	6097.10
421.10	6026.88
421.29	6270.30
421.48	5975.39
421.67	6104.12
421.86	6076.03
422.05	6101.78
422.24	6099.44
422.43	6113.48
422.61	6097.10
422.80	6282.00
422.99	6296.04
423.18	6307.74
423.37	6286.68
423.56	6310.08
423.75	6108.80
423.94	6221.14
424.13	5933.26
424.32	6057.31
424.50	6368.60
424.69	6424.77
424.88	6422.43
425.07	6303.06
425.26	6289.02
425.45	6167.31
425.64	6284.34
425.83	6307.74
426.01	6464.56
426.20	6366.26
426.39	6518.39
426.58	6303.06
426.77	6427.11
426.96	6513.71
427.15	6445.84
427.33	6609.67
427.52	6548.82
427.71	6534.78
427.90	6595.63
428.09	6857.77
428.28	6726.70
428.46	6813.30
428.65	6890.54
428.84	6904.58
429.03	7103.53
429.22	6752.45
429.40	7180.76
429.59	7054.37
429.78	6703.29
429.97	6796.92
430.16	7052.03
430.34	7136.29
430.53	7342.26
430.72	7218.21
430.91	7239.28
431.10	7215.87
431.28	7253.32
431.47	7396.09
431.66	7515.46
431.85	7295.45
432.03	7527.16
432.22	7646.53
432.41	7562.27
432.60	7569.29
432.79	7421.84
432.97	7698.02
433.16	7590.36
433.35	7595.04
433.54	7819.73
433.72	7772.92
433.91	7798.66
434.10	7831.43
434.28	7756.54
434.47	7885.26
434.66	8063.15
434.85	8004.63
435.03	8079.53
435.22	7929.74
435.41	8095.91
435.59	8035.06
435.78	8329.97
435.97	8259.75
436.16	8290.18
436.34	8266.77
436.53	8407.20
436.72	8510.19
436.90	8175.49
437.09	8505.51
437.28	8533.59
437.46	8339.33
437.65	8512.53
437.84	8870.63
438.02	8547.64
438.21	8865.95
438.40	8580.40
438.58	9277.88
438.77	9050.85
438.96	8987.66
439.14	9172.56
439.33	9336.40
439.52	9516.62
439.70	9430.02
439.89	9408.95
440.08	9488.53
440.26	9509.60
440.45	9544.70
440.63	9603.22
440.82	9846.63
441.01	9757.69
441.19	9987.07
441.38	9963.66
441.57	10054.94
441.75	10085.37
441.94	10347.51
442.12	10277.29
442.31	10478.58
442.50	10401.34
442.68	10373.25
442.87	10345.17
443.05	10349.85
443.24	10623.69
443.43	10321.76
443.61	10623.69
443.80	10829.66
443.98	10588.58
444.17	10235.16
444.35	10668.16
444.54	10904.56
444.73	10829.66
444.91	10869.45
445.10	10757.10
445.28	10855.40
445.47	10705.61
445.65	10951.37
445.84	10836.68
446.02	11073.07
446.21	11070.73
446.39	10949.03
446.58	10867.11
446.77	11159.67
446.95	10892.85
447.14	10752.42
447.32	10972.43
447.51	11091.80
447.69	10946.69
447.88	11150.31
448.06	10967.75
448.25	11257.98
448.43	11077.76
448.62	10916.26
448.80	11213.51
448.99	11316.49
449.17	11414.79
449.36	11213.51
449.54	11695.66
449.73	11473.31
449.91	11592.67
450.10	11428.84
450.28	11772.89
450.46	11770.55
450.65	11866.52
450.83	11744.81
451.02	11922.69
451.20	11822.05
451.39	12198.87
451.57	11943.75
451.76	11953.12
451.94	12028.01
452.13	12271.43
452.31	12283.13
452.49	11843.11
452.68	12336.96
452.86	12203.55
453.05	12360.37
453.23	12465.69
453.42	12372.07
453.60	12198.87
453.78	12255.04
453.97	12271.43
454.15	12421.22
454.34	12138.02
454.52	12762.94
454.70	12769.96
454.89	12765.28
455.07	12669.32
455.26	12713.79
455.44	13135.09
455.62	12858.90
455.81	13027.42
455.99	12952.52
456.17	13081.25
456.36	13118.70
456.54	13378.50
456.73	13387.86
456.91	13626.60
457.09	13469.78
457.28	13834.91
457.46	13479.15
457.64	14118.11
457.83	13734.26
458.01	13678.09
458.19	14012.79
458.38	13715.54
458.56	14015.13
458.74	14019.81
458.93	13769.37
459.11	14214.07
459.29	14029.17
459.48	14115.77
459.66	14097.05
459.84	14621.33
460.03	14501.96
460.21	14293.65
460.39	14487.92
460.57	14256.20
460.76	14403.66
460.94	14857.72
461.12	14361.53
461.31	14471.53
461.49	14665.80
461.67	14705.59
461.85	15229.87
462.04	14888.15
462.22	15351.57
462.40	14923.26
462.59	15133.90
462.77	15164.33
462.95	15367.96
463.13	15407.75
463.32	15323.49
463.50	15335.19
463.68	15435.83
463.86	15438.17
464.05	15227.53
464.23	15267.31
464.41	15293.06
464.59	15590.31
464.78	15770.53
464.96	15492.01
465.14	15559.88
465.32	15857.13
465.50	16121.61
465.69	15934.37
465.87	15815.00
466.05	15910.96
466.23	15838.41
466.41	16020.97
466.60	16390.77
466.78	16058.42
466.96	15992.88
467.14	16079.48
467.32	16081.82
467.51	16432.90
467.69	16189.49
467.87	16203.53
468.05	16320.56
468.23	16308.85
468.41	16559.29
468.60	16648.23
468.78	16781.64
468.96	16709.08
469.14	16943.14
469.32	17102.29
469.50	16517.16
469.69	16922.07
469.87	17273.15
470.05	17509.55
470.23	17174.85
470.41	17558.70
470.59	17530.61
470.77	17212.30
470.95	17378.48
471.14	17839.56
471.32	17563.38
471.50	17898.08
471.68	17862.97
471.86	18045.53
472.04	18162.56
472.22	18466.83
472.40	18230.43
472.58	18066.60
472.77	18427.04
472.95	18661.09
473.13	19236.86
473.31	18640.03
473.49	18925.57
473.67	18817.91
473.85	18824.93
474.03	18937.27
474.21	19452.19
474.39	19569.22
474.57	19548.15
474.75	19573.90
474.93	19585.60
475.12	19932.00
475.30	19885.19
475.48	19880.51
475.66	20128.61
475.84	19962.43
476.02	20460.96
476.20	20329.89
476.38	20676.29
476.56	21284.83
476.74	21198.23
476.92	20837.79
477.10	21090.57
477.28	21245.04
477.46	21425.26
477.64	21738.90
477.82	22338.07
478.00	22017.42
478.18	22434.03
478.36	22689.15
478.54	22988.74
478.72	22637.66
478.90	22963.00
479.08	23428.76
479.26	23065.98
479.44	23805.59
479.62	23924.96
479.80	23941.34
479.98	23894.53
480.16	24650.52
480.34	24290.08
480.52	24776.91
480.70	24362.64
480.88	24367.32
481.06	25053.09
481.24	25003.94
481.41	25139.69
481.59	25668.66
481.77	25900.37
481.95	25907.39
482.13	26157.83
482.31	26375.50
482.49	26726.58
482.67	26539.33
482.85	27119.79
483.03	27381.93
483.21	27828.97
483.39	28205.80
483.57	27674.49
483.74	28467.94
483.92	28669.22
484.10	28491.34
484.28	28620.07
484.46	29242.65
484.64	30015.03
484.82	29223.93
485.00	29600.76
485.18	30394.20
485.35	30560.37
485.53	30218.66
485.71	30279.51
485.89	31136.15
486.07	31000.40
486.25	31211.04
486.43	31449.78
486.61	31826.60
486.78	32177.68
486.96	32322.80
487.14	32687.92
487.32	32994.53
487.50	33116.24
487.68	33329.23
487.85	33684.99
488.03	33879.25
488.21	34412.90
488.39	34403.53
488.57	34431.62
488.75	35096.33
488.92	35393.58
489.10	35505.93
489.28	35849.99
489.46	36250.22
489.64	35880.41
489.81	36893.86
489.99	36395.33
490.17	37104.51
490.35	37219.20
490.53	37261.33
490.70	37804.33
490.88	38000.94
491.06	38068.81
491.24	38171.80
491.41	38511.17
491.59	38829.49
491.77	38850.55
491.95	38958.22
492.13	39683.78
492.30	39871.03
492.48	39800.81
492.66	40072.31
492.84	40107.42
493.01	40507.65
493.19	40954.69
493.37	41179.39
493.54	41132.57
493.72	41830.05
493.90	41701.32
494.08	42171.77
494.25	42249.01
494.43	42298.16
494.61	42710.10
494.79	42986.28
494.96	42775.63
495.14	43339.70
495.32	43421.62
495.49	43835.89
495.67	44222.08
495.85	44390.60
496.02	44704.23
496.20	44524.01
496.38	45020.20
496.55	45219.15
496.73	45944.72
496.91	45567.89
497.09	45514.06
497.26	46291.12
497.44	46391.76
497.62	46092.17
497.79	46557.94
497.97	46843.48
498.14	47381.80
498.32	47545.64
498.50	47447.34
498.67	48020.77
498.85	47618.20
499.03	47718.84
499.20	48418.66
499.38	48254.82
499.56	48554.41
499.73	48502.92
499.91	48463.13
500.08	48996.77
500.26	49160.61
500.44	49160.61
500.61	49172.31
500.79	49434.45
500.97	49712.98
501.14	49937.67
501.32	49867.45
501.49	49839.37
501.67	49879.16
501.84	50078.10
502.02	50033.63
502.20	50784.94
502.37	50923.04
502.55	50752.18
502.72	50721.75
502.90	50958.14
503.07	50714.73
503.25	51253.05
503.43	51047.08
503.60	51288.16
503.78	51178.15
503.95	51653.28
504.13	51358.38
504.30	51599.45
504.48	51767.97
504.65	51578.39
504.83	52266.50
505.01	52959.30
505.18	52390.55
505.36	52608.22
505.53	52477.15
505.71	52399.91
505.88	52666.73
506.06	52413.96
506.23	53071.65
506.41	53048.24
506.58	53216.76
506.76	53205.06
506.93	53291.66
507.11	53092.71
507.28	53652.10
507.46	53766.79
507.63	53872.11
507.81	53677.85
507.98	53717.64
508.16	53944.67
508.33	53872.11
508.50	53979.78
508.68	54389.37
508.85	54506.40
509.03	54312.13
509.20	54272.34
509.38	54747.47
509.55	54742.79
509.73	54726.41
509.90	54850.45
510.08	55054.08
510.25	54960.46
510.42	55341.97
510.60	55337.29
510.77	55599.43
510.95	55714.11
511.12	55269.41
511.30	55428.57
511.47	55721.13
511.64	55969.23
511.82	55863.91
511.99	55798.37
512.17	56025.40
512.34	55913.06
512.51	56385.85
512.69	56072.21
512.86	56182.22
513.04	56484.15
513.21	56404.57
513.38	56559.05
513.56	56643.30
513.73	56306.27
513.90	56725.22
514.08	56516.92
514.25	56926.51
514.43	57139.50
514.60	56973.32
514.77	56903.10
514.95	57083.33
515.12	57188.65
515.29	57132.48
515.47	57296.31
515.64	57549.09
515.81	57282.27
515.99	57462.49
516.16	57738.68
516.33	57680.16
516.51	57722.29
516.68	57808.89
516.85	57616.97
517.03	58178.70
517.20	58185.72
517.37	58059.33
517.54	58258.27
517.72	58246.57
517.89	58319.13
518.06	58145.93
518.24	58078.05
518.41	58071.03
518.58	58471.26
518.75	58342.53
518.93	58702.98
519.10	58511.05
519.27	58714.68
519.45	58504.03
519.62	58543.82
519.79	58497.01
519.96	58918.31
520.14	59044.69
520.31	58803.62
520.48	58976.82
520.65	59100.87
520.83	59096.19
521.00	58951.07
521.17	59150.02
521.34	59407.48
521.52	59468.33
521.69	59430.88
521.86	59643.87
522.03	59714.09
522.20	59721.11
522.38	59749.20
522.55	59681.32
522.72	59709.41
522.89	59613.44
523.07	59898.99
523.24	59943.46
523.41	60016.02
523.58	59999.63
523.75	59931.76
523.92	59952.82
524.10	60004.31
524.27	60236.03
524.44	60409.23
524.61	60308.58
524.78	60449.02
524.96	60322.63
525.13	60514.55
525.30	60416.25
525.47	60617.53
525.64	60556.68
525.81	60825.84
525.98	60685.41
526.16	60746.26
526.33	60760.31
526.50	60942.87
526.67	60610.51
526.84	60900.74
527.01	60764.99
527.18	60949.89
527.36	61024.79
527.53	61057.56
527.70	61366.51
527.87	61183.94
528.04	61043.51
528.21	61102.03
528.38	61195.65
528.55	61336.08
528.72	61352.46
528.89	61544.39
529.07	61425.02
529.24	61324.38
529.41	61574.81
529.58	61504.60
529.75	61450.77
529.92	61621.62
530.09	61537.36
530.26	61836.95
530.43	61799.50
530.60	61670.78
530.77	61841.63
530.94	61930.58
531.11	61666.09
531.28	61785.46
531.46	61996.11
531.63	62061.64
531.80	62159.95
531.97	62143.56
532.14	62269.95
532.31	62368.26
532.48	62199.74
532.65	62218.46
532.82	62206.76
532.99	62190.37
533.16	62309.74
533.33	62691.25
533.50	62567.20
533.67	62581.24
533.84	62386.98
534.01	62361.23
534.18	62298.04
534.35	62691.25
534.52	62511.03
534.69	62775.51
534.86	62791.89
535.03	62702.95
535.20	62878.49
535.37	63117.23
535.54	62838.70
535.71	62918.28
535.88	62911.26
536.05	63009.56
536.22	63220.21
536.38	63238.93
536.55	63093.82
536.72	62993.18
536.89	63056.37
537.06	63039.99
537.23	63154.68
537.40	63016.58
537.57	63021.26
537.74	63103.18
537.91	63529.16
538.08	63365.32
538.25	63400.43
538.42	63370.00
538.59	63529.16
538.75	63220.21
538.92	63316.17
539.09	63379.37
539.26	63594.70
539.43	63753.85
539.60	63592.36
539.77	63519.80
539.94	63842.79
540.11	63795.98
540.28	63716.40
540.44	63859.18
540.61	63805.34
540.78	63639.17
540.95	63807.68
541.12	63777.26
541.29	63817.05
541.46	63852.15
541.62	63751.51
541.79	63894.28
541.96	63795.98
542.13	64015.99
542.30	64238.34
542.47	64051.10
542.63	64268.77
542.80	64360.05
542.97	64390.48
543.14	64385.80
543.31	64329.62
543.48	64427.93
543.64	64467.72
543.81	64755.60
543.98	64718.15
544.15	64645.60
544.32	64666.66
544.48	64769.64
544.65	64470.06
544.82	64559.00
544.99	64512.19
545.16	64818.80
545.32	64795.39
545.49	64947.53
545.66	65064.55
545.83	64912.42
546.00	65132.43
546.16	64821.14
546.33	64947.53
546.50	64624.53
546.67	64992.00
546.83	64652.62
547.00	64966.25
547.17	65034.13
547.34	65020.08
547.50	64989.66
547.67	65169.88
547.84	65092.64
548.00	65240.09
548.17	65300.95
548.34	65197.96
548.51	65474.15
548.67	65343.08
548.84	65427.34
549.01	65307.97
549.18	65378.18
549.34	65296.27
549.51	65310.31
549.68	65457.76
549.84	65483.51
550.01	65535.00
550.18	65469.46
550.34	65492.87
550.51	65535.00
550.68	65535.00
550.84	65345.42
551.01	65535.00
551.18	65535.00
551.34	65410.95
551.51	65535.00
551.68	65535.00
551.84	65535.00
552.01	65535.00
552.18	65535.00
552.34	65535.00
552.51	65535.00
552.68	65535.00
552.84	65535.00
553.01	65535.00
553.18	65535.00
553.34	65535.00
553.51	65535.00
553.67	65535.00
553.84	65535.00
554.01	65535.00
554.17	65535.00
554.34	65535.00
554.51	65535.00
554.67	65535.00
554.84	65535.00
555.00	65535.00
555.17	65535.00
555.33	65535.00
555.50	65535.00
555.67	65535.00
555.83	65535.00
556.00	65535.00
556.16	65535.00
556.33	65535.00
556.50	65535.00
556.66	65535.00
556.83	65535.00
556.99	65535.00
557.16	65535.00
557.32	65535.00
557.49	65535.00
557.65	65535.00
557.82	65535.00
557.98	65535.00
558.15	65535.00
558.32	65535.00
558.48	65535.00
558.65	65535.00
558.81	65535.00
558.98	65535.00
559.14	65535.00
559.31	65535.00
559.47	65535.00
559.64	65535.00
559.80	65535.00
559.97	65535.00
560.13	65535.00
560.30	65535.00
560.46	65535.00
560.63	65535.00
560.79	65535.00
560.96	65535.00
561.12	65535.00
561.29	65535.00
561.45	65535.00
561.61	65535.00
561.78	65535.00
561.94	65535.00
562.11	65535.00
562.27	65535.00
562.44	65535.00
562.60	65535.00
562.77	65535.00
562.93	65535.00
563.10	65535.00
563.26	65535.00
563.42	65535.00
563.59	65535.00
563.75	65535.00
563.92	65535.00
564.08	65535.00
564.24	65535.00
564.41	65535.00
564.57	65535.00
564.74	65535.00
564.90	65535.00
565.07	65535.00
565.23	65535.00
565.39	65535.00
565.56	65535.00
565.72	65535.00
565.88	65535.00
566.05	65535.00
566.21	65535.00
566.38	65535.00
566.54	65535.00
566.70	65535.00
566.87	65535.00
567.03	65535.00
567.19	65535.00
567.36	65535.00
567.52	65535.00
567.68	65535.00
567.85	65535.00
568.01	65535.00
568.17	65535.00
568.34	65535.00
568.50	65535.00
568.66	65535.00
568.83	65535.00
568.99	65535.00
569.15	65535.00
569.32	65535.00
569.48	65535.00
569.64	65535.00
569.81	65535.00
569.97	65535.00
570.13	65535.00
570.30	65535.00
570.46	65535.00
570.62	65535.00
570.78	65535.00
570.95	65535.00
571.11	65535.00
571.27	65535.00
571.43	65535.00
571.60	65535.00
571.76	65535.00
571.92	65535.00
572.09	65535.00
572.25	65535.00
572.41	65535.00
572.57	65535.00
572.74	65535.00
572.90	65535.00
573.06	65535.00
573.22	65535.00
573.38	65535.00
573.55	65535.00
573.71	65535.00
573.87	65535.00
574.03	65535.00
574.20	65535.00
574.36	65535.00
574.52	65535.00
574.68	65535.00
574.84	65535.00
575.01	65535.00
575.17	65535.00
575.33	65535.00
575.49	65535.00
575.65	65535.00
575.82	65535.00
575.98	65535.00
576.14	65535.00
576.30	65535.00
576.46	65535.00
576.62	65535.00
576.79	65535.00
576.95	65535.00
577.11	65535.00
577.27	65535.00
577.43	65535.00
577.59	65535.00
577.75	65535.00
577.92	65535.00
578.08	65535.00
578.24	65535.00
578.40	65535.00
578.56	65535.00
578.72	65535.00
578.88	65535.00
579.04	65535.00
579.21	65535.00
579.37	65535.00
579.53	65535.00
579.69	65535.00
579.85	65535.00
580.01	65535.00
580.17	65535.00
580.33	65535.00
580.49	65535.00
580.65	65535.00
580.82	65535.00
580.98	65535.00
581.14	65535.00
581.30	65535.00
581.46	65535.00
581.62	65535.00
581.78	65535.00
581.94	65535.00
582.10	65535.00
582.26	65535.00
582.42	65535.00
582.58	65535.00
582.74	65535.00
582.90	65535.00
583.06	65535.00
583.22	65535.00
583.38	65535.00
583.54	65535.00
583.70	65535.00
583.86	65535.00
584.02	65535.00
584.18	65535.00
584.34	65535.00
584.50	65535.00
584.66	65535.00
584.82	65535.00
584.98	65535.00
585.14	65535.00
585.30	65535.00
585.46	65535.00
585.62	65535.00
585.78	65535.00
585.94	65535.00
586.10	65535.00
586.26	65535.00
586.42	65535.00
586.58	65535.00
586.74	65535.00
586.90	65535.00
587.06	65535.00
587.22	65535.00
587.38	65535.00
587.54	65535.00
587.70	65535.00
587.86	65535.00
