SpectraSuite Data File
++++++++++++++++++++++++++++++++++++
Date: Fri Oct 04 11:48:24 GMT-05:00 2013
User: price-jones
Dark Spectrum Present: No
Reference Spectrum Present: No
Number of Sampled Component Spectra: 1
Spectrometers: USB2+H05261
Integration Time (usec): 100000 (USB2+H05261)
Spectra Averaged: 1 (USB2+H05261)
Boxcar Smoothing: 0 (USB2+H05261)
Correct for Electrical Dark: No (USB2+H05261)
Strobe/Lamp Enabled: No (USB2+H05261)
Correct for Detector Non-linearity: No (USB2+H05261)
Correct for Stray Light: No (USB2+H05261)
Number of Pixels in Processed Spectrum: 2048
>>>>>Begin Processed Spectral Data<<<<<
365.73	0.00
365.92	0.00
366.12	0.00
366.32	7.02
366.52	0.00
366.72	0.00
366.91	0.00
367.11	0.00
367.31	0.00
367.51	0.00
367.70	0.00
367.90	0.00
368.10	0.00
368.30	0.00
368.49	0.00
368.69	16.38
368.89	0.00
369.09	0.00
369.28	0.00
369.48	0.00
369.68	0.00
369.87	0.00
370.07	4.68
370.27	49.15
370.47	131.07
370.66	383.85
370.86	484.49
371.06	571.09
371.25	594.50
371.45	533.64
371.65	475.13
371.84	571.09
372.04	585.13
372.24	622.58
372.44	620.24
372.63	669.39
372.83	641.31
373.03	538.32
373.22	585.13
373.42	692.80
373.62	681.10
373.81	706.84
374.01	720.88
374.21	683.44
374.40	695.14
374.60	657.69
374.79	695.14
374.99	725.57
375.19	746.63
375.38	791.10
375.58	716.20
375.78	774.72
375.97	767.70
376.17	798.12
376.37	734.93
376.56	760.67
376.76	802.80
376.95	781.74
377.15	784.08
377.35	744.29
377.54	809.83
377.74	791.10
377.93	786.42
378.13	760.67
378.33	809.83
378.52	777.06
378.72	863.66
378.91	807.48
379.11	777.06
379.31	828.55
379.50	844.93
379.70	889.40
379.89	851.96
380.09	861.32
380.28	947.92
380.48	863.66
380.68	837.91
380.87	915.15
381.07	919.83
381.26	896.43
381.46	854.30
381.65	896.43
381.85	938.55
382.04	1029.84
382.24	889.40
382.43	990.05
382.63	945.58
382.83	945.58
383.02	1078.99
383.22	1022.81
383.41	945.58
383.61	1022.81
383.80	1022.81
384.00	1013.45
384.19	1111.75
384.39	1013.45
384.58	1013.45
384.78	1064.94
384.97	1111.75
385.17	1074.31
385.36	1029.84
385.56	1029.84
385.75	1160.91
385.95	1146.86
386.14	1062.60
386.34	1109.41
386.53	1118.78
386.72	1188.99
386.92	1132.82
387.11	1165.59
387.31	1137.50
387.50	1188.99
387.70	1191.33
387.89	1193.67
388.09	1256.87
388.28	1210.06
388.48	1228.78
388.67	1174.95
388.86	1261.55
389.06	1224.10
389.25	1394.96
389.45	1266.23
389.64	1273.25
389.84	1303.68
390.03	1291.98
390.22	1362.19
390.42	1280.27
390.61	1359.85
390.81	1401.98
391.00	1397.30
391.19	1345.81
391.39	1355.17
391.58	1394.96
391.78	1469.86
391.97	1469.86
392.16	1423.05
392.36	1547.09
392.55	1526.03
392.75	1504.96
392.94	1404.32
393.13	1437.09
393.33	1490.92
393.52	1528.37
393.71	1544.75
393.91	1533.05
394.10	1593.90
394.29	1589.22
394.49	1582.20
394.68	1593.90
394.88	1579.86
395.07	1621.99
395.26	1614.97
395.46	1584.54
395.65	1764.76
395.84	1636.03
396.04	1832.64
396.23	1764.76
396.42	1748.38
396.62	1729.66
396.81	1783.49
397.00	1717.95
397.19	1839.66
397.39	1764.76
397.58	1839.66
397.77	1776.47
397.97	1921.58
398.16	1853.70
398.35	1923.92
398.55	1851.36
398.74	1830.30
398.93	1930.94
399.12	1956.69
399.32	1872.43
399.51	1975.41
399.70	2001.16
399.90	2047.97
400.09	2010.52
400.28	2059.67
400.47	2071.37
400.67	2256.28
400.86	2115.84
401.05	2059.67
401.24	2186.06
401.44	2209.47
401.63	2148.61
401.82	2165.00
402.01	2228.19
402.21	2150.95
402.40	2113.50
402.59	2267.98
402.78	2293.72
402.97	2228.19
403.17	2326.49
403.36	2246.91
403.55	2284.36
403.74	2429.48
403.93	2394.37
404.13	2420.11
404.32	2415.43
404.51	2485.65
404.70	2485.65
404.89	2490.33
405.09	2602.68
405.28	2511.39
405.47	2443.52
405.66	2495.01
405.85	2593.31
406.05	2544.16
406.24	2647.15
406.43	2579.27
406.62	2654.17
406.81	2696.30
407.00	2724.38
407.20	2597.99
407.39	2644.81
407.58	2764.17
407.77	2860.13
407.96	2874.18
408.15	2965.46
408.34	2810.98
408.54	2932.69
408.73	2963.12
408.92	2902.26
409.11	3021.63
409.30	2986.52
409.49	2932.69
409.68	2942.05
409.87	3049.72
410.07	2984.18
410.26	3187.81
410.45	3148.02
410.64	3150.36
410.83	3129.30
411.02	3150.36
411.21	3183.13
411.40	3206.53
411.59	3248.66
411.78	3246.32
411.98	3293.13
412.17	3349.31
412.36	3370.37
412.55	3379.73
412.74	3496.76
412.93	3456.97
413.12	3410.16
413.31	3576.34
413.50	3583.36
413.69	3492.08
413.88	3794.01
414.07	3632.51
414.26	3796.35
414.45	3672.30
414.64	3868.91
414.83	3915.72
415.02	3875.93
415.22	3922.74
415.41	4023.38
415.60	4042.11
415.79	4035.08
415.98	4002.32
416.17	4142.75
416.36	4098.28
416.55	4166.15
416.74	4149.77
416.93	4369.78
417.12	4257.43
417.31	4379.14
417.50	4271.48
417.69	4542.98
417.88	4360.42
418.07	4353.40
418.26	4418.93
418.45	4592.13
418.64	4667.03
418.83	4524.26
419.02	4559.36
419.21	4561.70
419.39	4629.58
419.58	4582.77
419.77	4681.07
419.96	4765.33
420.15	4926.83
420.34	4744.27
420.53	4870.65
420.72	4821.50
420.91	4931.51
421.10	4957.25
421.29	5025.13
421.48	4802.78
421.67	5006.41
421.86	4933.85
422.05	5114.07
422.24	4919.81
422.43	4964.28
422.61	5100.03
422.80	5006.41
422.99	5165.56
423.18	5263.86
423.37	5104.71
423.56	5032.15
423.75	5013.43
423.94	4994.70
424.13	4816.82
424.32	4877.68
424.50	5214.71
424.69	5184.29
424.88	5219.39
425.07	5013.43
425.26	4992.36
425.45	5198.33
425.64	5083.64
425.83	5352.81
426.01	5151.52
426.20	5090.67
426.39	5282.59
426.58	5348.12
426.77	5240.46
426.96	5219.39
427.15	5296.63
427.33	5387.91
427.52	5329.40
427.71	5397.28
427.90	5572.82
428.09	5434.72
428.28	5579.84
428.46	5514.30
428.65	5593.88
428.84	5734.31
429.03	5694.52
429.22	5575.16
429.40	5792.83
429.59	5797.51
429.78	5366.85
429.97	5617.29
430.16	5675.80
430.34	5806.87
430.53	5851.34
430.72	5841.98
430.91	5820.91
431.10	5746.02
431.28	5940.28
431.47	5919.21
431.66	6036.24
431.85	6036.24
432.03	6235.19
432.22	6342.85
432.41	6085.39
432.60	6174.33
432.79	6083.05
432.97	6211.78
433.16	6366.26
433.35	6312.42
433.54	6345.19
433.72	6417.75
433.91	6214.12
434.10	6136.88
434.28	6427.11
434.47	6387.32
434.66	6427.11
434.85	6455.20
435.03	6689.25
435.22	6614.35
435.41	6754.79
435.59	6738.40
435.78	6588.61
435.97	6649.46
436.16	6829.68
436.34	6773.51
436.53	6738.40
436.72	6981.82
436.90	6817.98
437.09	6813.30
437.28	6939.69
437.46	6867.13
437.65	7138.63
437.84	7131.61
438.02	7077.78
438.21	7059.06
438.40	7096.50
438.58	7232.26
438.77	7297.79
438.96	7391.41
439.14	7510.78
439.33	7501.42
439.52	7578.65
439.70	7548.23
439.89	7686.32
440.08	7714.41
440.26	7843.14
440.45	7744.83
440.63	7861.86
440.82	7981.23
441.01	7836.11
441.19	7925.05
441.38	8177.83
441.57	8175.49
441.75	8107.62
441.94	8313.58
442.12	8360.39
442.31	8507.85
442.50	8475.08
442.68	8243.37
442.87	8514.87
443.05	8423.59
443.24	8552.32
443.43	8526.57
443.61	8484.44
443.80	8671.68
443.98	8580.40
444.17	8491.46
444.35	8793.39
444.54	9039.15
444.73	8833.18
444.91	8720.84
445.10	8744.24
445.28	8786.37
445.47	8730.20
445.65	8704.45
445.84	8870.63
446.02	8938.51
446.21	8786.37
446.39	8695.09
446.58	8968.93
446.77	8784.03
446.95	8772.33
447.14	8807.44
447.32	9233.41
447.51	8725.52
447.69	8887.01
447.88	8954.89
448.06	9104.68
448.25	9008.72
448.43	9036.81
448.62	9214.69
448.80	8954.89
448.99	9184.26
449.17	9144.47
449.36	9036.81
449.54	9364.48
449.73	9432.36
449.91	9371.50
450.10	9472.15
450.28	9432.36
450.46	9453.42
450.65	9486.19
450.83	9521.30
451.02	9472.15
451.20	9493.21
451.39	9848.97
451.57	9547.05
451.76	9439.38
451.94	9708.54
452.13	9942.60
452.31	9614.92
452.49	9696.84
452.68	9942.60
452.86	9907.49
453.05	10071.33
453.23	9949.62
453.42	9921.53
453.60	9912.17
453.78	10026.86
453.97	10134.52
454.15	10171.97
454.34	10012.81
454.52	10312.40
454.70	10207.08
454.89	10204.74
455.07	10129.84
455.26	10380.28
455.44	10700.93
455.62	10555.82
455.81	10420.06
455.99	10513.69
456.17	10586.24
456.36	10558.16
456.54	10839.02
456.73	10890.51
456.91	11033.29
457.09	10869.45
457.28	11112.86
457.46	10911.58
457.64	11101.16
457.83	11162.01
458.01	11023.92
458.19	11375.00
458.38	11009.88
458.56	11419.47
458.74	11403.09
458.93	11180.74
459.11	11421.81
459.29	11419.47
459.48	11501.39
459.66	11424.15
459.84	11592.67
460.03	11798.64
460.21	11646.51
460.39	11747.15
460.57	11758.85
460.76	11674.59
460.94	11906.31
461.12	11714.38
461.31	11918.01
461.49	11775.24
461.67	11918.01
461.85	12215.26
462.04	12070.14
462.22	12409.52
462.40	12259.73
462.59	12142.70
462.77	12156.74
462.95	12362.71
463.13	12170.79
463.32	12269.09
463.50	12283.13
463.68	12475.06
463.86	12493.78
464.05	12201.21
464.23	12322.92
464.41	12512.50
464.59	12269.09
464.78	12894.01
464.96	12666.98
465.14	12435.27
465.32	12840.18
465.50	12835.50
465.69	12861.24
465.87	12791.03
466.05	12844.86
466.23	12947.84
466.41	13179.56
466.60	13397.23
466.78	12861.24
466.96	12865.92
467.14	13102.32
467.32	12982.95
467.51	13238.07
467.69	12994.65
467.87	13282.54
468.05	13479.15
468.23	13308.29
468.41	13404.25
468.60	13469.78
468.78	13376.16
468.96	13511.91
469.14	13565.74
469.32	13708.52
469.50	13394.89
469.69	13862.99
469.87	13951.93
470.05	13926.19
470.23	13968.32
470.41	13811.50
470.59	14150.88
470.77	14113.43
470.95	14068.96
471.14	14424.72
471.32	14115.77
471.50	14661.12
471.68	14354.51
471.86	14590.90
472.04	14595.58
472.22	14780.48
472.40	14459.83
472.58	14815.59
472.77	14909.21
472.95	14918.57
473.13	15339.87
473.31	14988.79
473.49	14998.15
473.67	15084.75
473.85	15152.63
474.03	15653.50
474.21	15690.95
474.39	15751.81
474.57	15843.09
474.75	15978.84
474.93	16077.14
475.12	16049.05
475.30	16217.57
475.48	15988.20
475.66	16154.38
475.84	16245.66
476.02	16430.56
476.20	16460.99
476.38	16929.09
476.56	17144.42
476.74	16809.73
476.92	16819.09
477.10	16952.50
477.28	17046.12
477.46	17139.74
477.64	17165.49
477.82	17495.50
478.00	18052.55
478.18	17923.82
478.36	18108.72
478.54	18546.40
478.72	18600.24
478.90	18551.09
479.08	18836.63
479.26	18902.17
479.44	18965.36
479.62	19056.64
479.80	19360.91
479.98	19585.60
480.16	19421.77
480.34	19620.71
480.52	19587.94
480.70	19920.30
480.88	19999.88
481.06	20056.05
481.24	20212.87
481.41	20362.66
481.59	21027.37
481.77	21191.21
481.95	20847.15
482.13	21205.25
482.31	21139.72
482.49	21537.61
482.67	21212.28
482.85	21736.56
483.03	22066.57
483.21	22497.23
483.39	22558.08
483.57	22354.46
483.74	22689.15
483.92	22738.30
484.10	22955.97
484.28	23194.71
484.46	23353.87
484.64	23775.16
484.82	23711.97
485.00	23976.45
485.18	24201.14
485.35	24519.45
485.53	24772.23
485.71	24678.61
485.89	25088.20
486.07	25043.73
486.25	25333.96
486.43	25312.89
486.61	25476.73
486.78	25703.76
486.96	26047.82
487.14	26621.25
487.32	26651.68
487.50	26305.28
487.68	26668.06
487.85	27218.09
488.03	27716.62
488.21	27723.65
488.39	27812.59
488.57	27873.44
488.75	28287.71
488.92	28643.48
489.10	28161.33
489.28	28856.46
489.46	28760.50
489.64	29146.69
489.81	29654.59
489.99	29668.63
490.17	29846.51
490.35	30127.38
490.53	30302.92
490.70	30651.66
490.88	30419.94
491.06	30726.55
491.24	30911.46
491.41	31058.91
491.59	31325.73
491.77	31674.47
491.95	32004.49
492.13	32378.97
492.30	31960.02
492.48	32231.52
492.66	32568.55
492.84	32683.24
493.01	32744.09
493.19	33029.64
493.37	33116.24
493.54	33263.69
493.72	33525.83
493.90	33668.61
494.08	34354.38
494.25	34405.88
494.43	34424.60
494.61	34794.40
494.79	34918.45
494.96	34946.54
495.14	35166.55
495.32	35845.30
495.49	35637.00
495.67	35763.39
495.85	36222.13
496.02	36545.12
496.20	36439.80
496.38	36329.80
496.55	37123.24
496.73	37352.61
496.91	37275.37
497.09	37134.94
497.26	37518.79
497.44	37340.91
497.62	37773.91
497.79	38162.43
497.97	38223.29
498.14	38611.82
498.32	38937.15
498.50	39049.50
498.67	39220.36
498.85	39058.86
499.03	39360.79
499.20	39580.80
499.38	39711.87
499.56	39934.22
499.73	40289.98
499.91	40636.38
500.08	40217.43
500.26	39887.41
500.44	40620.00
500.61	40882.14
500.79	40872.78
500.97	41085.76
501.14	41310.46
501.32	41191.09
501.49	41167.68
501.67	41717.71
501.84	41556.21
502.02	41523.44
502.20	41771.54
502.37	42454.98
502.55	42124.96
502.72	42422.21
502.90	42876.27
503.07	42211.56
503.25	42670.31
503.43	42363.70
503.60	43033.09
503.78	43206.29
503.95	42820.10
504.13	43346.72
504.30	43283.53
504.48	43234.38
504.65	43920.15
504.83	44208.04
505.01	44683.17
505.18	44088.67
505.36	44463.16
505.53	44538.05
505.71	44163.57
505.88	44591.89
506.06	44552.10
506.23	45034.25
506.41	44713.59
506.58	45116.17
506.76	45312.77
506.93	45638.11
507.11	45258.94
507.28	45778.54
507.46	45710.66
507.63	45895.56
507.81	46174.09
507.98	46295.80
508.16	46108.55
508.33	46281.75
508.50	46469.00
508.68	46127.28
508.85	47189.88
509.03	46607.09
509.20	47147.75
509.38	47299.89
509.55	47732.89
509.73	47669.69
509.90	47194.56
510.08	47344.36
510.25	47814.80
510.42	48060.56
510.60	48186.95
510.77	48325.04
510.95	48322.70
511.12	48170.57
511.30	48161.20
511.47	48502.92
511.64	48615.27
511.82	48776.76
511.99	48807.19
512.17	49137.21
512.34	48863.36
512.51	49092.74
512.69	49373.60
512.86	49654.47
513.04	49294.02
513.21	49626.38
513.38	49820.64
513.56	49811.28
513.73	49535.10
513.90	49841.71
514.08	50003.20
514.25	50403.44
514.43	50485.36
514.60	50267.69
514.77	50408.12
514.95	50164.70
515.12	50143.64
515.29	50571.96
515.47	50845.80
515.64	51405.19
515.81	50990.91
515.99	50866.86
516.16	51224.96
516.33	51152.41
516.51	51222.62
516.68	50801.33
516.85	51178.15
517.03	51470.72
517.20	51908.40
517.37	51648.60
517.54	51557.32
517.72	51662.64
517.89	51625.20
518.06	51978.62
518.24	51793.71
518.41	51913.08
518.58	51870.95
518.75	52303.95
518.93	52105.01
519.10	52105.01
519.27	52376.51
519.45	52252.46
519.62	52294.59
519.79	52694.82
519.96	52776.74
520.14	52875.04
520.31	52640.99
520.48	52781.42
520.65	52968.66
520.83	53031.86
521.00	52760.36
521.17	52776.74
521.34	53013.13
521.52	53413.37
521.69	53329.11
521.86	53785.51
522.03	53581.88
522.20	53691.89
522.38	53661.46
522.55	53755.08
522.72	53827.64
522.89	53727.00
523.07	54171.70
523.24	53900.20
523.41	54028.93
523.58	53670.82
523.75	54209.15
523.92	54232.55
524.10	54267.66
524.27	54335.54
524.44	54630.44
524.61	54719.38
524.78	54550.87
524.96	54691.30
525.13	54321.49
525.30	54677.25
525.47	54768.54
525.64	54745.13
525.81	55035.36
525.98	54983.86
526.16	55091.53
526.33	55138.34
526.50	55327.92
526.67	55077.49
526.84	55297.50
527.01	54969.82
527.18	55283.45
527.36	55599.43
527.53	55573.68
527.70	55519.85
527.87	55716.45
528.04	55327.92
528.21	55702.41
528.38	55543.25
528.55	55590.06
528.72	55552.62
528.89	55709.43
529.07	55854.54
529.24	55634.53
529.41	55955.19
529.58	55716.45
529.75	55763.26
529.92	55847.52
530.09	56034.77
530.26	56011.36
530.43	56212.65
530.60	56002.00
530.77	56388.19
530.94	56423.29
531.11	56025.40
531.28	56268.82
531.46	56425.64
531.63	56413.93
531.80	56278.18
531.97	56788.42
532.14	56849.27
532.31	56498.19
532.48	56306.27
532.65	56683.09
532.82	56633.94
532.99	56741.61
533.16	56629.26
533.33	56884.38
533.50	57006.09
533.67	56961.62
533.84	57069.28
534.01	56903.10
534.18	56790.76
534.35	57050.56
534.52	57258.87
534.69	57221.42
534.86	57350.15
535.03	57162.90
535.20	57263.55
535.37	57570.16
535.54	57544.41
535.71	57069.28
535.88	57399.30
536.05	57275.25
536.22	57546.75
536.38	57609.95
536.55	57890.81
536.72	57577.18
536.89	57502.28
537.06	57525.69
537.23	57808.89
537.40	57553.77
537.57	57502.28
537.74	57773.78
537.91	58005.50
538.08	57996.13
538.25	57853.36
538.42	57982.09
538.59	58056.99
538.75	57797.19
538.92	58028.90
539.09	57918.90
539.26	58436.16
539.43	58284.02
539.60	58265.30
539.77	58426.79
539.94	58269.98
540.11	58314.45
540.28	58248.91
540.44	58248.91
540.61	58291.04
540.78	58473.60
540.95	58361.26
541.12	58529.78
541.29	58314.45
541.46	58298.06
541.62	58644.46
541.79	58660.85
541.96	58227.85
542.13	58707.66
542.30	58408.07
542.47	59093.85
542.63	58820.00
542.80	59103.21
542.97	59014.27
543.14	59065.76
543.31	58927.67
543.48	58871.49
543.64	59098.53
543.81	59302.15
543.98	59526.84
544.15	59243.64
544.32	59353.65
544.48	59454.29
544.65	59171.08
544.82	59292.79
544.99	59107.89
545.16	59238.96
545.32	59299.81
545.49	59648.55
545.66	59667.28
545.83	59648.55
546.00	59812.39
546.16	59585.36
546.33	59517.48
546.50	59241.30
546.67	59683.66
546.83	59374.71
547.00	59714.09
547.17	59653.23
547.34	59798.35
547.50	59962.18
547.67	60123.68
547.84	60037.08
548.00	59959.84
548.17	59987.93
548.34	60020.70
548.51	60282.84
548.67	59985.59
548.84	60313.26
549.01	60144.75
549.18	59849.84
549.34	60109.64
549.51	60065.17
549.68	60018.36
549.84	60051.12
550.01	60196.24
550.18	59955.16
550.34	60252.41
550.51	60324.97
550.68	60418.59
550.84	60259.43
551.01	60320.29
551.18	60224.32
551.34	60254.75
551.51	60280.50
551.68	60418.59
551.84	60669.03
552.01	60381.14
552.18	60673.71
552.34	60547.32
552.51	60671.37
552.68	60437.31
552.84	60608.17
553.01	60554.34
553.18	60718.18
553.34	60629.24
553.51	60846.91
553.67	60739.24
553.84	60907.76
554.01	60776.69
554.17	60786.05
554.34	60961.59
554.51	60697.11
554.67	60811.80
554.84	60905.42
555.00	60856.27
555.17	60872.65
555.33	60832.86
555.50	60952.23
555.67	60980.32
555.83	61055.21
556.00	60814.14
556.16	60999.04
556.33	60896.06
556.50	61123.09
556.66	61125.43
556.83	61050.53
556.99	61305.65
557.16	61340.76
557.32	61422.68
557.49	61326.72
557.65	60921.80
557.82	61078.62
557.98	61235.44
558.15	61413.32
558.32	61525.66
558.48	61441.40
558.65	61418.00
558.81	61471.83
558.98	61275.22
559.14	61441.40
559.31	61378.21
559.47	61396.93
559.64	61462.47
559.80	61563.11
559.97	61511.62
560.13	61595.88
560.30	61357.14
560.46	61588.86
560.63	61434.38
560.79	61537.36
560.96	61691.84
561.12	61511.62
561.29	61652.05
561.45	61607.58
561.61	61609.92
561.78	61659.07
561.94	61806.53
562.11	61549.07
562.27	61743.33
562.44	61724.61
562.60	61773.76
562.77	61745.67
562.93	61825.25
563.10	61977.39
563.26	61733.97
563.42	62096.75
563.59	61932.92
563.75	62078.03
563.92	62042.92
564.08	61989.09
564.24	61879.08
564.41	61776.10
564.57	61776.10
564.74	61939.94
564.90	61895.47
565.07	62049.94
565.23	62213.78
565.39	62216.12
565.56	62178.67
565.72	61862.70
565.88	62035.90
566.05	61900.15
566.21	61895.47
566.38	61829.93
566.54	62019.52
566.70	62059.30
566.87	62260.59
567.03	62045.26
567.19	62361.23
567.36	62202.08
567.52	62017.17
567.68	62190.37
567.85	62045.26
568.01	62063.99
568.17	61961.00
568.34	62227.82
568.50	62237.19
568.66	62340.17
568.83	62171.65
568.99	62003.13
569.15	62122.50
569.32	62269.95
569.48	62061.64
569.64	62326.13
569.81	62370.60
569.97	62262.93
570.13	62496.98
570.30	62103.77
570.46	62237.19
570.62	62396.34
570.78	62305.06
570.95	62017.17
571.11	62316.76
571.27	62314.42
571.43	62244.21
571.60	62508.69
571.76	62494.64
571.92	62459.54
572.09	62302.72
572.25	62431.45
572.41	62269.95
572.57	62326.13
572.74	62480.60
572.90	62197.40
573.06	62321.44
573.22	62312.08
573.38	62351.87
573.55	62494.64
573.71	62815.30
573.87	62581.24
574.03	62466.56
574.20	62258.25
574.36	62386.98
574.52	62485.28
574.68	62354.21
574.84	62349.53
575.01	62433.79
575.17	62543.80
575.33	62475.92
575.49	62637.42
575.65	62819.98
575.82	62681.89
575.98	62492.30
576.14	62536.77
576.30	62644.44
576.46	62681.89
576.62	62218.46
576.79	62499.33
576.95	62506.35
577.11	62581.24
577.27	62747.42
577.43	62532.09
577.59	62415.07
577.75	62564.86
577.92	62389.32
578.08	62436.13
578.24	62489.96
578.40	62513.37
578.56	62504.01
578.72	62658.48
578.88	62838.70
579.04	62649.12
579.21	62698.27
579.37	62714.65
579.53	62873.81
579.69	62398.68
579.85	62681.89
580.01	62768.49
580.17	62485.28
580.33	62639.76
580.49	62709.97
580.65	62822.32
580.82	62787.21
580.98	62808.28
581.14	62602.31
581.30	62707.63
581.46	62688.91
581.62	62651.46
581.78	62515.71
581.94	62819.98
582.10	62621.03
582.26	62667.84
582.42	62766.15
582.58	62677.21
582.74	62815.30
582.90	62922.96
583.06	62873.81
583.22	62819.98
583.38	62859.77
583.54	62653.80
583.70	62721.68
583.86	62845.72
584.02	62649.12
584.18	62953.39
584.34	62761.47
584.50	62838.70
584.66	62908.92
584.82	62569.54
584.98	62635.08
585.14	62761.47
585.30	62663.16
585.46	62787.21
585.62	62695.93
585.78	62686.57
585.94	62382.30
586.10	62829.34
586.26	62731.04
586.42	63025.95
586.58	62951.05
586.74	62681.89
586.90	62728.70
587.06	62761.47
587.22	62782.53
587.38	62770.83
587.54	62979.14
587.70	62958.07
587.86	62965.09
588.02	63035.31
588.18	63084.46
588.34	62920.62
588.49	62901.90
588.65	62901.90
588.81	62901.90
