SpectraSuite Data File
++++++++++++++++++++++++++++++++++++
Date: Fri Oct 04 11:48:39 GMT-05:00 2013
User: price-jones
Dark Spectrum Present: No
Reference Spectrum Present: No
Number of Sampled Component Spectra: 1
Spectrometers: USB2+H05261
Integration Time (usec): 100000 (USB2+H05261)
Spectra Averaged: 1 (USB2+H05261)
Boxcar Smoothing: 0 (USB2+H05261)
Correct for Electrical Dark: No (USB2+H05261)
Strobe/Lamp Enabled: No (USB2+H05261)
Correct for Detector Non-linearity: No (USB2+H05261)
Correct for Stray Light: No (USB2+H05261)
Number of Pixels in Processed Spectrum: 2048
>>>>>Begin Processed Spectral Data<<<<<
365.73	67.88
365.92	67.88
366.12	67.88
366.32	0.00
366.52	0.00
366.72	0.00
366.91	0.00
367.11	0.00
367.31	0.00
367.51	0.00
367.70	0.00
367.90	0.00
368.10	0.00
368.30	0.00
368.49	0.00
368.69	0.00
368.89	0.00
369.09	0.00
369.28	0.00
369.48	0.00
369.68	0.00
369.87	0.00
370.07	0.00
370.27	32.77
370.47	58.51
370.66	388.53
370.86	458.74
371.06	512.58
371.25	503.22
371.45	433.00
371.65	491.51
371.84	440.02
372.04	463.43
372.24	535.98
372.44	498.53
372.63	580.45
372.83	596.84
373.03	521.94
373.22	470.45
373.42	554.71
373.62	571.09
373.81	559.39
374.01	629.60
374.21	585.13
374.40	564.07
374.60	725.57
374.79	540.66
374.99	610.88
375.19	692.80
375.38	655.35
375.58	660.03
375.78	765.36
375.97	655.35
376.17	699.82
376.37	645.99
376.56	704.50
376.76	657.69
376.95	676.41
377.15	674.07
377.35	702.16
377.54	725.57
377.74	772.38
377.93	706.84
378.13	720.88
378.33	730.25
378.52	699.82
378.72	777.06
378.91	730.25
379.11	671.73
379.31	674.07
379.50	760.67
379.70	858.98
379.89	788.76
380.09	919.83
380.28	741.95
380.48	699.82
380.68	760.67
380.87	763.01
381.07	884.72
381.26	847.27
381.46	753.65
381.65	863.66
381.85	856.64
382.04	896.43
382.24	856.64
382.43	795.78
382.63	844.93
382.83	905.79
383.02	917.49
383.22	940.90
383.41	788.76
383.61	901.11
383.80	873.02
384.00	837.91
384.19	924.51
384.39	891.74
384.58	1039.20
384.78	980.68
384.97	887.06
385.17	877.70
385.36	976.00
385.56	1004.09
385.75	978.34
385.95	1043.88
386.14	1006.43
386.34	1046.22
386.53	1034.52
386.72	947.92
386.92	1001.75
387.11	1048.56
387.31	992.39
387.50	1022.81
387.70	1022.81
387.89	1165.59
388.09	1153.88
388.28	1100.05
388.48	1050.90
388.67	1123.46
388.86	1151.54
389.06	1043.88
389.25	1139.84
389.45	1107.07
389.64	1235.80
389.84	1132.82
390.03	1102.39
390.22	1172.61
390.42	1139.84
390.61	1181.97
390.81	1188.99
391.00	1165.59
391.19	1301.34
391.39	1266.23
391.58	1277.93
391.78	1282.61
391.97	1263.89
392.16	1231.12
392.36	1416.02
392.55	1352.83
392.75	1289.64
392.94	1406.66
393.13	1352.83
393.33	1359.85
393.52	1437.09
393.71	1441.77
393.91	1394.96
394.10	1455.81
394.29	1497.94
394.49	1397.30
394.68	1474.54
394.88	1490.92
395.07	1486.24
395.26	1467.52
395.46	1568.16
395.65	1476.88
395.84	1483.90
396.04	1629.01
396.23	1565.82
396.42	1619.65
396.62	1535.39
396.81	1483.90
397.00	1659.44
397.19	1638.38
397.39	1570.50
397.58	1619.65
397.77	1645.40
397.97	1577.52
398.16	1617.31
398.35	1654.76
398.55	1661.78
398.74	1863.07
398.93	1720.29
399.12	1650.08
399.32	1682.85
399.51	1757.74
399.70	1785.83
399.90	1746.04
400.09	1776.47
400.28	1874.77
400.47	1905.20
400.67	1811.57
400.86	1921.58
401.05	1867.75
401.24	1933.28
401.44	1952.01
401.63	1966.05
401.82	2022.22
402.01	1991.80
402.21	1991.80
402.40	2043.29
402.59	2050.31
402.78	2066.69
402.97	2005.84
403.17	2019.88
403.36	2253.94
403.55	2153.29
403.74	2146.27
403.93	2188.40
404.13	2246.91
404.32	2260.96
404.51	2153.29
404.70	2256.28
404.89	2155.63
405.09	2356.92
405.28	2265.64
405.47	2298.41
405.66	2532.46
405.85	2258.62
406.05	2300.75
406.24	2492.67
406.43	2492.67
406.62	2490.33
406.81	2654.17
407.00	2443.52
407.20	2457.56
407.39	2527.78
407.58	2630.76
407.77	2532.46
407.96	2602.68
408.15	2504.37
408.34	2621.40
408.54	2703.32
408.73	2658.85
408.92	2665.87
409.11	2726.72
409.30	2752.47
409.49	2672.89
409.68	2848.43
409.87	2953.76
410.07	2881.20
410.26	2869.50
410.45	2895.24
410.64	2923.33
410.83	2972.48
411.02	2972.48
411.21	3033.33
411.40	3007.59
411.59	3103.55
411.78	3089.51
411.98	3047.38
412.17	3246.32
412.36	3101.21
412.55	3403.14
412.74	3274.41
412.93	3358.67
413.12	3229.94
413.31	3520.17
413.50	3314.20
413.69	3449.95
413.88	3641.87
414.07	3492.08
414.26	3548.25
414.45	3506.12
414.64	3597.40
414.83	3740.18
415.02	3693.37
415.22	3871.25
415.41	3777.62
415.60	3721.45
415.79	3925.08
415.98	3868.91
416.17	3985.93
416.36	3861.88
416.55	3861.88
416.74	4072.53
416.93	4035.08
417.12	4095.94
417.31	3990.61
417.50	4112.32
417.69	4152.11
417.88	4308.93
418.07	4105.30
418.26	4072.53
418.45	4308.93
418.64	4444.68
418.83	4552.34
419.02	4306.59
419.21	4425.95
419.39	4608.51
419.58	4475.10
419.77	4397.87
419.96	4554.68
420.15	4554.68
420.34	4528.94
420.53	4676.39
420.72	4638.94
420.91	4519.57
421.10	4695.11
421.29	4720.86
421.48	4631.92
421.67	4802.78
421.86	4678.73
422.05	4819.16
422.24	4699.80
422.43	4791.08
422.61	4894.06
422.80	4809.80
422.99	4802.78
423.18	4849.59
423.37	4919.81
423.56	5018.11
423.75	4835.55
423.94	4936.19
424.13	4732.56
424.32	4814.48
424.50	4961.94
424.69	5043.85
424.88	4957.25
425.07	4922.15
425.26	4849.59
425.45	4952.57
425.64	5018.11
425.83	5064.92
426.01	5083.64
426.20	5254.50
426.39	5109.39
426.58	4884.70
426.77	5046.20
426.96	5015.77
427.15	5102.37
427.33	5018.11
427.52	5130.45
427.71	5135.14
427.90	5174.92
428.09	5277.91
428.28	5233.44
428.46	5392.59
428.65	5387.91
428.84	5493.24
429.03	5509.62
429.22	5240.46
429.40	5549.41
429.59	5362.17
429.78	5219.39
429.97	5177.26
430.16	5418.34
430.34	5540.05
430.53	5650.05
430.72	5694.52
430.91	5474.51
431.10	5500.26
431.28	5673.46
431.47	5856.02
431.66	5778.78
431.85	5699.20
432.03	5919.21
432.22	5994.11
432.41	5774.10
432.60	5994.11
432.79	5963.68
432.97	6073.69
433.16	6054.97
433.35	5900.49
433.54	6148.59
433.72	6120.50
433.91	6047.94
434.10	6031.56
434.28	6150.93
434.47	6380.30
434.66	6406.05
434.85	6120.50
435.03	6253.91
435.22	6242.21
435.41	6511.37
435.59	6324.13
435.78	6289.02
435.97	6450.52
436.16	6354.55
436.34	6502.01
436.53	6506.69
436.72	6656.48
436.90	6291.36
437.09	6691.59
437.28	6375.62
437.46	6478.60
437.65	6633.08
437.84	6743.08
438.02	6754.79
438.21	6663.51
438.40	6633.08
438.58	6984.16
438.77	6991.18
438.96	7077.78
439.14	7021.61
439.33	7213.53
439.52	7068.42
439.70	7159.70
439.89	7239.28
440.08	7321.20
440.26	7466.31
440.45	7372.69
440.63	7590.36
440.82	7506.10
441.01	7487.37
441.19	7667.60
441.38	7789.30
441.57	7777.60
441.75	7749.51
441.94	7852.50
442.12	8100.59
442.31	8198.90
442.50	8147.40
442.68	7997.61
442.87	8013.99
443.05	8173.15
443.24	8168.47
443.43	7995.27
443.61	7969.52
443.80	8622.53
443.98	8046.76
444.17	7962.50
444.35	8479.76
444.54	8428.27
444.73	8184.85
444.91	8332.31
445.10	8524.23
445.28	8449.33
445.47	8285.50
445.65	8184.85
445.84	8631.90
446.02	8622.53
446.21	8344.01
446.39	8336.99
446.58	8709.13
446.77	8470.40
446.95	8313.58
447.14	8482.10
447.32	8592.11
447.51	8557.00
447.69	8489.12
447.88	8486.78
448.06	8486.78
448.25	8496.14
448.43	8655.30
448.62	8608.49
448.80	8592.11
448.99	8887.01
449.17	8863.61
449.36	8674.03
449.54	8964.25
449.73	8950.21
449.91	9013.40
450.10	9015.74
450.28	9076.60
450.46	9125.75
450.65	9312.99
450.83	9460.45
451.02	9366.82
451.20	9198.31
451.39	9259.16
451.57	9235.75
451.76	9128.09
451.94	9350.44
452.13	9448.74
452.31	9373.85
452.49	9167.88
452.68	9373.85
452.86	9371.50
453.05	9397.25
453.23	9612.58
453.42	9415.98
453.60	9341.08
453.78	9425.34
453.97	9490.87
454.15	9502.58
454.34	9586.83
454.52	9774.08
454.70	9816.21
454.89	9783.44
455.07	9675.77
455.26	9888.76
455.44	9996.43
455.62	9884.08
455.81	9818.55
455.99	9989.41
456.17	10017.49
456.36	10090.05
456.54	9951.96
456.73	10377.94
456.91	10640.08
457.09	10424.75
457.28	10670.50
457.46	10317.08
457.64	10429.43
457.83	10635.39
458.01	10567.52
458.19	10789.87
458.38	10675.18
458.56	10761.78
458.74	10707.95
458.93	10691.57
459.11	10920.94
459.29	10691.57
459.48	10719.65
459.66	10911.58
459.84	10925.62
460.03	11091.80
460.21	10916.26
460.39	11117.54
460.57	10864.77
460.76	11389.05
460.94	11239.25
461.12	11316.49
461.31	11403.09
461.49	11307.13
461.67	11169.04
461.85	11695.66
462.04	11435.86
462.22	11995.25
462.40	11662.89
462.59	11377.34
462.77	11627.78
462.95	11660.55
463.13	11632.46
463.32	11433.52
463.50	11922.69
463.68	11866.52
463.86	11871.20
464.05	11623.10
464.23	11660.55
464.41	12016.31
464.59	11655.87
464.78	11962.48
464.96	11831.41
465.14	12093.55
465.32	12313.56
465.50	12170.79
465.69	12196.53
465.87	12114.61
466.05	12187.17
466.23	11978.86
466.41	12212.92
466.60	12554.63
466.78	12360.37
466.96	12058.44
467.14	12355.69
467.32	12358.03
467.51	12781.67
467.69	12301.86
467.87	12622.51
468.05	12774.64
468.23	12353.35
468.41	12582.72
468.60	12758.26
468.78	12772.30
468.96	12695.07
469.14	12908.05
469.32	12957.21
469.50	12564.00
469.69	12940.82
469.87	13172.54
470.05	13303.60
470.23	13437.02
470.41	13338.71
470.59	13408.93
470.77	13303.60
470.95	13369.14
471.14	13612.56
471.32	13584.47
471.50	13708.52
471.68	13596.17
471.86	13834.91
472.04	13895.76
472.22	13834.91
472.40	13696.82
472.58	14075.98
472.77	13881.72
472.95	14099.39
473.13	14377.91
473.31	14410.68
473.49	14249.18
473.67	14288.97
473.85	14501.96
474.03	14604.94
474.21	14661.12
474.39	14778.14
474.57	14927.94
474.75	14843.68
474.93	15250.93
475.12	15337.53
475.30	15232.21
475.48	15012.20
475.66	15337.53
475.84	15590.31
476.02	15648.82
476.20	15557.54
476.38	15829.04
476.56	16011.60
476.74	15812.66
476.92	16114.59
477.10	16044.37
477.28	16142.67
477.46	16292.47
477.64	16599.08
477.82	16823.77
478.00	17032.08
478.18	17128.04
478.36	17142.08
478.54	17256.77
478.72	17277.83
478.90	17539.97
479.08	17542.32
479.26	17657.00
479.44	17790.41
479.62	18207.03
479.80	18061.91
479.98	18214.05
480.16	18436.40
480.34	18534.70
480.52	18984.09
480.70	19091.75
480.88	18616.62
481.06	18991.11
481.24	18977.06
481.41	19042.60
481.59	19768.16
481.77	19578.58
481.95	20004.56
482.13	19901.58
482.31	20123.93
482.49	20472.67
482.67	20556.93
482.85	20538.20
483.03	20683.31
483.21	20912.69
483.39	21366.75
483.57	21139.72
483.74	21462.71
483.92	21689.74
484.10	21357.39
484.28	21930.82
484.46	22190.62
484.64	22630.64
484.82	22080.61
485.00	22228.07
485.18	22738.30
485.35	23447.49
485.53	23075.34
485.71	23314.08
485.89	23718.99
486.07	23693.24
486.25	23665.16
486.43	24154.33
486.61	24046.66
486.78	24149.65
486.96	24514.77
487.14	24767.55
487.32	24849.47
487.50	24968.84
487.68	25076.50
487.85	25521.20
488.03	25589.08
488.21	26272.51
488.39	26082.93
488.57	26508.91
488.75	26579.12
488.92	26883.39
489.10	26906.80
489.28	27009.78
489.46	27498.95
489.64	27072.98
489.81	27850.03
489.99	27824.29
490.17	27992.81
490.35	28203.46
490.53	28491.34
490.70	28889.23
490.88	28577.94
491.06	29252.02
491.24	29029.66
491.41	29118.60
491.59	29881.62
491.77	29570.33
491.95	30122.69
492.13	30253.76
492.30	30656.34
492.48	30462.07
492.66	30604.84
492.84	30696.13
493.01	31157.21
493.19	31136.15
493.37	31384.24
493.54	31498.93
493.72	31782.13
493.90	31852.35
494.08	32385.99
494.25	32643.45
494.43	32526.42
494.61	32903.25
494.79	33041.34
494.96	32584.94
495.14	33308.16
495.32	33837.12
495.49	33429.87
495.67	34103.95
495.85	33881.60
496.02	34319.28
496.20	34405.88
496.38	34562.69
496.55	34609.50
496.73	34998.03
496.91	34513.54
497.09	35316.34
497.26	35288.26
497.44	35482.52
497.62	35763.39
497.79	35775.09
497.97	35763.39
498.14	36528.74
498.32	36404.69
498.50	36926.63
498.67	36914.93
498.85	36629.38
499.03	37043.66
499.20	36996.85
499.38	37240.26
499.56	37312.82
499.73	37862.85
499.91	38043.07
500.08	38171.80
500.26	37699.01
500.44	37699.01
500.61	38342.66
500.79	38534.58
500.97	38609.48
501.14	38759.27
501.32	38909.07
501.49	39009.71
501.67	38850.55
501.84	39089.29
502.02	39332.70
502.20	39412.28
502.37	39952.94
502.55	39833.58
502.72	39842.94
502.90	40004.44
503.07	39672.08
503.25	40275.94
503.43	39983.37
503.60	40666.81
503.78	40495.95
503.95	40746.39
504.13	40828.30
504.30	40631.70
504.48	40718.30
504.65	41029.59
504.83	41535.15
505.01	41921.34
505.18	41493.02
505.36	42150.71
505.53	41811.33
505.71	41914.31
505.88	42525.19
506.06	41581.96
506.23	42616.47
506.41	42658.60
506.58	42801.38
506.76	42923.08
506.93	42777.97
507.11	42759.25
507.28	42543.92
507.46	42880.95
507.63	43540.99
507.81	43562.05
507.98	43529.28
508.16	43737.59
508.33	43480.13
508.50	44133.14
508.68	44348.47
508.85	44577.84
509.03	44472.52
509.20	44465.50
509.38	44790.83
509.55	44957.01
509.73	45081.06
509.90	44926.58
510.08	45125.53
510.25	44973.39
510.42	45301.07
510.60	45422.78
510.77	45837.05
510.95	45790.24
511.12	45450.86
511.30	45565.55
511.47	45968.12
511.64	46246.65
511.82	46497.08
511.99	46469.00
512.17	46630.49
512.34	46075.79
512.51	46726.46
512.69	46799.01
512.86	47058.81
513.04	47288.18
513.21	47489.47
513.38	47756.29
513.56	47370.10
513.73	47210.95
513.90	47416.91
514.08	47463.72
514.25	47791.40
514.43	48388.24
514.60	47880.34
514.77	48072.26
514.95	48259.51
515.12	47643.94
515.29	48142.48
515.47	48755.70
515.64	48652.72
515.81	48435.05
515.99	48601.22
516.16	48928.90
516.33	49064.65
516.51	49448.50
516.68	48371.85
516.85	48701.87
517.03	49256.57
517.20	49411.05
517.37	49251.89
517.54	49326.79
517.72	49397.01
517.89	48947.62
518.06	49453.18
518.24	49640.42
518.41	49359.56
518.58	50085.12
518.75	49935.33
518.93	50188.11
519.10	49675.53
519.27	50162.36
519.45	50117.89
519.62	49982.14
519.79	50263.00
519.96	50703.03
520.14	50595.36
520.31	50578.98
520.48	50672.60
520.65	50969.85
520.83	50960.48
521.00	51171.13
521.17	51040.06
521.34	50728.77
521.52	51187.52
521.69	51119.64
521.86	51533.92
522.03	51325.61
522.20	51487.10
522.38	51636.90
522.55	51704.77
522.72	51554.98
522.89	51927.13
523.07	52079.26
523.24	52023.09
523.41	52280.55
523.58	51622.86
523.75	52200.97
523.92	52044.15
524.10	52203.31
524.27	52622.26
524.44	52294.59
524.61	52484.17
524.78	52758.02
524.96	52437.36
525.13	52666.73
525.30	52432.68
525.47	52715.89
525.64	52713.55
525.81	52680.78
525.98	53006.11
526.16	52846.96
526.33	52690.14
526.50	53364.21
526.67	52882.06
526.84	53181.65
527.01	53207.40
527.18	53298.68
527.36	53338.47
527.53	53258.89
527.70	53691.89
527.87	53701.25
528.04	53380.60
528.21	53492.94
528.38	53399.32
528.55	53911.90
528.72	53808.92
528.89	53450.81
529.07	53951.69
529.24	53591.25
529.41	54160.00
529.58	53584.22
529.75	53595.93
529.92	53698.91
530.09	54122.55
530.26	54244.26
530.43	54225.53
530.60	54330.86
530.77	54232.55
530.94	54204.47
531.11	54288.73
531.28	54305.11
531.46	54160.00
531.63	54557.89
531.80	54536.82
531.97	54562.57
532.14	54780.24
532.31	54274.68
532.48	54808.32
532.65	54784.92
532.82	54822.37
532.99	54766.20
533.16	54621.08
533.33	54974.50
533.50	55187.49
533.67	54946.42
533.84	54871.52
534.01	55168.77
534.18	54658.53
534.35	55255.37
534.52	55246.00
534.69	55377.08
534.86	55489.42
535.03	55414.52
535.20	55154.72
535.37	55208.56
535.54	55643.90
535.71	55384.10
535.88	55442.61
536.05	55695.39
536.22	55688.37
536.38	55997.32
536.55	55812.41
536.72	55447.29
536.89	55641.56
537.06	55723.47
537.23	55980.93
537.40	55831.14
537.57	55950.51
537.74	55852.20
537.91	56273.50
538.08	56069.87
538.25	55859.23
538.42	56020.72
538.59	56353.08
538.75	55922.42
538.92	55973.91
539.09	56165.84
539.26	56044.13
539.43	56549.68
539.60	56463.08
539.77	56566.07
539.94	56722.88
540.11	56322.65
540.28	56477.13
540.44	56570.75
540.61	56327.33
540.78	56589.47
540.95	56811.82
541.12	56435.00
541.29	56643.30
541.46	56493.51
541.62	56629.26
541.79	56706.50
541.96	56423.29
542.13	56547.34
542.30	56875.02
542.47	56872.68
542.63	56966.30
542.80	57132.48
542.97	57221.42
543.14	57230.78
543.31	57261.21
543.48	57205.03
543.64	57471.85
543.81	57485.90
543.98	57567.82
544.15	57521.01
544.32	57516.32
544.48	57633.35
544.65	57563.14
544.82	57226.10
544.99	57343.12
545.16	57677.82
545.32	57549.09
545.49	57623.99
545.66	57701.23
545.83	57813.57
546.00	57853.36
546.16	57773.78
546.33	57387.60
546.50	57453.13
546.67	57710.59
546.83	57677.82
547.00	57879.11
547.17	57783.15
547.34	57635.69
547.50	58003.16
547.67	57989.11
547.84	58162.31
548.00	58099.12
548.17	58237.21
548.34	57808.89
548.51	58145.93
548.67	58255.93
548.84	58134.23
549.01	57876.77
549.18	58129.54
549.34	58003.16
549.51	58106.14
549.68	58234.87
549.84	58007.84
550.01	58295.72
550.18	58300.40
550.34	58234.87
550.51	58485.31
550.68	58562.54
550.84	58195.08
551.01	58543.82
551.18	58422.11
551.34	58344.87
551.51	58415.09
551.68	58644.46
551.84	58820.00
552.01	58504.03
552.18	58644.46
552.34	58550.84
552.51	58784.90
552.68	58695.95
552.84	58735.74
553.01	58880.86
553.18	58810.64
553.34	58857.45
553.51	58869.15
553.67	58866.81
553.84	59100.87
554.01	58979.16
554.17	58901.92
554.34	58930.01
554.51	58918.31
554.67	58988.52
554.84	59018.95
555.00	58644.46
555.17	59110.23
555.33	59037.67
555.50	58976.82
555.67	58908.94
555.83	59089.16
556.00	59210.87
556.16	59519.82
556.33	59028.31
556.50	59187.47
556.66	59238.96
556.83	59175.76
556.99	59337.26
557.16	59194.49
557.32	59372.37
557.49	59468.33
557.65	59119.59
557.82	59243.64
557.98	59346.62
558.15	59423.86
558.32	59353.65
558.48	59323.22
558.65	59461.31
558.81	59278.75
558.98	59353.65
559.14	59414.50
559.31	59355.99
559.47	59594.72
559.64	59374.71
559.80	59793.67
559.97	59784.30
560.13	59536.21
560.30	59540.89
560.46	59629.83
560.63	59641.53
560.79	59856.86
560.96	59629.83
561.12	59487.06
561.29	59678.98
561.45	60027.72
561.61	59803.03
561.78	59800.69
561.94	59906.01
562.11	59730.47
562.27	59845.16
562.44	59592.38
562.60	59765.58
562.77	59884.95
562.93	59625.15
563.10	60058.15
563.26	59922.40
563.42	59945.80
563.59	60011.34
563.75	59821.75
563.92	59880.27
564.08	59807.71
564.24	59943.46
564.41	59585.36
564.57	59693.02
564.74	59721.11
564.90	59924.74
565.07	60130.70
565.23	60229.01
565.39	59980.91
565.56	60233.69
565.72	59990.27
565.88	60093.25
566.05	59861.54
566.21	59828.77
566.38	60011.34
566.54	60018.36
566.70	60231.35
566.87	60289.86
567.03	60109.64
567.19	60193.90
567.36	60053.47
567.52	60121.34
567.68	60158.79
567.85	60154.11
568.01	60233.69
568.17	60233.69
568.34	60182.19
568.50	60306.24
568.66	60144.75
568.83	60315.61
568.99	60310.92
569.15	60137.72
569.32	59969.21
569.48	59875.58
569.64	60383.48
569.81	60275.82
569.97	60086.23
570.13	60413.91
570.30	60196.24
570.46	60355.39
570.62	60177.51
570.78	60402.21
570.95	60013.68
571.11	60378.80
571.27	60065.17
571.43	60214.96
571.60	60477.10
571.76	60126.02
571.92	60636.26
572.09	60481.78
572.25	60458.38
572.41	60261.77
572.57	60526.25
572.74	60584.77
572.90	60411.57
573.06	60383.48
573.22	60385.82
573.38	60474.76
573.55	60374.12
573.71	60439.65
573.87	60441.99
574.03	60523.91
574.20	60385.82
574.36	60437.31
574.52	60521.57
574.68	60456.04
574.84	60692.43
575.01	60580.09
575.17	60694.77
575.33	60505.19
575.49	60383.48
575.65	60694.77
575.82	60659.66
575.98	60418.59
576.14	60622.22
576.30	60505.19
576.46	60650.30
576.62	60418.59
576.79	60369.44
576.95	60418.59
577.11	60568.38
577.27	60636.26
577.43	60563.70
577.59	60456.04
577.75	60519.23
577.92	60294.54
578.08	60413.91
578.24	60519.23
578.40	60680.73
578.56	60624.56
578.72	60395.18
578.88	60825.84
579.04	60568.38
579.21	60509.87
579.37	60519.23
579.53	60671.37
579.69	60343.69
579.85	60762.65
580.01	60598.81
580.17	60409.23
580.33	60624.56
580.49	60945.21
580.65	60783.71
580.82	60891.38
580.98	60874.99
581.14	60687.75
581.30	60729.88
581.46	60706.47
581.62	60491.15
581.78	60509.87
581.94	60748.60
582.10	60786.05
582.26	60570.72
582.42	60715.84
582.58	60882.02
582.74	60779.03
582.90	60788.39
583.06	60498.17
583.22	60589.45
583.38	60727.54
583.54	60736.90
583.70	60727.54
583.86	60685.41
584.02	60683.07
584.18	60893.72
584.34	60844.57
584.50	60896.06
584.66	60764.99
584.82	60526.25
584.98	60877.33
585.14	60776.69
585.30	60654.98
585.46	60921.80
585.62	60753.29
585.78	60610.51
585.94	60837.54
586.10	60844.57
586.26	60683.07
586.42	60938.19
586.58	60994.36
586.74	60669.03
586.90	60706.47
587.06	60767.33
587.22	60853.93
587.38	60685.41
587.54	60917.12
587.70	60846.91
587.86	61029.47
588.02	60952.23
588.18	60980.32
588.34	60935.85
588.49	60903.08
588.65	60764.99
588.81	60823.50
588.97	60926.49
589.13	60874.99
