SpectraSuite Data File
++++++++++++++++++++++++++++++++++++
Date: Fri Oct 04 11:48:35 GMT-05:00 2013
User: price-jones
Dark Spectrum Present: No
Reference Spectrum Present: No
Number of Sampled Component Spectra: 1
Spectrometers: USB2+H05261
Integration Time (usec): 100000 (USB2+H05261)
Spectra Averaged: 1 (USB2+H05261)
Boxcar Smoothing: 0 (USB2+H05261)
Correct for Electrical Dark: No (USB2+H05261)
Strobe/Lamp Enabled: No (USB2+H05261)
Correct for Detector Non-linearity: No (USB2+H05261)
Correct for Stray Light: No (USB2+H05261)
Number of Pixels in Processed Spectrum: 2048
>>>>>Begin Processed Spectral Data<<<<<
365.73	0.00
365.92	0.00
366.12	0.00
366.32	0.00
366.52	0.00
366.72	0.00
366.91	0.00
367.11	0.00
367.31	0.00
367.51	0.00
367.70	0.00
367.90	0.00
368.10	0.00
368.30	0.00
368.49	0.00
368.69	0.00
368.89	0.00
369.09	0.00
369.28	0.00
369.48	0.00
369.68	14.04
369.87	0.00
370.07	0.00
370.27	23.41
370.47	138.09
370.66	311.29
370.86	372.15
371.06	435.34
371.25	386.19
371.45	348.74
371.65	362.78
371.84	425.98
372.04	339.38
372.24	374.49
372.44	468.11
372.63	491.51
372.83	557.05
373.03	454.06
373.22	430.66
373.42	428.32
373.62	390.87
373.81	416.62
374.01	587.47
374.21	538.32
374.40	517.26
374.60	559.39
374.79	557.05
374.99	496.19
375.19	479.81
375.38	458.74
375.58	526.62
375.78	528.96
375.97	528.96
376.17	650.67
376.37	561.73
376.56	482.15
376.76	543.00
376.95	498.53
377.15	493.85
377.35	531.30
377.54	566.41
377.74	592.16
377.93	486.83
378.13	568.75
378.33	608.54
378.52	613.22
378.72	601.52
378.91	615.56
379.11	657.69
379.31	533.64
379.50	475.13
379.70	702.16
379.89	674.07
380.09	582.79
380.28	564.07
380.48	627.26
380.68	603.86
380.87	547.69
381.07	657.69
381.26	699.82
381.46	697.48
381.65	653.01
381.85	582.79
382.04	674.07
382.24	664.71
382.43	662.37
382.63	690.46
382.83	739.61
383.02	760.67
383.22	690.46
383.41	699.82
383.61	711.52
383.80	758.33
384.00	791.10
384.19	748.97
384.39	751.31
384.58	706.84
384.78	835.57
384.97	798.12
385.17	816.85
385.36	788.76
385.56	851.96
385.75	755.99
385.95	760.67
386.14	753.65
386.34	732.59
386.53	823.87
386.72	863.66
386.92	793.44
387.11	851.96
387.31	847.27
387.50	877.70
387.70	823.87
387.89	849.61
388.09	809.83
388.28	908.13
388.48	826.21
388.67	882.38
388.86	800.46
389.06	976.00
389.25	978.34
389.45	985.37
389.64	924.51
389.84	933.87
390.03	903.45
390.22	952.60
390.42	912.81
390.61	936.21
390.81	910.47
391.00	1008.77
391.19	987.71
391.39	1043.88
391.58	957.28
391.78	1018.13
391.97	1060.26
392.16	978.34
392.36	1022.81
392.55	990.05
392.75	1135.16
392.94	1057.92
393.13	1071.97
393.33	1055.58
393.52	964.30
393.71	1062.60
393.91	1020.47
394.10	1076.65
394.29	1060.26
394.49	1062.60
394.68	1210.06
394.88	1191.33
395.07	1111.75
395.26	1172.61
395.46	1142.18
395.65	1163.25
395.84	1238.14
396.04	1362.19
396.23	1221.76
396.42	1315.38
396.62	1268.57
396.81	1259.21
397.00	1249.85
397.19	1186.65
397.39	1254.53
397.58	1306.02
397.77	1394.96
397.97	1369.21
398.16	1364.53
398.35	1387.94
398.55	1364.53
398.74	1418.36
398.93	1460.49
399.12	1378.58
399.32	1373.89
399.51	1434.75
399.70	1406.66
399.90	1504.96
400.09	1425.39
400.28	1486.24
400.47	1554.12
400.67	1603.27
400.86	1561.14
401.05	1582.20
401.24	1565.82
401.44	1540.07
401.63	1600.93
401.82	1682.85
402.01	1678.16
402.21	1631.35
402.40	1633.69
402.59	1666.46
402.78	1689.87
402.97	1717.95
403.17	1734.34
403.36	1764.76
403.55	1720.29
403.74	1849.02
403.93	1746.04
404.13	1767.10
404.32	1832.64
404.51	1806.89
404.70	1799.87
404.89	1954.35
405.09	1919.24
405.28	1827.96
405.47	1923.92
405.66	2111.16
405.85	1996.48
406.05	2043.29
406.24	1919.24
406.43	2036.27
406.62	2090.10
406.81	2136.91
407.00	1982.43
407.20	2019.88
407.39	2071.37
407.58	2108.82
407.77	2249.25
407.96	2193.08
408.15	2169.68
408.34	2228.19
408.54	2232.87
408.73	2265.64
408.92	2370.96
409.11	2282.02
409.30	2328.83
409.49	2270.32
409.68	2380.32
409.87	2392.03
410.07	2368.62
410.26	2450.54
410.45	2480.97
410.64	2420.11
410.83	2462.24
411.02	2497.35
411.21	2637.78
411.40	2696.30
411.59	2672.89
411.78	2717.36
411.98	2595.65
412.17	2665.87
412.36	2733.75
412.55	2768.85
412.74	2810.98
412.93	2745.45
413.12	2834.39
413.31	3035.67
413.50	2829.71
413.69	2836.73
413.88	3023.97
414.07	2986.52
414.26	3073.12
414.45	3119.93
414.64	3009.93
414.83	3033.33
415.02	3122.27
415.22	3148.02
415.41	3405.48
415.60	3145.68
415.79	3215.90
415.98	3417.18
416.17	3353.99
416.36	3314.20
416.55	3421.86
416.74	3426.54
416.93	3433.57
417.12	3410.16
417.31	3581.02
417.50	3473.36
417.69	3639.53
417.88	3688.68
418.07	3564.64
418.26	3545.91
418.45	3798.69
418.64	3707.41
418.83	3801.03
419.02	3630.17
419.21	3754.22
419.39	3803.37
419.58	3751.88
419.77	3873.59
419.96	3868.91
420.15	3915.72
420.34	3836.14
420.53	3992.95
420.72	3885.29
420.91	4084.23
421.10	4091.26
421.29	4011.68
421.48	3999.98
421.67	4196.58
421.86	4023.38
422.05	4091.26
422.24	4030.40
422.43	4014.02
422.61	4081.89
422.80	4117.00
422.99	4177.86
423.18	4241.05
423.37	4250.41
423.56	4318.29
423.75	4287.86
423.94	4023.38
424.13	3805.71
424.32	4133.39
424.50	4215.30
424.69	4311.27
424.88	4421.27
425.07	4292.54
425.26	4161.47
425.45	4060.83
425.64	4152.11
425.83	4315.95
426.01	4252.75
426.20	4278.50
426.39	4344.03
426.58	4231.69
426.77	4276.16
426.96	4475.10
427.15	4451.70
427.33	4505.53
427.52	4348.72
427.71	4582.77
427.90	4479.79
428.09	4339.35
428.28	4582.77
428.46	4638.94
428.65	4512.55
428.84	4571.07
429.03	4667.03
429.22	4461.06
429.40	4793.42
429.59	4676.39
429.78	4620.22
429.97	4503.19
430.16	4519.57
430.34	4805.12
430.53	4933.85
430.72	4741.93
430.91	4744.27
431.10	4770.01
431.28	4847.25
431.47	4854.27
431.66	5125.77
431.85	4987.68
432.03	5174.92
432.22	5135.14
432.41	5083.64
432.60	5116.41
432.79	5036.83
432.97	5125.77
433.16	5064.92
433.35	5027.47
433.54	5231.10
433.72	5135.14
433.91	5160.88
434.10	5149.18
434.28	5128.11
434.47	5200.67
434.66	5121.09
434.85	5444.09
435.03	5495.58
435.22	5280.25
435.41	5633.67
435.59	5533.03
435.78	5533.03
435.97	5652.39
436.16	5502.60
436.34	5483.88
436.53	5401.96
436.72	5493.24
436.90	5586.86
437.09	5579.84
437.28	5537.71
437.46	5638.35
437.65	5685.16
437.84	5802.19
438.02	5724.95
438.21	5888.79
438.40	5762.40
438.58	5888.79
438.77	6080.71
438.96	5949.64
439.14	6099.44
439.33	6193.06
439.52	6047.94
439.70	6195.40
439.89	6296.04
440.08	6286.68
440.26	6441.15
440.45	6307.74
440.63	6399.02
440.82	6546.48
441.01	6394.34
441.19	6555.84
441.38	6583.93
441.57	6717.34
441.75	6834.36
441.94	6815.64
442.12	6963.09
442.31	7023.95
442.50	6995.86
442.68	6745.42
442.87	6972.46
443.05	6883.52
443.24	7108.21
443.43	7089.48
443.61	7033.31
443.80	7215.87
443.98	7108.21
444.17	6827.34
444.35	7133.95
444.54	7169.06
444.73	7112.89
444.91	7131.61
445.10	7063.74
445.28	7204.17
445.47	6939.69
445.65	7112.89
445.84	7124.59
446.02	7255.66
446.21	7061.40
446.39	7227.57
446.58	7375.03
446.77	7407.80
446.95	6960.75
447.14	7220.55
447.32	7325.88
447.51	7232.26
447.69	7325.88
447.88	7309.49
448.06	7370.35
448.25	7089.48
448.43	7424.18
448.62	7239.28
448.80	7250.98
448.99	7360.98
449.17	7447.58
449.36	7604.40
449.54	7513.12
449.73	7672.28
449.91	7515.46
450.10	7803.35
450.28	7707.38
450.46	7698.02
450.65	7845.48
450.83	7850.16
451.02	7791.64
451.20	7995.27
451.39	7915.69
451.57	7885.26
451.76	7946.12
451.94	7925.05
452.13	8011.65
452.31	7936.76
452.49	7974.21
452.68	8016.33
452.86	7999.95
453.05	7894.63
453.23	8180.17
453.42	7976.55
453.60	8056.12
453.78	8196.56
453.97	8028.04
454.15	8124.00
454.34	8021.02
454.52	8329.97
454.70	8439.97
454.89	8236.35
455.07	8351.03
455.26	8383.80
455.44	8428.27
455.62	8395.50
455.81	8292.52
455.99	8472.74
456.17	8645.94
456.36	8667.00
456.54	8842.54
456.73	8858.93
456.91	8978.30
457.09	9011.06
457.28	8992.34
457.46	8744.24
457.64	8858.93
457.83	9172.56
458.01	8816.80
458.19	9062.55
458.38	8997.02
458.56	9254.48
458.74	9048.51
458.93	9259.16
459.11	9172.56
459.29	9132.77
459.48	9242.78
459.66	9179.58
459.84	9100.00
460.03	9366.82
460.21	9242.78
460.39	9401.93
460.57	9465.13
460.76	9425.34
460.94	9458.10
461.12	9549.39
461.31	9547.05
461.49	9540.02
461.67	9516.62
461.85	9844.29
462.04	9771.74
462.22	10162.61
462.40	9827.91
462.59	9844.29
462.77	9860.68
462.95	9764.72
463.13	9764.72
463.32	10019.83
463.50	10078.35
463.68	10068.98
463.86	10083.03
464.05	9975.36
464.23	9811.53
464.41	10286.65
464.59	9940.26
464.78	10303.04
464.96	10057.28
465.14	10003.45
465.32	10513.69
465.50	10501.98
465.69	10373.25
465.87	10312.40
466.05	10422.41
466.23	10274.95
466.41	10539.43
466.60	10637.73
466.78	10532.41
466.96	10368.57
467.14	10459.85
467.32	10427.09
467.51	10621.35
467.69	10429.43
467.87	10775.83
468.05	10949.03
468.23	10537.09
468.41	10675.18
468.60	10686.89
468.78	10771.15
468.96	10567.52
469.14	10979.45
469.32	11061.37
469.50	10534.75
469.69	11129.25
469.87	11274.36
470.05	11323.51
470.23	11066.05
470.41	11253.30
470.59	11332.87
470.77	11257.98
470.95	11272.02
471.14	11356.28
471.32	11314.15
471.50	11655.87
471.68	11522.46
471.86	11585.65
472.04	11676.93
472.22	12131.00
472.40	11847.79
472.58	11850.13
472.77	11906.31
472.95	12004.61
473.13	12479.74
473.31	11843.11
473.49	11925.03
473.67	12126.32
473.85	12283.13
474.03	12564.00
474.21	12362.71
474.39	12599.10
474.57	12774.64
474.75	12868.27
474.93	12606.13
475.12	12589.74
475.30	12879.97
475.48	12905.71
475.66	13029.76
475.84	12917.42
476.02	13371.48
476.20	13060.19
476.38	13355.10
476.56	13647.66
476.74	13647.66
476.92	13514.25
477.10	13764.69
477.28	13788.10
477.46	13888.74
477.64	14087.68
477.82	14122.79
478.00	14490.26
478.18	14239.82
478.36	14504.30
478.54	14794.53
478.72	14611.96
478.90	14963.04
479.08	14906.87
479.26	14934.96
479.44	15009.86
479.62	14977.09
479.80	15269.66
479.98	15506.05
480.16	15475.62
480.34	15620.74
480.52	16105.23
480.70	16030.33
480.88	15913.30
481.06	15887.56
481.24	15946.07
481.41	16283.11
481.59	16264.38
481.77	16610.78
481.95	16594.40
482.13	16720.79
482.31	16933.78
482.49	17233.36
482.67	17451.03
482.85	17446.35
483.03	17720.20
483.21	17626.57
483.39	18153.20
483.57	17930.84
483.74	18003.40
483.92	18359.16
484.10	18066.60
484.28	18359.16
484.46	18628.32
484.64	19101.11
484.82	18537.04
485.00	18759.39
485.18	19176.01
485.35	19744.76
485.53	19295.38
485.71	19417.08
485.89	19913.28
486.07	19864.13
486.25	19744.76
486.43	19927.32
486.61	20528.84
486.78	20673.95
486.96	20762.89
487.14	20966.52
487.32	20795.66
487.50	21022.69
487.68	21165.46
487.85	21455.69
488.03	22080.61
488.21	21998.70
488.39	22178.92
488.57	22317.01
488.75	22431.69
488.92	22569.79
489.10	22803.84
489.28	22782.77
489.46	23220.45
489.64	23080.02
489.81	23515.36
489.99	23683.88
490.17	23709.63
490.35	24032.62
490.53	23777.50
490.70	24334.55
490.88	24032.62
491.06	24297.10
491.24	24554.56
491.41	24912.66
491.59	25074.16
491.77	24912.66
491.95	25174.80
492.13	25408.86
492.30	25731.85
492.48	25507.16
492.66	25731.85
492.84	25500.14
493.01	26153.15
493.19	26218.68
493.37	26651.68
493.54	26536.99
493.72	26815.52
493.90	26623.59
494.08	27318.73
494.25	27438.10
494.43	27229.79
494.61	27627.68
494.79	27674.49
494.96	27997.49
495.14	28126.22
495.32	28393.04
495.49	28208.14
495.67	28545.17
495.85	28741.78
496.02	28877.53
496.20	29057.75
496.38	28739.44
496.55	29139.67
496.73	29846.51
496.91	29472.03
497.09	29752.89
497.26	29591.39
497.44	29699.06
497.62	29905.02
497.79	30431.65
497.97	30265.47
498.14	30792.09
498.32	30976.99
498.50	30665.70
498.67	31381.90
498.85	30721.87
499.03	31225.09
499.20	31077.63
499.38	31330.41
499.56	31887.46
499.73	31576.17
499.91	31763.41
500.08	31952.99
500.26	31681.49
500.44	31957.67
500.61	31938.95
500.79	32580.26
500.97	32481.95
501.14	32591.96
501.32	32835.38
501.49	32868.14
501.67	32814.31
501.84	33191.14
502.02	33443.91
502.20	33209.86
502.37	34326.30
502.55	33184.12
502.72	33750.52
502.90	33303.48
503.07	33570.30
503.25	34125.01
503.43	33972.88
503.60	34162.46
503.78	33816.06
503.95	34497.16
504.13	34291.19
504.30	34541.63
504.48	34316.93
504.65	34888.03
504.83	35393.58
505.01	35365.49
505.18	34890.37
505.36	35641.68
505.53	35407.62
505.71	35262.51
505.88	35498.91
506.06	35218.04
506.23	36126.17
506.41	36058.29
506.58	36114.47
506.76	36135.53
506.93	36212.77
507.11	35962.33
507.28	36589.59
507.46	36711.30
507.63	36865.78
507.81	37361.97
507.98	36856.42
508.16	36746.41
508.33	37020.25
508.50	37322.18
508.68	37642.84
508.85	37357.29
509.03	37474.32
509.20	37574.96
509.38	37839.44
509.55	38007.96
509.73	37820.72
509.90	38108.60
510.08	38195.20
510.25	38305.21
510.42	38417.55
510.60	39021.41
510.77	38766.29
510.95	38817.78
511.12	38522.88
511.30	38822.47
511.47	39313.98
511.64	39145.46
511.82	39250.78
511.99	39339.72
512.17	39632.29
512.34	39203.97
512.51	39709.53
512.69	40084.01
512.86	39826.56
513.04	40671.49
513.21	40165.93
513.38	40280.62
513.56	40575.53
513.73	40332.11
513.90	40612.98
514.08	40119.12
514.25	40547.44
514.43	40730.00
514.60	41361.95
514.77	40832.99
514.95	41336.20
515.12	40605.95
515.29	40751.07
515.47	41502.38
515.64	41354.93
515.81	41523.44
515.99	41986.87
516.16	42639.88
516.33	41963.46
516.51	42429.23
516.68	41764.52
516.85	41511.74
517.03	42469.02
517.20	42693.71
517.37	42291.14
517.54	42258.37
517.72	42237.31
517.89	42436.25
518.06	42703.07
518.24	42855.21
518.41	42836.48
518.58	42822.44
518.75	42597.75
518.93	43297.57
519.10	43253.10
519.27	43517.58
519.45	43274.16
519.62	43627.59
519.79	43222.67
519.96	43583.12
520.14	43697.80
520.31	43866.32
520.48	43906.11
520.65	44123.78
520.83	44451.45
521.00	43983.35
521.17	44060.58
521.34	44079.31
521.52	44519.33
521.69	44390.60
521.86	44720.62
522.03	45052.97
522.20	44847.00
522.38	44844.66
522.55	44484.22
522.72	44863.39
522.89	45546.82
523.07	45928.33
523.24	45371.28
523.41	45610.02
523.58	44996.80
523.75	45514.06
523.92	45434.48
524.10	45361.92
524.27	45326.81
524.44	46113.23
524.61	46092.17
524.78	45776.20
524.96	46117.92
525.13	45757.47
525.30	45752.79
525.47	46361.33
525.64	46162.39
525.81	46082.81
525.98	46426.87
526.16	46302.82
526.33	46300.48
526.50	47028.38
526.67	46756.88
526.84	46410.48
527.01	46850.50
527.18	46649.22
527.36	46913.70
527.53	47145.41
527.70	47187.54
527.87	46944.12
528.04	47316.27
528.21	47056.47
528.38	47505.85
528.55	47545.64
528.72	47805.44
528.89	47550.32
529.07	47409.89
529.24	47562.03
529.41	47660.33
529.58	47510.53
529.75	47845.23
529.92	47826.51
530.09	48030.13
530.26	48325.04
530.43	48271.21
530.60	48229.08
530.77	48011.41
530.94	47744.59
531.11	47955.24
531.28	47899.06
531.46	48442.07
531.63	48570.80
531.80	48208.01
531.97	48411.64
532.14	48744.00
532.31	48385.89
532.48	48582.50
532.65	48940.60
532.82	48807.19
532.99	48348.45
533.16	48942.94
533.33	49364.24
533.50	49387.64
533.67	49113.80
533.84	49045.93
534.01	48846.98
534.18	48842.30
534.35	49523.40
534.52	49298.70
534.69	49631.06
534.86	49867.45
535.03	49345.51
535.20	49188.70
535.37	49389.98
535.54	50000.86
535.71	49628.72
535.88	49956.39
536.05	49656.81
536.22	49776.17
536.38	50281.73
536.55	50209.17
536.72	49811.28
536.89	49951.71
537.06	49897.88
537.23	50312.16
537.40	50012.57
537.57	50024.27
537.74	50326.20
537.91	50894.95
538.08	50342.58
538.25	50375.35
538.42	50567.27
538.59	50775.58
538.75	50094.49
538.92	50398.76
539.09	50916.01
539.26	50506.42
539.43	50770.90
539.60	50852.82
539.77	50504.08
539.94	51056.45
540.11	50995.59
540.28	50642.17
540.44	50745.15
540.61	50932.40
540.78	50824.73
540.95	50934.74
541.12	50784.94
541.29	51377.10
541.46	50845.80
541.62	50813.03
541.79	50925.38
541.96	50972.19
542.13	51185.18
542.30	51143.05
542.47	51615.83
542.63	51779.67
542.80	51517.53
542.97	51987.98
543.14	51875.63
543.31	51587.75
543.48	51728.18
543.64	52023.09
543.81	51936.49
543.98	51943.51
544.15	51791.37
544.32	51903.72
544.48	52257.14
544.65	52264.16
544.82	51863.93
544.99	51807.76
545.16	52240.76
545.32	52109.69
545.49	52308.63
545.66	52589.50
545.83	52385.87
546.00	52523.96
546.16	52285.23
546.33	52189.27
546.50	52203.31
546.67	52374.17
546.83	51990.32
547.00	52502.90
547.17	52610.56
547.34	52406.94
547.50	52711.20
547.67	52835.25
547.84	52561.41
548.00	52692.48
548.17	52926.53
548.34	52610.56
548.51	52608.22
548.67	52870.36
548.84	53298.68
549.01	52992.07
549.18	52931.22
549.34	52945.26
549.51	52762.70
549.68	53045.90
549.84	52938.24
550.01	53071.65
550.18	53242.51
550.34	53223.78
550.51	53263.57
550.68	53125.48
550.84	53209.74
551.01	53202.72
551.18	53088.03
551.34	52884.40
551.51	53179.31
551.68	53425.07
551.84	53602.95
552.01	53525.71
552.18	53521.03
552.34	53492.94
552.51	53324.43
552.68	53389.96
552.84	53490.60
553.01	53663.80
553.18	53504.65
553.34	53804.24
553.51	53862.75
553.67	53659.12
553.84	53663.80
554.01	53811.26
554.17	53834.66
554.34	53691.89
554.51	53764.45
554.67	53890.83
554.84	53822.96
555.00	53769.13
555.17	53930.62
555.33	53965.73
555.50	54113.19
555.67	53982.12
555.83	54005.52
556.00	53858.07
556.16	54419.80
556.33	53956.37
556.50	54035.95
556.66	54138.93
556.83	53939.99
556.99	54492.35
557.16	54372.99
557.32	54569.59
557.49	54176.38
557.65	53818.28
557.82	54164.68
557.98	53862.75
558.15	54274.68
558.32	54424.48
558.48	54473.63
558.65	54391.71
558.81	54384.69
558.98	54464.27
559.14	54131.91
559.31	54333.20
559.47	54499.37
559.64	54623.42
559.80	54637.47
559.97	54733.43
560.13	54670.23
560.30	54686.62
560.46	54499.37
560.63	54614.06
560.79	54787.26
560.96	54527.46
561.12	54403.41
561.29	54466.61
561.45	54588.31
561.61	54688.96
561.78	54883.22
561.94	54618.74
562.11	54740.45
562.27	54557.89
562.44	54768.54
562.60	54248.94
562.77	54726.41
562.93	54707.68
563.10	55014.29
563.26	54693.64
563.42	55089.19
563.59	54817.69
563.75	54997.91
563.92	54932.37
564.08	54560.23
564.24	54604.70
564.41	54740.45
564.57	54742.79
564.74	54703.00
564.90	55082.17
565.07	55016.63
565.23	54930.03
565.39	54969.82
565.56	54988.55
565.72	55072.81
565.88	54953.44
566.05	55105.57
566.21	54911.31
566.38	54756.83
566.54	55238.98
566.70	55215.58
566.87	55313.88
567.03	54876.20
567.19	55269.41
567.36	55267.07
567.52	54836.41
567.68	55215.58
567.85	54979.18
568.01	54965.14
568.17	54817.69
568.34	55278.77
568.50	55227.28
568.66	55356.01
568.83	55260.05
568.99	55311.54
569.15	55121.96
569.32	55133.66
569.48	54850.45
569.64	55152.38
569.81	55084.51
569.97	54981.52
570.13	55384.10
570.30	55187.49
570.46	55295.16
570.62	55065.78
570.78	55189.83
570.95	55002.59
571.11	55302.18
571.27	55145.36
571.43	55196.85
571.60	55231.96
571.76	55274.09
571.92	55498.78
572.09	55206.22
572.25	55332.60
572.41	55208.56
572.57	55269.41
572.74	55416.86
572.90	55229.62
573.06	55262.39
573.22	55482.40
573.38	55395.80
573.55	55363.03
573.71	55426.23
573.87	55522.19
574.03	55491.76
574.20	55341.97
574.36	55262.39
574.52	55281.11
574.68	55374.73
574.84	55606.45
575.01	55517.51
575.17	55599.43
575.33	55529.21
575.49	55564.32
575.65	55585.38
575.82	55517.51
575.98	55363.03
576.14	55318.56
576.30	55440.27
576.46	55145.36
576.62	55358.35
576.79	55508.14
576.95	55264.73
577.11	55447.29
577.27	55590.06
577.43	55456.65
577.59	55561.98
577.75	55339.63
577.92	55192.17
578.08	55117.28
578.24	55583.04
578.40	55306.86
578.56	55566.66
578.72	55341.97
578.88	55480.06
579.04	55695.39
579.21	55505.80
579.37	55435.59
579.53	55608.79
579.69	55381.76
579.85	55449.63
580.01	55332.60
580.17	55391.12
580.33	55393.46
580.49	55826.46
580.65	55587.72
580.82	55686.03
580.98	55576.02
581.14	55810.07
581.30	55796.03
581.46	55440.27
581.62	55487.08
581.78	55304.52
581.94	55679.00
582.10	55580.70
582.26	55639.22
582.42	55416.86
582.58	55826.46
582.74	55583.04
582.90	55882.63
583.06	55716.45
583.22	55510.49
583.38	55571.34
583.54	55728.16
583.70	55508.14
583.86	55618.15
584.02	55683.69
584.18	55882.63
584.34	55697.73
584.50	56004.34
584.66	55533.89
584.82	55278.77
584.98	55716.45
585.14	55664.96
585.30	55519.85
585.46	55753.90
585.62	55496.44
585.78	55716.45
585.94	55466.02
586.10	55702.41
586.26	55606.45
586.42	55803.05
586.58	55896.67
586.74	55767.94
586.90	55547.93
587.06	55552.62
587.22	55662.62
587.38	55536.23
587.54	55826.46
587.70	56109.66
587.86	55929.44
588.02	55735.18
588.18	55950.51
588.34	55571.34
588.49	55894.33
588.65	55908.38
588.81	55625.17
588.97	55819.44
589.13	55786.67
589.29	55679.00
589.45	55875.61
589.61	55938.80
589.77	56072.21
