SpectraSuite Data File
++++++++++++++++++++++++++++++++++++
Date: Fri Oct 04 11:48:45 GMT-05:00 2013
User: price-jones
Dark Spectrum Present: No
Reference Spectrum Present: No
Number of Sampled Component Spectra: 1
Spectrometers: USB2+H05261
Integration Time (usec): 100000 (USB2+H05261)
Spectra Averaged: 1 (USB2+H05261)
Boxcar Smoothing: 0 (USB2+H05261)
Correct for Electrical Dark: No (USB2+H05261)
Strobe/Lamp Enabled: No (USB2+H05261)
Correct for Detector Non-linearity: No (USB2+H05261)
Correct for Stray Light: No (USB2+H05261)
Number of Pixels in Processed Spectrum: 2048
>>>>>Begin Processed Spectral Data<<<<<
365.73	28.09
365.92	28.09
366.12	28.09
366.32	0.00
366.52	0.00
366.72	0.00
366.91	0.00
367.11	0.00
367.31	0.00
367.51	0.00
367.70	0.00
367.90	0.00
368.10	0.00
368.30	0.00
368.49	0.00
368.69	0.00
368.89	0.00
369.09	0.00
369.28	0.00
369.48	0.00
369.68	0.00
369.87	0.00
370.07	0.00
370.27	2.34
370.47	79.58
370.66	248.10
370.86	374.49
371.06	337.04
371.25	407.25
371.45	276.18
371.65	423.64
371.84	365.12
372.04	344.06
372.24	437.68
372.44	351.08
372.63	423.64
372.83	437.68
373.03	360.44
373.22	425.98
373.42	414.27
373.62	425.98
373.81	526.62
374.01	423.64
374.21	454.06
374.40	423.64
374.60	503.22
374.79	496.19
374.99	491.51
375.19	468.11
375.38	547.69
375.58	442.36
375.78	615.56
375.97	500.87
376.17	561.73
376.37	491.51
376.56	484.49
376.76	545.34
376.95	475.13
377.15	582.79
377.35	552.37
377.54	557.05
377.74	454.06
377.93	456.40
378.13	543.00
378.33	559.39
378.52	505.56
378.72	580.45
378.91	535.98
379.11	580.45
379.31	580.45
379.50	538.32
379.70	510.24
379.89	493.85
380.09	543.00
380.28	608.54
380.48	592.16
380.68	599.18
380.87	561.73
381.07	608.54
381.26	587.47
381.46	573.43
381.65	613.22
381.85	610.88
382.04	617.90
382.24	643.65
382.43	573.43
382.63	610.88
382.83	645.99
383.02	613.22
383.22	674.07
383.41	620.24
383.61	638.97
383.80	664.71
384.00	631.94
384.19	727.91
384.39	636.63
384.58	685.78
384.78	638.97
384.97	636.63
385.17	720.88
385.36	692.80
385.56	695.14
385.75	655.35
385.95	645.99
386.14	753.65
386.34	760.67
386.53	711.52
386.72	706.84
386.92	791.10
387.11	709.18
387.31	741.95
387.50	744.29
387.70	702.16
387.89	795.78
388.09	798.12
388.28	739.61
388.48	772.38
388.67	774.72
388.86	779.40
389.06	777.06
389.25	793.44
389.45	800.46
389.64	779.40
389.84	851.96
390.03	798.12
390.22	849.61
390.42	755.99
390.61	821.53
390.81	819.19
391.00	835.57
391.19	961.96
391.39	819.19
391.58	814.51
391.78	915.15
391.97	950.26
392.16	842.59
392.36	959.62
392.55	959.62
392.75	961.96
392.94	954.94
393.13	947.92
393.33	919.83
393.52	987.71
393.71	997.07
393.91	1011.11
394.10	1006.43
394.29	922.17
394.49	947.92
394.68	987.71
394.88	1086.01
395.07	976.00
395.26	997.07
395.46	1008.77
395.65	1198.35
395.84	1125.80
396.04	1186.65
396.23	1130.48
396.42	1114.10
396.62	1132.82
396.81	1034.52
397.00	1146.86
397.19	1116.44
397.39	1146.86
397.58	1174.95
397.77	1247.51
397.97	1289.64
398.16	1296.66
398.35	1284.95
398.55	1137.50
398.74	1228.78
398.93	1334.11
399.12	1256.87
399.32	1247.51
399.51	1263.89
399.70	1373.89
399.90	1306.02
400.09	1343.47
400.28	1327.08
400.47	1301.34
400.67	1352.83
400.86	1371.55
401.05	1352.83
401.24	1280.27
401.44	1392.62
401.63	1416.02
401.82	1401.98
402.01	1516.67
402.21	1460.49
402.40	1565.82
402.59	1490.92
402.78	1359.85
402.97	1430.07
403.17	1455.81
403.36	1577.52
403.55	1542.41
403.74	1577.52
403.93	1621.99
404.13	1605.61
404.32	1593.90
404.51	1614.97
404.70	1579.86
404.89	1671.14
405.09	1668.80
405.28	1617.31
405.47	1666.46
405.66	1689.87
405.85	1732.00
406.05	1645.40
406.24	1666.46
406.43	1757.74
406.62	1785.83
406.81	1895.83
407.00	1900.52
407.20	1797.53
407.39	1806.89
407.58	1893.49
407.77	1940.30
407.96	1884.13
408.15	1949.67
408.34	1956.69
408.54	1947.33
408.73	1802.21
408.92	1968.39
409.11	1968.39
409.30	1977.75
409.49	2001.16
409.68	2073.71
409.87	2097.12
410.07	2090.10
410.26	2172.02
410.45	2214.15
410.64	2094.78
410.83	2134.57
411.02	2169.68
411.21	2190.74
411.40	2239.89
411.59	2324.15
411.78	2237.55
411.98	2345.22
412.17	2345.22
412.36	2406.07
412.55	2427.14
412.74	2473.95
412.93	2373.30
413.12	2289.04
413.31	2539.48
413.50	2427.14
413.69	2539.48
413.88	2621.40
414.07	2569.91
414.26	2527.78
414.45	2506.71
414.64	2682.25
414.83	2635.44
415.02	2602.68
415.22	2663.53
415.41	2806.30
415.60	2801.62
415.79	2920.99
415.98	2906.95
416.17	2808.64
416.36	2902.26
416.55	2871.84
416.74	2939.71
416.93	2885.88
417.12	3220.58
417.31	3005.25
417.50	3117.59
417.69	3129.30
417.88	3119.93
418.07	3028.65
418.26	3133.98
418.45	3103.55
418.64	3349.31
418.83	3281.43
419.02	3307.18
419.21	3279.09
419.39	3267.39
419.58	3307.18
419.77	3290.79
419.96	3382.07
420.15	3346.97
420.34	3449.95
420.53	3424.20
420.72	3386.76
420.91	3461.65
421.10	3456.97
421.29	3454.63
421.48	3384.41
421.67	3557.61
421.86	3466.33
422.05	3501.44
422.24	3524.85
422.43	3485.06
422.61	3597.40
422.80	3662.94
422.99	3494.42
423.18	3562.30
423.37	3641.87
423.56	3763.58
423.75	3609.11
423.94	3569.32
424.13	3414.84
424.32	3625.49
424.50	3669.96
424.69	3880.61
424.88	3648.90
425.07	3674.64
425.26	3604.42
425.45	3609.11
425.64	3751.88
425.83	3716.77
426.01	3623.15
426.20	3730.81
426.39	3845.50
426.58	3763.58
426.77	3712.09
426.96	3824.44
427.15	3726.13
427.33	3803.37
427.52	3786.99
427.71	3836.14
427.90	3906.35
428.09	3922.74
428.28	3826.78
428.46	3850.18
428.65	3859.54
428.84	4077.21
429.03	4044.45
429.22	3810.39
429.40	3927.42
429.59	3983.59
429.78	3950.82
429.97	3946.14
430.16	3915.72
430.34	3957.85
430.53	4161.47
430.72	4182.54
430.91	4177.86
431.10	4102.96
431.28	4367.44
431.47	4271.48
431.66	4348.72
431.85	4046.79
432.03	4440.00
432.22	4344.03
432.41	4334.67
432.60	4458.72
432.79	4358.08
432.97	4440.00
433.16	4414.25
433.35	4505.53
433.54	4533.62
433.72	4425.95
433.91	4444.68
434.10	4397.87
434.28	4435.32
434.47	4578.09
434.66	4547.66
434.85	4493.83
435.03	4667.03
435.22	4634.26
435.41	4681.07
435.59	4774.69
435.78	4746.61
435.97	4746.61
436.16	4624.90
436.34	4744.27
436.53	4786.40
436.72	5004.07
436.90	4777.03
437.09	4880.02
437.28	4755.97
437.46	4943.21
437.65	4980.66
437.84	4975.98
438.02	5025.13
438.21	4959.60
438.40	4999.38
438.58	5191.31
438.77	5125.77
438.96	5135.14
439.14	5273.23
439.33	5277.91
439.52	5373.87
439.70	5359.83
439.89	5540.05
440.08	5472.17
440.26	5425.36
440.45	5343.44
440.63	5572.82
440.82	5636.01
441.01	5647.71
441.19	5654.73
441.38	5762.40
441.57	5694.52
441.75	5675.80
441.94	5933.26
442.12	5741.33
442.31	6019.86
442.50	6012.84
442.68	5951.98
442.87	6127.52
443.05	5827.93
443.24	6040.92
443.43	6008.16
443.61	6125.18
443.80	6174.33
443.98	5947.30
444.17	5884.11
444.35	6118.16
444.54	6031.56
444.73	6174.33
444.91	6139.23
445.10	5921.56
445.28	6106.46
445.47	6113.48
445.65	6235.19
445.84	6164.97
446.02	6279.66
446.21	6237.53
446.39	6195.40
446.58	6200.08
446.77	6359.24
446.95	6106.46
447.14	6265.61
447.32	6286.68
447.51	6104.12
447.69	6097.10
447.88	6431.79
448.06	6420.09
448.25	6392.00
448.43	6331.15
448.62	6296.04
448.80	6291.36
448.99	6387.32
449.17	6413.07
449.36	6511.37
449.54	6724.36
449.73	6642.44
449.91	6691.59
450.10	6815.64
450.28	6857.77
450.46	6707.98
450.65	6780.53
450.83	6626.06
451.02	6733.72
451.20	6773.51
451.39	6722.02
451.57	6827.34
451.76	6890.54
451.94	6801.60
452.13	7042.67
452.31	6853.09
452.49	6850.75
452.68	6913.94
452.86	6993.52
453.05	7037.99
453.23	6944.37
453.42	6977.14
453.60	6869.47
453.78	7082.46
453.97	6993.52
454.15	7026.29
454.34	7052.03
454.52	7176.08
454.70	7176.08
454.89	7288.43
455.07	7173.74
455.26	7377.37
455.44	7452.27
455.62	7208.85
455.81	7288.43
455.99	7485.03
456.17	7295.45
456.36	7321.20
456.54	7559.93
456.73	7559.93
456.91	7581.00
457.09	7510.78
457.28	7791.64
457.46	7632.49
457.64	7669.94
457.83	7782.28
458.01	7791.64
458.19	7896.97
458.38	7775.26
458.56	7880.58
458.74	7861.86
458.93	7749.51
459.11	7887.61
459.29	8021.02
459.48	8124.00
459.66	7964.84
459.84	8229.32
460.03	8236.35
460.21	8112.30
460.39	8119.32
460.57	7999.95
460.76	8175.49
460.94	8170.81
461.12	8095.91
461.31	8198.90
461.49	8250.39
461.67	8344.01
461.85	8456.36
462.04	8341.67
462.22	8966.59
462.40	8489.12
462.59	8533.59
462.77	8716.16
462.95	8685.73
463.13	8622.53
463.32	8592.11
463.50	8587.43
463.68	8648.28
463.86	8767.65
464.05	8606.15
464.23	8758.28
464.41	8905.74
464.59	8636.58
464.78	8894.04
464.96	8877.65
465.14	8730.20
465.32	8854.25
465.50	8954.89
465.69	9130.43
465.87	8872.97
466.05	8933.82
466.23	9006.38
466.41	8739.56
466.60	9303.63
466.78	8877.65
466.96	8912.76
467.14	9097.66
467.32	9057.87
467.51	9128.09
467.69	9011.06
467.87	9231.07
468.05	9252.14
468.23	9254.48
468.41	9205.33
468.60	9128.09
468.78	9207.67
468.96	9341.08
469.14	9378.53
469.32	9369.16
469.50	9415.98
469.69	9507.26
469.87	9476.83
470.05	9745.99
470.23	9650.03
470.41	9591.52
470.59	9678.12
470.77	9661.73
470.95	9837.27
471.14	9909.83
471.32	9736.63
471.50	9984.73
471.68	10094.73
471.86	10005.79
472.04	10298.36
472.22	10345.17
472.40	10104.09
472.58	10174.31
472.77	10085.37
472.95	10251.55
473.13	10670.50
473.31	10445.81
473.49	10501.98
473.67	10452.83
473.85	10506.66
474.03	10576.88
474.21	10817.96
474.39	10850.72
474.57	10913.92
474.75	10867.11
474.93	10902.22
475.12	11131.59
475.30	11154.99
475.48	10871.79
475.66	11463.94
475.84	11243.93
476.02	11653.53
476.20	11267.34
476.38	11375.00
476.56	11665.23
476.74	11634.80
476.92	11665.23
477.10	11845.45
477.28	11922.69
477.46	11859.49
477.64	12046.74
477.82	12053.76
478.00	12540.59
478.18	12379.09
478.36	12606.13
478.54	12388.46
478.72	12582.72
478.90	12791.03
479.08	12704.43
479.26	12842.52
479.44	13273.18
479.62	13095.30
479.80	13275.52
479.98	13270.84
480.16	13497.87
480.34	13521.27
480.52	13642.98
480.70	13659.37
480.88	13886.40
481.06	14031.51
481.24	14012.79
481.41	13914.48
481.59	14300.67
481.77	14398.98
481.95	14314.72
482.13	14656.43
482.31	14501.96
482.49	14934.96
482.67	14857.72
482.85	14963.04
483.03	15187.74
483.21	15440.51
483.39	15316.47
483.57	15398.38
483.74	15482.64
483.92	15660.52
484.10	15604.35
484.28	15932.03
484.46	16360.34
484.64	16416.52
484.82	16208.21
485.00	16322.90
485.18	16683.34
485.35	16968.88
485.53	16966.54
485.71	16856.54
485.89	17123.36
486.07	16982.93
486.25	17179.53
486.43	17446.35
486.61	17614.87
486.78	17771.69
486.96	17715.51
487.14	17869.99
487.32	18366.18
487.50	18317.03
487.68	18382.57
487.85	18616.62
488.03	18899.83
488.21	19124.52
488.39	19021.53
488.57	18888.12
488.75	19096.43
488.92	19543.47
489.10	19618.37
489.28	19641.78
489.46	20100.52
489.64	19913.28
489.81	20240.95
489.99	20116.90
490.17	20460.96
490.35	20966.52
490.53	20638.84
490.70	21118.65
490.88	20795.66
491.06	21163.12
491.24	21486.12
491.41	21371.43
491.59	21596.12
491.77	22012.74
491.95	21991.67
492.13	22043.17
492.30	22045.51
492.48	21862.94
492.66	22335.73
492.84	22349.78
493.01	22597.87
493.19	22518.29
493.37	23030.87
493.54	22838.95
493.72	23192.37
493.90	22881.08
494.08	23225.14
494.25	23704.95
494.43	23676.86
494.61	23903.89
494.79	23971.77
494.96	24091.13
495.14	24166.03
495.32	24299.44
495.49	24411.79
495.67	24704.35
495.85	24615.41
496.02	24987.56
496.20	24746.48
496.38	25053.09
496.55	25095.22
496.73	25954.20
496.91	25317.57
497.09	25530.56
497.26	25804.41
497.44	25881.64
497.62	25958.88
497.79	25942.50
497.97	25963.56
498.14	26473.80
498.32	26515.93
498.50	26689.13
498.67	27150.21
498.85	27056.59
499.03	27178.30
499.20	27082.34
499.38	27173.62
499.56	27667.47
499.73	27470.87
499.91	27337.46
500.08	27791.52
500.26	27957.70
500.44	28004.51
500.61	28121.54
500.79	28051.32
500.97	28212.82
501.14	28737.10
501.32	28364.95
501.49	28247.93
501.67	28671.56
501.84	28875.19
502.02	28725.39
502.20	29289.46
502.37	28793.27
502.55	28884.55
502.72	29099.88
502.90	29261.38
503.07	29280.10
503.25	29493.09
503.43	29724.80
503.60	29617.14
503.78	30008.01
503.95	29570.33
504.13	30087.59
504.30	30150.78
504.48	29914.39
504.65	30087.59
504.83	30677.40
505.01	30691.44
505.18	30925.50
505.36	30899.75
505.53	30553.35
505.71	31159.55
505.88	31035.50
506.06	30742.94
506.23	31007.42
506.41	31297.64
506.58	31468.50
506.76	31321.05
506.93	31175.94
507.11	31213.38
507.28	31667.45
507.46	31716.60
507.63	31880.44
507.81	32048.96
507.98	32018.53
508.16	31842.99
508.33	32222.16
508.50	32182.37
508.68	32149.60
508.85	32786.22
509.03	32514.72
509.20	32577.92
509.38	33081.13
509.55	32875.16
509.73	33057.73
509.90	33202.84
510.08	33057.73
510.25	33397.10
510.42	33411.15
510.60	33886.28
510.77	33640.52
510.95	33837.12
511.12	33797.34
511.30	33675.63
511.47	33797.34
511.64	34148.42
511.82	34686.74
511.99	34054.79
512.17	34668.02
512.34	34836.53
512.51	34522.90
512.69	34644.61
512.86	34904.41
513.04	35089.31
513.21	35014.41
513.38	34899.73
513.56	35117.40
513.73	34775.68
513.90	34927.81
514.08	35072.93
514.25	35339.75
514.43	35557.42
514.60	35866.37
514.77	35412.31
514.95	35494.22
515.12	35747.00
515.29	35782.11
515.47	35828.92
515.64	36421.08
515.81	36336.82
515.99	36547.47
516.16	36793.22
516.33	36297.03
516.51	36886.84
516.68	36292.35
516.85	36996.85
517.03	36346.18
517.20	36900.89
517.37	36931.31
517.54	37184.09
517.72	37500.06
517.89	37057.70
518.06	36814.29
518.24	37109.19
518.41	37195.79
518.58	37612.41
518.75	37736.46
518.93	37776.25
519.10	38075.84
519.27	38040.73
519.45	38115.62
519.62	37846.46
519.79	37883.91
519.96	38649.27
520.14	38803.74
520.31	38375.42
520.48	38251.38
520.65	38263.08
520.83	38836.51
521.00	38373.08
521.17	38604.80
521.34	38707.78
521.52	38822.47
521.69	39178.23
521.86	39416.96
522.03	38932.47
522.20	39576.12
522.38	39541.01
522.55	38911.41
522.72	39173.55
522.89	39332.70
523.07	39817.19
523.24	39936.56
523.41	39459.09
523.58	39571.44
523.75	39828.90
523.92	40011.46
524.10	39952.94
524.27	40119.12
524.44	40327.43
524.61	41088.10
524.78	40341.47
524.96	40760.43
525.13	40617.66
525.30	40549.78
525.47	41017.89
525.64	40828.30
525.81	40933.63
525.98	41074.06
526.16	41464.93
526.33	40835.33
526.50	41329.18
526.67	40645.74
526.84	41310.46
527.01	41385.35
527.18	41404.08
527.36	41074.06
527.53	41471.95
527.70	42012.62
527.87	41724.73
528.04	41532.81
528.21	41947.08
528.38	41617.07
528.55	41984.53
528.72	41963.46
528.89	42281.78
529.07	41970.49
529.24	42017.30
529.41	42321.57
529.58	42122.62
529.75	41804.31
529.92	42113.26
530.09	42244.33
530.26	42419.87
530.43	42279.44
530.60	42171.77
530.77	42417.53
530.94	42890.32
531.11	42553.28
531.28	42433.91
531.46	42829.46
531.63	42880.95
531.80	42871.59
531.97	43180.54
532.14	43320.98
532.31	42497.11
532.48	43040.11
532.65	43028.41
532.82	42630.52
532.99	43653.33
533.16	43302.25
533.33	43882.70
533.50	44091.01
533.67	43831.21
533.84	43503.54
534.01	43456.73
534.18	43119.69
534.35	43887.39
534.52	43892.07
534.69	43934.20
534.86	43931.86
535.03	44109.74
535.20	44315.70
535.37	44114.42
535.54	44062.93
535.71	43952.92
535.88	44086.33
536.05	44318.04
536.22	44978.07
536.38	44774.45
536.55	44720.62
536.72	44488.90
536.89	44346.13
537.06	44680.83
537.23	44900.84
537.40	44718.28
537.57	44868.07
537.74	44931.26
537.91	45237.87
538.08	45055.31
538.25	44678.49
538.42	44762.75
538.59	45151.27
538.75	45050.63
538.92	45207.45
539.09	45352.56
539.26	44989.78
539.43	45275.32
539.60	45797.26
539.77	45631.08
539.94	45921.31
540.11	45521.08
540.28	45778.54
540.44	45886.20
540.61	45354.90
540.78	45778.54
540.95	46017.27
541.12	46047.70
541.29	46003.23
541.46	45610.02
541.62	46007.91
541.79	46036.00
541.96	45827.69
542.13	46244.30
542.30	45998.55
542.47	46539.21
542.63	46637.51
542.80	46506.44
542.97	46834.12
543.14	46438.57
543.31	46394.10
543.48	46288.77
543.64	47428.62
543.81	46852.84
543.98	46871.57
544.15	47227.33
544.32	47281.16
544.48	47501.17
544.65	46827.10
544.82	47269.46
544.99	46873.91
545.16	47131.37
545.32	47168.82
545.49	47353.72
545.66	47512.88
545.83	47714.16
546.00	47742.25
546.16	47475.43
546.33	47049.45
546.50	46878.59
546.67	47187.54
546.83	47337.33
547.00	47622.88
547.17	47723.52
547.34	47601.82
547.50	47657.99
547.67	48142.48
547.84	48191.63
548.00	47800.76
548.17	48109.71
548.34	47999.71
548.51	48011.41
548.67	48252.48
548.84	48179.93
549.01	47496.49
549.18	48107.37
549.34	47966.94
549.51	48011.41
549.68	48062.90
549.84	48051.20
550.01	48685.48
550.18	48264.19
550.34	48346.11
550.51	48285.25
550.68	48189.29
550.84	48048.86
551.01	48451.43
551.18	48184.61
551.34	48528.67
551.51	48568.46
551.68	48451.43
551.84	48872.73
552.01	48198.65
552.18	49151.25
552.34	48776.76
552.51	48444.41
552.68	48610.59
552.84	48999.12
553.01	49127.84
553.18	48683.14
553.34	49038.90
553.51	49036.56
553.67	49076.35
553.84	49230.83
554.01	49085.72
554.17	49291.68
554.34	49242.53
554.51	49008.48
554.67	49181.68
554.84	49312.75
555.00	49448.50
555.17	49270.62
555.33	49397.01
555.50	49303.38
555.67	49202.74
555.83	49247.21
556.00	49399.35
556.16	49539.78
556.33	49584.25
556.50	49572.55
556.66	49406.37
556.83	49490.63
556.99	50258.32
557.16	49741.06
557.32	49752.77
557.49	49720.00
557.65	49588.93
557.82	49764.47
557.98	49413.39
558.15	49923.63
558.32	49890.86
558.48	49841.71
558.65	50082.78
558.81	49834.69
558.98	49787.88
559.14	50068.74
559.31	49909.58
559.47	49827.66
559.64	50199.81
559.80	49783.19
559.97	50356.63
560.13	49867.45
560.30	50160.02
560.46	50445.57
560.63	50012.57
560.79	50277.05
560.96	49942.35
561.12	50099.17
561.29	50035.97
561.45	50028.95
561.61	50319.18
561.78	50328.54
561.94	50206.83
562.11	50314.50
562.27	49844.05
562.44	50019.59
562.60	50080.44
562.77	50251.30
562.93	50300.45
563.10	49984.48
563.26	50475.99
563.42	50433.86
563.59	50436.20
563.75	50569.61
563.92	50880.91
564.08	50216.19
564.24	50373.01
564.41	50618.77
564.57	50499.40
564.74	50232.58
564.90	50410.46
565.07	50632.81
565.23	50787.28
565.39	50901.97
565.56	50979.21
565.72	50246.62
565.88	50672.60
566.05	50445.57
566.21	50745.15
566.38	50698.34
566.54	50354.29
566.70	50724.09
566.87	50878.57
567.03	50887.93
567.19	51047.08
567.36	50600.04
567.52	50763.88
567.68	51089.21
567.85	50691.32
568.01	50562.59
568.17	50471.31
568.34	50946.44
568.50	51262.41
568.66	51164.11
568.83	50974.53
568.99	50993.25
569.15	50703.03
569.32	50923.04
569.48	50649.19
569.64	50775.58
569.81	50698.34
569.97	50810.69
570.13	50923.04
570.30	51084.53
570.46	50658.56
570.62	51246.03
570.78	50990.91
570.95	50789.62
571.11	50990.91
571.27	50630.47
571.43	50618.77
571.60	51250.71
571.76	51274.12
571.92	50787.28
572.09	51096.24
572.25	51452.00
572.41	51311.56
572.57	50955.80
572.74	51084.53
572.90	50724.09
573.06	51058.79
573.22	50983.89
573.38	51196.88
573.55	51482.42
573.71	51494.13
573.87	51594.77
574.03	51093.89
574.20	51255.39
574.36	50848.14
574.52	51004.95
574.68	50880.91
574.84	51222.62
575.01	51618.17
575.17	51304.54
575.33	51187.52
575.49	51316.25
575.65	51217.94
575.82	51325.61
575.98	50883.25
576.14	51564.34
576.30	51295.18
576.46	51047.08
576.62	51374.76
576.79	51288.16
576.95	51154.75
577.11	51358.38
577.27	51489.45
577.43	51419.23
577.59	51533.92
577.75	51194.54
577.92	51215.60
578.08	51103.26
578.24	51229.65
578.40	50965.17
578.56	51353.69
578.72	50930.06
578.88	51643.92
579.04	51536.26
579.21	51379.44
579.37	51377.10
579.53	51662.64
579.69	51068.15
579.85	51166.45
580.01	51229.65
580.17	51437.95
580.33	51377.10
580.49	51625.20
580.65	51473.06
580.82	51529.23
580.98	51131.34
581.14	51215.60
581.30	51676.69
581.46	51164.11
581.62	50908.99
581.78	50983.89
581.94	51437.95
582.10	51316.25
582.26	51538.60
582.42	51477.74
582.58	51505.83
582.74	51566.68
582.90	51456.68
583.06	51770.31
583.22	51594.77
583.38	51515.19
583.54	51461.36
583.70	51461.36
583.86	51526.89
584.02	51325.61
584.18	51892.02
584.34	51428.59
584.50	51777.33
584.66	51662.64
584.82	51189.86
584.98	51435.61
585.14	51618.17
585.30	51426.25
585.46	51477.74
585.62	51395.82
585.78	51601.79
585.94	51330.29
586.10	51559.66
586.26	51494.13
586.42	51566.68
586.58	51725.84
586.74	51711.80
586.90	51393.48
587.06	51554.98
587.22	51536.26
587.38	51288.16
587.54	51772.65
587.70	51861.59
587.86	51419.23
588.02	51646.26
588.18	51627.54
588.34	51639.24
588.49	51295.18
588.65	51367.74
588.81	51620.52
588.97	51669.67
589.13	51838.18
589.29	51672.01
589.45	51728.18
589.61	51831.16
589.77	52002.02
589.93	52004.36
590.08	51908.40
590.24	51896.70
590.40	52210.33
