SpectraSuite Data File
++++++++++++++++++++++++++++++++++++
Date: Fri Oct 04 11:48:29 GMT-05:00 2013
User: price-jones
Dark Spectrum Present: No
Reference Spectrum Present: No
Number of Sampled Component Spectra: 1
Spectrometers: USB2+H05261
Integration Time (usec): 100000 (USB2+H05261)
Spectra Averaged: 1 (USB2+H05261)
Boxcar Smoothing: 0 (USB2+H05261)
Correct for Electrical Dark: No (USB2+H05261)
Strobe/Lamp Enabled: No (USB2+H05261)
Correct for Detector Non-linearity: No (USB2+H05261)
Correct for Stray Light: No (USB2+H05261)
Number of Pixels in Processed Spectrum: 2048
>>>>>Begin Processed Spectral Data<<<<<
365.73	63.19
365.92	63.19
366.12	63.19
366.32	0.00
366.52	0.00
366.72	0.00
366.91	0.00
367.11	0.00
367.31	0.00
367.51	0.00
367.70	0.00
367.90	0.00
368.10	0.00
368.30	0.00
368.49	0.00
368.69	0.00
368.89	0.00
369.09	0.00
369.28	0.00
369.48	0.00
369.68	0.00
369.87	16.38
370.07	0.00
370.27	58.51
370.47	74.90
370.66	407.25
370.86	470.45
371.06	489.17
371.25	608.54
371.45	482.15
371.65	421.30
371.84	444.70
372.04	498.53
372.24	573.43
372.44	554.71
372.63	575.77
372.83	582.79
373.03	608.54
373.22	575.77
373.42	655.35
373.62	561.73
373.81	624.92
374.01	624.92
374.21	629.60
374.40	566.41
374.60	624.92
374.79	634.29
374.99	645.99
375.19	688.12
375.38	674.07
375.58	606.20
375.78	664.71
375.97	653.01
376.17	711.52
376.37	692.80
376.56	690.46
376.76	669.39
376.95	629.60
377.15	716.20
377.35	730.25
377.54	699.82
377.74	683.44
377.93	760.67
378.13	645.99
378.33	884.72
378.52	812.17
378.72	779.40
378.91	816.85
379.11	798.12
379.31	725.57
379.50	760.67
379.70	770.04
379.89	814.51
380.09	781.74
380.28	805.14
380.48	884.72
380.68	856.64
380.87	798.12
381.07	830.89
381.26	889.40
381.46	791.10
381.65	858.98
381.85	795.78
382.04	912.81
382.24	851.96
382.43	987.71
382.63	809.83
382.83	950.26
383.02	924.51
383.22	901.11
383.41	882.38
383.61	833.23
383.80	957.28
384.00	870.68
384.19	1022.81
384.39	999.41
384.58	966.64
384.78	905.79
384.97	1036.86
385.17	1071.97
385.36	1029.84
385.56	1069.62
385.75	1041.54
385.95	1015.79
386.14	1004.09
386.34	945.58
386.53	1102.39
386.72	1069.62
386.92	1088.35
387.11	997.07
387.31	936.21
387.50	1146.86
387.70	1076.65
387.89	1090.69
388.09	1078.99
388.28	1191.33
388.48	1097.71
388.67	1139.84
388.86	1193.67
389.06	1207.72
389.25	1235.80
389.45	1191.33
389.64	1172.61
389.84	1228.78
390.03	1315.38
390.22	1273.25
390.42	1238.14
390.61	1170.27
390.81	1177.29
391.00	1158.57
391.19	1331.76
391.39	1317.72
391.58	1266.23
391.78	1338.79
391.97	1432.41
392.16	1348.15
392.36	1366.87
392.55	1411.34
392.75	1341.13
392.94	1362.19
393.13	1397.30
393.33	1406.66
393.52	1406.66
393.71	1519.01
393.91	1425.39
394.10	1444.11
394.29	1430.07
394.49	1376.24
394.68	1579.86
394.88	1469.86
395.07	1584.54
395.26	1572.84
395.46	1542.41
395.65	1542.41
395.84	1659.44
396.04	1533.05
396.23	1586.88
396.42	1521.35
396.62	1584.54
396.81	1612.63
397.00	1706.25
397.19	1696.89
397.39	1636.03
397.58	1579.86
397.77	1617.31
397.97	1657.10
398.16	1795.19
398.35	1673.48
398.55	1802.21
398.74	1659.44
398.93	1813.92
399.12	1792.85
399.32	1760.08
399.51	1830.30
399.70	1984.77
399.90	1844.34
400.09	1820.94
400.28	1825.62
400.47	1834.98
400.67	1856.04
400.86	1912.22
401.05	1919.24
401.24	1947.33
401.44	1928.60
401.63	2136.91
401.82	2026.90
402.01	2054.99
402.21	2078.40
402.40	2071.37
402.59	1959.03
402.78	2136.91
402.97	1973.07
403.17	2038.61
403.36	2148.61
403.55	2169.68
403.74	2204.78
403.93	2172.02
404.13	2251.60
404.32	2223.51
404.51	2162.66
404.70	2277.34
404.89	2373.30
405.09	2279.68
405.28	2335.85
405.47	2354.58
405.66	2349.90
405.85	2450.54
406.05	2431.82
406.24	2410.75
406.43	2537.14
406.62	2413.09
406.81	2469.27
407.00	2469.27
407.20	2345.22
407.39	2459.90
407.58	2553.52
407.77	2583.95
407.96	2654.17
408.15	2623.74
408.34	2675.23
408.54	2651.83
408.73	2785.24
408.92	2703.32
409.11	2745.45
409.30	2785.24
409.49	2792.26
409.68	2724.38
409.87	2813.32
410.07	2951.42
410.26	2895.24
410.45	2761.83
410.64	2825.03
410.83	3087.17
411.02	2965.46
411.21	3019.29
411.40	2991.20
411.59	2995.89
411.78	3178.45
411.98	3110.57
412.17	3054.40
412.36	3171.43
412.55	3227.60
412.74	3372.71
412.93	3309.52
413.12	3269.73
413.31	3330.58
413.50	3368.03
413.69	3431.23
413.88	3506.12
414.07	3501.44
414.26	3522.51
414.45	3471.01
414.64	3571.66
414.83	3576.34
415.02	3550.59
415.22	3754.22
415.41	3712.09
415.60	3744.86
415.79	3918.06
415.98	3805.71
416.17	3772.94
416.36	3742.52
416.55	3850.18
416.74	3974.23
416.93	4063.17
417.12	3999.98
417.31	4091.26
417.50	3962.53
417.69	4215.30
417.88	4201.26
418.07	4088.92
418.26	4280.84
418.45	4147.43
418.64	4325.31
418.83	4234.03
419.02	4187.22
419.21	4407.23
419.39	4304.25
419.58	4245.73
419.77	4269.14
419.96	4402.55
420.15	4332.33
420.34	4435.32
420.53	4498.51
420.72	4568.73
420.91	4606.17
421.10	4461.06
421.29	4669.37
421.48	4699.80
421.67	4615.54
421.86	4713.84
422.05	4709.16
422.24	4734.90
422.43	4674.05
422.61	4674.05
422.80	4720.86
422.99	4826.18
423.18	4868.31
423.37	4779.37
423.56	4779.37
423.75	4737.24
423.94	4770.01
424.13	4447.02
424.32	4622.56
424.50	4826.18
424.69	4894.06
424.88	4908.10
425.07	4692.77
425.26	4718.52
425.45	4880.02
425.64	4802.78
425.83	4905.76
426.01	4931.51
426.20	4901.08
426.39	4915.12
426.58	4938.53
426.77	4889.38
426.96	4964.28
427.15	4915.12
427.33	4875.34
427.52	5116.41
427.71	5130.45
427.90	5270.89
428.09	5107.05
428.28	5170.24
428.46	5095.35
428.65	5322.38
428.84	5355.15
429.03	5394.93
429.22	5214.71
429.40	5177.26
429.59	5334.08
429.78	5235.78
429.97	5130.45
430.16	5418.34
430.34	5451.11
430.53	5406.64
430.72	5476.85
430.91	5481.53
431.10	5521.32
431.28	5542.39
431.47	5717.93
431.66	5760.06
431.85	5612.60
432.03	5687.50
432.22	5951.98
432.41	5771.76
432.60	5708.57
432.79	5699.20
432.97	5907.51
433.16	6040.92
433.35	5970.71
433.54	6047.94
433.72	5802.19
433.91	5987.09
434.10	5930.92
434.28	5956.66
434.47	6195.40
434.66	6256.25
434.85	6022.20
435.03	6115.82
435.22	6045.60
435.41	6218.80
435.59	6401.37
435.78	6251.57
435.97	6296.04
436.16	6415.41
436.34	6286.68
436.53	6328.81
436.72	6595.63
436.90	6286.68
437.09	6586.27
437.28	6363.92
437.46	6429.45
437.65	6513.71
437.84	6647.12
438.02	6513.71
438.21	6504.35
438.40	6628.40
438.58	6799.26
438.77	6792.23
438.96	6719.68
439.14	6946.71
439.33	6930.33
439.52	7192.47
439.70	7159.70
439.89	7253.32
440.08	7201.83
440.26	7351.62
440.45	7187.79
440.63	7543.55
440.82	7494.40
441.01	7307.15
441.19	7440.56
441.38	7557.59
441.57	7536.52
441.75	7508.44
441.94	7768.24
442.12	7606.74
442.31	7639.51
442.50	7990.59
442.68	7880.58
442.87	7707.38
443.05	8030.38
443.24	8042.08
443.43	7906.33
443.61	8311.24
443.80	8336.99
443.98	8011.65
444.17	7948.46
444.35	8299.54
444.54	8318.26
444.73	8367.42
444.91	8039.74
445.10	8304.22
445.28	8381.46
445.47	8168.47
445.65	8152.09
445.84	8283.16
446.02	8313.58
446.21	8269.11
446.39	8142.72
446.58	8264.43
446.77	8329.97
446.95	8294.86
447.14	8222.30
447.32	8414.23
447.51	8442.31
447.69	8301.88
447.88	8535.93
448.06	8449.33
448.25	8379.12
448.43	8332.31
448.62	8402.52
448.80	8409.54
448.99	8791.05
449.17	8573.38
449.36	8571.04
449.54	8872.97
449.73	8959.57
449.91	8819.14
450.10	8685.73
450.28	9048.51
450.46	8755.94
450.65	8901.06
450.83	9144.47
451.02	8919.78
451.20	8985.32
451.39	9083.62
451.57	8954.89
451.76	9109.36
451.94	8936.17
452.13	9240.44
452.31	8966.59
452.49	8982.98
452.68	9310.65
452.86	9327.03
453.05	9231.07
453.23	9535.34
453.42	9338.74
453.60	9343.42
453.78	9472.15
453.97	9320.01
454.15	9434.70
454.34	9460.45
454.52	9696.84
454.70	9453.42
454.89	9603.22
455.07	9694.50
455.26	9624.28
455.44	9795.14
455.62	9682.80
455.81	9825.57
455.99	9699.18
456.17	10083.03
456.36	10026.86
456.54	10057.28
456.73	10033.88
456.91	10317.08
457.09	10354.53
457.28	10380.28
457.46	10181.33
457.64	10202.40
457.83	10382.62
458.01	10359.21
458.19	10324.10
458.38	10445.81
458.56	10693.91
458.74	10771.15
458.93	10497.30
459.11	10544.11
459.29	10736.04
459.48	10731.36
459.66	10658.80
459.84	10829.66
460.03	11300.11
460.21	10738.38
460.39	10913.92
460.57	10738.38
460.76	10930.30
460.94	11014.56
461.12	11040.31
461.31	10974.77
461.49	11105.84
461.67	10984.13
461.85	11297.77
462.04	11314.15
462.22	11705.02
462.40	11370.32
462.59	11482.67
462.77	11424.15
462.95	11648.85
463.13	11625.44
463.32	11531.82
463.50	11641.82
463.68	11712.04
463.86	11798.64
464.05	11400.75
464.23	11695.66
464.41	11653.53
464.59	11564.59
464.78	11889.92
464.96	11721.40
465.14	11786.94
465.32	12348.67
465.50	12077.16
465.69	12219.94
465.87	11901.62
466.05	11957.80
466.23	11899.28
466.41	12138.02
466.60	12395.48
466.78	11964.82
466.96	12102.91
467.14	12285.47
467.32	12402.50
467.51	12430.59
467.69	12098.23
467.87	12416.54
468.05	12020.99
468.23	12666.98
468.41	12372.07
468.60	12671.66
468.78	12828.48
468.96	12585.06
469.14	12713.79
469.32	12903.37
469.50	12676.34
469.69	13114.02
469.87	13011.04
470.05	13029.76
470.23	13144.45
470.41	12926.78
470.59	13303.60
470.77	12933.80
470.95	13205.30
471.14	13446.38
471.32	13135.09
471.50	13516.59
471.68	13708.52
471.86	13451.06
472.04	13846.61
472.22	13846.61
472.40	13549.36
472.58	13724.90
472.77	13923.85
472.95	14003.43
473.13	14328.76
473.31	14150.88
473.49	13975.34
473.67	14270.25
473.85	14340.46
474.03	14174.28
474.21	14518.34
474.39	14600.26
474.57	14710.27
474.75	14813.25
474.93	15166.67
475.12	14979.43
475.30	15318.81
475.48	14918.57
475.66	15222.84
475.84	15005.17
476.02	15360.94
476.20	15384.34
476.38	15576.27
476.56	16149.70
476.74	16109.91
476.92	15866.49
477.10	15768.19
477.28	16032.67
477.46	15957.77
477.64	16240.98
477.82	16645.89
478.00	16940.80
478.18	16798.02
478.36	17060.16
478.54	17231.02
478.72	16947.82
478.90	17352.73
479.08	17329.33
479.26	17420.61
479.44	17549.34
479.62	17891.06
479.80	17736.58
479.98	18101.70
480.16	18270.22
480.34	18216.39
480.52	18827.27
480.70	18431.72
480.88	18473.85
481.06	18829.61
481.24	18614.28
481.41	19239.20
481.59	19428.79
481.77	19417.08
481.95	19527.09
482.13	20088.82
482.31	19697.95
482.49	20290.10
482.67	19857.10
482.85	20517.14
483.03	20751.19
483.21	20905.66
483.39	20957.16
483.57	21032.05
483.74	20875.24
483.92	21558.67
484.10	21097.59
484.28	21888.69
484.46	22293.60
484.64	22569.79
484.82	22202.32
485.00	22317.01
485.18	22904.48
485.35	22965.34
485.53	23192.37
485.71	23506.00
485.89	23332.80
486.07	23285.99
486.25	23372.59
486.43	23494.30
486.61	23789.20
486.78	23997.51
486.96	24453.92
487.14	24589.67
487.32	24474.98
487.50	24879.89
487.68	25284.81
487.85	25027.35
488.03	25495.46
488.21	26169.53
488.39	25661.63
488.57	25867.60
488.75	26511.25
488.92	26476.14
489.10	26450.39
489.28	26857.65
489.46	27461.51
489.64	26920.84
489.81	27482.57
489.99	27587.89
490.17	27915.57
490.35	28189.41
490.53	28437.51
490.70	28788.59
490.88	28383.68
491.06	28900.94
491.24	28900.94
491.41	28950.09
491.59	29345.64
491.77	29474.37
491.95	29738.85
492.13	29479.05
492.30	30073.54
492.48	30305.26
492.66	30450.37
492.84	30700.81
493.01	30618.89
493.19	30874.01
493.37	31187.64
493.54	31395.95
493.72	31466.16
493.90	31775.11
494.08	32123.85
494.25	32414.08
494.43	32407.06
494.61	32091.09
494.79	32804.95
494.96	32886.87
495.14	32861.12
495.32	33626.48
495.49	33240.29
495.67	33560.94
495.85	33977.56
496.02	34298.21
496.20	34291.19
496.38	34057.14
496.55	34314.59
496.73	34763.98
496.91	35002.71
497.09	35070.59
497.26	35236.77
497.44	35171.23
497.62	34881.00
497.79	35910.84
497.97	35749.34
498.14	36224.47
498.32	36678.54
498.50	36629.38
498.67	36861.10
498.85	36664.49
499.03	36793.22
499.20	36711.30
499.38	37120.90
499.56	37165.37
499.73	37427.51
499.91	37776.25
500.08	38031.36
500.26	37663.90
500.44	37801.99
500.61	37713.05
500.79	38178.82
500.97	38415.21
501.14	38494.79
501.32	38679.69
501.49	38579.05
501.67	38424.57
501.84	38974.60
502.02	38906.73
502.20	39793.79
502.37	39309.30
502.55	39688.46
502.72	39906.13
502.90	39875.71
503.07	39915.50
503.25	40168.27
503.43	40041.88
503.60	40388.28
503.78	40362.54
503.95	40187.00
504.13	40634.04
504.30	41181.73
504.48	40748.73
504.65	41254.28
504.83	41656.85
505.01	42307.52
505.18	41811.33
505.36	41745.80
505.53	41904.95
505.71	41486.00
505.88	41916.65
506.06	41776.22
506.23	42476.04
506.41	42323.91
506.58	42593.07
506.76	42260.71
506.93	42270.08
507.11	42857.55
507.28	42590.73
507.46	42848.19
507.63	43290.55
507.81	43510.56
507.98	43213.31
508.16	42834.14
508.33	43688.44
508.50	43473.11
508.68	44247.83
508.85	44315.70
509.03	44172.93
509.20	44074.63
509.38	44657.42
509.55	44477.20
509.73	44535.71
509.90	45216.81
510.08	44945.31
510.25	44811.90
510.42	45219.15
510.60	45670.87
510.77	45387.67
510.95	45830.03
511.12	44999.14
511.30	45514.06
511.47	45734.07
511.64	46045.36
511.82	46131.96
511.99	45900.25
512.17	46220.90
512.34	46485.38
512.51	46897.31
512.69	46997.96
512.86	46663.26
513.04	46955.83
513.21	47299.89
513.38	47477.77
513.56	47437.98
513.73	47215.63
513.90	47318.61
514.08	47466.06
514.25	47564.37
514.43	47681.39
514.60	47798.42
514.77	48079.28
514.95	47983.32
515.12	48023.11
515.29	47892.04
515.47	48081.63
515.64	48641.01
515.81	48299.30
515.99	49118.48
516.16	49008.48
516.33	48903.15
516.51	48835.28
516.68	48765.06
516.85	49041.24
517.03	48921.88
517.20	49214.44
517.37	48971.03
517.54	49436.80
517.72	49600.63
517.89	49441.48
518.06	49546.80
518.24	49602.97
518.41	49148.91
518.58	49801.92
518.75	49663.83
518.93	50248.96
519.10	50349.60
519.27	50019.59
519.45	49993.84
519.62	50321.52
519.79	50021.93
519.96	50639.83
520.14	50834.10
520.31	50410.46
520.48	50873.88
520.65	50553.23
520.83	50951.12
521.00	51028.36
521.17	50365.99
521.34	50965.17
521.52	51016.66
521.69	51213.26
521.86	51395.82
522.03	51484.76
522.20	51274.12
522.38	51709.46
522.55	51618.17
522.72	51437.95
522.89	51959.89
523.07	52025.43
523.24	51957.55
523.41	52147.14
523.58	51669.67
523.75	52090.96
523.92	52140.11
524.10	52081.60
524.27	52069.90
524.44	52425.66
524.61	52701.84
524.78	52495.88
524.96	52399.91
525.13	52563.75
525.30	52385.87
525.47	52823.55
525.64	52685.46
525.81	52669.08
525.98	53193.36
526.16	52526.30
526.33	52722.91
526.50	53081.01
526.67	52903.13
526.84	53546.78
527.01	52928.87
527.18	53294.00
527.36	53167.61
527.53	53167.61
527.70	53581.88
527.87	53900.20
528.04	53478.90
528.21	53226.12
528.38	53619.33
528.55	53432.09
528.72	53722.32
528.89	53666.14
529.07	53895.52
529.24	53616.99
529.41	53965.73
529.58	53792.53
529.75	53839.34
529.92	54122.55
530.09	54075.74
530.26	54344.90
530.43	54150.63
530.60	54092.12
530.77	54312.13
530.94	54623.42
531.11	54335.54
531.28	54424.48
531.46	54326.17
531.63	54630.44
531.80	54578.95
531.97	54855.14
532.14	54663.21
532.31	54473.63
532.48	54436.18
532.65	54735.77
532.82	54356.60
532.99	54805.98
533.16	54904.29
533.33	55114.94
533.50	55276.43
533.67	55150.04
533.84	55145.36
534.01	54955.78
534.18	55079.83
534.35	55187.49
534.52	55255.37
534.69	55435.59
534.86	55559.64
535.03	55217.92
535.20	55295.16
535.37	55643.90
535.54	55639.22
535.71	55327.92
535.88	55599.43
536.05	55571.34
536.22	55781.99
536.38	55866.25
536.55	55583.04
536.72	55910.72
536.89	55880.29
537.06	55849.86
537.23	55856.88
537.40	55842.84
537.57	55690.71
537.74	56123.71
537.91	56362.44
538.08	56207.97
538.25	56271.16
538.42	56002.00
538.59	56409.25
538.75	56334.35
538.92	56301.59
539.09	56444.36
539.26	56266.48
539.43	56409.25
539.60	56765.01
539.77	56645.65
539.94	56416.27
540.11	56732.25
540.28	56378.82
540.44	56376.48
540.61	56694.80
540.78	56615.22
540.95	56865.66
541.12	56760.33
541.29	56669.05
541.46	56779.06
541.62	56783.74
541.79	56554.36
541.96	56505.21
542.13	56807.14
542.30	57073.96
542.47	57041.20
542.63	57160.56
542.80	57364.19
542.97	57366.53
543.14	57293.97
543.31	57165.24
543.48	57176.95
543.64	57415.68
543.81	57413.34
543.98	57577.18
544.15	57722.29
544.32	57663.78
544.48	57836.98
544.65	57546.75
544.82	57616.97
544.99	57303.34
545.16	57841.66
545.32	57668.46
545.49	57958.69
545.66	58014.86
545.83	58033.58
546.00	58174.02
546.16	58012.52
546.33	57705.91
546.50	57762.08
546.67	57792.51
546.83	57640.37
547.00	57659.10
547.17	57928.26
547.34	57954.00
547.50	58314.45
547.67	58234.87
547.84	58047.63
548.00	58284.02
548.17	58384.66
548.34	58129.54
548.51	58567.23
548.67	58550.84
548.84	58372.96
549.01	58262.96
549.18	58305.09
549.34	58319.13
549.51	58185.72
549.68	58272.32
549.84	58480.63
550.01	58588.29
550.18	58375.30
550.34	58548.50
550.51	58557.86
550.68	58625.74
550.84	58454.88
551.01	58745.11
551.18	58546.16
551.34	58562.54
551.51	58656.17
551.68	58684.25
551.84	58951.07
552.01	58897.24
552.18	58915.96
552.34	58691.27
552.51	59007.25
552.68	58934.69
552.84	58855.11
553.01	58920.65
553.18	58960.44
553.34	59121.93
553.51	59063.42
553.67	58930.01
553.84	59515.14
554.01	59243.64
554.17	58979.16
554.34	59105.55
554.51	59107.89
554.67	59461.31
554.84	59381.73
555.00	59070.44
555.17	59316.20
555.33	59203.85
555.50	59292.79
555.67	59248.32
555.83	59377.05
556.00	59456.63
556.16	59395.77
556.33	59465.99
556.50	59306.83
556.66	59650.89
556.83	59508.12
556.99	59604.08
557.16	59861.54
557.32	59533.87
557.49	59697.70
557.65	59442.59
557.82	59613.44
557.98	59690.68
558.15	59573.66
558.32	59678.98
558.48	59700.04
558.65	59599.40
558.81	59594.72
558.98	59639.19
559.14	59746.86
559.31	59580.68
559.47	59770.26
559.64	59920.05
559.80	59936.44
559.97	59948.14
560.13	59898.99
560.30	59908.35
560.46	59903.67
560.63	59669.62
560.79	60020.70
560.96	60065.17
561.12	59936.44
561.29	59966.87
561.45	60116.66
561.61	60388.16
561.78	60116.66
561.94	60158.79
562.11	60097.94
562.27	59936.44
562.44	59999.63
562.60	60004.31
562.77	60144.75
562.93	60397.52
563.10	60383.48
563.26	60037.08
563.42	60282.84
563.59	60226.66
563.75	60411.57
563.92	60198.58
564.08	60058.15
564.24	60264.11
564.41	59994.95
564.57	60083.89
564.74	60324.97
564.90	60287.52
565.07	60231.35
565.23	60371.78
565.39	60119.00
565.56	60257.09
565.72	60170.49
565.88	60257.09
566.05	60231.35
566.21	60247.73
566.38	60182.19
566.54	60252.41
566.70	60617.53
566.87	60544.98
567.03	60484.12
567.19	60776.69
567.36	60453.70
567.52	60528.59
567.68	60411.57
567.85	60264.11
568.01	60317.95
568.17	60423.27
568.34	60493.49
568.50	60652.64
568.66	60549.66
568.83	60580.09
568.99	60533.28
569.15	60589.45
569.32	60451.36
569.48	60367.10
569.64	60573.06
569.81	60285.18
569.97	60612.85
570.13	60673.71
570.30	60928.83
570.46	60673.71
570.62	60654.98
570.78	60622.22
570.95	60357.74
571.11	60610.51
571.27	60601.15
571.43	60612.85
571.60	60846.91
571.76	60748.60
571.92	60849.25
572.09	60940.53
572.25	60764.99
572.41	60631.58
572.57	60722.86
572.74	60769.67
572.90	60591.79
573.06	60610.51
573.22	60739.24
573.38	60867.97
573.55	60800.10
573.71	60977.98
573.87	60970.96
574.03	60977.98
574.20	60933.51
574.36	60776.69
574.52	60947.55
574.68	60692.43
574.84	61078.62
575.01	60996.70
575.17	61045.85
575.33	60973.30
575.49	60949.89
575.65	60898.40
575.82	60947.55
575.98	60940.53
576.14	61034.15
576.30	61027.13
576.46	60956.91
576.62	60835.20
576.79	60774.35
576.95	60935.85
577.11	60947.55
577.27	60963.93
577.43	61080.96
577.59	60947.55
577.75	60910.10
577.92	60760.31
578.08	61003.72
578.24	60884.36
578.40	60877.33
578.56	60956.91
578.72	60968.61
578.88	61230.75
579.04	61153.52
579.21	61102.03
579.37	61097.34
579.53	60985.00
579.69	60741.58
579.85	61090.32
580.01	61080.96
580.17	60973.30
580.33	61165.22
580.49	61050.53
580.65	61233.10
580.82	61200.33
580.98	60989.68
581.14	61085.64
581.30	61263.52
581.46	61071.60
581.62	60952.23
581.78	60711.16
581.94	61155.86
582.10	60931.17
582.26	61006.06
582.42	60985.00
582.58	61118.41
582.74	60985.00
582.90	61221.39
583.06	61104.37
583.22	60987.34
583.38	61055.21
583.54	61282.25
583.70	61160.54
583.86	61251.82
584.02	61102.03
584.18	61268.20
584.34	61535.02
584.50	61183.94
584.66	61202.67
584.82	61048.19
584.98	61212.03
585.14	61120.75
585.30	60903.08
585.46	61010.74
585.62	60970.96
585.78	61141.81
585.94	61090.32
586.10	61146.50
586.26	61064.58
586.42	61345.44
586.58	61471.83
586.74	61092.66
586.90	61111.39
587.06	61087.98
587.22	61265.86
587.38	61020.11
587.54	61303.31
587.70	61659.07
587.86	61343.10
588.02	61495.24
588.18	61396.93
588.34	61436.72
588.49	61338.42
588.65	61279.91
588.81	61268.20
588.97	61251.82
