SpectraSuite Data File
++++++++++++++++++++++++++++++++++++
Date: Fri Oct 04 11:48:41 GMT-05:00 2013
User: price-jones
Dark Spectrum Present: No
Reference Spectrum Present: No
Number of Sampled Component Spectra: 1
Spectrometers: USB2+H05261
Integration Time (usec): 100000 (USB2+H05261)
Spectra Averaged: 1 (USB2+H05261)
Boxcar Smoothing: 0 (USB2+H05261)
Correct for Electrical Dark: No (USB2+H05261)
Strobe/Lamp Enabled: No (USB2+H05261)
Correct for Detector Non-linearity: No (USB2+H05261)
Correct for Stray Light: No (USB2+H05261)
Number of Pixels in Processed Spectrum: 2048
>>>>>Begin Processed Spectral Data<<<<<
365.73	0.00
365.92	0.00
366.12	0.00
366.32	0.00
366.52	0.00
366.72	0.00
366.91	0.00
367.11	0.00
367.31	0.00
367.51	0.00
367.70	0.00
367.90	0.00
368.10	0.00
368.30	0.00
368.49	0.00
368.69	0.00
368.89	0.00
369.09	0.00
369.28	4.68
369.48	0.00
369.68	32.77
369.87	0.00
370.07	28.09
370.27	70.22
370.47	35.11
370.66	320.65
370.86	362.78
371.06	433.00
371.25	414.27
371.45	348.74
371.65	491.51
371.84	409.59
372.04	327.68
372.24	486.83
372.44	353.42
372.63	470.45
372.83	433.00
373.03	526.62
373.22	461.09
373.42	479.81
373.62	514.92
373.81	500.87
374.01	580.45
374.21	524.28
374.40	535.98
374.60	545.34
374.79	528.96
374.99	557.05
375.19	582.79
375.38	514.92
375.58	615.56
375.78	695.14
375.97	580.45
376.17	622.58
376.37	561.73
376.56	655.35
376.76	723.23
376.95	599.18
377.15	622.58
377.35	622.58
377.54	592.16
377.74	685.78
377.93	653.01
378.13	627.26
378.33	627.26
378.52	594.50
378.72	695.14
378.91	702.16
379.11	629.60
379.31	695.14
379.50	711.52
379.70	678.76
379.89	697.48
380.09	650.67
380.28	645.99
380.48	674.07
380.68	751.31
380.87	702.16
381.07	774.72
381.26	795.78
381.46	669.39
381.65	653.01
381.85	734.93
382.04	727.91
382.24	765.36
382.43	779.40
382.63	706.84
382.83	788.76
383.02	770.04
383.22	683.44
383.41	758.33
383.61	716.20
383.80	791.10
384.00	751.31
384.19	763.01
384.39	835.57
384.58	805.14
384.78	884.72
384.97	873.02
385.17	901.11
385.36	814.51
385.56	856.64
385.75	772.38
385.95	814.51
386.14	816.85
386.34	917.49
386.53	854.30
386.72	929.19
386.92	866.00
387.11	910.47
387.31	788.76
387.50	924.51
387.70	973.66
387.89	985.37
388.09	999.41
388.28	901.11
388.48	873.02
388.67	957.28
388.86	985.37
389.06	954.94
389.25	994.73
389.45	1025.15
389.64	1015.79
389.84	985.37
390.03	1004.09
390.22	1029.84
390.42	1095.37
390.61	961.96
390.81	997.07
391.00	1041.54
391.19	1118.78
391.39	978.34
391.58	1165.59
391.78	1132.82
391.97	1097.71
392.16	1074.31
392.36	1158.57
392.55	1160.91
392.75	1057.92
392.94	1151.54
393.13	1256.87
393.33	1125.80
393.52	1165.59
393.71	1191.33
393.91	1210.06
394.10	1174.95
394.29	1240.48
394.49	1301.34
394.68	1188.99
394.88	1174.95
395.07	1364.53
395.26	1160.91
395.46	1238.14
395.65	1352.83
395.84	1369.21
396.04	1416.02
396.23	1327.08
396.42	1387.94
396.62	1338.79
396.81	1446.45
397.00	1390.28
397.19	1418.36
397.39	1425.39
397.58	1483.90
397.77	1397.30
397.97	1413.68
398.16	1380.92
398.35	1469.86
398.55	1371.55
398.74	1603.27
398.93	1565.82
399.12	1451.13
399.32	1425.39
399.51	1462.83
399.70	1565.82
399.90	1621.99
400.09	1603.27
400.28	1558.80
400.47	1586.88
400.67	1612.63
400.86	1544.75
401.05	1652.42
401.24	1638.38
401.44	1687.53
401.63	1762.42
401.82	1682.85
402.01	1610.29
402.21	1753.06
402.40	1757.74
402.59	1739.02
402.78	1788.17
402.97	1809.23
403.17	1741.36
403.36	1813.92
403.55	1696.89
403.74	1839.66
403.93	1973.07
404.13	1991.80
404.32	1846.68
404.51	1914.56
404.70	1970.73
404.89	1893.49
405.09	1912.22
405.28	1980.09
405.47	1947.33
405.66	1970.73
405.85	2005.84
406.05	2076.06
406.24	2090.10
406.43	2162.66
406.62	2108.82
406.81	2111.16
407.00	2120.53
407.20	2080.74
407.39	2214.15
407.58	2186.06
407.77	2148.61
407.96	2115.84
408.15	2279.68
408.34	2242.23
408.54	2146.27
408.73	2235.21
408.92	2333.51
409.11	2340.54
409.30	2230.53
409.49	2291.38
409.68	2401.39
409.87	2427.14
410.07	2516.08
410.26	2438.84
410.45	2431.82
410.64	2478.63
410.83	2520.76
411.02	2464.58
411.21	2614.38
411.40	2597.99
411.59	2719.70
411.78	2644.81
411.98	2595.65
412.17	2743.11
412.36	2602.68
412.55	2743.11
412.74	2764.17
412.93	2766.51
413.12	2799.28
413.31	2869.50
413.50	2747.79
413.69	2855.45
413.88	2897.58
414.07	2925.67
414.26	2953.76
414.45	2951.42
414.64	3045.04
414.83	3049.72
415.02	3016.95
415.22	3101.21
415.41	3070.78
415.60	3042.70
415.79	3246.32
415.98	3262.71
416.17	3316.54
416.36	3251.00
416.55	3246.32
416.74	3316.54
416.93	3391.44
417.12	3400.80
417.31	3435.91
417.50	3302.50
417.69	3545.91
417.88	3503.78
418.07	3513.14
418.26	3602.08
418.45	3630.17
418.64	3676.98
418.83	3646.55
419.02	3681.66
419.21	3693.37
419.39	3660.60
419.58	3777.62
419.77	3604.42
419.96	3698.05
420.15	3765.92
420.34	3857.20
420.53	3957.85
420.72	3974.23
420.91	3882.95
421.10	3866.56
421.29	3955.51
421.48	3936.78
421.67	4159.13
421.86	3999.98
422.05	3936.78
422.24	3918.06
422.43	4028.06
422.61	4102.96
422.80	4142.75
422.99	4201.26
423.18	3981.25
423.37	4138.07
423.56	4021.04
423.75	3927.42
423.94	3957.85
424.13	3850.18
424.32	3936.78
424.50	4053.81
424.69	4210.62
424.88	4269.14
425.07	3957.85
425.26	4037.42
425.45	4105.30
425.64	4168.49
425.83	4119.34
426.01	4128.70
426.20	4175.52
426.39	4227.01
426.58	4084.23
426.77	4175.52
426.96	4294.88
427.15	4212.96
427.33	4259.78
427.52	4294.88
427.71	4353.40
427.90	4292.54
428.09	4290.20
428.28	4355.74
428.46	4535.96
428.65	4449.36
428.84	4678.73
429.03	4606.17
429.22	4407.23
429.40	4606.17
429.59	4587.45
429.78	4482.13
429.97	4393.19
430.16	4379.14
430.34	4741.93
430.53	4566.39
430.72	4650.64
430.91	4753.63
431.10	4667.03
431.28	4683.41
431.47	4842.57
431.66	4999.38
431.85	4868.31
432.03	4919.81
432.22	4809.80
432.41	4929.17
432.60	4973.64
432.79	4891.72
432.97	4873.00
433.16	4931.51
433.35	4884.70
433.54	4997.04
433.72	5025.13
433.91	5114.07
434.10	5055.56
434.28	5060.24
434.47	5203.01
434.66	5214.71
434.85	5186.63
435.03	5252.16
435.22	5444.09
435.41	5418.34
435.59	5378.55
435.78	5177.26
435.97	5366.85
436.16	5446.43
436.34	5427.70
436.53	5448.77
436.72	5605.58
436.90	5430.04
437.09	5355.15
437.28	5399.62
437.46	5617.29
437.65	5535.37
437.84	5542.39
438.02	5652.39
438.21	5549.41
438.40	5647.71
438.58	5781.12
438.77	5678.14
438.96	5729.63
439.14	5750.70
439.33	6059.65
439.52	6069.01
439.70	5902.83
439.89	6087.73
440.08	6146.25
440.26	6083.05
440.45	6118.16
440.63	6237.53
440.82	6384.98
441.01	6263.27
441.19	6291.36
441.38	6612.01
441.57	6586.27
441.75	6590.95
441.94	6534.78
442.12	6513.71
442.31	6712.66
442.50	6656.48
442.68	6745.42
442.87	6827.34
443.05	6754.79
443.24	6825.00
443.43	6960.75
443.61	6846.07
443.80	7084.80
443.98	6832.02
444.17	6630.74
444.35	6883.52
444.54	7026.29
444.73	7105.87
444.91	6981.82
445.10	6949.05
445.28	6942.03
445.47	6836.70
445.65	7150.34
445.84	7056.72
446.02	7063.74
446.21	6967.77
446.39	6869.47
446.58	7218.21
446.77	7183.10
446.95	7012.24
447.14	7126.93
447.32	7260.34
447.51	7166.72
447.69	7105.87
447.88	7382.05
448.06	7173.74
448.25	7222.89
448.43	7112.89
448.62	7164.38
448.80	7180.76
448.99	7087.14
449.17	7466.31
449.36	7325.88
449.54	7461.63
449.73	7447.58
449.91	7538.87
450.10	7419.50
450.28	7543.55
450.46	7466.31
450.65	7672.28
450.83	7674.62
451.02	7779.94
451.20	7726.11
451.39	7627.81
451.57	7569.29
451.76	7737.81
451.94	7754.19
452.13	7775.26
452.31	7882.92
452.49	7541.21
452.68	7735.47
452.86	7651.21
453.05	7733.13
453.23	7852.50
453.42	7822.07
453.60	7967.18
453.78	7934.42
453.97	7922.71
454.15	7934.42
454.34	8009.31
454.52	8084.21
454.70	8039.74
454.89	8058.46
455.07	8276.13
455.26	8243.37
455.44	8461.04
455.62	8306.56
455.81	8374.44
455.99	8184.85
456.17	8503.17
456.36	8327.63
456.54	8575.72
456.73	8589.77
456.91	8725.52
457.09	8720.84
457.28	8872.97
457.46	8793.39
457.64	8943.19
457.83	8816.80
458.01	8819.14
458.19	8730.20
458.38	8751.26
458.56	9034.47
458.74	8975.95
458.93	9015.74
459.11	9001.70
459.29	9135.11
459.48	9282.56
459.66	9064.89
459.84	9191.28
460.03	9224.05
460.21	9320.01
460.39	9174.90
460.57	9107.02
460.76	9385.55
460.94	9207.67
461.12	9497.89
461.31	9465.13
461.49	9448.74
461.67	9359.80
461.85	9675.77
462.04	9572.79
462.22	10045.58
462.40	9689.82
462.59	9544.70
462.77	9795.14
462.95	9764.72
463.13	9722.59
463.32	9722.59
463.50	9722.59
463.68	10052.60
463.86	9916.85
464.05	9710.88
464.23	9994.09
464.41	9898.13
464.59	9645.35
464.78	10040.90
464.96	10090.05
465.14	9982.38
465.32	10134.52
465.50	10209.42
465.69	10312.40
465.87	10090.05
466.05	10300.70
466.23	10136.86
466.41	10101.75
466.60	10553.48
466.78	10375.59
466.96	10401.34
467.14	10094.73
467.32	10317.08
467.51	10281.97
467.69	10335.81
467.87	10312.40
468.05	10462.19
468.23	10466.88
468.41	10354.53
468.60	10516.03
468.78	10801.57
468.96	10593.26
469.14	10986.47
469.32	10600.29
469.50	10640.08
469.69	10949.03
469.87	10939.66
470.05	10963.07
470.23	11171.38
470.41	11117.54
470.59	11028.60
470.77	11084.78
470.95	11461.60
471.14	11438.20
471.32	10972.43
471.50	11477.99
471.68	11438.20
471.86	11494.37
472.04	11658.21
472.22	11854.81
472.40	11272.02
472.58	11513.10
472.77	11695.66
472.95	11857.15
473.13	12070.14
473.31	11808.00
473.49	11838.43
473.67	11871.20
473.85	11918.01
474.03	12292.49
474.21	12177.81
474.39	12329.94
474.57	12362.71
474.75	12655.28
474.93	12662.30
475.12	12259.73
475.30	12652.94
475.48	12821.45
475.66	12739.54
475.84	12814.43
476.02	13128.06
476.20	12901.03
476.38	13142.11
476.56	13401.91
476.74	13437.02
476.92	13310.63
477.10	13357.44
477.28	13804.48
477.46	13385.52
477.64	13722.56
477.82	13965.98
478.00	14284.29
478.18	14017.47
478.36	14317.06
478.54	14277.27
478.72	14462.17
478.90	14745.38
479.08	14726.65
479.26	14644.73
479.44	15110.50
479.62	15087.09
479.80	15438.17
479.98	15316.47
480.16	15405.41
480.34	15321.15
480.52	15859.47
480.70	15627.76
480.88	15594.99
481.06	15674.57
481.24	15690.95
481.41	16149.70
481.59	16159.06
481.77	16325.24
481.95	16484.39
482.13	16730.15
482.31	16657.59
482.49	16999.31
482.67	17008.67
482.85	16908.03
483.03	17415.93
483.21	17411.25
483.39	17785.73
483.57	17666.36
483.74	17652.32
483.92	17930.84
484.10	17893.40
484.28	18438.74
484.46	18768.76
484.64	19026.21
484.82	18670.45
485.00	18707.90
485.18	19096.43
485.35	19377.30
485.53	19201.76
485.71	19424.11
485.89	19796.25
486.07	19637.09
486.25	19660.50
486.43	19822.00
486.61	19805.61
486.78	20482.03
486.96	20435.22
487.14	21001.63
487.32	20908.01
487.50	21050.78
487.68	20753.53
487.85	21542.29
488.03	21804.43
488.21	22082.95
488.39	22008.06
488.57	22361.48
488.75	22487.87
488.92	22569.79
489.10	22551.06
489.28	22733.62
489.46	23321.10
489.64	22843.63
489.81	23384.29
489.99	23269.61
490.17	23115.13
490.35	23847.72
490.53	23658.14
490.70	24100.50
490.88	24128.58
491.06	24556.90
491.24	24334.55
491.41	24254.97
491.59	24788.61
491.77	24847.13
491.95	25146.72
492.13	25359.70
492.30	25333.96
492.48	25343.32
492.66	25270.76
492.84	25448.64
493.01	25785.68
493.19	25898.03
493.37	26361.45
493.54	26380.18
493.72	26803.82
493.90	26918.50
494.08	26806.16
494.25	27232.13
494.43	27400.65
494.61	27374.91
494.79	27690.88
494.96	27513.00
495.14	27791.52
495.32	27791.52
495.49	28404.74
495.67	28367.29
495.85	28713.69
496.02	28657.52
496.20	28521.77
496.38	28486.66
496.55	28800.29
496.73	29575.01
496.91	29298.83
497.09	29481.39
497.26	29460.32
497.44	29439.26
497.62	29865.24
497.79	30471.43
497.97	29769.27
498.14	30410.58
498.32	30855.28
498.50	30733.57
498.67	30948.90
498.85	30771.02
499.03	31009.76
499.20	31197.00
499.38	30874.01
499.56	31613.62
499.73	32147.26
499.91	31566.81
500.08	32240.88
500.26	31358.50
500.44	31700.22
500.61	32020.87
500.79	32753.46
500.97	32907.93
501.14	32739.41
501.32	32753.46
501.49	32938.36
501.67	32800.27
501.84	32767.50
502.02	33472.00
502.20	32975.81
502.37	33656.90
502.55	33287.10
502.72	33502.43
502.90	33799.68
503.07	33787.97
503.25	33872.23
503.43	33890.96
503.60	34380.13
503.78	34515.88
503.95	34466.73
504.13	34274.80
504.30	34548.65
504.48	34569.71
504.65	34775.68
504.83	35346.77
505.01	35187.61
505.18	34897.39
505.36	35232.08
505.53	35269.53
505.71	35311.66
505.88	35058.88
506.06	35323.36
506.23	35751.68
506.41	35819.56
506.58	35936.59
506.76	35885.09
506.93	36367.24
507.11	35955.31
507.28	36392.99
507.46	36624.70
507.63	36428.10
507.81	36783.86
507.98	36463.21
508.16	36987.49
508.33	37249.63
508.50	37139.62
508.68	36802.58
508.85	37752.84
509.03	37455.59
509.20	37872.21
509.38	37940.08
509.55	37839.44
509.73	38019.66
509.90	37811.35
510.08	37869.87
510.25	38108.60
510.42	38232.65
510.60	38417.55
510.77	38670.33
510.95	38707.78
511.12	38691.40
511.30	38604.80
511.47	39056.52
511.64	38895.02
511.82	39503.56
511.99	39552.71
512.17	39714.21
512.34	39274.19
512.51	39934.22
512.69	39735.27
512.86	40156.57
513.04	40254.87
513.21	40250.19
513.38	40355.52
513.56	40659.79
513.73	40299.34
513.90	40769.79
514.08	40119.12
514.25	40577.87
514.43	40708.94
514.60	40727.66
514.77	40870.43
514.95	41228.54
515.12	40727.66
515.29	40884.48
515.47	41373.65
515.64	41907.29
515.81	41223.86
515.99	41865.16
516.16	42033.68
516.33	41783.24
516.51	41883.89
516.68	41500.04
516.85	41570.25
517.03	42270.08
517.20	42492.43
517.37	42216.24
517.54	42522.85
517.72	41989.21
517.89	42532.22
518.06	42478.38
518.24	42583.71
518.41	42759.25
518.58	43016.71
518.75	42923.08
518.93	43084.58
519.10	43079.90
519.27	43154.80
519.45	43133.73
519.62	43009.68
519.79	43377.15
519.96	43643.97
520.14	44294.64
520.31	43562.05
520.48	43878.02
520.65	43681.42
520.83	43913.13
521.00	43840.57
521.17	44027.82
521.34	44194.00
521.52	44608.27
521.69	44423.37
521.86	44484.22
522.03	44559.12
522.20	44797.85
522.38	44889.13
522.55	44903.18
522.72	44870.41
522.89	44847.00
523.07	45233.19
523.24	45380.65
523.41	45160.64
523.58	45095.10
523.75	45844.07
523.92	45984.51
524.10	45811.31
524.27	45895.56
524.44	45790.24
524.61	46181.11
524.78	46375.37
524.96	45979.82
525.13	46040.68
525.30	46248.99
525.47	45984.51
525.64	46326.22
525.81	46316.86
525.98	46777.95
526.16	46532.19
526.33	46909.02
526.50	46745.18
526.67	46391.76
526.84	46693.69
527.01	46337.93
527.18	47215.63
527.36	47564.37
527.53	47023.70
527.70	47353.72
527.87	47419.25
528.04	47414.57
528.21	47377.12
528.38	47292.86
528.55	47498.83
528.72	47260.10
528.89	47571.39
529.07	47896.72
529.24	48090.99
529.41	47730.54
529.58	47913.11
529.75	47824.17
529.92	47927.15
530.09	47861.61
530.26	48268.87
530.43	48306.32
530.60	47885.02
530.77	48303.98
530.94	48109.71
531.11	48051.20
531.28	48074.60
531.46	48390.58
531.63	48329.72
531.80	48528.67
531.97	48722.93
532.14	48666.76
532.31	48641.01
532.48	48472.49
532.65	49242.53
532.82	49090.40
532.99	48905.49
533.16	48898.47
533.33	49310.41
533.50	49808.94
533.67	49415.73
533.84	49712.98
534.01	49261.26
534.18	49104.44
534.35	49429.77
534.52	49542.12
534.69	49544.46
534.86	49333.81
535.03	49448.50
535.20	49986.82
535.37	50099.17
535.54	49539.78
535.71	49272.96
535.88	49858.09
536.05	50014.91
536.22	49876.82
536.38	50124.91
536.55	50237.26
536.72	50309.82
536.89	49914.26
537.06	49996.18
537.23	50483.01
537.40	50412.80
537.57	50424.50
537.74	50342.58
537.91	50593.02
538.08	50721.75
538.25	50373.01
538.42	50316.84
538.59	50705.37
538.75	50239.60
538.92	50515.78
539.09	50899.63
539.26	50930.06
539.43	50923.04
539.60	51114.96
539.77	51187.52
539.94	51274.12
540.11	50948.78
540.28	51386.46
540.44	51082.19
540.61	51222.62
540.78	51386.46
540.95	51444.98
541.12	51620.52
541.29	51222.62
541.46	51510.51
541.62	51344.33
541.79	51274.12
541.96	51173.47
542.13	51260.07
542.30	51597.11
542.47	51641.58
542.63	51419.23
542.80	51929.47
542.97	52268.84
543.14	52142.45
543.31	51578.39
543.48	52179.90
543.64	52699.50
543.81	52594.18
543.98	52521.62
544.15	52170.54
544.32	52177.56
544.48	52804.83
544.65	52601.20
544.82	52477.15
544.99	52172.88
545.16	52371.83
545.32	52729.93
545.49	52715.89
545.66	52748.65
545.83	52788.44
546.00	52828.23
546.16	52596.52
546.33	52477.15
546.50	52416.30
546.67	52788.44
546.83	52598.86
547.00	52830.57
547.17	52980.37
547.34	52762.70
547.50	52865.68
547.67	53375.92
547.84	52931.22
548.00	53193.36
548.17	53165.27
548.34	53183.99
548.51	53588.91
548.67	53427.41
548.84	53310.38
549.01	53380.60
549.18	53066.97
549.34	53230.80
549.51	53460.18
549.68	53265.91
549.84	53191.01
550.01	53628.69
550.18	53347.83
550.34	53570.18
550.51	53619.33
550.68	53607.63
550.84	53329.11
551.01	53670.82
551.18	53584.22
551.34	53680.19
551.51	53633.38
551.68	53834.66
551.84	54108.50
552.01	53703.59
552.18	53738.70
552.34	53633.38
552.51	53900.20
552.68	53939.99
552.84	53881.47
553.01	54120.21
553.18	53956.37
553.34	54323.83
553.51	54298.09
553.67	54270.00
553.84	54314.47
554.01	54319.15
554.17	54316.81
554.34	54391.71
554.51	54192.76
554.67	54635.13
554.84	54174.04
555.00	54375.33
555.17	54328.52
555.33	54319.15
555.50	54529.80
555.67	54562.57
555.83	54398.73
556.00	54487.67
556.16	54637.47
556.33	54738.11
556.50	54660.87
556.66	54342.56
556.83	54487.67
556.99	54735.77
557.16	54915.99
557.32	55028.34
557.49	54813.01
557.65	54335.54
557.82	54438.52
557.98	54780.24
558.15	54871.52
558.32	54805.98
558.48	54714.70
558.65	54967.48
558.81	55152.38
558.98	54763.85
559.14	54913.65
559.31	54869.18
559.47	54986.21
559.64	55189.83
559.80	55065.78
559.97	55269.41
560.13	54944.08
560.30	55004.93
560.46	54997.91
560.63	55061.10
560.79	54981.52
560.96	55189.83
561.12	55084.51
561.29	55154.72
561.45	55103.23
561.61	55421.55
561.78	55105.57
561.94	55234.30
562.11	55367.71
562.27	54993.23
562.44	55110.25
562.60	55260.05
562.77	55510.49
562.93	55393.46
563.10	55695.39
563.26	55093.87
563.42	55540.91
563.59	55552.62
563.75	55351.33
563.92	55381.76
564.08	55386.44
564.24	55271.75
564.41	55412.18
564.57	55215.58
564.74	55601.77
564.90	55531.55
565.07	55622.83
565.23	55622.83
565.39	55576.02
565.56	55536.23
565.72	55199.19
565.88	55442.61
566.05	55557.30
566.21	55529.21
566.38	55473.04
566.54	55592.40
566.70	55917.74
566.87	55899.01
567.03	55749.22
567.19	56011.36
567.36	55702.41
567.52	55590.06
567.68	55856.88
567.85	55208.56
568.01	55515.17
568.17	55561.98
568.34	55749.22
568.50	55884.97
568.66	55866.25
568.83	55732.84
568.99	55889.65
569.15	55838.16
569.32	55887.31
569.48	55686.03
569.64	55739.86
569.81	55690.71
569.97	55903.70
570.13	56048.81
570.30	55749.22
570.46	56158.81
570.62	55976.25
570.78	55973.91
570.95	55702.41
571.11	56081.58
571.27	55725.81
571.43	55880.29
571.60	56067.53
571.76	55908.38
571.92	56154.13
572.09	56140.09
572.25	56119.02
572.41	55856.88
572.57	55927.10
572.74	56048.81
572.90	55613.47
573.06	55957.53
573.22	55966.89
573.38	55952.85
573.55	56055.83
573.71	56537.98
573.87	56236.05
574.03	55833.48
574.20	56261.80
574.36	56114.34
574.52	56090.94
574.68	55906.04
574.84	56083.92
575.01	56233.71
575.17	55931.78
575.33	56062.85
575.49	56250.09
575.65	56207.97
575.82	56278.18
575.98	56032.42
576.14	56292.22
576.30	56346.06
576.46	56149.45
576.62	56130.73
576.79	56158.81
576.95	56121.37
577.11	56334.35
577.27	56182.22
577.43	56399.89
577.59	56493.51
577.75	56158.81
577.92	56182.22
578.08	55910.72
578.24	56126.05
578.40	56119.02
578.56	56161.15
578.72	56362.44
578.88	56650.33
579.04	56240.73
579.21	56154.13
579.37	56488.83
579.53	56107.32
579.69	56280.52
579.85	56222.01
580.01	56203.28
580.17	56086.26
580.33	56460.74
580.49	56308.61
580.65	56390.53
580.82	56292.22
580.98	56327.33
581.14	56666.71
581.30	56404.57
581.46	56329.67
581.62	56179.88
581.78	56009.02
581.94	56348.40
582.10	56353.08
582.26	56430.32
582.42	56360.10
582.58	56615.22
582.74	56360.10
582.90	56437.34
583.06	56488.83
583.22	56243.07
583.38	56542.66
583.54	56076.90
583.70	56484.15
583.86	56339.04
584.02	56458.40
584.18	56332.01
584.34	56537.98
584.50	56563.73
584.66	56603.52
584.82	56385.85
584.98	56423.29
585.14	56416.27
585.30	56161.15
585.46	56268.82
585.62	56217.33
585.78	56409.25
585.94	56238.39
586.10	56390.53
586.26	56418.61
586.42	56722.88
586.58	56718.20
586.74	56427.98
586.90	56477.13
587.06	56144.77
587.22	56596.49
587.38	56322.65
587.54	56587.13
587.70	56769.69
587.86	56617.56
588.02	56940.55
588.18	56809.48
588.34	56629.26
588.49	56425.64
588.65	56580.11
588.81	56287.54
588.97	56816.50
589.13	56392.87
589.29	56545.00
589.45	56837.57
589.61	56561.39
589.77	56795.44
