SpectraSuite Data File
++++++++++++++++++++++++++++++++++++
Date: Fri Oct 04 11:48:36 GMT-05:00 2013
User: price-jones
Dark Spectrum Present: No
Reference Spectrum Present: No
Number of Sampled Component Spectra: 1
Spectrometers: USB2+H05261
Integration Time (usec): 100000 (USB2+H05261)
Spectra Averaged: 1 (USB2+H05261)
Boxcar Smoothing: 0 (USB2+H05261)
Correct for Electrical Dark: No (USB2+H05261)
Strobe/Lamp Enabled: No (USB2+H05261)
Correct for Detector Non-linearity: No (USB2+H05261)
Correct for Stray Light: No (USB2+H05261)
Number of Pixels in Processed Spectrum: 2048
>>>>>Begin Processed Spectral Data<<<<<
365.73	0.00
365.92	0.00
366.12	0.00
366.32	0.00
366.52	0.00
366.72	0.00
366.91	0.00
367.11	0.00
367.31	0.00
367.51	0.00
367.70	0.00
367.90	0.00
368.10	0.00
368.30	0.00
368.49	0.00
368.69	0.00
368.89	0.00
369.09	0.00
369.28	0.00
369.48	0.00
369.68	0.00
369.87	0.00
370.07	0.00
370.27	14.04
370.47	58.51
370.66	128.73
370.86	112.35
371.06	212.99
371.25	175.54
371.45	163.84
371.65	184.90
371.84	245.76
372.04	236.39
372.24	212.99
372.44	231.71
372.63	215.33
372.83	304.27
373.03	266.82
373.22	220.01
373.42	201.29
373.62	229.37
373.81	269.16
374.01	224.69
374.21	191.92
374.40	248.10
374.60	341.72
374.79	238.73
374.99	208.31
375.19	276.18
375.38	257.46
375.58	255.12
375.78	290.23
375.97	297.25
376.17	341.72
376.37	259.80
376.56	327.68
376.76	334.70
376.95	238.73
377.15	278.52
377.35	243.42
377.54	250.44
377.74	339.38
377.93	245.76
378.13	301.93
378.33	292.57
378.52	304.27
378.72	327.68
378.91	241.08
379.11	287.89
379.31	372.15
379.50	215.33
379.70	304.27
379.89	367.46
380.09	325.33
380.28	362.78
380.48	269.16
380.68	308.95
380.87	339.38
381.07	271.50
381.26	280.86
381.46	332.36
381.65	322.99
381.85	346.40
382.04	259.80
382.24	334.70
382.43	320.65
382.63	325.33
382.83	301.93
383.02	308.95
383.22	243.42
383.41	330.02
383.61	245.76
383.80	241.08
384.00	360.44
384.19	276.18
384.39	379.17
384.58	337.04
384.78	273.84
384.97	437.68
385.17	397.89
385.36	376.83
385.56	337.04
385.75	299.59
385.95	341.72
386.14	414.27
386.34	315.97
386.53	355.76
386.72	358.10
386.92	404.91
387.11	355.76
387.31	390.87
387.50	372.15
387.70	285.55
387.89	379.17
388.09	381.51
388.28	393.21
388.48	428.32
388.67	402.57
388.86	339.38
389.06	409.59
389.25	374.49
389.45	390.87
389.64	376.83
389.84	472.79
390.03	514.92
390.22	470.45
390.42	383.85
390.61	484.49
390.81	444.70
391.00	421.30
391.19	519.60
391.39	486.83
391.58	395.55
391.78	383.85
391.97	479.81
392.16	472.79
392.36	444.70
392.55	458.74
392.75	540.66
392.94	475.13
393.13	421.30
393.33	484.49
393.52	402.57
393.71	521.94
393.91	540.66
394.10	395.55
394.29	500.87
394.49	519.60
394.68	528.96
394.88	550.03
395.07	493.85
395.26	587.47
395.46	606.20
395.65	545.34
395.84	526.62
396.04	601.52
396.23	578.11
396.42	550.03
396.62	582.79
396.81	634.29
397.00	613.22
397.19	638.97
397.39	748.97
397.58	702.16
397.77	606.20
397.97	622.58
398.16	690.46
398.35	718.54
398.55	610.88
398.74	641.31
398.93	664.71
399.12	643.65
399.32	610.88
399.51	697.48
399.70	660.03
399.90	758.33
400.09	739.61
400.28	765.36
400.47	748.97
400.67	720.88
400.86	706.84
401.05	678.76
401.24	699.82
401.44	844.93
401.63	821.53
401.82	800.46
402.01	786.42
402.21	800.46
402.40	844.93
402.59	753.65
402.78	863.66
402.97	884.72
403.17	847.27
403.36	943.24
403.55	936.21
403.74	894.08
403.93	947.92
404.13	905.79
404.32	924.51
404.51	957.28
404.70	997.07
404.89	1001.75
405.09	1048.56
405.28	1015.79
405.47	915.15
405.66	997.07
405.85	1001.75
406.05	985.37
406.24	1132.82
406.43	1118.78
406.62	1046.22
406.81	1198.35
407.00	1053.24
407.20	1088.35
407.39	1128.14
407.58	1097.71
407.77	1095.37
407.96	1121.12
408.15	1242.82
408.34	1160.91
408.54	1296.66
408.73	1242.82
408.92	1240.48
409.11	1317.72
409.30	1327.08
409.49	1170.27
409.68	1336.45
409.87	1331.76
410.07	1350.49
410.26	1315.38
410.45	1455.81
410.64	1336.45
410.83	1383.26
411.02	1483.90
411.21	1488.58
411.40	1502.62
411.59	1497.94
411.78	1490.92
411.98	1526.03
412.17	1549.43
412.36	1476.88
412.55	1640.72
412.74	1603.27
412.93	1645.40
413.12	1629.01
413.31	1778.81
413.50	1664.12
413.69	1640.72
413.88	1715.61
414.07	1736.68
414.26	1762.42
414.45	1701.57
414.64	1832.64
414.83	1827.96
415.02	1795.19
415.22	1888.81
415.41	1996.48
415.60	1907.54
415.79	1944.99
415.98	1891.15
416.17	1937.96
416.36	2047.97
416.55	1982.43
416.74	1940.30
416.93	2066.69
417.12	2017.54
417.31	2099.46
417.50	2043.29
417.69	2197.76
417.88	2090.10
418.07	2193.08
418.26	2099.46
418.45	2195.42
418.64	2347.56
418.83	2228.19
419.02	2097.12
419.21	2167.34
419.39	2282.02
419.58	2176.70
419.77	2235.21
419.96	2237.55
420.15	2232.87
420.34	2303.09
420.53	2305.43
420.72	2335.85
420.91	2340.54
421.10	2480.97
421.29	2427.14
421.48	2251.60
421.67	2373.30
421.86	2422.45
422.05	2457.56
422.24	2443.52
422.43	2452.88
422.61	2445.86
422.80	2478.63
422.99	2394.37
423.18	2518.42
423.37	2621.40
423.56	2478.63
423.75	2410.75
423.94	2359.26
424.13	2314.79
424.32	2356.92
424.50	2485.65
424.69	2651.83
424.88	2560.55
425.07	2548.84
425.26	2520.76
425.45	2527.78
425.64	2502.03
425.83	2595.65
426.01	2686.94
426.20	2546.50
426.39	2499.69
426.58	2614.38
426.77	2640.12
426.96	2644.81
427.15	2761.83
427.33	2619.06
427.52	2654.17
427.71	2679.91
427.90	2670.55
428.09	2799.28
428.28	2626.08
428.46	2778.22
428.65	2677.57
428.84	2867.16
429.03	2766.51
429.22	2825.03
429.40	2806.30
429.59	2729.06
429.78	2649.49
429.97	2686.94
430.16	2719.70
430.34	2853.11
430.53	2876.52
430.72	2785.24
430.91	2850.77
431.10	2745.45
431.28	2789.92
431.47	3019.29
431.66	2956.10
431.85	2857.79
432.03	3016.95
432.22	3171.43
432.41	2897.58
432.60	3155.04
432.79	2923.33
432.97	2944.39
433.16	2960.78
433.35	3042.70
433.54	3126.96
433.72	3119.93
433.91	3098.87
434.10	3045.04
434.28	3126.96
434.47	3232.28
434.66	3019.29
434.85	3248.66
435.03	3131.64
435.22	3253.34
435.41	3281.43
435.59	3232.28
435.78	3229.94
435.97	3398.46
436.16	3330.58
436.34	3307.18
436.53	3389.10
436.72	3424.20
436.90	3361.01
437.09	3330.58
437.28	3262.71
437.46	3356.33
437.65	3485.06
437.84	3548.25
438.02	3449.95
438.21	3515.48
438.40	3379.73
438.58	3524.85
438.77	3485.06
438.96	3597.40
439.14	3604.42
439.33	3772.94
439.52	3700.39
439.70	3655.92
439.89	3723.79
440.08	3728.47
440.26	3740.18
440.45	3786.99
440.63	3794.01
440.82	3843.16
441.01	3873.59
441.19	3918.06
441.38	3969.55
441.57	3932.10
441.75	3892.31
441.94	4016.36
442.12	4067.85
442.31	4044.45
442.50	4208.28
442.68	4081.89
442.87	4208.28
443.05	4175.52
443.24	4304.25
443.43	4287.86
443.61	4311.27
443.80	4369.78
443.98	4210.62
444.17	4128.70
444.35	4236.37
444.54	4236.37
444.73	4184.88
444.91	4301.90
445.10	4332.33
445.28	4304.25
445.47	4273.82
445.65	4252.75
445.84	4227.01
446.02	4358.08
446.21	4212.96
446.39	4159.13
446.58	4269.14
446.77	4238.71
446.95	4257.43
447.14	4112.32
447.32	4266.80
447.51	4329.99
447.69	4273.82
447.88	4332.33
448.06	4477.44
448.25	4379.14
448.43	4318.29
448.62	4320.63
448.80	4365.10
448.99	4440.00
449.17	4400.21
449.36	4383.82
449.54	4510.21
449.73	4463.40
449.91	4554.68
450.10	4571.07
450.28	4510.21
450.46	4648.30
450.65	4669.37
450.83	4545.32
451.02	4727.88
451.20	4676.39
451.39	4718.52
451.57	4671.71
451.76	4688.09
451.94	4657.67
452.13	4760.65
452.31	4910.44
452.49	4617.88
452.68	4737.24
452.86	4856.61
453.05	4809.80
453.23	4781.71
453.42	4770.01
453.60	4805.12
453.78	4704.48
453.97	4784.06
454.15	4702.14
454.34	4765.33
454.52	4828.53
454.70	4980.66
454.89	4863.63
455.07	4922.15
455.26	4877.68
455.44	5074.28
455.62	5036.83
455.81	5034.49
455.99	4990.02
456.17	5041.51
456.36	4959.60
456.54	5247.48
456.73	5167.90
456.91	5348.12
457.09	5174.92
457.28	5401.96
457.46	5132.79
457.64	5465.15
457.83	5387.91
458.01	5245.14
458.19	5291.95
458.38	5263.86
458.56	5303.65
458.74	5425.36
458.93	5432.38
459.11	5399.62
459.29	5163.22
459.48	5416.00
459.66	5523.66
459.84	5673.46
460.03	5600.90
460.21	5715.59
460.39	5626.65
460.57	5490.90
460.76	5495.58
460.94	5577.50
461.12	5664.10
461.31	5563.45
461.49	5771.76
461.67	5647.71
461.85	5818.57
462.04	5881.77
462.22	6218.80
462.40	5790.49
462.59	5724.95
462.77	5731.97
462.95	5760.06
463.13	5916.87
463.32	5905.17
463.50	5891.13
463.68	6038.58
463.86	6036.24
464.05	5853.68
464.23	5813.89
464.41	5930.92
464.59	5682.82
464.78	6211.78
464.96	6132.20
465.14	6057.31
465.32	6193.06
465.50	6038.58
465.69	5867.72
465.87	6040.92
466.05	5998.79
466.23	6003.47
466.41	6150.93
466.60	6195.40
466.78	6120.50
466.96	5977.73
467.14	5907.51
467.32	6125.18
467.51	6312.42
467.69	6169.65
467.87	6289.02
468.05	6183.70
468.23	6345.19
468.41	6197.74
468.60	6314.77
468.78	6457.54
468.96	6279.66
469.14	6424.77
469.32	6361.58
469.50	6230.51
469.69	6698.61
469.87	6511.37
470.05	6445.84
470.23	6490.31
470.41	6546.48
470.59	6569.88
470.77	6389.66
470.95	6717.34
471.14	6813.30
471.32	6726.70
471.50	6843.73
471.68	6876.49
471.86	6895.22
472.04	6719.68
472.22	6846.07
472.40	6855.43
472.58	6862.45
472.77	6974.80
472.95	6932.67
473.13	7143.32
473.31	7096.50
473.49	6853.09
473.67	7054.37
473.85	7180.76
474.03	7234.60
474.21	7288.43
474.39	7321.20
474.57	7368.01
474.75	7351.62
474.93	7370.35
475.12	7368.01
475.30	7597.38
475.48	7428.86
475.66	7599.72
475.84	7297.79
476.02	7735.47
476.20	7508.44
476.38	7847.82
476.56	8044.42
476.74	8091.23
476.92	7946.12
477.10	7653.55
477.28	8100.59
477.46	8060.80
477.64	8067.83
477.82	8191.88
478.00	8276.13
478.18	8241.03
478.36	8439.97
478.54	8322.94
478.72	8393.16
478.90	8629.56
479.08	8503.17
479.26	8669.34
479.44	8685.73
479.62	9015.74
479.80	8905.74
479.98	8868.29
480.16	9097.66
480.34	9100.00
480.52	9116.39
480.70	9296.61
480.88	9004.04
481.06	9373.85
481.24	9242.78
481.41	9315.33
481.59	9425.34
481.77	9619.60
481.95	9516.62
482.13	9713.22
482.31	9748.33
482.49	9888.76
482.67	9937.91
482.85	10160.27
483.03	10064.30
483.21	10359.21
483.39	10338.15
483.57	10047.92
483.74	10600.29
483.92	10427.09
484.10	10429.43
484.28	10635.39
484.46	10537.09
484.64	11157.33
484.82	10733.70
485.00	11075.42
485.18	11042.65
485.35	11234.57
485.53	11351.60
485.71	11073.07
485.89	11468.62
486.07	11272.02
486.25	11480.33
486.43	11559.91
486.61	11679.27
486.78	11796.30
486.96	11735.45
487.14	12063.12
487.32	12079.50
487.50	12255.04
487.68	12180.15
487.85	12212.92
488.03	12472.71
488.21	12711.45
488.39	12823.80
488.57	12865.92
488.75	12821.45
488.92	13315.31
489.10	13135.09
489.28	13020.40
489.46	13252.11
489.64	13312.97
489.81	13315.31
489.99	13444.04
490.17	13565.74
490.35	13586.81
490.53	13963.64
490.70	13752.99
490.88	13820.86
491.06	13895.76
491.24	14043.21
491.41	14253.86
491.59	14469.19
491.77	14064.28
491.95	14190.67
492.13	14752.40
492.30	14272.59
492.48	14609.62
492.66	14813.25
492.84	14691.54
493.01	14806.23
493.19	14918.57
493.37	15044.96
493.54	15094.11
493.72	15246.25
493.90	15482.64
494.08	15356.25
494.25	15492.01
494.43	15566.90
494.61	15672.23
494.79	15431.15
494.96	15840.75
495.14	15683.93
495.32	16004.58
495.49	16257.36
495.67	16297.15
495.85	16152.04
496.02	16425.88
496.20	16697.38
496.38	16243.32
496.55	16554.61
496.73	16996.97
496.91	16851.86
497.09	16912.71
497.26	16809.73
497.44	16992.29
497.62	17146.76
497.79	17188.89
497.97	17247.41
498.14	17575.08
498.32	17385.50
498.50	17476.78
498.67	17617.21
498.85	17944.89
499.03	17708.49
499.20	18040.85
499.38	17776.37
499.56	18256.18
499.73	18190.64
499.91	18429.38
500.08	18270.22
500.26	18214.05
500.44	18487.89
500.61	18380.23
500.79	18305.33
500.97	18684.50
501.14	18920.89
501.32	18668.11
501.49	18574.49
501.67	18911.53
501.84	18691.52
502.02	18607.26
502.20	19302.40
502.37	19337.51
502.55	19227.50
502.72	18876.42
502.90	19105.79
503.07	19080.05
503.25	19428.79
503.43	19140.90
503.60	19536.45
503.78	19711.99
503.95	19681.56
504.13	19489.64
504.30	19594.96
504.48	19667.52
504.65	19679.22
504.83	19939.02
505.01	20355.64
505.18	19985.83
505.36	20182.44
505.53	20198.82
505.71	20276.06
505.88	20198.82
506.06	20332.23
506.23	20610.76
506.41	20409.47
506.58	20372.02
506.76	20659.91
506.93	20549.90
507.11	20915.03
507.28	20559.27
507.46	20767.57
507.63	20760.55
507.81	21186.53
507.98	20819.07
508.16	20840.13
508.33	20959.50
508.50	21184.19
508.68	21366.75
508.85	22017.42
509.03	21446.33
509.20	21593.78
509.38	21874.65
509.55	21853.58
509.73	21942.52
509.90	21530.59
510.08	22111.04
510.25	21607.83
510.42	21968.27
510.60	22038.48
510.77	22349.78
510.95	22033.80
511.12	22286.58
511.30	21989.33
511.47	22150.83
511.64	22499.57
511.82	22530.00
511.99	22647.02
512.17	22813.20
512.34	22799.16
512.51	22995.76
512.69	22869.37
512.86	22600.21
513.04	23056.62
513.21	23264.92
513.38	23110.45
513.56	23030.87
513.73	22920.87
513.90	22988.74
514.08	23325.78
514.25	23089.38
514.43	23709.63
514.60	23384.29
514.77	23332.80
514.95	23587.92
515.12	23421.74
515.29	23592.60
515.47	23704.95
515.64	23599.62
515.81	23653.45
515.99	23875.80
516.16	24327.53
516.33	24063.05
516.51	24159.01
516.68	24058.37
516.85	24051.34
517.03	24177.73
517.20	24123.90
517.37	24720.74
517.54	24287.74
517.72	24442.21
517.89	24482.00
518.06	24058.37
518.24	24617.75
518.41	24519.45
518.58	24491.37
518.75	24734.78
518.93	24847.13
519.10	25123.31
519.27	24877.55
519.45	24687.97
519.62	25153.74
519.79	25256.72
519.96	25118.63
520.14	25238.00
520.31	25205.23
520.48	25343.32
520.65	25116.29
520.83	25502.48
521.00	25357.36
521.17	25687.38
521.34	25577.37
521.52	25558.65
521.69	25799.73
521.86	25687.38
522.03	25649.93
522.20	25862.92
522.38	25614.82
522.55	26185.91
522.72	26054.84
522.89	26132.08
523.07	26267.83
523.24	26246.77
523.41	26274.85
523.58	26125.06
523.75	26480.82
523.92	25820.79
524.10	26230.38
524.27	26225.70
524.44	26415.29
524.61	27229.79
524.78	26536.99
524.96	26441.03
525.13	26635.30
525.30	26595.51
525.47	26604.87
525.64	26726.58
525.81	27117.45
525.98	27063.61
526.16	26852.97
526.33	27065.96
526.50	27309.37
526.67	26878.71
526.84	27178.30
527.01	27213.41
527.18	27300.01
527.36	27063.61
527.53	27377.25
527.70	27424.06
527.87	27847.69
528.04	27339.80
528.21	27227.45
528.38	27428.74
528.55	27129.15
528.72	27690.88
528.89	27838.33
529.07	27536.40
529.24	27592.58
529.41	27601.94
529.58	27711.94
529.75	27674.49
529.92	27960.04
530.09	27576.19
530.26	27646.41
530.43	27948.34
530.60	28123.88
530.77	27962.38
530.94	28231.54
531.11	28018.55
531.28	27927.27
531.46	28109.83
531.63	28184.73
531.80	28245.58
531.97	28374.31
532.14	28161.33
532.31	28187.07
532.48	28416.44
532.65	28760.50
532.82	28247.93
532.99	28411.76
533.16	28409.42
533.33	28474.96
533.50	28753.48
533.67	28868.17
533.84	28507.72
534.01	28570.92
534.18	28517.09
534.35	28936.04
534.52	28641.14
534.69	28870.51
534.86	29439.26
535.03	28638.80
535.20	29303.51
535.37	28959.45
535.54	29095.20
535.71	28804.97
535.88	28910.30
536.05	29310.53
536.22	29179.46
536.38	29167.76
536.55	29357.34
536.72	29645.23
536.89	29174.78
537.06	29364.36
537.23	29677.99
537.40	29577.35
537.57	29186.48
537.74	29825.45
537.91	29610.12
538.08	29699.06
538.25	29357.34
538.42	29390.11
538.59	29879.28
538.75	29312.87
538.92	29785.66
539.09	29668.63
539.26	29874.60
539.43	29895.66
539.60	29944.81
539.77	29912.05
539.94	30181.21
540.11	29890.98
540.28	29916.73
540.44	29603.10
540.61	29977.58
540.78	30005.67
540.95	30195.25
541.12	30497.18
541.29	29982.26
541.46	30071.20
541.62	29818.42
541.79	29895.66
541.96	29743.53
542.13	29844.17
542.30	30106.31
542.47	30473.78
542.63	30525.27
542.80	30520.59
542.97	30700.81
543.14	30869.33
543.31	30714.85
543.48	30632.93
543.64	30658.68
543.81	31239.13
543.98	31335.09
544.15	30969.97
544.32	30876.35
544.48	31302.32
544.65	30920.82
544.82	30845.92
544.99	30810.81
545.16	30773.36
545.32	31077.63
545.49	31157.21
545.66	31414.67
545.83	31065.93
546.00	31412.33
546.16	31019.12
546.33	31105.72
546.50	30684.42
546.67	31372.54
546.83	31000.40
547.00	31222.75
547.17	31241.47
547.34	31227.43
547.50	31012.10
547.67	31634.68
547.84	31386.58
548.00	31770.43
548.17	31435.74
548.34	31351.48
548.51	31901.50
548.67	31718.94
548.84	31559.78
549.01	31379.56
549.18	31630.00
549.34	31810.22
549.51	31442.76
549.68	31555.10
549.84	31566.81
550.01	31814.90
550.18	31927.25
550.34	31868.73
550.51	32002.14
550.68	32107.47
550.84	31613.62
551.01	32074.70
551.18	31934.27
551.34	31461.48
551.51	32053.64
551.68	31702.56
551.84	31910.86
552.01	31976.40
552.18	32084.06
552.34	32105.13
552.51	32180.03
552.68	32273.65
552.84	32039.59
553.01	32297.05
553.18	32025.55
553.34	32121.51
553.51	32053.64
553.67	32388.33
553.84	32821.33
554.01	32678.56
554.17	32638.77
554.34	32254.92
554.51	31772.77
554.67	32598.98
554.84	32493.66
555.00	32353.23
555.17	32498.34
555.33	32332.16
555.50	32643.45
555.67	32257.26
555.83	32336.84
556.00	32559.19
556.16	32582.60
556.33	32418.76
556.50	32568.55
556.66	32596.64
556.83	32549.83
556.99	32910.27
557.16	32732.39
557.32	32758.14
557.49	32910.27
557.65	32587.28
557.82	32704.31
557.98	32589.62
558.15	32987.51
558.32	33228.59
558.48	32973.47
558.65	33163.05
558.81	32706.65
558.98	32858.78
559.14	32598.98
559.31	32994.53
559.47	32877.51
559.64	33235.61
559.80	33048.36
559.97	33139.65
560.13	32797.93
560.30	32676.22
560.46	33212.20
560.63	33078.79
560.79	32708.99
560.96	33092.83
561.12	33076.45
561.29	32708.99
561.45	33209.86
561.61	33111.56
561.78	33055.39
561.94	33156.03
562.11	33031.98
562.27	33156.03
562.44	32947.72
562.60	33137.30
562.77	33163.05
562.93	33167.73
563.10	33495.41
563.26	33076.45
563.42	32968.79
563.59	33549.24
563.75	33048.36
563.92	32732.39
564.08	32978.15
564.24	33362.00
564.41	33212.20
564.57	33078.79
564.74	33188.80
564.90	33359.66
565.07	33308.16
565.23	33104.54
565.39	33455.62
565.56	32884.53
565.72	33151.35
565.88	33472.00
566.05	33167.73
566.21	32959.42
566.38	33062.41
566.54	33127.94
566.70	34007.98
566.87	34003.30
567.03	33247.31
567.19	33851.17
567.36	33179.43
567.52	33249.65
567.68	33401.79
567.85	32826.01
568.01	33125.60
568.17	33446.26
568.34	33397.10
568.50	33387.74
568.66	33144.33
568.83	33298.80
568.99	33144.33
569.15	33078.79
569.32	33233.27
569.48	33191.14
569.64	33319.87
569.81	33167.73
569.97	33677.97
570.13	33380.72
570.30	33333.91
570.46	33441.57
570.62	33350.29
570.78	33528.17
570.95	32889.21
571.11	33563.28
571.27	33532.86
571.43	33111.56
571.60	33397.10
571.76	33301.14
571.92	33387.74
572.09	33319.87
572.25	33773.93
572.41	33331.57
572.57	33441.57
572.74	33549.24
572.90	33230.93
573.06	33570.30
573.22	33706.05
573.38	33886.28
573.55	33521.15
573.71	33989.26
573.87	33497.75
574.03	33102.20
574.20	33537.54
574.36	33146.67
574.52	33237.95
574.68	33584.35
574.84	33778.61
575.01	33434.55
575.17	33764.57
575.33	33696.69
575.49	33759.89
575.65	33619.46
575.82	33848.83
575.98	33266.03
576.14	33312.84
576.30	33242.63
576.46	33457.96
576.62	33345.61
576.79	33558.60
576.95	33383.06
577.11	33429.87
577.27	33343.27
577.43	33329.23
577.59	33586.69
577.75	34003.30
577.92	33263.69
578.08	33160.71
578.24	33570.30
578.40	33408.81
578.56	33605.41
578.72	34019.69
578.88	34295.87
579.04	33689.67
579.21	33284.76
579.37	33661.58
579.53	33635.84
579.69	33390.08
579.85	33174.75
580.01	33502.43
580.17	33305.82
580.33	33097.52
580.49	33450.94
580.65	33855.85
580.82	33940.11
580.98	33628.82
581.14	33642.86
581.30	33567.96
581.46	33680.31
581.62	33734.14
581.78	33378.38
581.94	33235.61
582.10	33619.46
582.26	33310.50
582.42	33680.31
582.58	33509.45
582.74	33656.90
582.90	33797.34
583.06	33633.50
583.22	33380.72
583.38	33556.26
583.54	33675.63
583.70	33340.93
583.86	33497.75
584.02	33312.84
584.18	33865.21
584.34	33439.23
584.50	33652.22
584.66	33659.24
584.82	33799.68
584.98	33663.93
585.14	33486.04
585.30	33518.81
585.46	33607.75
585.62	33537.54
585.78	33525.83
585.94	33532.86
586.10	34106.29
586.26	33310.50
586.42	33563.28
586.58	33631.16
586.74	33654.56
586.90	33411.15
587.06	32926.66
587.22	33895.64
587.38	33436.89
587.54	33886.28
587.70	33598.39
587.86	33464.98
588.02	33757.55
588.18	33881.60
588.34	33827.76
588.49	33535.20
588.65	33638.18
588.81	33750.52
588.97	33787.97
589.13	33909.68
589.29	33743.50
589.45	33834.78
589.61	33668.61
589.77	33752.87
589.93	34010.32
590.08	33909.68
590.24	34220.97
590.40	33476.68
590.56	34157.78
590.72	33668.61
590.88	33619.46
591.04	33661.58
591.20	33666.27
591.35	34312.25
591.51	34529.92
