SpectraSuite Data File
++++++++++++++++++++++++++++++++++++
Date: Fri Oct 04 11:48:35 GMT-05:00 2013
User: price-jones
Dark Spectrum Present: No
Reference Spectrum Present: No
Number of Sampled Component Spectra: 1
Spectrometers: USB2+H05261
Integration Time (usec): 100000 (USB2+H05261)
Spectra Averaged: 1 (USB2+H05261)
Boxcar Smoothing: 0 (USB2+H05261)
Correct for Electrical Dark: No (USB2+H05261)
Strobe/Lamp Enabled: No (USB2+H05261)
Correct for Detector Non-linearity: No (USB2+H05261)
Correct for Stray Light: No (USB2+H05261)
Number of Pixels in Processed Spectrum: 2048
>>>>>Begin Processed Spectral Data<<<<<
365.73	0.00
365.92	0.00
366.12	0.00
366.32	0.00
366.52	0.00
366.72	0.00
366.91	0.00
367.11	0.00
367.31	0.00
367.51	0.00
367.70	0.00
367.90	0.00
368.10	0.00
368.30	0.00
368.49	0.00
368.69	0.00
368.89	0.00
369.09	0.00
369.28	0.00
369.48	0.00
369.68	0.00
369.87	0.00
370.07	0.00
370.27	46.81
370.47	18.72
370.66	264.48
370.86	301.93
371.06	318.31
371.25	301.93
371.45	327.68
371.65	402.57
371.84	276.18
372.04	351.08
372.24	407.25
372.44	339.38
372.63	383.85
372.83	411.93
373.03	341.72
373.22	409.59
373.42	414.27
373.62	409.59
373.81	390.87
374.01	470.45
374.21	353.42
374.40	489.17
374.60	498.53
374.79	454.06
374.99	456.40
375.19	491.51
375.38	475.13
375.58	503.22
375.78	486.83
375.97	587.47
376.17	507.90
376.37	489.17
376.56	388.53
376.76	437.68
376.95	498.53
377.15	571.09
377.35	512.58
377.54	503.22
377.74	606.20
377.93	540.66
378.13	533.64
378.33	547.69
378.52	503.22
378.72	575.77
378.91	498.53
379.11	521.94
379.31	512.58
379.50	507.90
379.70	524.28
379.89	561.73
380.09	638.97
380.28	568.75
380.48	571.09
380.68	528.96
380.87	561.73
381.07	543.00
381.26	582.79
381.46	500.87
381.65	575.77
381.85	702.16
382.04	592.16
382.24	606.20
382.43	587.47
382.63	575.77
382.83	608.54
383.02	547.69
383.22	636.63
383.41	636.63
383.61	622.58
383.80	566.41
384.00	627.26
384.19	737.27
384.39	627.26
384.58	704.50
384.78	601.52
384.97	664.71
385.17	709.18
385.36	613.22
385.56	636.63
385.75	559.39
385.95	645.99
386.14	692.80
386.34	660.03
386.53	683.44
386.72	702.16
386.92	723.23
387.11	620.24
387.31	669.39
387.50	723.23
387.70	676.41
387.89	798.12
388.09	699.82
388.28	697.48
388.48	795.78
388.67	828.55
388.86	791.10
389.06	779.40
389.25	795.78
389.45	734.93
389.64	802.80
389.84	915.15
390.03	854.30
390.22	844.93
390.42	770.04
390.61	858.98
390.81	863.66
391.00	826.21
391.19	910.47
391.39	903.45
391.58	856.64
391.78	830.89
391.97	887.06
392.16	849.61
392.36	926.85
392.55	926.85
392.75	915.15
392.94	919.83
393.13	924.51
393.33	875.36
393.52	851.96
393.71	1015.79
393.91	954.94
394.10	1020.47
394.29	985.37
394.49	973.66
394.68	1034.52
394.88	1004.09
395.07	1006.43
395.26	1090.69
395.46	1067.28
395.65	1078.99
395.84	1097.71
396.04	1174.95
396.23	1142.18
396.42	1172.61
396.62	1160.91
396.81	1177.29
397.00	1055.58
397.19	1006.43
397.39	1074.31
397.58	1132.82
397.77	1221.76
397.97	1135.16
398.16	1179.63
398.35	1123.46
398.55	1184.31
398.74	1160.91
398.93	1301.34
399.12	1221.76
399.32	1158.57
399.51	1263.89
399.70	1273.25
399.90	1196.01
400.09	1364.53
400.28	1355.17
400.47	1228.78
400.67	1413.68
400.86	1291.98
401.05	1350.49
401.24	1409.00
401.44	1394.96
401.63	1432.41
401.82	1451.13
402.01	1439.43
402.21	1406.66
402.40	1493.26
402.59	1467.52
402.78	1579.86
402.97	1497.94
403.17	1535.39
403.36	1451.13
403.55	1446.45
403.74	1486.24
403.93	1551.78
404.13	1607.95
404.32	1584.54
404.51	1565.82
404.70	1657.10
404.89	1610.29
405.09	1636.03
405.28	1687.53
405.47	1713.27
405.66	1675.82
405.85	1776.47
406.05	1720.29
406.24	1685.19
406.43	1722.63
406.62	1762.42
406.81	2012.86
407.00	1783.49
407.20	1832.64
407.39	1846.68
407.58	1968.39
407.77	1877.11
407.96	1923.92
408.15	1942.64
408.34	1961.37
408.54	1987.11
408.73	1930.94
408.92	2045.63
409.11	2010.52
409.30	2062.01
409.49	1959.03
409.68	2080.74
409.87	2153.29
410.07	2155.63
410.26	2146.27
410.45	2225.85
410.64	2099.46
410.83	2202.44
411.02	2249.25
411.21	2200.10
411.40	2279.68
411.59	2420.11
411.78	2382.67
411.98	2373.30
412.17	2396.71
412.36	2354.58
412.55	2380.32
412.74	2399.05
412.93	2487.99
413.12	2459.90
413.31	2686.94
413.50	2558.21
413.69	2635.44
413.88	2560.55
414.07	2612.04
414.26	2715.02
414.45	2616.72
414.64	2792.26
414.83	2766.51
415.02	2766.51
415.22	2745.45
415.41	2818.00
415.60	2836.73
415.79	2853.11
415.98	3000.57
416.17	2991.20
416.36	2939.71
416.55	3054.40
416.74	2871.84
416.93	2972.48
417.12	3094.19
417.31	3133.98
417.50	3141.00
417.69	3243.98
417.88	3190.15
418.07	3220.58
418.26	3220.58
418.45	3243.98
418.64	3290.79
418.83	3386.76
419.02	3356.33
419.21	3424.20
419.39	3478.04
419.58	3400.80
419.77	3475.70
419.96	3337.60
420.15	3576.34
420.34	3295.47
420.53	3520.17
420.72	3566.98
420.91	3545.91
421.10	3660.60
421.29	3644.21
421.48	3599.74
421.67	3585.70
421.86	3672.30
422.05	3719.11
422.24	3775.28
422.43	3707.41
422.61	3754.22
422.80	3646.55
422.99	3749.54
423.18	3791.67
423.37	3864.22
423.56	3691.02
423.75	3817.41
423.94	3693.37
424.13	3515.48
424.32	3630.17
424.50	3679.32
424.69	3686.34
424.88	3882.95
425.07	3770.60
425.26	3812.73
425.45	3698.05
425.64	3819.75
425.83	3812.73
426.01	3833.80
426.20	3803.37
426.39	3918.06
426.58	3878.27
426.77	3754.22
426.96	3812.73
427.15	3864.22
427.33	3880.61
427.52	3960.19
427.71	3955.51
427.90	4037.42
428.09	4098.28
428.28	4098.28
428.46	4105.30
428.65	3936.78
428.84	4114.66
429.03	4304.25
429.22	4175.52
429.40	4098.28
429.59	4189.56
429.78	4065.51
429.97	4023.38
430.16	4149.77
430.34	4411.91
430.53	4346.37
430.72	4390.84
430.91	4177.86
431.10	4109.98
431.28	4489.15
431.47	4322.97
431.66	4463.40
431.85	4411.91
432.03	4489.15
432.22	4592.13
432.41	4397.87
432.60	4582.77
432.79	4528.94
432.97	4610.86
433.16	4552.34
433.35	4510.21
433.54	4716.18
433.72	4519.57
433.91	4524.26
434.10	4531.28
434.28	4748.95
434.47	4781.71
434.66	4767.67
434.85	4779.37
435.03	4840.23
435.22	4772.35
435.41	4940.87
435.59	4833.21
435.78	4873.00
435.97	4947.89
436.16	4922.15
436.34	4990.02
436.53	4943.21
436.72	5090.67
436.90	4952.57
437.09	4973.64
437.28	5025.13
437.46	4924.49
437.65	4887.04
437.84	5074.28
438.02	5067.26
438.21	5205.35
438.40	5083.64
438.58	5235.78
438.77	5320.04
438.96	5352.81
439.14	5357.49
439.33	5413.66
439.52	5481.53
439.70	5579.84
439.89	5579.84
440.08	5607.92
440.26	5638.35
440.45	5853.68
440.63	5650.05
440.82	5760.06
441.01	5647.71
441.19	5797.51
441.38	6010.50
441.57	5872.40
441.75	5909.85
441.94	6003.47
442.12	6029.22
442.31	6176.67
442.50	6136.88
442.68	6202.42
442.87	6148.59
443.05	6242.21
443.24	6413.07
443.43	6132.20
443.61	6342.85
443.80	6511.37
443.98	6108.80
444.17	5996.45
444.35	6317.11
444.54	6368.60
444.73	6361.58
444.91	6272.64
445.10	6230.51
445.28	6207.10
445.47	6253.91
445.65	6392.00
445.84	6541.80
446.02	6401.37
446.21	6333.49
446.39	6354.55
446.58	6544.14
446.77	6448.18
446.95	6434.13
447.14	6497.33
447.32	6422.43
447.51	6408.39
447.69	6506.69
447.88	6677.55
448.06	6403.71
448.25	6504.35
448.43	6438.81
448.62	6424.77
448.80	6541.80
448.99	6696.27
449.17	6413.07
449.36	6668.19
449.54	6808.62
449.73	6878.83
449.91	6902.24
450.10	6909.26
450.28	6902.24
450.46	7023.95
450.65	7056.72
450.83	7059.06
451.02	7016.93
451.20	6930.33
451.39	6925.65
451.57	6944.37
451.76	6974.80
451.94	6984.16
452.13	7382.05
452.31	6944.37
452.49	6965.43
452.68	7077.78
452.86	7250.98
453.05	7241.62
453.23	7159.70
453.42	7255.66
453.60	7021.61
453.78	7232.26
453.97	7279.07
454.15	7222.89
454.34	7129.27
454.52	7480.35
454.70	7382.05
454.89	7456.95
455.07	7293.11
455.26	7494.40
455.44	7562.27
455.62	7431.20
455.81	7482.69
455.99	7681.64
456.17	7576.31
456.36	7660.57
456.54	7913.35
456.73	7709.72
456.91	7859.52
457.09	7915.69
457.28	8234.00
457.46	7871.22
457.64	8166.13
457.83	7885.26
458.01	7754.19
458.19	8098.25
458.38	7929.74
458.56	8203.58
458.74	8210.60
458.93	8271.45
459.11	8105.28
459.29	8002.29
459.48	8306.56
459.66	8252.73
459.84	8402.52
460.03	8606.15
460.21	8297.20
460.39	8526.57
460.57	8376.78
460.76	8439.97
460.94	8676.37
461.12	8568.70
461.31	8479.76
461.49	8542.96
461.67	8659.98
461.85	8645.94
462.04	8849.57
462.22	9167.88
462.40	8830.84
462.59	8702.11
462.77	8552.32
462.95	8779.35
463.13	8734.88
463.32	8912.76
463.50	8877.65
463.68	8793.39
463.86	9053.19
464.05	8879.99
464.23	8809.78
464.41	9165.54
464.59	8685.73
464.78	9064.89
464.96	9043.83
465.14	9078.94
465.32	9174.90
465.50	9231.07
465.69	9350.44
465.87	9123.41
466.05	9163.20
466.23	9385.55
466.41	9280.22
466.60	9476.83
466.78	9245.12
466.96	9219.37
467.14	9181.92
467.32	9294.27
467.51	9352.78
467.69	9373.85
467.87	9448.74
468.05	9474.49
468.23	9408.95
468.41	9614.92
468.60	9460.45
468.78	9771.74
468.96	9540.02
469.14	9666.41
469.32	9839.61
469.50	9650.03
469.69	9881.74
469.87	9877.06
470.05	10017.49
470.23	9867.70
470.41	10029.20
470.59	10148.56
470.77	10094.73
470.95	9891.10
471.14	10122.82
471.32	10162.61
471.50	10485.60
471.68	10600.29
471.86	10485.60
472.04	10464.54
472.22	10581.56
472.40	10345.17
472.58	10523.05
472.77	10637.73
472.95	10670.50
473.13	10918.60
473.31	10576.88
473.49	10787.53
473.67	10677.52
473.85	10743.06
474.03	11091.80
474.21	10815.62
474.39	11162.01
474.57	11269.68
474.75	11389.05
474.93	11304.79
475.12	11192.44
475.30	11297.77
475.48	11400.75
475.66	11529.48
475.84	11473.31
476.02	11838.43
476.20	11702.68
476.38	11742.47
476.56	11866.52
476.74	12140.36
476.92	12020.99
477.10	12013.97
477.28	11950.78
477.46	12173.13
477.64	12400.16
477.82	12674.00
478.00	12657.62
478.18	12795.71
478.36	13069.55
478.54	12847.20
478.72	12901.03
478.90	13095.30
479.08	13383.18
479.26	13385.52
479.44	13312.97
479.62	13408.93
479.80	13462.76
479.98	13767.03
480.16	13535.32
480.34	13989.38
480.52	14090.02
480.70	14085.34
480.88	13865.33
481.06	14120.45
481.24	13980.02
481.41	14420.04
481.59	14731.33
481.77	14764.10
481.95	14679.84
482.13	14822.61
482.31	14897.51
482.49	15180.71
482.67	15082.41
482.85	15332.85
483.03	15742.44
483.21	15667.55
483.39	15548.18
483.57	15875.85
483.74	15836.06
483.92	16011.60
484.10	15889.90
484.28	16163.74
484.46	16446.94
484.64	16699.72
484.82	16662.27
485.00	16699.72
485.18	17118.68
485.35	17205.28
485.53	17427.63
485.71	17329.33
485.89	17544.66
486.07	17579.76
486.25	17729.56
486.43	17930.84
486.61	17860.63
486.78	18302.99
486.96	18267.88
487.14	18733.65
487.32	18530.02
487.50	18735.99
487.68	18642.37
487.85	18909.19
488.03	19073.03
488.21	19208.78
488.39	19599.65
488.57	19632.41
488.75	19833.70
488.92	20142.65
489.10	20243.29
489.28	20053.71
489.46	20486.71
489.64	20315.85
489.81	21130.36
489.99	20978.22
490.17	20879.92
490.35	21240.36
490.53	20938.43
490.70	21446.33
490.88	21490.80
491.06	21380.79
491.24	21523.57
491.41	22066.57
491.59	21937.84
491.77	22148.49
491.95	22146.15
492.13	22513.61
492.30	22766.39
492.48	22609.58
492.66	22827.24
492.84	22754.69
493.01	22920.87
493.19	22815.54
493.37	23414.72
493.54	23515.36
493.72	23410.04
493.90	23672.18
494.08	23871.12
494.25	24067.73
494.43	24023.26
494.61	24500.73
494.79	24430.51
494.96	24182.42
495.14	24561.58
495.32	25078.84
495.49	24919.68
495.67	25273.10
495.85	25640.57
496.02	25551.63
496.20	25493.12
496.38	25785.68
496.55	26001.01
496.73	26139.10
496.91	26017.40
497.09	26022.08
497.26	26829.56
497.44	26504.23
497.62	26335.71
497.79	26658.70
497.97	26789.77
498.14	27281.28
498.32	27370.22
498.50	27194.68
498.67	27868.76
498.85	27459.16
499.03	27716.62
499.20	27672.15
499.38	28215.16
499.56	28093.45
499.73	27910.89
499.91	28336.87
500.08	28395.38
500.26	28114.52
500.44	27992.81
500.61	28648.16
500.79	28627.09
500.97	28701.99
501.14	28945.41
501.32	29022.64
501.49	29118.60
501.67	28978.17
501.84	29418.19
502.02	29102.22
502.20	29647.57
502.37	29954.18
502.55	29830.13
502.72	29357.34
502.90	29680.33
503.07	29666.29
503.25	29881.62
503.43	29961.20
503.60	30417.60
503.78	30361.43
503.95	30253.76
504.13	30843.58
504.30	30764.00
504.48	30593.14
504.65	31002.74
504.83	31218.07
505.01	31491.91
505.18	31297.64
505.36	31316.37
505.53	31246.15
505.71	31360.84
505.88	31194.66
506.06	31473.18
506.23	32053.64
506.41	31793.84
506.58	32006.83
506.76	32084.06
506.93	32240.88
507.11	31915.54
507.28	32027.89
507.46	31964.70
507.63	32519.40
507.81	32809.63
507.98	32493.66
508.16	32613.02
508.33	33003.89
508.50	32910.27
508.68	32959.42
508.85	33596.05
509.03	32966.45
509.20	33596.05
509.38	33963.51
509.55	33769.25
509.73	33963.51
509.90	33710.74
510.08	33989.26
510.25	33909.68
510.42	33888.62
510.60	34150.76
510.77	34473.75
510.95	34473.75
511.12	34499.50
511.30	34595.46
511.47	34611.84
511.64	34682.06
511.82	35227.40
511.99	34794.40
512.17	35189.95
512.34	35274.21
512.51	35323.36
512.69	35449.75
512.86	35264.85
513.04	35407.62
513.21	35728.28
513.38	35917.86
513.56	36084.04
513.73	35981.06
513.90	35592.53
514.08	35859.35
514.25	36140.21
514.43	36385.97
514.60	36292.35
514.77	36081.70
514.95	36797.90
515.12	36568.53
515.29	36404.69
515.47	37205.16
515.64	37137.28
515.81	37024.93
515.99	36875.14
516.16	37177.07
516.33	37359.63
516.51	37343.25
516.68	36847.05
516.85	37392.40
517.03	37581.98
517.20	37844.12
517.37	37640.50
517.54	37738.80
517.72	37734.12
517.89	38167.12
518.06	37773.91
518.24	37993.92
518.41	37879.23
518.58	38094.56
518.75	38368.40
518.93	38499.47
519.10	38206.90
519.27	38171.80
519.45	38314.57
519.62	38113.28
519.79	39042.48
519.96	38960.56
520.14	39538.67
520.31	39042.48
520.48	39732.93
520.65	39260.15
520.83	39784.43
521.00	39091.63
521.17	39349.09
521.34	39477.82
521.52	39452.07
521.69	39775.06
521.86	39871.03
522.03	40020.82
522.20	39758.68
522.38	39571.44
522.55	39945.92
522.72	40495.95
522.89	40282.96
523.07	40252.53
523.24	40212.74
523.41	40409.35
523.58	40306.37
523.75	40226.79
523.92	40517.01
524.10	40741.71
524.27	40645.74
524.44	40978.10
524.61	41006.19
524.78	41603.02
524.96	40912.56
525.13	41170.02
525.30	41205.13
525.47	41261.30
525.64	41755.16
525.81	41769.20
525.98	41923.68
526.16	41614.72
526.33	42155.39
526.50	41949.42
526.67	41179.39
526.84	42204.54
527.01	41972.83
527.18	41780.90
527.36	42155.39
527.53	42171.77
527.70	42878.61
527.87	42426.89
528.04	41827.71
528.21	42852.87
528.38	42611.79
528.55	42614.13
528.72	42202.20
528.89	41984.53
529.07	42539.24
529.24	42801.38
529.41	43033.09
529.58	42321.57
529.75	42625.84
529.92	42850.53
530.09	43335.02
530.26	43175.86
530.43	43346.72
530.60	42890.32
530.77	43370.13
530.94	43784.40
531.11	43608.86
531.28	43459.07
531.46	43768.02
531.63	43625.25
531.80	43440.34
531.97	43672.06
532.14	43540.99
532.31	43409.92
532.48	43777.38
532.65	43908.45
532.82	43887.39
532.99	44378.90
533.16	44149.53
533.33	44289.96
533.50	44474.86
533.67	43882.70
533.84	44240.81
534.01	44135.48
534.18	44315.70
534.35	44355.49
534.52	44474.86
534.69	44828.28
534.86	44900.84
535.03	44432.73
535.20	44816.58
535.37	44828.28
535.54	45233.19
535.71	44404.64
535.88	44839.98
536.05	45062.33
536.22	45010.84
536.38	45031.91
536.55	45453.20
536.72	45495.33
536.89	45027.23
537.06	45085.74
537.23	45116.17
537.40	44975.73
537.57	45106.80
537.74	45212.13
537.91	45621.72
538.08	45780.88
538.25	45610.02
538.42	45514.06
538.59	45656.83
538.75	45710.66
538.92	45635.77
539.09	46185.79
539.26	46045.36
539.43	46335.59
539.60	46195.15
539.77	45895.56
539.94	46220.90
540.11	46026.63
540.28	45996.21
540.44	46050.04
540.61	46134.30
540.78	46136.64
540.95	46761.56
541.12	46204.52
541.29	46686.67
541.46	46550.91
541.62	46195.15
541.79	46389.42
541.96	45968.12
542.13	46494.74
542.30	46986.25
542.47	46808.37
542.63	46939.44
542.80	46628.15
542.97	47379.46
543.14	46775.61
543.31	47192.22
543.48	47288.18
543.64	47653.31
543.81	47655.65
543.98	47665.01
544.15	47594.79
544.32	47590.11
544.48	47859.27
544.65	47484.79
544.82	47325.63
544.99	47356.06
545.16	47367.76
545.32	47758.63
545.49	47903.74
545.66	48177.59
545.83	48133.12
546.00	48170.57
546.16	47693.10
546.33	47580.75
546.50	47597.13
546.67	48072.26
546.83	47517.56
547.00	48533.35
547.17	48053.54
547.34	47796.08
547.50	48048.86
547.67	48301.64
547.84	48133.12
548.00	48636.33
548.17	48502.92
548.34	48399.94
548.51	48456.11
548.67	48495.90
548.84	48463.13
549.01	48666.76
549.18	48638.67
549.34	48746.34
549.51	48619.95
549.68	48528.67
549.84	48563.78
550.01	49013.16
550.18	48795.49
550.34	48793.15
550.51	49052.95
550.68	48982.73
550.84	48781.45
551.01	48687.82
551.18	48493.56
551.34	48456.11
551.51	49127.84
551.68	49179.34
551.84	49294.02
552.01	48772.08
552.18	49181.68
552.34	49064.65
552.51	49394.67
552.68	49116.14
552.84	49181.68
553.01	49418.07
553.18	49296.36
553.34	48919.54
553.51	49558.50
553.67	49797.24
553.84	49918.95
554.01	49722.34
554.17	49684.89
554.34	49427.43
554.51	49525.74
554.67	49794.90
554.84	49940.01
555.00	49595.95
555.17	49799.58
555.33	49909.58
555.50	49453.18
555.67	49961.08
555.83	49532.76
556.00	49741.06
556.16	50349.60
556.33	49771.49
556.50	49968.10
556.66	50080.44
556.83	49963.42
556.99	50403.44
557.16	50216.19
557.32	50258.32
557.49	50244.28
557.65	49907.24
557.82	49844.05
557.98	50234.92
558.15	50092.15
558.32	50611.74
558.48	49954.05
558.65	50424.50
558.81	50447.91
558.98	49996.18
559.14	50064.06
559.31	50220.87
559.47	50246.62
559.64	50644.51
559.80	50452.59
559.97	50316.84
560.13	50377.69
560.30	50454.93
560.46	50365.99
560.63	50609.40
560.79	50569.61
560.96	50380.03
561.12	50494.72
561.29	50686.64
561.45	50522.80
561.61	50754.52
561.78	50700.68
561.94	50667.92
562.11	50590.68
562.27	50394.07
562.44	50555.57
562.60	50281.73
562.77	50429.18
562.93	50408.12
563.10	50679.62
563.26	50578.98
563.42	51187.52
563.59	50756.86
563.75	50749.84
563.92	50782.60
564.08	50471.31
564.24	50937.08
564.41	50890.27
564.57	50681.96
564.74	50775.58
564.90	51124.32
565.07	51096.24
565.23	51161.77
565.39	51023.68
565.56	50768.56
565.72	50934.74
565.88	50560.25
566.05	50784.94
566.21	51049.42
566.38	50651.53
566.54	50698.34
566.70	51082.19
566.87	50801.33
567.03	50941.76
567.19	51189.86
567.36	51271.78
567.52	51023.68
567.68	51016.66
567.85	50789.62
568.01	50766.22
568.17	50726.43
568.34	51215.60
568.50	51004.95
568.66	50993.25
568.83	51302.20
568.99	50904.31
569.15	51103.26
569.32	50803.67
569.48	50993.25
569.64	51358.38
569.81	51019.00
569.97	51344.33
570.13	51309.22
570.30	51201.56
570.46	51519.87
570.62	51236.67
570.78	51213.26
570.95	51121.98
571.11	51147.73
571.27	50965.17
571.43	50880.91
571.60	51372.42
571.76	51407.53
571.92	51203.90
572.09	51367.74
572.25	51082.19
572.41	51529.23
572.57	51210.92
572.74	51334.97
572.90	51309.22
573.06	51234.33
573.22	51276.46
573.38	51484.76
573.55	51288.16
573.71	51810.10
573.87	51468.38
574.03	51384.12
574.20	51440.29
574.36	51618.17
574.52	51545.62
574.68	51590.09
574.84	51510.51
575.01	51760.95
575.17	51290.50
575.33	51934.15
575.49	51557.32
575.65	51428.59
575.82	51580.73
575.98	51309.22
576.14	51206.24
576.30	51562.00
576.46	51650.94
576.62	50958.14
576.79	51503.49
576.95	51180.49
577.11	51498.81
577.27	51468.38
577.43	51501.15
577.59	51587.75
577.75	51526.89
577.92	51409.87
578.08	51229.65
578.24	51281.14
578.40	51585.41
578.56	51552.64
578.72	51318.59
578.88	51477.74
579.04	51653.28
579.21	51634.56
579.37	51510.51
579.53	51580.73
579.69	51540.94
579.85	51573.70
580.01	51491.79
580.17	51435.61
580.33	51697.75
580.49	51545.62
580.65	51999.68
580.82	51892.02
580.98	51547.96
581.14	51725.84
581.30	51615.83
581.46	51618.17
581.62	51304.54
581.78	51573.70
581.94	51323.27
582.10	51349.01
582.26	51629.88
582.42	51758.61
582.58	52123.73
582.74	51791.37
582.90	51826.48
583.06	51936.49
583.22	51498.81
583.38	51346.67
583.54	51882.66
583.70	51613.49
583.86	51639.24
584.02	51522.21
584.18	51636.90
584.34	51571.36
584.50	51957.55
584.66	51847.55
584.82	51274.12
584.98	51688.39
585.14	51856.91
585.30	51409.87
585.46	51395.82
585.62	51639.24
585.78	51643.92
585.94	51489.45
586.10	51793.71
586.26	51627.54
586.42	51751.59
586.58	51615.83
586.74	51475.40
586.90	51494.13
587.06	51576.04
587.22	51503.49
587.38	51669.67
587.54	51695.41
587.70	52093.30
587.86	51966.91
588.02	51842.87
588.18	52002.02
588.34	51896.70
588.49	51592.43
588.65	51660.30
588.81	51774.99
588.97	51791.37
589.13	51915.42
589.29	51592.43
589.45	52112.03
589.61	51934.15
589.77	52371.83
589.93	51847.55
590.08	52161.18
590.24	51861.59
