SpectraSuite Data File
++++++++++++++++++++++++++++++++++++
Date: Fri Oct 04 11:48:42 GMT-05:00 2013
User: price-jones
Dark Spectrum Present: No
Reference Spectrum Present: No
Number of Sampled Component Spectra: 1
Spectrometers: USB2+H05261
Integration Time (usec): 100000 (USB2+H05261)
Spectra Averaged: 1 (USB2+H05261)
Boxcar Smoothing: 0 (USB2+H05261)
Correct for Electrical Dark: No (USB2+H05261)
Strobe/Lamp Enabled: No (USB2+H05261)
Correct for Detector Non-linearity: No (USB2+H05261)
Correct for Stray Light: No (USB2+H05261)
Number of Pixels in Processed Spectrum: 2048
>>>>>Begin Processed Spectral Data<<<<<
365.73	18.72
365.92	18.72
366.12	18.72
366.32	0.00
366.52	0.00
366.72	0.00
366.91	0.00
367.11	0.00
367.31	0.00
367.51	0.00
367.70	0.00
367.90	0.00
368.10	0.00
368.30	0.00
368.49	0.00
368.69	0.00
368.89	0.00
369.09	0.00
369.28	0.00
369.48	0.00
369.68	0.00
369.87	0.00
370.07	9.36
370.27	0.00
370.47	49.15
370.66	60.85
370.86	205.97
371.06	156.82
371.25	184.90
371.45	163.84
371.65	245.76
371.84	170.86
372.04	166.18
372.24	170.86
372.44	280.86
372.63	147.45
372.83	273.84
373.03	217.67
373.22	198.95
373.42	220.01
373.62	142.77
373.81	252.78
374.01	250.44
374.21	276.18
374.40	163.84
374.60	241.08
374.79	250.44
374.99	182.56
375.19	297.25
375.38	248.10
375.58	227.03
375.78	290.23
375.97	222.35
376.17	308.95
376.37	250.44
376.56	287.89
376.76	245.76
376.95	156.82
377.15	198.95
377.35	229.37
377.54	271.50
377.74	142.77
377.93	184.90
378.13	259.80
378.33	205.97
378.52	287.89
378.72	273.84
378.91	280.86
379.11	292.57
379.31	257.46
379.50	276.18
379.70	234.05
379.89	259.80
380.09	257.46
380.28	273.84
380.48	285.55
380.68	227.03
380.87	203.63
381.07	320.65
381.26	264.48
381.46	241.08
381.65	297.25
381.85	273.84
382.04	248.10
382.24	259.80
382.43	266.82
382.63	252.78
382.83	234.05
383.02	320.65
383.22	290.23
383.41	259.80
383.61	259.80
383.80	259.80
384.00	276.18
384.19	276.18
384.39	362.78
384.58	304.27
384.78	227.03
384.97	313.63
385.17	353.42
385.36	308.95
385.56	341.72
385.75	257.46
385.95	294.91
386.14	299.59
386.34	294.91
386.53	269.16
386.72	290.23
386.92	285.55
387.11	262.14
387.31	327.68
387.50	266.82
387.70	287.89
387.89	365.12
388.09	322.99
388.28	325.33
388.48	320.65
388.67	365.12
388.86	318.31
389.06	360.44
389.25	383.85
389.45	400.23
389.64	313.63
389.84	397.89
390.03	337.04
390.22	433.00
390.42	325.33
390.61	470.45
390.81	374.49
391.00	362.78
391.19	372.15
391.39	334.70
391.58	397.89
391.78	320.65
391.97	381.51
392.16	411.93
392.36	421.30
392.55	337.04
392.75	409.59
392.94	416.62
393.13	428.32
393.33	353.42
393.52	376.83
393.71	514.92
393.91	390.87
394.10	395.55
394.29	458.74
394.49	496.19
394.68	493.85
394.88	465.77
395.07	503.22
395.26	388.53
395.46	491.51
395.65	547.69
395.84	444.70
396.04	500.87
396.23	454.06
396.42	449.38
396.62	517.26
396.81	435.34
397.00	578.11
397.19	493.85
397.39	543.00
397.58	533.64
397.77	479.81
397.97	491.51
398.16	514.92
398.35	566.41
398.55	496.19
398.74	543.00
398.93	564.07
399.12	571.09
399.32	599.18
399.51	550.03
399.70	629.60
399.90	573.43
400.09	514.92
400.28	608.54
400.47	676.41
400.67	533.64
400.86	657.69
401.05	706.84
401.24	657.69
401.44	636.63
401.63	709.18
401.82	655.35
402.01	676.41
402.21	683.44
402.40	730.25
402.59	676.41
402.78	636.63
402.97	725.57
403.17	730.25
403.36	737.27
403.55	807.48
403.74	802.80
403.93	704.50
404.13	786.42
404.32	744.29
404.51	727.91
404.70	809.83
404.89	826.21
405.09	968.98
405.28	826.21
405.47	940.90
405.66	968.98
405.85	947.92
406.05	910.47
406.24	912.81
406.43	940.90
406.62	936.21
406.81	1025.15
407.00	985.37
407.20	896.43
407.39	945.58
407.58	966.64
407.77	968.98
407.96	1109.41
408.15	1041.54
408.34	1053.24
408.54	1041.54
408.73	1039.20
408.92	1071.97
409.11	1109.41
409.30	1034.52
409.49	1053.24
409.68	1083.67
409.87	1090.69
410.07	1191.33
410.26	1111.75
410.45	1125.80
410.64	1193.67
410.83	1078.99
411.02	1212.40
411.21	1315.38
411.40	1242.82
411.59	1303.68
411.78	1259.21
411.98	1329.42
412.17	1324.74
412.36	1390.28
412.55	1219.42
412.74	1394.96
412.93	1371.55
413.12	1331.76
413.31	1444.11
413.50	1458.15
413.69	1336.45
413.88	1577.52
414.07	1519.01
414.26	1488.58
414.45	1451.13
414.64	1598.59
414.83	1652.42
415.02	1523.69
415.22	1600.93
415.41	1603.27
415.60	1694.55
415.79	1640.72
415.98	1804.55
416.17	1717.95
416.36	1661.78
416.55	1675.82
416.74	1739.02
416.93	1788.17
417.12	1783.49
417.31	1757.74
417.50	1799.87
417.69	1818.60
417.88	1865.41
418.07	1825.62
418.26	1825.62
418.45	1870.09
418.64	1947.33
418.83	1912.22
419.02	1895.83
419.21	1980.09
419.39	1989.46
419.58	1898.17
419.77	1970.73
419.96	1973.07
420.15	2101.80
420.34	1982.43
420.53	2090.10
420.72	2031.58
420.91	2052.65
421.10	2134.57
421.29	2108.82
421.48	2064.35
421.67	2136.91
421.86	2073.71
422.05	2022.22
422.24	2150.95
422.43	2073.71
422.61	2181.38
422.80	2115.84
422.99	2122.87
423.18	2099.46
423.37	2221.17
423.56	2186.06
423.75	2258.62
423.94	2115.84
424.13	2090.10
424.32	2101.80
424.50	2127.55
424.69	2204.78
424.88	2277.34
425.07	2174.36
425.26	2153.29
425.45	2235.21
425.64	2172.02
425.83	2190.74
426.01	2242.23
426.20	2277.34
426.39	2127.55
426.58	2253.94
426.77	2134.57
426.96	2202.44
427.15	2270.32
427.33	2389.69
427.52	2298.41
427.71	2359.26
427.90	2298.41
428.09	2394.37
428.28	2387.35
428.46	2370.96
428.65	2352.24
428.84	2464.58
429.03	2480.97
429.22	2413.09
429.40	2420.11
429.59	2462.24
429.78	2232.87
429.97	2377.98
430.16	2422.45
430.34	2417.77
430.53	2551.18
430.72	2504.37
430.91	2520.76
431.10	2492.67
431.28	2434.16
431.47	2668.21
431.66	2684.59
431.85	2502.03
432.03	2602.68
432.22	2719.70
432.41	2597.99
432.60	2698.64
432.79	2644.81
432.97	2612.04
433.16	2555.86
433.35	2661.19
433.54	2726.72
433.72	2633.10
433.91	2642.46
434.10	2724.38
434.28	2677.57
434.47	2726.72
434.66	2796.94
434.85	2846.09
435.03	2946.73
435.22	2860.13
435.41	2782.90
435.59	2876.52
435.78	2717.36
435.97	2862.48
436.16	3026.31
436.34	2878.86
436.53	2958.44
436.72	2953.76
436.90	2773.53
437.09	2974.82
437.28	2923.33
437.46	2881.20
437.65	3005.25
437.84	3070.78
438.02	3056.74
438.21	2935.03
438.40	2888.22
438.58	3056.74
438.77	3054.40
438.96	3094.19
439.14	3169.09
439.33	3194.83
439.52	3148.02
439.70	3258.03
439.89	3239.30
440.08	3276.75
440.26	3295.47
440.45	3323.56
440.63	3377.39
440.82	3351.65
441.01	3232.28
441.19	3433.57
441.38	3449.95
441.57	3461.65
441.75	3552.93
441.94	3548.25
442.12	3545.91
442.31	3735.50
442.50	3496.76
442.68	3585.70
442.87	3613.79
443.05	3503.78
443.24	3641.87
443.43	3723.79
443.61	3679.32
443.80	3737.84
443.98	3524.85
444.17	3463.99
444.35	3672.30
444.54	3747.20
444.73	3761.24
444.91	3705.07
445.10	3763.58
445.28	3604.42
445.47	3705.07
445.65	3803.37
445.84	3702.73
446.02	3676.98
446.21	3662.94
446.39	3719.11
446.58	3695.71
446.77	3770.60
446.95	3854.86
447.14	3833.80
447.32	3857.20
447.51	3641.87
447.69	3691.02
447.88	3808.05
448.06	3852.52
448.25	3756.56
448.43	3756.56
448.62	3838.48
448.80	3761.24
448.99	3812.73
449.17	3906.35
449.36	3775.28
449.54	3817.41
449.73	4011.68
449.91	4016.36
450.10	3920.40
450.28	4077.21
450.46	3920.40
450.65	3967.21
450.83	4191.90
451.02	4037.42
451.20	4044.45
451.39	3992.95
451.57	4030.40
451.76	3906.35
451.94	4224.67
452.13	4163.81
452.31	3992.95
452.49	4222.33
452.68	4100.62
452.86	4191.90
453.05	4198.92
453.23	4266.80
453.42	4198.92
453.60	4198.92
453.78	4156.79
453.97	4252.75
454.15	4229.35
454.34	4215.30
454.52	4418.93
454.70	4381.48
454.89	4250.41
455.07	4329.99
455.26	4353.40
455.44	4376.80
455.62	4269.14
455.81	4407.23
455.99	4325.31
456.17	4280.84
456.36	4587.45
456.54	4528.94
456.73	4498.51
456.91	4517.23
457.09	4615.54
457.28	4732.56
457.46	4636.60
457.64	4746.61
457.83	4629.58
458.01	4557.02
458.19	4645.96
458.38	4643.62
458.56	4830.87
458.74	4688.09
458.93	4734.90
459.11	4753.63
459.29	4622.56
459.48	4695.11
459.66	4877.68
459.84	4856.61
460.03	4924.49
460.21	4835.55
460.39	4683.41
460.57	4947.89
460.76	5011.09
460.94	4964.28
461.12	5102.37
461.31	4819.16
461.49	4856.61
461.67	4896.40
461.85	5111.73
462.04	4868.31
462.22	5533.03
462.40	5093.01
462.59	5100.03
462.77	4983.00
462.95	5062.58
463.13	5097.69
463.32	5121.09
463.50	5298.97
463.68	5252.16
463.86	5139.82
464.05	5203.01
464.23	5289.61
464.41	5235.78
464.59	5132.79
464.78	5280.25
464.96	5373.87
465.14	5172.58
465.32	5355.15
465.50	5352.81
465.69	5224.08
465.87	5308.34
466.05	5177.26
466.23	5261.52
466.41	5275.57
466.60	5441.75
466.78	5327.06
466.96	5418.34
467.14	5392.59
467.32	5420.68
467.51	5467.49
467.69	5451.11
467.87	5493.24
468.05	5551.75
468.23	5523.66
468.41	5444.09
468.60	5432.38
468.78	5671.12
468.96	5514.30
469.14	5413.66
469.32	5603.24
469.50	5535.37
469.69	5813.89
469.87	5570.48
470.05	5713.25
470.23	5839.64
470.41	5823.25
470.59	5834.96
470.77	5809.21
470.95	5937.94
471.14	5888.79
471.32	5895.81
471.50	6045.60
471.68	5837.30
471.86	5987.09
472.04	6001.13
472.22	6071.35
472.40	6003.47
472.58	5987.09
472.77	6148.59
472.95	6129.86
473.13	6314.77
473.31	6169.65
473.49	6200.08
473.67	6307.74
473.85	6228.17
474.03	6389.66
474.21	6221.14
474.39	6345.19
474.57	6546.48
474.75	6478.60
474.93	6607.33
475.12	6520.73
475.30	6455.20
475.48	6546.48
475.66	6684.57
475.84	6569.88
476.02	6752.45
476.20	6670.53
476.38	6724.36
476.56	7016.93
476.74	6906.92
476.92	6815.64
477.10	6757.13
477.28	7089.48
477.46	7005.22
477.64	7077.78
477.82	7075.44
478.00	7180.76
478.18	7246.30
478.36	7487.37
478.54	7414.82
478.72	7269.70
478.90	7585.68
479.08	7606.74
479.26	7566.95
479.44	7552.91
479.62	7524.82
479.80	7646.53
479.98	7768.24
480.16	8021.02
480.34	8067.83
480.52	7826.75
480.70	7934.42
480.88	7939.10
481.06	8112.30
481.24	8154.43
481.41	8304.22
481.59	8182.51
481.77	8414.23
481.95	8510.19
482.13	8421.25
482.31	8486.78
482.49	8650.62
482.67	8695.09
482.85	8667.00
483.03	8922.12
483.21	9029.79
483.39	9149.15
483.57	8861.27
483.74	8952.55
483.92	9090.64
484.10	9125.75
484.28	9369.16
484.46	9359.80
484.64	9542.36
484.82	9364.48
485.00	9619.60
485.18	9781.10
485.35	9696.84
485.53	9619.60
485.71	9963.66
485.89	9858.34
486.07	10047.92
486.25	9994.09
486.43	10050.26
486.61	10293.68
486.78	10377.94
486.96	10391.98
487.14	10586.24
487.32	10492.62
487.50	10523.05
487.68	10551.14
487.85	10745.40
488.03	10796.89
488.21	11330.53
488.39	10803.91
488.57	11140.95
488.75	11159.67
488.92	11496.71
489.10	11377.34
489.28	11454.58
489.46	11440.54
489.64	11573.95
489.81	11775.24
489.99	11824.39
490.17	11866.52
490.35	11878.22
490.53	11896.94
490.70	12128.66
490.88	11995.25
491.06	12287.81
491.24	12304.20
491.41	12468.03
491.59	12362.71
491.77	12388.46
491.95	12568.68
492.13	12666.98
492.30	12547.61
492.48	12737.20
492.66	13036.78
492.84	12966.57
493.01	12924.44
493.19	13006.36
493.37	13064.87
493.54	13514.25
493.72	13518.93
493.90	13530.64
494.08	13301.26
494.25	13633.62
494.43	13647.66
494.61	13914.48
494.79	13848.95
494.96	13668.73
495.14	14017.47
495.32	14050.24
495.49	14293.65
495.67	14295.99
495.85	14263.22
496.02	14539.41
496.20	14380.25
496.38	14471.53
496.55	14361.53
496.73	14782.82
496.91	14696.22
497.09	14675.16
497.26	14953.68
497.44	14675.16
497.62	14803.89
497.79	15056.67
497.97	15061.35
498.14	15449.88
498.32	15159.65
498.50	15358.60
498.67	15435.83
498.85	15583.29
499.03	15349.23
499.20	15419.45
499.38	15606.69
499.56	15829.04
499.73	15838.41
499.91	16030.33
500.08	16107.57
500.26	15878.19
500.44	15859.47
500.61	16107.57
500.79	16051.39
500.97	16166.08
501.14	16049.05
501.32	16535.88
501.49	16278.43
501.67	16446.94
501.84	16444.60
502.02	16641.21
502.20	16575.67
502.37	16695.04
502.55	16552.27
502.72	16596.74
502.90	16746.53
503.07	16767.60
503.25	17301.24
503.43	16425.88
503.60	16842.50
503.78	17092.93
503.95	17104.64
504.13	16992.29
504.30	17245.07
504.48	17130.38
504.65	17554.02
504.83	17355.07
505.01	17802.11
505.18	17322.30
505.36	17734.24
505.53	17467.42
505.71	17748.28
505.88	17750.62
506.06	17579.76
506.23	17664.02
506.41	17720.20
506.58	17914.46
506.76	18075.96
506.93	17937.87
507.11	17855.95
507.28	18059.57
507.46	18293.63
507.63	18244.48
507.81	18354.48
507.98	18459.81
508.16	18256.18
508.33	18326.39
508.50	18363.84
508.68	18546.40
508.85	18682.16
509.03	18677.48
509.20	18705.56
509.38	18951.32
509.55	19220.48
509.73	19171.33
509.90	18670.45
510.08	19241.54
510.25	18946.64
510.42	19304.74
510.60	19227.50
510.77	19391.34
510.95	19711.99
511.12	19278.99
511.30	19398.36
511.47	19723.69
511.64	19971.79
511.82	19950.73
511.99	19777.53
512.17	19871.15
512.34	19662.84
512.51	19693.27
512.69	20166.06
512.86	20343.94
513.04	20201.16
513.21	20049.03
513.38	20159.03
513.56	20393.09
513.73	20009.24
513.90	20105.20
514.08	20376.70
514.25	20357.98
514.43	20329.89
514.60	20477.35
514.77	20589.69
514.95	20744.17
515.12	20798.00
515.29	20690.34
515.47	20739.49
515.64	20987.58
515.81	20865.88
515.99	21102.27
516.16	20959.50
516.33	21137.38
516.51	21137.38
516.68	20891.62
516.85	20943.11
517.03	21207.59
517.20	21167.80
517.37	21317.60
517.54	21006.31
517.72	21448.67
517.89	21104.61
518.06	21099.93
518.24	21383.13
518.41	21359.73
518.58	21827.84
518.75	21745.92
518.93	21685.06
519.10	21647.61
519.27	22370.84
519.45	21825.50
519.62	21907.41
519.79	22019.76
519.96	22092.32
520.14	22111.04
520.31	21874.65
520.48	22153.17
520.65	21933.16
520.83	21937.84
521.00	22031.46
521.17	22258.49
521.34	22434.03
521.52	22244.45
521.69	22302.96
521.86	22712.56
522.03	22726.60
522.20	22698.52
522.38	22829.59
522.55	22864.69
522.72	22883.42
522.89	23077.68
523.07	23028.53
523.24	22707.88
523.41	23061.30
523.58	22808.52
523.75	22883.42
523.92	22960.66
524.10	23054.28
524.27	23391.31
524.44	23131.51
524.61	23496.64
524.78	23304.71
524.96	23396.00
525.13	23616.01
525.30	23337.48
525.47	23386.63
525.64	23346.84
525.81	23681.54
525.98	23285.99
526.16	23786.86
526.33	23520.04
526.50	23625.37
526.67	23396.00
526.84	23456.85
527.01	23529.41
527.18	23707.29
527.36	23974.11
527.53	23824.31
527.70	23997.51
527.87	24149.65
528.04	23754.10
528.21	24102.84
528.38	23903.89
528.55	24259.65
528.72	23857.08
528.89	24521.79
529.07	23826.65
529.24	24322.85
529.41	24381.36
529.58	24032.62
529.75	24332.21
529.92	24346.25
530.09	24346.25
530.26	24294.76
530.43	24273.70
530.60	24428.17
530.77	24533.50
530.94	24694.99
531.11	24584.99
531.28	24278.38
531.46	24519.45
531.63	24706.70
531.80	24620.10
531.97	24893.94
532.14	24893.94
532.31	24606.05
532.48	25078.84
532.65	24547.54
532.82	24889.26
532.99	24837.76
533.16	25062.46
533.33	25223.95
533.50	25469.71
533.67	25153.74
533.84	24884.58
534.01	24968.84
534.18	25373.75
534.35	25352.68
534.52	25254.38
534.69	25530.56
534.86	25617.16
535.03	25436.94
535.20	25734.19
535.37	25291.83
535.54	25266.08
535.71	24994.58
535.88	25872.28
536.05	25687.38
536.22	25593.76
536.38	26239.75
536.55	25687.38
536.72	25675.68
536.89	25668.66
537.06	26001.01
537.23	25830.15
537.40	25525.88
537.57	25858.24
537.74	25827.81
537.91	26293.58
538.08	25907.39
538.25	26001.01
538.42	26202.30
538.59	26017.40
538.75	25502.48
538.92	25989.31
539.09	25893.35
539.26	26075.91
539.43	26345.07
539.60	26272.51
539.77	26328.69
539.94	25926.11
540.11	26476.14
540.28	26424.65
540.44	26141.44
540.61	26485.50
540.78	26611.89
540.95	26513.59
541.12	26766.37
541.29	26441.03
541.46	26548.70
541.62	26286.56
541.79	26319.32
541.96	26211.66
542.13	26326.35
542.30	26700.83
542.47	26426.99
542.63	26642.32
542.80	26820.20
542.97	26792.11
543.14	27005.10
543.31	26967.65
543.48	26920.84
543.64	27248.52
543.81	27351.50
543.98	27377.25
544.15	27414.69
544.32	27103.40
544.48	27491.93
544.65	27213.41
544.82	27140.85
544.99	27026.17
545.16	27410.01
545.32	27229.79
545.49	27051.91
545.66	27239.15
545.83	27463.85
546.00	27620.66
546.16	27892.16
546.33	27278.94
546.50	26888.07
546.67	27321.07
546.83	26878.71
547.00	27513.00
547.17	27374.91
547.34	27281.28
547.50	27494.27
547.67	27889.82
547.84	27398.31
548.00	27828.97
548.17	27454.48
548.34	27861.74
548.51	27733.01
548.67	27929.61
548.84	27627.68
549.01	27426.40
549.18	27866.42
549.34	27679.18
549.51	27733.01
549.68	27828.97
549.84	27639.39
550.01	28194.09
550.18	27924.93
550.34	27632.36
550.51	28182.39
550.68	28091.11
550.84	27798.54
551.01	28048.98
551.18	27843.01
551.34	28128.56
551.51	27974.08
551.68	28320.48
551.84	28240.90
552.01	28201.11
552.18	28163.67
552.34	28205.80
552.51	28217.50
552.68	28065.36
552.84	28290.06
553.01	28409.42
553.18	28123.88
553.34	28701.99
553.51	28313.46
553.67	28259.63
553.84	28547.51
554.01	28484.32
554.17	28751.14
554.34	28252.61
554.51	28568.58
554.67	28701.99
554.84	28425.81
555.00	28379.00
555.17	28374.31
555.33	28776.89
555.50	28233.88
555.67	28486.66
555.83	28533.47
556.00	28514.75
556.16	28760.50
556.33	28451.55
556.50	28531.13
556.66	28704.33
556.83	28542.83
556.99	28671.56
557.16	28896.25
557.32	28636.45
557.49	29015.62
557.65	28767.52
557.82	28444.53
557.98	28631.77
558.15	28795.61
558.32	28599.01
558.48	28800.29
558.65	28701.99
558.81	29102.22
558.98	28671.56
559.14	28882.21
559.31	28655.18
559.47	28666.88
559.64	28814.34
559.80	29134.99
559.97	28521.77
560.13	29202.86
560.30	29074.13
560.46	28765.18
560.63	28931.36
560.79	28992.22
560.96	28989.88
561.12	28765.18
561.29	28973.49
561.45	29010.94
561.61	29118.60
561.78	29099.88
561.94	29256.70
562.11	29010.94
562.27	29015.62
562.44	29010.94
562.60	29097.54
562.77	29013.28
562.93	28652.84
563.10	29104.56
563.26	28767.52
563.42	29153.71
563.59	28758.16
563.75	29191.16
563.92	29074.13
564.08	29235.63
564.24	28634.11
564.41	28811.99
564.57	29359.68
564.74	29242.65
564.90	29165.42
565.07	29303.51
565.23	29252.02
565.39	29535.22
565.56	29104.56
565.72	28842.42
565.88	29125.63
566.05	29343.30
566.21	28980.51
566.38	29331.59
566.54	29268.40
566.70	29149.03
566.87	29345.64
567.03	29273.08
567.19	29223.93
567.36	29034.35
567.52	29273.08
567.68	29282.44
567.85	29249.67
568.01	29237.97
568.17	28999.24
568.34	29149.03
568.50	29647.57
568.66	29120.95
568.83	29261.38
568.99	29223.93
569.15	29277.76
569.32	29654.59
569.48	28854.12
569.64	29336.27
569.81	29219.25
569.97	29429.90
570.13	29563.31
570.30	29223.93
570.46	29167.76
570.62	29284.78
570.78	29006.26
570.95	29024.98
571.11	29502.45
571.27	29074.13
571.43	29200.52
571.60	29317.55
571.76	29362.02
571.92	29352.66
572.09	29418.19
572.25	29605.44
572.41	29551.60
572.57	29123.29
572.74	29682.67
572.90	29181.80
573.06	29560.97
573.22	29617.14
573.38	29479.05
573.55	29355.00
573.71	29343.30
573.87	30120.35
574.03	29483.73
574.20	29291.80
574.36	29097.54
574.52	29401.81
574.68	29294.14
574.84	29390.11
575.01	29413.51
575.17	29827.79
575.33	29373.72
575.49	29411.17
575.65	29659.27
575.82	29097.54
575.98	29397.13
576.14	29230.95
576.30	29549.26
576.46	29312.87
576.62	29317.55
576.79	29654.59
576.95	29610.12
577.11	29750.55
577.27	29364.36
577.43	29144.35
577.59	29584.37
577.75	29556.28
577.92	29394.79
578.08	29172.44
578.24	29626.50
578.40	29434.58
578.56	29294.14
578.72	29642.88
578.88	29785.66
579.04	29579.69
579.21	29376.06
579.37	29244.99
579.53	29701.40
579.69	29085.84
579.85	29481.39
580.01	29305.85
580.17	29355.00
580.33	29177.12
580.49	30003.33
580.65	29680.33
580.82	29610.12
580.98	29661.61
581.14	29347.98
581.30	29832.47
581.46	29289.46
581.62	29813.74
581.78	29319.89
581.94	29825.45
582.10	29617.14
582.26	29858.21
582.42	29961.20
582.58	29933.11
582.74	29750.55
582.90	29383.09
583.06	29855.87
583.22	29252.02
583.38	29680.33
583.54	29715.44
583.70	29795.02
583.86	29558.63
584.02	29886.30
584.18	29474.37
584.34	29853.53
584.50	29792.68
584.66	29481.39
584.82	29523.52
584.98	29586.71
585.14	29610.12
585.30	29390.11
585.46	29628.84
585.62	29525.86
585.78	29656.93
585.94	29537.56
586.10	29708.42
586.26	29397.13
586.42	29797.36
586.58	29455.64
586.74	29596.07
586.90	29500.11
587.06	29392.45
587.22	29827.79
587.38	29656.93
587.54	29940.13
587.70	29816.08
587.86	29666.29
588.02	29610.12
588.18	29706.08
588.34	29556.28
588.49	29596.07
588.65	29457.98
588.81	29200.52
588.97	30185.89
589.13	29825.45
589.29	29729.48
589.45	29570.33
589.61	29748.21
589.77	30075.88
589.93	29816.08
590.08	29675.65
590.24	29949.50
590.40	29572.67
590.56	29998.65
590.72	29755.23
590.88	29385.43
591.04	29528.20
591.20	29839.49
591.35	30139.08
591.51	30237.38
591.67	29406.49
591.83	29944.81
