SpectraSuite Data File
++++++++++++++++++++++++++++++++++++
Date: Fri Oct 04 11:48:27 GMT-05:00 2013
User: price-jones
Dark Spectrum Present: No
Reference Spectrum Present: No
Number of Sampled Component Spectra: 1
Spectrometers: USB2+H05261
Integration Time (usec): 100000 (USB2+H05261)
Spectra Averaged: 1 (USB2+H05261)
Boxcar Smoothing: 0 (USB2+H05261)
Correct for Electrical Dark: No (USB2+H05261)
Strobe/Lamp Enabled: No (USB2+H05261)
Correct for Detector Non-linearity: No (USB2+H05261)
Correct for Stray Light: No (USB2+H05261)
Number of Pixels in Processed Spectrum: 2048
>>>>>Begin Processed Spectral Data<<<<<
365.73	77.24
365.92	77.24
366.12	77.24
366.32	0.00
366.52	0.00
366.72	0.00
366.91	0.00
367.11	0.00
367.31	0.00
367.51	0.00
367.70	0.00
367.90	0.00
368.10	0.00
368.30	0.00
368.49	0.00
368.69	0.00
368.89	0.00
369.09	0.00
369.28	0.00
369.48	0.00
369.68	0.00
369.87	0.00
370.07	0.00
370.27	0.00
370.47	91.28
370.66	166.18
370.86	259.80
371.06	243.42
371.25	353.42
371.45	269.16
371.65	308.95
371.84	348.74
372.04	353.42
372.24	362.78
372.44	372.15
372.63	353.42
372.83	402.57
373.03	327.68
373.22	376.83
373.42	390.87
373.62	367.46
373.81	400.23
374.01	465.77
374.21	461.09
374.40	468.11
374.60	407.25
374.79	423.64
374.99	362.78
375.19	404.91
375.38	372.15
375.58	393.21
375.78	369.80
375.97	465.77
376.17	526.62
376.37	428.32
376.56	482.15
376.76	372.15
376.95	360.44
377.15	451.72
377.35	454.06
377.54	484.49
377.74	456.40
377.93	442.36
378.13	470.45
378.33	559.39
378.52	526.62
378.72	470.45
378.91	482.15
379.11	475.13
379.31	407.25
379.50	461.09
379.70	517.26
379.89	526.62
380.09	498.53
380.28	514.92
380.48	580.45
380.68	510.24
380.87	458.74
381.07	512.58
381.26	559.39
381.46	463.43
381.65	465.77
381.85	564.07
382.04	543.00
382.24	461.09
382.43	475.13
382.63	580.45
382.83	564.07
383.02	585.13
383.22	592.16
383.41	589.82
383.61	610.88
383.80	559.39
384.00	547.69
384.19	578.11
384.39	491.51
384.58	559.39
384.78	615.56
384.97	594.50
385.17	573.43
385.36	662.37
385.56	613.22
385.75	580.45
385.95	594.50
386.14	634.29
386.34	615.56
386.53	664.71
386.72	643.65
386.92	671.73
387.11	685.78
387.31	697.48
387.50	568.75
387.70	627.26
387.89	699.82
388.09	697.48
388.28	603.86
388.48	564.07
388.67	662.37
388.86	716.20
389.06	718.54
389.25	821.53
389.45	697.48
389.64	830.89
389.84	823.87
390.03	704.50
390.22	748.97
390.42	737.27
390.61	737.27
390.81	741.95
391.00	760.67
391.19	758.33
391.39	798.12
391.58	697.48
391.78	788.76
391.97	753.65
392.16	765.36
392.36	880.04
392.55	840.25
392.75	802.80
392.94	774.72
393.13	805.14
393.33	720.88
393.52	917.49
393.71	922.17
393.91	898.77
394.10	887.06
394.29	791.10
394.49	842.59
394.68	819.19
394.88	901.11
395.07	940.90
395.26	947.92
395.46	1036.86
395.65	1027.50
395.84	929.19
396.04	938.55
396.23	926.85
396.42	936.21
396.62	910.47
396.81	940.90
397.00	997.07
397.19	1069.62
397.39	931.53
397.58	997.07
397.77	987.71
397.97	1001.75
398.16	1032.18
398.35	1078.99
398.55	1053.24
398.74	1008.77
398.93	1074.31
399.12	1156.22
399.32	1006.43
399.51	978.34
399.70	1109.41
399.90	1104.73
400.09	1128.14
400.28	1153.88
400.47	1081.33
400.67	1191.33
400.86	1160.91
401.05	1121.12
401.24	1118.78
401.44	1151.54
401.63	1254.53
401.82	1217.08
402.01	1221.76
402.21	1362.19
402.40	1282.61
402.59	1284.95
402.78	1233.46
402.97	1308.36
403.17	1306.02
403.36	1294.32
403.55	1306.02
403.74	1455.81
403.93	1275.59
404.13	1270.91
404.32	1287.29
404.51	1322.40
404.70	1303.68
404.89	1458.15
405.09	1474.54
405.28	1399.64
405.47	1460.49
405.66	1600.93
405.85	1455.81
406.05	1507.30
406.24	1476.88
406.43	1437.09
406.62	1572.84
406.81	1526.03
407.00	1549.43
407.20	1423.05
407.39	1533.05
407.58	1568.16
407.77	1591.56
407.96	1699.23
408.15	1753.06
408.34	1636.03
408.54	1633.69
408.73	1692.21
408.92	1722.63
409.11	1717.95
409.30	1746.04
409.49	1675.82
409.68	1783.49
409.87	1811.57
410.07	1811.57
410.26	1900.52
410.45	1874.77
410.64	1741.36
410.83	1820.94
411.02	1856.04
411.21	1820.94
411.40	2001.16
411.59	1944.99
411.78	1947.33
411.98	2003.50
412.17	2069.03
412.36	2073.71
412.55	2026.90
412.74	2031.58
412.93	2122.87
413.12	2080.74
413.31	2108.82
413.50	2127.55
413.69	2195.42
413.88	2303.09
414.07	2249.25
414.26	2202.44
414.45	2223.51
414.64	2225.85
414.83	2310.11
415.02	2228.19
415.22	2370.96
415.41	2370.96
415.60	2340.54
415.79	2410.75
415.98	2462.24
416.17	2450.54
416.36	2534.80
416.55	2513.74
416.74	2668.21
416.93	2551.18
417.12	2539.48
417.31	2635.44
417.50	2637.78
417.69	2616.72
417.88	2724.38
418.07	2750.13
418.26	2764.17
418.45	2719.70
418.64	2705.66
418.83	2588.63
419.02	2672.89
419.21	2593.31
419.39	2869.50
419.58	2771.19
419.77	2736.09
419.96	2920.99
420.15	2857.79
420.34	2911.63
420.53	2904.60
420.72	2918.65
420.91	2937.37
421.10	2965.46
421.29	3047.38
421.48	2785.24
421.67	3021.63
421.86	2913.97
422.05	2808.64
422.24	2946.73
422.43	2951.42
422.61	3033.33
422.80	3061.42
422.99	3049.72
423.18	3098.87
423.37	3129.30
423.56	2953.76
423.75	3061.42
423.94	3035.67
424.13	2930.35
424.32	2935.03
424.50	3073.12
424.69	3211.22
424.88	3152.70
425.07	2993.55
425.26	2991.20
425.45	3063.76
425.64	3045.04
425.83	3038.02
426.01	3183.13
426.20	3084.83
426.39	3129.30
426.58	3054.40
426.77	3213.56
426.96	3133.98
427.15	3204.19
427.33	3098.87
427.52	3222.92
427.71	3342.28
427.90	3321.22
428.09	3318.88
428.28	3377.39
428.46	3276.75
428.65	3346.97
428.84	3618.47
429.03	3400.80
429.22	3243.98
429.40	3417.18
429.59	3536.55
429.78	3276.75
429.97	3276.75
430.16	3262.71
430.34	3499.10
430.53	3552.93
430.72	3545.91
430.91	3496.76
431.10	3566.98
431.28	3569.32
431.47	3623.15
431.66	3646.55
431.85	3499.10
432.03	3695.71
432.22	3934.44
432.41	3721.45
432.60	3648.90
432.79	3702.73
432.97	3845.50
433.16	3794.01
433.35	3740.18
433.54	3810.39
433.72	3801.03
433.91	3735.50
434.10	3735.50
434.28	3911.04
434.47	3885.29
434.66	3798.69
434.85	3894.65
435.03	3850.18
435.22	3990.61
435.41	3978.91
435.59	4135.73
435.78	3997.64
435.97	4077.21
436.16	4063.17
436.34	3978.91
436.53	4037.42
436.72	4173.18
436.90	4065.51
437.09	4149.77
437.28	4021.04
437.46	4084.23
437.65	4173.18
437.84	4231.69
438.02	4203.60
438.21	4358.08
438.40	4177.86
438.58	4355.74
438.77	4461.06
438.96	4248.07
439.14	4437.66
439.33	4498.51
439.52	4379.14
439.70	4507.87
439.89	4554.68
440.08	4620.22
440.26	4535.96
440.45	4664.69
440.63	4594.47
440.82	4629.58
441.01	4758.31
441.19	4695.11
441.38	4676.39
441.57	4744.27
441.75	4805.12
441.94	4971.30
442.12	4826.18
442.31	4821.50
442.50	5116.41
442.68	4873.00
442.87	5011.09
443.05	5006.41
443.24	5165.56
443.43	5114.07
443.61	5109.39
443.80	5259.18
443.98	4908.10
444.17	4961.94
444.35	5193.65
444.54	5247.48
444.73	5298.97
444.91	5198.33
445.10	5144.50
445.28	5198.33
445.47	5160.88
445.65	5259.18
445.84	5291.95
446.02	5210.03
446.21	5231.10
446.39	5298.97
446.58	5252.16
446.77	5153.86
446.95	5296.63
447.14	5305.99
447.32	5397.28
447.51	5287.27
447.69	5369.19
447.88	5369.19
448.06	5420.68
448.25	5163.22
448.43	5322.38
448.62	5296.63
448.80	5390.25
448.99	5331.74
449.17	5572.82
449.36	5329.40
449.54	5418.34
449.73	5493.24
449.91	5404.30
450.10	5474.51
450.28	5645.37
450.46	5837.30
450.65	5708.57
450.83	5638.35
451.02	5654.73
451.20	5743.67
451.39	5839.64
451.57	5750.70
451.76	5638.35
451.94	5701.54
452.13	5664.10
452.31	5762.40
452.49	5867.72
452.68	5762.40
452.86	5841.98
453.05	5858.36
453.23	5863.04
453.42	5687.50
453.60	5846.66
453.78	5746.02
453.97	5746.02
454.15	5811.55
454.34	5921.56
454.52	6019.86
454.70	6026.88
454.89	6066.67
455.07	5935.60
455.26	6090.07
455.44	6106.46
455.62	6139.23
455.81	6115.82
455.99	6277.32
456.17	6291.36
456.36	6195.40
456.54	6342.85
456.73	6349.87
456.91	6553.50
457.09	6640.10
457.28	6789.89
457.46	6473.92
457.64	6469.24
457.83	6513.71
458.01	6408.39
458.19	6450.52
458.38	6473.92
458.56	6661.16
458.74	6691.59
458.93	6696.27
459.11	6600.31
459.29	6675.21
459.48	6677.55
459.66	6621.38
459.84	6736.06
460.03	6925.65
460.21	6787.55
460.39	6775.85
460.57	6565.20
460.76	6792.23
460.94	7012.24
461.12	6958.41
461.31	6944.37
461.49	6920.96
461.67	6743.08
461.85	7173.74
462.04	6993.52
462.22	7618.44
462.40	7215.87
462.59	7197.15
462.77	7166.72
462.95	7131.61
463.13	7328.22
463.32	7187.79
463.50	7302.47
463.68	7279.07
463.86	7344.60
464.05	7311.83
464.23	7363.33
464.41	7302.47
464.59	7372.69
464.78	7382.05
464.96	7452.27
465.14	7342.26
465.32	7456.95
465.50	7691.00
465.69	7576.31
465.87	7765.90
466.05	7452.27
466.23	7672.28
466.41	7618.44
466.60	7761.22
466.78	7531.84
466.96	7569.29
467.14	7658.23
467.32	7557.59
467.51	7688.66
467.69	7581.00
467.87	7665.25
468.05	7805.69
468.23	7564.61
468.41	7522.48
468.60	7688.66
468.78	7896.97
468.96	7747.17
469.14	7772.92
469.32	8063.15
469.50	7826.75
469.69	8114.64
469.87	8163.79
470.05	8133.36
470.23	8065.49
470.41	8163.79
470.59	8201.24
470.77	8077.19
470.95	8119.32
471.14	8318.26
471.32	8107.62
471.50	8498.49
471.68	8362.73
471.86	8521.89
472.04	8461.04
472.22	8664.66
472.40	8376.78
472.58	8608.49
472.77	8697.43
472.95	8510.19
473.13	8908.08
473.31	8762.97
473.49	8624.87
473.67	8980.64
473.85	8975.95
474.03	8858.93
474.21	9050.85
474.39	9348.10
474.57	9036.81
474.75	9202.99
474.93	9193.62
475.12	9174.90
475.30	9275.54
475.48	9191.28
475.66	9191.28
475.84	9399.59
476.02	9488.53
476.20	9549.39
476.38	9579.81
476.56	9856.00
476.74	9708.54
476.92	9804.50
477.10	9778.76
477.28	9820.89
477.46	9760.03
477.64	10139.20
477.82	10319.42
478.00	10469.22
478.18	10560.50
478.36	10586.24
478.54	10359.21
478.72	10794.55
478.90	10583.90
479.08	10885.83
479.26	10775.83
479.44	10754.76
479.62	10979.45
479.80	11147.97
479.98	11063.71
480.16	11136.27
480.34	11250.96
480.52	11246.27
480.70	11393.73
480.88	11265.00
481.06	11548.20
481.24	11356.28
481.41	11625.44
481.59	12163.76
481.77	12098.23
481.95	12030.35
482.13	12049.08
482.31	12297.17
482.49	12329.94
482.67	12353.35
482.85	12458.67
483.03	12568.68
483.21	12992.31
483.39	12917.42
483.57	13001.68
483.74	13081.25
483.92	13135.09
484.10	13170.19
484.28	13357.44
484.46	13621.92
484.64	13998.74
484.82	13212.32
485.00	13919.17
485.18	13965.98
485.35	14080.66
485.53	14211.73
485.71	14094.71
485.89	14359.19
486.07	14413.02
486.25	14452.81
486.43	14558.13
486.61	14700.90
486.78	14738.35
486.96	14911.55
487.14	14934.96
487.32	15012.20
487.50	15417.11
487.68	15529.45
487.85	15676.91
488.03	15693.29
488.21	15969.48
488.39	16327.58
488.57	16079.48
488.75	16147.36
488.92	16730.15
489.10	16245.66
489.28	16444.60
489.46	16627.17
489.64	16816.75
489.81	16865.90
489.99	16915.05
490.17	17200.60
490.35	17465.08
490.53	17214.64
490.70	17413.59
490.88	17296.56
491.06	17851.27
491.24	17717.86
491.41	17778.71
491.59	17666.36
491.77	17942.55
491.95	18150.85
492.13	18251.50
492.30	18611.94
492.48	18705.56
492.66	18539.38
492.84	18464.49
493.01	18995.79
493.19	18761.73
493.37	18981.74
493.54	19080.05
493.72	19049.62
493.90	19183.03
494.08	19463.90
494.25	19793.91
494.43	20032.65
494.61	20168.40
494.79	20011.58
494.96	20154.35
495.14	20252.66
495.32	20428.20
495.49	20353.30
495.67	20435.22
495.85	20776.94
496.02	20837.79
496.20	21088.23
496.38	21018.01
496.55	21298.88
496.73	21593.78
496.91	21483.78
497.09	21624.21
497.26	21741.24
497.44	21696.77
497.62	21605.49
497.79	22085.30
497.97	21982.31
498.14	22361.48
498.32	22410.63
498.50	22340.41
498.67	22340.41
498.85	22293.60
499.03	22848.31
499.20	22925.55
499.38	22995.76
499.56	23000.44
499.73	22883.42
499.91	22977.04
500.08	23103.43
500.26	22979.38
500.44	23267.27
500.61	23236.84
500.79	23445.15
500.97	23639.41
501.14	23658.14
501.32	23985.81
501.49	24060.71
501.67	23461.53
501.84	23852.40
502.02	23924.96
502.20	24407.11
502.37	24486.68
502.55	23969.43
502.72	24489.03
502.90	24470.30
503.07	24343.91
503.25	24247.95
503.43	24786.27
503.60	24580.31
503.78	24650.52
503.95	24933.73
504.13	25188.85
504.30	25319.92
504.48	24973.52
504.65	25312.89
504.83	25479.07
505.01	25680.36
505.18	25661.63
505.36	26003.35
505.53	25530.56
505.71	25783.34
505.88	26064.21
506.06	25535.24
506.23	26174.21
506.41	26291.24
506.58	26115.70
506.76	26059.52
506.93	26555.72
507.11	26274.85
507.28	26129.74
507.46	26590.83
507.63	27311.71
507.81	26890.41
507.98	26665.72
508.16	26841.26
508.33	26536.99
508.50	26785.09
508.68	27201.71
508.85	27536.40
509.03	27171.28
509.20	27452.14
509.38	27604.28
509.55	27899.19
509.73	27562.15
509.90	27714.28
510.08	27494.27
510.25	27651.09
510.42	27648.75
510.60	28257.29
510.77	28128.56
510.95	28121.54
511.12	28135.58
511.30	28233.88
511.47	28510.07
511.64	28542.83
511.82	28790.93
511.99	28790.93
512.17	28819.02
512.34	28376.66
512.51	28811.99
512.69	29120.95
512.86	29116.26
513.04	29376.06
513.21	29785.66
513.38	29535.22
513.56	29486.07
513.73	29539.90
513.90	29263.72
514.08	29673.31
514.25	29902.68
514.43	29809.06
514.60	29902.68
514.77	29888.64
514.95	30237.38
515.12	30075.88
515.29	30279.51
515.47	30096.95
515.64	30408.24
515.81	30738.26
515.99	30614.21
516.16	30991.03
516.33	30623.57
516.51	30817.83
516.68	30635.27
516.85	30529.95
517.03	30529.95
517.20	31154.87
517.37	31068.27
517.54	31178.28
517.72	31068.27
517.89	30951.24
518.06	31019.12
518.24	31070.61
518.41	31182.96
518.58	31346.79
518.75	31316.37
518.93	31805.54
519.10	31592.55
519.27	31847.67
519.45	31866.39
519.62	32027.89
519.79	31807.88
519.96	32231.52
520.14	31688.51
520.31	32126.19
520.48	32287.69
520.65	32091.09
520.83	32067.68
521.00	32222.16
521.17	32168.32
521.34	32292.37
521.52	32378.97
521.69	32273.65
521.86	32929.00
522.03	32701.96
522.20	32687.92
522.38	33046.02
522.55	33020.28
522.72	32940.70
522.89	33216.88
523.07	33385.40
523.24	33516.47
523.41	33565.62
523.58	33228.59
523.75	33642.86
523.92	33109.22
524.10	33509.45
524.27	33694.35
524.44	33467.32
524.61	33937.77
524.78	33986.92
524.96	33818.40
525.13	33823.08
525.30	33958.83
525.47	34146.08
525.64	34078.20
525.81	34050.11
525.98	34513.54
526.16	34417.58
526.33	34384.81
526.50	34494.82
526.67	34249.06
526.84	34597.80
527.01	34291.19
527.18	34621.20
527.36	35056.54
527.53	35323.36
527.70	35250.81
527.87	34841.21
528.04	34703.12
528.21	34862.28
528.38	35079.95
528.55	35037.82
528.72	35084.63
528.89	35335.07
529.07	35012.07
529.24	35351.45
529.41	35632.32
529.58	35330.39
529.75	35381.88
529.92	35426.35
530.09	35604.23
530.26	35519.97
530.43	35569.12
530.60	35489.54
530.77	35512.95
530.94	35842.96
531.11	35669.76
531.28	35765.73
531.46	35838.28
531.63	36027.87
531.80	36126.17
531.97	36538.10
532.14	36444.48
532.31	36177.66
532.48	35983.40
532.65	35903.82
532.82	36205.75
532.99	36720.66
533.16	36409.37
533.33	36889.18
533.50	36868.12
533.67	36451.50
533.84	36346.18
534.01	36933.65
534.18	36439.80
534.35	36893.86
534.52	36861.10
534.69	36615.34
534.86	37361.97
535.03	36765.14
535.20	37092.81
535.37	37230.90
535.54	37476.66
535.71	37050.68
535.88	37291.76
536.05	37027.28
536.22	37357.29
536.38	37656.88
536.55	37223.88
536.72	37722.41
536.89	37406.44
537.06	37406.44
537.23	37558.58
537.40	37404.10
537.57	37514.11
537.74	37542.19
537.91	38089.88
538.08	38323.93
538.25	37806.67
538.42	37684.97
538.59	38178.82
538.75	37996.26
538.92	37993.92
539.09	38160.09
539.26	37930.72
539.43	38230.31
539.60	38583.73
539.77	38337.98
539.94	38529.90
540.11	38396.49
540.28	38644.59
540.44	38316.91
540.61	38342.66
540.78	38639.90
540.95	38958.22
541.12	39124.40
541.29	38649.27
541.46	38600.12
541.62	38375.42
541.79	38747.57
541.96	38139.03
542.13	38726.50
542.30	39150.14
542.47	39044.82
542.63	39098.65
542.80	39861.66
542.97	39608.89
543.14	39372.49
543.31	39318.66
543.48	39005.03
543.64	39910.82
543.81	39917.84
543.98	39803.15
544.15	39599.52
544.32	39969.33
544.48	40217.43
544.65	39887.41
544.82	39786.77
544.99	39384.19
545.16	40044.23
545.32	39477.82
545.49	40622.34
545.66	40678.51
545.83	39852.30
546.00	40238.49
546.16	40025.50
546.33	39754.00
546.50	39349.09
546.67	40172.96
546.83	40027.84
547.00	40308.71
547.17	40465.52
547.34	40072.31
547.50	40662.13
547.67	40966.40
547.84	40542.76
548.00	40442.12
548.17	40385.94
548.34	40795.54
548.51	41099.81
548.67	40718.30
548.84	40942.99
549.01	40945.33
549.18	40919.59
549.34	40538.08
549.51	41055.34
549.68	40982.78
549.84	41062.36
550.01	41174.70
550.18	40851.71
550.34	41001.50
550.51	41375.99
550.68	41518.76
550.84	41029.59
551.01	40985.12
551.18	40947.67
551.34	40788.52
551.51	41408.76
551.68	42068.79
551.84	41586.64
552.01	41921.34
552.18	41858.14
552.34	41989.21
552.51	41684.94
552.68	41979.85
552.84	41478.97
553.01	42101.56
553.18	41783.24
553.34	42211.56
553.51	41539.83
553.67	42312.20
553.84	42380.08
554.01	42096.88
554.17	41867.50
554.34	42160.07
554.51	41823.03
554.67	42333.27
554.84	42099.22
555.00	42307.52
555.17	42103.90
555.33	41989.21
555.50	41841.76
555.67	42185.82
555.83	41972.83
556.00	42689.03
556.16	42529.87
556.33	42457.32
556.50	42497.11
556.66	42190.50
556.83	42024.32
556.99	42724.14
557.16	42476.04
557.32	42696.05
557.49	42773.29
557.65	42342.63
557.82	42396.46
557.98	42525.19
558.15	42277.10
558.32	42518.17
558.48	42347.31
558.65	42267.73
558.81	42749.88
558.98	42443.27
559.14	42260.71
559.31	42251.35
559.47	42373.06
559.64	42747.54
559.80	42782.65
559.97	43077.56
560.13	42759.25
560.30	43309.27
560.46	42794.36
560.63	43124.37
560.79	42799.04
560.96	43037.77
561.12	43077.56
561.29	43126.71
561.45	43136.07
561.61	43229.69
561.78	42845.85
561.94	43276.51
562.11	43096.28
562.27	43138.41
562.44	43098.62
562.60	42829.46
562.77	43316.29
562.93	43028.41
563.10	43718.87
563.26	43126.71
563.42	43758.66
563.59	43065.86
563.75	43267.14
563.92	42909.04
564.08	43086.92
564.24	43168.84
564.41	43131.39
564.57	43491.83
564.74	43325.66
564.90	43463.75
565.07	43592.48
565.23	43770.36
565.39	43859.30
565.56	43466.09
565.72	42890.32
565.88	43826.53
566.05	43501.20
566.21	43351.40
566.38	43363.11
566.54	43421.62
566.70	43679.08
566.87	43805.47
567.03	43374.81
567.19	43948.24
567.36	43548.01
567.52	43643.97
567.68	43571.41
567.85	43737.59
568.01	43983.35
568.17	43880.36
568.34	43768.02
568.50	43852.28
568.66	43739.93
568.83	44257.19
568.99	43618.22
569.15	44074.63
569.32	43737.59
569.48	43594.82
569.64	43688.44
569.81	44055.90
569.97	44526.35
570.13	44325.07
570.30	43922.49
570.46	44023.14
570.62	43793.76
570.78	43784.40
570.95	43470.77
571.11	44102.71
571.27	43672.06
571.43	44163.57
571.60	44172.93
571.76	44062.93
571.92	44278.25
572.09	44428.05
572.25	44088.67
572.41	43761.00
572.57	43966.96
572.74	44107.40
572.90	43721.21
573.06	44156.55
573.22	44025.48
573.38	44079.31
573.55	43894.41
573.71	44704.23
573.87	44308.68
574.03	43971.64
574.20	44175.27
574.36	44184.63
574.52	44205.70
574.68	43466.09
574.84	43892.07
575.01	44299.32
575.17	44552.10
575.33	44069.95
575.49	44390.60
575.65	44512.31
575.82	44107.40
575.98	43924.83
576.14	44189.31
576.30	44341.45
576.46	44360.17
576.62	44060.58
576.79	43821.85
576.95	43807.81
577.11	43854.62
577.27	44397.62
577.43	44390.60
577.59	44453.79
577.75	44491.24
577.92	44229.10
578.08	44069.95
578.24	43880.36
578.40	44175.27
578.56	44734.66
578.72	43910.79
578.88	44406.98
579.04	44844.66
579.21	44591.89
579.37	44039.52
579.53	44304.00
579.69	44285.28
579.85	44168.25
580.01	44521.67
580.17	43971.64
580.33	44224.42
580.49	44755.72
580.65	44762.75
580.82	44645.72
580.98	44437.41
581.14	44236.12
581.30	44797.85
581.46	44074.63
581.62	44299.32
581.78	44179.95
581.94	44208.04
582.10	44374.22
582.26	44699.55
582.42	44491.24
582.58	44589.55
582.74	44650.40
582.90	44456.14
583.06	44364.85
583.22	44526.35
583.38	44196.34
583.54	44699.55
583.70	44594.23
583.86	44575.50
584.02	44430.39
584.18	44619.97
584.34	44460.82
584.50	44811.90
584.66	44493.58
584.82	44266.55
584.98	44694.87
585.14	44404.64
585.30	44421.03
585.46	44425.71
585.62	44121.44
585.78	44610.61
585.94	44126.12
586.10	44886.79
586.26	44809.56
586.42	44875.09
586.58	44823.60
586.74	44411.67
586.90	44364.85
587.06	44203.36
587.22	44528.69
587.38	44638.70
587.54	44889.13
587.70	44973.39
587.86	45017.86
588.02	44582.52
588.18	44917.22
588.34	44839.98
588.49	44966.37
588.65	44425.71
588.81	44722.96
588.97	44734.66
589.13	44566.14
589.29	44573.16
589.45	44664.44
589.61	44893.82
589.77	44924.24
589.93	45254.26
590.08	44795.51
590.24	45045.95
590.40	45167.66
590.56	45219.15
590.72	44484.22
590.88	44526.35
