SpectraSuite Data File
++++++++++++++++++++++++++++++++++++
Date: Fri Oct 04 11:48:35 GMT-05:00 2013
User: price-jones
Dark Spectrum Present: No
Reference Spectrum Present: No
Number of Sampled Component Spectra: 1
Spectrometers: USB2+H05261
Integration Time (usec): 100000 (USB2+H05261)
Spectra Averaged: 1 (USB2+H05261)
Boxcar Smoothing: 0 (USB2+H05261)
Correct for Electrical Dark: No (USB2+H05261)
Strobe/Lamp Enabled: No (USB2+H05261)
Correct for Detector Non-linearity: No (USB2+H05261)
Correct for Stray Light: No (USB2+H05261)
Number of Pixels in Processed Spectrum: 2048
>>>>>Begin Processed Spectral Data<<<<<
365.73	65.54
365.92	65.54
366.12	65.54
366.32	0.00
366.52	0.00
366.72	0.00
366.91	0.00
367.11	0.00
367.31	0.00
367.51	0.00
367.70	0.00
367.90	0.00
368.10	0.00
368.30	0.00
368.49	0.00
368.69	0.00
368.89	0.00
369.09	0.00
369.28	11.70
369.48	0.00
369.68	0.00
369.87	37.45
370.07	4.68
370.27	0.00
370.47	91.28
370.66	208.31
370.86	330.02
371.06	292.57
371.25	276.18
371.45	313.63
371.65	339.38
371.84	248.10
372.04	341.72
372.24	341.72
372.44	355.76
372.63	400.23
372.83	381.51
373.03	374.49
373.22	411.93
373.42	372.15
373.62	421.30
373.81	337.04
374.01	437.68
374.21	428.32
374.40	393.21
374.60	444.70
374.79	360.44
374.99	456.40
375.19	402.57
375.38	388.53
375.58	442.36
375.78	482.15
375.97	489.17
376.17	482.15
376.37	468.11
376.56	470.45
376.76	416.62
376.95	519.60
377.15	454.06
377.35	486.83
377.54	442.36
377.74	451.72
377.93	531.30
378.13	500.87
378.33	503.22
378.52	402.57
378.72	442.36
378.91	550.03
379.11	547.69
379.31	545.34
379.50	482.15
379.70	557.05
379.89	524.28
380.09	510.24
380.28	500.87
380.48	493.85
380.68	510.24
380.87	514.92
381.07	526.62
381.26	566.41
381.46	638.97
381.65	540.66
381.85	507.90
382.04	437.68
382.24	507.90
382.43	582.79
382.63	599.18
382.83	571.09
383.02	683.44
383.22	557.05
383.41	559.39
383.61	650.67
383.80	514.92
384.00	571.09
384.19	592.16
384.39	587.47
384.58	594.50
384.78	688.12
384.97	608.54
385.17	580.45
385.36	631.94
385.56	704.50
385.75	582.79
385.95	681.10
386.14	727.91
386.34	596.84
386.53	699.82
386.72	624.92
386.92	720.88
387.11	713.86
387.31	685.78
387.50	713.86
387.70	688.12
387.89	734.93
388.09	737.27
388.28	650.67
388.48	709.18
388.67	730.25
388.86	716.20
389.06	697.48
389.25	753.65
389.45	755.99
389.64	821.53
389.84	793.44
390.03	720.88
390.22	779.40
390.42	753.65
390.61	716.20
390.81	805.14
391.00	795.78
391.19	828.55
391.39	748.97
391.58	793.44
391.78	833.23
391.97	814.51
392.16	910.47
392.36	807.48
392.55	847.27
392.75	873.02
392.94	821.53
393.13	828.55
393.33	763.01
393.52	880.04
393.71	887.06
393.91	877.70
394.10	905.79
394.29	908.13
394.49	875.36
394.68	938.55
394.88	898.77
395.07	966.64
395.26	1027.50
395.46	938.55
395.65	980.68
395.84	1004.09
396.04	1053.24
396.23	1036.86
396.42	987.71
396.62	973.66
396.81	980.68
397.00	1050.90
397.19	1055.58
397.39	1011.11
397.58	1097.71
397.77	1076.65
397.97	1118.78
398.16	1046.22
398.35	1156.22
398.55	1111.75
398.74	1069.62
398.93	1095.37
399.12	1018.13
399.32	1160.91
399.51	1107.07
399.70	1165.59
399.90	1139.84
400.09	1275.59
400.28	1221.76
400.47	1186.65
400.67	1228.78
400.86	1186.65
401.05	1226.44
401.24	1210.06
401.44	1331.76
401.63	1331.76
401.82	1303.68
402.01	1362.19
402.21	1448.79
402.40	1446.45
402.59	1413.68
402.78	1446.45
402.97	1376.24
403.17	1394.96
403.36	1411.34
403.55	1404.32
403.74	1432.41
403.93	1451.13
404.13	1621.99
404.32	1481.56
404.51	1490.92
404.70	1511.99
404.89	1486.24
405.09	1607.95
405.28	1572.84
405.47	1544.75
405.66	1561.14
405.85	1600.93
406.05	1558.80
406.24	1584.54
406.43	1743.70
406.62	1596.25
406.81	1790.51
407.00	1734.34
407.20	1701.57
407.39	1633.69
407.58	1687.53
407.77	1802.21
407.96	1825.62
408.15	1863.07
408.34	1764.76
408.54	1933.28
408.73	1909.88
408.92	1849.02
409.11	1914.56
409.30	1888.81
409.49	1902.86
409.68	1987.11
409.87	1947.33
410.07	1961.37
410.26	1966.05
410.45	2122.87
410.64	2059.67
410.83	2223.51
411.02	2069.03
411.21	2108.82
411.40	2122.87
411.59	2165.00
411.78	2253.94
411.98	2122.87
412.17	2202.44
412.36	2214.15
412.55	2352.24
412.74	2328.83
412.93	2380.32
413.12	2228.19
413.31	2562.89
413.50	2387.35
413.69	2422.45
413.88	2502.03
414.07	2455.22
414.26	2581.61
414.45	2555.86
414.64	2523.10
414.83	2602.68
415.02	2600.34
415.22	2679.91
415.41	2717.36
415.60	2766.51
415.79	2771.19
415.98	2724.38
416.17	2768.85
416.36	2703.32
416.55	2808.64
416.74	2885.88
416.93	2843.75
417.12	2906.95
417.31	2832.05
417.50	2836.73
417.69	2998.23
417.88	2946.73
418.07	3077.80
418.26	3035.67
418.45	3138.66
418.64	3075.46
418.83	3239.30
419.02	3073.12
419.21	3136.32
419.39	3098.87
419.58	3229.94
419.77	3105.89
419.96	3339.94
420.15	3328.24
420.34	3204.19
420.53	3262.71
420.72	3358.67
420.91	3384.41
421.10	3337.60
421.29	3398.46
421.48	3260.37
421.67	3351.65
421.86	3424.20
422.05	3379.73
422.24	3452.29
422.43	3538.89
422.61	3405.48
422.80	3447.61
422.99	3482.72
423.18	3520.17
423.37	3496.76
423.56	3517.83
423.75	3468.67
423.94	3400.80
424.13	3258.03
424.32	3332.92
424.50	3435.91
424.69	3604.42
424.88	3761.24
425.07	3625.49
425.26	3426.54
425.45	3552.93
425.64	3494.42
425.83	3503.78
426.01	3604.42
426.20	3695.71
426.39	3667.62
426.58	3538.89
426.77	3684.00
426.96	3627.83
427.15	3712.09
427.33	3613.79
427.52	3737.84
427.71	3716.77
427.90	3719.11
428.09	3850.18
428.28	3791.67
428.46	3826.78
428.65	3735.50
428.84	3932.10
429.03	3906.35
429.22	3808.05
429.40	3885.29
429.59	3974.23
429.78	3840.82
429.97	3606.77
430.16	3763.58
430.34	3992.95
430.53	4084.23
430.72	3971.89
430.91	3953.16
431.10	4051.47
431.28	4119.34
431.47	4255.09
431.66	4262.12
431.85	4135.73
432.03	4215.30
432.22	4320.63
432.41	4210.62
432.60	4212.96
432.79	4304.25
432.97	4383.82
433.16	4358.08
433.35	4348.72
433.54	4299.56
433.72	4381.48
433.91	4383.82
434.10	4437.66
434.28	4367.44
434.47	4308.93
434.66	4496.17
434.85	4344.03
435.03	4594.47
435.22	4521.92
435.41	4599.15
435.59	4601.49
435.78	4587.45
435.97	4582.77
436.16	4699.80
436.34	4741.93
436.53	4828.53
436.72	4795.76
436.90	4596.81
437.09	4650.64
437.28	4660.01
437.46	4762.99
437.65	4863.63
437.84	4748.95
438.02	4779.37
438.21	4856.61
438.40	4798.10
438.58	4786.40
438.77	5177.26
438.96	4873.00
439.14	5027.47
439.33	5188.97
439.52	5296.63
439.70	5170.24
439.89	5242.80
440.08	5359.83
440.26	5320.04
440.45	5151.52
440.63	5448.77
440.82	5430.04
441.01	5249.82
441.19	5490.90
441.38	5401.96
441.57	5607.92
441.75	5455.79
441.94	5621.97
442.12	5570.48
442.31	5750.70
442.50	5687.50
442.68	5790.49
442.87	5804.53
443.05	5973.05
443.24	5998.79
443.43	5853.68
443.61	5912.19
443.80	6069.01
443.98	5781.12
444.17	5535.37
444.35	5858.36
444.54	6029.22
444.73	5949.64
444.91	5879.43
445.10	5961.34
445.28	6073.69
445.47	5951.98
445.65	5916.87
445.84	6073.69
446.02	6242.21
446.21	6012.84
446.39	6033.90
446.58	6157.95
446.77	6010.50
446.95	5980.07
447.14	5975.39
447.32	6019.86
447.51	6064.33
447.69	6127.52
447.88	6277.32
448.06	6214.12
448.25	6094.76
448.43	6186.04
448.62	6216.46
448.80	6113.48
448.99	6326.47
449.17	6230.51
449.36	6235.19
449.54	6303.06
449.73	6487.96
449.91	6225.82
450.10	6366.26
450.28	6516.05
450.46	6392.00
450.65	6520.73
450.83	6581.59
451.02	6616.69
451.20	6588.61
451.39	6553.50
451.57	6572.22
451.76	6483.28
451.94	6574.56
452.13	6712.66
452.31	6740.74
452.49	6588.61
452.68	6670.53
452.86	6579.25
453.05	6810.96
453.23	6855.43
453.42	6815.64
453.60	6810.96
453.78	6733.72
453.97	6595.63
454.15	6740.74
454.34	6787.55
454.52	6913.94
454.70	7033.31
454.89	6998.20
455.07	6841.39
455.26	7047.35
455.44	7155.02
455.62	7162.04
455.81	7007.56
455.99	7115.23
456.17	7290.77
456.36	7236.94
456.54	7384.39
456.73	7356.30
456.91	7541.21
457.09	7412.48
457.28	7410.14
457.46	7269.70
457.64	7555.25
457.83	7515.46
458.01	7548.23
458.19	7623.12
458.38	7555.25
458.56	7665.25
458.74	7595.04
458.93	7550.57
459.11	7716.75
459.29	7543.55
459.48	7779.94
459.66	7873.56
459.84	7906.33
460.03	8039.74
460.21	7805.69
460.39	7854.84
460.57	7824.41
460.76	7782.28
460.94	8241.03
461.12	7843.14
461.31	7953.14
461.49	7831.43
461.67	7953.14
461.85	8301.88
462.04	8032.72
462.22	8697.43
462.40	8189.53
462.59	8208.26
462.77	8198.90
462.95	8255.07
463.13	8189.53
463.32	8421.25
463.50	8226.98
463.68	8264.43
463.86	8388.48
464.05	8292.52
464.23	8348.69
464.41	8500.83
464.59	8154.43
464.78	8596.79
464.96	8662.32
465.14	8376.78
465.32	8709.13
465.50	8821.48
465.69	8624.87
465.87	8559.34
466.05	8608.49
466.23	8753.60
466.41	8777.01
466.60	8758.28
466.78	8662.32
466.96	8671.68
467.14	8751.26
467.32	9130.43
467.51	8994.68
467.69	8594.45
467.87	8950.21
468.05	8685.73
468.23	8814.46
468.41	8952.55
468.60	9078.94
468.78	9135.11
468.96	8816.80
469.14	9179.58
469.32	9142.13
469.50	8943.19
469.69	9373.85
469.87	9397.25
470.05	9348.10
470.23	9336.40
470.41	9338.74
470.59	9268.52
470.77	9280.22
470.95	9458.10
471.14	9558.75
471.32	9446.40
471.50	9738.97
471.68	9792.80
471.86	9652.37
472.04	9687.48
472.22	10026.86
472.40	9715.56
472.58	10003.45
472.77	9905.15
472.95	9795.14
473.13	10284.31
473.31	9792.80
473.49	9937.91
473.67	9844.29
473.85	10038.56
474.03	10370.91
474.21	10445.81
474.39	10457.51
474.57	10553.48
474.75	10504.32
474.93	10663.48
475.12	10572.20
475.30	10619.01
475.48	10541.77
475.66	10726.68
475.84	10733.70
476.02	10967.75
476.20	10937.32
476.38	11054.35
476.56	11105.84
476.74	11229.89
476.92	11147.97
477.10	11311.81
477.28	11637.14
477.46	11421.81
477.64	11569.27
477.82	11817.36
478.00	11868.86
478.18	11985.88
478.36	11843.11
478.54	12065.46
478.72	12091.21
478.90	12131.00
479.08	12451.65
479.26	12498.46
479.44	12449.31
479.62	12587.40
479.80	12568.68
479.98	12819.11
480.16	13025.08
480.34	12901.03
480.52	13020.40
480.70	13116.36
480.88	12875.29
481.06	13205.30
481.24	13226.37
481.41	13095.30
481.59	13722.56
481.77	13628.94
481.95	13935.55
482.13	13909.80
482.31	14059.60
482.49	14307.69
482.67	14347.48
482.85	14604.94
483.03	14686.86
483.21	14897.51
483.39	14939.64
483.57	14874.10
483.74	14817.93
483.92	15180.71
484.10	15192.42
484.28	15346.89
484.46	15318.81
484.64	15758.83
484.82	15358.60
485.00	15829.04
485.18	15988.20
485.35	16250.34
485.53	16189.49
485.71	16205.87
485.89	16533.54
486.07	16486.73
486.25	16421.20
486.43	16589.72
486.61	16917.39
486.78	17174.85
486.96	16886.97
487.14	17425.29
487.32	17322.30
487.50	17378.48
487.68	17467.42
487.85	17884.03
488.03	18141.49
488.21	18396.61
488.39	18094.68
488.57	18602.58
488.75	18595.56
488.92	18913.87
489.10	18869.40
489.28	18981.74
489.46	19475.60
489.64	19363.25
489.81	19473.26
489.99	19491.98
490.17	19669.86
490.35	19824.34
490.53	19742.42
490.70	20365.00
490.88	20002.22
491.06	20386.07
491.24	20259.68
491.41	20776.94
491.59	20648.21
491.77	20917.37
491.95	21130.36
492.13	20858.85
492.30	21289.51
492.48	21287.17
492.66	20985.24
492.84	21570.38
493.01	21659.32
493.19	21703.79
493.37	21848.90
493.54	22321.69
493.72	22415.31
493.90	22286.58
494.08	22754.69
494.25	22693.83
494.43	22677.45
494.61	23166.62
494.79	23028.53
494.96	22487.87
495.14	23101.09
495.32	23468.55
495.49	23222.80
495.67	23494.30
495.85	23702.61
496.02	23985.81
496.20	24194.12
496.38	23922.62
496.55	24184.76
496.73	24741.80
496.91	24545.20
497.09	24596.69
497.26	24950.11
497.44	24886.92
497.62	24842.45
497.79	25324.60
497.97	24947.77
498.14	25282.47
498.32	25113.95
498.50	25837.17
498.67	25694.40
498.85	26029.10
499.03	25736.53
499.20	26054.84
499.38	26211.66
499.56	26384.86
499.73	26469.12
499.91	26639.98
500.08	26387.20
500.26	26118.04
500.44	26691.47
500.61	26841.26
500.79	27049.57
500.97	27566.83
501.14	27019.14
501.32	27047.23
501.49	26981.70
501.67	27613.64
501.84	27445.12
502.02	27707.26
502.20	28027.92
502.37	28259.63
502.55	27791.52
502.72	27882.80
502.90	27733.01
503.07	27894.50
503.25	28198.77
503.43	28261.97
503.60	28711.35
503.78	28474.96
503.95	28584.96
504.13	28500.70
504.30	29149.03
504.48	28692.63
504.65	29237.97
504.83	29289.46
505.01	29582.03
505.18	29338.62
505.36	29472.03
505.53	29340.96
505.71	29823.11
505.88	29830.13
506.06	29364.36
506.23	29839.49
506.41	29675.65
506.58	30321.64
506.76	30022.05
506.93	30274.83
507.11	29670.97
507.28	29975.24
507.46	30717.19
507.63	30377.81
507.81	30597.82
507.98	30401.22
508.16	30927.84
508.33	31211.04
508.50	31084.65
508.68	30897.41
508.85	31241.47
509.03	31295.30
509.20	31550.42
509.38	31861.71
509.55	31761.07
509.73	31543.40
509.90	31604.25
510.08	31302.32
510.25	31370.20
510.42	32163.64
510.60	32393.01
510.77	32339.18
510.95	32280.67
511.12	32297.05
511.30	32177.68
511.47	32624.73
511.64	33055.39
511.82	32968.79
511.99	32493.66
512.17	32833.04
512.34	32608.34
512.51	33357.32
512.69	33310.50
512.86	33076.45
513.04	33766.91
513.21	33846.49
513.38	33886.28
513.56	33778.61
513.73	33661.58
513.90	33668.61
514.08	33448.60
514.25	34120.33
514.43	34094.58
514.60	34260.76
514.77	34192.89
514.95	34256.08
515.12	34232.68
515.29	34319.28
515.47	34829.51
515.64	34724.19
515.81	34476.09
515.99	34796.74
516.16	34932.50
516.33	34675.04
516.51	35676.79
516.68	35105.70
516.85	34822.49
517.03	35295.28
517.20	35386.56
517.37	35779.77
517.54	35332.73
517.72	35489.54
517.89	36055.95
518.06	35222.72
518.24	35709.55
518.41	35620.61
518.58	35803.17
518.75	36077.02
518.93	35997.44
519.10	36119.15
519.27	36201.07
519.45	36194.04
519.62	36500.65
519.79	36346.18
519.96	36598.96
520.14	36268.94
520.31	36481.93
520.48	36767.48
520.65	36802.58
520.83	36849.39
521.00	37001.53
521.17	37024.93
521.34	36816.63
521.52	37184.09
521.69	37397.08
521.86	37490.70
522.03	37507.08
522.20	37184.09
522.38	37729.44
522.55	37869.87
522.72	37944.76
522.89	37757.52
523.07	38300.53
523.24	38155.41
523.41	38061.79
523.58	37862.85
523.75	37755.18
523.92	38052.43
524.10	38302.87
524.27	38675.01
524.44	38698.42
524.61	38831.83
524.78	38747.57
524.96	38770.97
525.13	38796.72
525.30	38831.83
525.47	38541.60
525.64	39075.24
525.81	39400.58
525.98	39262.49
526.16	39005.03
526.33	38993.32
526.50	39110.35
526.67	38911.41
526.84	39533.99
527.01	39232.06
527.18	39428.66
527.36	39571.44
527.53	39697.83
527.70	39842.94
527.87	39772.72
528.04	39704.85
528.21	39789.11
528.38	39920.18
528.55	39859.32
528.72	40067.63
528.89	40425.73
529.07	40397.65
529.24	40027.84
529.41	40297.00
529.58	40093.38
529.75	40744.05
529.92	40327.43
530.09	39952.94
530.26	40201.04
530.43	40601.27
530.60	40280.62
530.77	40755.75
530.94	40582.55
531.11	40830.65
531.28	40767.45
531.46	40980.44
531.63	41034.27
531.80	41083.42
531.97	41195.77
532.14	41223.86
532.31	41706.01
532.48	40903.20
532.65	41319.82
532.82	41071.72
532.99	41366.63
533.16	41907.29
533.33	42010.28
533.50	41968.15
533.67	41794.95
533.84	41408.76
534.01	41537.49
534.18	41694.30
534.35	42000.91
534.52	41649.83
534.69	42272.42
534.86	42653.92
535.03	42101.56
535.20	42094.53
535.37	42553.28
535.54	42382.42
535.71	42029.00
535.88	42225.60
536.05	42473.70
536.22	42808.40
536.38	42749.88
536.55	42628.18
536.72	42906.70
536.89	42876.27
537.06	42754.57
537.23	42642.22
537.40	42380.08
537.57	42689.03
537.74	42284.12
537.91	43407.58
538.08	42972.24
538.25	42841.17
538.42	43175.86
538.59	43234.38
538.75	43227.35
538.92	43208.63
539.09	43487.15
539.26	43290.55
539.43	43629.93
539.60	43700.14
539.77	43508.22
539.94	43627.59
540.11	43461.41
540.28	43604.18
540.44	43536.30
540.61	43304.59
540.78	43749.29
540.95	43985.69
541.12	43880.36
541.29	44172.93
541.46	43849.94
541.62	44381.24
541.79	43957.60
541.96	43463.75
542.13	44034.84
542.30	44390.60
542.47	44088.67
542.63	44259.53
542.80	44383.58
542.97	45013.18
543.14	44638.70
543.31	44903.18
543.48	44659.76
543.64	44708.91
543.81	45022.54
543.98	45043.61
544.15	45036.59
544.32	45361.92
544.48	45411.07
544.65	44875.09
544.82	44650.40
544.99	44898.50
545.16	45483.63
545.32	45434.48
545.49	45422.78
545.66	45500.01
545.83	45521.08
546.00	45731.73
546.16	45155.96
546.33	44863.39
546.50	44959.35
546.67	45338.52
546.83	45132.55
547.00	45441.50
547.17	45380.65
547.34	45776.20
547.50	45937.69
547.67	45881.52
547.84	45617.04
548.00	46284.09
548.17	46106.21
548.34	45670.87
548.51	46251.33
548.67	46478.36
548.84	46239.62
549.01	45933.01
549.18	46272.39
549.34	45965.78
549.51	46007.91
549.68	45752.79
549.84	46546.23
550.01	46520.49
550.18	46321.54
550.34	46419.84
550.51	46239.62
550.68	46237.28
550.84	45886.20
551.01	46602.41
551.18	46120.26
551.34	46295.80
551.51	46817.74
551.68	46553.26
551.84	46663.26
552.01	46543.89
552.18	47147.75
552.34	46913.70
552.51	47470.75
552.68	46862.21
552.84	46763.90
553.01	46845.82
553.18	46815.40
553.34	47175.84
553.51	46747.52
553.67	46815.40
553.84	47702.46
554.01	47215.63
554.17	47201.58
554.34	47016.68
554.51	46569.64
554.67	47297.55
554.84	47416.91
555.00	47196.90
555.17	47686.07
555.33	47409.89
555.50	47260.10
555.67	47543.30
555.83	47421.59
556.00	47578.41
556.16	47711.82
556.33	47079.88
556.50	47445.00
556.66	47538.62
556.83	47632.24
556.99	47903.74
557.16	47927.15
557.32	47728.20
557.49	48158.86
557.65	47997.37
557.82	47913.11
557.98	47510.53
558.15	47990.34
558.32	47852.25
558.48	47531.60
558.65	47667.35
558.81	47765.65
558.98	47814.80
559.14	48158.86
559.31	47461.38
559.47	47604.16
559.64	48034.81
559.80	48130.78
559.97	48280.57
560.13	47943.53
560.30	48046.52
560.46	48144.82
560.63	48086.31
560.79	48233.76
560.96	48285.25
561.12	48053.54
561.29	48058.22
561.45	48154.18
561.61	48430.36
561.78	47992.68
561.94	48147.16
562.11	47908.43
562.27	48107.37
562.44	47955.24
562.60	48154.18
562.77	48315.68
562.93	48486.54
563.10	48341.42
563.26	48460.79
563.42	48189.29
563.59	48516.96
563.75	48577.82
563.92	48280.57
564.08	48224.40
564.24	48495.90
564.41	48559.09
564.57	48200.99
564.74	48158.86
564.90	48685.48
565.07	48472.49
565.23	48673.78
565.39	48486.54
565.56	48481.86
565.72	48538.03
565.88	48360.15
566.05	48413.98
566.21	48624.63
566.38	48720.59
566.54	48376.53
566.70	48870.39
566.87	48928.90
567.03	48652.72
567.19	49165.29
567.36	48687.82
567.52	48533.35
567.68	48561.44
567.85	48519.31
568.01	48573.14
568.17	48842.30
568.34	49001.46
568.50	49153.59
568.66	48865.70
568.83	49031.88
568.99	48940.60
569.15	48694.85
569.32	48584.84
569.48	48666.76
569.64	48678.46
569.81	48821.23
569.97	48875.07
570.13	48863.36
570.30	48938.26
570.46	49020.18
570.62	49027.20
570.78	48947.62
570.95	48725.27
571.11	49066.99
571.27	48690.16
571.43	48921.88
571.60	49404.03
571.76	49052.95
571.92	49127.84
572.09	49153.59
572.25	49076.35
572.41	48893.79
572.57	49134.87
572.74	49242.53
572.90	48877.41
573.06	48788.47
573.22	49385.30
573.38	49172.31
573.55	49109.12
573.71	49436.80
573.87	49457.86
574.03	49144.23
574.20	49020.18
574.36	48889.11
574.52	48830.60
574.68	48900.81
574.84	49202.74
575.01	49029.54
575.17	49151.25
575.33	49022.52
575.49	49357.22
575.65	49464.88
575.82	49029.54
575.98	48961.67
576.14	49024.86
576.30	49160.61
576.46	49279.98
576.62	48851.66
576.79	49312.75
576.95	48865.70
577.11	48821.23
577.27	49446.16
577.43	48739.32
577.59	48907.83
577.75	49062.31
577.92	48935.92
578.08	49177.00
578.24	48744.00
578.40	49282.32
578.56	49251.89
578.72	49207.42
578.88	49556.16
579.04	49778.51
579.21	49303.38
579.37	48882.09
579.53	49261.26
579.69	49104.44
579.85	48807.19
580.01	49233.17
580.17	49015.50
580.33	49464.88
580.49	49481.27
580.65	49670.85
580.82	49523.40
580.98	49549.14
581.14	48849.32
581.30	49322.11
581.46	49439.14
581.62	49324.45
581.78	49336.15
581.94	49525.74
582.10	48999.12
582.26	49244.87
582.42	49364.24
582.58	49710.64
582.74	49368.92
582.90	49422.75
583.06	49106.78
583.22	49720.00
583.38	49249.55
583.54	49404.03
583.70	49523.40
583.86	49514.03
584.02	49448.50
584.18	49766.81
584.34	49509.35
584.50	49521.05
584.66	49886.18
584.82	49165.29
584.98	49544.46
585.14	49497.65
585.30	49078.69
585.46	49275.30
585.62	49256.57
585.78	49207.42
585.94	49144.23
586.10	49485.95
586.26	49591.27
586.42	49125.50
586.58	49521.05
586.74	49298.70
586.90	49394.67
587.06	49324.45
587.22	49602.97
587.38	49553.82
587.54	49425.09
587.70	49771.49
587.86	49794.90
588.02	49628.72
588.18	49727.02
588.34	49530.42
588.49	49483.61
588.65	49446.16
588.81	49308.07
588.97	49614.68
589.13	49265.94
589.29	49762.13
589.45	49930.65
589.61	49621.70
589.77	49794.90
589.93	49776.17
590.08	49846.39
590.24	49593.61
590.40	49570.21
590.56	49932.99
