SpectraSuite Data File
++++++++++++++++++++++++++++++++++++
Date: Fri Oct 04 11:48:38 GMT-05:00 2013
User: price-jones
Dark Spectrum Present: No
Reference Spectrum Present: No
Number of Sampled Component Spectra: 1
Spectrometers: USB2+H05261
Integration Time (usec): 100000 (USB2+H05261)
Spectra Averaged: 1 (USB2+H05261)
Boxcar Smoothing: 0 (USB2+H05261)
Correct for Electrical Dark: No (USB2+H05261)
Strobe/Lamp Enabled: No (USB2+H05261)
Correct for Detector Non-linearity: No (USB2+H05261)
Correct for Stray Light: No (USB2+H05261)
Number of Pixels in Processed Spectrum: 2048
>>>>>Begin Processed Spectral Data<<<<<
365.73	7.02
365.92	7.02
366.12	7.02
366.32	0.00
366.52	0.00
366.72	0.00
366.91	0.00
367.11	0.00
367.31	0.00
367.51	0.00
367.70	0.00
367.90	0.00
368.10	0.00
368.30	0.00
368.49	0.00
368.69	0.00
368.89	0.00
369.09	0.00
369.28	0.00
369.48	0.00
369.68	0.00
369.87	9.36
370.07	0.00
370.27	58.51
370.47	128.73
370.66	301.93
370.86	461.09
371.06	386.19
371.25	418.96
371.45	437.68
371.65	425.98
371.84	423.64
372.04	430.66
372.24	414.27
372.44	365.12
372.63	437.68
372.83	589.82
373.03	500.87
373.22	503.22
373.42	505.56
373.62	545.34
373.81	526.62
374.01	580.45
374.21	566.41
374.40	554.71
374.60	664.71
374.79	617.90
374.99	510.24
375.19	545.34
375.38	585.13
375.58	688.12
375.78	620.24
375.97	671.73
376.17	622.58
376.37	617.90
376.56	585.13
376.76	568.75
376.95	636.63
377.15	655.35
377.35	575.77
377.54	596.84
377.74	713.86
377.93	608.54
378.13	636.63
378.33	683.44
378.52	716.20
378.72	744.29
378.91	746.63
379.11	653.01
379.31	648.33
379.50	669.39
379.70	723.23
379.89	821.53
380.09	685.78
380.28	683.44
380.48	821.53
380.68	833.23
380.87	699.82
381.07	739.61
381.26	746.63
381.46	753.65
381.65	709.18
381.85	770.04
382.04	770.04
382.24	800.46
382.43	805.14
382.63	791.10
382.83	779.40
383.02	770.04
383.22	819.19
383.41	821.53
383.61	896.43
383.80	784.08
384.00	814.51
384.19	863.66
384.39	866.00
384.58	823.87
384.78	737.27
384.97	929.19
385.17	821.53
385.36	931.53
385.56	952.60
385.75	880.04
385.95	952.60
386.14	952.60
386.34	863.66
386.53	835.57
386.72	882.38
386.92	908.13
387.11	931.53
387.31	858.98
387.50	968.98
387.70	830.89
387.89	924.51
388.09	950.26
388.28	950.26
388.48	943.24
388.67	1025.15
388.86	1025.15
389.06	999.41
389.25	931.53
389.45	1057.92
389.64	1071.97
389.84	1179.63
390.03	1081.33
390.22	1137.50
390.42	1104.73
390.61	1041.54
390.81	1097.71
391.00	1179.63
391.19	1118.78
391.39	1046.22
391.58	1093.03
391.78	1165.59
391.97	1245.16
392.16	1224.10
392.36	1205.38
392.55	1071.97
392.75	1186.65
392.94	1160.91
393.13	1167.93
393.33	1179.63
393.52	1156.22
393.71	1231.12
393.91	1296.66
394.10	1221.76
394.29	1287.29
394.49	1310.70
394.68	1270.91
394.88	1212.40
395.07	1444.11
395.26	1376.24
395.46	1416.02
395.65	1320.06
395.84	1336.45
396.04	1523.69
396.23	1383.26
396.42	1451.13
396.62	1432.41
396.81	1563.48
397.00	1523.69
397.19	1439.43
397.39	1446.45
397.58	1495.60
397.77	1570.50
397.97	1556.46
398.16	1556.46
398.35	1629.01
398.55	1591.56
398.74	1621.99
398.93	1537.73
399.12	1556.46
399.32	1584.54
399.51	1638.38
399.70	1678.16
399.90	1748.38
400.09	1732.00
400.28	1600.93
400.47	1657.10
400.67	1757.74
400.86	1619.65
401.05	1776.47
401.24	1839.66
401.44	1886.47
401.63	1919.24
401.82	1792.85
402.01	1750.72
402.21	1837.32
402.40	1886.47
402.59	1877.11
402.78	1823.28
402.97	1825.62
403.17	1886.47
403.36	1905.20
403.55	1881.79
403.74	2036.27
403.93	2043.29
404.13	2001.16
404.32	2080.74
404.51	2003.50
404.70	2183.72
404.89	1975.41
405.09	2136.91
405.28	2113.50
405.47	2176.70
405.66	2190.74
405.85	2289.04
406.05	2174.36
406.24	2265.64
406.43	2209.47
406.62	2373.30
406.81	2368.62
407.00	2303.09
407.20	2275.00
407.39	2361.60
407.58	2438.84
407.77	2399.05
407.96	2370.96
408.15	2429.48
408.34	2518.42
408.54	2434.16
408.73	2569.91
408.92	2534.80
409.11	2621.40
409.30	2574.59
409.49	2527.78
409.68	2558.21
409.87	2696.30
410.07	2794.60
410.26	2663.53
410.45	2717.36
410.64	2787.58
410.83	2768.85
411.02	2766.51
411.21	2850.77
411.40	2832.05
411.59	2864.82
411.78	2913.97
411.98	2867.16
412.17	3038.02
412.36	2942.05
412.55	3068.44
412.74	3040.36
412.93	3166.74
413.12	3119.93
413.31	3213.56
413.50	3087.17
413.69	3204.19
413.88	3346.97
414.07	3335.26
414.26	3379.73
414.45	3339.94
414.64	3290.79
414.83	3412.50
415.02	3442.93
415.22	3616.13
415.41	3442.93
415.60	3646.55
415.79	3543.57
415.98	3623.15
416.17	3611.45
416.36	3648.90
416.55	3557.61
416.74	3805.71
416.93	3836.14
417.12	3805.71
417.31	3896.99
417.50	3796.35
417.69	4044.45
417.88	3999.98
418.07	3962.53
418.26	4133.39
418.45	4063.17
418.64	4194.24
418.83	4084.23
419.02	4159.13
419.21	4119.34
419.39	4147.43
419.58	4070.19
419.77	4140.41
419.96	4367.44
420.15	4337.01
420.34	4255.09
420.53	4292.54
420.72	4360.42
420.91	4280.84
421.10	4482.13
421.29	4645.96
421.48	4271.48
421.67	4477.44
421.86	4418.93
422.05	4505.53
422.24	4528.94
422.43	4479.79
422.61	4634.26
422.80	4671.71
422.99	4617.88
423.18	4720.86
423.37	4540.64
423.56	4669.37
423.75	4692.77
423.94	4482.13
424.13	4257.43
424.32	4367.44
424.50	4641.28
424.69	4772.35
424.88	4725.54
425.07	4575.75
425.26	4554.68
425.45	4435.32
425.64	4699.80
425.83	4566.39
426.01	4603.83
426.20	4840.23
426.39	4695.11
426.58	4798.10
426.77	4938.53
426.96	4847.25
427.15	4905.76
427.33	4858.95
427.52	4837.89
427.71	4812.14
427.90	4973.64
428.09	5011.09
428.28	4964.28
428.46	5032.15
428.65	4912.78
428.84	5156.20
429.03	5142.16
429.22	4905.76
429.40	5205.35
429.59	5224.08
429.78	5118.75
429.97	5057.90
430.16	4929.17
430.34	5423.02
430.53	5214.71
430.72	5469.83
430.91	5245.14
431.10	5308.34
431.28	5359.83
431.47	5511.96
431.66	5636.01
431.85	5404.30
432.03	5633.67
432.22	5638.35
432.41	5540.05
432.60	5530.69
432.79	5518.98
432.97	5624.31
433.16	5664.10
433.35	5540.05
433.54	5802.19
433.72	5715.59
433.91	5774.10
434.10	5865.38
434.28	5469.83
434.47	5907.51
434.66	5886.45
434.85	5863.04
435.03	5961.34
435.22	5905.17
435.41	6099.44
435.59	5961.34
435.78	5998.79
435.97	6054.97
436.16	5994.11
436.34	6099.44
436.53	6321.79
436.72	6333.49
436.90	6031.56
437.09	6085.39
437.28	6235.19
437.46	6328.81
437.65	6331.15
437.84	6237.53
438.02	6319.45
438.21	6420.09
438.40	6459.88
438.58	6464.56
438.77	6565.20
438.96	6546.48
439.14	6785.21
439.33	6857.77
439.52	6768.83
439.70	6726.70
439.89	6789.89
440.08	6855.43
440.26	6841.39
440.45	6960.75
440.63	6946.71
440.82	7084.80
441.01	7178.42
441.19	7260.34
441.38	7222.89
441.57	7428.86
441.75	7358.64
441.94	7510.78
442.12	7253.32
442.31	7475.67
442.50	7485.03
442.68	7531.84
442.87	7515.46
443.05	7478.01
443.24	7726.11
443.43	7712.07
443.61	7695.68
443.80	8011.65
443.98	7655.89
444.17	7695.68
444.35	7815.05
444.54	7981.23
444.73	7763.56
444.91	7770.58
445.10	7836.11
445.28	7857.18
445.47	7786.96
445.65	7824.41
445.84	7662.91
446.02	7953.14
446.21	7885.26
446.39	7878.24
446.58	8067.83
446.77	7929.74
446.95	7857.18
447.14	7824.41
447.32	8109.96
447.51	7988.25
447.69	7948.46
447.88	8166.13
448.06	8023.36
448.25	7770.58
448.43	8238.69
448.62	7922.71
448.80	8135.70
448.99	8210.60
449.17	8250.39
449.36	8030.38
449.54	8372.10
449.73	8334.65
449.91	8322.94
450.10	8451.67
450.28	8472.74
450.46	8306.56
450.65	8325.29
450.83	8683.39
451.02	8671.68
451.20	8767.65
451.39	8704.45
451.57	8503.17
451.76	8620.19
451.94	8400.18
452.13	8779.35
452.31	8720.84
452.49	8582.74
452.68	8826.16
452.86	8837.86
453.05	9013.40
453.23	9085.96
453.42	8809.78
453.60	8877.65
453.78	9020.42
453.97	8971.27
454.15	8805.10
454.34	8985.32
454.52	9078.94
454.70	9085.96
454.89	9233.41
455.07	9160.86
455.26	9074.26
455.44	9357.46
455.62	9437.04
455.81	9320.01
455.99	9369.16
456.17	9415.98
456.36	9277.88
456.54	9743.65
456.73	9825.57
456.91	9909.83
457.09	9905.15
457.28	9867.70
457.46	9853.66
457.64	9881.74
457.83	9914.51
458.01	9841.95
458.19	9947.28
458.38	9900.47
458.56	9984.73
458.74	10153.24
458.93	10038.56
459.11	10068.98
459.29	10012.81
459.48	10181.33
459.66	10384.96
459.84	10153.24
460.03	10391.98
460.21	10448.15
460.39	10387.30
460.57	10408.36
460.76	10707.95
460.94	10593.26
461.12	10363.89
461.31	10583.90
461.49	10326.44
461.67	10558.16
461.85	10757.10
462.04	10565.18
462.22	11073.07
462.40	10789.87
462.59	10682.20
462.77	10686.89
462.95	10970.09
463.13	10881.15
463.32	11066.05
463.50	10874.13
463.68	10986.47
463.86	11213.51
464.05	10932.64
464.23	10951.37
464.41	11227.55
464.59	10979.45
464.78	11459.26
464.96	11220.53
465.14	11052.01
465.32	11377.34
465.50	11365.64
465.69	11496.71
465.87	11562.25
466.05	11473.31
466.23	11281.38
466.41	11499.05
466.60	11777.58
466.78	11562.25
466.96	11431.18
467.14	11482.67
467.32	11580.97
467.51	11742.47
467.69	11262.66
467.87	11564.59
468.05	11665.23
468.23	11719.06
468.41	11585.65
468.60	11667.57
468.78	12173.13
468.96	11606.72
469.14	11826.73
469.32	12098.23
469.50	11779.92
469.69	12039.72
469.87	12320.58
470.05	12528.89
470.23	12297.17
470.41	12437.61
470.59	12128.66
470.77	12315.90
470.95	12421.22
471.14	12624.85
471.32	12489.10
471.50	12975.93
471.68	12606.13
471.86	12793.37
472.04	12945.50
472.22	13111.68
472.40	12524.21
472.58	13116.36
472.77	13163.17
472.95	13074.23
473.13	13596.17
473.31	13099.98
473.49	13217.01
473.67	13291.90
473.85	13537.66
474.03	13664.05
474.21	13788.10
474.39	13722.56
474.57	14111.09
474.75	13902.78
474.93	14052.58
475.12	14019.81
475.30	14380.25
475.48	14099.39
475.66	14485.58
475.84	14167.26
476.02	14394.29
476.20	14305.35
476.38	14682.18
476.56	14684.52
476.74	15101.14
476.92	14871.76
477.10	15234.55
477.28	15241.57
477.46	15232.21
477.64	15459.24
477.82	15604.35
478.00	15840.75
478.18	15770.53
478.36	15824.36
478.54	15950.75
478.72	16072.46
478.90	16526.52
479.08	16549.93
479.26	16444.60
479.44	16395.45
479.62	16908.03
479.80	16767.60
479.98	17027.40
480.16	17341.03
480.34	17245.07
480.52	17446.35
480.70	17469.76
480.88	17589.13
481.06	17352.73
481.24	17525.93
481.41	17657.00
481.59	18031.49
481.77	18331.08
481.95	18335.76
482.13	18609.60
482.31	18710.24
482.49	19236.86
482.67	18656.41
482.85	19145.58
483.03	19393.68
483.21	19639.44
483.39	19456.87
483.57	19761.14
483.74	20049.03
483.92	19871.15
484.10	20020.94
484.28	20411.81
484.46	20802.68
484.64	21170.15
484.82	20652.89
485.00	20905.66
485.18	21123.33
485.35	21575.06
485.53	21624.21
485.71	21413.56
485.89	22001.04
486.07	22111.04
486.25	21769.32
486.43	22300.62
486.61	22469.14
486.78	22588.51
486.96	22860.01
487.14	23105.77
487.32	22979.38
487.50	23321.10
487.68	23531.75
487.85	23482.59
488.03	24046.66
488.21	23730.69
488.39	24294.76
488.57	24498.39
488.75	24463.28
488.92	24898.62
489.10	24889.26
489.28	25022.67
489.46	25757.60
489.64	25233.32
489.81	26101.65
489.99	26197.62
490.17	25954.20
490.35	26258.47
490.53	26761.69
490.70	27143.19
490.88	26630.62
491.06	26899.78
491.24	26658.70
491.41	27332.78
491.59	27248.52
491.77	27545.76
491.95	27983.44
492.13	27995.15
492.30	28030.26
492.48	28400.06
492.66	28456.23
492.84	28531.13
493.01	28491.34
493.19	29149.03
493.37	29041.37
493.54	29132.65
493.72	29752.89
493.90	29659.27
494.08	29661.61
494.25	30373.13
494.43	30263.13
494.61	30890.39
494.79	30874.01
494.96	30600.16
495.14	30686.76
495.32	30944.22
495.49	31159.55
495.67	31454.46
495.85	31655.75
496.02	31660.43
496.20	32046.62
496.38	31838.31
496.55	31941.29
496.73	32533.45
496.91	32491.32
497.09	33003.89
497.26	32617.71
497.44	33139.65
497.62	32875.16
497.79	33364.34
497.97	33071.77
498.14	33806.70
498.32	34134.37
498.50	33731.80
498.67	34412.90
498.85	33968.19
499.03	34190.55
499.20	34246.72
499.38	34286.51
499.56	34939.52
499.73	34904.41
499.91	35108.04
500.08	35091.65
500.26	34850.58
500.44	35381.88
500.61	35255.49
500.79	35955.31
500.97	35807.86
501.14	36407.03
501.32	36081.70
501.49	36226.81
501.67	36327.45
501.84	36524.06
502.02	36622.36
502.20	36996.85
502.37	36987.49
502.55	36664.49
502.72	37001.53
502.90	36968.76
503.07	36917.27
503.25	37291.76
503.43	37401.76
503.60	38316.91
503.78	37764.54
503.95	37408.78
504.13	37935.40
504.30	37759.86
504.48	37844.12
504.65	37893.27
504.83	38265.42
505.01	38752.25
505.18	38747.57
505.36	38855.23
505.53	38780.34
505.71	38937.15
505.88	39129.08
506.06	38906.73
506.23	39487.18
506.41	39431.01
506.58	39601.86
506.76	39431.01
506.93	39714.21
507.11	39356.11
507.28	39566.76
507.46	40196.36
507.63	40301.68
507.81	40495.95
507.98	40275.94
508.16	40575.53
508.33	40760.43
508.50	40652.76
508.68	41020.23
508.85	41347.90
509.03	41158.32
509.20	41528.13
509.38	41963.46
509.55	41565.57
509.73	41605.36
509.90	41989.21
510.08	41663.88
510.25	42017.30
510.42	42396.46
510.60	42307.52
510.77	42712.44
510.95	42550.94
511.12	42590.73
511.30	42478.38
511.47	42464.34
511.64	42880.95
511.82	43070.54
511.99	43150.12
512.17	43529.28
512.34	43014.37
512.51	43086.92
512.69	43346.72
512.86	43328.00
513.04	43786.74
513.21	43772.70
513.38	44320.38
513.56	44282.94
513.73	43957.60
513.90	44294.64
514.08	44198.68
514.25	44741.68
514.43	44650.40
514.60	44832.96
514.77	45200.43
514.95	44690.19
515.12	44676.15
515.29	44715.93
515.47	45270.64
515.64	45310.43
515.81	44954.67
515.99	45708.32
516.16	46138.98
516.33	45881.52
516.51	45928.33
516.68	45446.18
516.85	45673.21
517.03	45890.88
517.20	45710.66
517.37	46333.24
517.54	46237.28
517.72	46148.34
517.89	46103.87
518.06	46356.65
518.24	45965.78
518.41	46651.56
518.58	46845.82
518.75	46649.22
518.93	47421.59
519.10	46780.29
519.27	46990.94
519.45	46684.33
519.62	47384.15
519.79	47042.43
519.96	47264.78
520.14	47566.71
520.31	47409.89
520.48	47604.16
520.65	47732.89
520.83	47704.80
521.00	47873.32
521.17	48032.47
521.34	48172.91
521.52	48437.39
521.69	48404.62
521.86	48371.85
522.03	48381.21
522.20	48573.14
522.38	48807.19
522.55	49013.16
522.72	48814.21
522.89	48561.44
523.07	49102.10
523.24	48900.81
523.41	48751.02
523.58	48858.68
523.75	49205.08
523.92	49139.55
524.10	49317.43
524.27	49574.89
524.44	49572.55
524.61	49532.76
524.78	49895.54
524.96	49659.15
525.13	49677.87
525.30	49778.51
525.47	49652.12
525.64	49834.69
525.81	49993.84
525.98	50298.11
526.16	50164.70
526.33	50066.40
526.50	50302.79
526.67	50316.84
526.84	50059.38
527.01	50454.93
527.18	50560.25
527.36	50426.84
527.53	50941.76
527.70	51182.84
527.87	50651.53
528.04	50595.36
528.21	50628.13
528.38	50593.02
528.55	51068.15
528.72	50841.12
528.89	50958.14
529.07	51276.46
529.24	51075.17
529.41	50997.93
529.58	51201.56
529.75	51089.21
529.92	51414.55
530.09	51297.52
530.26	51487.10
530.43	51597.11
530.60	51529.23
530.77	51222.62
530.94	51730.52
531.11	51751.59
531.28	51395.82
531.46	51927.13
531.63	52109.69
531.80	52200.97
531.97	51910.74
532.14	52383.53
532.31	51639.24
532.48	51901.38
532.65	52058.20
532.82	51915.42
532.99	52156.50
533.16	52032.45
533.33	52596.52
533.50	52734.61
533.67	52566.09
533.84	52477.15
534.01	52355.44
534.18	52039.47
534.35	52750.99
534.52	52622.26
534.69	52924.19
534.86	52821.21
535.03	52835.25
535.20	52912.49
535.37	52879.72
535.54	52961.64
535.71	52952.28
535.88	53097.39
536.05	52828.23
536.22	53254.21
536.38	53106.76
536.55	53448.47
536.72	53034.20
536.89	53169.95
537.06	53249.53
537.23	53265.91
537.40	53240.17
537.57	53366.55
537.74	53090.37
537.91	53881.47
538.08	53514.01
538.25	53343.15
538.42	53811.26
538.59	53595.93
538.75	53221.44
538.92	53525.71
539.09	53846.36
539.26	53937.65
539.43	53844.02
539.60	53916.58
539.77	53944.67
539.94	54117.87
540.11	54096.80
540.28	54106.16
540.44	53614.65
540.61	53572.52
540.78	54195.10
540.95	54089.78
541.12	54085.10
541.29	54108.50
541.46	54131.91
541.62	54031.27
541.79	54272.34
541.96	54169.36
542.13	54291.07
542.30	54138.93
542.47	54543.84
542.63	54639.81
542.80	54653.85
542.97	54782.58
543.14	54960.46
543.31	54670.23
543.48	54756.83
543.64	54850.45
543.81	54967.48
543.98	55009.61
544.15	55159.41
544.32	54965.14
544.48	55182.81
544.65	54897.27
544.82	55084.51
544.99	54894.92
545.16	55157.06
545.32	54852.80
545.49	55407.50
545.66	55421.55
545.83	55313.88
546.00	55540.91
546.16	55332.60
546.33	54899.61
546.50	54777.90
546.67	55250.69
546.83	55112.59
547.00	55505.80
547.17	55501.12
547.34	55496.44
547.50	55711.77
547.67	55615.81
547.84	55440.27
548.00	55583.04
548.17	55838.16
548.34	55330.26
548.51	55606.45
548.67	55994.98
548.84	55992.64
549.01	55791.35
549.18	55817.10
549.34	55777.31
549.51	55690.71
549.68	55746.88
549.84	55973.91
550.01	55903.70
550.18	55929.44
550.34	55997.32
550.51	56222.01
550.68	56179.88
550.84	55744.54
551.01	56039.45
551.18	56023.06
551.34	55884.97
551.51	56133.07
551.68	56109.66
551.84	56189.24
552.01	56404.57
552.18	56343.72
552.34	56119.02
552.51	56474.79
552.68	56200.94
552.84	56425.64
553.01	56479.47
553.18	56390.53
553.34	56423.29
553.51	56320.31
553.67	56498.19
553.84	56804.80
554.01	56846.93
554.17	56741.61
554.34	56390.53
554.51	56680.75
554.67	56683.09
554.84	56692.46
555.00	56804.80
555.17	56713.52
555.33	56622.24
555.50	56790.76
555.67	56655.01
555.83	56757.99
556.00	56701.82
556.16	56825.87
556.33	56821.19
556.50	56896.08
556.66	56765.01
556.83	56816.50
556.99	56982.68
557.16	57022.47
557.32	56954.60
557.49	57092.69
557.65	56664.37
557.82	56870.34
557.98	56961.62
558.15	57017.79
558.32	57160.56
558.48	56945.23
558.65	57088.01
558.81	57041.20
558.98	57045.88
559.14	56839.91
559.31	56926.51
559.47	56982.68
559.64	57422.70
559.80	57256.53
559.97	57279.93
560.13	57172.27
560.30	57441.43
560.46	57228.44
560.63	57256.53
560.79	57078.64
560.96	57511.64
561.12	57202.69
561.29	57338.44
561.45	57354.83
561.61	57532.71
561.78	57516.32
561.94	57183.97
562.11	57293.97
562.27	57446.11
562.44	57329.08
562.60	57254.18
562.77	57162.90
562.93	57329.08
563.10	57748.04
563.26	57474.20
563.42	57680.16
563.59	57675.48
563.75	57525.69
563.92	57511.64
564.08	57455.47
564.24	57670.80
564.41	57387.60
564.57	57521.01
564.74	57277.59
564.90	57453.13
565.07	57666.12
565.23	57682.50
565.39	57680.16
565.56	57722.29
565.72	57364.19
565.88	57705.91
566.05	57652.08
566.21	57609.95
566.38	57474.20
566.54	57766.76
566.70	57921.24
566.87	57827.62
567.03	57691.86
567.19	57883.79
567.36	57654.42
567.52	57771.44
567.68	57719.95
567.85	57673.14
568.01	57689.52
568.17	57719.95
568.34	57773.78
568.50	57808.89
568.66	57930.60
568.83	57975.07
568.99	57757.40
569.15	57832.30
569.32	57710.59
569.48	57436.75
569.64	57865.06
569.81	57792.51
569.97	57741.02
570.13	58003.16
570.30	57757.40
570.46	57883.79
570.62	57818.25
570.78	57984.43
570.95	57649.74
571.11	57874.43
571.27	57668.46
571.43	57874.43
571.60	58010.18
571.76	57848.68
571.92	58103.80
572.09	58174.02
572.25	58101.46
572.41	57865.06
572.57	57844.00
572.74	58101.46
572.90	57834.64
573.06	57813.57
573.22	57975.07
573.38	58061.67
573.55	57956.35
573.71	58099.12
573.87	58351.90
574.03	58056.99
574.20	58185.72
574.36	57921.24
574.52	57970.39
574.68	57815.91
574.84	58164.65
575.01	58000.82
575.17	58166.99
575.33	58127.20
575.49	58033.58
575.65	58152.95
575.82	58094.44
575.98	58045.29
576.14	58269.98
576.30	58024.22
576.46	57993.79
576.62	58042.95
576.79	58024.22
576.95	57907.19
577.11	57986.77
577.27	58227.85
577.43	58248.91
577.59	58218.49
577.75	58026.56
577.92	58291.04
578.08	58033.58
578.24	57874.43
578.40	58045.29
578.56	58358.92
578.72	58124.86
578.88	58260.62
579.04	58473.60
579.21	58181.04
579.37	57921.24
579.53	58340.19
579.69	58099.12
579.85	58122.52
580.01	58040.60
580.17	58073.37
580.33	58094.44
580.49	58092.10
580.65	58305.09
580.82	58417.43
580.98	58284.02
581.14	58045.29
581.30	58106.14
581.46	58134.23
581.62	58286.36
581.78	58174.02
581.94	58394.03
582.10	58103.80
582.26	58068.69
582.42	58202.10
582.58	58274.66
582.74	58237.21
582.90	58218.49
583.06	58068.69
583.22	58204.44
583.38	58141.25
583.54	58115.50
583.70	58347.21
583.86	58548.50
584.02	58248.91
584.18	58422.11
584.34	58525.10
584.50	58468.92
584.66	58164.65
584.82	58115.50
584.98	58279.34
585.14	58319.13
585.30	58127.20
585.46	58258.27
585.62	58279.34
585.78	58410.41
585.94	58066.35
586.10	58295.72
586.26	58071.03
586.42	58384.66
586.58	58286.36
586.74	58251.25
586.90	58157.63
587.06	58122.52
587.22	58379.98
587.38	58368.28
587.54	58454.88
587.70	58239.55
587.86	58412.75
588.02	58482.97
588.18	58349.56
588.34	58295.72
588.49	58541.48
588.65	58269.98
588.81	58183.38
588.97	58340.19
589.13	58394.03
589.29	58541.48
589.45	58501.69
