SpectraSuite Data File
++++++++++++++++++++++++++++++++++++
Date: Fri Oct 04 11:48:24 GMT-05:00 2013
User: price-jones
Dark Spectrum Present: No
Reference Spectrum Present: No
Number of Sampled Component Spectra: 1
Spectrometers: USB2+H05261
Integration Time (usec): 100000 (USB2+H05261)
Spectra Averaged: 1 (USB2+H05261)
Boxcar Smoothing: 0 (USB2+H05261)
Correct for Electrical Dark: No (USB2+H05261)
Strobe/Lamp Enabled: No (USB2+H05261)
Correct for Detector Non-linearity: No (USB2+H05261)
Correct for Stray Light: No (USB2+H05261)
Number of Pixels in Processed Spectrum: 2048
>>>>>Begin Processed Spectral Data<<<<<
365.73	23.41
365.92	23.41
366.12	23.41
366.32	0.00
366.52	0.00
366.72	0.00
366.91	4.68
367.11	0.00
367.31	0.00
367.51	0.00
367.70	0.00
367.90	0.00
368.10	0.00
368.30	4.68
368.49	0.00
368.69	0.00
368.89	0.00
369.09	0.00
369.28	0.00
369.48	0.00
369.68	0.00
369.87	16.38
370.07	0.00
370.27	0.00
370.47	147.45
370.66	491.51
370.86	465.77
371.06	610.88
371.25	643.65
371.45	582.79
371.65	587.47
371.84	573.43
372.04	526.62
372.24	559.39
372.44	655.35
372.63	664.71
372.83	671.73
373.03	594.50
373.22	671.73
373.42	662.37
373.62	648.33
373.81	669.39
374.01	763.01
374.21	798.12
374.40	730.25
374.60	751.31
374.79	739.61
374.99	763.01
375.19	711.52
375.38	734.93
375.58	809.83
375.78	779.40
375.97	877.70
376.17	828.55
376.37	758.33
376.56	772.38
376.76	840.25
376.95	732.59
377.15	760.67
377.35	837.91
377.54	777.06
377.74	873.02
377.93	929.19
378.13	821.53
378.33	912.81
378.52	929.19
378.72	847.27
378.91	812.17
379.11	929.19
379.31	873.02
379.50	912.81
379.70	870.68
379.89	858.98
380.09	873.02
380.28	894.08
380.48	910.47
380.68	954.94
380.87	919.83
381.07	959.62
381.26	1039.20
381.46	971.32
381.65	1086.01
381.85	887.06
382.04	1095.37
382.24	997.07
382.43	1123.46
382.63	1053.24
382.83	1069.62
383.02	1081.33
383.22	1027.50
383.41	1039.20
383.61	980.68
383.80	1029.84
384.00	992.39
384.19	1025.15
384.39	1039.20
384.58	1111.75
384.78	1170.27
384.97	1130.48
385.17	1060.26
385.36	1149.20
385.56	1123.46
385.75	1172.61
385.95	1224.10
386.14	1193.67
386.34	1196.01
386.53	1207.72
386.72	1200.69
386.92	1242.82
387.11	1266.23
387.31	1256.87
387.50	1240.48
387.70	1263.89
387.89	1270.91
388.09	1221.76
388.28	1256.87
388.48	1324.74
388.67	1306.02
388.86	1364.53
389.06	1327.08
389.25	1446.45
389.45	1469.86
389.64	1336.45
389.84	1423.05
390.03	1425.39
390.22	1390.28
390.42	1409.00
390.61	1385.60
390.81	1397.30
391.00	1486.24
391.19	1542.41
391.39	1444.11
391.58	1497.94
391.78	1446.45
391.97	1514.33
392.16	1462.83
392.36	1647.74
392.55	1619.65
392.75	1558.80
392.94	1614.97
393.13	1617.31
393.33	1533.05
393.52	1530.71
393.71	1640.72
393.91	1636.03
394.10	1631.35
394.29	1652.42
394.49	1701.57
394.68	1664.12
394.88	1624.33
395.07	1732.00
395.26	1626.67
395.46	1671.14
395.65	1734.34
395.84	1799.87
396.04	1914.56
396.23	1863.07
396.42	1804.55
396.62	1816.26
396.81	1809.23
397.00	1886.47
397.19	1900.52
397.39	1933.28
397.58	1952.01
397.77	1914.56
397.97	1891.15
398.16	2010.52
398.35	1949.67
398.55	1907.54
398.74	1961.37
398.93	2122.87
399.12	2097.12
399.32	2038.61
399.51	2118.18
399.70	2113.50
399.90	2125.21
400.09	2232.87
400.28	2122.87
400.47	2186.06
400.67	2232.87
400.86	2134.57
401.05	2253.94
401.24	2242.23
401.44	2293.72
401.63	2347.56
401.82	2331.17
402.01	2279.68
402.21	2335.85
402.40	2326.49
402.59	2413.09
402.78	2345.22
402.97	2389.69
403.17	2399.05
403.36	2504.37
403.55	2457.56
403.74	2509.05
403.93	2605.02
404.13	2492.67
404.32	2485.65
404.51	2476.29
404.70	2574.59
404.89	2590.97
405.09	2487.99
405.28	2569.91
405.47	2689.28
405.66	2799.28
405.85	2792.26
406.05	2700.98
406.24	2740.77
406.43	2700.98
406.62	2918.65
406.81	3028.65
407.00	2775.88
407.20	2885.88
407.39	2895.24
407.58	2899.92
407.77	2960.78
407.96	3021.63
408.15	3042.70
408.34	2935.03
408.54	2995.89
408.73	3082.49
408.92	3103.55
409.11	3157.38
409.30	3126.96
409.49	3176.11
409.68	3136.32
409.87	3265.05
410.07	3323.56
410.26	3227.60
410.45	3262.71
410.64	3358.67
410.83	3351.65
411.02	3318.88
411.21	3492.08
411.40	3454.63
411.59	3583.36
411.78	3475.70
411.98	3595.06
412.17	3569.32
412.36	3583.36
412.55	3637.19
412.74	3742.52
412.93	3777.62
413.12	3686.34
413.31	3871.25
413.50	3742.52
413.69	3964.87
413.88	3992.95
414.07	3875.93
414.26	3997.64
414.45	4072.53
414.64	3918.06
414.83	4149.77
415.02	4086.58
415.22	4367.44
415.41	4327.65
415.60	4245.73
415.79	4266.80
415.98	4318.29
416.17	4358.08
416.36	4306.59
416.55	4428.29
416.74	4344.03
416.93	4559.36
417.12	4531.28
417.31	4554.68
417.50	4545.32
417.69	4795.76
417.88	4847.25
418.07	4660.01
418.26	4791.08
418.45	4681.07
418.64	4830.87
418.83	4842.57
419.02	4744.27
419.21	4947.89
419.39	4884.70
419.58	4865.97
419.77	4762.99
419.96	5020.45
420.15	5029.81
420.34	4933.85
420.53	5025.13
420.72	5088.32
420.91	5093.01
421.10	5249.82
421.29	5432.38
421.48	5081.30
421.67	5198.33
421.86	5224.08
422.05	5327.06
422.24	5303.65
422.43	5240.46
422.61	5331.74
422.80	5317.70
422.99	5245.14
423.18	5291.95
423.37	5392.59
423.56	5392.59
423.75	5376.21
423.94	5233.44
424.13	5125.77
424.32	5203.01
424.50	5493.24
424.69	5628.99
424.88	5533.03
425.07	5425.36
425.26	5486.22
425.45	5390.25
425.64	5528.35
425.83	5448.77
426.01	5460.47
426.20	5458.13
426.39	5610.26
426.58	5371.53
426.77	5558.77
426.96	5607.92
427.15	5633.67
427.33	5591.54
427.52	5731.97
427.71	5757.72
427.90	5844.32
428.09	5734.31
428.28	5963.68
428.46	5886.45
428.65	5863.04
428.84	6033.90
429.03	6200.08
429.22	5825.59
429.40	5968.37
429.59	6085.39
429.78	5888.79
429.97	5844.32
430.16	5846.66
430.34	6132.20
430.53	6258.59
430.72	6080.71
430.91	6169.65
431.10	6125.18
431.28	6345.19
431.47	6303.06
431.66	6342.85
431.85	6218.80
432.03	6399.02
432.22	6637.76
432.41	6366.26
432.60	6464.56
432.79	6476.26
432.97	6466.90
433.16	6665.85
433.35	6595.63
433.54	6693.93
433.72	6682.23
433.91	6764.15
434.10	6684.57
434.28	6771.17
434.47	6930.33
434.66	6794.58
434.85	6829.68
435.03	6913.94
435.22	6803.94
435.41	7208.85
435.59	7152.68
435.78	7028.63
435.97	7164.38
436.16	7098.84
436.34	6970.12
436.53	7115.23
436.72	7206.51
436.90	7110.55
437.09	7349.28
437.28	7143.32
437.46	7332.90
437.65	7438.22
437.84	7590.36
438.02	7400.77
438.21	7368.01
438.40	7571.63
438.58	7775.26
438.77	7634.83
438.96	7744.83
439.14	7775.26
439.33	7831.43
439.52	7943.78
439.70	8004.63
439.89	8154.43
440.08	8372.10
440.26	8365.07
440.45	8168.47
440.63	8325.29
440.82	8449.33
441.01	8280.82
441.19	8549.98
441.38	8723.18
441.57	8461.04
441.75	8734.88
441.94	8952.55
442.12	8833.18
442.31	8772.33
442.50	8924.46
442.68	8912.76
442.87	8901.06
443.05	9109.36
443.24	9266.18
443.43	8961.91
443.61	8992.34
443.80	9263.84
443.98	9107.02
444.17	8915.10
444.35	9233.41
444.54	9336.40
444.73	9289.59
444.91	9231.07
445.10	9188.94
445.28	9298.95
445.47	9298.95
445.65	9202.99
445.84	9404.27
446.02	9425.34
446.21	9430.02
446.39	9448.74
446.58	9703.86
446.77	9348.10
446.95	9380.87
447.14	9404.27
447.32	9427.68
447.51	9401.93
447.69	9446.40
447.88	9507.26
448.06	9509.60
448.25	9390.23
448.43	9617.26
448.62	9420.66
448.80	9549.39
448.99	9731.95
449.17	9708.54
449.36	9600.88
449.54	9722.59
449.73	9926.21
449.91	10043.24
450.10	10078.35
450.28	10176.65
450.46	10064.30
450.65	10038.56
450.83	10164.95
451.02	10118.14
451.20	10363.89
451.39	10321.76
451.57	10085.37
451.76	10324.10
451.94	10298.36
452.13	10370.91
452.31	10340.49
452.49	10005.79
452.68	10576.88
452.86	10628.37
453.05	10485.60
453.23	10736.04
453.42	10361.55
453.60	10476.24
453.78	10513.69
453.97	10647.10
454.15	10693.91
454.34	10506.66
454.52	10874.13
454.70	10789.87
454.89	10778.17
455.07	10696.25
455.26	10813.28
455.44	11075.42
455.62	11108.18
455.81	11140.95
455.99	11232.23
456.17	11386.71
456.36	11257.98
456.54	11473.31
456.73	11648.85
456.91	11819.71
457.09	11786.94
457.28	11751.83
457.46	11625.44
457.64	11662.89
457.83	11822.05
458.01	11517.78
458.19	12004.61
458.38	11712.04
458.56	11948.43
458.74	11880.56
458.93	12238.66
459.11	11953.12
459.29	11840.77
459.48	11910.99
459.66	11976.52
459.84	12126.32
460.03	12327.60
460.21	12358.03
460.39	12332.28
460.57	12439.95
460.76	12133.34
460.94	12524.21
461.12	12510.16
461.31	12465.69
461.49	12435.27
461.67	12484.42
461.85	12819.11
462.04	12835.50
462.22	13472.12
462.40	12776.98
462.59	12819.11
462.77	12753.58
462.95	12936.14
463.13	12793.37
463.32	12847.20
463.50	13022.74
463.68	13146.79
463.86	13158.49
464.05	13097.64
464.23	13238.07
464.41	13198.28
464.59	13081.25
464.78	13444.04
464.96	13135.09
465.14	13130.41
465.32	13514.25
465.50	13668.73
465.69	13710.86
465.87	13467.44
466.05	13706.18
466.23	13671.07
466.41	13612.56
466.60	14068.96
466.78	13799.80
466.96	13790.44
467.14	13528.30
467.32	13942.57
467.51	14052.58
467.69	13961.30
467.87	13973.00
468.05	14246.84
468.23	13891.08
468.41	13944.91
468.60	14125.13
468.78	14307.69
468.96	14087.68
469.14	14492.60
469.32	14347.48
469.50	13947.25
469.69	14640.05
469.87	14820.27
470.05	14745.38
470.23	14771.12
470.41	14897.51
470.59	14937.30
470.77	14698.56
470.95	14876.44
471.14	14897.51
471.32	14972.41
471.50	15482.64
471.68	15234.55
471.86	15492.01
472.04	15590.31
472.22	15686.27
472.40	15445.20
472.58	15660.52
472.77	15999.90
472.95	15686.27
473.13	16428.22
473.31	16018.63
473.49	15829.04
473.67	15854.79
473.85	16084.16
474.03	16456.31
474.21	16507.80
474.39	16634.19
474.57	16863.56
474.75	16762.92
474.93	16847.18
475.12	17039.10
475.30	17020.38
475.48	16657.59
475.66	17181.87
475.84	17334.01
476.02	17376.14
476.20	17671.04
476.38	17603.17
476.56	17926.16
476.74	17795.09
476.92	17900.42
477.10	17907.44
477.28	18302.99
477.46	18031.49
477.64	18492.57
477.82	18745.35
478.00	19014.51
478.18	19197.07
478.36	19115.16
478.54	19150.26
478.72	19480.28
478.90	19515.39
479.08	20074.77
479.26	20210.53
479.44	19915.62
479.62	20299.47
479.80	20666.93
479.98	20357.98
480.16	20657.57
480.34	20704.38
480.52	21259.09
480.70	21179.51
480.88	20697.36
481.06	21357.39
481.24	21156.10
481.41	21469.73
481.59	21872.31
481.77	22309.99
481.95	22256.15
482.13	22345.09
482.31	22307.65
482.49	22953.63
482.67	22726.60
482.85	23269.61
483.03	23498.98
483.21	23674.52
483.39	23639.41
483.57	23749.42
483.74	24039.64
483.92	24369.66
484.10	23742.39
484.28	24912.66
484.46	24711.38
484.64	25518.86
484.82	25195.87
485.00	25060.12
485.18	25750.57
485.35	25596.10
485.53	26033.78
485.71	26143.78
485.89	26972.33
486.07	26426.99
486.25	27040.21
486.43	26724.24
486.61	27283.62
486.78	27084.68
486.96	27428.74
487.14	28112.17
487.32	27866.42
487.50	28266.65
487.68	28198.77
487.85	28971.15
488.03	28987.53
488.21	29605.44
488.39	29249.67
488.57	30000.99
488.75	29572.67
488.92	30473.78
489.10	30487.82
489.28	30387.18
489.46	30719.53
489.64	31161.89
489.81	31409.99
489.99	31372.54
490.17	31714.26
490.35	32247.90
490.53	31676.81
490.70	32858.78
490.88	32350.88
491.06	32622.39
491.24	32933.68
491.41	33043.68
491.59	33640.52
491.77	33172.41
491.95	33720.10
492.13	33771.59
492.30	34256.08
492.48	34242.04
492.66	34307.57
492.84	34558.01
493.01	35049.52
493.19	35143.14
493.37	35695.51
493.54	35681.47
493.72	35592.53
493.90	36297.03
494.08	36065.31
494.25	36786.20
494.43	36381.29
494.61	36624.70
494.79	37074.09
494.96	37352.61
495.14	37350.27
495.32	37404.10
495.49	37486.02
495.67	38162.43
495.85	37975.19
496.02	38239.67
496.20	38490.11
496.38	38520.54
496.55	39009.71
496.73	39580.80
496.91	39306.96
497.09	39571.44
497.26	39583.14
497.44	39576.12
497.62	39922.52
497.79	40575.53
497.97	40758.09
498.14	40638.72
498.32	41076.40
498.50	41141.94
498.67	41366.63
498.85	41457.91
499.03	41223.86
499.20	41614.72
499.38	41993.89
499.56	42525.19
499.73	42047.72
499.91	42305.18
500.08	42674.99
500.26	42504.13
500.44	42532.22
500.61	42705.41
500.79	42698.39
500.97	42892.66
501.14	43636.95
501.32	43501.20
501.49	43683.76
501.67	43519.92
501.84	43931.86
502.02	44128.46
502.20	44744.02
502.37	44559.12
502.55	44203.36
502.72	45045.95
502.90	44912.54
503.07	44996.80
503.25	44903.18
503.43	45052.97
503.60	45853.44
503.78	45532.78
503.95	45340.86
504.13	45626.40
504.30	46068.76
504.48	45710.66
504.65	45851.09
504.83	46295.80
505.01	46813.05
505.18	46504.10
505.36	47138.39
505.53	46681.98
505.71	46717.09
505.88	47040.09
506.06	46859.87
506.23	47274.14
506.41	46997.96
506.58	47594.79
506.76	47381.80
506.93	47257.76
507.11	47798.42
507.28	47793.74
507.46	48032.47
507.63	48428.02
507.81	48334.40
507.98	48378.87
508.16	48500.58
508.33	48835.28
508.50	48552.07
508.68	48734.63
508.85	49177.00
509.03	49270.62
509.20	49347.86
509.38	49607.65
509.55	49352.54
509.73	49841.71
509.90	49579.57
510.08	49858.09
510.25	49801.92
510.42	49982.14
510.60	50389.39
510.77	50719.41
510.95	50459.61
511.12	50543.87
511.30	50328.54
511.47	50586.00
511.64	50951.12
511.82	50923.04
511.99	51110.28
512.17	51157.09
512.34	51180.49
512.51	51512.85
512.69	51622.86
512.86	51353.69
513.04	52058.20
513.21	51786.69
513.38	52016.07
513.56	51887.34
513.73	51700.09
513.90	52079.26
514.08	51587.75
514.25	52189.27
514.43	52376.51
514.60	52210.33
514.77	52271.18
514.95	52718.23
515.12	52329.70
515.29	52460.77
515.47	52718.23
515.64	52825.89
515.81	52978.03
515.99	53008.45
516.16	53389.96
516.33	53099.73
516.51	53109.10
516.68	52989.73
516.85	53235.48
517.03	53305.70
517.20	53659.12
517.37	53593.59
517.54	53743.38
517.72	53785.51
517.89	53476.56
518.06	53584.22
518.24	53680.19
518.41	53776.15
518.58	54007.86
518.75	53792.53
518.93	54206.81
519.10	54059.35
519.27	54192.76
519.45	54124.89
519.62	54124.89
519.79	54181.06
519.96	54555.55
520.14	54429.16
520.31	54426.82
520.48	54962.80
520.65	54827.05
520.83	54766.20
521.00	54951.10
521.17	54883.22
521.34	54930.03
521.52	55229.62
521.69	55297.50
521.86	55379.42
522.03	55480.06
522.20	55538.57
522.38	55531.55
522.55	55402.82
522.72	55540.91
522.89	55601.77
523.07	55725.81
523.24	55739.86
523.41	55718.79
523.58	55655.60
523.75	56002.00
523.92	55819.44
524.10	55840.50
524.27	55868.59
524.44	56156.47
524.61	56437.34
524.78	56264.14
524.96	56348.40
525.13	56217.33
525.30	56231.37
525.47	56472.45
525.64	56624.58
525.81	56537.98
525.98	56755.65
526.16	56718.20
526.33	56765.01
526.50	56935.87
526.67	56502.87
526.84	56743.95
527.01	56591.81
527.18	56907.79
527.36	57137.16
527.53	57048.22
527.70	57277.59
527.87	57406.32
528.04	56891.40
528.21	57375.89
528.38	57116.09
528.55	57343.12
528.72	57240.14
528.89	57329.08
529.07	57226.10
529.24	57249.50
529.41	57581.86
529.58	57427.38
529.75	57560.79
529.92	57633.35
530.09	57504.62
530.26	57619.31
530.43	57865.06
530.60	57626.33
530.77	57846.34
530.94	57841.66
531.11	57600.58
531.28	57914.22
531.46	57815.91
531.63	58209.12
531.80	58089.76
531.97	58478.28
532.14	58150.61
532.31	58101.46
532.48	58157.63
532.65	58258.27
532.82	58073.37
532.99	58379.98
533.16	58314.45
533.33	58614.04
533.50	58656.17
533.67	58735.74
533.84	58431.47
534.01	58340.19
534.18	58218.49
534.35	58747.45
534.52	58564.88
534.69	58974.48
534.86	58871.49
535.03	58824.68
535.20	59007.25
535.37	58796.60
535.54	58988.52
535.71	58794.26
535.88	59025.97
536.05	58937.03
536.22	59044.69
536.38	59185.13
536.55	59274.07
536.72	58953.41
536.89	58932.35
537.06	59084.48
537.23	59264.70
537.40	59299.81
537.57	59227.26
537.74	59341.94
537.91	59606.42
538.08	59278.75
538.25	59423.86
538.42	59346.62
538.59	59669.62
538.75	59250.66
538.92	59435.56
539.09	59597.06
539.26	59805.37
539.43	59678.98
539.60	59882.61
539.77	59615.79
539.94	59934.10
540.11	59751.54
540.28	60093.25
540.44	59810.05
540.61	59655.57
540.78	59985.59
540.95	60081.55
541.12	60168.15
541.29	60069.85
541.46	60186.88
541.62	60011.34
541.79	60076.87
541.96	59833.46
542.13	60121.34
542.30	60229.01
542.47	60285.18
542.63	60179.85
542.80	60477.10
542.97	60584.77
543.14	60559.02
543.31	60409.23
543.48	60629.24
543.64	60718.18
543.81	60907.76
543.98	60783.71
544.15	60701.79
544.32	60781.37
544.48	60996.70
544.65	60769.67
544.82	60921.80
544.99	60687.75
545.16	60884.36
545.32	60891.38
545.49	61027.13
545.66	61137.13
545.83	61144.16
546.00	61329.06
546.16	61069.26
546.33	60748.60
546.50	60987.34
546.67	61102.03
546.83	60786.05
547.00	61031.81
547.17	61291.61
547.34	61134.79
547.50	61413.32
547.67	61476.51
547.84	61385.23
548.00	61499.92
548.17	61261.18
548.34	61518.64
548.51	61605.24
548.67	61488.21
548.84	61518.64
549.01	61518.64
549.18	61546.73
549.34	61572.47
549.51	61446.08
549.68	61609.92
549.84	61506.94
550.01	61656.73
550.18	61387.57
550.34	61724.61
550.51	61598.22
550.68	61879.08
550.84	61628.65
551.01	61799.50
551.18	61567.79
551.34	61586.52
551.51	61843.98
551.68	61890.79
551.84	61963.34
552.01	61874.40
552.18	61991.43
552.34	61836.95
552.51	62014.83
552.68	61914.19
552.84	62024.20
553.01	62063.99
553.18	61935.26
553.34	62347.19
553.51	62000.79
553.67	62295.70
553.84	62489.96
554.01	62337.83
554.17	62319.10
554.34	62424.43
554.51	62267.61
554.67	62358.89
554.84	62419.75
555.00	62220.80
555.17	62396.34
555.33	62555.50
555.50	62302.72
555.67	62433.79
555.83	62578.90
556.00	62321.44
556.16	62518.05
556.33	62663.16
556.50	62595.29
556.66	62492.30
556.83	62433.79
556.99	62911.26
557.16	62688.91
557.32	62731.04
557.49	62862.11
557.65	62506.35
557.82	62536.77
557.98	62667.84
558.15	62726.36
558.32	62855.09
558.48	62829.34
558.65	62901.90
558.81	62829.34
558.98	62873.81
559.14	62929.98
559.31	62759.12
559.47	62777.85
559.64	63023.61
559.80	62981.48
559.97	63164.04
560.13	62890.19
560.30	63091.48
560.46	63119.57
560.63	63037.65
560.79	63016.58
560.96	63138.29
561.12	63009.56
561.29	63070.42
561.45	63044.67
561.61	63121.91
561.78	63140.63
561.94	63386.39
562.11	63171.06
562.27	63168.72
562.44	63229.57
562.60	63054.03
562.77	63086.80
562.93	63224.89
563.10	63318.51
563.26	63157.02
563.42	63536.18
563.59	63437.88
563.75	63419.16
563.92	63337.24
564.08	63374.69
564.24	63337.24
564.41	63281.06
564.57	63414.47
564.74	63309.15
564.90	63428.52
565.07	63362.98
565.23	63512.78
565.39	63669.59
565.56	63491.71
565.72	63370.00
565.88	63423.84
566.05	63381.71
566.21	63362.98
566.38	63381.71
566.54	63594.70
566.70	63795.98
566.87	63674.27
567.03	63688.32
567.19	63760.87
567.36	63676.61
567.52	63444.90
567.68	63454.26
567.85	63426.18
568.01	63512.78
568.17	63655.55
568.34	63627.46
568.50	63760.87
568.66	63749.17
568.83	63676.61
568.99	63714.06
569.15	63791.30
569.32	63547.89
569.48	63505.76
569.64	63732.79
569.81	63538.52
569.97	63744.49
570.13	63814.71
570.30	63678.96
570.46	63798.32
570.62	63711.72
570.78	63725.77
570.95	63793.64
571.11	63730.45
571.27	63655.55
571.43	63824.07
571.60	63955.14
571.76	63929.39
571.92	63746.83
572.09	63903.65
572.25	63920.03
572.41	63929.39
572.57	63807.68
572.74	64051.10
572.90	63674.27
573.06	63849.81
573.22	63774.92
573.38	63781.94
573.55	63978.54
573.71	64034.72
573.87	64060.46
574.03	63917.69
574.20	63920.03
574.36	63838.11
574.52	63756.19
574.68	64081.53
574.84	63936.41
575.01	63873.22
575.17	63884.92
575.33	64025.35
575.49	63861.52
575.65	64065.14
575.82	64214.94
575.98	64081.53
576.14	64151.74
576.30	63877.90
576.46	64027.70
576.62	63770.24
576.79	64006.63
576.95	64011.31
577.11	64051.10
577.27	63994.93
577.43	64090.89
577.59	64065.14
577.75	64093.23
577.92	63920.03
578.08	63976.20
578.24	64037.06
578.40	64109.61
578.56	64135.36
578.72	64259.41
578.88	64079.19
579.04	64338.99
579.21	64095.57
579.37	64264.09
579.53	64385.80
579.69	64144.72
579.85	64175.15
580.01	64172.81
580.17	64175.15
580.33	64111.95
580.49	64186.85
580.65	64114.29
580.82	64346.01
580.98	64039.40
581.14	64100.25
581.30	64247.71
581.46	64008.97
581.62	64149.40
581.78	64015.99
581.94	64261.75
582.10	64015.99
582.26	64217.28
582.42	64402.18
582.58	64210.26
582.74	64306.22
582.90	64498.14
583.06	64289.84
583.22	64250.05
583.38	64280.47
583.54	64343.67
583.70	64097.91
583.86	64151.74
584.02	64259.41
584.18	64364.73
584.34	64252.39
584.50	64278.13
584.66	64177.49
584.82	64128.34
584.98	64402.18
585.14	64210.26
585.30	64093.23
585.46	64149.40
585.62	64018.33
585.78	64282.81
585.94	64217.28
586.10	64306.22
586.26	64406.86
586.42	64537.93
586.58	64458.35
586.74	64254.73
586.90	64296.86
587.06	64243.02
587.22	64357.71
587.38	64224.30
587.54	64479.42
587.70	64498.14
587.86	64336.65
588.02	64381.12
588.18	64502.82
588.34	64273.45
588.49	64374.09
