SpectraSuite Data File
++++++++++++++++++++++++++++++++++++
Date: Fri Oct 04 11:48:33 GMT-05:00 2013
User: price-jones
Dark Spectrum Present: No
Reference Spectrum Present: No
Number of Sampled Component Spectra: 1
Spectrometers: USB2+H05261
Integration Time (usec): 100000 (USB2+H05261)
Spectra Averaged: 1 (USB2+H05261)
Boxcar Smoothing: 0 (USB2+H05261)
Correct for Electrical Dark: No (USB2+H05261)
Strobe/Lamp Enabled: No (USB2+H05261)
Correct for Detector Non-linearity: No (USB2+H05261)
Correct for Stray Light: No (USB2+H05261)
Number of Pixels in Processed Spectrum: 2048
>>>>>Begin Processed Spectral Data<<<<<
365.73	0.00
365.92	0.00
366.12	0.00
366.32	0.00
366.52	0.00
366.72	0.00
366.91	0.00
367.11	0.00
367.31	0.00
367.51	0.00
367.70	0.00
367.90	0.00
368.10	0.00
368.30	0.00
368.49	0.00
368.69	0.00
368.89	0.00
369.09	0.00
369.28	0.00
369.48	0.00
369.68	0.00
369.87	9.36
370.07	0.00
370.27	46.81
370.47	215.33
370.66	362.78
370.86	360.44
371.06	400.23
371.25	538.32
371.45	379.17
371.65	491.51
371.84	437.68
372.04	433.00
372.24	458.74
372.44	447.04
372.63	491.51
372.83	554.71
373.03	496.19
373.22	552.37
373.42	550.03
373.62	648.33
373.81	564.07
374.01	641.31
374.21	571.09
374.40	655.35
374.60	599.18
374.79	606.20
374.99	617.90
375.19	645.99
375.38	624.92
375.58	585.13
375.78	650.67
375.97	648.33
376.17	664.71
376.37	596.84
376.56	690.46
376.76	674.07
376.95	674.07
377.15	730.25
377.35	702.16
377.54	636.63
377.74	777.06
377.93	681.10
378.13	709.18
378.33	720.88
378.52	725.57
378.72	746.63
378.91	760.67
379.11	755.99
379.31	695.14
379.50	669.39
379.70	779.40
379.89	753.65
380.09	791.10
380.28	774.72
380.48	753.65
380.68	791.10
380.87	667.05
381.07	786.42
381.26	814.51
381.46	809.83
381.65	732.59
381.85	781.74
382.04	830.89
382.24	889.40
382.43	882.38
382.63	856.64
382.83	833.23
383.02	997.07
383.22	968.98
383.41	816.85
383.61	901.11
383.80	922.17
384.00	917.49
384.19	887.06
384.39	915.15
384.58	887.06
384.78	999.41
384.97	994.73
385.17	936.21
385.36	961.96
385.56	990.05
385.75	976.00
385.95	922.17
386.14	959.62
386.34	929.19
386.53	936.21
386.72	1036.86
386.92	968.98
387.11	992.39
387.31	1100.05
387.50	1020.47
387.70	1053.24
387.89	964.30
388.09	1097.71
388.28	1067.28
388.48	1029.84
388.67	1032.18
388.86	1107.07
389.06	1137.50
389.25	1062.60
389.45	1086.01
389.64	1083.67
389.84	1160.91
390.03	1233.46
390.22	1259.21
390.42	1102.39
390.61	1207.72
390.81	1184.31
391.00	1238.14
391.19	1263.89
391.39	1224.10
391.58	1167.93
391.78	1287.29
391.97	1231.12
392.16	1226.44
392.36	1266.23
392.55	1322.40
392.75	1270.91
392.94	1364.53
393.13	1284.95
393.33	1214.74
393.52	1294.32
393.71	1315.38
393.91	1301.34
394.10	1383.26
394.29	1378.58
394.49	1338.79
394.68	1362.19
394.88	1404.32
395.07	1451.13
395.26	1455.81
395.46	1432.41
395.65	1556.46
395.84	1465.18
396.04	1474.54
396.23	1544.75
396.42	1504.96
396.62	1593.90
396.81	1528.37
397.00	1486.24
397.19	1563.48
397.39	1577.52
397.58	1675.82
397.77	1535.39
397.97	1743.70
398.16	1722.63
398.35	1682.85
398.55	1760.08
398.74	1764.76
398.93	1771.79
399.12	1764.76
399.32	1673.48
399.51	1671.14
399.70	1696.89
399.90	1783.49
400.09	1823.28
400.28	1902.86
400.47	1872.43
400.67	1928.60
400.86	1905.20
401.05	1930.94
401.24	1928.60
401.44	1856.04
401.63	2050.31
401.82	1893.49
402.01	2005.84
402.21	2104.14
402.40	2059.67
402.59	1891.15
402.78	1996.48
402.97	2036.27
403.17	2090.10
403.36	2059.67
403.55	1984.77
403.74	2190.74
403.93	2246.91
404.13	2193.08
404.32	2218.83
404.51	2143.93
404.70	2223.51
404.89	2153.29
405.09	2298.41
405.28	2235.21
405.47	2380.32
405.66	2291.38
405.85	2303.09
406.05	2403.73
406.24	2312.45
406.43	2417.77
406.62	2408.41
406.81	2616.72
407.00	2459.90
407.20	2499.69
407.39	2490.33
407.58	2483.31
407.77	2485.65
407.96	2544.16
408.15	2675.23
408.34	2696.30
408.54	2642.46
408.73	2731.41
408.92	2778.22
409.11	2813.32
409.30	2733.75
409.49	2796.94
409.68	2822.69
409.87	2857.79
410.07	2946.73
410.26	2937.37
410.45	3056.74
410.64	2949.08
410.83	2942.05
411.02	2878.86
411.21	3126.96
411.40	3012.27
411.59	3112.91
411.78	3091.85
411.98	3159.72
412.17	3126.96
412.36	3080.14
412.55	3239.30
412.74	3286.11
412.93	3279.09
413.12	3269.73
413.31	3562.30
413.50	3363.35
413.69	3592.72
413.88	3550.59
414.07	3482.72
414.26	3531.87
414.45	3662.94
414.64	3515.48
414.83	3559.95
415.02	3602.08
415.22	3772.94
415.41	3824.44
415.60	3819.75
415.79	3761.24
415.98	3859.54
416.17	3929.76
416.36	3904.01
416.55	3955.51
416.74	4081.89
416.93	4081.89
417.12	4163.81
417.31	4058.49
417.50	4142.75
417.69	4180.20
417.88	4182.54
418.07	4128.70
418.26	4332.33
418.45	4287.86
418.64	4470.42
418.83	4393.19
419.02	4451.70
419.21	4423.61
419.39	4479.79
419.58	4505.53
419.77	4484.47
419.96	4498.51
420.15	4587.45
420.34	4610.86
420.53	4622.56
420.72	4580.43
420.91	4631.92
421.10	4737.24
421.29	4784.06
421.48	4737.24
421.67	4865.97
421.86	4685.75
422.05	4779.37
422.24	4470.42
422.43	4737.24
422.61	4706.82
422.80	4936.19
422.99	4861.29
423.18	4910.44
423.37	4865.97
423.56	4821.50
423.75	4823.84
423.94	4819.16
424.13	4578.09
424.32	4674.05
424.50	5006.41
424.69	4938.53
424.88	5053.22
425.07	4849.59
425.26	4851.93
425.45	4968.96
425.64	4950.23
425.83	5022.79
426.01	4940.87
426.20	5118.75
426.39	5020.45
426.58	5097.69
426.77	5057.90
426.96	5198.33
427.15	5114.07
427.33	5156.20
427.52	5102.37
427.71	5165.56
427.90	5153.86
428.09	5177.26
428.28	5322.38
428.46	5425.36
428.65	5521.32
428.84	5444.09
429.03	5408.98
429.22	5263.86
429.40	5476.85
429.59	5582.18
429.78	5308.34
429.97	5053.22
430.16	5310.68
430.34	5472.17
430.53	5671.12
430.72	5710.91
430.91	5579.84
431.10	5575.16
431.28	5682.82
431.47	5696.86
431.66	5867.72
431.85	5636.01
432.03	5935.60
432.22	5928.58
432.41	5970.71
432.60	5949.64
432.79	5769.42
432.97	5942.62
433.16	6001.13
433.35	5769.42
433.54	5982.41
433.72	6057.31
433.91	6052.63
434.10	6108.80
434.28	6054.97
434.47	6174.33
434.66	6277.32
434.85	6232.85
435.03	6263.27
435.22	6310.08
435.41	6443.49
435.59	6354.55
435.78	6497.33
435.97	6525.41
436.16	6452.86
436.34	6490.31
436.53	6487.96
436.72	6691.59
436.90	6396.68
437.09	6612.01
437.28	6373.28
437.46	6705.63
437.65	6651.80
437.84	6759.47
438.02	6853.09
438.21	6773.51
438.40	6817.98
438.58	6916.28
438.77	6895.22
438.96	6906.92
439.14	7075.44
439.33	7070.76
439.52	7185.44
439.70	7112.89
439.89	7309.49
440.08	7384.39
440.26	7332.90
440.45	7288.43
440.63	7466.31
440.82	7639.51
441.01	7606.74
441.19	7541.21
441.38	7878.24
441.57	7786.96
441.75	7983.57
441.94	8088.89
442.12	7920.37
442.31	8053.78
442.50	8060.80
442.68	7990.59
442.87	8166.13
443.05	8074.85
443.24	8264.43
443.43	8276.13
443.61	8180.17
443.80	8446.99
443.98	7990.59
444.17	7843.14
444.35	8297.20
444.54	8531.25
444.73	8236.35
444.91	8311.24
445.10	8344.01
445.28	8449.33
445.47	8313.58
445.65	8348.69
445.84	8388.48
446.02	8475.08
446.21	8432.95
446.39	8362.73
446.58	8557.00
446.77	8430.61
446.95	8184.85
447.14	8524.23
447.32	8566.36
447.51	8325.29
447.69	8468.06
447.88	8798.07
448.06	8622.53
448.25	8404.86
448.43	8812.12
448.62	8496.14
448.80	8727.86
448.99	8868.29
449.17	8784.03
449.36	8507.85
449.54	8872.97
449.73	9078.94
449.91	8917.44
450.10	8961.91
450.28	9020.42
450.46	8943.19
450.65	8896.38
450.83	9078.94
451.02	9034.47
451.20	9376.19
451.39	9308.31
451.57	9179.58
451.76	9057.87
451.94	9441.72
452.13	9296.61
452.31	9380.87
452.49	9298.95
452.68	9289.59
452.86	9385.55
453.05	9401.93
453.23	9598.54
453.42	9523.64
453.60	9387.89
453.78	9434.70
453.97	9724.93
454.15	9504.92
454.34	9558.75
454.52	9884.08
454.70	9678.12
454.89	9743.65
455.07	9703.86
455.26	10090.05
455.44	9720.24
455.62	9907.49
455.81	9928.55
455.99	10178.99
456.17	10073.67
456.36	10031.54
456.54	10377.94
456.73	10527.73
456.91	10630.71
457.09	10293.68
457.28	10689.23
457.46	10314.74
457.64	10700.93
457.83	10663.48
458.01	10511.35
458.19	10705.61
458.38	10684.55
458.56	10970.09
458.74	10672.84
458.93	10689.23
459.11	10754.76
459.29	10888.17
459.48	10747.74
459.66	11091.80
459.84	10885.83
460.03	11037.97
460.21	11124.57
460.39	11358.62
460.57	11002.86
460.76	11250.96
460.94	11098.82
461.12	11131.59
461.31	11108.18
461.49	11349.26
461.67	11169.04
461.85	11279.04
462.04	11358.62
462.22	11899.28
462.40	11445.22
462.59	11641.82
462.77	11541.18
462.95	11503.73
463.13	11667.57
463.32	11709.70
463.50	11768.21
463.68	11786.94
463.86	11805.66
464.05	11674.59
464.23	11569.27
464.41	11934.39
464.59	11742.47
464.78	12109.93
464.96	12009.29
465.14	11824.39
465.32	12313.56
465.50	12280.79
465.69	12184.83
465.87	12250.36
466.05	12002.27
466.23	12297.17
466.41	12362.71
466.60	12587.40
466.78	12205.89
466.96	12301.86
467.14	12236.32
467.32	12280.79
467.51	12755.92
467.69	12372.07
467.87	12922.10
468.05	12657.62
468.23	12498.46
468.41	12449.31
468.60	12552.29
468.78	12744.22
468.96	12674.00
469.14	12943.16
469.32	13153.81
469.50	12617.83
469.69	12943.16
469.87	13104.66
470.05	13249.77
470.23	13088.28
470.41	13121.04
470.59	13425.31
470.77	13198.28
470.95	13542.34
471.14	13626.60
471.32	13099.98
471.50	13696.82
471.68	13621.92
471.86	13818.52
472.04	13495.53
472.22	14279.61
472.40	13767.03
472.58	13933.21
472.77	13877.04
472.95	14429.40
473.13	14546.43
473.31	14120.45
473.49	14420.04
473.67	14321.74
473.85	14544.09
474.03	14478.55
474.21	14555.79
474.39	14789.85
474.57	14778.14
474.75	15260.29
474.93	15051.99
475.12	15037.94
475.30	15417.11
475.48	15288.38
475.66	15452.22
475.84	15838.41
476.02	15632.44
476.20	15438.17
476.38	16016.29
476.56	16248.00
476.74	16067.78
476.92	16119.27
477.10	16130.97
477.28	16437.58
477.46	16451.63
477.64	16428.22
477.82	16814.41
478.00	17144.42
478.18	17177.19
478.36	17188.89
478.54	17291.88
478.72	17612.53
478.90	17591.47
479.08	17617.21
479.26	17930.84
479.44	18122.77
479.62	17951.91
479.80	17921.48
479.98	18277.24
480.16	18541.72
480.34	18642.37
480.52	18782.80
480.70	19089.41
480.88	18567.47
481.06	18937.27
481.24	18682.16
481.41	19391.34
481.59	19421.77
481.77	19807.95
481.95	19499.00
482.13	19882.85
482.31	20142.65
482.49	20615.44
482.67	20407.13
482.85	20765.23
483.03	20805.02
483.21	21046.10
483.39	21472.07
483.57	21359.73
483.74	21376.11
483.92	21736.56
484.10	21624.21
484.28	21874.65
484.46	22485.53
484.64	22878.74
484.82	22066.57
485.00	22359.14
485.18	23054.28
485.35	23154.92
485.53	23257.90
485.71	23314.08
485.89	23807.93
486.07	23625.37
486.25	23726.01
486.43	24224.54
486.61	24341.57
486.78	24149.65
486.96	24500.73
487.14	24849.47
487.32	24751.17
487.50	25165.44
487.68	25198.21
487.85	25689.72
488.03	26143.78
488.21	26141.44
488.39	26199.96
488.57	26235.06
488.75	26728.92
488.92	26923.18
489.10	27262.56
489.28	27037.87
489.46	27466.19
489.64	27358.52
489.81	28339.21
489.99	27997.49
490.17	27800.88
490.35	28538.15
490.53	28748.80
490.70	28872.85
490.88	28629.43
491.06	29567.99
491.24	29167.76
491.41	29228.61
491.59	29844.17
491.77	29979.92
491.95	29736.51
492.13	29869.92
492.30	30569.74
492.48	30527.61
492.66	30862.30
492.84	30848.26
493.01	31131.47
493.19	31370.20
493.37	31505.95
493.54	31421.69
493.72	31835.97
493.90	31990.44
494.08	32320.46
494.25	32268.97
494.43	32697.28
494.61	32830.69
494.79	32833.04
494.96	32889.21
495.14	33120.92
495.32	33352.63
495.49	33893.30
495.67	33722.44
495.85	34071.18
496.02	34080.54
496.20	34199.91
496.38	33965.85
496.55	34391.83
496.73	35211.02
496.91	35356.13
497.09	35234.42
497.26	35957.65
497.44	35236.77
497.62	35761.05
497.79	36070.00
497.97	36137.87
498.14	36381.29
498.32	36697.26
498.50	36905.57
498.67	37046.00
498.85	36905.57
499.03	36975.78
499.20	37053.02
499.38	37450.91
499.56	37633.47
499.73	37865.19
499.91	38120.31
500.08	38110.94
500.26	37912.00
500.44	37841.78
500.61	38895.02
500.79	38330.95
500.97	38789.70
501.14	39009.71
501.32	39147.80
501.49	39002.69
501.67	38799.06
501.84	39416.96
502.02	39676.76
502.20	39739.96
502.37	39974.01
502.55	39679.10
502.72	39864.00
502.90	40421.05
503.07	39784.43
503.25	40418.71
503.43	40549.78
503.60	40605.95
503.78	41010.87
503.95	40942.99
504.13	40891.50
504.30	41347.90
504.48	41132.57
504.65	41724.73
504.83	41614.72
505.01	41867.50
505.18	41558.55
505.36	41865.16
505.53	41998.57
505.71	42115.60
505.88	42277.10
506.06	42174.11
506.23	42799.04
506.41	42239.65
506.58	42562.64
506.76	42955.85
506.93	42941.81
507.11	42518.17
507.28	43035.43
507.46	43665.03
507.63	43288.21
507.81	43985.69
507.98	43807.81
508.16	43562.05
508.33	43206.29
508.50	43646.31
508.68	44051.22
508.85	44720.62
509.03	44343.79
509.20	44802.53
509.38	44868.07
509.55	45125.53
509.73	45029.57
509.90	45212.13
510.08	45230.85
510.25	45549.17
510.42	45202.77
510.60	45345.54
510.77	45696.62
510.95	45727.05
511.12	45558.53
511.30	45663.85
511.47	46153.02
511.64	45872.16
511.82	46501.76
511.99	46487.72
512.17	46974.55
512.34	46553.26
512.51	46696.03
512.69	47019.02
512.86	46698.37
513.04	47117.32
513.21	47098.60
513.38	47236.69
513.56	47557.35
513.73	47262.44
513.90	47526.92
514.08	47320.95
514.25	47852.25
514.43	47873.32
514.60	47777.36
514.77	48058.22
514.95	48514.62
515.12	47978.64
515.29	48018.43
515.47	48687.82
515.64	48659.74
515.81	48868.05
515.99	48568.46
516.16	49268.28
516.33	48889.11
516.51	49155.93
516.68	48285.25
516.85	48800.17
517.03	49123.16
517.20	49219.13
517.37	49612.34
517.54	49574.89
517.72	49518.71
517.89	49432.11
518.06	49588.93
518.24	49666.17
518.41	49675.53
518.58	49872.14
518.75	50057.04
518.93	50227.90
519.10	50094.49
519.27	50443.23
519.45	49858.09
519.62	50253.64
519.79	50354.29
519.96	50333.22
520.14	50759.20
520.31	50567.27
520.48	50466.63
520.65	50679.62
520.83	51166.45
521.00	51194.54
521.17	51180.49
521.34	51105.60
521.52	51587.75
521.69	51386.46
521.86	51178.15
522.03	51515.19
522.20	51655.62
522.38	51578.39
522.55	51746.90
522.72	51519.87
522.89	51606.47
523.07	52051.17
523.24	51845.21
523.41	51906.06
523.58	51840.53
523.75	51711.80
523.92	51915.42
524.10	52095.64
524.27	52299.27
524.44	52268.84
524.61	52781.42
524.78	52610.56
524.96	52570.77
525.13	52739.29
525.30	52685.46
525.47	52765.04
525.64	52739.29
525.81	53155.91
525.98	53242.51
526.16	52985.05
526.33	53116.12
526.50	53193.36
526.67	52898.45
526.84	53183.99
527.01	53078.67
527.18	53181.65
527.36	53228.46
527.53	53432.09
527.70	53558.48
527.87	53741.04
528.04	53310.38
528.21	53631.04
528.38	53577.20
528.55	53977.43
528.72	53684.87
528.89	53621.67
529.07	53570.18
529.24	53708.27
529.41	54035.95
529.58	53888.49
529.75	53886.15
529.92	54045.31
530.09	54363.62
530.26	54277.02
530.43	54356.60
530.60	54326.17
530.77	54110.85
530.94	54405.75
531.11	54248.94
531.28	54262.98
531.46	54501.71
531.63	54674.91
531.80	54703.00
531.97	54841.09
532.14	55058.76
532.31	54504.06
532.48	54808.32
532.65	54908.97
532.82	54913.65
532.99	55051.74
533.16	54773.22
533.33	54939.39
533.50	55360.69
533.67	55084.51
533.84	55065.78
534.01	54897.27
534.18	54946.42
534.35	55292.82
534.52	55571.34
534.69	55632.19
534.86	55664.96
535.03	55433.25
535.20	55334.95
535.37	55681.34
535.54	55238.98
535.71	55281.11
535.88	55590.06
536.05	55810.07
536.22	56104.98
536.38	56093.28
536.55	55770.28
536.72	55812.41
536.89	55917.74
537.06	55650.92
537.23	55950.51
537.40	55945.83
537.57	55891.99
537.74	55941.14
537.91	56395.21
538.08	56154.13
538.25	56104.98
538.42	56126.05
538.59	56189.24
538.75	55962.21
538.92	55990.30
539.09	56336.69
539.26	56423.29
539.43	56512.23
539.60	56547.34
539.77	56313.29
539.94	56385.85
540.11	56612.88
540.28	56652.67
540.44	56727.56
540.61	56743.95
540.78	56488.83
540.95	56795.44
541.12	56619.90
541.29	57010.77
541.46	56573.09
541.62	56512.23
541.79	56610.54
541.96	56313.29
542.13	56596.49
542.30	56800.12
542.47	56750.97
542.63	57174.61
542.80	56846.93
542.97	57155.88
543.14	57235.46
543.31	57050.56
543.48	57137.16
543.64	57418.02
543.81	57343.12
543.98	57537.39
544.15	57439.09
544.32	57635.69
544.48	57425.04
544.65	57258.87
544.82	57256.53
544.99	57471.85
545.16	57450.79
545.32	57631.01
545.49	57982.09
545.66	57771.44
545.83	57853.36
546.00	57818.25
546.16	57755.06
546.33	57661.44
546.50	57490.58
546.67	57902.51
546.83	57645.05
547.00	57876.77
547.17	58049.97
547.34	57932.94
547.50	58108.48
547.67	58169.33
547.84	58134.23
548.00	58082.73
548.17	58082.73
548.34	58225.51
548.51	58277.00
548.67	58124.86
548.84	58475.94
549.01	58440.84
549.18	58152.95
549.34	58277.00
549.51	58344.87
549.68	58429.13
549.84	58181.04
550.01	58209.12
550.18	58295.72
550.34	58279.34
550.51	58529.78
550.68	58571.91
550.84	58260.62
551.01	58471.26
551.18	58520.41
551.34	58232.53
551.51	58557.86
551.68	58384.66
551.84	58658.51
552.01	58681.91
552.18	58621.06
552.34	58756.81
552.51	58637.44
552.68	58604.67
552.84	58670.21
553.01	58831.71
553.18	59011.93
553.34	58990.86
553.51	59058.74
553.67	58918.31
553.84	59180.45
554.01	58901.92
554.17	59042.35
554.34	58983.84
554.51	58810.64
554.67	59014.27
554.84	58899.58
555.00	59018.95
555.17	59084.48
555.33	59194.49
555.50	58827.02
555.67	59093.85
555.83	58913.62
556.00	59068.10
556.16	59253.00
556.33	59157.04
556.50	59260.02
556.66	59358.33
556.83	59395.77
556.99	59449.61
557.16	59606.42
557.32	59393.43
557.49	59400.46
557.65	59320.88
557.82	59292.79
557.98	59386.41
558.15	59547.91
558.32	59470.67
558.48	59386.41
558.65	59639.19
558.81	59454.29
558.98	59547.91
559.14	59405.14
559.31	59327.90
559.47	59533.87
559.64	59716.43
559.80	59681.32
559.97	59880.27
560.13	59540.89
560.30	59880.27
560.46	59557.27
560.63	59756.22
560.79	59793.67
560.96	59760.90
561.12	59702.38
561.29	59571.32
561.45	59723.45
561.61	59852.18
561.78	59756.22
561.94	59945.80
562.11	59756.22
562.27	59901.33
562.44	59690.68
562.60	59732.81
562.77	59833.46
562.93	59608.76
563.10	59903.67
563.26	59798.35
563.42	60055.81
563.59	60065.17
563.75	59920.05
563.92	59962.18
564.08	59639.19
564.24	59854.52
564.41	59798.35
564.57	59966.87
564.74	60041.76
564.90	59889.63
565.07	60191.56
565.23	60062.83
565.39	60060.49
565.56	60100.28
565.72	59873.24
565.88	60060.49
566.05	59997.29
566.21	59952.82
566.38	60004.31
566.54	60135.38
566.70	60294.54
566.87	60252.41
567.03	60102.62
567.19	60374.12
567.36	60343.69
567.52	60210.28
567.68	60051.12
567.85	60149.43
568.01	60266.45
568.17	60177.51
568.34	60317.95
568.50	60016.02
568.66	60226.66
568.83	60327.31
568.99	60161.13
569.15	60126.02
569.32	60001.97
569.48	60097.94
569.64	60275.82
569.81	60163.47
569.97	60315.61
570.13	60191.56
570.30	60350.71
570.46	60516.89
570.62	60308.58
570.78	60177.51
570.95	60168.15
571.11	59976.23
571.27	60170.49
571.43	60254.75
571.60	60231.35
571.76	60523.91
571.92	60355.39
572.09	60575.40
572.25	60437.31
572.41	60486.46
572.57	60533.28
572.74	60404.55
572.90	60369.44
573.06	60219.64
573.22	60439.65
573.38	60357.74
573.55	60577.75
573.71	60800.10
573.87	60544.98
574.03	60434.97
574.20	60418.59
574.36	60416.25
574.52	60399.86
574.68	60458.38
574.84	60441.99
575.01	60528.59
575.17	60589.45
575.33	60439.65
575.49	60416.25
575.65	60505.19
575.82	60750.94
575.98	60530.93
576.14	60308.58
576.30	60374.12
576.46	60505.19
576.62	60477.10
576.79	60556.68
576.95	60322.63
577.11	60631.58
577.27	60694.77
577.43	60530.93
577.59	60603.49
577.75	60315.61
577.92	60200.92
578.08	60605.83
578.24	60306.24
578.40	60467.74
578.56	60645.62
578.72	60477.10
578.88	60835.20
579.04	60797.76
579.21	60615.19
579.37	60554.34
579.53	60516.89
579.69	60610.51
579.85	60498.17
580.01	60687.75
580.17	60575.40
580.33	60388.16
580.49	60757.97
580.65	60498.17
580.82	60741.58
580.98	60575.40
581.14	60559.02
581.30	60570.72
581.46	60631.58
581.62	60659.66
581.78	60561.36
581.94	60589.45
582.10	60484.12
582.26	60739.24
582.42	60743.92
582.58	60945.21
582.74	60671.37
582.90	60669.03
583.06	60727.54
583.22	60556.68
583.38	60449.02
583.54	60870.31
583.70	60589.45
583.86	60662.00
584.02	60645.62
584.18	60856.27
584.34	60713.50
584.50	60755.63
584.66	60860.95
584.82	60434.97
584.98	60832.86
585.14	60846.91
585.30	60430.29
585.46	60694.77
585.62	60629.24
585.78	60781.37
585.94	60406.89
586.10	60849.25
586.26	60870.31
586.42	60863.29
586.58	61052.87
586.74	60591.79
586.90	60603.49
587.06	60669.03
587.22	60736.90
587.38	60554.34
587.54	60804.78
587.70	60931.17
587.86	61118.41
588.02	61036.49
588.18	60757.97
588.34	61104.37
588.49	60762.65
588.65	60612.85
588.81	60811.80
588.97	60739.24
589.13	60626.90
