SpectraSuite Data File
++++++++++++++++++++++++++++++++++++
Date: Fri Oct 04 11:48:24 GMT-05:00 2013
User: price-jones
Dark Spectrum Present: No
Reference Spectrum Present: No
Number of Sampled Component Spectra: 1
Spectrometers: USB2+H05261
Integration Time (usec): 100000 (USB2+H05261)
Spectra Averaged: 1 (USB2+H05261)
Boxcar Smoothing: 0 (USB2+H05261)
Correct for Electrical Dark: No (USB2+H05261)
Strobe/Lamp Enabled: No (USB2+H05261)
Correct for Detector Non-linearity: No (USB2+H05261)
Correct for Stray Light: No (USB2+H05261)
Number of Pixels in Processed Spectrum: 2048
>>>>>Begin Processed Spectral Data<<<<<
365.73	56.17
365.92	56.17
366.12	56.17
366.32	0.00
366.52	0.00
366.72	7.02
366.91	0.00
367.11	0.00
367.31	0.00
367.51	0.00
367.70	0.00
367.90	0.00
368.10	0.00
368.30	0.00
368.49	0.00
368.69	0.00
368.89	0.00
369.09	0.00
369.28	0.00
369.48	0.00
369.68	0.00
369.87	7.02
370.07	0.00
370.27	14.04
370.47	102.98
370.66	440.02
370.86	444.70
371.06	557.05
371.25	535.98
371.45	400.23
371.65	538.32
371.84	507.90
372.04	517.26
372.24	578.11
372.44	505.56
372.63	620.24
372.83	615.56
373.03	587.47
373.22	641.31
373.42	653.01
373.62	702.16
373.81	627.26
374.01	667.05
374.21	629.60
374.40	730.25
374.60	802.80
374.79	716.20
374.99	753.65
375.19	748.97
375.38	774.72
375.58	716.20
375.78	739.61
375.97	791.10
376.17	786.42
376.37	697.48
376.56	807.48
376.76	798.12
376.95	791.10
377.15	777.06
377.35	830.89
377.54	805.14
377.74	772.38
377.93	793.44
378.13	784.08
378.33	828.55
378.52	861.32
378.72	851.96
378.91	828.55
379.11	849.61
379.31	851.96
379.50	821.53
379.70	938.55
379.89	842.59
380.09	830.89
380.28	760.67
380.48	891.74
380.68	929.19
380.87	903.45
381.07	922.17
381.26	931.53
381.46	992.39
381.65	1004.09
381.85	905.79
382.04	905.79
382.24	931.53
382.43	929.19
382.63	1097.71
382.83	1071.97
383.02	1064.94
383.22	1015.79
383.41	1137.50
383.61	1088.35
383.80	1036.86
384.00	1071.97
384.19	1050.90
384.39	1034.52
384.58	1116.44
384.78	1104.73
384.97	1097.71
385.17	1135.16
385.36	1137.50
385.56	1135.16
385.75	1160.91
385.95	1041.54
386.14	1181.97
386.34	1160.91
386.53	1139.84
386.72	1116.44
386.92	1259.21
387.11	1203.04
387.31	1268.57
387.50	1114.10
387.70	1097.71
387.89	1238.14
388.09	1212.40
388.28	1184.31
388.48	1261.55
388.67	1266.23
388.86	1308.36
389.06	1303.68
389.25	1261.55
389.45	1387.94
389.64	1249.85
389.84	1249.85
390.03	1317.72
390.22	1336.45
390.42	1430.07
390.61	1263.89
390.81	1308.36
391.00	1383.26
391.19	1345.81
391.39	1441.77
391.58	1472.20
391.78	1467.52
391.97	1497.94
392.16	1376.24
392.36	1401.98
392.55	1465.18
392.75	1551.78
392.94	1474.54
393.13	1509.65
393.33	1516.67
393.52	1577.52
393.71	1570.50
393.91	1533.05
394.10	1603.27
394.29	1570.50
394.49	1596.25
394.68	1614.97
394.88	1659.44
395.07	1652.42
395.26	1706.25
395.46	1722.63
395.65	1806.89
395.84	1806.89
396.04	1750.72
396.23	1708.59
396.42	1783.49
396.62	1820.94
396.81	1797.53
397.00	1732.00
397.19	1771.79
397.39	1839.66
397.58	1884.13
397.77	1914.56
397.97	1827.96
398.16	1827.96
398.35	2017.54
398.55	1884.13
398.74	1905.20
398.93	1963.71
399.12	1926.26
399.32	1881.79
399.51	2017.54
399.70	2019.88
399.90	2111.16
400.09	2045.63
400.28	2129.89
400.47	2050.31
400.67	2106.48
400.86	2115.84
401.05	2118.18
401.24	2155.63
401.44	2181.38
401.63	2204.78
401.82	2209.47
402.01	2218.83
402.21	2230.53
402.40	2387.35
402.59	2305.43
402.78	2253.94
402.97	2399.05
403.17	2197.76
403.36	2218.83
403.55	2370.96
403.74	2441.18
403.93	2403.73
404.13	2609.70
404.32	2548.84
404.51	2548.84
404.70	2490.33
404.89	2576.93
405.09	2574.59
405.28	2532.46
405.47	2614.38
405.66	2705.66
405.85	2553.52
406.05	2586.29
406.24	2663.53
406.43	2682.25
406.62	2715.02
406.81	2829.71
407.00	2850.77
407.20	2726.72
407.39	2794.60
407.58	2736.09
407.77	2717.36
407.96	2928.01
408.15	2855.45
408.34	2855.45
408.54	2899.92
408.73	3005.25
408.92	2897.58
409.11	3009.93
409.30	3016.95
409.49	3023.97
409.68	3042.70
409.87	3166.74
410.07	3112.91
410.26	3129.30
410.45	3199.51
410.64	3110.57
410.83	3141.00
411.02	3267.39
411.21	3351.65
411.40	3323.56
411.59	3314.20
411.78	3389.10
411.98	3225.26
412.17	3442.93
412.36	3375.05
412.55	3499.10
412.74	3599.74
412.93	3581.02
413.12	3391.44
413.31	3770.60
413.50	3637.19
413.69	3669.96
413.88	3838.48
414.07	3927.42
414.26	3751.88
414.45	3716.77
414.64	3904.01
414.83	3925.08
415.02	3871.25
415.22	4035.08
415.41	3962.53
415.60	4077.21
415.79	3990.61
415.98	4175.52
416.17	4065.51
416.36	4234.03
416.55	4182.54
416.74	4304.25
416.93	4376.80
417.12	4271.48
417.31	4496.17
417.50	4388.50
417.69	4512.55
417.88	4671.71
418.07	4468.08
418.26	4461.06
418.45	4379.14
418.64	4786.40
418.83	4870.65
419.02	4667.03
419.21	4695.11
419.39	4624.90
419.58	4580.43
419.77	4596.81
419.96	4667.03
420.15	4842.57
420.34	4849.59
420.53	4889.38
420.72	4905.76
420.91	5111.73
421.10	4957.25
421.29	4959.60
421.48	4786.40
421.67	4994.70
421.86	4968.96
422.05	5125.77
422.24	4877.68
422.43	5090.67
422.61	5149.18
422.80	5174.92
422.99	5125.77
423.18	5275.57
423.37	5249.82
423.56	5291.95
423.75	5184.29
423.94	5050.88
424.13	4828.53
424.32	4889.38
424.50	5334.08
424.69	5352.81
424.88	5474.51
425.07	5205.35
425.26	5179.61
425.45	5233.44
425.64	5322.38
425.83	5100.03
426.01	5231.10
426.20	5357.49
426.39	5385.57
426.58	5327.06
426.77	5329.40
426.96	5275.57
427.15	5441.75
427.33	5331.74
427.52	5355.15
427.71	5582.18
427.90	5530.69
428.09	5671.12
428.28	5657.07
428.46	5610.26
428.65	5776.44
428.84	5951.98
429.03	5839.64
429.22	5502.60
429.40	5724.95
429.59	5895.81
429.78	5614.95
429.97	5636.01
430.16	5715.59
430.34	5942.62
430.53	6136.88
430.72	5914.53
430.91	5830.27
431.10	6015.18
431.28	6111.14
431.47	6064.33
431.66	6272.64
431.85	6066.67
432.03	6296.04
432.22	6274.98
432.41	6204.76
432.60	6361.58
432.79	6136.88
432.97	6356.90
433.16	6438.81
433.35	6239.87
433.54	6506.69
433.72	6574.56
433.91	6565.20
434.10	6509.03
434.28	6494.99
434.47	6628.40
434.66	6619.04
434.85	6729.04
435.03	6740.74
435.22	6633.08
435.41	6843.73
435.59	6757.13
435.78	6799.26
435.97	6923.30
436.16	6743.08
436.34	6843.73
436.53	7037.99
436.72	6836.70
436.90	6953.73
437.09	7035.65
437.28	6841.39
437.46	7180.76
437.65	7140.97
437.84	7248.64
438.02	7180.76
438.21	7108.21
438.40	6895.22
438.58	7262.68
438.77	7417.16
438.96	7358.64
439.14	7595.04
439.33	7595.04
439.52	7751.85
439.70	7590.36
439.89	7812.71
440.08	7698.02
440.26	7637.17
440.45	7857.18
440.63	7831.43
440.82	8133.36
441.01	8006.97
441.19	8184.85
441.38	8360.39
441.57	8145.06
441.75	8402.52
441.94	8425.93
442.12	8229.32
442.31	8681.05
442.50	8435.29
442.68	8521.89
442.87	8659.98
443.05	8664.66
443.24	8669.34
443.43	8744.24
443.61	8894.04
443.80	8894.04
443.98	8741.90
444.17	8428.27
444.35	8957.23
444.54	8992.34
444.73	8786.37
444.91	8730.20
445.10	8898.72
445.28	8690.41
445.47	8727.86
445.65	8884.67
445.84	9004.04
446.02	9174.90
446.21	8926.80
446.39	9174.90
446.58	9268.52
446.77	8922.12
446.95	8875.31
447.14	9036.81
447.32	9200.65
447.51	9212.35
447.69	8997.02
447.88	9071.92
448.06	9200.65
448.25	9001.70
448.43	9071.92
448.62	9158.52
448.80	9294.27
448.99	9202.99
449.17	9261.50
449.36	9210.01
449.54	9446.40
449.73	9467.47
449.91	9488.53
450.10	9696.84
450.28	9565.77
450.46	9551.73
450.65	9921.53
450.83	9802.16
451.02	9696.84
451.20	9863.02
451.39	9804.50
451.57	9657.05
451.76	9863.02
451.94	9750.67
452.13	9996.43
452.31	10040.90
452.49	10033.88
452.68	10036.22
452.86	9790.46
453.05	10244.52
453.23	10181.33
453.42	10157.92
453.60	10174.31
453.78	10118.14
453.97	9926.21
454.15	9996.43
454.34	10190.69
454.52	10298.36
454.70	10249.21
454.89	10452.83
455.07	10480.92
455.26	10494.96
455.44	10546.45
455.62	10633.05
455.81	10572.20
455.99	10672.84
456.17	10630.71
456.36	10806.25
456.54	10806.25
456.73	10869.45
456.91	11115.20
457.09	11204.14
457.28	11293.08
457.46	10911.58
457.64	11253.30
457.83	11346.92
458.01	11157.33
458.19	11487.35
458.38	11295.43
458.56	11466.28
458.74	11463.94
458.93	11337.56
459.11	11534.16
459.29	11461.60
459.48	11543.52
459.66	11611.40
459.84	12018.65
460.03	11903.96
460.21	11831.41
460.39	11831.41
460.57	11737.79
460.76	11749.49
460.94	12060.78
461.12	11922.69
461.31	11873.54
461.49	11929.71
461.67	12039.72
461.85	12250.36
462.04	12166.10
462.22	12620.17
462.40	12411.86
462.59	12306.54
462.77	12343.99
462.95	12531.23
463.13	12547.61
463.32	12564.00
463.50	12524.21
463.68	12442.29
463.86	12475.06
464.05	12589.74
464.23	12482.08
464.41	12622.51
464.59	12748.90
464.78	13111.68
464.96	12769.96
465.14	12727.83
465.32	13142.11
465.50	13095.30
465.69	12959.55
465.87	13095.30
466.05	12917.42
466.23	13163.17
466.41	13207.64
466.60	13511.91
466.78	12947.84
466.96	13224.03
467.14	12950.18
467.32	13245.09
467.51	13214.66
467.69	13067.21
467.87	13177.22
468.05	13518.93
468.23	13280.20
468.41	13437.02
468.60	13432.33
468.78	13675.75
468.96	13486.17
469.14	13834.91
469.32	13982.36
469.50	13614.90
469.69	14146.20
469.87	14204.71
470.05	14153.22
470.23	13989.38
470.41	14127.47
470.59	14450.47
470.77	13940.23
470.95	14370.89
471.14	14434.08
471.32	14312.38
471.50	14717.29
471.68	14775.80
471.86	14829.63
472.04	14644.73
472.22	14864.74
472.40	14820.27
472.58	15094.11
472.77	14876.44
472.95	15166.67
473.13	15829.04
473.31	15117.52
473.49	15101.14
473.67	15152.63
473.85	15569.24
474.03	15611.37
474.21	15831.38
474.39	16163.74
474.57	15985.86
474.75	15957.77
474.93	16149.70
475.12	16248.00
475.30	16271.40
475.48	16484.39
475.66	16329.92
475.84	16542.91
476.02	16456.31
476.20	16739.51
476.38	17092.93
476.56	17221.66
476.74	17209.96
476.92	16933.78
477.10	17216.98
477.28	17319.96
477.46	17673.39
477.64	17591.47
477.82	17642.96
478.00	18602.58
478.18	18171.92
478.36	18520.66
478.54	18427.04
478.72	18740.67
478.90	18717.26
479.08	19044.94
479.26	19271.97
479.44	19204.10
479.62	19466.24
479.80	19489.64
479.98	19770.51
480.16	20126.27
480.34	20077.12
480.52	19983.49
480.70	20182.44
480.88	20086.48
481.06	20404.79
481.24	20102.86
481.41	20889.28
481.59	20924.39
481.77	21329.30
481.95	21413.56
482.13	21441.65
482.31	21350.37
482.49	21905.07
482.67	22008.06
482.85	22183.60
483.03	22593.19
483.21	22789.80
483.39	22909.16
483.57	22817.88
483.74	22855.33
483.92	23143.22
484.10	23330.46
484.28	23372.59
484.46	23833.68
484.64	24266.67
484.82	23920.28
485.00	24236.25
485.18	24774.57
485.35	24760.53
485.53	24797.98
485.71	24973.52
485.89	25685.04
486.07	25303.53
486.25	25537.59
486.43	25647.59
486.61	26015.05
486.78	26001.01
486.96	26181.23
487.14	26845.94
487.32	26895.10
487.50	27061.27
487.68	26885.73
487.85	27531.72
488.03	27527.04
488.21	28095.79
488.39	28041.96
488.57	28226.86
488.75	28641.14
488.92	28886.89
489.10	28999.24
489.28	29163.08
489.46	29790.34
489.64	29214.57
489.81	29909.71
489.99	30103.97
490.17	29947.15
490.35	30625.91
490.53	30874.01
490.70	31019.12
490.88	31138.49
491.06	31398.29
491.24	31290.62
491.41	31470.84
491.59	31833.63
491.77	31749.37
491.95	32165.98
492.13	32847.08
492.30	32723.03
492.48	32613.02
492.66	32334.50
492.84	33055.39
493.01	33294.12
493.19	33628.82
493.37	34291.19
493.54	34272.46
493.72	34300.55
493.90	34036.07
494.08	34490.13
494.25	34745.25
494.43	35012.07
494.61	35529.33
494.79	35440.39
494.96	35534.01
495.14	35936.59
495.32	36308.73
495.49	36573.21
495.67	36051.27
495.85	36385.97
496.02	37139.62
496.20	36935.99
496.38	36715.98
496.55	37219.20
496.73	37996.26
496.91	37713.05
497.09	37984.55
497.26	37928.38
497.44	38298.19
497.62	38066.47
497.79	39068.22
497.97	38653.95
498.14	39402.92
498.32	39281.21
498.50	39475.48
498.67	39651.02
498.85	39428.66
499.03	39875.71
499.20	39620.59
499.38	40154.23
499.56	40715.96
499.73	40863.41
499.91	40849.37
500.08	41134.92
500.26	40678.51
500.44	40966.40
500.61	40980.44
500.79	40914.90
500.97	41422.80
501.14	42216.24
501.32	41848.78
501.49	41720.05
501.67	42045.38
501.84	42019.64
502.02	41923.68
502.20	42862.23
502.37	42721.80
502.55	42920.74
502.72	42799.04
502.90	43416.94
503.07	43084.58
503.25	43398.21
503.43	43667.37
503.60	44128.46
503.78	43496.52
503.95	44126.12
504.13	43517.58
504.30	43817.17
504.48	43700.14
504.65	44533.37
504.83	44847.00
505.01	45120.85
505.18	44816.58
505.36	45050.63
505.53	44788.49
505.71	45144.25
505.88	45429.80
506.06	45298.73
506.23	45823.01
506.41	45191.06
506.58	45691.94
506.76	45916.63
506.93	46153.02
507.11	46190.47
507.28	46274.73
507.46	46113.23
507.63	46698.37
507.81	46700.71
507.98	46256.01
508.16	46974.55
508.33	46693.69
508.50	47161.79
508.68	47178.18
508.85	47501.17
509.03	47634.58
509.20	47657.99
509.38	47992.68
509.55	47777.36
509.73	47999.71
509.90	48006.73
510.08	48058.22
510.25	48484.20
510.42	48559.09
510.60	48615.27
510.77	48453.77
510.95	48863.36
511.12	48559.09
511.30	48896.13
511.47	49036.56
511.64	49329.13
511.82	49680.21
511.99	49551.48
512.17	49797.24
512.34	49572.55
512.51	49743.41
512.69	49717.66
512.86	49703.62
513.04	50028.95
513.21	50438.54
513.38	50071.08
513.56	50555.57
513.73	50178.75
513.90	50595.36
514.08	50609.40
514.25	50232.58
514.43	50838.78
514.60	50894.95
514.77	50904.31
514.95	51185.18
515.12	50827.07
515.29	50791.97
515.47	51133.68
515.64	51587.75
515.81	51248.37
515.99	51562.00
516.16	51901.38
516.33	51807.76
516.51	51786.69
516.68	51885.00
516.85	51669.67
517.03	51859.25
517.20	52561.41
517.37	52292.25
517.54	52233.74
517.72	52224.37
517.89	52107.35
518.06	52275.87
518.24	52243.10
518.41	52252.46
518.58	52753.33
518.75	52662.05
518.93	52718.23
519.10	52486.51
519.27	52828.23
519.45	52818.87
519.62	52910.15
519.79	53261.23
519.96	53312.72
520.14	53279.96
520.31	53322.08
520.48	53350.17
520.65	53460.18
520.83	53155.91
521.00	53443.79
521.17	53488.26
521.34	53467.20
521.52	53663.80
521.69	53921.26
521.86	54052.33
522.03	53942.33
522.20	53797.21
522.38	54059.35
522.55	54260.64
522.72	54218.51
522.89	54309.79
523.07	54747.47
523.24	54274.68
523.41	54473.63
523.58	54436.18
523.75	54639.81
523.92	54492.35
524.10	54482.99
524.27	54791.94
524.44	54969.82
524.61	55093.87
524.78	55161.75
524.96	54951.10
525.13	54997.91
525.30	55154.72
525.47	55351.33
525.64	55159.41
525.81	55627.51
525.98	55447.29
526.16	55444.95
526.33	55365.37
526.50	55723.47
526.67	55320.90
526.84	55440.27
527.01	55515.17
527.18	55739.86
527.36	55978.59
527.53	55899.01
527.70	56086.26
527.87	56100.30
528.04	55969.23
528.21	55985.61
528.38	55962.21
528.55	56097.96
528.72	56158.81
528.89	55987.95
529.07	56374.14
529.24	56154.13
529.41	56549.68
529.58	56313.29
529.75	56362.44
529.92	56310.95
530.09	56456.06
530.26	56537.98
530.43	56383.51
530.60	56420.95
530.77	56589.47
530.94	56545.00
531.11	56699.48
531.28	56664.37
531.46	56795.44
531.63	56573.09
531.80	56910.13
531.97	57073.96
532.14	57200.35
532.31	57172.27
532.48	57078.64
532.65	57116.09
532.82	57160.56
532.99	57296.31
533.16	57205.03
533.33	57471.85
533.50	57673.14
533.67	57666.12
533.84	57331.42
534.01	57228.44
534.18	57298.65
534.35	57523.35
534.52	57413.34
534.69	57684.84
534.86	57663.78
535.03	57680.16
535.20	57565.48
535.37	57708.25
535.54	57902.51
535.71	57731.65
535.88	57986.77
536.05	57834.64
536.22	57820.59
536.38	57989.11
536.55	58143.59
536.72	58010.18
536.89	57895.49
537.06	58012.52
537.23	58113.16
537.40	58092.10
537.57	58138.91
537.74	58162.31
537.91	58614.04
538.08	58452.54
538.25	58335.51
538.42	58143.59
538.59	58223.17
538.75	58211.46
538.92	58506.37
539.09	58576.59
539.26	58536.80
539.43	58688.93
539.60	58651.48
539.77	58691.27
539.94	58702.98
540.11	58707.66
540.28	58618.72
540.44	58688.93
540.61	58688.93
540.78	58749.79
540.95	58796.60
541.12	58738.08
541.29	59264.70
541.46	58951.07
541.62	58997.88
541.79	58866.81
541.96	58951.07
542.13	58904.26
542.30	59016.61
542.47	59260.02
542.63	59143.00
542.80	59405.14
542.97	59451.95
543.14	59433.22
543.31	59220.23
543.48	59363.01
543.64	59599.40
543.81	59688.34
543.98	59568.97
544.15	59716.43
544.32	59554.93
544.48	59915.37
544.65	59707.07
544.82	59821.75
544.99	59615.79
545.16	59756.22
545.32	59667.28
545.49	60037.08
545.66	60055.81
545.83	60046.44
546.00	60135.38
546.16	60016.02
546.33	59814.73
546.50	59920.05
546.67	59955.16
546.83	59908.35
547.00	60102.62
547.17	60119.00
547.34	60097.94
547.50	60254.75
547.67	60285.18
547.84	60364.76
548.00	60238.37
548.17	60331.99
548.34	60250.07
548.51	60547.32
548.67	60664.35
548.84	60568.38
549.01	60402.21
549.18	60348.37
549.34	60434.97
549.51	60374.12
549.68	60488.80
549.84	60552.00
550.01	60664.35
550.18	60420.93
550.34	60505.19
550.51	60624.56
550.68	60669.03
550.84	60584.77
551.01	60746.26
551.18	60729.88
551.34	60505.19
551.51	60645.62
551.68	60865.63
551.84	60839.89
552.01	60748.60
552.18	60858.61
552.34	60652.64
552.51	61151.18
552.68	60786.05
552.84	60816.48
553.01	60985.00
553.18	61080.96
553.34	61197.99
553.51	61113.73
553.67	61296.29
553.84	61286.93
554.01	61291.61
554.17	61139.47
554.34	61389.91
554.51	61221.39
554.67	61347.78
554.84	61375.87
555.00	61303.31
555.17	61329.06
555.33	61460.13
555.50	61350.12
555.67	61455.45
555.83	61413.32
556.00	61258.84
556.16	61497.58
556.33	61453.11
556.50	61446.08
556.66	61591.20
556.83	61532.68
556.99	61890.79
557.16	61584.18
557.32	61633.33
557.49	61680.14
557.65	61340.76
557.82	61549.07
557.98	61638.01
558.15	61736.31
558.32	61811.21
558.48	61949.30
558.65	62026.54
558.81	61691.84
558.98	61750.35
559.14	61710.56
559.31	61626.31
559.47	61649.71
559.64	61766.74
559.80	61991.43
559.97	62021.86
560.13	61914.19
560.30	61900.15
560.46	61893.13
560.63	61923.55
560.79	61935.26
560.96	62021.86
561.12	62000.79
561.29	61984.41
561.45	61876.74
561.61	62049.94
561.78	61888.45
561.94	62103.77
562.11	62099.09
562.27	61860.36
562.44	61970.36
562.60	62173.99
562.77	62059.30
562.93	62159.95
563.10	62349.53
563.26	62106.12
563.42	62564.86
563.59	62284.00
563.75	62204.42
563.92	62363.57
564.08	62192.72
564.24	62024.20
564.41	62141.22
564.57	62333.15
564.74	62326.13
564.90	62251.23
565.07	62291.02
565.23	62520.39
565.39	62351.87
565.56	62368.26
565.72	62082.71
565.88	62417.41
566.05	62323.78
566.21	62293.36
566.38	62295.70
566.54	62312.08
566.70	62506.35
566.87	62644.44
567.03	62583.58
567.19	62590.61
567.36	62567.20
567.52	62436.13
567.68	62443.15
567.85	62300.38
568.01	62328.47
568.17	62499.33
568.34	62681.89
568.50	62431.45
568.66	62644.44
568.83	62642.10
568.99	62386.98
569.15	62588.27
569.32	62426.77
569.48	62466.56
569.64	62754.44
569.81	62492.30
569.97	62649.12
570.13	62639.76
570.30	62501.67
570.46	62742.74
570.62	62585.92
570.78	62726.36
570.95	62560.18
571.11	62560.18
571.27	62504.01
571.43	62670.18
571.60	62822.32
571.76	62766.15
571.92	62855.09
572.09	62944.03
572.25	62705.29
572.41	62808.28
572.57	62855.09
572.74	62883.17
572.90	62721.68
573.06	62677.21
573.22	62693.59
573.38	62653.80
573.55	62700.61
573.71	63114.89
573.87	63016.58
574.03	62632.74
574.20	62791.89
574.36	62688.91
574.52	62599.97
574.68	62906.58
574.84	62808.28
575.01	62885.51
575.17	62880.83
575.33	62859.77
575.49	62972.11
575.65	63096.16
575.82	63082.12
575.98	62911.26
576.14	62953.39
576.30	62934.66
576.46	62871.47
576.62	62728.70
576.79	62883.17
576.95	62871.47
577.11	62990.84
577.27	63077.44
577.43	62972.11
577.59	63061.05
577.75	62887.85
577.92	62836.36
578.08	62953.39
578.24	62780.19
578.40	62855.09
578.56	62953.39
578.72	62979.14
578.88	63051.69
579.04	63213.19
579.21	63079.78
579.37	63000.20
579.53	63133.61
579.69	62789.55
579.85	63103.18
580.01	63051.69
580.17	62841.04
580.33	62852.75
580.49	63098.50
580.65	63290.43
580.82	63154.68
580.98	62885.51
581.14	63100.84
581.30	63234.25
581.46	62939.35
581.62	62763.81
581.78	62805.94
581.94	63297.45
582.10	62880.83
582.26	63079.78
582.42	63145.31
582.58	63334.90
582.74	63185.10
582.90	63182.76
583.06	63002.54
583.22	63112.55
583.38	63138.29
583.54	63234.25
583.70	63096.16
583.86	63084.46
584.02	62997.86
584.18	63224.89
584.34	63257.66
584.50	63269.36
584.66	63140.63
584.82	63023.61
584.98	63196.80
585.14	63035.31
585.30	63079.78
585.46	63039.99
585.62	63084.46
585.78	63323.19
585.94	63091.48
586.10	63299.79
586.26	63313.83
586.42	63337.24
586.58	63634.48
586.74	63058.71
586.90	62958.07
587.06	63140.63
587.22	63192.12
587.38	63269.36
587.54	63388.73
587.70	63416.82
587.86	63295.11
588.02	63487.03
588.18	63402.77
588.34	63358.30
588.49	63257.66
588.65	63164.04
