SpectraSuite Data File
++++++++++++++++++++++++++++++++++++
Date: Fri Oct 04 11:48:33 GMT-05:00 2013
User: price-jones
Dark Spectrum Present: No
Reference Spectrum Present: No
Number of Sampled Component Spectra: 1
Spectrometers: USB2+H05261
Integration Time (usec): 100000 (USB2+H05261)
Spectra Averaged: 1 (USB2+H05261)
Boxcar Smoothing: 0 (USB2+H05261)
Correct for Electrical Dark: No (USB2+H05261)
Strobe/Lamp Enabled: No (USB2+H05261)
Correct for Detector Non-linearity: No (USB2+H05261)
Correct for Stray Light: No (USB2+H05261)
Number of Pixels in Processed Spectrum: 2048
>>>>>Begin Processed Spectral Data<<<<<
365.73	7.02
365.92	7.02
366.12	7.02
366.32	0.00
366.52	0.00
366.72	0.00
366.91	0.00
367.11	0.00
367.31	0.00
367.51	0.00
367.70	0.00
367.90	0.00
368.10	0.00
368.30	0.00
368.49	0.00
368.69	0.00
368.89	0.00
369.09	0.00
369.28	0.00
369.48	0.00
369.68	0.00
369.87	0.00
370.07	0.00
370.27	0.00
370.47	196.60
370.66	507.90
370.86	575.77
371.06	482.15
371.25	540.66
371.45	564.07
371.65	528.96
371.84	503.22
372.04	540.66
372.24	613.22
372.44	620.24
372.63	650.67
372.83	685.78
373.03	655.35
373.22	638.97
373.42	709.18
373.62	751.31
373.81	746.63
374.01	795.78
374.21	772.38
374.40	812.17
374.60	744.29
374.79	737.27
374.99	837.91
375.19	858.98
375.38	863.66
375.58	798.12
375.78	901.11
375.97	854.30
376.17	931.53
376.37	847.27
376.56	781.74
376.76	866.00
376.95	842.59
377.15	830.89
377.35	842.59
377.54	840.25
377.74	800.46
377.93	917.49
378.13	884.72
378.33	858.98
378.52	903.45
378.72	990.05
378.91	936.21
379.11	898.77
379.31	851.96
379.50	889.40
379.70	915.15
379.89	1015.79
380.09	910.47
380.28	1025.15
380.48	1001.75
380.68	992.39
380.87	992.39
381.07	931.53
381.26	1053.24
381.46	966.64
381.65	1018.13
381.85	990.05
382.04	1004.09
382.24	1102.39
382.43	1160.91
382.63	1008.77
382.83	1086.01
383.02	1083.67
383.22	1210.06
383.41	1224.10
383.61	1055.58
383.80	1174.95
384.00	1165.59
384.19	1167.93
384.39	1076.65
384.58	1156.22
384.78	1294.32
384.97	1221.76
385.17	1100.05
385.36	1231.12
385.56	1249.85
385.75	1263.89
385.95	1277.93
386.14	1301.34
386.34	1261.55
386.53	1219.42
386.72	1174.95
386.92	1284.95
387.11	1245.16
387.31	1275.59
387.50	1277.93
387.70	1315.38
387.89	1322.40
388.09	1348.15
388.28	1341.13
388.48	1303.68
388.67	1320.06
388.86	1392.62
389.06	1280.27
389.25	1387.94
389.45	1432.41
389.64	1359.85
389.84	1401.98
390.03	1493.26
390.22	1519.01
390.42	1556.46
390.61	1544.75
390.81	1348.15
391.00	1486.24
391.19	1528.37
391.39	1490.92
391.58	1570.50
391.78	1479.22
391.97	1563.48
392.16	1472.20
392.36	1640.72
392.55	1633.69
392.75	1650.08
392.94	1685.19
393.13	1671.14
393.33	1589.22
393.52	1701.57
393.71	1717.95
393.91	1839.66
394.10	1521.35
394.29	1682.85
394.49	1767.10
394.68	1837.32
394.88	1839.66
395.07	1827.96
395.26	1825.62
395.46	1781.15
395.65	1832.64
395.84	1872.43
396.04	1966.05
396.23	2087.76
396.42	1952.01
396.62	2010.52
396.81	2097.12
397.00	2015.20
397.19	2012.86
397.39	2031.58
397.58	2036.27
397.77	2064.35
397.97	2066.69
398.16	2155.63
398.35	2031.58
398.55	2057.33
398.74	2235.21
398.93	2202.44
399.12	2162.66
399.32	2120.53
399.51	2221.17
399.70	2370.96
399.90	2303.09
400.09	2385.01
400.28	2333.51
400.47	2312.45
400.67	2345.22
400.86	2415.43
401.05	2223.51
401.24	2408.41
401.44	2513.74
401.63	2368.62
401.82	2314.79
402.01	2387.35
402.21	2541.82
402.40	2597.99
402.59	2502.03
402.78	2616.72
402.97	2551.18
403.17	2686.94
403.36	2560.55
403.55	2588.63
403.74	2675.23
403.93	2752.47
404.13	2715.02
404.32	2775.88
404.51	2616.72
404.70	2876.52
404.89	2761.83
405.09	2803.96
405.28	2916.31
405.47	2803.96
405.66	2935.03
405.85	2979.50
406.05	2951.42
406.24	3052.06
406.43	2951.42
406.62	3047.38
406.81	3267.39
407.00	3077.80
407.20	2960.78
407.39	3117.59
407.58	3258.03
407.77	3220.58
407.96	3187.81
408.15	3155.04
408.34	3119.93
408.54	3269.73
408.73	3288.45
408.92	3410.16
409.11	3393.78
409.30	3487.40
409.49	3433.57
409.68	3531.87
409.87	3311.86
410.07	3370.37
410.26	3627.83
410.45	3571.66
410.64	3660.60
410.83	3632.51
411.02	3651.24
411.21	3714.43
411.40	3826.78
411.59	4032.74
411.78	3868.91
411.98	3737.84
412.17	3859.54
412.36	3985.93
412.55	4023.38
412.74	3969.55
412.93	3925.08
413.12	4051.47
413.31	4231.69
413.50	4093.60
413.69	4203.60
413.88	4250.41
414.07	4322.97
414.26	4147.43
414.45	4299.56
414.64	4376.80
414.83	4482.13
415.02	4486.81
415.22	4531.28
415.41	4526.60
415.60	4779.37
415.79	4704.48
415.98	4737.24
416.17	4709.16
416.36	4784.06
416.55	4784.06
416.74	4755.97
416.93	4940.87
417.12	4971.30
417.31	4964.28
417.50	5067.26
417.69	5144.50
417.88	5041.51
418.07	5172.58
418.26	5165.56
418.45	5226.42
418.64	5298.97
418.83	5277.91
419.02	5423.02
419.21	5504.94
419.39	5556.43
419.58	5423.02
419.77	5366.85
419.96	5486.22
420.15	5526.00
420.34	5406.64
420.53	5547.07
420.72	5558.77
420.91	5748.36
421.10	5685.16
421.29	5706.23
421.48	5591.54
421.67	5879.43
421.86	5741.33
422.05	5865.38
422.24	5797.51
422.43	5746.02
422.61	5841.98
422.80	5991.77
422.99	5954.32
423.18	5865.38
423.37	5895.81
423.56	6008.16
423.75	5912.19
423.94	5851.34
424.13	5582.18
424.32	5731.97
424.50	6024.54
424.69	6019.86
424.88	6127.52
425.07	5816.23
425.26	5846.66
425.45	6045.60
425.64	5919.21
425.83	6104.12
426.01	6094.76
426.20	6181.35
426.39	6132.20
426.58	6054.97
426.77	6022.20
426.96	6122.84
427.15	6200.08
427.33	6235.19
427.52	6300.72
427.71	6253.91
427.90	6417.75
428.09	6429.45
428.28	6237.53
428.46	6532.44
428.65	6499.67
428.84	6654.14
429.03	6691.59
429.22	6576.91
429.40	6590.95
429.59	6551.16
429.78	6361.58
429.97	6256.25
430.16	6492.65
430.34	6661.16
430.53	6839.05
430.72	7080.12
430.91	6759.47
431.10	6787.55
431.28	7030.97
431.47	6932.67
431.66	6970.12
431.85	7155.02
432.03	7243.96
432.22	7281.41
432.41	7091.82
432.60	7164.38
432.79	7166.72
432.97	7157.36
433.16	7283.75
433.35	7274.38
433.54	7267.36
433.72	7293.11
433.91	7370.35
434.10	7604.40
434.28	7293.11
434.47	7672.28
434.66	7541.21
434.85	7801.01
435.03	7536.52
435.22	7501.42
435.41	7941.44
435.59	7758.88
435.78	8006.97
435.97	7829.09
436.16	7889.95
436.34	7782.28
436.53	7999.95
436.72	8037.40
436.90	7639.51
437.09	8131.02
437.28	7967.18
437.46	8217.62
437.65	8196.56
437.84	8269.11
438.02	8201.24
438.21	8203.58
438.40	8156.77
438.58	8421.25
438.77	8683.39
438.96	8461.04
439.14	8706.79
439.33	8828.50
439.52	8985.32
439.70	8744.24
439.89	8835.52
440.08	8975.95
440.26	9109.36
440.45	9273.20
440.63	9256.82
440.82	9177.24
441.01	8905.74
441.19	9298.95
441.38	9406.61
441.57	9352.78
441.75	9528.32
441.94	9668.75
442.12	9722.59
442.31	9834.93
442.50	9886.42
442.68	9877.06
442.87	9870.04
443.05	9970.68
443.24	10106.43
443.43	10001.11
443.61	10143.88
443.80	10340.49
443.98	9816.21
444.17	9872.38
444.35	10263.25
444.54	10394.32
444.73	10251.55
444.91	10200.05
445.10	10104.09
445.28	10298.36
445.47	10200.05
445.65	10284.31
445.84	10494.96
446.02	10518.37
446.21	10104.09
446.39	10160.27
446.58	10464.54
446.77	10609.65
446.95	10291.34
447.14	10289.00
447.32	10471.56
447.51	10347.51
447.69	10310.06
447.88	10464.54
448.06	10389.64
448.25	10401.34
448.43	10504.32
448.62	10539.43
448.80	10445.81
448.99	10623.69
449.17	10506.66
449.36	10684.55
449.54	10958.39
449.73	10892.85
449.91	10995.84
450.10	11131.59
450.28	11131.59
450.46	11229.89
450.65	11234.57
450.83	11367.98
451.02	11037.97
451.20	11080.10
451.39	11456.92
451.57	11358.62
451.76	11157.33
451.94	11171.38
452.13	11613.74
452.31	11384.37
452.49	11365.64
452.68	11410.11
452.86	11316.49
453.05	11676.93
453.23	11761.19
453.42	11672.25
453.60	11595.01
453.78	11728.42
453.97	11297.77
454.15	11840.77
454.34	11536.50
454.52	12079.50
454.70	12126.32
454.89	11763.53
455.07	12065.46
455.26	12025.67
455.44	12278.45
455.62	12166.10
455.81	12184.83
455.99	12166.10
456.17	12388.46
456.36	12456.33
456.54	12664.64
456.73	12540.59
456.91	13069.55
457.09	12599.10
457.28	13135.09
457.46	12587.40
457.64	13067.21
457.83	12868.27
458.01	12879.97
458.19	13259.13
458.38	13067.21
458.56	13476.80
458.74	13041.46
458.93	13095.30
459.11	13343.39
459.29	13214.66
459.48	13301.26
459.66	13619.58
459.84	13268.50
460.03	13926.19
460.21	13390.20
460.39	13771.71
460.57	13446.38
460.76	13783.41
460.94	14050.24
461.12	13731.92
461.31	13989.38
461.49	13980.02
461.67	13862.99
461.85	14059.60
462.04	14012.79
462.22	14530.05
462.40	14361.53
462.59	14164.92
462.77	14216.41
462.95	14520.68
463.13	14356.85
463.32	14607.28
463.50	14733.67
463.68	14532.39
463.86	14319.40
464.05	14541.75
464.23	14544.09
464.41	14827.29
464.59	14464.51
464.78	15208.80
464.96	14728.99
465.14	14501.96
465.32	14953.68
465.50	15115.18
465.69	15297.74
465.87	14913.89
466.05	15274.34
466.23	14970.07
466.41	15171.35
466.60	15604.35
466.78	15281.36
466.96	15119.86
467.14	15110.50
467.32	15438.17
467.51	15339.87
467.69	15110.50
467.87	15550.52
468.05	15590.31
468.23	15452.22
468.41	15756.49
468.60	15697.97
468.78	15606.69
468.96	15555.20
469.14	16002.24
469.32	15976.50
469.50	15742.44
469.69	16086.50
469.87	16493.76
470.05	16535.88
470.23	16191.83
470.41	16313.53
470.59	16613.12
470.77	16145.02
470.95	16460.99
471.14	16690.36
471.32	16360.34
471.50	17139.74
471.68	16933.78
471.86	17095.27
472.04	17015.69
472.22	17462.74
472.40	16931.44
472.58	17212.30
472.77	17469.76
472.95	17767.01
473.13	17708.49
473.31	17436.99
473.49	17322.30
473.67	17673.39
473.85	17682.75
474.03	18258.52
474.21	18272.56
474.39	18251.50
474.57	18185.96
474.75	18525.34
474.93	18703.22
475.12	18841.31
475.30	19143.24
475.48	18801.52
475.66	19061.32
475.84	19152.60
476.02	19522.41
476.20	18885.78
476.38	19412.40
476.56	20161.37
476.74	19665.18
476.92	20037.33
477.10	19960.09
477.28	20025.62
477.46	20439.90
477.64	20215.21
477.82	20643.52
478.00	20989.92
478.18	20952.48
478.36	21315.26
478.54	21504.84
478.72	21516.54
478.90	21631.23
479.08	21748.26
479.26	22033.80
479.44	22183.60
479.62	22539.36
479.80	22565.10
479.98	22864.69
480.16	22979.38
480.34	22902.14
480.52	23351.52
480.70	23513.02
480.88	23180.67
481.06	23623.03
481.24	23400.68
481.41	24147.31
481.59	24212.84
481.77	24390.72
481.95	24568.60
482.13	24727.76
482.31	24910.32
482.49	25263.74
482.67	24917.34
482.85	25799.73
483.03	26141.44
483.21	26522.95
483.39	26214.00
483.57	26143.78
483.74	26347.41
483.92	26602.53
484.10	26965.31
484.28	27098.72
484.46	27641.73
484.64	27824.29
484.82	27524.70
485.00	27915.57
485.18	28407.08
485.35	29069.45
485.53	28512.41
485.71	28943.06
485.89	29413.51
486.07	29406.49
486.25	29034.35
486.43	29551.60
486.61	29837.15
486.78	30349.73
486.96	30424.62
487.14	31112.74
487.32	31072.95
487.50	31309.35
487.68	31206.36
487.85	31810.22
488.03	32425.78
488.21	32259.60
488.39	32250.24
488.57	33081.13
488.75	32744.09
488.92	33329.23
489.10	33708.40
489.28	33780.95
489.46	34291.19
489.64	33905.00
489.81	34572.05
489.99	35035.48
490.17	34714.83
490.35	35009.73
490.53	35405.28
490.70	36006.80
490.88	35421.67
491.06	35906.16
491.24	36112.13
491.41	36613.00
491.59	36648.11
491.77	36591.94
491.95	37050.68
492.13	37354.95
492.30	37703.69
492.48	37975.19
492.66	38110.94
492.84	38239.67
493.01	38417.55
493.19	38607.14
493.37	38944.17
493.54	39484.84
493.72	39281.21
493.90	39274.19
494.08	39978.69
494.25	40084.01
494.43	39969.33
494.61	40428.07
494.79	40591.91
494.96	41333.86
495.14	41081.08
495.32	41436.84
495.49	41780.90
495.67	41713.03
495.85	41883.89
496.02	42557.96
496.20	42541.58
496.38	42628.18
496.55	42646.90
496.73	43650.99
496.91	43192.25
497.09	43845.26
497.26	43669.72
497.44	43442.68
497.62	43931.86
497.79	44346.13
497.97	44205.70
498.14	44924.24
498.32	44945.31
498.50	44945.31
498.67	45495.33
498.85	45294.05
499.03	45212.13
499.20	45516.40
499.38	45771.52
499.56	46164.73
499.73	46515.81
499.91	46632.83
500.08	46574.32
500.26	46646.88
500.44	46770.93
500.61	46960.51
500.79	47037.75
500.97	47037.75
501.14	47988.00
501.32	47875.66
501.49	47758.63
501.67	47391.17
501.84	48072.26
502.02	48027.79
502.20	48327.38
502.37	48610.59
502.55	48388.24
502.72	48467.81
502.90	48598.88
503.07	48484.20
503.25	49059.97
503.43	49125.50
503.60	49455.52
503.78	49408.71
503.95	49397.01
504.13	49794.90
504.30	49684.89
504.48	49712.98
504.65	49830.01
504.83	50239.60
505.01	50349.60
505.18	50127.25
505.36	50625.79
505.53	50138.96
505.71	50930.06
505.88	50983.89
506.06	50197.47
506.23	51264.75
506.41	51112.62
506.58	51171.13
506.76	51281.14
506.93	51213.26
507.11	51533.92
507.28	51798.40
507.46	51943.51
507.63	51910.74
507.81	51833.50
507.98	51489.45
508.16	51877.97
508.33	52210.33
508.50	52130.75
508.68	52308.63
508.85	52519.28
509.03	52589.50
509.20	52875.04
509.38	53193.36
509.55	53034.20
509.73	53048.24
509.90	53127.82
510.08	53490.60
510.25	53198.04
510.42	53509.33
510.60	53780.83
510.77	53677.85
510.95	53834.66
511.12	53340.81
511.30	53778.49
511.47	53909.56
511.64	54085.10
511.82	54302.77
511.99	54143.61
512.17	54482.99
512.34	54216.17
512.51	54546.18
512.69	54461.93
512.86	54569.59
513.04	54859.82
513.21	54976.84
513.38	55093.87
513.56	54770.88
513.73	54665.55
513.90	54901.95
514.08	54878.54
514.25	55124.30
514.43	55344.31
514.60	55306.86
514.77	55559.64
514.95	55852.20
515.12	55578.36
515.29	55423.89
515.47	55812.41
515.64	55777.31
515.81	55784.33
515.99	55945.83
516.16	56217.33
516.33	56076.90
516.51	56266.48
516.68	56135.41
516.85	56154.13
517.03	56523.94
517.20	56406.91
517.37	56708.84
517.54	56790.76
517.72	56598.83
517.89	56580.11
518.06	56577.77
518.24	56493.51
518.41	56385.85
518.58	56692.46
518.75	56961.62
518.93	56968.64
519.10	57078.64
519.27	57001.41
519.45	57116.09
519.62	56970.98
519.79	57043.54
519.96	57186.31
520.14	57553.77
520.31	57429.72
520.48	57633.35
520.65	57343.12
520.83	57640.37
521.00	57565.48
521.17	57602.92
521.34	57499.94
521.52	57972.73
521.69	58122.52
521.86	58078.05
522.03	58108.48
522.20	58281.68
522.38	58092.10
522.55	58122.52
522.72	58326.15
522.89	58288.70
523.07	58365.94
523.24	58368.28
523.41	58539.14
523.58	58424.45
523.75	58571.91
523.92	58447.86
524.10	58583.61
524.27	58775.53
524.44	58962.78
524.61	59093.85
524.78	59112.57
524.96	58953.41
525.13	58848.09
525.30	59117.25
525.47	59117.25
525.64	59086.82
525.81	59016.61
525.98	59304.49
526.16	59283.43
526.33	59262.36
526.50	59428.54
526.67	59075.12
526.84	59311.52
527.01	59351.30
527.18	59732.81
527.36	59723.45
527.53	59716.43
527.70	60013.68
527.87	60020.70
528.04	59725.79
528.21	59760.90
528.38	59882.61
528.55	60140.07
528.72	59870.90
528.89	59952.82
529.07	59779.62
529.24	59866.22
529.41	60100.28
529.58	60018.36
529.75	60069.85
529.92	60238.37
530.09	60451.36
530.26	60114.32
530.43	60397.52
530.60	60268.79
530.77	60224.32
530.94	60427.95
531.11	60371.78
531.28	60470.08
531.46	60570.72
531.63	60559.02
531.80	60636.26
531.97	60975.64
532.14	60830.52
532.31	60720.52
532.48	60830.52
532.65	60874.99
532.82	60643.28
532.99	60762.65
533.16	60795.42
533.33	61165.22
533.50	61165.22
533.67	61055.21
533.84	60935.85
534.01	60905.42
534.18	60846.91
534.35	61254.16
534.52	61207.35
534.69	61085.64
534.86	61511.62
535.03	61359.48
535.20	61389.91
535.37	61427.36
535.54	61565.45
535.71	61200.33
535.88	61516.30
536.05	61595.88
536.22	61790.14
536.38	61848.66
536.55	61488.21
536.72	61567.79
536.89	61530.34
537.06	61668.44
537.23	61640.35
537.40	61729.29
537.57	61687.16
537.74	61771.42
537.91	61963.34
538.08	62040.58
538.25	61865.04
538.42	62007.81
538.59	62087.39
538.75	61670.78
538.92	61876.74
539.09	62138.88
539.26	62291.02
539.43	62255.91
539.60	62181.01
539.77	62026.54
539.94	62312.08
540.11	62312.08
540.28	62494.64
540.44	62237.19
540.61	62293.36
540.78	62340.17
540.95	62653.80
541.12	62349.53
541.29	62415.07
541.46	62557.84
541.62	62377.62
541.79	62489.96
541.96	62391.66
542.13	62436.13
542.30	62775.51
542.47	62677.21
542.63	62733.38
542.80	62932.32
542.97	63100.84
543.14	62932.32
543.31	62878.49
543.48	62857.43
543.64	63248.30
543.81	63304.47
543.98	63185.10
544.15	63149.99
544.32	63161.70
544.48	63344.26
544.65	63241.28
544.82	63374.69
544.99	63192.12
545.16	63194.46
545.32	63194.46
545.49	63613.42
545.66	63599.38
545.83	63482.35
546.00	63819.39
546.16	63458.94
546.33	63269.36
546.50	63267.02
546.67	63302.13
546.83	63281.06
547.00	63545.54
547.17	63501.07
547.34	63597.04
547.50	63810.03
547.67	63714.06
547.84	63721.08
548.00	63765.56
548.17	63898.97
548.34	63763.21
548.51	64039.40
548.67	64001.95
548.84	63847.47
549.01	63950.46
549.18	63891.94
549.34	64006.63
549.51	63795.98
549.68	63969.18
549.84	63934.07
550.01	64023.01
550.18	63891.94
550.34	63913.01
550.51	64137.70
550.68	64030.04
550.84	64037.06
551.01	64184.51
551.18	64088.55
551.34	63898.97
551.51	64111.95
551.68	64090.89
551.84	64413.88
552.01	64126.00
552.18	64441.97
552.34	64299.20
552.51	64317.92
552.68	64280.47
552.84	64418.56
553.01	64594.10
553.18	64301.54
553.34	64584.74
553.51	64540.27
553.67	64617.51
553.84	64788.37
554.01	64809.43
554.17	64746.24
554.34	64603.47
554.51	64488.78
554.67	64797.73
554.84	64743.90
555.00	64736.88
555.17	64774.33
555.33	64900.71
555.50	64762.62
555.67	64690.07
555.83	64779.01
556.00	64661.98
556.16	64952.21
556.33	64729.86
556.50	64811.77
556.66	64917.10
556.83	64891.35
556.99	65116.04
557.16	65240.09
557.32	65094.98
557.49	65111.36
557.65	64935.82
557.82	64947.53
557.98	64987.31
558.15	65197.96
558.32	65261.16
558.48	65113.70
558.65	65106.68
558.81	65123.07
558.98	65202.64
559.14	65024.76
559.31	65109.02
559.47	64977.95
559.64	65263.50
559.80	65387.55
559.97	65209.67
560.13	65296.27
560.30	65371.16
560.46	65279.88
560.63	65357.12
560.79	65382.87
560.96	65448.40
561.12	65495.21
561.29	65406.27
561.45	65324.35
561.61	65413.29
561.78	65434.36
561.94	65396.91
562.11	65535.00
562.27	65499.89
562.44	65502.23
562.60	65443.72
562.77	65535.00
562.93	65268.18
563.10	65485.85
563.26	65535.00
563.42	65535.00
563.59	65464.78
563.75	65535.00
563.92	65535.00
564.08	65443.72
564.24	65535.00
564.41	65535.00
564.57	65535.00
564.74	65535.00
564.90	65535.00
565.07	65535.00
565.23	65535.00
565.39	65535.00
565.56	65535.00
565.72	65535.00
565.88	65535.00
566.05	65535.00
566.21	65535.00
566.38	65535.00
566.54	65535.00
566.70	65535.00
566.87	65535.00
567.03	65535.00
567.19	65535.00
567.36	65535.00
567.52	65535.00
567.68	65535.00
567.85	65535.00
568.01	65535.00
568.17	65535.00
568.34	65535.00
568.50	65535.00
568.66	65535.00
568.83	65535.00
568.99	65535.00
569.15	65535.00
569.32	65535.00
569.48	65535.00
569.64	65535.00
569.81	65535.00
569.97	65535.00
570.13	65535.00
570.30	65535.00
570.46	65535.00
570.62	65535.00
570.78	65535.00
570.95	65535.00
571.11	65535.00
571.27	65535.00
571.43	65535.00
571.60	65535.00
571.76	65535.00
571.92	65535.00
572.09	65535.00
572.25	65535.00
572.41	65535.00
572.57	65535.00
572.74	65535.00
572.90	65535.00
573.06	65535.00
573.22	65535.00
573.38	65535.00
573.55	65535.00
573.71	65535.00
573.87	65535.00
574.03	65535.00
574.20	65535.00
574.36	65535.00
574.52	65535.00
574.68	65535.00
574.84	65535.00
575.01	65535.00
575.17	65535.00
575.33	65535.00
575.49	65535.00
575.65	65535.00
575.82	65535.00
575.98	65535.00
576.14	65535.00
576.30	65535.00
576.46	65535.00
576.62	65535.00
576.79	65535.00
576.95	65535.00
577.11	65535.00
577.27	65535.00
577.43	65535.00
577.59	65535.00
577.75	65535.00
577.92	65535.00
578.08	65535.00
578.24	65535.00
578.40	65535.00
578.56	65535.00
578.72	65535.00
578.88	65535.00
579.04	65535.00
579.21	65535.00
579.37	65535.00
579.53	65535.00
579.69	65535.00
579.85	65535.00
580.01	65535.00
580.17	65535.00
580.33	65535.00
580.49	65535.00
580.65	65535.00
580.82	65535.00
580.98	65535.00
581.14	65535.00
581.30	65535.00
581.46	65535.00
581.62	65535.00
581.78	65535.00
581.94	65535.00
582.10	65535.00
582.26	65535.00
582.42	65535.00
582.58	65535.00
582.74	65535.00
582.90	65535.00
583.06	65535.00
583.22	65535.00
583.38	65535.00
583.54	65535.00
583.70	65535.00
583.86	65535.00
584.02	65535.00
584.18	65535.00
584.34	65535.00
584.50	65535.00
584.66	65535.00
584.82	65535.00
584.98	65535.00
585.14	65535.00
585.30	65535.00
585.46	65535.00
585.62	65535.00
585.78	65535.00
585.94	65535.00
586.10	65535.00
586.26	65535.00
586.42	65535.00
586.58	65535.00
586.74	65535.00
586.90	65535.00
587.06	65535.00
587.22	65535.00
587.38	65535.00
587.54	65535.00
587.70	65535.00
587.86	65535.00
588.02	65535.00
588.18	65535.00
