SpectraSuite Data File
++++++++++++++++++++++++++++++++++++
Date: Fri Oct 04 11:48:40 GMT-05:00 2013
User: price-jones
Dark Spectrum Present: No
Reference Spectrum Present: No
Number of Sampled Component Spectra: 1
Spectrometers: USB2+H05261
Integration Time (usec): 100000 (USB2+H05261)
Spectra Averaged: 1 (USB2+H05261)
Boxcar Smoothing: 0 (USB2+H05261)
Correct for Electrical Dark: No (USB2+H05261)
Strobe/Lamp Enabled: No (USB2+H05261)
Correct for Detector Non-linearity: No (USB2+H05261)
Correct for Stray Light: No (USB2+H05261)
Number of Pixels in Processed Spectrum: 2048
>>>>>Begin Processed Spectral Data<<<<<
365.73	37.45
365.92	37.45
366.12	37.45
366.32	0.00
366.52	0.00
366.72	0.00
366.91	0.00
367.11	0.00
367.31	0.00
367.51	0.00
367.70	0.00
367.90	0.00
368.10	0.00
368.30	0.00
368.49	0.00
368.69	0.00
368.89	0.00
369.09	0.00
369.28	0.00
369.48	0.00
369.68	18.72
369.87	0.00
370.07	0.00
370.27	0.00
370.47	105.32
370.66	180.22
370.86	374.49
371.06	341.72
371.25	330.02
371.45	315.97
371.65	348.74
371.84	313.63
372.04	315.97
372.24	395.55
372.44	346.40
372.63	414.27
372.83	433.00
373.03	318.31
373.22	379.17
373.42	325.33
373.62	414.27
373.81	449.38
374.01	463.43
374.21	484.49
374.40	369.80
374.60	456.40
374.79	475.13
374.99	498.53
375.19	449.38
375.38	454.06
375.58	458.74
375.78	500.87
375.97	397.89
376.17	535.98
376.37	484.49
376.56	519.60
376.76	489.17
376.95	489.17
377.15	571.09
377.35	493.85
377.54	463.43
377.74	503.22
377.93	458.74
378.13	512.58
378.33	526.62
378.52	458.74
378.72	594.50
378.91	599.18
379.11	456.40
379.31	547.69
379.50	528.96
379.70	589.82
379.89	538.32
380.09	528.96
380.28	517.26
380.48	543.00
380.68	561.73
380.87	526.62
381.07	500.87
381.26	545.34
381.46	533.64
381.65	610.88
381.85	589.82
382.04	519.60
382.24	636.63
382.43	573.43
382.63	526.62
382.83	554.71
383.02	653.01
383.22	634.29
383.41	594.50
383.61	629.60
383.80	631.94
384.00	669.39
384.19	688.12
384.39	552.37
384.58	678.76
384.78	617.90
384.97	660.03
385.17	624.92
385.36	657.69
385.56	655.35
385.75	713.86
385.95	695.14
386.14	741.95
386.34	627.26
386.53	667.05
386.72	599.18
386.92	730.25
387.11	748.97
387.31	734.93
387.50	613.22
387.70	578.11
387.89	706.84
388.09	685.78
388.28	692.80
388.48	784.08
388.67	765.36
388.86	737.27
389.06	798.12
389.25	849.61
389.45	774.72
389.64	784.08
389.84	814.51
390.03	861.32
390.22	763.01
390.42	816.85
390.61	814.51
390.81	894.08
391.00	786.42
391.19	868.34
391.39	870.68
391.58	931.53
391.78	819.19
391.97	903.45
392.16	781.74
392.36	915.15
392.55	870.68
392.75	966.64
392.94	880.04
393.13	919.83
393.33	894.08
393.52	926.85
393.71	1025.15
393.91	908.13
394.10	940.90
394.29	863.66
394.49	978.34
394.68	926.85
394.88	924.51
395.07	983.02
395.26	957.28
395.46	1069.62
395.65	1032.18
395.84	1029.84
396.04	1060.26
396.23	971.32
396.42	1050.90
396.62	1165.59
396.81	1170.27
397.00	1050.90
397.19	1104.73
397.39	1114.10
397.58	1139.84
397.77	1088.35
397.97	1107.07
398.16	1095.37
398.35	1160.91
398.55	1207.72
398.74	1221.76
398.93	1245.16
399.12	1163.25
399.32	1186.65
399.51	1184.31
399.70	1128.14
399.90	1144.52
400.09	1165.59
400.28	1210.06
400.47	1170.27
400.67	1320.06
400.86	1252.19
401.05	1331.76
401.24	1308.36
401.44	1397.30
401.63	1296.66
401.82	1331.76
402.01	1350.49
402.21	1460.49
402.40	1277.93
402.59	1432.41
402.78	1327.08
402.97	1390.28
403.17	1366.87
403.36	1416.02
403.55	1490.92
403.74	1404.32
403.93	1516.67
404.13	1535.39
404.32	1469.86
404.51	1535.39
404.70	1624.33
404.89	1476.88
405.09	1528.37
405.28	1577.52
405.47	1596.25
405.66	1666.46
405.85	1692.21
406.05	1680.50
406.24	1540.07
406.43	1610.29
406.62	1739.02
406.81	1792.85
407.00	1748.38
407.20	1762.42
407.39	1675.82
407.58	1762.42
407.77	1830.30
407.96	1769.44
408.15	1825.62
408.34	1650.08
408.54	1874.77
408.73	1916.90
408.92	1853.70
409.11	1907.54
409.30	2003.50
409.49	1825.62
409.68	1914.56
409.87	1905.20
410.07	1902.86
410.26	1963.71
410.45	2003.50
410.64	1942.64
410.83	1930.94
411.02	2012.86
411.21	2136.91
411.40	2101.80
411.59	2172.02
411.78	2218.83
411.98	2162.66
412.17	2221.17
412.36	2244.57
412.55	2223.51
412.74	2293.72
412.93	2284.36
413.12	2289.04
413.31	2401.39
413.50	2314.79
413.69	2338.20
413.88	2490.33
414.07	2389.69
414.26	2436.50
414.45	2539.48
414.64	2445.86
414.83	2509.05
415.02	2401.39
415.22	2558.21
415.41	2621.40
415.60	2462.24
415.79	2654.17
415.98	2745.45
416.17	2729.06
416.36	2773.53
416.55	2738.43
416.74	2799.28
416.93	2794.60
417.12	2808.64
417.31	2822.69
417.50	2963.12
417.69	3042.70
417.88	3019.29
418.07	2946.73
418.26	2862.48
418.45	2965.46
418.64	2930.35
418.83	3105.89
419.02	2925.67
419.21	3066.10
419.39	3070.78
419.58	3040.36
419.77	3021.63
419.96	3190.15
420.15	3124.62
420.34	3101.21
420.53	3251.00
420.72	3375.05
420.91	3269.73
421.10	3206.53
421.29	3346.97
421.48	3286.11
421.67	3417.18
421.86	3279.09
422.05	3349.31
422.24	3276.75
422.43	3375.05
422.61	3328.24
422.80	3424.20
422.99	3363.35
423.18	3321.22
423.37	3503.78
423.56	3330.58
423.75	3356.33
423.94	3445.27
424.13	3321.22
424.32	3297.81
424.50	3414.84
424.69	3447.61
424.88	3597.40
425.07	3459.31
425.26	3543.57
425.45	3398.46
425.64	3510.80
425.83	3403.14
426.01	3599.74
426.20	3559.95
426.39	3501.44
426.58	3569.32
426.77	3454.63
426.96	3459.31
427.15	3492.08
427.33	3574.00
427.52	3588.04
427.71	3583.36
427.90	3623.15
428.09	3503.78
428.28	3550.59
428.46	3599.74
428.65	3763.58
428.84	3946.14
429.03	3843.16
429.22	3660.60
429.40	3768.26
429.59	3899.33
429.78	3658.26
429.97	3805.71
430.16	3728.47
430.34	3824.44
430.53	3840.82
430.72	3974.23
430.91	3934.44
431.10	3728.47
431.28	3896.99
431.47	4095.94
431.66	4100.62
431.85	4025.72
432.03	4063.17
432.22	4299.56
432.41	3997.64
432.60	4063.17
432.79	3988.27
432.97	4205.94
433.16	4159.13
433.35	4126.36
433.54	4170.83
433.72	4032.74
433.91	4189.56
434.10	4404.89
434.28	4325.31
434.47	4219.99
434.66	4212.96
434.85	4358.08
435.03	4353.40
435.22	4308.93
435.41	4491.49
435.59	4346.37
435.78	4402.55
435.97	4521.92
436.16	4517.23
436.34	4531.28
436.53	4533.62
436.72	4599.15
436.90	4568.73
437.09	4645.96
437.28	4559.36
437.46	4620.22
437.65	4622.56
437.84	4557.02
438.02	4685.75
438.21	4711.50
438.40	4725.54
438.58	4809.80
438.77	4727.88
438.96	4889.38
439.14	4835.55
439.33	4830.87
439.52	4887.04
439.70	5069.60
439.89	5177.26
440.08	5090.67
440.26	5032.15
440.45	5128.11
440.63	5100.03
440.82	5266.21
441.01	5195.99
441.19	5416.00
441.38	5355.15
441.57	5427.70
441.75	5376.21
441.94	5483.88
442.12	5502.60
442.31	5533.03
442.50	5614.95
442.68	5423.02
442.87	5598.56
443.05	5607.92
443.24	5757.72
443.43	5617.29
443.61	5799.85
443.80	5776.44
443.98	5551.75
444.17	5533.03
444.35	5771.76
444.54	5912.19
444.73	5638.35
444.91	5685.16
445.10	5792.83
445.28	5839.64
445.47	5858.36
445.65	5804.53
445.84	5706.23
446.02	5832.62
446.21	5790.49
446.39	5809.21
446.58	5905.17
446.77	6008.16
446.95	5856.02
447.14	5802.19
447.32	5949.64
447.51	5928.58
447.69	5753.04
447.88	6010.50
448.06	5956.66
448.25	5959.00
448.43	5987.09
448.62	5811.55
448.80	5849.00
448.99	6043.26
449.17	5966.03
449.36	6097.10
449.54	6291.36
449.73	6221.14
449.91	6179.01
450.10	6204.76
450.28	6260.93
450.46	6244.55
450.65	6223.48
450.83	6265.61
451.02	6282.00
451.20	6141.57
451.39	6282.00
451.57	6235.19
451.76	6289.02
451.94	6424.77
452.13	6497.33
452.31	6424.77
452.49	6258.59
452.68	6569.88
452.86	6572.22
453.05	6656.48
453.23	6471.58
453.42	6525.41
453.60	6504.35
453.78	6389.66
453.97	6616.69
454.15	6483.28
454.34	6658.82
454.52	6705.63
454.70	6623.72
454.89	6677.55
455.07	6719.68
455.26	6780.53
455.44	6740.74
455.62	6965.43
455.81	6988.84
455.99	7070.76
456.17	7012.24
456.36	7091.82
456.54	7117.57
456.73	7183.10
456.91	7089.48
457.09	7068.42
457.28	7356.30
457.46	7253.32
457.64	7372.69
457.83	7166.72
458.01	7047.35
458.19	7307.15
458.38	7705.04
458.56	7662.91
458.74	7307.15
458.93	7286.09
459.11	7470.99
459.29	7386.73
459.48	7559.93
459.66	7398.43
459.84	7597.38
460.03	7662.91
460.21	7618.44
460.39	7749.51
460.57	7543.55
460.76	7679.30
460.94	7793.98
461.12	7651.21
461.31	7768.24
461.49	7740.15
461.67	7927.39
461.85	8116.98
462.04	7983.57
462.22	8145.06
462.40	8121.66
462.59	7824.41
462.77	8004.63
462.95	8262.09
463.13	7981.23
463.32	8095.91
463.50	8004.63
463.68	8243.37
463.86	8187.19
464.05	8184.85
464.23	8290.18
464.41	8278.47
464.59	8088.89
464.78	8294.86
464.96	8217.62
465.14	8196.56
465.32	8355.71
465.50	8442.31
465.69	8308.90
465.87	8313.58
466.05	8283.16
466.23	8234.00
466.41	8643.60
466.60	8589.77
466.78	8285.50
466.96	8435.29
467.14	8561.68
467.32	8463.38
467.51	8842.54
467.69	8517.21
467.87	8526.57
468.05	8667.00
468.23	8748.92
468.41	8587.43
468.60	8718.50
468.78	8683.39
468.96	8741.90
469.14	8872.97
469.32	8865.95
469.50	8856.59
469.69	8959.57
469.87	9245.12
470.05	9226.39
470.23	8994.68
470.41	9174.90
470.59	8999.36
470.77	9064.89
470.95	9224.05
471.14	9397.25
471.32	9198.31
471.50	9476.83
471.68	9352.78
471.86	9441.72
472.04	9355.12
472.22	9472.15
472.40	9469.81
472.58	9509.60
472.77	9717.90
472.95	9816.21
473.13	10164.95
473.31	9811.53
473.49	9678.12
473.67	9963.66
473.85	9804.50
474.03	10108.77
474.21	10087.71
474.39	10136.86
474.57	10001.11
474.75	10225.80
474.93	10382.62
475.12	10352.19
475.30	10153.24
475.48	10303.04
475.66	10464.54
475.84	10628.37
476.02	10743.06
476.20	10743.06
476.38	10869.45
476.56	11257.98
476.74	11159.67
476.92	10998.18
477.10	10815.62
477.28	11253.30
477.46	11087.12
477.64	11159.67
477.82	11386.71
478.00	11705.02
478.18	11644.17
478.36	11723.74
478.54	11578.63
478.72	11819.71
478.90	12049.08
479.08	11763.53
479.26	12063.12
479.44	12294.83
479.62	12198.87
479.80	12278.45
479.98	12236.32
480.16	12678.68
480.34	12746.56
480.52	13025.08
480.70	12858.90
480.88	12641.23
481.06	13050.83
481.24	13111.68
481.41	13146.79
481.59	13319.99
481.77	13525.96
481.95	13441.70
482.13	13589.15
482.31	13521.27
482.49	13914.48
482.67	13994.06
482.85	14015.13
483.03	14171.94
483.21	14178.97
483.39	14197.69
483.57	14284.29
483.74	14483.24
483.92	14640.05
484.10	14492.60
484.28	14960.70
484.46	15269.66
484.64	15440.51
484.82	15049.64
485.00	15344.55
485.18	15583.29
485.35	16042.03
485.53	15822.02
485.71	15995.22
485.89	15922.66
486.07	16166.08
486.25	16446.94
486.43	16306.51
486.61	16599.08
486.78	16587.38
486.96	16926.75
487.14	16833.13
487.32	17053.14
487.50	17394.86
487.68	17486.14
487.85	17270.81
488.03	17448.69
488.21	17734.24
488.39	17504.87
488.57	17893.40
488.75	17996.38
488.92	18427.04
489.10	18567.47
489.28	18628.32
489.46	18761.73
489.64	18537.04
489.81	19154.94
489.99	19126.86
490.17	18684.50
490.35	19248.57
490.53	19461.55
490.70	19812.63
490.88	19901.58
491.06	19976.47
491.24	19913.28
491.41	19786.89
491.59	20077.12
491.77	20255.00
491.95	20608.42
492.13	20746.51
492.30	20709.06
492.48	20755.87
492.66	20547.56
492.84	20912.69
493.01	21029.71
493.19	21137.38
493.37	21509.52
493.54	21451.01
493.72	21640.59
493.90	21654.64
494.08	22052.53
494.25	22012.74
494.43	22403.61
494.61	22478.50
494.79	22548.72
494.96	22302.96
495.14	22434.03
495.32	22820.22
495.49	22757.03
495.67	23042.57
495.85	23124.49
496.02	23386.63
496.20	23566.85
496.38	23349.18
496.55	23501.32
496.73	23854.74
496.91	24226.89
497.09	24346.25
497.26	24032.62
497.44	23901.55
497.62	24147.31
497.79	24606.05
497.97	24549.88
498.14	24978.20
498.32	25149.06
498.50	25008.62
498.67	25127.99
498.85	25223.95
499.03	25331.62
499.20	25448.64
499.38	25720.15
499.56	25806.75
499.73	25872.28
499.91	26134.42
500.08	26120.38
500.26	26005.69
500.44	26356.77
500.61	26043.14
500.79	26122.72
500.97	26560.40
501.14	26534.65
501.32	26684.45
501.49	26787.43
501.67	26801.47
501.84	26813.18
502.02	27105.74
502.20	27028.51
502.37	27421.72
502.55	27344.48
502.72	27213.41
502.90	27559.81
503.07	27480.23
503.25	27454.48
503.43	27190.00
503.60	27922.59
503.78	27784.50
503.95	27845.35
504.13	28217.50
504.30	28276.01
504.48	27847.69
504.65	28250.27
504.83	28833.06
505.01	28999.24
505.18	28402.40
505.36	28875.19
505.53	28854.12
505.71	28978.17
505.88	29029.66
506.06	28500.70
506.23	29434.58
506.41	29153.71
506.58	29474.37
506.76	29675.65
506.93	29783.32
507.11	29528.20
507.28	29432.24
507.46	30010.35
507.63	30300.58
507.81	30129.72
507.98	30017.37
508.16	29996.31
508.33	29982.26
508.50	30160.14
508.68	30073.54
508.85	30408.24
509.03	30829.54
509.20	30862.30
509.38	30698.47
509.55	31091.68
509.73	30824.86
509.90	31065.93
510.08	30953.58
510.25	30984.01
510.42	31040.18
510.60	31503.61
510.77	31597.23
510.95	31473.18
511.12	31508.29
511.30	31854.69
511.47	32210.45
511.64	32381.31
511.82	32168.32
511.99	32058.32
512.17	32273.65
512.34	32151.94
512.51	32601.32
512.69	32659.84
512.86	32547.49
513.04	32627.07
513.21	33090.49
513.38	33139.65
513.56	33078.79
513.73	33156.03
513.90	33160.71
514.08	33151.35
514.25	33439.23
514.43	33483.70
514.60	33310.50
514.77	33551.58
514.95	34167.14
515.12	33464.98
515.29	33722.44
515.47	34103.95
515.64	33963.51
515.81	34160.12
515.99	33806.70
516.16	34396.51
516.33	34361.40
516.51	34714.83
516.68	34225.65
516.85	34338.00
517.03	34660.99
517.20	35138.46
517.37	34803.77
517.54	35016.75
517.72	34785.04
517.89	34792.06
518.06	34801.43
518.24	34759.30
518.41	34979.31
518.58	35136.12
518.75	34995.69
518.93	35536.35
519.10	34864.62
519.27	35964.67
519.45	35196.98
519.62	35548.06
519.79	35566.78
519.96	35807.86
520.14	36055.95
520.31	35814.88
520.48	36243.20
520.65	36051.27
520.83	36151.91
521.00	36135.53
521.17	36062.97
521.34	36779.18
521.52	36371.92
521.69	36428.10
521.86	36957.06
522.03	36634.06
522.20	36701.94
522.38	36428.10
522.55	36816.63
522.72	37338.57
522.89	37521.13
523.07	37888.59
523.24	37151.32
523.41	37525.81
523.58	37013.23
523.75	37394.74
523.92	37509.43
524.10	37989.24
524.27	37378.36
524.44	38204.56
524.61	38515.86
524.78	37799.65
524.96	38078.18
525.13	37926.04
525.30	38293.50
525.47	38335.63
525.64	38256.06
525.81	38195.20
525.98	38667.99
526.16	38300.53
526.33	38731.18
526.50	38927.79
526.67	37993.92
526.84	38859.91
527.01	38548.62
527.18	38939.49
527.36	38932.47
527.53	38948.85
527.70	39386.54
527.87	39203.97
528.04	39299.94
528.21	39372.49
528.38	39166.52
528.55	39332.70
528.72	39372.49
528.89	39337.38
529.07	39367.81
529.24	39349.09
529.41	39833.58
529.58	39234.40
529.75	39880.39
529.92	39374.83
530.09	39622.93
530.26	39880.39
530.43	40168.27
530.60	39864.00
530.77	40027.84
530.94	39868.69
531.11	40020.82
531.28	39871.03
531.46	40168.27
531.63	40191.68
531.80	40264.24
531.97	40935.97
532.14	40528.72
532.31	40488.93
532.48	39976.35
532.65	40409.35
532.82	40339.13
532.99	40844.69
533.16	40641.06
533.33	41055.34
533.50	40809.58
533.67	41219.17
533.84	41010.87
534.01	41277.69
534.18	40507.65
534.35	41132.57
534.52	41247.26
534.69	41598.34
534.86	41893.25
535.03	41432.16
535.20	41706.01
535.37	41525.78
535.54	41654.51
535.71	41017.89
535.88	41937.72
536.05	41752.82
536.22	41982.19
536.38	41567.91
536.55	42106.24
536.72	41951.76
536.89	41968.15
537.06	42120.28
537.23	42059.43
537.40	42101.56
537.57	41698.98
537.74	42241.99
537.91	42464.34
538.08	42412.85
538.25	42623.50
538.42	42436.25
538.59	42850.53
538.75	42351.99
538.92	42340.29
539.09	42588.39
539.26	42712.44
539.43	42710.10
539.60	43260.12
539.77	42476.04
539.94	43178.20
540.11	43208.63
540.28	42745.20
540.44	42637.54
540.61	43115.01
540.78	43044.79
540.95	43569.07
541.12	43356.08
541.29	43281.19
541.46	43110.33
541.62	43363.11
541.79	43435.66
541.96	43019.05
542.13	43306.93
542.30	43360.76
542.47	44006.75
542.63	43473.11
542.80	44102.71
542.97	44488.90
543.14	43962.28
543.31	43997.39
543.48	44191.65
543.64	44411.67
543.81	44582.52
543.98	44556.78
544.15	44783.81
544.32	44446.77
544.48	44591.89
544.65	44624.65
544.82	44914.88
544.99	44327.41
545.16	44608.27
545.32	44711.25
545.49	44776.79
545.66	45034.25
545.83	45155.96
546.00	44788.49
546.16	44886.79
546.33	44781.47
546.50	44762.75
546.67	44615.29
546.83	44545.08
547.00	45233.19
547.17	45191.06
547.34	44891.48
547.50	45162.98
547.67	45116.17
547.84	45378.31
548.00	45146.59
548.17	45277.66
548.34	45242.56
548.51	46115.58
548.67	45872.16
548.84	45450.86
549.01	45935.35
549.18	45633.42
549.34	45553.85
549.51	45317.45
549.68	45790.24
549.84	45221.49
550.01	46047.70
550.18	45624.06
550.34	46012.59
550.51	45909.61
550.68	46007.91
550.84	45813.65
551.01	46089.83
551.18	46115.58
551.34	45823.01
551.51	45722.37
551.68	46110.89
551.84	46522.83
552.01	46127.28
552.18	46202.18
552.34	46260.69
552.51	46234.94
552.68	46356.65
552.84	46366.01
553.01	46377.72
553.18	46600.07
553.34	46878.59
553.51	46857.52
553.67	46873.91
553.84	46923.06
554.01	46742.84
554.17	46520.49
554.34	46934.76
554.51	46571.98
554.67	47161.79
554.84	46499.42
555.00	47075.19
555.17	46649.22
555.33	46803.69
555.50	46918.38
555.67	46616.45
555.83	46667.94
556.00	47143.07
556.16	47281.16
556.33	47234.35
556.50	46920.72
556.66	46831.78
556.83	47168.82
556.99	47753.95
557.16	47337.33
557.32	47360.74
557.49	47236.69
557.65	46698.37
557.82	47309.25
557.98	47089.24
558.15	47318.61
558.32	47313.93
558.48	47569.05
558.65	47604.16
558.81	47133.71
558.98	47592.45
559.14	47250.74
559.31	47559.69
559.47	47559.69
559.64	47643.94
559.80	47505.85
559.97	47676.71
560.13	47655.65
560.30	47543.30
560.46	47585.43
560.63	47540.96
560.79	47622.88
560.96	48002.05
561.12	47957.58
561.29	47978.64
561.45	47386.49
561.61	48076.94
561.78	47784.38
561.94	47969.28
562.11	47753.95
562.27	47569.05
562.44	47777.36
562.60	48041.84
562.77	48032.47
562.93	48027.79
563.10	48053.54
563.26	48109.71
563.42	48088.65
563.59	48074.60
563.75	48135.46
563.92	48243.12
564.08	47992.68
564.24	47938.85
564.41	47973.96
564.57	47810.12
564.74	47833.53
564.90	48250.14
565.07	48554.41
565.23	48140.14
565.39	48315.68
565.56	48086.31
565.72	47707.14
565.88	48163.54
566.05	47887.36
566.21	48044.18
566.38	48243.12
566.54	48413.98
566.70	48790.81
566.87	48350.79
567.03	48577.82
567.19	48835.28
567.36	48322.70
567.52	48236.10
567.68	48624.63
567.85	47948.21
568.01	48673.78
568.17	48165.88
568.34	48615.27
568.50	48875.07
568.66	48437.39
568.83	49008.48
568.99	48133.12
569.15	48193.97
569.32	48697.19
569.48	48219.72
569.64	48774.42
569.81	48444.41
569.97	48687.82
570.13	48488.88
570.30	48516.96
570.46	48755.70
570.62	48367.17
570.78	48694.85
570.95	48301.64
571.11	48306.32
571.27	48362.49
571.43	48978.05
571.60	48968.69
571.76	48779.10
571.92	49188.70
572.09	49137.21
572.25	48807.19
572.41	48376.53
572.57	48919.54
572.74	48898.47
572.90	48690.16
573.06	48732.29
573.22	48767.40
573.38	49158.27
573.55	48989.75
573.71	49066.99
573.87	48842.30
574.03	48985.07
574.20	48617.61
574.36	48680.80
574.52	48456.11
574.68	48680.80
574.84	48762.72
575.01	49144.23
575.17	48900.81
575.33	48921.88
575.49	49237.85
575.65	48802.51
575.82	48769.74
575.98	48739.32
576.14	49066.99
576.30	49015.50
576.46	48985.07
576.62	48671.44
576.79	48800.17
576.95	48863.36
577.11	48582.50
577.27	48985.07
577.43	49340.83
577.59	49525.74
577.75	49158.27
577.92	48708.89
578.08	49237.85
578.24	49118.48
578.40	48849.32
578.56	48882.09
578.72	49006.14
578.88	48907.83
579.04	49291.68
579.21	49006.14
579.37	48924.22
579.53	49279.98
579.69	49031.88
579.85	49216.78
580.01	49272.96
580.17	48851.66
580.33	49125.50
580.49	49216.78
580.65	49406.37
580.82	49322.11
580.98	49155.93
581.14	49015.50
581.30	49289.34
581.46	48940.60
581.62	48704.21
581.78	49247.21
581.94	48907.83
582.10	48587.18
582.26	49109.12
582.42	49499.99
582.58	49244.87
582.74	49401.69
582.90	49427.43
583.06	48933.58
583.22	49010.82
583.38	48655.06
583.54	48842.30
583.70	49169.97
583.86	49179.34
584.02	48795.49
584.18	49294.02
584.34	49387.64
584.50	49467.22
584.66	49708.30
584.82	49315.09
584.98	49233.17
585.14	48912.52
585.30	48933.58
585.46	49132.53
585.62	49322.11
585.78	49418.07
585.94	48666.76
586.10	49464.88
586.26	49198.06
586.42	49294.02
586.58	49338.49
586.74	48870.39
586.90	49038.90
587.06	48994.43
587.22	49158.27
587.38	48914.86
587.54	49642.76
587.70	49315.09
587.86	49397.01
588.02	49539.78
588.18	49389.98
588.34	49434.45
588.49	49134.87
588.65	48879.75
588.81	49483.61
588.97	49549.14
589.13	49261.26
589.29	49471.90
589.45	49483.61
589.61	49556.16
589.77	49696.59
589.93	49755.11
590.08	49537.44
590.24	49492.97
590.40	49801.92
590.56	49532.76
