SpectraSuite Data File
++++++++++++++++++++++++++++++++++++
Date: Fri Oct 04 11:48:22 GMT-05:00 2013
User: price-jones
Dark Spectrum Present: No
Reference Spectrum Present: No
Number of Sampled Component Spectra: 1
Spectrometers: USB2+H05261
Integration Time (usec): 100000 (USB2+H05261)
Spectra Averaged: 1 (USB2+H05261)
Boxcar Smoothing: 0 (USB2+H05261)
Correct for Electrical Dark: No (USB2+H05261)
Strobe/Lamp Enabled: No (USB2+H05261)
Correct for Detector Non-linearity: No (USB2+H05261)
Correct for Stray Light: No (USB2+H05261)
Number of Pixels in Processed Spectrum: 2048
>>>>>Begin Processed Spectral Data<<<<<
365.73	63.19
365.92	63.19
366.12	63.19
366.32	0.00
366.52	0.00
366.72	0.00
366.91	0.00
367.11	0.00
367.31	0.00
367.51	0.00
367.70	0.00
367.90	0.00
368.10	0.00
368.30	0.00
368.49	0.00
368.69	0.00
368.89	0.00
369.09	11.70
369.28	0.00
369.48	0.00
369.68	0.00
369.87	0.00
370.07	0.00
370.27	7.02
370.47	135.75
370.66	383.85
370.86	411.93
371.06	486.83
371.25	470.45
371.45	451.72
371.65	505.56
371.84	442.36
372.04	470.45
372.24	535.98
372.44	510.24
372.63	540.66
372.83	575.77
373.03	568.75
373.22	559.39
373.42	571.09
373.62	521.94
373.81	650.67
374.01	573.43
374.21	624.92
374.40	620.24
374.60	631.94
374.79	585.13
374.99	601.52
375.19	627.26
375.38	664.71
375.58	653.01
375.78	737.27
375.97	648.33
376.17	674.07
376.37	748.97
376.56	629.60
376.76	643.65
376.95	692.80
377.15	699.82
377.35	702.16
377.54	758.33
377.74	741.95
377.93	596.84
378.13	704.50
378.33	798.12
378.52	697.48
378.72	833.23
378.91	779.40
379.11	791.10
379.31	781.74
379.50	812.17
379.70	748.97
379.89	805.14
380.09	704.50
380.28	751.31
380.48	758.33
380.68	772.38
380.87	779.40
381.07	856.64
381.26	854.30
381.46	814.51
381.65	821.53
381.85	795.78
382.04	835.57
382.24	884.72
382.43	840.25
382.63	823.87
382.83	910.47
383.02	880.04
383.22	1036.86
383.41	875.36
383.61	919.83
383.80	971.32
384.00	940.90
384.19	851.96
384.39	950.26
384.58	976.00
384.78	1050.90
384.97	1025.15
385.17	1020.47
385.36	1008.77
385.56	997.07
385.75	980.68
385.95	973.66
386.14	1071.97
386.34	1067.28
386.53	964.30
386.72	992.39
386.92	1046.22
387.11	1018.13
387.31	1032.18
387.50	1055.58
387.70	1060.26
387.89	1046.22
388.09	1081.33
388.28	1074.31
388.48	1132.82
388.67	1121.12
388.86	1111.75
389.06	1071.97
389.25	1170.27
389.45	1109.41
389.64	1167.93
389.84	1231.12
390.03	1165.59
390.22	1254.53
390.42	1317.72
390.61	1210.06
390.81	1191.33
391.00	1334.11
391.19	1317.72
391.39	1221.76
391.58	1238.14
391.78	1329.42
391.97	1270.91
392.16	1364.53
392.36	1392.62
392.55	1303.68
392.75	1357.51
392.94	1336.45
393.13	1444.11
393.33	1439.43
393.52	1453.47
393.71	1406.66
393.91	1390.28
394.10	1427.73
394.29	1357.51
394.49	1348.15
394.68	1493.26
394.88	1467.52
395.07	1497.94
395.26	1488.58
395.46	1572.84
395.65	1589.22
395.84	1610.29
396.04	1589.22
396.23	1617.31
396.42	1710.93
396.62	1593.90
396.81	1591.56
397.00	1572.84
397.19	1638.38
397.39	1589.22
397.58	1720.29
397.77	1629.01
397.97	1734.34
398.16	1680.50
398.35	1813.92
398.55	1809.23
398.74	1816.26
398.93	1902.86
399.12	1802.21
399.32	1724.97
399.51	1741.36
399.70	1797.53
399.90	1937.96
400.09	1921.58
400.28	1879.45
400.47	1914.56
400.67	1963.71
400.86	1872.43
401.05	1886.47
401.24	2087.76
401.44	2097.12
401.63	1991.80
401.82	2054.99
402.01	1944.99
402.21	2139.25
402.40	2064.35
402.59	2125.21
402.78	2183.72
402.97	2225.85
403.17	2087.76
403.36	2186.06
403.55	2284.36
403.74	2230.53
403.93	2298.41
404.13	2342.88
404.32	2356.92
404.51	2272.66
404.70	2387.35
404.89	2331.17
405.09	2413.09
405.28	2354.58
405.47	2499.69
405.66	2497.35
405.85	2548.84
406.05	2572.25
406.24	2555.86
406.43	2434.16
406.62	2539.48
406.81	2661.19
407.00	2459.90
407.20	2562.89
407.39	2619.06
407.58	2715.02
407.77	2686.94
407.96	2614.38
408.15	2621.40
408.34	2703.32
408.54	2843.75
408.73	2789.92
408.92	2649.49
409.11	2850.77
409.30	2850.77
409.49	2939.71
409.68	2949.08
409.87	2818.00
410.07	2956.10
410.26	2977.16
410.45	2942.05
410.64	3059.08
410.83	3117.59
411.02	3007.59
411.21	3098.87
411.40	3180.79
411.59	3232.28
411.78	3258.03
411.98	3304.84
412.17	3290.79
412.36	3286.11
412.55	3449.95
412.74	3524.85
412.93	3475.70
413.12	3379.73
413.31	3435.91
413.50	3482.72
413.69	3625.49
413.88	3595.06
414.07	3431.23
414.26	3735.50
414.45	3679.32
414.64	3758.90
414.83	3878.27
415.02	3894.65
415.22	3765.92
415.41	3941.46
415.60	3988.27
415.79	3878.27
415.98	4051.47
416.17	3896.99
416.36	4117.00
416.55	4100.62
416.74	4175.52
416.93	4189.56
417.12	4182.54
417.31	4318.29
417.50	4278.50
417.69	4430.63
417.88	4315.95
418.07	4432.97
418.26	4315.95
418.45	4461.06
418.64	4564.04
418.83	4573.41
419.02	4482.13
419.21	4664.69
419.39	4547.66
419.58	4482.13
419.77	4468.08
419.96	4615.54
420.15	4802.78
420.34	4861.29
420.53	4711.50
420.72	4877.68
420.91	4713.84
421.10	4791.08
421.29	4882.36
421.48	4784.06
421.67	4999.38
421.86	4891.72
422.05	4994.70
422.24	4968.96
422.43	4999.38
422.61	5074.28
422.80	5025.13
422.99	5081.30
423.18	5069.60
423.37	5181.95
423.56	5212.37
423.75	5135.14
423.94	5004.07
424.13	4669.37
424.32	4863.63
424.50	5160.88
424.69	5095.35
424.88	5291.95
425.07	5025.13
425.26	5060.24
425.45	5018.11
425.64	5074.28
425.83	5081.30
426.01	5364.51
426.20	5303.65
426.39	5203.01
426.58	5085.98
426.77	5268.55
426.96	5273.23
427.15	5535.37
427.33	5320.04
427.52	5334.08
427.71	5345.78
427.90	5430.04
428.09	5345.78
428.28	5465.15
428.46	5614.95
428.65	5533.03
428.84	5685.16
429.03	5575.16
429.22	5406.64
429.40	5785.80
429.59	5607.92
429.78	5387.91
429.97	5502.60
430.16	5617.29
430.34	5682.82
430.53	5928.58
430.72	5781.12
430.91	5710.91
431.10	5832.62
431.28	5893.47
431.47	5968.37
431.66	6083.05
431.85	5951.98
432.03	6057.31
432.22	6195.40
432.41	6008.16
432.60	6136.88
432.79	6120.50
432.97	6380.30
433.16	6239.87
433.35	6132.20
433.54	6237.53
433.72	6188.38
433.91	6368.60
434.10	6303.06
434.28	6214.12
434.47	6459.88
434.66	6520.73
434.85	6693.93
435.03	6431.79
435.22	6658.82
435.41	6789.89
435.59	6572.22
435.78	6588.61
435.97	6595.63
436.16	6691.59
436.34	6565.20
436.53	6677.55
436.72	6839.05
436.90	6754.79
437.09	6740.74
437.28	6626.06
437.46	6841.39
437.65	7049.69
437.84	6864.79
438.02	7045.01
438.21	7089.48
438.40	6808.62
438.58	7150.34
438.77	7295.45
438.96	7037.99
439.14	7421.84
439.33	7433.54
439.52	7433.54
439.70	7428.86
439.89	7611.42
440.08	7412.48
440.26	7751.85
440.45	7625.47
440.63	7789.30
440.82	7983.57
441.01	7758.88
441.19	7847.82
441.38	8074.85
441.57	7995.27
441.75	8044.42
441.94	8238.69
442.12	8318.26
442.31	8397.84
442.50	8215.28
442.68	8299.54
442.87	8409.54
443.05	8575.72
443.24	8596.79
443.43	8451.67
443.61	8610.83
443.80	8814.46
443.98	8458.70
444.17	8023.36
444.35	8617.85
444.54	8819.14
444.73	8720.84
444.91	8615.51
445.10	8692.75
445.28	8620.19
445.47	8418.91
445.65	8730.20
445.84	8767.65
446.02	8929.14
446.21	8709.13
446.39	8870.63
446.58	8858.93
446.77	8910.42
446.95	8681.05
447.14	8840.20
447.32	8898.72
447.51	8826.16
447.69	8917.44
447.88	8908.08
448.06	8966.59
448.25	8896.38
448.43	9057.87
448.62	8929.14
448.80	8980.64
448.99	9202.99
449.17	9160.86
449.36	9139.79
449.54	9181.92
449.73	9401.93
449.91	9563.43
450.10	9530.66
450.28	9678.12
450.46	9661.73
450.65	9617.26
450.83	9671.09
451.02	9430.02
451.20	9757.69
451.39	9434.70
451.57	9598.54
451.76	9401.93
451.94	9516.62
452.13	9706.20
452.31	9813.87
452.49	9507.26
452.68	9579.81
452.86	9961.32
453.05	9741.31
453.23	9900.47
453.42	9947.28
453.60	9795.14
453.78	9912.17
453.97	9844.29
454.15	10017.49
454.34	9872.38
454.52	10333.47
454.70	10260.91
454.89	10108.77
455.07	10195.37
455.26	10366.23
455.44	10541.77
455.62	10277.29
455.81	10443.47
455.99	10342.83
456.17	10319.42
456.36	10628.37
456.54	10532.41
456.73	10754.76
456.91	10848.38
457.09	10909.24
457.28	11206.48
457.46	10934.98
457.64	11000.52
457.83	11091.80
458.01	10986.47
458.19	11323.51
458.38	11154.99
458.56	11342.24
458.74	11227.55
458.93	11176.06
459.11	11133.93
459.29	11075.42
459.48	11250.96
459.66	11527.14
459.84	11552.88
460.03	11613.74
460.21	11569.27
460.39	11499.05
460.57	11499.05
460.76	11662.89
460.94	11754.17
461.12	11405.43
461.31	11705.02
461.49	11812.68
461.67	11690.98
461.85	12084.19
462.04	12058.44
462.22	12484.42
462.40	12135.68
462.59	12156.74
462.77	12123.98
462.95	12425.90
463.13	12145.04
463.32	12248.02
463.50	12348.67
463.68	12196.53
463.86	12217.60
464.05	12116.95
464.23	12163.76
464.41	12409.52
464.59	12114.61
464.78	12540.59
464.96	12442.29
465.14	12641.23
465.32	12674.00
465.50	13039.12
465.69	12929.12
465.87	12542.93
466.05	12692.73
466.23	12943.16
466.41	12943.16
466.60	13125.72
466.78	12732.51
466.96	12793.37
467.14	13008.70
467.32	12940.82
467.51	13259.13
467.69	13004.02
467.87	13067.21
468.05	13380.84
468.23	12814.43
468.41	13259.13
468.60	13303.60
468.78	13392.55
468.96	13287.22
469.14	13486.17
469.32	13465.10
469.50	13504.89
469.69	13603.19
469.87	13837.25
470.05	13844.27
470.23	14017.47
470.41	13720.22
470.59	14026.83
470.77	13724.90
470.95	14087.68
471.14	13996.40
471.32	13884.06
471.50	14375.57
471.68	14548.77
471.86	14375.57
472.04	14424.72
472.22	14569.83
472.40	14574.52
472.58	14719.63
472.77	14633.03
472.95	15040.28
473.13	15314.13
473.31	14738.35
473.49	14965.39
473.67	14977.09
473.85	15154.97
474.03	15454.56
474.21	15583.29
474.39	15213.48
474.57	15704.99
474.75	15815.00
474.93	15861.81
475.12	15728.40
475.30	15768.19
475.48	15927.35
475.66	15990.54
475.84	16198.85
476.02	16240.98
476.20	16388.43
476.38	16678.66
476.56	16826.11
476.74	16849.52
476.92	16833.13
477.10	16709.08
477.28	17114.00
477.46	17055.48
477.64	17224.00
477.82	17371.46
478.00	17778.71
478.18	17874.67
478.36	17832.54
478.54	18235.11
478.72	18087.66
478.90	18015.10
479.08	18450.44
479.26	18515.98
479.44	18625.98
479.62	19143.24
479.80	18977.06
479.98	19108.13
480.16	19562.20
480.34	19234.52
480.52	19627.73
480.70	19447.51
480.88	19150.26
481.06	20006.90
481.24	19742.42
481.41	20538.20
481.59	20409.47
481.77	20645.87
481.95	20795.66
482.13	20882.26
482.31	21088.23
482.49	21717.83
482.67	21469.73
482.85	21731.87
483.03	21816.13
483.21	22375.52
483.39	22141.47
483.57	22005.72
483.74	22249.13
483.92	22604.89
484.10	22438.72
484.28	22492.55
484.46	23426.42
484.64	23763.46
484.82	23068.32
485.00	23634.73
485.18	23861.76
485.35	24423.49
485.53	24259.65
485.71	24271.36
485.89	25043.73
486.07	24929.05
486.25	24961.81
486.43	24893.94
486.61	25179.48
486.78	25455.67
486.96	25734.19
487.14	26164.85
487.32	26122.72
487.50	26352.09
487.68	26768.71
487.85	26806.16
488.03	27084.68
488.21	27358.52
488.39	27054.25
488.57	27784.50
488.75	27608.96
488.92	28224.52
489.10	28591.98
489.28	28308.78
489.46	28528.79
489.64	28716.03
489.81	29149.03
489.99	29003.92
490.17	29670.97
490.35	29661.61
490.53	30033.75
490.70	30508.88
490.88	30256.11
491.06	30874.01
491.24	30478.46
491.41	30792.09
491.59	30558.03
491.77	31035.50
491.95	31480.21
492.13	31885.12
492.30	31995.12
492.48	31543.40
492.66	32018.53
492.84	31847.67
493.01	32535.79
493.19	32500.68
493.37	32900.91
493.54	32816.65
493.72	33088.15
493.90	33687.33
494.08	33879.25
494.25	34136.71
494.43	34176.50
494.61	34160.12
494.79	34649.29
494.96	34244.38
495.14	34473.75
495.32	35208.68
495.49	35079.95
495.67	35274.21
495.85	35573.80
496.02	36346.18
496.20	35487.20
496.38	36077.02
496.55	36205.75
496.73	36833.01
496.91	36723.01
497.09	36657.47
497.26	37156.00
497.44	37221.54
497.62	37219.20
497.79	37736.46
497.97	37593.68
498.14	38244.35
498.32	38139.03
498.50	38328.61
498.67	38677.35
498.85	38703.10
499.03	38831.83
499.20	39068.22
499.38	39122.05
499.56	39196.95
499.73	39321.00
499.91	39730.59
500.08	39697.83
500.26	39299.94
500.44	39407.60
500.61	40076.99
500.79	40479.57
500.97	41277.69
501.14	40601.27
501.32	40627.02
501.49	40634.04
501.67	40767.45
501.84	41277.69
502.02	41588.98
502.20	41563.23
502.37	41495.36
502.55	41766.86
502.72	41930.70
502.90	41663.88
503.07	41787.92
503.25	42185.82
503.43	42082.83
503.60	42890.32
503.78	42487.74
503.95	42478.38
504.13	42459.66
504.30	42878.61
504.48	43009.68
504.65	43342.04
504.83	43409.92
505.01	43604.18
505.18	43686.10
505.36	44156.55
505.53	43386.51
505.71	44186.97
505.88	44357.83
506.06	44311.02
506.23	44718.28
506.41	44605.93
506.58	44374.22
506.76	44781.47
506.93	44350.81
507.11	44837.64
507.28	45041.27
507.46	44968.71
507.63	45404.05
507.81	45446.18
507.98	45661.51
508.16	45319.79
508.33	45406.39
508.50	45972.80
508.68	45792.58
508.85	46216.22
509.03	46361.33
509.20	46679.64
509.38	46897.31
509.55	46546.23
509.73	46967.53
509.90	47339.68
510.08	47285.84
510.25	46902.00
510.42	47461.38
510.60	47615.86
510.77	47995.03
510.95	48048.86
511.12	47358.40
511.30	47529.26
511.47	47870.98
511.64	48149.50
511.82	48591.86
511.99	47868.64
512.17	48411.64
512.34	48575.48
512.51	48804.85
512.69	48685.48
512.86	48498.24
513.04	49322.11
513.21	49677.87
513.38	49310.41
513.56	49397.01
513.73	48966.35
513.90	49450.84
514.08	49191.04
514.25	49642.76
514.43	49710.64
514.60	49949.37
514.77	49715.32
514.95	50038.31
515.12	50347.26
515.29	49734.04
515.47	50174.06
515.64	50490.04
515.81	50199.81
515.99	50705.37
516.16	50873.88
516.33	51063.47
516.51	50948.78
516.68	50548.55
516.85	50981.55
517.03	51253.05
517.20	51255.39
517.37	51370.08
517.54	51379.44
517.72	51243.69
517.89	51281.14
518.06	51477.74
518.24	51016.66
518.41	51538.60
518.58	51501.15
518.75	51789.03
518.93	52051.17
519.10	51875.63
519.27	52046.49
519.45	51903.72
519.62	51924.78
519.79	52093.30
519.96	52163.52
520.14	52273.52
520.31	52257.14
520.48	52425.66
520.65	52266.50
520.83	52734.61
521.00	52818.87
521.17	52484.17
521.34	52767.38
521.52	52907.81
521.69	52837.59
521.86	53050.58
522.03	53176.97
522.20	53436.77
522.38	53207.40
522.55	53588.91
522.72	53441.45
522.89	53691.89
523.07	53572.52
523.24	53743.38
523.41	53792.53
523.58	53462.52
523.75	53719.98
523.92	53336.13
524.10	53635.72
524.27	53818.28
524.44	53708.27
524.61	54253.62
524.78	54164.68
524.96	53904.88
525.13	54152.97
525.30	54096.80
525.47	54218.51
525.64	54260.64
525.81	54609.38
525.98	54417.46
526.16	54398.73
526.33	54681.94
526.50	54590.66
526.67	54417.46
526.84	54415.11
527.01	54431.50
527.18	54920.67
527.36	55166.43
527.53	54796.62
527.70	55187.49
527.87	55077.49
528.04	54784.92
528.21	55112.59
528.38	55159.41
528.55	55210.90
528.72	55161.75
528.89	55407.50
529.07	55229.62
529.24	55379.42
529.41	55494.10
529.58	55353.67
529.75	55344.31
529.92	55449.63
530.09	55545.59
530.26	55723.47
530.43	55473.04
530.60	55585.38
530.77	55814.76
530.94	55931.78
531.11	55641.56
531.28	55833.48
531.46	55714.11
531.63	56154.13
531.80	56301.59
531.97	55952.85
532.14	56222.01
532.31	56399.89
532.48	56090.94
532.65	56313.29
532.82	56226.69
532.99	56207.97
533.16	56229.03
533.33	56404.57
533.50	56594.15
533.67	56662.03
533.84	56381.16
534.01	56406.91
534.18	56353.08
534.35	56535.64
534.52	56559.05
534.69	56992.04
534.86	57024.81
535.03	56680.75
535.20	56907.79
535.37	56804.80
535.54	56893.74
535.71	57001.41
535.88	56879.70
536.05	56973.32
536.22	57251.84
536.38	57155.88
536.55	57134.82
536.72	57329.08
536.89	56949.92
537.06	57242.48
537.23	57511.64
537.40	57003.75
537.57	57188.65
537.74	57212.06
537.91	57612.29
538.08	57539.73
538.25	57249.50
538.42	57443.77
538.59	57462.49
538.75	57368.87
538.92	57467.17
539.09	57652.08
539.26	57717.61
539.43	57822.93
539.60	57794.85
539.77	57750.38
539.94	57635.69
540.11	57616.97
540.28	57818.25
540.44	57855.70
540.61	57757.40
540.78	58056.99
540.95	57984.43
541.12	57977.41
541.29	58164.65
541.46	57951.66
541.62	58094.44
541.79	58082.73
541.96	57895.49
542.13	58108.48
542.30	58106.14
542.47	58464.24
542.63	58424.45
542.80	58581.27
542.97	58562.54
543.14	58656.17
543.31	58426.79
543.48	58635.10
543.64	58693.61
543.81	58880.86
543.98	58927.67
544.15	58838.73
544.32	59021.29
544.48	58953.41
544.65	58504.03
544.82	58759.15
544.99	58630.42
545.16	58805.96
545.32	58628.08
545.49	59339.60
545.66	59187.47
545.83	59068.10
546.00	59007.25
546.16	58869.15
546.33	59047.04
546.50	58904.26
546.67	59035.33
546.83	58946.39
547.00	58948.73
547.17	59283.43
547.34	59292.79
547.50	59178.10
547.67	59365.35
547.84	59353.65
548.00	59405.14
548.17	59564.29
548.34	59428.54
548.51	59463.65
548.67	59629.83
548.84	59550.25
549.01	59510.46
549.18	59547.91
549.34	59538.55
549.51	59688.34
549.68	59622.81
549.84	59559.61
550.01	59491.74
550.18	59573.66
550.34	59671.96
550.51	60069.85
550.68	59725.79
550.84	59519.82
551.01	59627.49
551.18	59641.53
551.34	59484.72
551.51	59852.18
551.68	60030.06
551.84	60081.55
552.01	59894.31
552.18	59884.95
552.34	59774.94
552.51	59798.35
552.68	59880.27
552.84	60109.64
553.01	60294.54
553.18	60100.28
553.34	60292.20
553.51	60137.72
553.67	60350.71
553.84	60432.63
554.01	60477.10
554.17	60388.16
554.34	60217.30
554.51	60369.44
554.67	60460.72
554.84	60493.49
555.00	60371.78
555.17	60451.36
555.33	60479.44
555.50	60301.56
555.67	60434.97
555.83	60339.01
556.00	60528.59
556.16	60680.73
556.33	60430.29
556.50	60612.85
556.66	60650.30
556.83	60617.53
556.99	60767.33
557.16	60711.16
557.32	60633.92
557.49	60755.63
557.65	60530.93
557.82	60654.98
557.98	60633.92
558.15	60697.11
558.32	60633.92
558.48	60940.53
558.65	61015.43
558.81	60699.45
558.98	60786.05
559.14	60683.07
559.31	60692.43
559.47	60701.79
559.64	61022.45
559.80	60903.08
559.97	61200.33
560.13	60825.84
560.30	61024.79
560.46	61132.45
560.63	60879.67
560.79	60982.66
560.96	60992.02
561.12	60933.51
561.29	61041.17
561.45	61151.18
561.61	61099.68
561.78	61216.71
561.94	61151.18
562.11	61034.15
562.27	61205.01
562.44	61212.03
562.60	61134.79
562.77	61113.73
562.93	61045.85
563.10	61406.30
563.26	61242.46
563.42	61429.70
563.59	61408.64
563.75	61202.67
563.92	61434.38
564.08	61162.88
564.24	61207.35
564.41	61315.01
564.57	61296.29
564.74	61300.97
564.90	61467.15
565.07	61338.42
565.23	61434.38
565.39	61326.72
565.56	61495.24
565.72	61385.23
565.88	61415.66
566.05	61256.50
566.21	61366.51
566.38	61399.27
566.54	61478.85
566.70	61579.49
566.87	61670.78
567.03	61588.86
567.19	61694.18
567.36	61478.85
567.52	61490.55
567.68	61738.65
567.85	61235.44
568.01	61619.28
568.17	61422.68
568.34	61572.47
568.50	61638.01
568.66	61605.24
568.83	61677.80
568.99	61462.47
569.15	61492.89
569.32	61528.00
569.48	61469.49
569.64	61740.99
569.81	61656.73
569.97	61595.88
570.13	61740.99
570.30	61497.58
570.46	61755.03
570.62	61694.18
570.78	61509.28
570.95	61385.23
571.11	61769.08
571.27	61513.96
571.43	61563.11
571.60	61876.74
571.76	61630.99
571.92	61738.65
572.09	61771.42
572.25	61865.04
572.41	61874.40
572.57	61902.49
572.74	61722.27
572.90	61633.33
573.06	61773.76
573.22	61691.84
573.38	61951.64
573.55	61909.51
573.71	62082.71
573.87	62026.54
574.03	61939.94
574.20	61911.85
574.36	61654.39
574.52	61694.18
574.68	61764.40
574.84	61881.42
575.01	62007.81
575.17	61895.47
575.33	61851.00
575.49	61879.08
575.65	62096.75
575.82	61975.05
575.98	61797.16
576.14	61904.83
576.30	61815.89
576.46	61888.45
576.62	61989.09
576.79	61961.00
576.95	61820.57
577.11	62096.75
577.27	62122.50
577.43	61979.73
577.59	61965.68
577.75	61680.14
577.92	61635.67
578.08	61937.60
578.24	61946.96
578.40	61991.43
578.56	62073.35
578.72	62078.03
578.88	62162.29
579.04	62129.52
579.21	61939.94
579.37	62000.79
579.53	62021.86
579.69	61911.85
579.85	61865.04
580.01	61993.77
580.17	62028.88
580.33	62038.24
580.49	61949.30
580.65	62113.14
580.82	62298.04
580.98	62049.94
581.14	62028.88
581.30	61975.05
581.46	61839.29
581.62	62012.49
581.78	61836.95
581.94	61998.45
582.10	61808.87
582.26	62136.54
582.42	62042.92
582.58	62288.68
582.74	62089.73
582.90	61888.45
583.06	62000.79
583.22	61890.79
583.38	62042.92
583.54	62028.88
583.70	62042.92
583.86	61998.45
584.02	61843.98
584.18	62211.44
584.34	62075.69
584.50	62082.71
584.66	62052.28
584.82	62162.29
584.98	62085.05
585.14	61975.05
585.30	61904.83
585.46	61991.43
585.62	62106.12
585.78	62094.41
585.94	61939.94
586.10	62260.59
586.26	62223.14
586.42	62211.44
586.58	62120.16
586.74	62080.37
586.90	61853.34
587.06	61918.87
587.22	62162.29
587.38	62087.39
587.54	62326.13
587.70	62309.74
587.86	62244.21
588.02	62408.04
588.18	62302.72
588.34	62300.38
588.49	62239.53
588.65	62089.73
588.81	62136.54
588.97	62312.08
