SpectraSuite Data File
++++++++++++++++++++++++++++++++++++
Date: Fri Oct 04 11:48:39 GMT-05:00 2013
User: price-jones
Dark Spectrum Present: No
Reference Spectrum Present: No
Number of Sampled Component Spectra: 1
Spectrometers: USB2+H05261
Integration Time (usec): 100000 (USB2+H05261)
Spectra Averaged: 1 (USB2+H05261)
Boxcar Smoothing: 0 (USB2+H05261)
Correct for Electrical Dark: No (USB2+H05261)
Strobe/Lamp Enabled: No (USB2+H05261)
Correct for Detector Non-linearity: No (USB2+H05261)
Correct for Stray Light: No (USB2+H05261)
Number of Pixels in Processed Spectrum: 2048
>>>>>Begin Processed Spectral Data<<<<<
365.73	39.79
365.92	39.79
366.12	39.79
366.32	0.00
366.52	0.00
366.72	0.00
366.91	0.00
367.11	0.00
367.31	0.00
367.51	0.00
367.70	0.00
367.90	0.00
368.10	0.00
368.30	0.00
368.49	0.00
368.69	0.00
368.89	0.00
369.09	0.00
369.28	0.00
369.48	0.00
369.68	0.00
369.87	0.00
370.07	11.70
370.27	28.09
370.47	191.92
370.66	475.13
370.86	571.09
371.06	629.60
371.25	594.50
371.45	552.37
371.65	664.71
371.84	636.63
372.04	578.11
372.24	585.13
372.44	557.05
372.63	610.88
372.83	741.95
373.03	727.91
373.22	713.86
373.42	699.82
373.62	781.74
373.81	809.83
374.01	765.36
374.21	753.65
374.40	821.53
374.60	763.01
374.79	781.74
374.99	823.87
375.19	772.38
375.38	791.10
375.58	828.55
375.78	861.32
375.97	863.66
376.17	837.91
376.37	781.74
376.56	854.30
376.76	866.00
376.95	917.49
377.15	884.72
377.35	933.87
377.54	837.91
377.74	880.04
377.93	866.00
378.13	854.30
378.33	908.13
378.52	947.92
378.72	802.80
378.91	964.30
379.11	912.81
379.31	943.24
379.50	987.71
379.70	980.68
379.89	1053.24
380.09	987.71
380.28	1057.92
380.48	1078.99
380.68	926.85
380.87	964.30
381.07	1067.28
381.26	1013.45
381.46	994.73
381.65	1057.92
381.85	1153.88
382.04	1132.82
382.24	1097.71
382.43	1107.07
382.63	1111.75
382.83	1142.18
383.02	1123.46
383.22	1167.93
383.41	1041.54
383.61	1109.41
383.80	1107.07
384.00	1186.65
384.19	1217.08
384.39	1064.94
384.58	1186.65
384.78	1231.12
384.97	1289.64
385.17	1186.65
385.36	1233.46
385.56	1270.91
385.75	1273.25
385.95	1181.97
386.14	1268.57
386.34	1263.89
386.53	1322.40
386.72	1296.66
386.92	1315.38
387.11	1294.32
387.31	1280.27
387.50	1277.93
387.70	1317.72
387.89	1369.21
388.09	1322.40
388.28	1357.51
388.48	1352.83
388.67	1439.43
388.86	1451.13
389.06	1537.73
389.25	1504.96
389.45	1476.88
389.64	1479.22
389.84	1554.12
390.03	1476.88
390.22	1493.26
390.42	1507.30
390.61	1558.80
390.81	1514.33
391.00	1570.50
391.19	1589.22
391.39	1621.99
391.58	1551.78
391.78	1586.88
391.97	1647.74
392.16	1624.33
392.36	1724.97
392.55	1727.32
392.75	1760.08
392.94	1703.91
393.13	1724.97
393.33	1687.53
393.52	1678.16
393.71	1870.09
393.91	1774.13
394.10	1685.19
394.29	1804.55
394.49	1762.42
394.68	1909.88
394.88	1858.39
395.07	1844.34
395.26	1874.77
395.46	1785.83
395.65	2059.67
395.84	1940.30
396.04	2026.90
396.23	2029.24
396.42	1907.54
396.62	2040.95
396.81	1947.33
397.00	2010.52
397.19	2008.18
397.39	2019.88
397.58	2129.89
397.77	2033.93
397.97	2059.67
398.16	2101.80
398.35	2172.02
398.55	2207.13
398.74	2298.41
398.93	2221.17
399.12	2153.29
399.32	2167.34
399.51	2092.44
399.70	2342.88
399.90	2242.23
400.09	2385.01
400.28	2331.17
400.47	2310.11
400.67	2459.90
400.86	2443.52
401.05	2424.80
401.24	2459.90
401.44	2499.69
401.63	2422.45
401.82	2436.50
402.01	2476.29
402.21	2539.48
402.40	2588.63
402.59	2682.25
402.78	2682.25
402.97	2799.28
403.17	2539.48
403.36	2612.04
403.55	2502.03
403.74	2799.28
403.93	2708.00
404.13	2876.52
404.32	2759.49
404.51	2672.89
404.70	2836.73
404.89	2780.56
405.09	2836.73
405.28	2897.58
405.47	2827.37
405.66	2949.08
405.85	2935.03
406.05	3028.65
406.24	3009.93
406.43	3000.57
406.62	3206.53
406.81	3180.79
407.00	3112.91
407.20	2960.78
407.39	3054.40
407.58	3215.90
407.77	3251.00
407.96	3178.45
408.15	3232.28
408.34	3190.15
408.54	3258.03
408.73	3346.97
408.92	3522.51
409.11	3445.27
409.30	3391.44
409.49	3368.03
409.68	3410.16
409.87	3454.63
410.07	3473.36
410.26	3541.23
410.45	3578.68
410.64	3602.08
410.83	3688.68
411.02	3609.11
411.21	3784.65
411.40	3761.24
411.59	3822.09
411.78	3913.38
411.98	3850.18
412.17	3960.19
412.36	3747.20
412.55	3913.38
412.74	4035.08
412.93	4056.15
413.12	3983.59
413.31	4177.86
413.50	4156.79
413.69	4173.18
413.88	4241.05
414.07	4304.25
414.26	4311.27
414.45	4411.91
414.64	4437.66
414.83	4514.89
415.02	4491.49
415.22	4463.40
415.41	4631.92
415.60	4634.26
415.79	4723.20
415.98	4720.86
416.17	4809.80
416.36	4596.81
416.55	4704.48
416.74	4912.78
416.93	4887.04
417.12	4882.36
417.31	4922.15
417.50	4912.78
417.69	5083.64
417.88	5242.80
418.07	4983.00
418.26	5151.52
418.45	5446.43
418.64	5338.76
418.83	5376.21
419.02	5441.75
419.21	5488.56
419.39	5526.00
419.58	5275.57
419.77	5303.65
419.96	5479.19
420.15	5387.91
420.34	5385.57
420.53	5434.72
420.72	5746.02
420.91	5696.86
421.10	5596.22
421.29	5678.14
421.48	5570.48
421.67	5692.18
421.86	5661.76
422.05	5846.66
422.24	5834.96
422.43	5741.33
422.61	5851.34
422.80	5867.72
422.99	5884.11
423.18	5926.24
423.37	5877.09
423.56	6019.86
423.75	5846.66
423.94	5954.32
424.13	5486.22
424.32	5579.84
424.50	5893.47
424.69	6195.40
424.88	6015.18
425.07	5994.11
425.26	5966.03
425.45	6059.65
425.64	5839.64
425.83	6008.16
426.01	6108.80
426.20	6010.50
426.39	6125.18
426.58	6001.13
426.77	6296.04
426.96	6097.10
427.15	6235.19
427.33	6122.84
427.52	6092.41
427.71	6216.46
427.90	6270.30
428.09	6441.15
428.28	6476.26
428.46	6607.33
428.65	6480.94
428.84	6665.85
429.03	6583.93
429.22	6628.40
429.40	6525.41
429.59	6609.67
429.78	6328.81
429.97	6462.22
430.16	6476.26
430.34	6806.28
430.53	6855.43
430.72	6827.34
430.91	6621.38
431.10	6888.20
431.28	6832.02
431.47	6899.90
431.66	7108.21
431.85	6832.02
432.03	6986.50
432.22	7220.55
432.41	7190.13
432.60	7035.65
432.79	7124.59
432.97	7307.15
433.16	7332.90
433.35	7087.14
433.54	7241.62
433.72	7403.11
433.91	7293.11
434.10	7447.58
434.28	7499.08
434.47	7424.18
434.66	7466.31
434.85	7576.31
435.03	7503.76
435.22	7468.65
435.41	7719.09
435.59	7878.24
435.78	7791.64
435.97	8006.97
436.16	8002.29
436.34	7932.08
436.53	7824.41
436.72	8009.31
436.90	7784.62
437.09	7873.56
437.28	7988.25
437.46	8044.42
437.65	8046.76
437.84	8112.30
438.02	8147.40
438.21	8035.06
438.40	8100.59
438.58	8332.31
438.77	8461.04
438.96	8528.91
439.14	8655.30
439.33	8519.55
439.52	8835.52
439.70	8688.07
439.89	8674.03
440.08	8809.78
440.26	8840.20
440.45	9006.38
440.63	8926.80
440.82	9240.44
441.01	9263.84
441.19	9156.18
441.38	9423.00
441.57	9448.74
441.75	9521.30
441.94	9645.35
442.12	9720.24
442.31	9710.88
442.50	9685.14
442.68	9806.84
442.87	9643.01
443.05	9872.38
443.24	9907.49
443.43	9884.08
443.61	10087.71
443.80	10284.31
443.98	9832.59
444.17	9628.96
444.35	9977.70
444.54	10132.18
444.73	9949.62
444.91	9935.57
445.10	10092.39
445.28	10237.50
445.47	9982.38
445.65	10108.77
445.84	10230.48
446.02	10221.12
446.21	10289.00
446.39	10242.18
446.58	10427.09
446.77	10480.92
446.95	9991.75
447.14	10251.55
447.32	10246.87
447.51	10356.87
447.69	10291.34
447.88	10279.63
448.06	10611.99
448.25	10520.71
448.43	10459.85
448.62	10396.66
448.80	10513.69
448.99	10569.86
449.17	10642.42
449.36	10466.88
449.54	10942.00
449.73	10850.72
449.91	10923.28
450.10	11089.46
450.28	11028.60
450.46	10981.79
450.65	10895.19
450.83	11190.10
451.02	11005.20
451.20	11199.46
451.39	11117.54
451.57	11042.65
451.76	11248.61
451.94	11236.91
452.13	11253.30
452.31	11524.80
452.49	11007.54
452.68	11272.02
452.86	11353.94
453.05	11564.59
453.23	11653.53
453.42	11356.28
453.60	11524.80
453.78	11405.43
453.97	11262.66
454.15	11637.14
454.34	11625.44
454.52	11698.00
454.70	11719.06
454.89	11857.15
455.07	11908.65
455.26	11885.24
455.44	12116.95
455.62	12135.68
455.81	12140.36
455.99	12175.47
456.17	12346.33
456.36	12205.89
456.54	12250.36
456.73	12575.70
456.91	12926.78
457.09	12947.84
457.28	12996.99
457.46	12482.08
457.64	12912.74
457.83	12870.61
458.01	12627.19
458.19	13149.13
458.38	12950.18
458.56	13158.49
458.74	13111.68
458.93	13235.73
459.11	13245.09
459.29	12896.35
459.48	13282.54
459.66	13198.28
459.84	13163.17
460.03	13502.55
460.21	13455.74
460.39	13331.69
460.57	13432.33
460.76	13642.98
460.94	13727.24
461.12	13561.06
461.31	13834.91
461.49	13755.33
461.67	13692.13
461.85	13776.39
462.04	14085.34
462.22	14562.81
462.40	14087.68
462.59	14249.18
462.77	14188.33
462.95	14171.94
463.13	14052.58
463.32	14284.29
463.50	14242.16
463.68	14361.53
463.86	14455.15
464.05	14291.31
464.23	14464.51
464.41	14387.27
464.59	14293.65
464.78	14668.14
464.96	14523.02
465.14	14387.27
465.32	14611.96
465.50	14963.04
465.69	14799.21
465.87	14656.43
466.05	14766.44
466.23	14710.27
466.41	15075.39
466.60	15440.51
466.78	14787.50
466.96	14909.21
467.14	14916.23
467.32	15112.84
467.51	15342.21
467.69	15103.48
467.87	15096.46
468.05	15206.46
468.23	15185.40
468.41	15473.28
468.60	15527.11
468.78	15599.67
468.96	15323.49
469.14	15939.05
469.32	15812.66
469.50	15492.01
469.69	15885.22
469.87	16173.10
470.05	16327.58
470.23	16343.96
470.41	16056.08
470.59	16329.92
470.77	15990.54
470.95	16336.94
471.14	16685.68
471.32	16379.07
471.50	16872.92
471.68	16746.53
471.86	16924.41
472.04	16709.08
472.22	17240.39
472.40	17034.42
472.58	17259.11
472.77	16917.39
472.95	17273.15
473.13	17748.28
473.31	17338.69
473.49	17422.95
473.67	17490.82
473.85	17628.92
474.03	17816.16
474.21	17877.01
474.39	18164.90
474.57	18195.32
474.75	18324.05
474.93	18464.49
475.12	18417.68
475.30	18562.79
475.48	18232.77
475.66	18714.92
475.84	18579.17
476.02	19066.00
476.20	18836.63
476.38	19227.50
476.56	19730.72
476.74	19627.73
476.92	19686.25
477.10	19384.32
477.28	20121.59
477.46	20201.16
477.64	20063.07
477.82	20554.58
478.00	20851.83
478.18	20940.77
478.36	21137.38
478.54	21324.62
478.72	21025.03
478.90	21472.07
479.08	21860.60
479.26	21961.25
479.44	22319.35
479.62	21963.59
479.80	22071.25
479.98	22326.37
480.16	23147.90
480.34	22534.68
480.52	23084.70
480.70	23035.55
480.88	22799.16
481.06	23136.20
481.24	23456.85
481.41	23569.19
481.59	24056.03
481.77	24098.16
481.95	24238.59
482.13	24526.47
482.31	24439.87
482.49	24931.39
482.67	24879.89
482.85	25844.20
483.03	25734.19
483.21	25811.43
483.39	25923.77
483.57	25891.01
483.74	26567.42
483.92	26513.59
484.10	26214.00
484.28	26630.62
484.46	27655.77
484.64	27742.37
484.82	27412.35
485.00	27583.21
485.18	28041.96
485.35	28383.68
485.53	28395.38
485.71	28451.55
485.89	29366.70
486.07	29113.92
486.25	28833.06
486.43	29120.95
486.61	29338.62
486.78	29996.31
486.96	30036.09
487.14	30485.48
487.32	30808.47
487.50	31220.41
487.68	30937.20
487.85	31417.01
488.03	31632.34
488.21	32119.17
488.39	32173.00
488.57	32563.87
488.75	32423.44
488.92	32566.21
489.10	33134.96
489.28	33186.46
489.46	33628.82
489.64	33640.52
489.81	34244.38
489.99	34352.04
490.17	34029.05
490.35	34827.17
490.53	34937.18
490.70	35047.18
490.88	35257.83
491.06	35697.85
491.24	35550.40
491.41	35889.77
491.59	36072.34
491.77	36397.67
491.95	36613.00
492.13	36837.69
492.30	36961.74
492.48	36877.48
492.66	37565.60
492.84	37361.97
493.01	38298.19
493.19	38405.85
493.37	38543.94
493.54	38553.30
493.72	39040.14
493.90	38934.81
494.08	39227.38
494.25	39503.56
494.43	39828.90
494.61	40109.76
494.79	40170.61
494.96	40446.80
495.14	40671.49
495.32	40844.69
495.49	41041.29
495.67	41591.32
495.85	41727.07
496.02	41577.28
496.20	42007.94
496.38	42045.38
496.55	42370.72
496.73	42735.84
496.91	42433.91
497.09	42948.83
497.26	43412.26
497.44	43065.86
497.62	43269.48
497.79	43833.55
497.97	43480.13
498.14	44245.49
498.32	44451.45
498.50	44484.22
498.67	44748.70
498.85	45074.04
499.03	44809.56
499.20	45315.11
499.38	45148.93
499.56	45397.03
499.73	45820.67
499.91	45780.88
500.08	46094.51
500.26	45834.71
500.44	46347.29
500.61	46401.12
500.79	46368.35
500.97	46506.44
501.14	47442.66
501.32	47157.11
501.49	47114.98
501.67	46974.55
501.84	47592.45
502.02	47433.30
502.20	47913.11
502.37	48273.55
502.55	47440.32
502.72	48126.10
502.90	48179.93
503.07	47990.34
503.25	48493.56
503.43	48423.34
503.60	48905.49
503.78	48868.05
503.95	48989.75
504.13	48914.86
504.30	49057.63
504.48	49282.32
504.65	49441.48
504.83	49673.19
505.01	49979.80
505.18	50052.36
505.36	50085.12
505.53	49595.95
505.71	49806.60
505.88	50000.86
506.06	50040.65
506.23	50590.68
506.41	50651.53
506.58	50494.72
506.76	50923.04
506.93	50497.06
507.11	50766.22
507.28	50969.85
507.46	51117.30
507.63	51435.61
507.81	51250.71
507.98	51545.62
508.16	51709.46
508.33	51674.35
508.50	51430.93
508.68	51887.34
508.85	52280.55
509.03	52177.56
509.20	52439.70
509.38	52526.30
509.55	52650.35
509.73	52821.21
509.90	52814.19
510.08	52905.47
510.25	52802.49
510.42	53010.79
510.60	53396.98
510.77	53174.63
510.95	53497.62
511.12	52973.34
511.30	53308.04
511.47	53570.18
511.64	53483.58
511.82	53553.80
511.99	53303.36
512.17	53909.56
512.34	53846.36
512.51	53944.67
512.69	54129.57
512.86	53975.09
513.04	54347.24
513.21	54319.15
513.38	54724.07
513.56	54588.31
513.73	54616.40
513.90	54550.87
514.08	54536.82
514.25	54805.98
514.43	54770.88
514.60	54965.14
514.77	54883.22
514.95	54974.50
515.12	54979.18
515.29	54930.03
515.47	55473.04
515.64	55313.88
515.81	55505.80
515.99	55547.93
516.16	55686.03
516.33	55845.18
516.51	55784.33
516.68	55590.06
516.85	55718.79
517.03	56048.81
517.20	55962.21
517.37	55901.36
517.54	56310.95
517.72	55990.30
517.89	56116.68
518.06	56142.43
518.24	56154.13
518.41	56425.64
518.58	56715.86
518.75	56435.00
518.93	56626.92
519.10	56343.72
519.27	56458.40
519.45	56495.85
519.62	56853.95
519.79	56828.21
519.96	56872.68
520.14	57048.22
520.31	56975.66
520.48	57169.93
520.65	57123.11
520.83	57289.29
521.00	57347.81
521.17	57104.39
521.34	57457.81
521.52	57666.12
521.69	57462.49
521.86	57703.57
522.03	57736.34
522.20	57890.81
522.38	58019.54
522.55	57844.00
522.72	57799.53
522.89	57914.22
523.07	58225.51
523.24	57968.05
523.41	58239.55
523.58	57930.60
523.75	58068.69
523.92	57925.92
524.10	58113.16
524.27	58265.30
524.44	58412.75
524.61	58658.51
524.78	58382.32
524.96	58621.06
525.13	58539.14
525.30	58794.26
525.47	58642.12
525.64	58590.63
525.81	58791.92
525.98	58976.82
526.16	59032.99
526.33	59068.10
526.50	58988.52
526.67	58988.52
526.84	59152.36
527.01	59068.10
527.18	59131.29
527.36	59377.05
527.53	59210.87
527.70	59678.98
527.87	59519.82
528.04	59157.04
528.21	59407.48
528.38	59171.08
528.55	59718.77
528.72	59526.84
528.89	59646.21
529.07	59442.59
529.24	59578.34
529.41	59779.62
529.58	59707.07
529.75	59576.00
529.92	59639.19
530.09	59753.88
530.26	59980.91
530.43	60130.70
530.60	59966.87
530.77	59915.37
530.94	60016.02
531.11	60053.47
531.28	60133.04
531.46	60023.04
531.63	60200.92
531.80	60336.67
531.97	60072.19
532.14	60500.51
532.31	60252.41
532.48	60336.67
532.65	60566.04
532.82	60317.95
532.99	60413.91
533.16	60505.19
533.33	60547.32
533.50	60690.09
533.67	60856.27
533.84	60402.21
534.01	60694.77
534.18	60353.05
534.35	60767.33
534.52	60818.82
534.69	60954.57
534.86	61031.81
535.03	60800.10
535.20	60985.00
535.37	61013.08
535.54	61006.06
535.71	61043.51
535.88	61055.21
536.05	61265.86
536.22	61296.29
536.38	61254.16
536.55	61221.39
536.72	61389.91
536.89	61169.90
537.06	61401.61
537.23	61350.12
537.40	61235.44
537.57	61300.97
537.74	61420.34
537.91	61759.72
538.08	61609.92
538.25	61403.95
538.42	61614.60
538.59	61726.95
538.75	61453.11
538.92	61483.53
539.09	61748.01
539.26	61698.86
539.43	61691.84
539.60	61855.68
539.77	61853.34
539.94	62068.67
540.11	61841.63
540.28	61918.87
540.44	61869.72
540.61	61785.46
540.78	61914.19
540.95	62045.26
541.12	62103.77
541.29	62056.96
541.46	62096.75
541.62	62073.35
541.79	62213.78
541.96	61907.17
542.13	62244.21
542.30	62436.13
542.47	62312.08
542.63	62377.62
542.80	62447.83
542.97	62590.61
543.14	62581.24
543.31	62616.35
543.48	62513.37
543.64	62946.37
543.81	62829.34
543.98	62803.59
544.15	62852.75
544.32	62885.51
544.48	63021.26
544.65	62836.36
544.82	62693.59
544.99	62681.89
545.16	62983.82
545.32	62908.92
545.49	63091.48
545.66	63161.70
545.83	63110.20
546.00	63222.55
546.16	63149.99
546.33	62948.71
546.50	62583.58
546.67	63142.97
546.83	62890.19
547.00	63255.32
547.17	63199.15
547.34	63072.76
547.50	63248.30
547.67	63487.03
547.84	63388.73
548.00	63355.96
548.17	63461.29
548.34	63449.58
548.51	63487.03
548.67	63575.97
548.84	63451.92
549.01	63463.63
549.18	63416.82
549.34	63545.54
549.51	63472.99
549.68	63489.37
549.84	63489.37
550.01	63805.34
550.18	63688.32
550.34	63735.13
550.51	63753.85
550.68	63814.71
550.84	63550.23
551.01	63765.56
551.18	63655.55
551.34	63690.66
551.51	63889.60
551.68	64158.76
551.84	63978.54
552.01	63861.52
552.18	64102.59
552.34	63840.45
552.51	64088.55
552.68	64013.65
552.84	64102.59
553.01	64413.88
553.18	63987.91
553.34	64144.72
553.51	64177.49
553.67	64130.68
553.84	64383.46
554.01	64334.31
554.17	64362.39
554.34	64383.46
554.51	64053.44
554.67	64350.69
554.84	64257.07
555.00	64266.43
555.17	64383.46
555.33	64502.82
555.50	64308.56
555.67	64418.56
555.83	64470.06
556.00	64200.89
556.16	64603.47
556.33	64512.19
556.50	64463.03
556.66	64624.53
556.83	64589.42
556.99	64748.58
557.16	64767.30
557.32	64771.99
557.49	64809.43
557.65	64509.85
557.82	64664.32
557.98	64617.51
558.15	64701.77
558.32	64692.41
558.48	64734.54
558.65	64755.60
558.81	64690.07
558.98	65017.74
559.14	64697.09
559.31	64788.37
559.47	64713.47
559.64	64872.63
559.80	65102.00
559.97	65003.70
560.13	64893.69
560.30	64898.37
560.46	64984.97
560.63	64982.63
560.79	64970.93
560.96	65118.38
561.12	64982.63
561.29	64886.67
561.45	65106.68
561.61	65174.56
561.78	65137.11
561.94	65137.11
562.11	65219.03
562.27	65183.92
562.44	65130.09
562.60	64999.02
562.77	65066.89
562.93	65087.96
563.10	65322.01
563.26	65137.11
563.42	65359.46
563.59	65319.67
563.75	65017.74
563.92	65272.86
564.08	65144.13
564.24	65167.54
564.41	65085.62
564.57	65045.83
564.74	65172.22
564.90	65485.85
565.07	65389.89
565.23	65450.74
565.39	65139.45
565.56	65359.46
565.72	65331.37
565.88	65268.18
566.05	65322.01
566.21	65331.37
566.38	65303.29
566.54	65373.50
566.70	65504.57
566.87	65485.85
567.03	65535.00
567.19	65535.00
567.36	65434.36
567.52	65375.84
567.68	65535.00
567.85	65403.93
568.01	65518.62
568.17	65513.94
568.34	65535.00
568.50	65535.00
568.66	65361.80
568.83	65535.00
568.99	65483.51
569.15	65399.25
569.32	65429.68
569.48	65303.29
569.64	65471.81
569.81	65535.00
569.97	65535.00
570.13	65535.00
570.30	65535.00
570.46	65535.00
570.62	65535.00
570.78	65535.00
570.95	65499.89
571.11	65535.00
571.27	65535.00
571.43	65527.98
571.60	65535.00
571.76	65535.00
571.92	65535.00
572.09	65535.00
572.25	65535.00
572.41	65535.00
572.57	65535.00
572.74	65535.00
572.90	65535.00
573.06	65535.00
573.22	65535.00
573.38	65535.00
573.55	65535.00
573.71	65535.00
573.87	65535.00
574.03	65535.00
574.20	65535.00
574.36	65535.00
574.52	65535.00
574.68	65535.00
574.84	65535.00
575.01	65535.00
575.17	65535.00
575.33	65535.00
575.49	65535.00
575.65	65535.00
575.82	65535.00
575.98	65535.00
576.14	65535.00
576.30	65535.00
576.46	65535.00
576.62	65535.00
576.79	65535.00
576.95	65535.00
577.11	65535.00
577.27	65535.00
577.43	65535.00
577.59	65535.00
577.75	65535.00
577.92	65535.00
578.08	65535.00
578.24	65535.00
578.40	65535.00
578.56	65535.00
578.72	65535.00
578.88	65535.00
579.04	65535.00
579.21	65535.00
579.37	65535.00
579.53	65535.00
579.69	65535.00
579.85	65535.00
580.01	65535.00
580.17	65535.00
580.33	65535.00
580.49	65535.00
580.65	65535.00
580.82	65535.00
580.98	65535.00
581.14	65535.00
581.30	65535.00
581.46	65535.00
581.62	65535.00
581.78	65535.00
581.94	65535.00
582.10	65535.00
582.26	65535.00
582.42	65535.00
582.58	65535.00
582.74	65535.00
582.90	65535.00
583.06	65535.00
583.22	65535.00
583.38	65535.00
583.54	65535.00
583.70	65535.00
583.86	65535.00
584.02	65535.00
584.18	65535.00
584.34	65535.00
584.50	65535.00
584.66	65535.00
584.82	65535.00
584.98	65535.00
585.14	65535.00
585.30	65535.00
585.46	65535.00
585.62	65535.00
585.78	65535.00
585.94	65535.00
586.10	65535.00
586.26	65535.00
586.42	65535.00
586.58	65535.00
586.74	65535.00
586.90	65535.00
587.06	65535.00
587.22	65535.00
587.38	65535.00
587.54	65535.00
587.70	65535.00
587.86	65535.00
588.02	65535.00
588.18	65535.00
