SpectraSuite Data File
++++++++++++++++++++++++++++++++++++
Date: Fri Oct 04 11:48:35 GMT-05:00 2013
User: price-jones
Dark Spectrum Present: No
Reference Spectrum Present: No
Number of Sampled Component Spectra: 1
Spectrometers: USB2+H05261
Integration Time (usec): 100000 (USB2+H05261)
Spectra Averaged: 1 (USB2+H05261)
Boxcar Smoothing: 0 (USB2+H05261)
Correct for Electrical Dark: No (USB2+H05261)
Strobe/Lamp Enabled: No (USB2+H05261)
Correct for Detector Non-linearity: No (USB2+H05261)
Correct for Stray Light: No (USB2+H05261)
Number of Pixels in Processed Spectrum: 2048
>>>>>Begin Processed Spectral Data<<<<<
365.73	0.00
365.92	0.00
366.12	0.00
366.32	0.00
366.52	0.00
366.72	0.00
366.91	0.00
367.11	0.00
367.31	0.00
367.51	0.00
367.70	0.00
367.90	0.00
368.10	0.00
368.30	0.00
368.49	0.00
368.69	2.34
368.89	0.00
369.09	0.00
369.28	0.00
369.48	0.00
369.68	0.00
369.87	0.00
370.07	18.72
370.27	0.00
370.47	32.77
370.66	196.60
370.86	205.97
371.06	322.99
371.25	255.12
371.45	241.08
371.65	315.97
371.84	311.29
372.04	372.15
372.24	280.86
372.44	440.02
372.63	383.85
372.83	472.79
373.03	308.95
373.22	313.63
373.42	301.93
373.62	313.63
373.81	346.40
374.01	421.30
374.21	344.06
374.40	433.00
374.60	510.24
374.79	437.68
374.99	430.66
375.19	374.49
375.38	404.91
375.58	416.62
375.78	454.06
375.97	383.85
376.17	454.06
376.37	411.93
376.56	505.56
376.76	416.62
376.95	437.68
377.15	477.47
377.35	400.23
377.54	454.06
377.74	484.49
377.93	400.23
378.13	514.92
378.33	430.66
378.52	435.34
378.72	472.79
378.91	475.13
379.11	470.45
379.31	404.91
379.50	465.77
379.70	491.51
379.89	517.26
380.09	472.79
380.28	458.74
380.48	463.43
380.68	435.34
380.87	505.56
381.07	571.09
381.26	547.69
381.46	470.45
381.65	573.43
381.85	454.06
382.04	543.00
382.24	521.94
382.43	585.13
382.63	540.66
382.83	472.79
383.02	519.60
383.22	587.47
383.41	524.28
383.61	526.62
383.80	533.64
384.00	535.98
384.19	566.41
384.39	582.79
384.58	557.05
384.78	627.26
384.97	615.56
385.17	547.69
385.36	648.33
385.56	631.94
385.75	615.56
385.95	627.26
386.14	587.47
386.34	587.47
386.53	650.67
386.72	634.29
386.92	678.76
387.11	631.94
387.31	660.03
387.50	552.37
387.70	620.24
387.89	671.73
388.09	648.33
388.28	669.39
388.48	617.90
388.67	631.94
388.86	711.52
389.06	683.44
389.25	664.71
389.45	636.63
389.64	603.86
389.84	685.78
390.03	734.93
390.22	725.57
390.42	791.10
390.61	763.01
390.81	737.27
391.00	791.10
391.19	821.53
391.39	751.31
391.58	734.93
391.78	755.99
391.97	786.42
392.16	720.88
392.36	807.48
392.55	844.93
392.75	765.36
392.94	770.04
393.13	770.04
393.33	716.20
393.52	760.67
393.71	786.42
393.91	795.78
394.10	725.57
394.29	901.11
394.49	926.85
394.68	849.61
394.88	793.44
395.07	978.34
395.26	926.85
395.46	905.79
395.65	924.51
395.84	940.90
396.04	954.94
396.23	1027.50
396.42	980.68
396.62	985.37
396.81	954.94
397.00	929.19
397.19	936.21
397.39	1022.81
397.58	1123.46
397.77	1043.88
397.97	1015.79
398.16	1097.71
398.35	957.28
398.55	1022.81
398.74	1097.71
398.93	1184.31
399.12	1114.10
399.32	1006.43
399.51	1020.47
399.70	1163.25
399.90	1153.88
400.09	1149.20
400.28	1153.88
400.47	1188.99
400.67	1249.85
400.86	1121.12
401.05	1193.67
401.24	1221.76
401.44	1203.04
401.63	1224.10
401.82	1163.25
402.01	1301.34
402.21	1242.82
402.40	1235.80
402.59	1373.89
402.78	1320.06
402.97	1301.34
403.17	1341.13
403.36	1352.83
403.55	1401.98
403.74	1284.95
403.93	1493.26
404.13	1507.30
404.32	1418.36
404.51	1371.55
404.70	1493.26
404.89	1469.86
405.09	1474.54
405.28	1523.69
405.47	1521.35
405.66	1472.20
405.85	1530.71
406.05	1514.33
406.24	1568.16
406.43	1605.61
406.62	1689.87
406.81	1722.63
407.00	1645.40
407.20	1596.25
407.39	1533.05
407.58	1659.44
407.77	1706.25
407.96	1706.25
408.15	1696.89
408.34	1767.10
408.54	1781.15
408.73	1842.00
408.92	1802.21
409.11	1851.36
409.30	1856.04
409.49	1802.21
409.68	1858.39
409.87	1919.24
410.07	1970.73
410.26	1942.64
410.45	1994.14
410.64	2045.63
410.83	1996.48
411.02	1966.05
411.21	2029.24
411.40	2160.31
411.59	2012.86
411.78	2132.23
411.98	2097.12
412.17	2120.53
412.36	2125.21
412.55	2092.44
412.74	2221.17
412.93	2298.41
413.12	2190.74
413.31	2363.94
413.50	2305.43
413.69	2352.24
413.88	2403.73
414.07	2478.63
414.26	2373.30
414.45	2459.90
414.64	2422.45
414.83	2415.43
415.02	2410.75
415.22	2497.35
415.41	2612.04
415.60	2560.55
415.79	2612.04
415.98	2679.91
416.17	2757.15
416.36	2628.42
416.55	2633.10
416.74	2782.90
416.93	2693.96
417.12	2775.88
417.31	2857.79
417.50	2782.90
417.69	2850.77
417.88	2963.12
418.07	3009.93
418.26	2928.01
418.45	2967.80
418.64	2998.23
418.83	3005.25
419.02	2981.84
419.21	3023.97
419.39	3159.72
419.58	3028.65
419.77	2991.20
419.96	3089.51
420.15	3197.17
420.34	3068.44
420.53	3152.70
420.72	3183.13
420.91	3201.85
421.10	3304.84
421.29	3267.39
421.48	3183.13
421.67	3426.54
421.86	3225.26
422.05	3265.05
422.24	3316.54
422.43	3262.71
422.61	3447.61
422.80	3342.28
422.99	3403.14
423.18	3403.14
423.37	3325.90
423.56	3400.80
423.75	3424.20
423.94	3323.56
424.13	3211.22
424.32	3300.16
424.50	3368.03
424.69	3524.85
424.88	3527.19
425.07	3419.52
425.26	3370.37
425.45	3473.36
425.64	3445.27
425.83	3440.59
426.01	3569.32
426.20	3428.88
426.39	3456.97
426.58	3438.25
426.77	3424.20
426.96	3499.10
427.15	3562.30
427.33	3609.11
427.52	3478.04
427.71	3672.30
427.90	3571.66
428.09	3693.37
428.28	3623.15
428.46	3625.49
428.65	3723.79
428.84	3782.31
429.03	3726.13
429.22	3808.05
429.40	3801.03
429.59	3784.65
429.78	3618.47
429.97	3597.40
430.16	3705.07
430.34	3871.25
430.53	3794.01
430.72	3894.65
430.91	3971.89
431.10	3756.56
431.28	3964.87
431.47	3985.93
431.66	3953.16
431.85	4007.00
432.03	4032.74
432.22	4046.79
432.41	4014.02
432.60	4025.72
432.79	4170.83
432.97	4149.77
433.16	4126.36
433.35	4128.70
433.54	3997.64
433.72	4238.71
433.91	4266.80
434.10	4135.73
434.28	4311.27
434.47	4196.58
434.66	4287.86
434.85	4266.80
435.03	4491.49
435.22	4402.55
435.41	4596.81
435.59	4475.10
435.78	4454.04
435.97	4308.93
436.16	4512.55
436.34	4505.53
436.53	4339.35
436.72	4575.75
436.90	4437.66
437.09	4526.60
437.28	4463.40
437.46	4681.07
437.65	4587.45
437.84	4578.09
438.02	4533.62
438.21	4713.84
438.40	4662.35
438.58	4812.14
438.77	4884.70
438.96	4765.33
439.14	4952.57
439.33	4973.64
439.52	5221.74
439.70	5027.47
439.89	4947.89
440.08	5114.07
440.26	4971.30
440.45	5027.47
440.63	5060.24
440.82	5076.62
441.01	5121.09
441.19	5263.86
441.38	5329.40
441.57	5224.08
441.75	5448.77
441.94	5462.81
442.12	5369.19
442.31	5603.24
442.50	5631.33
442.68	5490.90
442.87	5582.18
443.05	5596.22
443.24	5624.31
443.43	5802.19
443.61	5605.58
443.80	5788.14
443.98	5561.11
444.17	5535.37
444.35	5652.39
444.54	5942.62
444.73	5785.80
444.91	5867.72
445.10	5654.73
445.28	5778.78
445.47	5568.13
445.65	5680.48
445.84	5715.59
446.02	5830.27
446.21	5907.51
446.39	5879.43
446.58	5858.36
446.77	5827.93
446.95	5722.61
447.14	5668.78
447.32	5830.27
447.51	5844.32
447.69	5895.81
447.88	5790.49
448.06	5888.79
448.25	5809.21
448.43	5863.04
448.62	6047.94
448.80	5795.17
448.99	5813.89
449.17	5804.53
449.36	5909.85
449.54	6174.33
449.73	5968.37
449.91	6193.06
450.10	6221.14
450.28	6401.37
450.46	6143.91
450.65	6209.44
450.83	6382.64
451.02	6368.60
451.20	6310.08
451.39	6373.28
451.57	6392.00
451.76	6235.19
451.94	6207.10
452.13	6370.94
452.31	6572.22
452.49	6188.38
452.68	6436.47
452.86	6338.17
453.05	6555.84
453.23	6485.62
453.42	6403.71
453.60	6361.58
453.78	6544.14
453.97	6492.65
454.15	6626.06
454.34	6583.93
454.52	6597.97
454.70	6682.23
454.89	6773.51
455.07	6672.87
455.26	6806.28
455.44	6878.83
455.62	6745.42
455.81	6710.32
455.99	6785.21
456.17	6829.68
456.36	6832.02
456.54	7000.54
456.73	7087.14
456.91	7241.62
457.09	7028.63
457.28	7314.17
457.46	7103.53
457.64	7356.30
457.83	7424.18
458.01	7311.83
458.19	7337.58
458.38	7197.15
458.56	7309.49
458.74	7211.19
458.93	7382.05
459.11	7435.88
459.29	7267.36
459.48	7414.82
459.66	7585.68
459.84	7421.84
460.03	7566.95
460.21	7449.93
460.39	7705.04
460.57	7555.25
460.76	7543.55
460.94	7639.51
461.12	7618.44
461.31	7786.96
461.49	7733.13
461.67	7672.28
461.85	7798.66
462.04	7695.68
462.22	8390.82
462.40	8044.42
462.59	7971.86
462.77	7850.16
462.95	8023.36
463.13	7861.86
463.32	7985.91
463.50	7903.99
463.68	8006.97
463.86	8081.87
464.05	7948.46
464.23	8056.12
464.41	8198.90
464.59	7838.45
464.78	8299.54
464.96	8177.83
465.14	8065.49
465.32	8418.91
465.50	8299.54
465.69	8341.67
465.87	8161.45
466.05	8222.30
466.23	8313.58
466.41	8301.88
466.60	8802.75
466.78	8311.24
466.96	8201.24
467.14	8451.67
467.32	8437.63
467.51	8493.80
467.69	8168.47
467.87	8322.94
468.05	8540.61
468.23	8580.40
468.41	8507.85
468.60	8650.62
468.78	8739.56
468.96	8678.71
469.14	8634.24
469.32	8842.54
469.50	8683.39
469.69	8767.65
469.87	9071.92
470.05	8912.76
470.23	8842.54
470.41	8938.51
470.59	9109.36
470.77	9048.51
470.95	9200.65
471.14	9366.82
471.32	9137.45
471.50	9378.53
471.68	9392.57
471.86	9430.02
472.04	9273.20
472.22	9738.97
472.40	9425.34
472.58	9418.32
472.77	9511.94
472.95	9736.63
473.13	9816.21
473.31	9465.13
473.49	9682.80
473.67	9542.36
473.85	9968.34
474.03	9858.34
474.21	9809.19
474.39	9886.42
474.57	10068.98
474.75	10005.79
474.93	10223.46
475.12	10153.24
475.30	10118.14
475.48	10047.92
475.66	10370.91
475.84	10305.38
476.02	10782.85
476.20	10492.62
476.38	10478.58
476.56	10743.06
476.74	10839.02
476.92	10684.55
477.10	10881.15
477.28	11091.80
477.46	11042.65
477.64	11028.60
477.82	11066.05
478.00	11555.22
478.18	11690.98
478.36	11599.70
478.54	11485.01
478.72	11819.71
478.90	11763.53
479.08	11747.15
479.26	11882.90
479.44	11906.31
479.62	12018.65
479.80	12432.93
479.98	12280.79
480.16	12458.67
480.34	12226.96
480.52	12753.58
480.70	12933.80
480.88	12542.93
481.06	12760.60
481.24	13060.19
481.41	12861.24
481.59	13254.45
481.77	13006.36
481.95	13259.13
482.13	13650.00
482.31	13582.13
482.49	13673.41
482.67	14155.56
482.85	13764.69
483.03	13797.46
483.21	14249.18
483.39	14218.75
483.57	14160.24
483.74	14665.80
483.92	14651.75
484.10	14427.06
484.28	14567.49
484.46	15218.16
484.64	14958.36
484.82	14752.40
485.00	15082.41
485.18	15424.13
485.35	15625.42
485.53	15562.22
485.71	15585.63
485.89	15770.53
486.07	15786.91
486.25	15644.14
486.43	15906.28
486.61	16194.17
486.78	16547.59
486.96	16381.41
487.14	16786.32
487.32	16662.27
487.50	16952.50
487.68	17156.13
487.85	17249.75
488.03	17420.61
488.21	17460.40
488.39	17486.14
488.57	17935.53
488.75	17530.61
488.92	18274.90
489.10	18333.42
489.28	18057.23
489.46	18553.43
489.64	18363.84
489.81	18677.48
489.99	18714.92
490.17	19115.16
490.35	19176.01
490.53	19035.58
490.70	19082.39
490.88	19353.89
491.06	19353.89
491.24	19438.15
491.41	19822.00
491.59	19517.73
491.77	19697.95
491.95	19833.70
492.13	19838.38
492.30	20182.44
492.48	20329.89
492.66	20336.91
492.84	20688.00
493.01	20812.04
493.19	21055.46
493.37	20802.68
493.54	20922.05
493.72	21184.19
493.90	21542.29
494.08	21453.35
494.25	21820.81
494.43	21694.43
494.61	22036.14
494.79	22214.02
494.96	21996.35
495.14	22160.19
495.32	22410.63
495.49	22443.40
495.67	22810.86
495.85	23264.92
496.02	23243.86
496.20	22473.82
496.38	22857.67
496.55	23370.25
496.73	23543.45
496.91	23126.83
497.09	23627.71
497.26	23751.76
497.44	23440.47
497.62	23419.40
497.79	24339.23
497.97	24051.34
498.14	24231.57
498.32	24538.18
498.50	24489.03
498.67	24538.18
498.85	24444.56
499.03	24526.47
499.20	24769.89
499.38	24961.81
499.56	25240.34
499.73	25373.75
499.91	25174.80
500.08	25263.74
500.26	25408.86
500.44	25694.40
500.61	26026.76
500.79	25752.91
500.97	25455.67
501.14	26232.72
501.32	26080.59
501.49	26316.98
501.67	26342.73
501.84	26513.59
502.02	26277.19
502.20	26494.86
502.37	26244.43
502.55	26827.22
502.72	27040.21
502.90	26902.12
503.07	26771.05
503.25	26977.01
503.43	26843.60
503.60	27192.34
503.78	27538.74
503.95	27599.60
504.13	27377.25
504.30	27632.36
504.48	27541.08
504.65	27688.54
504.83	27983.44
505.01	28210.48
505.18	28058.34
505.36	28343.89
505.53	27906.21
505.71	28114.52
505.88	28470.28
506.06	28318.14
506.23	28624.75
506.41	28566.24
506.58	28673.90
506.76	29022.64
506.93	28699.65
507.11	28835.40
507.28	28926.68
507.46	29158.39
507.63	29446.28
507.81	29572.67
507.98	29109.24
508.16	29284.78
508.33	29481.39
508.50	29727.14
508.68	29619.48
508.85	30164.82
509.03	29867.58
509.20	30078.22
509.38	30293.55
509.55	30295.89
509.73	30551.01
509.90	30501.86
510.08	30328.66
510.25	30630.59
510.42	31063.59
510.60	30916.14
510.77	30899.75
510.95	31234.45
511.12	30843.58
511.30	31030.82
511.47	30998.06
511.64	31185.30
511.82	31503.61
511.99	31133.81
512.17	31646.38
512.34	31718.94
512.51	31484.89
512.69	31992.78
512.86	32067.68
513.04	32123.85
513.21	32273.65
513.38	32194.07
513.56	32154.28
513.73	32294.71
513.90	32275.99
514.08	32297.05
514.25	33015.60
514.43	32622.39
514.60	32622.39
514.77	32907.93
514.95	33020.28
515.12	32755.80
515.29	32772.18
515.47	32903.25
515.64	33450.94
515.81	33102.20
515.99	33116.24
516.16	33764.57
516.33	33514.13
516.51	33806.70
516.68	33848.83
516.85	33619.46
517.03	33757.55
517.20	34183.52
517.37	34192.89
517.54	34026.71
517.72	33895.64
517.89	34078.20
518.06	34073.52
518.24	33944.79
518.41	34227.99
518.58	34501.84
518.75	34405.88
518.93	34478.43
519.10	34562.69
519.27	34806.11
519.45	34508.86
519.62	34473.75
519.79	34768.66
519.96	34869.30
520.14	34993.35
520.31	35056.54
520.48	35314.00
520.65	35377.20
520.83	35749.34
521.00	35269.53
521.17	35702.53
521.34	35014.41
521.52	35278.89
521.69	35864.03
521.86	35550.40
522.03	35952.97
522.20	35335.07
522.38	36268.94
522.55	36067.66
522.72	36196.38
522.89	36135.53
523.07	36400.01
523.24	36526.40
523.41	36570.87
523.58	36126.17
523.75	36528.74
523.92	36465.55
524.10	36554.49
524.27	37099.83
524.44	36765.14
524.61	37387.72
524.78	37116.22
524.96	37158.34
525.13	37006.21
525.30	37242.60
525.47	37471.98
525.64	37207.50
525.81	37507.08
525.98	37780.93
526.16	37366.65
526.33	37752.84
526.50	37645.18
526.67	37439.21
526.84	37476.66
527.01	37486.02
527.18	37823.06
527.36	38260.74
527.53	37961.15
527.70	38347.34
527.87	38101.58
528.04	38270.10
528.21	38337.98
528.38	38202.22
528.55	38377.76
528.72	38349.68
528.89	38459.68
529.07	38576.71
529.24	38462.02
529.41	38778.00
529.58	38504.15
529.75	38651.61
529.92	38904.38
530.09	38567.35
530.26	38773.31
530.43	39210.99
530.60	38773.31
530.77	38995.67
530.94	39063.54
531.11	38675.01
531.28	39178.23
531.46	39248.44
531.63	39431.01
531.80	39084.61
531.97	39440.37
532.14	39714.21
532.31	39243.76
532.48	39208.65
532.65	39810.17
532.82	39030.77
532.99	39763.36
533.16	39323.34
533.33	39812.51
533.50	40341.47
533.67	40172.96
533.84	39655.70
534.01	39913.16
534.18	39629.95
534.35	40032.52
534.52	40367.22
534.69	40123.80
534.86	40727.66
535.03	40102.74
535.20	40446.80
535.37	40638.72
535.54	40617.66
535.71	40456.16
535.88	40708.94
536.05	40280.62
536.22	40928.95
536.38	41081.08
536.55	40921.93
536.72	41095.13
536.89	40636.38
537.06	40783.83
537.23	40772.13
537.40	41104.49
537.57	40957.03
537.74	41163.00
537.91	41713.03
538.08	41415.78
538.25	41450.89
538.42	41132.57
538.59	41684.94
538.75	41268.33
538.92	41170.02
539.09	41474.29
539.26	41638.13
539.43	41481.31
539.60	41715.37
539.77	41970.49
539.94	41886.23
540.11	41411.10
540.28	41911.97
540.44	41839.42
540.61	41745.80
540.78	42085.17
540.95	41759.84
541.12	41911.97
541.29	42466.68
541.46	42059.43
541.62	42012.62
541.79	42375.40
541.96	41827.71
542.13	42078.15
542.30	42487.74
542.47	41895.59
542.63	42672.65
542.80	43023.73
542.97	42939.47
543.14	43002.66
543.31	42759.25
543.48	43227.35
543.64	43386.51
543.81	43339.70
543.98	42855.21
544.15	43075.22
544.32	43346.72
544.48	43545.67
544.65	43473.11
544.82	43208.63
544.99	42838.83
545.16	43318.64
545.32	43107.99
545.49	43007.34
545.66	43658.01
545.83	43906.11
546.00	43533.96
546.16	43779.72
546.33	43482.47
546.50	42997.98
546.67	43948.24
546.83	43201.61
547.00	43377.15
547.17	43854.62
547.34	43995.05
547.50	43885.04
547.67	43779.72
547.84	43686.10
548.00	43929.51
548.17	44243.15
548.34	44308.68
548.51	44470.18
548.67	44516.99
548.84	44126.12
549.01	44245.49
549.18	43959.94
549.34	43955.26
549.51	43978.67
549.68	44708.91
549.84	43903.77
550.01	44519.33
550.18	44388.26
550.34	44818.92
550.51	44563.80
550.68	44879.77
550.84	44172.93
551.01	44626.99
551.18	44186.97
551.34	44194.00
551.51	44652.74
551.68	44383.58
551.84	44837.64
552.01	44556.78
552.18	44903.18
552.34	44451.45
552.51	44835.30
552.68	45123.19
552.84	45191.06
553.01	45172.34
553.18	45081.06
553.34	44994.46
553.51	45045.95
553.67	45291.71
553.84	45301.07
554.01	45357.24
554.17	45539.80
554.34	45198.09
554.51	44711.25
554.67	45455.54
554.84	45420.44
555.00	45539.80
555.17	45303.41
555.33	45331.50
555.50	45347.88
555.67	45270.64
555.83	45413.41
556.00	45331.50
556.16	45647.47
556.33	45450.86
556.50	45584.27
556.66	46038.34
556.83	45378.31
556.99	45682.58
557.16	45902.59
557.32	46160.05
557.49	45937.69
557.65	45326.81
557.82	45352.56
557.98	45848.75
558.15	45895.56
558.32	45951.74
558.48	46012.59
558.65	45846.41
558.81	45874.50
558.98	45869.82
559.14	46000.89
559.31	45876.84
559.47	46471.34
559.64	45989.19
559.80	46199.83
559.97	46174.09
560.13	46050.04
560.30	46000.89
560.46	46164.73
560.63	46401.12
560.79	46782.63
560.96	46326.22
561.12	46131.96
561.29	45975.14
561.45	46183.45
561.61	46487.72
561.78	46241.96
561.94	46396.44
562.11	46478.36
562.27	46160.05
562.44	46131.96
562.60	46270.05
562.77	46103.87
562.93	46471.34
563.10	46602.41
563.26	46461.97
563.42	46639.86
563.59	46309.84
563.75	46958.17
563.92	46953.49
564.08	46518.15
564.24	46387.08
564.41	46813.05
564.57	46337.93
564.74	46216.22
564.90	46440.91
565.07	46590.70
565.23	46705.39
565.39	46520.49
565.56	47173.50
565.72	46239.62
565.88	46759.22
566.05	46703.05
566.21	46614.11
566.38	46506.44
566.54	46405.80
566.70	46883.27
566.87	46990.94
567.03	47093.92
567.19	47014.34
567.36	47143.07
567.52	46483.04
567.68	46906.68
567.85	46555.60
568.01	46911.36
568.17	46663.26
568.34	46894.97
568.50	46883.27
568.66	46892.63
568.83	47030.72
568.99	47079.88
569.15	47110.30
569.32	46852.84
569.48	46831.78
569.64	46906.68
569.81	46955.83
569.97	46403.46
570.13	47196.90
570.30	47037.75
570.46	46927.74
570.62	46689.01
570.78	46981.57
570.95	46831.78
571.11	46885.61
571.27	46618.79
571.43	46909.02
571.60	46983.91
571.76	46965.19
571.92	46864.55
572.09	46944.12
572.25	46539.21
572.41	46887.95
572.57	46567.30
572.74	47033.07
572.90	47028.38
573.06	46969.87
573.22	47140.73
573.38	47302.23
573.55	46784.97
573.71	47437.98
573.87	47210.95
574.03	46995.62
574.20	47114.98
574.36	46969.87
574.52	47136.05
574.68	47206.26
574.84	47161.79
575.01	47285.84
575.17	47688.42
575.33	47379.46
575.49	47098.60
575.65	47433.30
575.82	47269.46
575.98	47346.70
576.14	46969.87
576.30	47278.82
576.46	46843.48
576.62	46890.29
576.79	47086.90
576.95	47152.43
577.11	47468.40
577.27	47215.63
577.43	47171.16
577.59	47337.33
577.75	47026.04
577.92	47248.39
578.08	47037.75
578.24	47068.17
578.40	47114.98
578.56	47283.50
578.72	47122.01
578.88	47594.79
579.04	46969.87
579.21	47681.39
579.37	47306.91
579.53	47255.42
579.69	46902.00
579.85	47250.74
580.01	47318.61
580.17	47267.12
580.33	47145.41
580.49	47377.12
580.65	47342.02
580.82	47440.32
580.98	47384.15
581.14	47196.90
581.30	47604.16
581.46	47154.77
581.62	46880.93
581.78	47323.29
581.94	47604.16
582.10	47117.32
582.26	47662.67
582.42	47510.53
582.58	47430.96
582.74	47367.76
582.90	47899.06
583.06	47536.28
583.22	47604.16
583.38	47138.39
583.54	47470.75
583.70	47346.70
583.86	47566.71
584.02	47150.09
584.18	47562.03
584.34	47449.68
584.50	47882.68
584.66	47667.35
584.82	47035.41
584.98	47365.42
585.14	47487.13
585.30	47229.67
585.46	47346.70
585.62	47377.12
585.78	47508.19
585.94	47318.61
586.10	47063.49
586.26	47311.59
586.42	47318.61
586.58	47529.26
586.74	47547.98
586.90	47721.18
587.06	47643.94
587.22	47447.34
587.38	47257.76
587.54	47386.49
587.70	47342.02
587.86	47547.98
588.02	47819.49
588.18	47751.61
588.34	47952.90
588.49	47517.56
588.65	47161.79
588.81	47028.38
588.97	47746.93
589.13	47643.94
589.29	47409.89
589.45	47828.85
589.61	47753.95
589.77	47674.37
589.93	47838.21
590.08	47868.64
590.24	47707.14
590.40	47760.97
590.56	48032.47
590.72	47426.28
