SpectraSuite Data File
++++++++++++++++++++++++++++++++++++
Date: Fri Oct 04 11:48:37 GMT-05:00 2013
User: price-jones
Dark Spectrum Present: No
Reference Spectrum Present: No
Number of Sampled Component Spectra: 1
Spectrometers: USB2+H05261
Integration Time (usec): 100000 (USB2+H05261)
Spectra Averaged: 1 (USB2+H05261)
Boxcar Smoothing: 0 (USB2+H05261)
Correct for Electrical Dark: No (USB2+H05261)
Strobe/Lamp Enabled: No (USB2+H05261)
Correct for Detector Non-linearity: No (USB2+H05261)
Correct for Stray Light: No (USB2+H05261)
Number of Pixels in Processed Spectrum: 2048
>>>>>Begin Processed Spectral Data<<<<<
365.73	0.00
365.92	0.00
366.12	0.00
366.32	0.00
366.52	0.00
366.72	0.00
366.91	0.00
367.11	0.00
367.31	0.00
367.51	0.00
367.70	0.00
367.90	0.00
368.10	0.00
368.30	0.00
368.49	0.00
368.69	0.00
368.89	0.00
369.09	0.00
369.28	0.00
369.48	0.00
369.68	0.00
369.87	0.00
370.07	0.00
370.27	11.70
370.47	0.00
370.66	105.32
370.86	42.13
371.06	149.79
371.25	79.58
371.45	77.24
371.65	191.92
371.84	133.41
372.04	131.07
372.24	140.43
372.44	70.22
372.63	105.32
372.83	175.54
373.03	112.35
373.22	149.79
373.42	100.64
373.62	163.84
373.81	154.48
374.01	259.80
374.21	63.19
374.40	198.95
374.60	227.03
374.79	177.88
374.99	205.97
375.19	182.56
375.38	212.99
375.58	161.50
375.78	189.58
375.97	184.90
376.17	304.27
376.37	187.24
376.56	149.79
376.76	161.50
376.95	177.88
377.15	191.92
377.35	140.43
377.54	173.20
377.74	182.56
377.93	243.42
378.13	121.71
378.33	208.31
378.52	220.01
378.72	238.73
378.91	208.31
379.11	250.44
379.31	180.22
379.50	168.52
379.70	262.14
379.89	252.78
380.09	152.13
380.28	187.24
380.48	175.54
380.68	180.22
380.87	152.13
381.07	198.95
381.26	245.76
381.46	170.86
381.65	255.12
381.85	124.05
382.04	156.82
382.24	264.48
382.43	180.22
382.63	156.82
382.83	95.96
383.02	215.33
383.22	236.39
383.41	245.76
383.61	234.05
383.80	243.42
384.00	215.33
384.19	198.95
384.39	205.97
384.58	194.26
384.78	170.86
384.97	184.90
385.17	198.95
385.36	245.76
385.56	224.69
385.75	175.54
385.95	280.86
386.14	262.14
386.34	194.26
386.53	220.01
386.72	210.65
386.92	299.59
387.11	250.44
387.31	297.25
387.50	294.91
387.70	229.37
387.89	248.10
388.09	231.71
388.28	224.69
388.48	337.04
388.67	348.74
388.86	220.01
389.06	262.14
389.25	224.69
389.45	287.89
389.64	264.48
389.84	196.60
390.03	231.71
390.22	201.29
390.42	276.18
390.61	276.18
390.81	173.20
391.00	264.48
391.19	278.52
391.39	292.57
391.58	322.99
391.78	304.27
391.97	234.05
392.16	266.82
392.36	236.39
392.55	227.03
392.75	322.99
392.94	266.82
393.13	306.61
393.33	229.37
393.52	346.40
393.71	318.31
393.91	348.74
394.10	327.68
394.29	325.33
394.49	334.70
394.68	355.76
394.88	337.04
395.07	311.29
395.26	358.10
395.46	383.85
395.65	388.53
395.84	358.10
396.04	505.56
396.23	393.21
396.42	334.70
396.62	437.68
396.81	423.64
397.00	397.89
397.19	479.81
397.39	416.62
397.58	442.36
397.77	423.64
397.97	482.15
398.16	428.32
398.35	397.89
398.55	470.45
398.74	437.68
398.93	447.04
399.12	447.04
399.32	411.93
399.51	491.51
399.70	491.51
399.90	430.66
400.09	440.02
400.28	564.07
400.47	503.22
400.67	554.71
400.86	557.05
401.05	528.96
401.24	578.11
401.44	550.03
401.63	526.62
401.82	531.30
402.01	559.39
402.21	585.13
402.40	571.09
402.59	688.12
402.78	547.69
402.97	610.88
403.17	514.92
403.36	636.63
403.55	608.54
403.74	667.05
403.93	678.76
404.13	671.73
404.32	664.71
404.51	601.52
404.70	739.61
404.89	765.36
405.09	746.63
405.28	734.93
405.47	784.08
405.66	744.29
405.85	727.91
406.05	763.01
406.24	777.06
406.43	842.59
406.62	786.42
406.81	807.48
407.00	795.78
407.20	753.65
407.39	828.55
407.58	814.51
407.77	826.21
407.96	873.02
408.15	957.28
408.34	917.49
408.54	978.34
408.73	938.55
408.92	971.32
409.11	968.98
409.30	1041.54
409.49	1004.09
409.68	908.13
409.87	983.02
410.07	1018.13
410.26	994.73
410.45	1071.97
410.64	964.30
410.83	1046.22
411.02	1142.18
411.21	1123.46
411.40	1039.20
411.59	1100.05
411.78	1121.12
411.98	1205.38
412.17	1198.35
412.36	1118.78
412.55	1245.16
412.74	1184.31
412.93	1233.46
413.12	1249.85
413.31	1268.57
413.50	1273.25
413.69	1212.40
413.88	1357.51
414.07	1238.14
414.26	1334.11
414.45	1320.06
414.64	1418.36
414.83	1448.79
415.02	1441.77
415.22	1535.39
415.41	1355.17
415.60	1483.90
415.79	1514.33
415.98	1432.41
416.17	1547.09
416.36	1575.18
416.55	1561.14
416.74	1544.75
416.93	1526.03
417.12	1633.69
417.31	1640.72
417.50	1582.20
417.69	1643.06
417.88	1600.93
418.07	1572.84
418.26	1561.14
418.45	1703.91
418.64	1781.15
418.83	1729.66
419.02	1724.97
419.21	1760.08
419.39	1762.42
419.58	1692.21
419.77	1715.61
419.96	1650.08
420.15	1666.46
420.34	1771.79
420.53	1813.92
420.72	1884.13
420.91	1818.60
421.10	1905.20
421.29	1893.49
421.48	1778.81
421.67	1874.77
421.86	1872.43
422.05	1970.73
422.24	1832.64
422.43	1886.47
422.61	1973.07
422.80	1928.60
422.99	1975.41
423.18	1956.69
423.37	1994.14
423.56	1888.81
423.75	2052.65
423.94	1839.66
424.13	1790.51
424.32	1879.45
424.50	2080.74
424.69	1994.14
424.88	2036.27
425.07	1914.56
425.26	1865.41
425.45	1959.03
425.64	1966.05
425.83	1928.60
426.01	1923.92
426.20	1982.43
426.39	1970.73
426.58	1940.30
426.77	1959.03
426.96	2083.08
427.15	1919.24
427.33	1919.24
427.52	2099.46
427.71	2099.46
427.90	2115.84
428.09	2108.82
428.28	2094.78
428.46	2012.86
428.65	2062.01
428.84	2244.57
429.03	2080.74
429.22	2125.21
429.40	2225.85
429.59	2129.89
429.78	2183.72
429.97	2108.82
430.16	2143.93
430.34	2176.70
430.53	2139.25
430.72	2153.29
430.91	2286.70
431.10	2155.63
431.28	2296.07
431.47	2394.37
431.66	2307.77
431.85	2300.75
432.03	2352.24
432.22	2459.90
432.41	2373.30
432.60	2401.39
432.79	2469.27
432.97	2401.39
433.16	2438.84
433.35	2335.85
433.54	2335.85
433.72	2495.01
433.91	2452.88
434.10	2558.21
434.28	2443.52
434.47	2558.21
434.66	2424.80
434.85	2541.82
435.03	2471.61
435.22	2518.42
435.41	2623.74
435.59	2551.18
435.78	2438.84
435.97	2656.51
436.16	2708.00
436.34	2686.94
436.53	2562.89
436.72	2548.84
436.90	2555.86
437.09	2621.40
437.28	2593.31
437.46	2682.25
437.65	2644.81
437.84	2789.92
438.02	2670.55
438.21	2705.66
438.40	2708.00
438.58	2705.66
438.77	2768.85
438.96	2794.60
439.14	2848.43
439.33	2839.07
439.52	2757.15
439.70	2892.90
439.89	2979.50
440.08	3000.57
440.26	2967.80
440.45	2953.76
440.63	2970.14
440.82	3063.76
441.01	2897.58
441.19	3073.12
441.38	3080.14
441.57	3028.65
441.75	3187.81
441.94	3110.57
442.12	3162.06
442.31	3258.03
442.50	3185.47
442.68	3180.79
442.87	3173.77
443.05	3157.38
443.24	3300.16
443.43	3300.16
443.61	3379.73
443.80	3375.05
443.98	3164.40
444.17	3258.03
444.35	3372.71
444.54	3426.54
444.73	3389.10
444.91	3456.97
445.10	3222.92
445.28	3290.79
445.47	3236.96
445.65	3428.88
445.84	3281.43
446.02	3447.61
446.21	3337.60
446.39	3323.56
446.58	3311.86
446.77	3419.52
446.95	3325.90
447.14	3393.78
447.32	3475.70
447.51	3353.99
447.69	3365.69
447.88	3428.88
448.06	3398.46
448.25	3361.01
448.43	3487.40
448.62	3304.84
448.80	3384.41
448.99	3421.86
449.17	3459.31
449.36	3438.25
449.54	3499.10
449.73	3531.87
449.91	3365.69
450.10	3590.38
450.28	3576.34
450.46	3648.90
450.65	3548.25
450.83	3632.51
451.02	3557.61
451.20	3777.62
451.39	3597.40
451.57	3730.81
451.76	3538.89
451.94	3726.13
452.13	3637.19
452.31	3662.94
452.49	3728.47
452.68	3681.66
452.86	3751.88
453.05	3740.18
453.23	3761.24
453.42	3660.60
453.60	3660.60
453.78	3768.26
453.97	3674.64
454.15	3595.06
454.34	3585.70
454.52	3864.22
454.70	3901.67
454.89	3976.57
455.07	3700.39
455.26	3967.21
455.44	4002.32
455.62	3974.23
455.81	3829.12
455.99	3960.19
456.17	4021.04
456.36	4138.07
456.54	4079.55
456.73	4124.02
456.91	4248.07
457.09	4056.15
457.28	4180.20
457.46	4046.79
457.64	4189.56
457.83	4060.83
458.01	4046.79
458.19	4163.81
458.38	4109.98
458.56	4219.99
458.74	4215.30
458.93	4322.97
459.11	4234.03
459.29	4081.89
459.48	4297.22
459.66	4475.10
459.84	4222.33
460.03	4454.04
460.21	4360.42
460.39	4435.32
460.57	4423.61
460.76	4379.14
460.94	4475.10
461.12	4255.09
461.31	4379.14
461.49	4599.15
461.67	4526.60
461.85	4566.39
462.04	4430.63
462.22	4973.64
462.40	4585.11
462.59	4540.64
462.77	4542.98
462.95	4657.67
463.13	4437.66
463.32	4664.69
463.50	4596.81
463.68	4498.51
463.86	4606.17
464.05	4568.73
464.23	4727.88
464.41	4716.18
464.59	4624.90
464.78	4835.55
464.96	4624.90
465.14	4678.73
465.32	4671.71
465.50	4678.73
465.69	4730.22
465.87	4699.80
466.05	4802.78
466.23	4753.63
466.41	4830.87
466.60	5011.09
466.78	4959.60
466.96	4807.46
467.14	4713.84
467.32	4645.96
467.51	4877.68
467.69	4774.69
467.87	4947.89
468.05	4985.34
468.23	4889.38
468.41	4912.78
468.60	4973.64
468.78	4980.66
468.96	4821.50
469.14	5008.75
469.32	5006.41
469.50	4858.95
469.69	5064.92
469.87	5125.77
470.05	5135.14
470.23	5043.85
470.41	4983.00
470.59	5259.18
470.77	5123.43
470.95	5149.18
471.14	5242.80
471.32	5008.75
471.50	5434.72
471.68	5151.52
471.86	5224.08
472.04	5210.03
472.22	5362.17
472.40	5247.48
472.58	5434.72
472.77	5385.57
472.95	5411.32
473.13	5575.16
473.31	5413.66
473.49	5420.68
473.67	5572.82
473.85	5493.24
474.03	5509.62
474.21	5591.54
474.39	5689.84
474.57	5738.99
474.75	5867.72
474.93	5846.66
475.12	5755.38
475.30	5912.19
475.48	5902.83
475.66	5930.92
475.84	5865.38
476.02	5724.95
476.20	6047.94
476.38	6132.20
476.56	6305.40
476.74	6036.24
476.92	6104.12
477.10	6029.22
477.28	6450.52
477.46	6171.99
477.64	6242.21
477.82	6422.43
478.00	6490.31
478.18	6494.99
478.36	6546.48
478.54	6586.27
478.72	6619.04
478.90	6717.34
479.08	6740.74
479.26	6689.25
479.44	6832.02
479.62	6927.99
479.80	6883.52
479.98	6883.52
480.16	7098.84
480.34	7059.06
480.52	7232.26
480.70	7194.81
480.88	7150.34
481.06	7028.63
481.24	7059.06
481.41	7342.26
481.59	7569.29
481.77	7407.80
481.95	7515.46
482.13	7557.59
482.31	7585.68
482.49	7611.42
482.67	7620.78
482.85	7768.24
483.03	7929.74
483.21	7934.42
483.39	7995.27
483.57	7925.05
483.74	8198.90
483.92	8339.33
484.10	8121.66
484.28	8446.99
484.46	8519.55
484.64	8465.72
484.82	8299.54
485.00	8512.53
485.18	8741.90
485.35	8659.98
485.53	8674.03
485.71	8830.84
485.89	8943.19
486.07	8912.76
486.25	8887.01
486.43	9036.81
486.61	8990.00
486.78	9083.62
486.96	9231.07
487.14	9418.32
487.32	9401.93
487.50	9540.02
487.68	9643.01
487.85	9645.35
488.03	9790.46
488.21	9914.51
488.39	9673.43
488.57	9741.31
488.75	9881.74
488.92	10281.97
489.10	10012.81
489.28	10153.24
489.46	10342.83
489.64	10312.40
489.81	10363.89
489.99	10747.74
490.17	10480.92
490.35	10881.15
490.53	10647.10
490.70	10593.26
490.88	10820.30
491.06	10862.43
491.24	10892.85
491.41	11028.60
491.59	10862.43
491.77	11131.59
491.95	11262.66
492.13	11363.30
492.30	11255.64
492.48	11386.71
492.66	11281.38
492.84	11506.07
493.01	11449.90
493.19	11742.47
493.37	11887.58
493.54	11550.54
493.72	12032.69
493.90	11889.92
494.08	12060.78
494.25	12241.00
494.43	12051.42
494.61	12138.02
494.79	12259.73
494.96	12248.02
495.14	12301.86
495.32	12531.23
495.49	12650.60
495.67	12554.63
495.85	12924.44
496.02	12844.86
496.20	12863.58
496.38	12971.25
496.55	12898.69
496.73	13135.09
496.91	13034.44
497.09	13221.69
497.26	13214.66
497.44	13563.40
497.62	13362.12
497.79	13277.86
497.97	13467.44
498.14	13500.21
498.32	13458.08
498.50	13767.03
498.67	13926.19
498.85	13575.11
499.03	13650.00
499.20	13888.74
499.38	14040.87
499.56	13900.44
499.73	14319.40
499.91	13975.34
500.08	14153.22
500.26	14120.45
500.44	14146.20
500.61	14300.67
500.79	14391.95
500.97	14415.36
501.14	14574.52
501.32	14464.51
501.49	14497.28
501.67	14635.37
501.84	14471.53
502.02	14726.65
502.20	14824.95
502.37	14930.28
502.55	14843.68
502.72	14789.85
502.90	15005.17
503.07	14824.95
503.25	14897.51
503.43	15068.37
503.60	15115.18
503.78	15154.97
503.95	15180.71
504.13	15475.62
504.30	15063.69
504.48	15499.03
504.65	15307.10
504.83	15637.12
505.01	15782.23
505.18	15510.73
505.36	15796.28
505.53	15676.91
505.71	15529.45
505.88	15871.17
506.06	15763.51
506.23	15798.62
506.41	16020.97
506.58	15878.19
506.76	15957.77
506.93	16290.13
507.11	15756.49
507.28	16327.58
507.46	16077.14
507.63	16266.72
507.81	16416.52
507.98	16322.90
508.16	16547.59
508.33	16437.58
508.50	16655.25
508.68	16482.05
508.85	16795.68
509.03	16769.94
509.20	16849.52
509.38	17022.72
509.55	17029.74
509.73	16807.39
509.90	16954.84
510.08	17111.66
510.25	16947.82
510.42	17149.11
510.60	17500.19
510.77	17310.60
510.95	17263.79
511.12	17275.49
511.30	17563.38
511.47	17528.27
511.64	17633.60
511.82	17631.26
511.99	17603.17
512.17	17755.30
512.34	17411.25
512.51	18061.91
512.69	17825.52
512.86	17596.15
513.04	18047.87
513.21	18001.06
513.38	18090.00
513.56	18291.29
513.73	18279.58
513.90	17989.36
514.08	17783.39
514.25	18436.40
514.43	18253.84
514.60	18382.57
514.77	18478.53
514.95	18279.58
515.12	18391.93
515.29	18380.23
515.47	18572.15
515.64	18764.07
515.81	18752.37
515.99	18726.63
516.16	18728.97
516.33	18747.69
516.51	18710.24
516.68	18630.66
516.85	19047.28
517.03	18801.52
517.20	18934.93
517.37	19066.00
517.54	18892.80
517.72	19012.17
517.89	19105.79
518.06	19115.16
518.24	19349.21
518.41	19056.64
518.58	19365.59
518.75	19386.66
518.93	19332.82
519.10	19264.95
519.27	19201.76
519.45	19751.78
519.62	19515.39
519.79	19524.75
519.96	19529.43
520.14	19641.78
520.31	19822.00
520.48	20159.03
520.65	19754.12
520.83	19953.07
521.00	20030.30
521.17	20098.18
521.34	19850.08
521.52	19999.88
521.69	20264.36
521.86	20159.03
522.03	20320.53
522.20	20336.91
522.38	20233.93
522.55	19955.41
522.72	20123.93
522.89	20128.61
523.07	20500.75
523.24	20224.57
523.41	20540.54
523.58	20343.94
523.75	20631.82
523.92	20673.95
524.10	20350.96
524.27	20416.49
524.44	21067.16
524.61	20699.70
524.78	20673.95
524.96	20699.70
525.13	20397.77
525.30	20947.79
525.47	20816.72
525.64	20783.96
525.81	21174.83
525.98	20924.39
526.16	21050.78
526.33	20837.79
526.50	21083.55
526.67	21057.80
526.84	21465.05
527.01	21434.63
527.18	21296.53
527.36	21544.63
527.53	21207.59
527.70	21774.00
527.87	21561.02
528.04	21776.34
528.21	21095.25
528.38	21628.89
528.55	21652.30
528.72	21764.64
528.89	21645.27
529.07	21460.37
529.24	21734.21
529.41	21682.72
529.58	21776.34
529.75	21467.39
529.92	21633.57
530.09	21949.54
530.26	21757.62
530.43	22087.64
530.60	22101.68
530.77	21865.28
530.94	21940.18
531.11	21766.98
531.28	22071.25
531.46	21914.44
531.63	22071.25
531.80	22089.98
531.97	22284.24
532.14	22043.17
532.31	22143.81
532.48	22403.61
532.65	22120.40
532.82	22244.45
532.99	22272.54
533.16	22272.54
533.33	22611.92
533.50	22347.44
533.67	22595.53
533.84	22312.33
534.01	22579.15
534.18	22192.96
534.35	22867.03
534.52	22665.75
534.69	22714.90
534.86	22810.86
535.03	22824.90
535.20	22867.03
535.37	22705.54
535.54	22590.85
535.71	22796.82
535.88	22965.34
536.05	22885.76
536.22	23154.92
536.38	22874.06
536.55	23124.49
536.72	22916.19
536.89	22883.42
537.06	23211.09
537.23	23190.03
537.40	23012.15
537.57	22965.34
537.74	23274.29
537.91	23517.70
538.08	23065.98
538.25	23227.48
538.42	23538.77
538.59	23543.45
538.75	22864.69
538.92	23197.05
539.09	23213.43
539.26	23576.22
539.43	23302.37
539.60	23564.51
539.77	23644.09
539.94	23510.68
540.11	23126.83
540.28	23676.86
540.44	23583.24
540.61	23517.70
540.78	23400.68
540.95	23616.01
541.12	23913.25
541.29	23709.63
541.46	23665.16
541.62	23473.23
541.79	23704.95
541.96	23311.74
542.13	23707.29
542.30	23983.47
542.47	23782.18
542.63	24360.30
542.80	24091.13
542.97	24147.31
543.14	24018.58
543.31	24226.89
543.48	24203.48
543.64	24240.93
543.81	24339.23
543.98	24418.81
544.15	24208.16
544.32	24325.19
544.48	24432.85
544.65	24229.23
544.82	24273.70
544.99	24095.82
545.16	24346.25
545.32	24175.39
545.49	24638.82
545.66	25076.50
545.83	24411.79
546.00	24615.41
546.16	24334.55
546.33	24669.25
546.50	24542.86
546.67	24694.99
546.83	24067.73
547.00	24606.05
547.17	24486.68
547.34	24793.29
547.50	24678.61
547.67	24851.81
547.84	24800.32
548.00	24407.11
548.17	24638.82
548.34	24407.11
548.51	25010.96
548.67	24697.33
548.84	24814.36
549.01	24922.02
549.18	24957.13
549.34	24819.04
549.51	25273.10
549.68	24505.41
549.84	24805.00
550.01	24999.26
550.18	25233.32
550.34	25123.31
550.51	25238.00
550.68	25165.44
550.84	24826.06
551.01	25062.46
551.18	24889.26
551.34	24692.65
551.51	25394.81
551.68	25160.76
551.84	25387.79
552.01	25238.00
552.18	24896.28
552.34	24973.52
552.51	25345.66
552.68	25434.60
552.84	25130.33
553.01	25322.26
553.18	25415.88
553.34	25635.89
553.51	25373.75
553.67	25369.07
553.84	25773.98
554.01	25776.32
554.17	25434.60
554.34	25605.46
554.51	25537.59
554.67	25432.26
554.84	25539.93
555.00	25284.81
555.17	25692.06
555.33	25528.22
555.50	25762.28
555.67	25364.39
555.83	25502.48
556.00	25923.77
556.16	26082.93
556.33	25422.90
556.50	25689.72
556.66	25214.59
556.83	25376.09
556.99	25802.07
557.16	25610.14
557.32	25745.89
557.49	25933.14
557.65	25593.76
557.82	25755.26
557.98	25823.13
558.15	25900.37
558.32	25729.51
558.48	25764.62
558.65	26047.82
558.81	25869.94
558.98	25783.34
559.14	25689.72
559.31	25579.71
559.47	26047.82
559.64	25872.28
559.80	25773.98
559.97	26085.27
560.13	25560.99
560.30	25970.58
560.46	25951.86
560.63	26036.12
560.79	25727.17
560.96	25891.01
561.12	25841.85
561.29	25556.31
561.45	26277.19
561.61	26214.00
561.78	26434.01
561.94	25928.45
562.11	26003.35
562.27	26024.42
562.44	25766.96
562.60	26096.97
562.77	25942.50
562.93	25909.73
563.10	26078.25
563.26	25916.75
563.42	26375.50
563.59	25989.31
563.75	26225.70
563.92	26125.06
564.08	25869.94
564.24	25647.59
564.41	26122.72
564.57	26073.57
564.74	25839.51
564.90	26216.34
565.07	26354.43
565.23	26312.30
565.39	26398.90
565.56	26174.21
565.72	25795.04
565.88	26288.90
566.05	25930.80
566.21	25830.15
566.38	25881.64
566.54	25848.88
566.70	26452.73
566.87	26122.72
567.03	26396.56
567.19	26368.48
567.36	26225.70
567.52	25930.80
567.68	26403.58
567.85	26380.18
568.01	26181.23
568.17	26410.60
568.34	25996.33
568.50	26038.46
568.66	26080.59
568.83	26242.09
568.99	25926.11
569.15	26405.92
569.32	26054.84
569.48	25970.58
569.64	26621.25
569.81	26092.29
569.97	26394.22
570.13	26340.39
570.30	26331.03
570.46	26026.76
570.62	26017.40
570.78	26068.89
570.95	26321.66
571.11	25993.99
571.27	26010.37
571.43	25762.28
571.60	26305.28
571.76	26424.65
571.92	26595.51
572.09	26546.36
572.25	26155.49
572.41	25977.61
572.57	25979.95
572.74	26206.98
572.90	26169.53
573.06	26466.78
573.22	26349.75
573.38	26466.78
573.55	26197.62
573.71	26749.98
573.87	26263.15
574.03	26118.04
574.20	26305.28
574.36	26209.32
574.52	26218.68
574.68	25799.73
574.84	26309.96
575.01	26237.41
575.17	26581.46
575.33	26794.45
575.49	26347.41
575.65	26471.46
575.82	26239.75
575.98	26305.28
576.14	26424.65
576.30	26178.89
576.46	26455.08
576.62	26073.57
576.79	26600.19
576.95	26349.75
577.11	26445.71
577.27	26176.55
577.43	26459.76
577.59	26356.77
577.75	26457.42
577.92	26169.53
578.08	26078.25
578.24	26073.57
578.40	26230.38
578.56	26356.77
578.72	26146.12
578.88	26635.30
579.04	26621.25
579.21	26064.21
579.37	26324.01
579.53	26277.19
579.69	26125.06
579.85	26263.15
580.01	26316.98
580.17	26607.21
580.33	26288.90
580.49	26515.93
580.65	26520.61
580.82	26316.98
580.98	26480.82
581.14	26747.64
581.30	26546.36
581.46	26120.38
581.62	26419.97
581.78	26089.95
581.94	26314.64
582.10	26508.91
582.26	26401.24
582.42	26471.46
582.58	26324.01
582.74	26415.29
582.90	26487.84
583.06	26871.69
583.22	26338.05
583.38	26382.52
583.54	26265.49
583.70	26171.87
583.86	26499.55
584.02	26494.86
584.18	26700.83
584.34	26419.97
584.50	26726.58
584.66	26539.33
584.82	26150.81
584.98	26441.03
585.14	26359.11
585.30	26291.24
585.46	26232.72
585.62	26118.04
585.78	26143.78
585.94	26127.40
586.10	26328.69
586.26	26813.18
586.42	26574.44
586.58	26595.51
586.74	26511.25
586.90	26455.08
587.06	26157.83
587.22	26544.02
587.38	26134.42
587.54	26693.81
587.70	26661.04
587.86	26705.51
588.02	26305.28
588.18	26663.38
588.34	26522.95
588.49	26754.66
588.65	26405.92
588.81	26476.14
588.97	26260.81
589.13	26162.51
589.29	26457.42
589.45	26637.64
589.61	26726.58
589.77	26771.05
589.93	26614.23
590.08	26515.93
590.24	26359.11
590.40	26630.62
590.56	26581.46
590.72	26536.99
590.88	26031.44
591.04	26506.57
591.20	26934.88
591.35	26803.82
591.51	27016.80
591.67	26506.57
591.83	26857.65
591.99	26710.19
592.15	26677.43
