SpectraSuite Data File
++++++++++++++++++++++++++++++++++++
Date: Fri Oct 04 11:48:38 GMT-05:00 2013
User: price-jones
Dark Spectrum Present: No
Reference Spectrum Present: No
Number of Sampled Component Spectra: 1
Spectrometers: USB2+H05261
Integration Time (usec): 100000 (USB2+H05261)
Spectra Averaged: 1 (USB2+H05261)
Boxcar Smoothing: 0 (USB2+H05261)
Correct for Electrical Dark: No (USB2+H05261)
Strobe/Lamp Enabled: No (USB2+H05261)
Correct for Detector Non-linearity: No (USB2+H05261)
Correct for Stray Light: No (USB2+H05261)
Number of Pixels in Processed Spectrum: 2048
>>>>>Begin Processed Spectral Data<<<<<
365.73	0.00
365.92	0.00
366.12	0.00
366.32	0.00
366.52	0.00
366.72	0.00
366.91	0.00
367.11	0.00
367.31	0.00
367.51	0.00
367.70	0.00
367.90	0.00
368.10	0.00
368.30	0.00
368.49	0.00
368.69	0.00
368.89	0.00
369.09	0.00
369.28	0.00
369.48	0.00
369.68	0.00
369.87	0.00
370.07	0.00
370.27	0.00
370.47	0.00
370.66	21.06
370.86	159.16
371.06	208.31
371.25	194.26
371.45	140.43
371.65	145.11
371.84	128.73
372.04	184.90
372.24	252.78
372.44	220.01
372.63	149.79
372.83	170.86
373.03	184.90
373.22	283.20
373.42	203.63
373.62	238.73
373.81	238.73
374.01	222.35
374.21	271.50
374.40	297.25
374.60	283.20
374.79	220.01
374.99	259.80
375.19	220.01
375.38	243.42
375.58	290.23
375.78	257.46
375.97	285.55
376.17	325.33
376.37	161.50
376.56	299.59
376.76	259.80
376.95	238.73
377.15	280.86
377.35	285.55
377.54	344.06
377.74	248.10
377.93	297.25
378.13	236.39
378.33	287.89
378.52	243.42
378.72	315.97
378.91	287.89
379.11	248.10
379.31	259.80
379.50	220.01
379.70	292.57
379.89	287.89
380.09	252.78
380.28	283.20
380.48	311.29
380.68	264.48
380.87	252.78
381.07	322.99
381.26	266.82
381.46	264.48
381.65	374.49
381.85	337.04
382.04	236.39
382.24	304.27
382.43	287.89
382.63	252.78
382.83	365.12
383.02	313.63
383.22	341.72
383.41	250.44
383.61	344.06
383.80	276.18
384.00	327.68
384.19	404.91
384.39	285.55
384.58	322.99
384.78	322.99
384.97	353.42
385.17	304.27
385.36	271.50
385.56	381.51
385.75	266.82
385.95	355.76
386.14	322.99
386.34	283.20
386.53	299.59
386.72	337.04
386.92	346.40
387.11	320.65
387.31	393.21
387.50	346.40
387.70	320.65
387.89	341.72
388.09	355.76
388.28	320.65
388.48	339.38
388.67	376.83
388.86	330.02
389.06	337.04
389.25	409.59
389.45	404.91
389.64	393.21
389.84	393.21
390.03	369.80
390.22	430.66
390.42	416.62
390.61	421.30
390.81	404.91
391.00	414.27
391.19	344.06
391.39	397.89
391.58	435.34
391.78	402.57
391.97	414.27
392.16	397.89
392.36	543.00
392.55	442.36
392.75	435.34
392.94	484.49
393.13	442.36
393.33	395.55
393.52	472.79
393.71	428.32
393.91	491.51
394.10	479.81
394.29	484.49
394.49	428.32
394.68	524.28
394.88	505.56
395.07	575.77
395.26	585.13
395.46	500.87
395.65	533.64
395.84	482.15
396.04	648.33
396.23	594.50
396.42	559.39
396.62	526.62
396.81	606.20
397.00	582.79
397.19	447.04
397.39	578.11
397.58	617.90
397.77	568.75
397.97	578.11
398.16	613.22
398.35	547.69
398.55	575.77
398.74	561.73
398.93	610.88
399.12	617.90
399.32	669.39
399.51	648.33
399.70	664.71
399.90	681.10
400.09	650.67
400.28	744.29
400.47	699.82
400.67	706.84
400.86	711.52
401.05	748.97
401.24	767.70
401.44	795.78
401.63	704.50
401.82	755.99
402.01	791.10
402.21	767.70
402.40	851.96
402.59	732.59
402.78	802.80
402.97	870.68
403.17	753.65
403.36	908.13
403.55	807.48
403.74	814.51
403.93	908.13
404.13	931.53
404.32	945.58
404.51	842.59
404.70	957.28
404.89	1015.79
405.09	1090.69
405.28	957.28
405.47	950.26
405.66	1053.24
405.85	1062.60
406.05	957.28
406.24	990.05
406.43	1109.41
406.62	1004.09
406.81	1210.06
407.00	1067.28
407.20	1174.95
407.39	1048.56
407.58	1118.78
407.77	1149.20
407.96	1254.53
408.15	1198.35
408.34	1118.78
408.54	1163.25
408.73	1095.37
408.92	1118.78
409.11	1221.76
409.30	1275.59
409.49	1313.04
409.68	1334.11
409.87	1284.95
410.07	1350.49
410.26	1341.13
410.45	1413.68
410.64	1362.19
410.83	1462.83
411.02	1369.21
411.21	1366.87
411.40	1418.36
411.59	1451.13
411.78	1420.71
411.98	1446.45
412.17	1533.05
412.36	1413.68
412.55	1579.86
412.74	1624.33
412.93	1636.03
413.12	1586.88
413.31	1678.16
413.50	1671.14
413.69	1732.00
413.88	1673.48
414.07	1699.23
414.26	1739.02
414.45	1732.00
414.64	1877.11
414.83	1783.49
415.02	1769.44
415.22	1757.74
415.41	1888.81
415.60	1853.70
415.79	1952.01
415.98	1961.37
416.17	1865.41
416.36	1902.86
416.55	1926.26
416.74	1949.67
416.93	1912.22
417.12	2003.50
417.31	2036.27
417.50	2071.37
417.69	2143.93
417.88	2162.66
418.07	2132.23
418.26	2085.42
418.45	2099.46
418.64	2253.94
418.83	2174.36
419.02	2230.53
419.21	2134.57
419.39	2099.46
419.58	2237.55
419.77	2172.02
419.96	2305.43
420.15	2242.23
420.34	2263.30
420.53	2359.26
420.72	2338.20
420.91	2342.88
421.10	2420.11
421.29	2394.37
421.48	2382.67
421.67	2312.45
421.86	2511.39
422.05	2272.66
422.24	2375.64
422.43	2583.95
422.61	2490.33
422.80	2436.50
422.99	2495.01
423.18	2546.50
423.37	2520.76
423.56	2399.05
423.75	2457.56
423.94	2431.82
424.13	2256.28
424.32	2394.37
424.50	2534.80
424.69	2630.76
424.88	2605.02
425.07	2499.69
425.26	2567.57
425.45	2455.22
425.64	2593.31
425.83	2436.50
426.01	2504.37
426.20	2518.42
426.39	2438.84
426.58	2607.36
426.77	2534.80
426.96	2597.99
427.15	2677.57
427.33	2562.89
427.52	2619.06
427.71	2555.86
427.90	2803.96
428.09	2605.02
428.28	2731.41
428.46	2675.23
428.65	2729.06
428.84	2850.77
429.03	2813.32
429.22	2752.47
429.40	2778.22
429.59	2808.64
429.78	2715.02
429.97	2743.11
430.16	2754.81
430.34	2719.70
430.53	2796.94
430.72	2672.89
430.91	2775.88
431.10	2743.11
431.28	2935.03
431.47	2937.37
431.66	3002.91
431.85	2836.73
432.03	3054.40
432.22	3040.36
432.41	3042.70
432.60	3082.49
432.79	2937.37
432.97	3087.17
433.16	3007.59
433.35	3070.78
433.54	3049.72
433.72	3152.70
433.91	3012.27
434.10	3173.77
434.28	3141.00
434.47	3054.40
434.66	3206.53
434.85	3141.00
435.03	3349.31
435.22	3208.87
435.41	3370.37
435.59	3178.45
435.78	3279.09
435.97	3253.34
436.16	3276.75
436.34	3260.37
436.53	3281.43
436.72	3466.33
436.90	3304.84
437.09	3405.48
437.28	3300.16
437.46	3351.65
437.65	3396.12
437.84	3506.12
438.02	3375.05
438.21	3475.70
438.40	3396.12
438.58	3510.80
438.77	3658.26
438.96	3555.27
439.14	3452.29
439.33	3585.70
439.52	3634.85
439.70	3721.45
439.89	3644.21
440.08	3623.15
440.26	3658.26
440.45	3698.05
440.63	3791.67
440.82	3936.78
441.01	3915.72
441.19	3859.54
441.38	3911.04
441.57	3831.46
441.75	3971.89
441.94	3969.55
442.12	3948.48
442.31	3936.78
442.50	4088.92
442.68	4063.17
442.87	4044.45
443.05	4098.28
443.24	4184.88
443.43	4245.73
443.61	4098.28
443.80	4215.30
443.98	4086.58
444.17	3995.29
444.35	4327.65
444.54	4234.03
444.73	4191.90
444.91	4196.58
445.10	4222.33
445.28	4327.65
445.47	4248.07
445.65	4339.35
445.84	4234.03
446.02	4208.28
446.21	4248.07
446.39	4346.37
446.58	4301.90
446.77	4407.23
446.95	4177.86
447.14	4339.35
447.32	4372.12
447.51	4222.33
447.69	4456.38
447.88	4381.48
448.06	4276.16
448.25	4304.25
448.43	4259.78
448.62	4339.35
448.80	4341.69
448.99	4418.93
449.17	4290.20
449.36	4404.89
449.54	4421.27
449.73	4566.39
449.91	4468.08
450.10	4692.77
450.28	4557.02
450.46	4365.10
450.65	4734.90
450.83	4493.83
451.02	4596.81
451.20	4636.60
451.39	4678.73
451.57	4727.88
451.76	4734.90
451.94	4676.39
452.13	4725.54
452.31	4683.41
452.49	4505.53
452.68	4627.24
452.86	4634.26
453.05	4774.69
453.23	4917.47
453.42	4767.67
453.60	4531.28
453.78	4805.12
453.97	4821.50
454.15	4732.56
454.34	4667.03
454.52	4873.00
454.70	4720.86
454.89	4917.47
455.07	4915.12
455.26	4882.36
455.44	5102.37
455.62	5041.51
455.81	5022.79
455.99	4915.12
456.17	5060.24
456.36	4861.29
456.54	5219.39
456.73	5259.18
456.91	5252.16
457.09	5315.36
457.28	5446.43
457.46	5172.58
457.64	5331.74
457.83	5181.95
458.01	5198.33
458.19	5284.93
458.38	5273.23
458.56	5430.04
458.74	5305.99
458.93	5366.85
459.11	5336.42
459.29	5383.23
459.48	5308.34
459.66	5657.07
459.84	5460.47
460.03	5687.50
460.21	5465.15
460.39	5558.77
460.57	5420.68
460.76	5717.93
460.94	5558.77
461.12	5572.82
461.31	5659.42
461.49	5544.73
461.67	5434.72
461.85	5736.65
462.04	5746.02
462.22	6174.33
462.40	5795.17
462.59	5715.59
462.77	5570.48
462.95	5823.25
463.13	5621.97
463.32	5940.28
463.50	5923.90
463.68	5792.83
463.86	5792.83
464.05	5755.38
464.23	5905.17
464.41	5998.79
464.59	5865.38
464.78	5781.12
464.96	5921.56
465.14	6031.56
465.32	6005.81
465.50	6069.01
465.69	6080.71
465.87	5921.56
466.05	6099.44
466.23	5982.41
466.41	6134.54
466.60	6099.44
466.78	6033.90
466.96	6174.33
467.14	5912.19
467.32	5996.45
467.51	6026.88
467.69	6080.71
467.87	6176.67
468.05	6090.07
468.23	6242.21
468.41	6139.23
468.60	6190.72
468.78	6314.77
468.96	6230.51
469.14	6242.21
469.32	6490.31
469.50	6218.80
469.69	6480.94
469.87	6457.54
470.05	6579.25
470.23	6588.61
470.41	6406.05
470.59	6642.44
470.77	6457.54
470.95	6530.09
471.14	6623.72
471.32	6562.86
471.50	6726.70
471.68	6630.74
471.86	6649.46
472.04	6635.42
472.22	6977.14
472.40	6740.74
472.58	6754.79
472.77	6780.53
472.95	6981.82
473.13	7180.76
473.31	6815.64
473.49	6939.69
473.67	6965.43
473.85	7115.23
474.03	7260.34
474.21	7267.36
474.39	7302.47
474.57	7297.79
474.75	7309.49
474.93	7449.93
475.12	7300.13
475.30	7447.58
475.48	7258.00
475.66	7405.46
475.84	7288.43
476.02	7545.89
476.20	7627.81
476.38	7779.94
476.56	7777.60
476.74	7826.75
476.92	7840.79
477.10	7864.20
477.28	8011.65
477.46	7873.56
477.64	7920.37
477.82	8119.32
478.00	8187.19
478.18	8339.33
478.36	8512.53
478.54	8339.33
478.72	8362.73
478.90	8299.54
479.08	8486.78
479.26	8557.00
479.44	8634.24
479.62	8809.78
479.80	8688.07
479.98	8826.16
480.16	8929.14
480.34	8910.42
480.52	9111.71
480.70	9137.45
480.88	8980.64
481.06	9109.36
481.24	9151.49
481.41	9163.20
481.59	9479.17
481.77	9455.76
481.95	9479.17
482.13	9523.64
482.31	9577.47
482.49	9982.38
482.67	9937.91
482.85	9947.28
483.03	9961.32
483.21	10207.08
483.39	10296.02
483.57	10118.14
483.74	10382.62
483.92	10490.28
484.10	10326.44
484.28	10537.09
484.46	10829.66
484.64	10981.79
484.82	10504.32
485.00	10839.02
485.18	10904.56
485.35	11098.82
485.53	11084.78
485.71	11363.30
485.89	11323.51
486.07	11157.33
486.25	11358.62
486.43	11438.20
486.61	11372.66
486.78	11817.36
486.96	11639.48
487.14	11950.78
487.32	11955.46
487.50	11782.26
487.68	11875.88
487.85	12341.64
488.03	12313.56
488.21	12657.62
488.39	12512.50
488.57	12493.78
488.75	12706.77
488.92	12961.89
489.10	12760.60
489.28	13092.96
489.46	13027.42
489.64	13067.21
489.81	13317.65
489.99	13207.64
490.17	13270.84
490.35	13706.18
490.53	13687.45
490.70	13598.51
490.88	13680.43
491.06	13860.65
491.24	13813.84
491.41	14024.49
491.59	13898.10
491.77	13965.98
491.95	14417.70
492.13	14202.37
492.30	14249.18
492.48	14417.70
492.66	14906.87
492.84	14483.24
493.01	14789.85
493.19	14799.21
493.37	14904.53
493.54	14902.19
493.72	15143.27
493.90	14974.75
494.08	15286.04
494.25	15527.11
494.43	15424.13
494.61	15597.33
494.79	15779.89
494.96	15555.20
495.14	15908.62
495.32	16065.44
495.49	15946.07
495.67	16180.12
495.85	16322.90
496.02	16290.13
496.20	16313.53
496.38	16095.86
496.55	16250.34
496.73	16945.48
496.91	16716.11
497.09	16872.92
497.26	16769.94
497.44	16769.94
497.62	16685.68
497.79	17266.13
497.97	16814.41
498.14	17364.43
498.32	17600.83
498.50	17465.08
498.67	17493.16
498.85	17371.46
499.03	17429.97
499.20	17654.66
499.38	18017.44
499.56	17919.14
499.73	17806.80
499.91	18078.30
500.08	17788.07
500.26	17561.04
500.44	17940.21
500.61	17996.38
500.79	18155.54
500.97	18621.30
501.14	18501.93
501.32	18469.17
501.49	18104.04
501.67	18670.45
501.84	18857.70
502.02	18654.07
502.20	18764.07
502.37	18939.62
502.55	18855.36
502.72	19094.09
502.90	19136.22
503.07	18941.96
503.25	19278.99
503.43	19379.64
503.60	19302.40
503.78	19468.58
503.95	19630.07
504.13	19449.85
504.30	19637.09
504.48	19393.68
504.65	19304.74
504.83	19562.20
505.01	20039.67
505.18	19693.27
505.36	20060.73
505.53	20006.90
505.71	20093.50
505.88	20304.15
506.06	19831.36
506.23	20645.87
506.41	20023.28
506.58	20336.91
506.76	20692.68
506.93	20414.15
507.11	20025.62
507.28	20311.17
507.46	20683.31
507.63	20573.31
507.81	20947.79
507.98	20816.72
508.16	20690.34
508.33	20776.94
508.50	21149.08
508.68	21212.28
508.85	21163.12
509.03	21383.13
509.20	21647.61
509.38	21598.46
509.55	21521.23
509.73	21631.23
509.90	21645.27
510.08	21467.39
510.25	21443.99
510.42	22314.67
510.60	22167.21
510.77	22197.64
510.95	22298.28
511.12	21947.20
511.30	22239.77
511.47	22246.79
511.64	21998.70
511.82	22387.22
511.99	22122.74
512.17	22644.68
512.34	22455.10
512.51	22572.13
512.69	22347.44
512.86	22909.16
513.04	22682.13
513.21	22672.77
513.38	23035.55
513.56	23091.73
513.73	22988.74
513.90	22771.07
514.08	22813.20
514.25	23454.51
514.43	23175.98
514.60	23449.83
514.77	23431.10
514.95	23990.49
515.12	23271.95
515.29	23211.09
515.47	23379.61
515.64	23651.11
515.81	23632.39
515.99	23627.71
516.16	23910.91
516.33	24229.23
516.51	24105.18
516.68	23681.54
516.85	23740.05
517.03	24044.32
517.20	23805.59
517.37	24151.99
517.54	24142.63
517.72	24575.62
517.89	24428.17
518.06	24442.21
518.24	24503.07
518.41	24360.30
518.58	24425.83
518.75	24540.52
518.93	24624.78
519.10	24512.43
519.27	25057.78
519.45	24622.44
519.62	24662.22
519.79	24727.76
519.96	24753.51
520.14	25127.99
520.31	24835.42
520.48	25198.21
520.65	25071.82
520.83	25364.39
521.00	25322.26
521.17	25179.48
521.34	25284.81
521.52	25298.85
521.69	25308.21
521.86	25535.24
522.03	25383.11
522.20	25745.89
522.38	25855.90
522.55	25846.54
522.72	25502.48
522.89	26043.14
523.07	25839.51
523.24	25891.01
523.41	25827.81
523.58	25813.77
523.75	26033.78
523.92	25940.16
524.10	26089.95
524.27	26001.01
524.44	26389.54
524.61	26471.46
524.78	26001.01
524.96	26586.15
525.13	26504.23
525.30	26548.70
525.47	26480.82
525.64	26700.83
525.81	26656.36
525.98	26836.58
526.16	26558.06
526.33	26675.09
526.50	26953.61
526.67	26492.52
526.84	26661.04
527.01	26951.27
527.18	26934.88
527.36	26459.76
527.53	26927.86
527.70	27201.71
527.87	27288.31
528.04	26906.80
528.21	26991.06
528.38	27260.22
528.55	27140.85
528.72	27168.94
528.89	27072.98
529.07	27365.54
529.24	26862.33
529.41	27747.05
529.58	27440.44
529.75	27510.66
529.92	27960.04
530.09	27440.44
530.26	27445.12
530.43	27351.50
530.60	27541.08
530.77	27587.89
530.94	27665.13
531.11	28023.23
531.28	27552.79
531.46	28116.86
531.63	28273.67
531.80	27934.29
531.97	28283.03
532.14	28364.95
532.31	27711.94
532.48	28446.87
532.65	28299.42
532.82	27997.49
532.99	28048.98
533.16	28355.59
533.33	28627.09
533.50	28919.66
533.67	28517.09
533.84	28339.21
534.01	28013.87
534.18	28449.21
534.35	28500.70
534.52	28680.92
534.69	29076.48
534.86	28833.06
535.03	28517.09
535.20	28671.56
535.37	28669.22
535.54	28762.84
535.71	28875.19
535.88	28739.44
536.05	28680.92
536.22	28709.01
536.38	28924.34
536.55	29172.44
536.72	28966.47
536.89	28999.24
537.06	29034.35
537.23	29450.96
537.40	29156.05
537.57	28910.30
537.74	28933.70
537.91	29366.70
538.08	28769.86
538.25	29062.43
538.42	29109.24
538.59	29598.41
538.75	29308.19
538.92	29390.11
539.09	29661.61
539.26	29509.47
539.43	29509.47
539.60	29685.01
539.77	29687.36
539.94	29902.68
540.11	29731.83
540.28	29771.61
540.44	29549.26
540.61	29701.40
540.78	29951.84
540.95	29900.34
541.12	29703.74
541.29	30221.00
541.46	29715.44
541.62	30022.05
541.79	29701.40
541.96	29528.20
542.13	29806.72
542.30	29989.28
542.47	29956.52
542.63	30398.88
542.80	30221.00
542.97	30661.02
543.14	30499.52
543.31	30532.29
543.48	30377.81
543.64	30806.13
543.81	30387.18
543.98	30911.46
544.15	30976.99
544.32	30906.77
544.48	31213.38
544.65	30684.42
544.82	30607.19
544.99	30387.18
545.16	30569.74
545.32	30934.86
545.49	30780.39
545.66	31119.76
545.83	31292.96
546.00	30991.03
546.16	30761.66
546.33	30623.57
546.50	30621.23
546.67	31079.97
546.83	30433.99
547.00	30838.90
547.17	31215.72
547.34	30824.86
547.50	31112.74
547.67	31208.70
547.84	31243.81
548.00	31402.97
548.17	31534.04
548.34	31157.21
548.51	31557.44
548.67	31627.66
548.84	31267.22
549.01	31250.83
549.18	31260.20
549.34	31477.86
549.51	31517.65
549.68	31456.80
549.84	31590.21
550.01	31604.25
550.18	31599.57
550.34	31555.10
550.51	31601.91
550.68	31683.83
550.84	31695.53
551.01	31601.91
551.18	31559.78
551.34	31318.71
551.51	31758.73
551.68	32032.57
551.84	31637.02
552.01	31807.88
552.18	31960.02
552.34	31459.14
552.51	32018.53
552.68	31524.68
552.84	31714.26
553.01	31833.63
553.18	32322.80
553.34	32016.19
553.51	31908.52
553.67	32051.30
553.84	32374.29
554.01	32098.11
554.17	32116.83
554.34	31976.40
554.51	32072.36
554.67	32032.57
554.84	32170.66
555.00	32247.90
555.17	31744.69
555.33	32247.90
555.50	32006.83
555.67	32086.40
555.83	32168.32
556.00	32292.37
556.16	32587.28
556.33	32278.33
556.50	32144.92
556.66	32236.20
556.83	32411.74
556.99	32165.98
557.16	32453.87
557.32	32484.30
557.49	32381.31
557.65	31812.56
557.82	32613.02
557.98	32746.44
558.15	32376.63
558.32	32755.80
558.48	32346.20
558.65	32500.68
558.81	32767.50
558.98	32741.75
559.14	32610.68
559.31	32261.94
559.47	32266.63
559.64	32416.42
559.80	32512.38
559.97	32912.61
560.13	32568.55
560.30	32598.98
560.46	32690.26
560.63	32465.57
560.79	32751.12
560.96	32507.70
561.12	32631.75
561.29	32697.28
561.45	32870.48
561.61	32788.56
561.78	32606.00
561.94	32877.51
562.11	32706.65
562.27	32793.25
562.44	32503.02
562.60	32472.59
562.77	32690.26
562.93	32699.62
563.10	33411.15
563.26	32669.20
563.42	33317.53
563.59	32451.53
563.75	32540.47
563.92	33053.05
564.08	32680.90
564.24	32718.35
564.41	32580.26
564.57	32907.93
564.74	32823.67
564.90	32879.85
565.07	32804.95
565.23	32879.85
565.39	32723.03
565.56	33324.55
565.72	32889.21
565.88	33043.68
566.05	32889.21
566.21	32559.19
566.38	32875.16
566.54	32959.42
566.70	32753.46
566.87	33280.08
567.03	32870.48
567.19	33317.53
567.36	32732.39
567.52	32704.31
567.68	32914.95
567.85	32896.23
568.01	32767.50
568.17	32746.44
568.34	32835.38
568.50	33343.27
568.66	33303.48
568.83	33593.71
568.99	33354.97
569.15	32655.15
569.32	32926.66
569.48	32924.32
569.64	33127.94
569.81	33216.88
569.97	33312.84
570.13	33008.58
570.30	33006.23
570.46	32959.42
570.62	32982.83
570.78	32896.23
570.95	33179.43
571.11	33050.70
571.27	33179.43
571.43	33024.96
571.60	33315.19
571.76	33151.35
571.92	33233.27
572.09	33235.61
572.25	33226.24
572.41	33284.76
572.57	33158.37
572.74	33352.63
572.90	32875.16
573.06	33207.52
573.22	33483.70
573.38	33259.01
573.55	33074.11
573.71	33785.63
573.87	33502.43
574.03	33076.45
574.20	33041.34
574.36	33043.68
574.52	33064.75
574.68	32961.76
574.84	33324.55
575.01	32929.00
575.17	33373.70
575.33	32994.53
575.49	33418.17
575.65	33240.29
575.82	33205.18
575.98	33006.23
576.14	33188.80
576.30	33055.39
576.46	33013.26
576.62	33369.02
576.79	33219.22
576.95	33223.90
577.11	33062.41
577.27	33090.49
577.43	32615.37
577.59	33177.09
577.75	33006.23
577.92	33200.50
578.08	33083.47
578.24	33104.54
578.40	33448.60
578.56	33134.96
578.72	33319.87
578.88	33359.66
579.04	33457.96
579.21	33273.06
579.37	33577.33
579.53	33556.26
579.69	33188.80
579.85	32985.17
580.01	33249.65
580.17	33172.41
580.33	33172.41
580.49	33357.32
580.65	33544.56
580.82	33338.59
580.98	33273.06
581.14	33392.42
581.30	33263.69
581.46	33359.66
581.62	33156.03
581.78	32947.72
581.94	33294.12
582.10	33226.24
582.26	33228.59
582.42	33399.44
582.58	33149.01
582.74	33212.20
582.90	33570.30
583.06	33474.34
583.22	33408.81
583.38	33055.39
583.54	33144.33
583.70	33401.79
583.86	33064.75
584.02	33184.12
584.18	33174.75
584.34	33748.18
584.50	33319.87
584.66	32910.27
584.82	33057.73
584.98	33544.56
585.14	33357.32
585.30	33130.28
585.46	33357.32
585.62	33062.41
585.78	33486.04
585.94	33092.83
586.10	33401.79
586.26	33429.87
586.42	33284.76
586.58	33734.14
586.74	32898.57
586.90	32573.24
587.06	32840.06
587.22	33109.22
587.38	32627.07
587.54	33415.83
587.70	33750.52
587.86	33305.82
588.02	33319.87
588.18	33958.83
588.34	32992.19
588.49	33488.38
588.65	33392.42
588.81	33259.01
588.97	33373.70
589.13	33359.66
589.29	33546.90
589.45	33174.75
589.61	33567.96
589.77	33804.36
589.93	33359.66
590.08	33521.15
590.24	33743.50
590.40	33553.92
590.56	33848.83
590.72	33322.21
590.88	33048.36
591.04	33071.77
591.20	33406.47
591.35	33860.53
591.51	34017.35
591.67	33846.49
