SpectraSuite Data File
++++++++++++++++++++++++++++++++++++
Date: Fri Oct 04 11:48:41 GMT-05:00 2013
User: price-jones
Dark Spectrum Present: No
Reference Spectrum Present: No
Number of Sampled Component Spectra: 1
Spectrometers: USB2+H05261
Integration Time (usec): 100000 (USB2+H05261)
Spectra Averaged: 1 (USB2+H05261)
Boxcar Smoothing: 0 (USB2+H05261)
Correct for Electrical Dark: No (USB2+H05261)
Strobe/Lamp Enabled: No (USB2+H05261)
Correct for Detector Non-linearity: No (USB2+H05261)
Correct for Stray Light: No (USB2+H05261)
Number of Pixels in Processed Spectrum: 2048
>>>>>Begin Processed Spectral Data<<<<<
365.73	0.00
365.92	0.00
366.12	0.00
366.32	0.00
366.52	0.00
366.72	0.00
366.91	0.00
367.11	0.00
367.31	0.00
367.51	0.00
367.70	0.00
367.90	0.00
368.10	0.00
368.30	0.00
368.49	0.00
368.69	0.00
368.89	0.00
369.09	0.00
369.28	0.00
369.48	0.00
369.68	0.00
369.87	0.00
370.07	0.00
370.27	23.41
370.47	91.28
370.66	369.80
370.86	390.87
371.06	416.62
371.25	402.57
371.45	421.30
371.65	475.13
371.84	442.36
372.04	407.25
372.24	444.70
372.44	400.23
372.63	456.40
372.83	496.19
373.03	552.37
373.22	540.66
373.42	486.83
373.62	514.92
373.81	517.26
374.01	594.50
374.21	627.26
374.40	470.45
374.60	533.64
374.79	533.64
374.99	589.82
375.19	559.39
375.38	571.09
375.58	554.71
375.78	606.20
375.97	624.92
376.17	629.60
376.37	578.11
376.56	531.30
376.76	566.41
376.95	566.41
377.15	676.41
377.35	587.47
377.54	585.13
377.74	627.26
377.93	617.90
378.13	631.94
378.33	638.97
378.52	643.65
378.72	624.92
378.91	688.12
379.11	664.71
379.31	627.26
379.50	716.20
379.70	727.91
379.89	662.37
380.09	697.48
380.28	676.41
380.48	678.76
380.68	676.41
380.87	720.88
381.07	727.91
381.26	812.17
381.46	718.54
381.65	819.19
381.85	748.97
382.04	753.65
382.24	767.70
382.43	725.57
382.63	681.10
382.83	744.29
383.02	802.80
383.22	784.08
383.41	725.57
383.61	809.83
383.80	758.33
384.00	737.27
384.19	720.88
384.39	889.40
384.58	823.87
384.78	793.44
384.97	814.51
385.17	842.59
385.36	791.10
385.56	887.06
385.75	826.21
385.95	898.77
386.14	898.77
386.34	877.70
386.53	910.47
386.72	784.08
386.92	894.08
387.11	896.43
387.31	917.49
387.50	926.85
387.70	983.02
387.89	917.49
388.09	950.26
388.28	938.55
388.48	943.24
388.67	987.71
388.86	912.81
389.06	1006.43
389.25	933.87
389.45	889.40
389.64	1015.79
389.84	1034.52
390.03	1025.15
390.22	931.53
390.42	1067.28
390.61	1064.94
390.81	1013.45
391.00	1008.77
391.19	1071.97
391.39	1069.62
391.58	1123.46
391.78	1032.18
391.97	1181.97
392.16	1062.60
392.36	1104.73
392.55	1163.25
392.75	1158.57
392.94	1130.48
393.13	1139.84
393.33	1142.18
393.52	1116.44
393.71	1214.74
393.91	1219.42
394.10	1172.61
394.29	1224.10
394.49	1174.95
394.68	1263.89
394.88	1273.25
395.07	1306.02
395.26	1291.98
395.46	1273.25
395.65	1270.91
395.84	1380.92
396.04	1359.85
396.23	1320.06
396.42	1380.92
396.62	1338.79
396.81	1364.53
397.00	1378.58
397.19	1420.71
397.39	1362.19
397.58	1483.90
397.77	1413.68
397.97	1462.83
398.16	1474.54
398.35	1483.90
398.55	1427.73
398.74	1448.79
398.93	1579.86
399.12	1507.30
399.32	1535.39
399.51	1413.68
399.70	1572.84
399.90	1554.12
400.09	1530.71
400.28	1629.01
400.47	1558.80
400.67	1605.61
400.86	1671.14
401.05	1535.39
401.24	1612.63
401.44	1619.65
401.63	1722.63
401.82	1708.59
402.01	1727.32
402.21	1701.57
402.40	1769.44
402.59	1769.44
402.78	1734.34
402.97	1788.17
403.17	1727.32
403.36	1774.13
403.55	1895.83
403.74	1837.32
403.93	1996.48
404.13	1933.28
404.32	1856.04
404.51	1966.05
404.70	1970.73
404.89	1912.22
405.09	2115.84
405.28	1949.67
405.47	1937.96
405.66	1944.99
405.85	2115.84
406.05	2012.86
406.24	2097.12
406.43	2069.03
406.62	2083.08
406.81	2132.23
407.00	2115.84
407.20	2071.37
407.39	2092.44
407.58	2141.59
407.77	2282.02
407.96	2300.75
408.15	2223.51
408.34	2314.79
408.54	2312.45
408.73	2298.41
408.92	2260.96
409.11	2314.79
409.30	2366.28
409.49	2293.72
409.68	2321.81
409.87	2427.14
410.07	2349.90
410.26	2525.44
410.45	2502.03
410.64	2485.65
410.83	2476.29
411.02	2565.23
411.21	2621.40
411.40	2668.21
411.59	2574.59
411.78	2656.51
411.98	2551.18
412.17	2712.68
412.36	2689.28
412.55	2860.13
412.74	2878.86
412.93	2820.35
413.12	2888.22
413.31	2970.14
413.50	2960.78
413.69	2986.52
413.88	3068.44
414.07	3030.99
414.26	2881.20
414.45	3012.27
414.64	3047.38
414.83	3087.17
415.02	3087.17
415.22	3049.72
415.41	3169.09
415.60	3300.16
415.79	3351.65
415.98	3377.39
416.17	3377.39
416.36	3400.80
416.55	3428.88
416.74	3337.60
416.93	3442.93
417.12	3447.61
417.31	3461.65
417.50	3428.88
417.69	3660.60
417.88	3485.06
418.07	3581.02
418.26	3581.02
418.45	3728.47
418.64	3637.19
418.83	3611.45
419.02	3646.55
419.21	3831.46
419.39	3815.07
419.58	3723.79
419.77	3721.45
419.96	3803.37
420.15	3908.69
420.34	3878.27
420.53	3854.86
420.72	4009.34
420.91	3988.27
421.10	4004.66
421.29	4212.96
421.48	3976.57
421.67	4046.79
421.86	4079.55
422.05	3999.98
422.24	4067.85
422.43	4065.51
422.61	4154.45
422.80	4058.49
422.99	4154.45
423.18	4166.15
423.37	4184.88
423.56	4072.53
423.75	4112.32
423.94	4037.42
424.13	3873.59
424.32	3927.42
424.50	4100.62
424.69	4187.22
424.88	4294.88
425.07	4177.86
425.26	4070.19
425.45	4215.30
425.64	4105.30
425.83	4184.88
426.01	4219.99
426.20	4250.41
426.39	4205.94
426.58	4180.20
426.77	4381.48
426.96	4290.20
427.15	4390.84
427.33	4287.86
427.52	4353.40
427.71	4372.12
427.90	4383.82
428.09	4479.79
428.28	4524.26
428.46	4386.16
428.65	4430.63
428.84	4507.87
429.03	4671.71
429.22	4353.40
429.40	4540.64
429.59	4725.54
429.78	4500.85
429.97	4498.51
430.16	4554.68
430.34	4599.15
430.53	4835.55
430.72	4688.09
430.91	4695.11
431.10	4809.80
431.28	4922.15
431.47	4837.89
431.66	4987.68
431.85	5011.09
432.03	5144.50
432.22	5163.22
432.41	4954.91
432.60	5100.03
432.79	5027.47
432.97	4992.36
433.16	5057.90
433.35	5130.45
433.54	5254.50
433.72	5011.09
433.91	5039.17
434.10	5121.09
434.28	5224.08
434.47	5104.71
434.66	5188.97
434.85	5298.97
435.03	5432.38
435.22	5399.62
435.41	5518.98
435.59	5458.13
435.78	5406.64
435.97	5458.13
436.16	5500.26
436.34	5352.81
436.53	5458.13
436.72	5636.01
436.90	5610.26
437.09	5596.22
437.28	5547.07
437.46	5537.71
437.65	5617.29
437.84	5640.69
438.02	5610.26
438.21	5823.25
438.40	5849.00
438.58	5933.26
438.77	5940.28
438.96	5893.47
439.14	6195.40
439.33	6202.42
439.52	6064.33
439.70	6197.74
439.89	6221.14
440.08	6146.25
440.26	6221.14
440.45	6223.48
440.63	6317.11
440.82	6483.28
441.01	6450.52
441.19	6675.21
441.38	6689.25
441.57	6413.07
441.75	6698.61
441.94	6607.33
442.12	6696.27
442.31	6918.62
442.50	6871.81
442.68	6773.51
442.87	7007.56
443.05	6960.75
443.24	7140.97
443.43	6696.27
443.61	6911.60
443.80	7258.00
443.98	6883.52
444.17	6722.02
444.35	7037.99
444.54	7140.97
444.73	7176.08
444.91	6829.68
445.10	7166.72
445.28	7236.94
445.47	6986.50
445.65	7052.03
445.84	7117.57
446.02	7220.55
446.21	7030.97
446.39	7005.22
446.58	7096.50
446.77	7140.97
446.95	7164.38
447.14	7105.87
447.32	7082.46
447.51	7325.88
447.69	7220.55
447.88	7375.03
448.06	7314.17
448.25	7133.95
448.43	7225.23
448.62	7192.47
448.80	7351.62
448.99	7346.94
449.17	7475.67
449.36	7496.74
449.54	7454.61
449.73	7588.02
449.91	7693.34
450.10	7707.38
450.28	7585.68
450.46	7740.15
450.65	7705.04
450.83	7882.92
451.02	7676.96
451.20	7801.01
451.39	7859.52
451.57	7758.88
451.76	7953.14
451.94	7838.45
452.13	8035.06
452.31	8105.28
452.49	7857.18
452.68	7873.56
452.86	8032.72
453.05	7962.50
453.23	8044.42
453.42	7995.27
453.60	8084.21
453.78	7997.61
453.97	7955.48
454.15	8116.98
454.34	7915.69
454.52	8294.86
454.70	8074.85
454.89	8266.77
455.07	8304.22
455.26	8311.24
455.44	8348.69
455.62	8374.44
455.81	8334.65
455.99	8360.39
456.17	8652.96
456.36	8517.21
456.54	8720.84
456.73	8737.22
456.91	9062.55
457.09	8879.99
457.28	8966.59
457.46	8802.75
457.64	9029.79
457.83	9078.94
458.01	8896.38
458.19	8994.68
458.38	8929.14
458.56	9153.84
458.74	9336.40
458.93	8959.57
459.11	9025.11
459.29	9107.02
459.48	9401.93
459.66	9081.28
459.84	9266.18
460.03	9565.77
460.21	9343.42
460.39	9320.01
460.57	9240.44
460.76	9586.83
460.94	9525.98
461.12	9624.28
461.31	9455.76
461.49	9460.45
461.67	9504.92
461.85	9872.38
462.04	9666.41
462.22	10071.33
462.40	9806.84
462.59	10022.17
462.77	9856.00
462.95	9940.26
463.13	9947.28
463.32	9991.75
463.50	10120.48
463.68	10099.41
463.86	9865.36
464.05	10026.86
464.23	9935.57
464.41	10188.35
464.59	9886.42
464.78	10190.69
464.96	10237.50
465.14	10111.11
465.32	10134.52
465.50	10326.44
465.69	10326.44
465.87	10450.49
466.05	10347.51
466.23	10225.80
466.41	10478.58
466.60	10740.72
466.78	10586.24
466.96	10368.57
467.14	10305.38
467.32	10553.48
467.51	10689.23
467.69	10389.64
467.87	10621.35
468.05	10466.88
468.23	10621.35
468.41	10698.59
468.60	10888.17
468.78	10855.40
468.96	10651.78
469.14	10949.03
469.32	10871.79
469.50	10813.28
469.69	11028.60
469.87	11286.06
470.05	11262.66
470.23	11281.38
470.41	11122.23
470.59	11360.96
470.77	11461.60
470.95	11431.18
471.14	11630.12
471.32	11309.47
471.50	11676.93
471.68	11618.42
471.86	11580.97
472.04	11646.51
472.22	11960.14
472.40	11791.62
472.58	12053.76
472.77	11892.26
472.95	11885.24
473.13	12409.52
473.31	12105.25
473.49	12011.63
473.67	12283.13
473.85	12264.41
474.03	12446.97
474.21	12355.69
474.39	12772.30
474.57	12793.37
474.75	13036.78
474.93	12854.22
475.12	12741.88
475.30	12762.94
475.48	12886.99
475.66	12905.71
475.84	13081.25
476.02	13219.35
476.20	13404.25
476.38	13458.08
476.56	13696.82
476.74	13540.00
476.92	13504.89
477.10	13523.62
477.28	14078.32
477.46	13652.34
477.64	14127.47
477.82	14108.75
478.00	14242.16
478.18	14579.20
478.36	14487.92
478.54	14764.10
478.72	14665.80
478.90	14712.61
479.08	14916.23
479.26	15197.10
479.44	15154.97
479.62	15309.44
479.80	15332.85
479.98	15552.86
480.16	15822.02
480.34	15550.52
480.52	15992.88
480.70	16004.58
480.88	15906.28
481.06	16175.44
481.24	15971.82
481.41	16631.85
481.59	16568.65
481.77	16573.33
481.95	16884.62
482.13	16709.08
482.31	16561.63
482.49	17102.29
482.67	17554.02
482.85	17275.49
483.03	17617.21
483.21	17869.99
483.39	17851.27
483.57	18073.62
483.74	17921.48
483.92	18401.29
484.10	18291.29
484.28	18633.00
484.46	18897.49
484.64	19147.92
484.82	19056.64
485.00	18590.88
485.18	19751.78
485.35	19697.95
485.53	19955.41
485.71	19669.86
485.89	20304.15
486.07	19903.92
486.25	20046.69
486.43	20442.24
486.61	20645.87
486.78	20863.54
486.96	20900.98
487.14	21226.32
487.32	20912.69
487.50	20996.95
487.68	21556.33
487.85	21867.63
488.03	22113.38
488.21	22235.09
488.39	22522.98
488.57	22291.26
488.75	22380.20
488.92	22867.03
489.10	22852.99
489.28	23002.78
489.46	23513.02
489.64	23498.98
489.81	23690.90
489.99	23805.59
490.17	23821.97
490.35	23969.43
490.53	24341.57
490.70	24805.00
490.88	24575.62
491.06	24718.40
491.24	25060.12
491.41	25118.63
491.59	25088.20
491.77	25343.32
491.95	25752.91
492.13	25474.39
492.30	26122.72
492.48	25993.99
492.66	26127.40
492.84	26167.19
493.01	26684.45
493.19	26258.47
493.37	26696.15
493.54	26845.94
493.72	27201.71
493.90	27257.88
494.08	27367.88
494.25	27611.30
494.43	28261.97
494.61	27779.82
494.79	28112.17
494.96	28037.28
495.14	28140.26
495.32	28844.76
495.49	28809.65
495.67	28905.62
495.85	29181.80
496.02	29097.54
496.20	29392.45
496.38	29429.90
496.55	29364.36
496.73	29912.05
496.91	29694.38
497.09	30000.99
497.26	30110.99
497.44	29879.28
497.62	29944.81
497.79	30618.89
497.97	30686.76
498.14	30845.92
498.32	31096.36
498.50	31094.02
498.67	31505.95
498.85	31498.93
499.03	31489.57
499.20	31728.30
499.38	32093.43
499.56	31974.06
499.73	32163.64
499.91	32224.50
500.08	32549.83
500.26	32187.05
500.44	32528.77
500.61	32655.15
500.79	32814.31
500.97	32992.19
501.14	33064.75
501.32	33514.13
501.49	33418.17
501.67	33322.21
501.84	33212.20
502.02	33415.83
502.20	33841.81
502.37	34174.16
502.55	34115.65
502.72	33986.92
502.90	34373.11
503.07	34031.39
503.25	34270.12
503.43	34340.34
503.60	34595.46
503.78	35044.84
503.95	35192.30
504.13	34806.11
504.30	35236.77
504.48	35002.71
504.65	35381.88
504.83	35707.21
505.01	36170.64
505.18	35859.35
505.36	35901.48
505.53	35871.05
505.71	36144.89
505.88	35974.03
506.06	36055.95
506.23	36898.55
506.41	36308.73
506.58	36556.83
506.76	36921.95
506.93	36615.34
507.11	36636.41
507.28	37041.32
507.46	37123.24
507.63	37376.01
507.81	37689.65
507.98	37113.87
508.16	37202.82
508.33	37567.94
508.50	37500.06
508.68	38024.34
508.85	38239.67
509.03	38520.54
509.20	38319.25
509.38	38595.43
509.55	39246.10
509.73	38946.51
509.90	38625.86
510.08	38766.29
510.25	38623.52
510.42	38951.20
510.60	39461.43
510.77	39564.42
510.95	39297.59
511.12	39606.55
511.30	39321.00
511.47	39758.68
511.64	39641.65
511.82	40346.15
511.99	39871.03
512.17	40472.54
512.34	40023.16
512.51	40549.78
512.69	40711.28
512.86	40697.24
513.04	40549.78
513.21	40807.24
513.38	41053.00
513.56	40940.65
513.73	40861.07
513.90	40945.33
514.08	41308.11
514.25	41254.28
514.43	41577.28
514.60	41500.04
514.77	41326.84
514.95	42120.28
515.12	41329.18
515.29	41897.93
515.47	42190.50
515.64	42192.84
515.81	42323.91
515.99	42480.72
516.16	42742.86
516.33	42663.28
516.51	43131.39
516.68	42824.78
516.85	43147.78
517.03	42962.87
517.20	43206.29
517.37	43302.25
517.54	43543.33
517.72	43285.87
517.89	43267.14
518.06	43356.08
518.24	43456.73
518.41	43428.64
518.58	43770.36
518.75	43772.70
518.93	44011.43
519.10	43709.50
519.27	44186.97
519.45	43924.83
519.62	43899.09
519.79	44535.71
519.96	44624.65
520.14	44465.50
520.31	44175.27
520.48	44786.15
520.65	44832.96
520.83	44500.61
521.00	45209.79
521.17	44938.29
521.34	45366.60
521.52	45127.87
521.69	45247.24
521.86	45361.92
522.03	45291.71
522.20	45614.70
522.38	45827.69
522.55	45184.04
522.72	45607.68
522.89	45933.01
523.07	46141.32
523.24	45972.80
523.41	46230.26
523.58	46054.72
523.75	46183.45
523.92	45993.87
524.10	46043.02
524.27	46681.98
524.44	46958.17
524.61	47026.04
524.78	47079.88
524.96	46754.54
525.13	46941.78
525.30	46838.80
525.47	46988.60
525.64	46548.57
525.81	47196.90
525.98	47295.21
526.16	47210.95
526.33	47363.08
526.50	47627.56
526.67	47283.50
526.84	47665.01
527.01	47552.66
527.18	47430.96
527.36	47756.29
527.53	48018.43
527.70	48231.42
527.87	48395.26
528.04	47863.96
528.21	47863.96
528.38	48198.65
528.55	48591.86
528.72	48320.36
528.89	48236.10
529.07	48238.44
529.24	48404.62
529.41	48832.94
529.58	48406.96
529.75	48327.38
529.92	48402.28
530.09	48474.84
530.26	48582.50
530.43	48956.99
530.60	48273.55
530.77	48861.02
530.94	49134.87
531.11	48809.53
531.28	49059.97
531.46	49256.57
531.63	49336.15
531.80	49595.95
531.97	49663.83
532.14	49570.21
532.31	49539.78
532.48	49397.01
532.65	49366.58
532.82	49778.51
532.99	49965.76
533.16	49478.92
533.33	49874.48
533.50	50220.87
533.67	49895.54
533.84	49876.82
534.01	50164.70
534.18	50344.92
534.35	50328.54
534.52	50103.85
534.69	50270.03
534.86	50410.46
535.03	50494.72
535.20	50532.17
535.37	50340.24
535.54	50312.16
535.71	50298.11
535.88	50651.53
536.05	50656.21
536.22	50967.51
536.38	50850.48
536.55	50969.85
536.72	50951.12
536.89	50607.06
537.06	51119.64
537.23	50986.23
537.40	51220.28
537.57	50756.86
537.74	51026.02
537.91	51447.32
538.08	51447.32
538.25	51501.15
538.42	51201.56
538.59	51522.21
538.75	50869.20
538.92	51440.29
539.09	51466.04
539.26	51576.04
539.43	51966.91
539.60	51667.33
539.77	51552.64
539.94	51730.52
540.11	51625.20
540.28	51330.29
540.44	51571.36
540.61	51650.94
540.78	51929.47
540.95	52207.99
541.12	52090.96
541.29	52285.23
541.46	51903.72
541.62	52067.56
541.79	52027.77
541.96	51927.13
542.13	51774.99
542.30	52168.20
542.47	52521.62
542.63	52432.68
542.80	52601.20
542.97	52704.18
543.14	52734.61
543.31	52332.04
543.48	52662.05
543.64	53017.82
543.81	53165.27
543.98	53006.11
544.15	53120.80
544.32	53172.29
544.48	53233.14
544.65	52996.75
544.82	53015.47
544.99	52999.09
545.16	52849.30
545.32	53120.80
545.49	53474.22
545.66	53698.91
545.83	53495.28
546.00	53464.86
546.16	53214.42
546.33	53097.39
546.50	52935.90
546.67	53263.57
546.83	53106.76
547.00	53584.22
547.17	53453.15
547.34	53574.86
547.50	53401.66
547.67	53851.05
547.84	53659.12
548.00	54031.27
548.17	54000.84
548.34	54131.91
548.51	53951.69
548.67	53895.52
548.84	53834.66
549.01	53956.37
549.18	53890.83
549.34	53694.23
549.51	53869.77
549.68	53954.03
549.84	53790.19
550.01	54178.72
550.18	53907.22
550.34	54326.17
550.51	54206.81
550.68	54110.85
550.84	53942.33
551.01	54227.87
551.18	53839.34
551.34	54038.29
551.51	54171.70
551.68	54543.84
551.84	54550.87
552.01	54419.80
552.18	54581.29
552.34	54431.50
552.51	54674.91
552.68	54344.90
552.84	54609.38
553.01	54934.71
553.18	54576.61
553.34	54995.57
553.51	54637.47
553.67	54721.72
553.84	54946.42
554.01	55047.06
554.17	54686.62
554.34	54838.75
554.51	54894.92
554.67	54906.63
554.84	54813.01
555.00	54604.70
555.17	54803.64
555.33	55110.25
555.50	54784.92
555.67	54918.33
555.83	55105.57
556.00	55238.98
556.16	55152.38
556.33	54911.31
556.50	55098.55
556.66	55089.19
556.83	55082.17
556.99	55384.10
557.16	55421.55
557.32	55360.69
557.49	55281.11
557.65	55056.42
557.82	54920.67
557.98	55196.85
558.15	55196.85
558.32	55267.07
558.48	55344.31
558.65	55409.84
558.81	55622.83
558.98	55246.00
559.14	55416.86
559.31	55360.69
559.47	55547.93
559.64	55416.86
559.80	55702.41
559.97	55655.60
560.13	55440.27
560.30	55487.08
560.46	55753.90
560.63	55735.18
560.79	55405.16
560.96	55517.51
561.12	55477.72
561.29	55629.85
561.45	55618.15
561.61	55908.38
561.78	55877.95
561.94	55707.09
562.11	55849.86
562.27	55744.54
562.44	55650.92
562.60	55723.47
562.77	55671.98
562.93	55817.10
563.10	56369.46
563.26	55730.50
563.42	55969.23
563.59	55852.20
563.75	55987.95
563.92	55931.78
564.08	55765.60
564.24	55700.07
564.41	55910.72
564.57	55777.31
564.74	56083.92
564.90	56016.04
565.07	56151.79
565.23	56130.73
565.39	56062.85
565.56	56184.56
565.72	55875.61
565.88	55945.83
566.05	55791.35
566.21	56011.36
566.38	55938.80
566.54	56172.86
566.70	56383.51
566.87	56306.27
567.03	56083.92
567.19	56402.23
567.36	56044.13
567.52	56203.28
567.68	56357.76
567.85	56104.98
568.01	56095.62
568.17	55976.25
568.34	56310.95
568.50	56411.59
568.66	56306.27
568.83	56090.94
568.99	56222.01
569.15	56177.54
569.32	56353.08
569.48	56205.62
569.64	56535.64
569.81	56193.92
569.97	56161.15
570.13	56280.52
570.30	56168.18
570.46	56123.71
570.62	56439.68
570.78	56329.67
570.95	55978.59
571.11	56399.89
571.27	56458.40
571.43	56378.82
571.60	56580.11
571.76	56334.35
571.92	56301.59
572.09	56671.39
572.25	56465.42
572.41	56479.47
572.57	56474.79
572.74	56521.60
572.90	56289.88
573.06	56158.81
573.22	56615.22
573.38	56720.54
573.55	56423.29
573.71	56718.20
573.87	56556.70
574.03	56472.45
574.20	56678.41
574.36	56615.22
574.52	56535.64
574.68	56505.21
574.84	56753.31
575.01	56846.93
575.17	56493.51
575.33	56669.05
575.49	56666.71
575.65	56755.65
575.82	56940.55
575.98	56580.11
576.14	56849.27
576.30	56975.66
576.46	56451.38
576.62	56760.33
576.79	56587.13
576.95	56413.93
577.11	56727.56
577.27	56762.67
577.43	56715.86
577.59	56795.44
577.75	56718.20
577.92	56509.89
578.08	56582.45
578.24	56671.39
578.40	56624.58
578.56	56664.37
578.72	56411.59
578.88	56947.57
579.04	56926.51
579.21	56605.86
579.37	56704.16
579.53	56956.94
579.69	56626.92
579.85	56697.14
580.01	56828.21
580.17	56624.58
580.33	56903.10
580.49	56755.65
580.65	56935.87
580.82	57083.33
580.98	56816.50
581.14	56870.34
581.30	56886.72
581.46	56807.14
581.62	56460.74
581.78	56772.03
581.94	56956.94
582.10	56828.21
582.26	57134.82
582.42	56928.85
582.58	56973.32
582.74	56935.87
582.90	56750.97
583.06	56926.51
583.22	56774.37
583.38	57017.79
583.54	56835.23
583.70	56856.29
583.86	56727.56
584.02	56837.57
584.18	56713.52
584.34	56875.02
584.50	57001.41
584.66	56992.04
584.82	56636.28
584.98	56942.89
585.14	56765.01
585.30	56935.87
585.46	56786.08
585.62	56678.41
585.78	56987.36
585.94	56807.14
586.10	56795.44
586.26	56849.27
586.42	57029.49
586.58	56968.64
586.74	56942.89
586.90	56694.80
587.06	56781.40
587.22	56858.63
587.38	56853.95
587.54	56804.80
587.70	57275.25
587.86	57132.48
588.02	57286.95
588.18	57296.31
588.34	57134.82
588.49	56891.40
588.65	56905.44
588.81	56802.46
588.97	57195.67
589.13	56942.89
589.29	56821.19
589.45	57209.71
589.61	57069.28
589.77	57179.29
