SpectraSuite Data File
++++++++++++++++++++++++++++++++++++
Date: Fri Oct 04 11:48:21 GMT-05:00 2013
User: price-jones
Dark Spectrum Present: No
Reference Spectrum Present: No
Number of Sampled Component Spectra: 1
Spectrometers: USB2+H05261
Integration Time (usec): 100000 (USB2+H05261)
Spectra Averaged: 1 (USB2+H05261)
Boxcar Smoothing: 0 (USB2+H05261)
Correct for Electrical Dark: No (USB2+H05261)
Strobe/Lamp Enabled: No (USB2+H05261)
Correct for Detector Non-linearity: No (USB2+H05261)
Correct for Stray Light: No (USB2+H05261)
Number of Pixels in Processed Spectrum: 2048
>>>>>Begin Processed Spectral Data<<<<<
365.73	23.41
365.92	23.41
366.12	23.41
366.32	0.00
366.52	0.00
366.72	0.00
366.91	0.00
367.11	0.00
367.31	0.00
367.51	0.00
367.70	0.00
367.90	0.00
368.10	0.00
368.30	0.00
368.49	0.00
368.69	0.00
368.89	0.00
369.09	0.00
369.28	0.00
369.48	0.00
369.68	0.00
369.87	2.34
370.07	0.00
370.27	42.13
370.47	23.41
370.66	9.36
370.86	102.98
371.06	175.54
371.25	163.84
371.45	124.05
371.65	142.77
371.84	79.58
372.04	72.56
372.24	72.56
372.44	72.56
372.63	152.13
372.83	159.16
373.03	105.32
373.22	180.22
373.42	124.05
373.62	189.58
373.81	168.52
374.01	203.63
374.21	126.39
374.40	198.95
374.60	161.50
374.79	170.86
374.99	147.45
375.19	131.07
375.38	187.24
375.58	135.75
375.78	105.32
375.97	138.09
376.17	250.44
376.37	234.05
376.56	140.43
376.76	149.79
376.95	140.43
377.15	173.20
377.35	135.75
377.54	203.63
377.74	177.88
377.93	126.39
378.13	175.54
378.33	198.95
378.52	189.58
378.72	201.29
378.91	110.01
379.11	184.90
379.31	194.26
379.50	194.26
379.70	168.52
379.89	154.48
380.09	114.69
380.28	110.01
380.48	170.86
380.68	135.75
380.87	163.84
381.07	180.22
381.26	243.42
381.46	110.01
381.65	138.09
381.85	154.48
382.04	121.71
382.24	198.95
382.43	222.35
382.63	222.35
382.83	177.88
383.02	166.18
383.22	175.54
383.41	114.69
383.61	252.78
383.80	191.92
384.00	107.66
384.19	149.79
384.39	205.97
384.58	154.48
384.78	149.79
384.97	124.05
385.17	182.56
385.36	175.54
385.56	266.82
385.75	161.50
385.95	262.14
386.14	152.13
386.34	189.58
386.53	180.22
386.72	198.95
386.92	173.20
387.11	173.20
387.31	241.08
387.50	196.60
387.70	140.43
387.89	234.05
388.09	248.10
388.28	173.20
388.48	170.86
388.67	229.37
388.86	250.44
389.06	175.54
389.25	196.60
389.45	245.76
389.64	152.13
389.84	142.77
390.03	264.48
390.22	259.80
390.42	252.78
390.61	220.01
390.81	163.84
391.00	187.24
391.19	205.97
391.39	297.25
391.58	308.95
391.78	231.71
391.97	205.97
392.16	262.14
392.36	313.63
392.55	229.37
392.75	231.71
392.94	250.44
393.13	224.69
393.33	283.20
393.52	273.84
393.71	313.63
393.91	215.33
394.10	351.08
394.29	271.50
394.49	306.61
394.68	311.29
394.88	280.86
395.07	325.33
395.26	266.82
395.46	320.65
395.65	271.50
395.84	379.17
396.04	315.97
396.23	313.63
396.42	341.72
396.62	273.84
396.81	358.10
397.00	332.36
397.19	402.57
397.39	285.55
397.58	372.15
397.77	306.61
397.97	351.08
398.16	367.46
398.35	365.12
398.55	355.76
398.74	308.95
398.93	404.91
399.12	362.78
399.32	407.25
399.51	337.04
399.70	330.02
399.90	374.49
400.09	339.38
400.28	465.77
400.47	397.89
400.67	449.38
400.86	414.27
401.05	505.56
401.24	512.58
401.44	468.11
401.63	416.62
401.82	402.57
402.01	440.02
402.21	456.40
402.40	503.22
402.59	547.69
402.78	557.05
402.97	418.96
403.17	493.85
403.36	524.28
403.55	418.96
403.74	547.69
403.93	552.37
404.13	486.83
404.32	498.53
404.51	479.81
404.70	557.05
404.89	606.20
405.09	636.63
405.28	636.63
405.47	526.62
405.66	578.11
405.85	587.47
406.05	589.82
406.24	587.47
406.43	699.82
406.62	629.60
406.81	706.84
407.00	636.63
407.20	592.16
407.39	660.03
407.58	697.48
407.77	713.86
407.96	720.88
408.15	655.35
408.34	681.10
408.54	638.97
408.73	774.72
408.92	725.57
409.11	730.25
409.30	760.67
409.49	746.63
409.68	767.70
409.87	772.38
410.07	809.83
410.26	840.25
410.45	830.89
410.64	812.17
410.83	866.00
411.02	884.72
411.21	884.72
411.40	889.40
411.59	889.40
411.78	896.43
411.98	985.37
412.17	924.51
412.36	880.04
412.55	896.43
412.74	987.71
412.93	964.30
413.12	924.51
413.31	987.71
413.50	1020.47
413.69	1011.11
413.88	1109.41
414.07	1025.15
414.26	1025.15
414.45	1043.88
414.64	1107.07
414.83	1116.44
415.02	1074.31
415.22	1203.04
415.41	1029.84
415.60	1188.99
415.79	1245.16
415.98	1217.08
416.17	1139.84
416.36	1125.80
416.55	1144.52
416.74	1259.21
416.93	1315.38
417.12	1313.04
417.31	1259.21
417.50	1233.46
417.69	1282.61
417.88	1324.74
418.07	1270.91
418.26	1287.29
418.45	1320.06
418.64	1315.38
418.83	1385.60
419.02	1378.58
419.21	1397.30
419.39	1320.06
419.58	1394.96
419.77	1404.32
419.96	1376.24
420.15	1416.02
420.34	1446.45
420.53	1397.30
420.72	1577.52
420.91	1432.41
421.10	1507.30
421.29	1434.75
421.48	1467.52
421.67	1481.56
421.86	1488.58
422.05	1458.15
422.24	1493.26
422.43	1490.92
422.61	1483.90
422.80	1483.90
422.99	1556.46
423.18	1549.43
423.37	1682.85
423.56	1582.20
423.75	1591.56
423.94	1577.52
424.13	1423.05
424.32	1453.47
424.50	1535.39
424.69	1514.33
424.88	1612.63
425.07	1572.84
425.26	1565.82
425.45	1591.56
425.64	1556.46
425.83	1530.71
426.01	1591.56
426.20	1549.43
426.39	1490.92
426.58	1526.03
426.77	1504.96
426.96	1603.27
427.15	1537.73
427.33	1575.18
427.52	1633.69
427.71	1619.65
427.90	1643.06
428.09	1783.49
428.28	1640.72
428.46	1776.47
428.65	1657.10
428.84	1755.40
429.03	1809.23
429.22	1689.87
429.40	1614.97
429.59	1696.89
429.78	1680.50
429.97	1696.89
430.16	1694.55
430.34	1715.61
430.53	1703.91
430.72	1823.28
430.91	1760.08
431.10	1736.68
431.28	1788.17
431.47	1900.52
431.66	1816.26
431.85	1844.34
432.03	1870.09
432.22	1839.66
432.41	1795.19
432.60	1844.34
432.79	1753.06
432.97	1867.75
433.16	1846.68
433.35	1806.89
433.54	1830.30
433.72	1926.26
433.91	1914.56
434.10	1930.94
434.28	1837.32
434.47	1959.03
434.66	2010.52
434.85	2064.35
435.03	2015.20
435.22	1930.94
435.41	2099.46
435.59	1942.64
435.78	2078.40
435.97	2165.00
436.16	2050.31
436.34	2015.20
436.53	1982.43
436.72	2111.16
436.90	2132.23
437.09	2169.68
437.28	2033.93
437.46	2176.70
437.65	2113.50
437.84	1991.80
438.02	2125.21
438.21	2101.80
438.40	2101.80
438.58	2244.57
438.77	2200.10
438.96	2160.31
439.14	2270.32
439.33	2331.17
439.52	2239.89
439.70	2239.89
439.89	2270.32
440.08	2303.09
440.26	2277.34
440.45	2377.98
440.63	2310.11
440.82	2324.15
441.01	2272.66
441.19	2349.90
441.38	2399.05
441.57	2436.50
441.75	2417.77
441.94	2537.14
442.12	2555.86
442.31	2548.84
442.50	2504.37
442.68	2516.08
442.87	2562.89
443.05	2576.93
443.24	2600.34
443.43	2597.99
443.61	2588.63
443.80	2532.46
443.98	2476.29
444.17	2420.11
444.35	2640.12
444.54	2668.21
444.73	2605.02
444.91	2502.03
445.10	2619.06
445.28	2569.91
445.47	2747.79
445.65	2602.68
445.84	2635.44
446.02	2754.81
446.21	2609.70
446.39	2583.95
446.58	2696.30
446.77	2612.04
446.95	2574.59
447.14	2602.68
447.32	2672.89
447.51	2640.12
447.69	2787.58
447.88	2642.46
448.06	2562.89
448.25	2750.13
448.43	2609.70
448.62	2768.85
448.80	2740.77
448.99	2785.24
449.17	2780.56
449.36	2782.90
449.54	2832.05
449.73	2841.41
449.91	2780.56
450.10	2888.22
450.28	2850.77
450.46	2918.65
450.65	2693.96
450.83	2853.11
451.02	2867.16
451.20	2761.83
451.39	2895.24
451.57	2878.86
451.76	2803.96
451.94	2834.39
452.13	2956.10
452.31	3035.67
452.49	2869.50
452.68	2937.37
452.86	2972.48
453.05	3075.46
453.23	3007.59
453.42	2956.10
453.60	2932.69
453.78	2925.67
453.97	2979.50
454.15	2881.20
454.34	2960.78
454.52	3112.91
454.70	3023.97
454.89	3105.89
455.07	2935.03
455.26	3089.51
455.44	3089.51
455.62	3105.89
455.81	2981.84
455.99	2995.89
456.17	3112.91
456.36	3119.93
456.54	3192.49
456.73	3021.63
456.91	3260.37
457.09	3243.98
457.28	3180.79
457.46	3262.71
457.64	3232.28
457.83	3337.60
458.01	3208.87
458.19	3342.28
458.38	3295.47
458.56	3368.03
458.74	3323.56
458.93	3372.71
459.11	3358.67
459.29	3276.75
459.48	3286.11
459.66	3258.03
459.84	3449.95
460.03	3506.12
460.21	3286.11
460.39	3473.36
460.57	3456.97
460.76	3417.18
460.94	3461.65
461.12	3424.20
461.31	3389.10
461.49	3536.55
461.67	3452.29
461.85	3592.72
462.04	3346.97
462.22	3981.25
462.40	3597.40
462.59	3569.32
462.77	3604.42
462.95	3529.53
463.13	3616.13
463.32	3672.30
463.50	3772.94
463.68	3550.59
463.86	3674.64
464.05	3569.32
464.23	3581.02
464.41	3744.86
464.59	3672.30
464.78	3702.73
464.96	3625.49
465.14	3662.94
465.32	3698.05
465.50	3737.84
465.69	3705.07
465.87	3693.37
466.05	3688.68
466.23	3651.24
466.41	3824.44
466.60	3833.80
466.78	3896.99
466.96	3779.97
467.14	3726.13
467.32	3817.41
467.51	3676.98
467.69	3819.75
467.87	3747.20
468.05	3751.88
468.23	3817.41
468.41	3777.62
468.60	3941.46
468.78	4009.34
468.96	3791.67
469.14	3880.61
469.32	3941.46
469.50	3861.88
469.69	3904.01
469.87	3990.61
470.05	4051.47
470.23	4107.64
470.41	3927.42
470.59	4058.49
470.77	4086.58
470.95	4007.00
471.14	4117.00
471.32	4049.13
471.50	4105.30
471.68	4217.65
471.86	4177.86
472.04	4182.54
472.22	4117.00
472.40	4245.73
472.58	4191.90
472.77	4229.35
472.95	4292.54
473.13	4423.61
473.31	4259.78
473.49	4313.61
473.67	4337.01
473.85	4353.40
474.03	4540.64
474.21	4498.51
474.39	4587.45
474.57	4500.85
474.75	4418.93
474.93	4533.62
475.12	4521.92
475.30	4435.32
475.48	4566.39
475.66	4533.62
475.84	4489.15
476.02	4681.07
476.20	4629.58
476.38	4812.14
476.56	4877.68
476.74	4915.12
476.92	4933.85
477.10	4947.89
477.28	4858.95
477.46	4891.72
477.64	4912.78
477.82	5078.96
478.00	5111.73
478.18	5188.97
478.36	5102.37
478.54	5298.97
478.72	5111.73
478.90	5317.70
479.08	5284.93
479.26	5163.22
479.44	5434.72
479.62	5397.28
479.80	5439.40
479.98	5441.75
480.16	5427.70
480.34	5401.96
480.52	5708.57
480.70	5652.39
480.88	5650.05
481.06	5631.33
481.24	5561.11
481.41	5832.62
481.59	5900.49
481.77	6045.60
481.95	5895.81
482.13	5935.60
482.31	5961.34
482.49	5982.41
482.67	6043.26
482.85	6232.85
483.03	6218.80
483.21	6342.85
483.39	6183.70
483.57	6216.46
483.74	6455.20
483.92	6377.96
484.10	6443.49
484.28	6427.11
484.46	6595.63
484.64	6738.40
484.82	6590.95
485.00	6661.16
485.18	6843.73
485.35	6932.67
485.53	6696.27
485.71	6939.69
485.89	6832.02
486.07	6878.83
486.25	7133.95
486.43	6848.41
486.61	7059.06
486.78	7248.64
486.96	7087.14
487.14	7396.09
487.32	7316.51
487.50	7222.89
487.68	7456.95
487.85	7531.84
488.03	7772.92
488.21	7623.12
488.39	7864.20
488.57	7627.81
488.75	7602.06
488.92	8175.49
489.10	7941.44
489.28	7793.98
489.46	8093.57
489.64	8105.28
489.81	8156.77
489.99	7967.18
490.17	8156.77
490.35	8468.06
490.53	8297.20
490.70	8542.96
490.88	8280.82
491.06	8557.00
491.24	8477.42
491.41	8517.21
491.59	8634.24
491.77	8777.01
491.95	8922.12
492.13	8954.89
492.30	8786.37
492.48	8849.57
492.66	9013.40
492.84	9060.21
493.01	8987.66
493.19	9277.88
493.37	9252.14
493.54	9324.69
493.72	9270.86
493.90	9338.74
494.08	9380.87
494.25	9404.27
494.43	9544.70
494.61	9685.14
494.79	9813.87
494.96	9666.41
495.14	9668.75
495.32	9401.93
495.49	9820.89
495.67	9860.68
495.85	9884.08
496.02	10003.45
496.20	9966.00
496.38	10169.63
496.55	9984.73
496.73	10235.16
496.91	10176.65
497.09	10595.61
497.26	10324.10
497.44	10211.76
497.62	10190.69
497.79	10417.72
497.97	10237.50
498.14	10457.51
498.32	10567.52
498.50	10527.73
498.67	10640.08
498.85	10567.52
499.03	10597.95
499.20	10860.09
499.38	10761.78
499.56	10768.80
499.73	11049.67
499.91	11162.01
500.08	10981.79
500.26	10998.18
500.44	11105.84
500.61	11152.65
500.79	11047.33
500.97	11276.70
501.14	11262.66
501.32	11272.02
501.49	11480.33
501.67	11201.80
501.84	11407.77
502.02	11503.73
502.20	11770.55
502.37	11578.63
502.55	11545.86
502.72	11545.86
502.90	11791.62
503.07	11646.51
503.25	11538.84
503.43	11630.12
503.60	11946.09
503.78	11782.26
503.95	11819.71
504.13	11714.38
504.30	11882.90
504.48	11913.33
504.65	12100.57
504.83	12238.66
505.01	12276.11
505.18	12159.08
505.36	12383.77
505.53	12126.32
505.71	12233.98
505.88	12138.02
506.06	12245.68
506.23	12409.52
506.41	12458.67
506.58	12456.33
506.76	12748.90
506.93	12596.76
507.11	12561.66
507.28	12531.23
507.46	12800.39
507.63	12830.82
507.81	12936.14
507.98	12512.50
508.16	12535.91
508.33	12931.46
508.50	13034.44
508.68	12996.99
508.85	13174.88
509.03	13156.15
509.20	12917.42
509.38	13172.54
509.55	13118.70
509.73	13291.90
509.90	13235.73
510.08	13179.56
510.25	13193.60
510.42	13373.82
510.60	13446.38
510.77	13579.79
510.95	13551.70
511.12	13427.65
511.30	13542.34
511.47	13558.72
511.64	13696.82
511.82	13928.53
511.99	13575.11
512.17	13830.23
512.34	13830.23
512.51	13678.09
512.69	13877.04
512.86	14003.43
513.04	14043.21
513.21	14083.00
513.38	13965.98
513.56	13743.63
513.73	13851.29
513.90	14291.31
514.08	13991.72
514.25	14230.46
514.43	14326.42
514.60	14246.84
514.77	14127.47
514.95	14347.48
515.12	14516.00
515.29	14242.16
515.47	14331.10
515.64	14614.30
515.81	14672.82
515.99	14558.13
516.16	14686.86
516.33	14569.83
516.51	14593.24
516.68	14527.71
516.85	14899.85
517.03	14906.87
517.20	14780.48
517.37	14874.10
517.54	14867.08
517.72	14745.38
517.89	14787.50
518.06	14949.00
518.24	14796.87
518.41	14604.94
518.58	15096.46
518.75	14902.19
518.93	15246.25
519.10	15440.51
519.27	15276.68
519.45	15218.16
519.62	15169.01
519.79	15115.18
519.96	15225.18
520.14	15367.96
520.31	15337.53
520.48	15438.17
520.65	15344.55
520.83	15449.88
521.00	15552.86
521.17	15522.43
521.34	15286.04
521.52	15587.97
521.69	15552.86
521.86	15679.25
522.03	15592.65
522.20	15784.57
522.38	16002.24
522.55	15648.82
522.72	15716.70
522.89	15751.81
523.07	15997.56
523.24	15850.11
523.41	15974.16
523.58	15798.62
523.75	16145.02
523.92	16027.99
524.10	15913.30
524.27	16102.89
524.44	16304.17
524.61	16240.98
524.78	16081.82
524.96	16020.97
525.13	16201.19
525.30	16290.13
525.47	16500.78
525.64	16332.26
525.81	16341.62
525.98	16358.00
526.16	16472.69
526.33	16322.90
526.50	16493.76
526.67	16292.47
526.84	16477.37
527.01	16400.13
527.18	16362.69
527.36	16774.62
527.53	16620.14
527.70	16451.63
527.87	16556.95
528.04	16783.98
528.21	16891.65
528.38	16720.79
528.55	16641.21
528.72	16849.52
528.89	16987.61
529.07	16533.54
529.24	16968.88
529.41	16734.83
529.58	16627.17
529.75	16910.37
529.92	16814.41
530.09	17041.44
530.26	16971.22
530.43	16964.20
530.60	16716.11
530.77	16835.47
530.94	16999.31
531.11	16978.25
531.28	17090.59
531.46	16936.12
531.63	17308.26
531.80	17121.02
531.97	17149.11
532.14	17673.39
532.31	17193.58
532.48	17064.85
532.65	17516.57
532.82	17392.52
532.99	17401.88
533.16	17422.95
533.33	17518.91
533.50	17455.72
533.67	17420.61
533.84	17504.87
534.01	17341.03
534.18	17736.58
534.35	17649.98
534.52	17638.28
534.69	17701.47
534.86	17902.76
535.03	17436.99
535.20	17933.18
535.37	17975.31
535.54	17853.61
535.71	17874.67
535.88	17797.43
536.05	18082.98
536.22	17947.23
536.38	17909.78
536.55	17961.27
536.72	17834.88
536.89	17767.01
537.06	17860.63
537.23	17706.15
537.40	17954.25
537.57	18136.81
537.74	18157.88
537.91	18466.83
538.08	18174.26
538.25	17996.38
538.42	17839.56
538.59	17989.36
538.75	17958.93
538.92	17844.24
539.09	18169.58
539.26	18403.63
539.43	18230.43
539.60	18230.43
539.77	18398.95
539.94	18246.82
540.11	18078.30
540.28	18244.48
540.44	18492.57
540.61	18286.61
540.78	18520.66
540.95	18312.35
541.12	18317.03
541.29	18569.81
541.46	18478.53
541.62	18471.51
541.79	18429.38
541.96	18415.34
542.13	18450.44
542.30	18609.60
542.47	18604.92
542.63	18801.52
542.80	18838.97
542.97	18845.99
543.14	19026.21
543.31	18850.67
543.48	18689.18
543.64	19037.92
543.81	18972.38
543.98	18829.61
544.15	18958.34
544.32	19145.58
544.48	19016.85
544.65	19005.15
544.82	18871.74
544.99	18607.26
545.16	18993.45
545.32	18841.31
545.49	19192.39
545.66	19178.35
545.83	19091.75
546.00	18916.21
546.16	19330.48
546.33	19082.39
546.50	18857.70
546.67	19105.79
546.83	18960.68
547.00	19063.66
547.17	19321.12
547.34	18993.45
547.50	19098.77
547.67	19234.52
547.84	19360.91
548.00	19716.67
548.17	19597.31
548.34	19407.72
548.51	19449.85
548.67	19197.07
548.84	19552.84
549.01	19391.34
549.18	19337.51
549.34	19140.90
549.51	19070.68
549.68	19503.68
549.84	19314.10
550.01	19302.40
550.18	19517.73
550.34	19349.21
550.51	19660.50
550.68	19606.67
550.84	19428.79
551.01	19517.73
551.18	19318.78
551.34	19419.42
551.51	19896.89
551.68	19442.83
551.84	19634.75
552.01	19503.68
552.18	19536.45
552.34	19707.31
552.51	19992.86
552.68	19501.34
552.84	19548.15
553.01	19541.13
553.18	19578.58
553.34	19889.87
553.51	19810.29
553.67	19803.27
553.84	19697.95
554.01	20060.73
554.17	19763.48
554.34	19503.68
554.51	19456.87
554.67	19763.48
554.84	19531.77
555.00	19719.01
555.17	19833.70
555.33	19932.00
555.50	19840.72
555.67	19903.92
555.83	19777.53
556.00	19831.36
556.16	20093.50
556.33	19726.04
556.50	19906.26
556.66	19960.09
556.83	19803.27
556.99	19777.53
557.16	19934.34
557.32	20163.72
557.49	20329.89
557.65	19901.58
557.82	20276.06
557.98	20313.51
558.15	20365.00
558.32	20262.02
558.48	20091.16
558.65	20060.73
558.81	20166.06
558.98	20159.03
559.14	20011.58
559.31	20013.92
559.47	19744.76
559.64	19922.64
559.80	19997.54
559.97	20123.93
560.13	20006.90
560.30	20020.94
560.46	20182.44
560.63	20229.25
560.79	20154.35
560.96	20189.46
561.12	20123.93
561.29	20013.92
561.45	20411.81
561.61	19990.52
561.78	20327.55
561.94	20205.84
562.11	20189.46
562.27	20262.02
562.44	19950.73
562.60	20294.79
562.77	20320.53
562.93	20175.42
563.10	20388.41
563.26	20357.98
563.42	20369.68
563.59	20350.96
563.75	20166.06
563.92	20650.55
564.08	20217.55
564.24	20346.28
564.41	20315.85
564.57	20287.76
564.74	20365.00
564.90	20332.23
565.07	20421.17
565.23	20517.14
565.39	20353.30
565.56	20166.06
565.72	20013.92
565.88	20231.59
566.05	20229.25
566.21	20297.13
566.38	19995.20
566.54	20276.06
566.70	20372.02
566.87	20259.68
567.03	20147.33
567.19	20575.65
567.36	20205.84
567.52	20046.69
567.68	20109.88
567.85	20470.33
568.01	20175.42
568.17	20334.57
568.34	20397.77
568.50	20290.10
568.66	20184.78
568.83	20215.21
568.99	20332.23
569.15	20343.94
569.32	20393.09
569.48	20133.29
569.64	20456.28
569.81	20500.75
569.97	20130.95
570.13	20615.44
570.30	20409.47
570.46	20648.21
570.62	20322.87
570.78	20205.84
570.95	20339.26
571.11	20449.26
571.27	20201.16
571.43	20594.37
571.60	20357.98
571.76	20416.49
571.92	20409.47
572.09	20215.21
572.25	20472.67
572.41	20645.87
572.57	20425.86
572.74	20772.25
572.90	20437.56
573.06	20540.54
573.22	20252.66
573.38	20327.55
573.55	20931.41
573.71	20421.17
573.87	20479.69
574.03	20475.01
574.20	20400.11
574.36	20252.66
574.52	20381.38
574.68	20470.33
574.84	20671.61
575.01	20641.18
575.17	20334.57
575.33	20631.82
575.49	20500.75
575.65	20746.51
575.82	20776.94
575.98	20442.24
576.14	20442.24
576.30	20341.60
576.46	20423.51
576.62	20336.91
576.79	20273.72
576.95	20519.48
577.11	20535.86
577.27	20421.17
577.43	20538.20
577.59	20489.05
577.75	20891.62
577.92	20372.02
578.08	20503.09
578.24	20032.65
578.40	20350.96
578.56	20615.44
578.72	20521.82
578.88	20601.40
579.04	21010.99
579.21	20652.89
579.37	20739.49
579.53	20470.33
579.69	20449.26
579.85	20615.44
580.01	20617.78
580.17	20432.88
580.33	20718.42
580.49	20594.37
580.65	20575.65
580.82	20634.16
580.98	20592.03
581.14	20407.13
581.30	20512.46
581.46	20304.15
581.62	20379.04
581.78	20482.03
581.94	20671.61
582.10	20470.33
582.26	20622.46
582.42	20475.01
582.58	20933.75
582.74	20636.50
582.90	20535.86
583.06	20690.34
583.22	20393.09
583.38	20336.91
583.54	20624.80
583.70	20463.30
583.86	20435.22
584.02	20402.45
584.18	20905.66
584.34	20716.08
584.50	20774.60
584.66	20547.56
584.82	20187.12
584.98	20442.24
585.14	20362.66
585.30	20617.78
585.46	20453.94
585.62	20671.61
585.78	20430.54
585.94	20491.39
586.10	20643.52
586.26	20704.38
586.42	20779.28
586.58	20889.28
586.74	20496.07
586.90	20374.36
587.06	20622.46
587.22	20510.11
587.38	20355.64
587.54	20695.02
587.70	20636.50
587.86	20659.91
588.02	20830.77
588.18	20762.89
588.34	20620.12
588.49	20753.53
588.65	20428.20
588.81	20505.43
588.97	20680.97
589.13	20739.49
589.29	20489.05
589.45	20620.12
589.61	20606.08
589.77	20795.66
589.93	20870.56
590.08	20507.77
590.24	20947.79
590.40	20610.76
590.56	20790.98
590.72	20620.12
590.88	20898.64
591.04	20570.97
591.20	20840.13
591.35	20882.26
591.51	20758.21
591.67	20790.98
591.83	20985.24
591.99	20900.98
592.15	20945.45
592.31	20837.79
592.46	20397.77
592.62	20517.14
592.78	20692.68
