SpectraSuite Data File
++++++++++++++++++++++++++++++++++++
Date: Fri Oct 04 11:48:36 GMT-05:00 2013
User: price-jones
Dark Spectrum Present: No
Reference Spectrum Present: No
Number of Sampled Component Spectra: 1
Spectrometers: USB2+H05261
Integration Time (usec): 100000 (USB2+H05261)
Spectra Averaged: 1 (USB2+H05261)
Boxcar Smoothing: 0 (USB2+H05261)
Correct for Electrical Dark: No (USB2+H05261)
Strobe/Lamp Enabled: No (USB2+H05261)
Correct for Detector Non-linearity: No (USB2+H05261)
Correct for Stray Light: No (USB2+H05261)
Number of Pixels in Processed Spectrum: 2048
>>>>>Begin Processed Spectral Data<<<<<
365.73	0.00
365.92	0.00
366.12	0.00
366.32	0.00
366.52	0.00
366.72	0.00
366.91	0.00
367.11	0.00
367.31	0.00
367.51	0.00
367.70	0.00
367.90	0.00
368.10	0.00
368.30	0.00
368.49	0.00
368.69	0.00
368.89	0.00
369.09	0.00
369.28	0.00
369.48	0.00
369.68	0.00
369.87	0.00
370.07	0.00
370.27	49.15
370.47	37.45
370.66	203.63
370.86	241.08
371.06	229.37
371.25	330.02
371.45	278.52
371.65	278.52
371.84	294.91
372.04	248.10
372.24	273.84
372.44	339.38
372.63	376.83
372.83	367.46
373.03	341.72
373.22	287.89
373.42	306.61
373.62	369.80
373.81	409.59
374.01	409.59
374.21	449.38
374.40	320.65
374.60	425.98
374.79	341.72
374.99	407.25
375.19	404.91
375.38	395.55
375.58	421.30
375.78	418.96
375.97	351.08
376.17	444.70
376.37	425.98
376.56	383.85
376.76	397.89
376.95	400.23
377.15	388.53
377.35	341.72
377.54	404.91
377.74	376.83
377.93	402.57
378.13	383.85
378.33	463.43
378.52	479.81
378.72	517.26
378.91	479.81
379.11	404.91
379.31	428.32
379.50	409.59
379.70	463.43
379.89	475.13
380.09	472.79
380.28	517.26
380.48	475.13
380.68	454.06
380.87	484.49
381.07	407.25
381.26	496.19
381.46	468.11
381.65	397.89
381.85	472.79
382.04	435.34
382.24	557.05
382.43	491.51
382.63	411.93
382.83	498.53
383.02	477.47
383.22	496.19
383.41	475.13
383.61	521.94
383.80	543.00
384.00	559.39
384.19	521.94
384.39	557.05
384.58	521.94
384.78	587.47
384.97	554.71
385.17	568.75
385.36	526.62
385.56	547.69
385.75	554.71
385.95	571.09
386.14	657.69
386.34	524.28
386.53	547.69
386.72	514.92
386.92	664.71
387.11	561.73
387.31	552.37
387.50	554.71
387.70	489.17
387.89	608.54
388.09	641.31
388.28	477.47
388.48	573.43
388.67	681.10
388.86	599.18
389.06	702.16
389.25	596.84
389.45	550.03
389.64	596.84
389.84	676.41
390.03	620.24
390.22	603.86
390.42	638.97
390.61	655.35
390.81	685.78
391.00	723.23
391.19	638.97
391.39	653.01
391.58	678.76
391.78	770.04
391.97	711.52
392.16	755.99
392.36	748.97
392.55	737.27
392.75	692.80
392.94	734.93
393.13	723.23
393.33	720.88
393.52	699.82
393.71	777.06
393.91	784.08
394.10	814.51
394.29	816.85
394.49	765.36
394.68	875.36
394.88	875.36
395.07	844.93
395.26	793.44
395.46	915.15
395.65	903.45
395.84	887.06
396.04	954.94
396.23	882.38
396.42	959.62
396.62	1008.77
396.81	926.85
397.00	828.55
397.19	858.98
397.39	922.17
397.58	994.73
397.77	922.17
397.97	922.17
398.16	873.02
398.35	1015.79
398.55	950.26
398.74	959.62
398.93	1083.67
399.12	1100.05
399.32	1029.84
399.51	980.68
399.70	1151.54
399.90	1074.31
400.09	1090.69
400.28	1083.67
400.47	1111.75
400.67	1151.54
400.86	1167.93
401.05	1109.41
401.24	1097.71
401.44	1188.99
401.63	1181.97
401.82	1191.33
402.01	1090.69
402.21	1299.00
402.40	1196.01
402.59	1259.21
402.78	1277.93
402.97	1214.74
403.17	1308.36
403.36	1296.66
403.55	1338.79
403.74	1315.38
403.93	1247.51
404.13	1235.80
404.32	1327.08
404.51	1409.00
404.70	1432.41
404.89	1348.15
405.09	1472.20
405.28	1413.68
405.47	1416.02
405.66	1425.39
405.85	1493.26
406.05	1533.05
406.24	1504.96
406.43	1521.35
406.62	1645.40
406.81	1626.67
407.00	1699.23
407.20	1547.09
407.39	1533.05
407.58	1682.85
407.77	1647.74
407.96	1668.80
408.15	1619.65
408.34	1741.36
408.54	1795.19
408.73	1720.29
408.92	1715.61
409.11	1755.40
409.30	1832.64
409.49	1842.00
409.68	1884.13
409.87	1863.07
410.07	1905.20
410.26	1895.83
410.45	1834.98
410.64	1891.15
410.83	1870.09
411.02	1900.52
411.21	1886.47
411.40	2080.74
411.59	2064.35
411.78	2073.71
411.98	2054.99
412.17	2047.97
412.36	2120.53
412.55	2216.49
412.74	2242.23
412.93	2246.91
413.12	2230.53
413.31	2359.26
413.50	2286.70
413.69	2408.41
413.88	2450.54
414.07	2438.84
414.26	2333.51
414.45	2462.24
414.64	2408.41
414.83	2569.91
415.02	2546.50
415.22	2579.27
415.41	2668.21
415.60	2511.39
415.79	2548.84
415.98	2719.70
416.17	2647.15
416.36	2581.61
416.55	2693.96
416.74	2626.08
416.93	2590.97
417.12	2696.30
417.31	2806.30
417.50	2906.95
417.69	2867.16
417.88	2892.90
418.07	2874.18
418.26	2942.05
418.45	2911.63
418.64	3002.91
418.83	2998.23
419.02	2862.48
419.21	3019.29
419.39	3014.61
419.58	2972.48
419.77	3087.17
419.96	3026.31
420.15	3133.98
420.34	3075.46
420.53	3049.72
420.72	3164.40
420.91	3265.05
421.10	3269.73
421.29	3241.64
421.48	3253.34
421.67	3316.54
421.86	3194.83
422.05	3335.26
422.24	3260.37
422.43	3328.24
422.61	3234.62
422.80	3382.07
422.99	3445.27
423.18	3377.39
423.37	3337.60
423.56	3330.58
423.75	3332.92
423.94	3449.95
424.13	3199.51
424.32	3222.92
424.50	3442.93
424.69	3449.95
424.88	3534.21
425.07	3311.86
425.26	3300.16
425.45	3405.48
425.64	3375.05
425.83	3363.35
426.01	3506.12
426.20	3459.31
426.39	3382.07
426.58	3435.91
426.77	3438.25
426.96	3527.19
427.15	3353.99
427.33	3501.44
427.52	3569.32
427.71	3576.34
427.90	3637.19
428.09	3782.31
428.28	3583.36
428.46	3576.34
428.65	3686.34
428.84	3693.37
429.03	3733.15
429.22	3585.70
429.40	3679.32
429.59	3765.92
429.78	3618.47
429.97	3679.32
430.16	3574.00
430.34	3868.91
430.53	3866.56
430.72	3908.69
430.91	3819.75
431.10	3824.44
431.28	3981.25
431.47	3988.27
431.66	4009.34
431.85	4121.68
432.03	4032.74
432.22	3953.16
432.41	4023.38
432.60	4156.79
432.79	4074.87
432.97	4173.18
433.16	4063.17
433.35	4119.34
433.54	4248.07
433.72	4084.23
433.91	4217.65
434.10	4191.90
434.28	4285.52
434.47	4252.75
434.66	4367.44
434.85	4290.20
435.03	4250.41
435.22	4276.16
435.41	4486.81
435.59	4411.91
435.78	4365.10
435.97	4477.44
436.16	4402.55
436.34	4454.04
436.53	4461.06
436.72	4589.79
436.90	4428.29
437.09	4519.57
437.28	4442.34
437.46	4645.96
437.65	4440.00
437.84	4493.83
438.02	4664.69
438.21	4535.96
438.40	4545.32
438.58	4786.40
438.77	4678.73
438.96	4727.88
439.14	4903.42
439.33	4929.17
439.52	4868.31
439.70	4922.15
439.89	4980.66
440.08	5186.63
440.26	5060.24
440.45	5020.45
440.63	5097.69
440.82	5200.67
441.01	5214.71
441.19	5324.72
441.38	5303.65
441.57	5317.70
441.75	5291.95
441.94	5472.17
442.12	5242.80
442.31	5458.13
442.50	5458.13
442.68	5411.32
442.87	5633.67
443.05	5535.37
443.24	5729.63
443.43	5600.90
443.61	5636.01
443.80	5703.89
443.98	5451.11
444.17	5437.06
444.35	5685.16
444.54	5753.04
444.73	5790.49
444.91	5603.24
445.10	5570.48
445.28	5844.32
445.47	5671.12
445.65	5675.80
445.84	5610.26
446.02	5701.54
446.21	5605.58
446.39	5591.54
446.58	5902.83
446.77	5746.02
446.95	5720.27
447.14	5628.99
447.32	5989.43
447.51	5809.21
447.69	5830.27
447.88	5757.72
448.06	5781.12
448.25	5898.15
448.43	5884.11
448.62	5916.87
448.80	5839.64
448.99	5900.49
449.17	5909.85
449.36	5816.23
449.54	6064.33
449.73	6155.61
449.91	6160.29
450.10	6040.92
450.28	6148.59
450.46	6129.86
450.65	6282.00
450.83	6115.82
451.02	6183.70
451.20	6104.12
451.39	6338.17
451.57	6282.00
451.76	6331.15
451.94	6230.51
452.13	6368.60
452.31	6296.04
452.49	6040.92
452.68	6438.81
452.86	6401.37
453.05	6326.47
453.23	6476.26
453.42	6331.15
453.60	6464.56
453.78	6296.04
453.97	6459.88
454.15	6576.91
454.34	6422.43
454.52	6562.86
454.70	6630.74
454.89	6567.54
455.07	6492.65
455.26	6789.89
455.44	6787.55
455.62	6663.51
455.81	6782.87
455.99	6752.45
456.17	6822.66
456.36	6768.83
456.54	6888.20
456.73	6794.58
456.91	7101.19
457.09	7246.30
457.28	7234.60
457.46	7122.25
457.64	7192.47
457.83	7201.83
458.01	6965.43
458.19	7180.76
458.38	7187.79
458.56	7194.81
458.74	7183.10
458.93	7241.62
459.11	7213.53
459.29	7375.03
459.48	7302.47
459.66	7419.50
459.84	7288.43
460.03	7620.78
460.21	7478.01
460.39	7311.83
460.57	7468.65
460.76	7438.22
460.94	7599.72
461.12	7494.40
461.31	7588.02
461.49	7536.52
461.67	7583.34
461.85	7798.66
462.04	7770.58
462.22	8456.36
462.40	7765.90
462.59	7899.31
462.77	7861.86
462.95	7901.65
463.13	7918.03
463.32	7707.38
463.50	7831.43
463.68	7786.96
463.86	7929.74
464.05	7772.92
464.23	7815.05
464.41	8002.29
464.59	7691.00
464.78	8205.92
464.96	7953.14
465.14	8006.97
465.32	8138.04
465.50	8311.24
465.69	8217.62
465.87	8044.42
466.05	8037.40
466.23	8116.98
466.41	8276.13
466.60	8437.63
466.78	8018.68
466.96	8262.09
467.14	8458.70
467.32	8339.33
467.51	8549.98
467.69	8276.13
467.87	8311.24
468.05	8409.54
468.23	8203.58
468.41	8278.47
468.60	8610.83
468.78	8631.90
468.96	8386.14
469.14	8681.05
469.32	8851.91
469.50	8517.21
469.69	8769.99
469.87	8641.26
470.05	9022.77
470.23	8629.56
470.41	8582.74
470.59	8917.44
470.77	8727.86
470.95	8975.95
471.14	8980.64
471.32	8889.35
471.50	9200.65
471.68	9184.26
471.86	9092.98
472.04	9277.88
472.22	9163.20
472.40	9102.34
472.58	9458.10
472.77	9334.06
472.95	9565.77
473.13	9530.66
473.31	9451.08
473.49	9458.10
473.67	9544.70
473.85	9621.94
474.03	9984.73
474.21	9872.38
474.39	10022.17
474.57	9902.81
474.75	9982.38
474.93	9994.09
475.12	9991.75
475.30	10298.36
475.48	10134.52
475.66	10113.45
475.84	10099.41
476.02	10403.68
476.20	10588.58
476.38	10684.55
476.56	10850.72
476.74	10696.25
476.92	10736.04
477.10	10733.70
477.28	10684.55
477.46	10972.43
477.64	10754.76
477.82	11227.55
478.00	11426.50
478.18	11463.94
478.36	11377.34
478.54	11585.65
478.72	11508.41
478.90	11356.28
479.08	11599.70
479.26	11843.11
479.44	12023.33
479.62	11997.59
479.80	11981.20
479.98	11967.16
480.16	12128.66
480.34	12264.41
480.52	12351.01
480.70	12278.45
480.88	12442.29
481.06	12538.25
481.24	12718.47
481.41	12491.44
481.59	12957.21
481.77	13018.06
481.95	12933.80
482.13	13219.35
482.31	12842.52
482.49	13467.44
482.67	13488.51
482.85	13488.51
483.03	13783.41
483.21	13958.96
483.39	13991.72
483.57	13926.19
483.74	13970.66
483.92	14050.24
484.10	14090.02
484.28	14480.89
484.46	14689.20
484.64	14684.52
484.82	14750.06
485.00	14558.13
485.18	15084.75
485.35	15330.51
485.53	15103.48
485.71	15321.15
485.89	15646.48
486.07	15662.86
486.25	15541.16
486.43	15435.83
486.61	15859.47
486.78	16119.27
486.96	15939.05
487.14	16360.34
487.32	16362.69
487.50	16617.80
487.68	16322.90
487.85	16786.32
488.03	16863.56
488.21	17006.33
488.39	17336.35
488.57	17359.75
488.75	17577.42
488.92	17666.36
489.10	17752.96
489.28	18162.56
489.46	18104.04
489.64	17633.60
489.81	18031.49
489.99	18214.05
490.17	18293.63
490.35	18827.27
490.53	18642.37
490.70	19110.47
490.88	19239.20
491.06	19002.81
491.24	19058.98
491.41	19040.26
491.59	19194.73
491.77	19459.21
491.95	19660.50
492.13	19840.72
492.30	19924.98
492.48	19831.36
492.66	19847.74
492.84	19992.86
493.01	20276.06
493.19	20556.93
493.37	20559.27
493.54	20655.23
493.72	20592.03
493.90	20673.95
494.08	21078.86
494.25	21195.89
494.43	21018.01
494.61	21373.77
494.79	21682.72
494.96	21371.43
495.14	21783.37
495.32	21846.56
495.49	22094.66
495.67	21979.97
495.85	22108.70
496.02	22719.58
496.20	22434.03
496.38	22333.39
496.55	22792.14
496.73	22902.14
496.91	22972.36
497.09	23009.81
497.26	23342.16
497.44	23007.47
497.62	23049.60
497.79	23803.25
497.97	23599.62
498.14	23871.12
498.32	24009.22
498.50	24140.29
498.67	24091.13
498.85	24142.63
499.03	23983.47
499.20	24201.14
499.38	24261.99
499.56	24397.74
499.73	24397.74
499.91	24596.69
500.08	24723.08
500.26	24603.71
500.44	25036.71
500.61	24875.21
500.79	25137.35
500.97	25254.38
501.14	25600.78
501.32	25490.77
501.49	25682.70
501.67	25366.73
501.84	25795.04
502.02	25720.15
502.20	25919.09
502.37	26174.21
502.55	25874.62
502.72	26132.08
502.90	26052.50
503.07	25949.52
503.25	26078.25
503.43	26244.43
503.60	26492.52
503.78	26522.95
503.95	26780.41
504.13	26864.67
504.30	27030.85
504.48	27072.98
504.65	27026.17
504.83	27349.16
505.01	27255.54
505.18	27206.39
505.36	27728.33
505.53	27337.46
505.71	27300.01
505.88	27477.89
506.06	27199.37
506.23	27906.21
506.41	27828.97
506.58	27978.76
506.76	28140.26
506.93	27955.36
507.11	27885.14
507.28	28261.97
507.46	28676.24
507.63	28135.58
507.81	28701.99
507.98	28629.43
508.16	28023.23
508.33	29090.52
508.50	28809.65
508.68	28905.62
508.85	29252.02
509.03	29221.59
509.20	29425.22
509.38	29441.60
509.55	29298.83
509.73	29619.48
509.90	29603.10
510.08	29802.04
510.25	29532.88
510.42	30106.31
510.60	30471.43
510.77	30082.91
510.95	30061.84
511.12	30429.30
511.30	30115.67
511.47	30185.89
511.64	30459.73
511.82	30707.83
511.99	30696.13
512.17	30848.26
512.34	30885.71
512.51	30616.55
512.69	31021.46
512.86	30890.39
513.04	31304.67
513.21	31044.87
513.38	31435.74
513.56	31768.09
513.73	31566.81
513.90	31351.48
514.08	31367.86
514.25	31665.11
514.43	31950.65
514.60	32086.40
514.77	32325.14
514.95	31838.31
515.12	31847.67
515.29	32140.24
515.47	32020.87
515.64	32547.49
515.81	32311.10
515.99	32723.03
516.16	32851.76
516.33	32615.37
516.51	32657.49
516.68	32708.99
516.85	32624.73
517.03	32659.84
517.20	33273.06
517.37	32697.28
517.54	32999.21
517.72	33015.60
517.89	33193.48
518.06	33322.21
518.24	32952.40
518.41	33296.46
518.58	33785.63
518.75	33390.08
518.93	33649.88
519.10	33525.83
519.27	34106.29
519.45	33652.22
519.62	33638.18
519.79	33603.07
519.96	34052.45
520.14	34312.25
520.31	33879.25
520.48	34499.50
520.65	34078.20
520.83	34602.48
521.00	34375.45
521.17	34574.39
521.34	34630.57
521.52	34677.38
521.69	35009.73
521.86	34679.72
522.03	34841.21
522.20	35042.50
522.38	34789.72
522.55	34621.20
522.72	34923.13
522.89	35086.97
523.07	36004.46
523.24	35416.99
523.41	35117.40
523.58	35641.68
523.75	35131.44
523.92	35543.38
524.10	35644.02
524.27	35498.91
524.44	35716.58
524.61	36336.82
524.78	35739.98
524.96	36346.18
525.13	36163.62
525.30	36062.97
525.47	36133.19
525.64	36037.23
525.81	36411.71
525.98	36287.67
526.16	36542.78
526.33	36481.93
526.50	36390.65
526.67	36465.55
526.84	36753.43
527.01	36273.62
527.18	36793.22
527.36	36474.91
527.53	36800.24
527.70	37226.22
527.87	37207.50
528.04	36903.23
528.21	36884.50
528.38	37153.66
528.55	37172.39
528.72	37237.92
528.89	37013.23
529.07	37123.24
529.24	37261.33
529.41	37551.56
529.58	37343.25
529.75	37291.76
529.92	37457.93
530.09	37205.16
530.26	37787.95
530.43	38148.39
530.60	37092.81
530.77	37450.91
530.94	37853.48
531.11	37984.55
531.28	38089.88
531.46	38174.14
531.63	37991.58
531.80	37907.32
531.97	38471.39
532.14	38403.51
532.31	38340.32
532.48	38363.72
532.65	38288.82
532.82	38080.52
532.99	38073.49
533.16	38361.38
533.33	38953.54
533.50	38883.32
533.67	38436.28
533.84	38295.85
534.01	38574.37
534.18	38518.20
534.35	39126.74
534.52	38667.99
534.69	39328.02
534.86	39358.45
535.03	39086.95
535.20	39496.54
535.37	39140.78
535.54	39580.80
535.71	39208.65
535.88	39075.24
536.05	39562.08
536.22	39419.30
536.38	39997.41
536.55	39749.32
536.72	39674.42
536.89	39433.35
537.06	39402.92
537.23	39835.92
537.40	39154.82
537.57	39138.44
537.74	39786.77
537.91	40006.78
538.08	40215.08
538.25	40252.53
538.42	39714.21
538.59	40381.26
538.75	39934.22
538.92	40254.87
539.09	40416.37
539.26	40350.84
539.43	40318.07
539.60	40247.85
539.77	40004.44
539.94	40751.07
540.11	40332.11
540.28	40421.05
540.44	40538.08
540.61	40627.02
540.78	40224.45
540.95	40542.76
541.12	40423.39
541.29	40596.59
541.46	40643.40
541.62	40488.93
541.79	40552.12
541.96	40411.69
542.13	40575.53
542.30	40837.67
542.47	41270.67
542.63	41294.07
542.80	41242.58
542.97	41556.21
543.14	41537.49
543.31	41481.31
543.48	41310.46
543.64	41862.82
543.81	41715.37
543.98	41745.80
544.15	41427.48
544.32	41516.42
544.48	42014.96
544.65	41542.17
544.82	41617.07
544.99	41429.82
545.16	41881.55
545.32	41900.27
545.49	41839.42
545.66	42464.34
545.83	42176.45
546.00	42279.44
546.16	42164.75
546.33	41717.71
546.50	41607.70
546.67	42230.29
546.83	41783.24
547.00	42476.04
547.17	42314.55
547.34	42443.27
547.50	42405.83
547.67	42721.80
547.84	42253.69
548.00	42450.30
548.17	42515.83
548.34	42265.39
548.51	42775.63
548.67	42789.67
548.84	42462.00
549.01	42756.91
549.18	42639.88
549.34	42712.44
549.51	42595.41
549.68	42782.65
549.84	42773.29
550.01	43035.43
550.18	42759.25
550.34	43000.32
550.51	43339.70
550.68	43124.37
550.84	42735.84
551.01	43278.85
551.18	42237.31
551.34	42824.78
551.51	42822.44
551.68	43377.15
551.84	43063.52
552.01	43435.66
552.18	43217.99
552.34	43061.18
552.51	43257.78
552.68	42923.08
552.84	43335.02
553.01	43426.30
553.18	43391.19
553.34	43578.43
553.51	43573.75
553.67	43597.16
553.84	43943.56
554.01	43812.49
554.17	43606.52
554.34	44062.93
554.51	43543.33
554.67	43543.33
554.84	43372.47
555.00	43564.39
555.17	43658.01
555.33	43803.13
555.50	43765.68
555.67	43381.83
555.83	43540.99
556.00	43658.01
556.16	44107.40
556.33	43761.00
556.50	43789.08
556.66	43777.38
556.83	43611.20
556.99	44184.63
557.16	44240.81
557.32	43955.26
557.49	43913.13
557.65	43475.45
557.82	43929.51
557.98	44013.77
558.15	44004.41
558.32	44435.07
558.48	44018.46
558.65	44528.69
558.81	44072.29
558.98	44112.08
559.14	43786.74
559.31	44123.78
559.47	43952.92
559.64	44264.21
559.80	44458.48
559.97	44671.46
560.13	44313.36
560.30	44477.20
560.46	44121.44
560.63	44725.30
560.79	44418.69
560.96	44371.88
561.12	44287.62
561.29	44224.42
561.45	44041.86
561.61	44425.71
561.78	44495.92
561.94	44624.65
562.11	44643.38
562.27	45083.40
562.44	44584.86
562.60	44350.81
562.77	44278.25
562.93	44414.01
563.10	44608.27
563.26	44685.51
563.42	45137.23
563.59	44879.77
563.75	44884.45
563.92	44516.99
564.08	44893.82
564.24	44917.22
564.41	44767.43
564.57	45076.38
564.74	44156.55
564.90	44737.00
565.07	44947.65
565.23	44849.35
565.39	44502.95
565.56	44683.17
565.72	45034.25
565.88	44795.51
566.05	44479.54
566.21	44683.17
566.38	44645.72
566.54	44610.61
566.70	45212.13
566.87	45361.92
567.03	45291.71
567.19	45177.02
567.36	45352.56
567.52	44842.32
567.68	45139.57
567.85	44460.82
568.01	44811.90
568.17	44961.69
568.34	45099.78
568.50	44800.19
568.66	45315.11
568.83	45298.73
568.99	45177.02
569.15	44823.60
569.32	44790.83
569.48	44591.89
569.64	44765.09
569.81	45195.74
569.97	45233.19
570.13	45209.79
570.30	45244.90
570.46	45125.53
570.62	44701.89
570.78	45083.40
570.95	44818.92
571.11	44898.50
571.27	44919.56
571.43	44734.66
571.60	45067.02
571.76	45436.82
571.92	45258.94
572.09	45221.49
572.25	45317.45
572.41	44786.15
572.57	44966.37
572.74	45539.80
572.90	45160.64
573.06	45380.65
573.22	45076.38
573.38	45102.12
573.55	44767.43
573.71	45399.37
573.87	45406.39
574.03	45048.29
574.20	45265.96
574.36	45312.77
574.52	45092.76
574.68	45268.30
574.84	45057.65
575.01	45464.91
575.17	45317.45
575.33	45425.12
575.49	45099.78
575.65	44905.52
575.82	45586.61
575.98	44868.07
576.14	45237.87
576.30	45387.67
576.46	45109.14
576.62	44879.77
576.79	45579.59
576.95	45123.19
577.11	44900.84
577.27	45277.66
577.43	45015.52
577.59	45258.94
577.75	44971.05
577.92	45399.37
578.08	44907.86
578.24	45291.71
578.40	45216.81
578.56	45647.47
578.72	45282.34
578.88	45577.25
579.04	45368.94
579.21	45301.07
579.37	45324.47
579.53	45202.77
579.69	45015.52
579.85	45347.88
580.01	45333.84
580.17	45144.25
580.33	45195.74
580.49	45570.23
580.65	45432.14
580.82	45755.13
580.98	45467.25
581.14	45186.38
581.30	45556.19
581.46	45027.23
581.62	45205.11
581.78	44704.23
581.94	45081.06
582.10	44992.12
582.26	45696.62
582.42	45352.56
582.58	45390.01
582.74	45280.00
582.90	45422.78
583.06	45055.31
583.22	45195.74
583.38	45092.76
583.54	45212.13
583.70	45476.61
583.86	45244.90
584.02	44971.05
584.18	45823.01
584.34	45272.98
584.50	45638.11
584.66	45586.61
584.82	44847.00
584.98	45378.31
585.14	45188.72
585.30	45113.83
585.46	45270.64
585.62	45698.96
585.78	45727.05
585.94	44898.50
586.10	45188.72
586.26	45392.35
586.42	45446.18
586.58	45750.45
586.74	45794.92
586.90	45413.41
587.06	45338.52
587.22	45446.18
587.38	45422.78
587.54	45813.65
587.70	45717.68
587.86	45696.62
588.02	45544.48
588.18	45869.82
588.34	45570.23
588.49	45586.61
588.65	44961.69
588.81	45530.44
588.97	45371.28
589.13	45588.95
589.29	45399.37
589.45	45350.22
589.61	45649.81
589.77	45989.19
589.93	45528.10
590.08	45925.99
590.24	45680.24
590.40	45956.42
590.56	45958.76
590.72	45436.82
