SpectraSuite Data File
++++++++++++++++++++++++++++++++++++
Date: Fri Oct 04 11:48:42 GMT-05:00 2013
User: price-jones
Dark Spectrum Present: No
Reference Spectrum Present: No
Number of Sampled Component Spectra: 1
Spectrometers: USB2+H05261
Integration Time (usec): 100000 (USB2+H05261)
Spectra Averaged: 1 (USB2+H05261)
Boxcar Smoothing: 0 (USB2+H05261)
Correct for Electrical Dark: No (USB2+H05261)
Strobe/Lamp Enabled: No (USB2+H05261)
Correct for Detector Non-linearity: No (USB2+H05261)
Correct for Stray Light: No (USB2+H05261)
Number of Pixels in Processed Spectrum: 2048
>>>>>Begin Processed Spectral Data<<<<<
365.73	77.24
365.92	77.24
366.12	77.24
366.32	0.00
366.52	0.00
366.72	0.00
366.91	0.00
367.11	0.00
367.31	0.00
367.51	0.00
367.70	0.00
367.90	0.00
368.10	0.00
368.30	0.00
368.49	0.00
368.69	0.00
368.89	0.00
369.09	0.00
369.28	0.00
369.48	0.00
369.68	0.00
369.87	0.00
370.07	0.00
370.27	25.75
370.47	7.02
370.66	117.03
370.86	105.32
371.06	63.19
371.25	135.75
371.45	95.96
371.65	203.63
371.84	138.09
372.04	198.95
372.24	138.09
372.44	133.41
372.63	187.24
372.83	128.73
373.03	154.48
373.22	128.73
373.42	187.24
373.62	173.20
373.81	112.35
374.01	227.03
374.21	159.16
374.40	166.18
374.60	196.60
374.79	194.26
374.99	156.82
375.19	117.03
375.38	222.35
375.58	166.18
375.78	236.39
375.97	238.73
376.17	273.84
376.37	163.84
376.56	234.05
376.76	138.09
376.95	173.20
377.15	198.95
377.35	147.45
377.54	220.01
377.74	138.09
377.93	175.54
378.13	229.37
378.33	147.45
378.52	107.66
378.72	180.22
378.91	290.23
379.11	166.18
379.31	173.20
379.50	100.64
379.70	203.63
379.89	159.16
380.09	173.20
380.28	198.95
380.48	208.31
380.68	189.58
380.87	177.88
381.07	194.26
381.26	194.26
381.46	177.88
381.65	210.65
381.85	187.24
382.04	243.42
382.24	212.99
382.43	166.18
382.63	161.50
382.83	236.39
383.02	182.56
383.22	128.73
383.41	161.50
383.61	133.41
383.80	203.63
384.00	112.35
384.19	191.92
384.39	173.20
384.58	102.98
384.78	215.33
384.97	231.71
385.17	203.63
385.36	269.16
385.56	269.16
385.75	273.84
385.95	182.56
386.14	264.48
386.34	184.90
386.53	278.52
386.72	187.24
386.92	248.10
387.11	184.90
387.31	189.58
387.50	128.73
387.70	241.08
387.89	173.20
388.09	154.48
388.28	140.43
388.48	224.69
388.67	248.10
388.86	269.16
389.06	220.01
389.25	241.08
389.45	301.93
389.64	215.33
389.84	306.61
390.03	236.39
390.22	280.86
390.42	156.82
390.61	201.29
390.81	212.99
391.00	269.16
391.19	315.97
391.39	313.63
391.58	257.46
391.78	215.33
391.97	238.73
392.16	224.69
392.36	266.82
392.55	287.89
392.75	264.48
392.94	222.35
393.13	297.25
393.33	318.31
393.52	311.29
393.71	318.31
393.91	325.33
394.10	250.44
394.29	355.76
394.49	285.55
394.68	369.80
394.88	325.33
395.07	358.10
395.26	353.42
395.46	337.04
395.65	334.70
395.84	344.06
396.04	393.21
396.23	355.76
396.42	341.72
396.62	395.55
396.81	346.40
397.00	367.46
397.19	388.53
397.39	327.68
397.58	411.93
397.77	425.98
397.97	454.06
398.16	402.57
398.35	505.56
398.55	397.89
398.74	376.83
398.93	465.77
399.12	411.93
399.32	468.11
399.51	444.70
399.70	465.77
399.90	418.96
400.09	395.55
400.28	456.40
400.47	437.68
400.67	451.72
400.86	486.83
401.05	470.45
401.24	500.87
401.44	561.73
401.63	475.13
401.82	519.60
402.01	550.03
402.21	491.51
402.40	575.77
402.59	503.22
402.78	475.13
402.97	596.84
403.17	470.45
403.36	653.01
403.55	587.47
403.74	608.54
403.93	655.35
404.13	667.05
404.32	538.32
404.51	561.73
404.70	596.84
404.89	550.03
405.09	650.67
405.28	638.97
405.47	730.25
405.66	699.82
405.85	688.12
406.05	718.54
406.24	814.51
406.43	676.41
406.62	772.38
406.81	777.06
407.00	716.20
407.20	709.18
407.39	732.59
407.58	767.70
407.77	856.64
407.96	791.10
408.15	784.08
408.34	830.89
408.54	870.68
408.73	805.14
408.92	884.72
409.11	905.79
409.30	802.80
409.49	833.23
409.68	950.26
409.87	922.17
410.07	947.92
410.26	978.34
410.45	931.53
410.64	901.11
410.83	976.00
411.02	1034.52
411.21	952.60
411.40	1036.86
411.59	1048.56
411.78	1067.28
411.98	999.41
412.17	1036.86
412.36	1102.39
412.55	1088.35
412.74	1146.86
412.93	1114.10
413.12	1123.46
413.31	1198.35
413.50	1149.20
413.69	1242.82
413.88	1270.91
414.07	1247.51
414.26	1210.06
414.45	1287.29
414.64	1357.51
414.83	1249.85
415.02	1409.00
415.22	1355.17
415.41	1409.00
415.60	1341.13
415.79	1362.19
415.98	1334.11
416.17	1460.49
416.36	1423.05
416.55	1378.58
416.74	1458.15
416.93	1401.98
417.12	1519.01
417.31	1441.77
417.50	1460.49
417.69	1586.88
417.88	1596.25
418.07	1544.75
418.26	1643.06
418.45	1526.03
418.64	1572.84
418.83	1687.53
419.02	1636.03
419.21	1671.14
419.39	1699.23
419.58	1547.09
419.77	1650.08
419.96	1694.55
420.15	1682.85
420.34	1643.06
420.53	1694.55
420.72	1650.08
420.91	1699.23
421.10	1650.08
421.29	1827.96
421.48	1795.19
421.67	1715.61
421.86	1767.10
422.05	1783.49
422.24	1750.72
422.43	1750.72
422.61	1764.76
422.80	1853.70
422.99	1893.49
423.18	1842.00
423.37	1844.34
423.56	1818.60
423.75	1741.36
423.94	1788.17
424.13	1809.23
424.32	1734.34
424.50	1792.85
424.69	1832.64
424.88	1872.43
425.07	1842.00
425.26	1816.26
425.45	1844.34
425.64	1806.89
425.83	1886.47
426.01	1975.41
426.20	1809.23
426.39	1832.64
426.58	1825.62
426.77	1900.52
426.96	1827.96
427.15	1811.57
427.33	1956.69
427.52	1923.92
427.71	1949.67
427.90	2010.52
428.09	1898.17
428.28	1973.07
428.46	1900.52
428.65	1933.28
428.84	2036.27
429.03	2122.87
429.22	2050.31
429.40	2059.67
429.59	2026.90
429.78	1912.22
429.97	1949.67
430.16	1956.69
430.34	2125.21
430.53	2026.90
430.72	2083.08
430.91	1998.82
431.10	2036.27
431.28	2160.31
431.47	2260.96
431.66	2333.51
431.85	2197.76
432.03	2132.23
432.22	2235.21
432.41	2260.96
432.60	2221.17
432.79	2200.10
432.97	2263.30
433.16	2242.23
433.35	2277.34
433.54	2335.85
433.72	2312.45
433.91	2352.24
434.10	2331.17
434.28	2354.58
434.47	2373.30
434.66	2314.79
434.85	2363.94
435.03	2314.79
435.22	2361.60
435.41	2452.88
435.59	2375.64
435.78	2392.03
435.97	2401.39
436.16	2417.77
436.34	2462.24
436.53	2504.37
436.72	2513.74
436.90	2385.01
437.09	2382.67
437.28	2368.62
437.46	2382.67
437.65	2495.01
437.84	2555.86
438.02	2445.86
438.21	2654.17
438.40	2523.10
438.58	2572.25
438.77	2555.86
438.96	2658.85
439.14	2654.17
439.33	2630.76
439.52	2759.49
439.70	2724.38
439.89	2715.02
440.08	2609.70
440.26	2619.06
440.45	2820.35
440.63	2855.45
440.82	2932.69
441.01	2745.45
441.19	2780.56
441.38	2986.52
441.57	2829.71
441.75	2991.20
441.94	3082.49
442.12	2944.39
442.31	3098.87
442.50	2892.90
442.68	3014.61
442.87	2930.35
443.05	2895.24
443.24	3021.63
443.43	3213.56
443.61	3133.98
443.80	3133.98
443.98	3089.51
444.17	3016.95
444.35	3098.87
444.54	3059.08
444.73	3173.77
444.91	3038.02
445.10	3042.70
445.28	3150.36
445.47	3192.49
445.65	3061.42
445.84	3173.77
446.02	3295.47
446.21	3183.13
446.39	3096.53
446.58	3220.58
446.77	3208.87
446.95	3082.49
447.14	3176.11
447.32	3169.09
447.51	3185.47
447.69	3206.53
447.88	3213.56
448.06	3178.45
448.25	3054.40
448.43	3145.68
448.62	3166.74
448.80	3211.22
448.99	3243.98
449.17	3262.71
449.36	3288.45
449.54	3377.39
449.73	3286.11
449.91	3431.23
450.10	3349.31
450.28	3426.54
450.46	3386.76
450.65	3438.25
450.83	3515.48
451.02	3353.99
451.20	3410.16
451.39	3339.94
451.57	3396.12
451.76	3508.46
451.94	3365.69
452.13	3520.17
452.31	3508.46
452.49	3564.64
452.68	3391.44
452.86	3538.89
453.05	3588.04
453.23	3576.34
453.42	3449.95
453.60	3517.83
453.78	3571.66
453.97	3559.95
454.15	3555.27
454.34	3438.25
454.52	3646.55
454.70	3698.05
454.89	3658.26
455.07	3513.14
455.26	3513.14
455.44	3768.26
455.62	3791.67
455.81	3609.11
455.99	3646.55
456.17	3751.88
456.36	3733.15
456.54	3719.11
456.73	3854.86
456.91	3826.78
457.09	3796.35
457.28	3929.76
457.46	3810.39
457.64	3957.85
457.83	3925.08
458.01	3871.25
458.19	3922.74
458.38	3824.44
458.56	4023.38
458.74	3941.46
458.93	3925.08
459.11	3861.88
459.29	3784.65
459.48	3950.82
459.66	4100.62
459.84	4088.92
460.03	4170.83
460.21	3983.59
460.39	4292.54
460.57	4180.20
460.76	4079.55
460.94	4135.73
461.12	4037.42
461.31	4039.76
461.49	4147.43
461.67	4121.68
461.85	4187.22
462.04	4201.26
462.22	4760.65
462.40	4201.26
462.59	4266.80
462.77	4360.42
462.95	4315.95
463.13	4133.39
463.32	4283.18
463.50	4442.34
463.68	4367.44
463.86	4465.74
464.05	4381.48
464.23	4238.71
464.41	4400.21
464.59	4440.00
464.78	4339.35
464.96	4393.19
465.14	4271.48
465.32	4521.92
465.50	4404.89
465.69	4393.19
465.87	4585.11
466.05	4524.26
466.23	4367.44
466.41	4493.83
466.60	4620.22
466.78	4472.76
466.96	4468.08
467.14	4542.98
467.32	4526.60
467.51	4706.82
467.69	4540.64
467.87	4524.26
468.05	4470.42
468.23	4685.75
468.41	4723.20
468.60	4702.14
468.78	4652.98
468.96	4608.51
469.14	4706.82
469.32	4741.93
469.50	4627.24
469.69	4727.88
469.87	4807.46
470.05	4706.82
470.23	4931.51
470.41	4877.68
470.59	4882.36
470.77	4734.90
470.95	4997.04
471.14	4978.32
471.32	4851.93
471.50	5139.82
471.68	4971.30
471.86	4994.70
472.04	5076.62
472.22	5102.37
472.40	4919.81
472.58	5273.23
472.77	5135.14
472.95	5240.46
473.13	5219.39
473.31	5238.12
473.49	5179.61
473.67	5228.76
473.85	5111.73
474.03	5399.62
474.21	5369.19
474.39	5364.51
474.57	5343.44
474.75	5558.77
474.93	5483.88
475.12	5469.83
475.30	5476.85
475.48	5584.52
475.66	5509.62
475.84	5535.37
476.02	5593.88
476.20	5720.27
476.38	5783.46
476.56	5834.96
476.74	5837.30
476.92	5830.27
477.10	5841.98
477.28	5900.49
477.46	5937.94
477.64	5809.21
477.82	6106.46
478.00	6134.54
478.18	6246.89
478.36	6036.24
478.54	6375.62
478.72	6040.92
478.90	6375.62
479.08	6384.98
479.26	6284.34
479.44	6403.71
479.62	6310.08
479.80	6415.41
479.98	6466.90
480.16	6661.16
480.34	6635.42
480.52	6740.74
480.70	6665.85
480.88	6750.10
481.06	6726.70
481.24	6696.27
481.41	6726.70
481.59	7035.65
481.77	6970.12
481.95	7000.54
482.13	7012.24
482.31	6972.46
482.49	7330.56
482.67	7105.87
482.85	7384.39
483.03	7627.81
483.21	7506.10
483.39	7592.70
483.57	7311.83
483.74	7744.83
483.92	7702.70
484.10	7515.46
484.28	7908.67
484.46	8093.57
484.64	7974.21
484.82	7772.92
485.00	8077.19
485.18	8154.43
485.35	8304.22
485.53	8131.02
485.71	8142.72
485.89	8273.79
486.07	8348.69
486.25	8468.06
486.43	8470.40
486.61	8528.91
486.78	8526.57
486.96	8547.64
487.14	8830.84
487.32	8655.30
487.50	8982.98
487.68	8889.35
487.85	9123.41
488.03	9291.93
488.21	9092.98
488.39	9179.58
488.57	9128.09
488.75	9446.40
488.92	9633.64
489.10	9535.34
489.28	9645.35
489.46	9675.77
489.64	9755.35
489.81	9767.06
489.99	9781.10
490.17	9886.42
490.35	10120.48
490.53	10195.37
490.70	10104.09
490.88	10267.93
491.06	10181.33
491.24	10256.23
491.41	10361.55
491.59	10284.31
491.77	10127.50
491.95	10422.41
492.13	10700.93
492.30	10626.03
492.48	10717.31
492.66	10628.37
492.84	11002.86
493.01	10967.75
493.19	11019.24
493.37	11040.31
493.54	11009.88
493.72	11075.42
493.90	11356.28
494.08	11176.06
494.25	11375.00
494.43	11382.03
494.61	11595.01
494.79	11578.63
494.96	11487.35
495.14	11597.35
495.32	11934.39
495.49	11786.94
495.67	12044.40
495.85	11992.90
496.02	12032.69
496.20	12060.78
496.38	11932.05
496.55	12123.98
496.73	12430.59
496.91	12411.86
497.09	12212.92
497.26	12451.65
497.44	12482.08
497.62	12524.21
497.79	12353.35
497.97	12681.02
498.14	12872.95
498.32	13095.30
498.50	12870.61
498.67	13004.02
498.85	13067.21
499.03	13121.04
499.20	13001.68
499.38	13355.10
499.56	13081.25
499.73	13327.01
499.91	13329.35
500.08	13415.95
500.26	13268.50
500.44	13432.33
500.61	13458.08
500.79	13418.29
500.97	13465.10
501.14	13418.29
501.32	13703.84
501.49	13909.80
501.67	13771.71
501.84	13804.48
502.02	13785.76
502.20	14230.46
502.37	14005.77
502.55	13968.32
502.72	14085.34
502.90	13928.53
503.07	14057.26
503.25	14127.47
503.43	14352.16
503.60	14200.03
503.78	14197.69
503.95	14183.65
504.13	14277.27
504.30	14544.09
504.48	14670.48
504.65	14728.99
504.83	14806.23
505.01	14736.01
505.18	14831.97
505.36	14846.02
505.53	15080.07
505.71	14757.08
505.88	15075.39
506.06	14630.69
506.23	15211.14
506.41	14806.23
506.58	15028.58
506.76	15126.88
506.93	15183.06
507.11	14937.30
507.28	15534.14
507.46	15208.80
507.63	15164.33
507.81	15515.41
507.98	15527.11
508.16	15597.33
508.33	15704.99
508.50	15812.66
508.68	15740.10
508.85	15550.52
509.03	15800.96
509.20	15967.13
509.38	15812.66
509.55	15838.41
509.73	16006.92
509.90	16130.97
510.08	15819.68
510.25	16046.71
510.42	15955.43
510.60	16453.97
510.77	16243.32
510.95	16170.76
511.12	16554.61
511.30	16168.42
511.47	16535.88
511.64	16893.99
511.82	16788.66
511.99	16390.77
512.17	16540.57
512.34	16592.06
512.51	16465.67
512.69	17071.87
512.86	16716.11
513.04	16727.81
513.21	16875.26
513.38	16779.30
513.56	17172.51
513.73	16821.43
513.90	17048.46
514.08	16781.64
514.25	17181.87
514.43	17305.92
514.60	17528.27
514.77	17301.24
514.95	17261.45
515.12	17123.36
515.29	17399.54
515.47	17465.08
515.64	17589.13
515.81	17397.20
515.99	17776.37
516.16	17855.95
516.33	17607.85
516.51	17748.28
516.68	17511.89
516.85	17778.71
517.03	17757.64
517.20	18003.40
517.37	18022.12
517.54	18050.21
517.72	17848.93
517.89	18040.85
518.06	17888.71
518.24	17937.87
518.41	17982.34
518.58	18576.83
518.75	18214.05
518.93	18363.84
519.10	18328.74
519.27	18298.31
519.45	18480.87
519.62	18565.13
519.79	18200.01
519.96	18417.68
520.14	18520.66
520.31	18515.98
520.48	18534.70
520.65	18780.46
520.83	18808.54
521.00	18649.39
521.17	18909.19
521.34	18728.97
521.52	18764.07
521.69	19019.19
521.86	18881.10
522.03	18925.57
522.20	19042.60
522.38	19145.58
522.55	19300.06
522.72	19033.24
522.89	19271.97
523.07	19314.10
523.24	19234.52
523.41	19442.83
523.58	19318.78
523.75	19452.19
523.92	19515.39
524.10	19400.70
524.27	19552.84
524.44	19477.94
524.61	19805.61
524.78	19887.53
524.96	19704.97
525.13	19515.39
525.30	19744.76
525.47	19711.99
525.64	19903.92
525.81	19658.16
525.98	19831.36
526.16	20105.20
526.33	19896.89
526.50	20123.93
526.67	20102.86
526.84	19946.05
527.01	19700.29
527.18	19953.07
527.36	20105.20
527.53	20252.66
527.70	20196.48
527.87	20453.94
528.04	20137.97
528.21	20322.87
528.38	20175.42
528.55	20332.23
528.72	20360.32
528.89	20301.81
529.07	20397.77
529.24	20599.05
529.41	20325.21
529.58	20437.56
529.75	20587.35
529.92	20460.96
530.09	20421.17
530.26	20400.11
530.43	20753.53
530.60	20524.16
530.77	20884.60
530.94	20664.59
531.11	20568.63
531.28	20755.87
531.46	20189.46
531.63	20912.69
531.80	21010.99
531.97	20891.62
532.14	20786.30
532.31	20936.09
532.48	20938.43
532.65	20840.13
532.82	21018.01
532.99	21469.73
533.16	21020.35
533.33	21259.09
533.50	21240.36
533.67	21282.49
533.84	20751.19
534.01	21195.89
534.18	21319.94
534.35	21167.80
534.52	21546.97
534.69	21472.07
534.86	21446.33
535.03	21247.38
535.20	21252.06
535.37	21362.07
535.54	21387.82
535.71	21561.02
535.88	21504.84
536.05	21537.61
536.22	21919.12
536.38	21802.09
536.55	21839.54
536.72	21799.75
536.89	21724.85
537.06	21895.71
537.23	21762.30
537.40	21961.25
537.57	21755.28
537.74	21898.05
537.91	21806.77
538.08	21844.22
538.25	21942.52
538.42	21802.09
538.59	22050.19
538.75	21551.65
538.92	21958.91
539.09	22387.22
539.26	22319.35
539.43	22174.24
539.60	22504.25
539.77	22188.28
539.94	22267.86
540.11	22204.66
540.28	22059.55
540.44	22005.72
540.61	22199.98
540.78	22438.72
540.95	22309.99
541.12	22272.54
541.29	22368.50
541.46	22485.53
541.62	22464.46
541.79	22403.61
541.96	22003.38
542.13	22309.99
542.30	22441.06
542.47	22541.70
542.63	22464.46
542.80	22721.92
542.97	22759.37
543.14	22724.26
543.31	22824.90
543.48	22541.70
543.64	23129.17
543.81	22787.46
543.98	22764.05
544.15	22970.02
544.32	22902.14
544.48	22967.68
544.65	22841.29
544.82	23152.58
544.99	22703.20
545.16	22979.38
545.32	22857.67
545.49	23372.59
545.66	23117.47
545.83	22857.67
546.00	23194.71
546.16	23300.03
546.33	22845.97
546.50	22902.14
546.67	23007.47
546.83	23197.05
547.00	22906.82
547.17	23157.26
547.34	23363.23
547.50	23295.35
547.67	23704.95
547.84	23360.89
548.00	23161.94
548.17	23136.20
548.34	23297.69
548.51	23616.01
548.67	23351.52
548.84	23396.00
549.01	23559.83
549.18	23316.42
549.34	23728.35
549.51	23578.56
549.68	23414.72
549.84	23456.85
550.01	23491.96
550.18	23723.67
550.34	23639.41
550.51	23931.98
550.68	23468.55
550.84	23786.86
551.01	23819.63
551.18	23761.12
551.34	23503.66
551.51	23646.43
551.68	23388.97
551.84	23974.11
552.01	23665.16
552.18	23941.34
552.34	23882.83
552.51	23892.19
552.68	23646.43
552.84	23814.95
553.01	23967.09
553.18	24034.96
553.34	24229.23
553.51	23931.98
553.67	24318.17
553.84	24290.08
554.01	24231.57
554.17	23943.68
554.34	24025.60
554.51	24264.33
554.67	23974.11
554.84	23990.49
555.00	23901.55
555.17	23964.75
555.33	24224.54
555.50	23903.89
555.67	24196.46
555.83	24030.28
556.00	24203.48
556.16	24432.85
556.33	24056.03
556.50	24219.86
556.66	24510.09
556.83	23948.36
556.99	24098.16
557.16	24297.10
557.32	24306.46
557.49	24329.87
557.65	24184.76
557.82	24301.78
557.98	24063.05
558.15	24203.48
558.32	24376.68
558.48	24283.06
558.65	24266.67
558.81	24283.06
558.98	24423.49
559.14	24411.79
559.31	24533.50
559.47	24154.33
559.64	24568.60
559.80	24517.11
559.97	24683.29
560.13	24259.65
560.30	24528.81
560.46	24709.04
560.63	24243.27
560.79	24402.43
560.96	24465.62
561.12	24631.80
561.29	24442.21
561.45	24545.20
561.61	24554.56
561.78	24713.72
561.94	24386.04
562.11	24725.42
562.27	24521.79
562.44	24460.94
562.60	24697.33
562.77	24315.83
562.93	24453.92
563.10	24971.18
563.26	24484.34
563.42	24933.73
563.59	24727.76
563.75	24477.32
563.92	24657.54
564.08	24397.74
564.24	24620.10
564.41	24423.49
564.57	24489.03
564.74	24725.42
564.90	24584.99
565.07	24580.31
565.23	24826.06
565.39	24751.17
565.56	24772.23
565.72	24517.11
565.88	24554.56
566.05	24521.79
566.21	24449.24
566.38	24556.90
566.54	24692.65
566.70	24587.33
566.87	24601.37
567.03	24652.86
567.19	24540.52
567.36	24669.25
567.52	24617.75
567.68	24493.71
567.85	24781.59
568.01	24678.61
568.17	24435.19
568.34	24762.87
568.50	24533.50
568.66	24903.30
568.83	24814.36
568.99	24720.74
569.15	24889.26
569.32	24533.50
569.48	24533.50
569.64	24954.79
569.81	24819.04
569.97	24751.17
570.13	24638.82
570.30	24641.16
570.46	24769.89
570.62	24470.30
570.78	24683.29
570.95	24847.13
571.11	24687.97
571.27	24793.29
571.43	24720.74
571.60	24868.19
571.76	24772.23
571.92	24863.51
572.09	25088.20
572.25	25062.46
572.41	24833.08
572.57	25010.96
572.74	24816.70
572.90	25085.86
573.06	25113.95
573.22	24961.81
573.38	24692.65
573.55	24940.75
573.71	25048.41
573.87	25303.53
574.03	24833.08
574.20	24938.41
574.36	24755.85
574.52	24507.75
574.68	24697.33
574.84	24891.60
575.01	24751.17
575.17	25319.92
575.33	24842.45
575.49	25163.10
575.65	24863.51
575.82	25125.65
575.98	25083.52
576.14	25120.97
576.30	24872.87
576.46	24807.34
576.62	24805.00
576.79	24861.17
576.95	25006.28
577.11	24826.06
577.27	25020.33
577.43	25319.92
577.59	24627.12
577.75	25013.31
577.92	24800.32
578.08	24982.88
578.24	24837.76
578.40	25003.94
578.56	25085.86
578.72	25046.07
578.88	25242.68
579.04	25078.84
579.21	25132.67
579.37	24826.06
579.53	24753.51
579.69	24821.38
579.85	24816.70
580.01	24870.53
580.17	24889.26
580.33	24856.49
580.49	25088.20
580.65	25111.61
580.82	24947.77
580.98	24868.19
581.14	25034.37
581.30	25083.52
581.46	24952.45
581.62	24905.64
581.78	24727.76
581.94	25263.74
582.10	24985.22
582.26	25167.78
582.42	24954.79
582.58	25219.27
582.74	25106.93
582.90	24856.49
583.06	25027.35
583.22	24786.27
583.38	24732.44
583.54	24999.26
583.70	25064.80
583.86	24889.26
584.02	25256.72
584.18	25046.07
584.34	24989.90
584.50	25092.88
584.66	25001.60
584.82	24978.20
584.98	25097.56
585.14	25092.88
585.30	24690.31
585.46	25064.80
585.62	25181.82
585.78	25230.98
585.94	24992.24
586.10	25254.38
586.26	25200.55
586.42	25090.54
586.58	25167.78
586.74	25046.07
586.90	25020.33
587.06	24915.00
587.22	24940.75
587.38	24994.58
587.54	25106.93
587.70	25450.99
587.86	25455.67
588.02	24996.92
588.18	24964.15
588.34	25294.17
588.49	24769.89
588.65	24966.49
588.81	24982.88
588.97	24900.96
589.13	24903.30
589.29	24807.34
589.45	24940.75
589.61	25135.01
589.77	25261.40
589.93	25553.97
590.08	25200.55
590.24	25127.99
590.40	25055.43
590.56	25530.56
590.72	24863.51
590.88	24816.70
591.04	25001.60
591.20	25429.92
591.35	25476.73
591.51	25401.83
591.67	25282.47
591.83	25151.40
591.99	24886.92
592.15	25130.33
592.31	25394.81
