SpectraSuite Data File
++++++++++++++++++++++++++++++++++++
Date: Fri Oct 04 11:48:47 GMT-05:00 2013
User: price-jones
Dark Spectrum Present: No
Reference Spectrum Present: No
Number of Sampled Component Spectra: 1
Spectrometers: USB2+H05261
Integration Time (usec): 100000 (USB2+H05261)
Spectra Averaged: 1 (USB2+H05261)
Boxcar Smoothing: 0 (USB2+H05261)
Correct for Electrical Dark: No (USB2+H05261)
Strobe/Lamp Enabled: No (USB2+H05261)
Correct for Detector Non-linearity: No (USB2+H05261)
Correct for Stray Light: No (USB2+H05261)
Number of Pixels in Processed Spectrum: 2048
>>>>>Begin Processed Spectral Data<<<<<
365.73	102.98
365.92	102.98
366.12	102.98
366.32	0.00
366.52	0.00
366.72	0.00
366.91	0.00
367.11	0.00
367.31	0.00
367.51	0.00
367.70	0.00
367.90	0.00
368.10	0.00
368.30	0.00
368.49	0.00
368.69	0.00
368.89	0.00
369.09	0.00
369.28	0.00
369.48	0.00
369.68	0.00
369.87	23.41
370.07	0.00
370.27	11.70
370.47	100.64
370.66	393.21
370.86	447.04
371.06	442.36
371.25	554.71
371.45	496.19
371.65	472.79
371.84	400.23
372.04	402.57
372.24	463.43
372.44	564.07
372.63	535.98
372.83	540.66
373.03	540.66
373.22	468.11
373.42	564.07
373.62	589.82
373.81	636.63
374.01	648.33
374.21	683.44
374.40	594.50
374.60	641.31
374.79	645.99
374.99	671.73
375.19	638.97
375.38	664.71
375.58	648.33
375.78	685.78
375.97	664.71
376.17	725.57
376.37	596.84
376.56	688.12
376.76	643.65
376.95	667.05
377.15	671.73
377.35	636.63
377.54	688.12
377.74	763.01
377.93	674.07
378.13	755.99
378.33	816.85
378.52	748.97
378.72	847.27
378.91	758.33
379.11	645.99
379.31	753.65
379.50	798.12
379.70	805.14
379.89	840.25
380.09	795.78
380.28	858.98
380.48	713.86
380.68	840.25
380.87	854.30
381.07	770.04
381.26	844.93
381.46	833.23
381.65	814.51
381.85	844.93
382.04	847.27
382.24	851.96
382.43	896.43
382.63	851.96
382.83	889.40
383.02	896.43
383.22	866.00
383.41	896.43
383.61	903.45
383.80	887.06
384.00	917.49
384.19	908.13
384.39	866.00
384.58	976.00
384.78	866.00
384.97	938.55
385.17	854.30
385.36	908.13
385.56	938.55
385.75	931.53
385.95	973.66
386.14	903.45
386.34	1055.58
386.53	1022.81
386.72	966.64
386.92	1034.52
387.11	990.05
387.31	936.21
387.50	990.05
387.70	976.00
387.89	1095.37
388.09	1041.54
388.28	994.73
388.48	1022.81
388.67	1090.69
388.86	1139.84
389.06	1102.39
389.25	1174.95
389.45	1128.14
389.64	1095.37
389.84	1179.63
390.03	1219.42
390.22	1235.80
390.42	1109.41
390.61	1156.22
390.81	1111.75
391.00	1317.72
391.19	1329.42
391.39	1163.25
391.58	1296.66
391.78	1282.61
391.97	1303.68
392.16	1233.46
392.36	1373.89
392.55	1228.78
392.75	1270.91
392.94	1289.64
393.13	1327.08
393.33	1301.34
393.52	1329.42
393.71	1465.18
393.91	1383.26
394.10	1275.59
394.29	1437.09
394.49	1413.68
394.68	1397.30
394.88	1495.60
395.07	1507.30
395.26	1460.49
395.46	1357.51
395.65	1451.13
395.84	1495.60
396.04	1556.46
396.23	1563.48
396.42	1516.67
396.62	1556.46
396.81	1600.93
397.00	1678.16
397.19	1598.59
397.39	1533.05
397.58	1607.95
397.77	1561.14
397.97	1699.23
398.16	1577.52
398.35	1762.42
398.55	1687.53
398.74	1689.87
398.93	1703.91
399.12	1720.29
399.32	1769.44
399.51	1736.68
399.70	1764.76
399.90	1739.02
400.09	1853.70
400.28	1886.47
400.47	1778.81
400.67	1860.73
400.86	1867.75
401.05	1771.79
401.24	1900.52
401.44	1874.77
401.63	1980.09
401.82	1916.90
402.01	1891.15
402.21	1961.37
402.40	1825.62
402.59	1935.62
402.78	2059.67
402.97	1966.05
403.17	2064.35
403.36	2080.74
403.55	2036.27
403.74	2094.78
403.93	2031.58
404.13	2155.63
404.32	2207.13
404.51	2211.81
404.70	2338.20
404.89	2296.07
405.09	2279.68
405.28	2249.25
405.47	2333.51
405.66	2275.00
405.85	2359.26
406.05	2338.20
406.24	2345.22
406.43	2366.28
406.62	2427.14
406.81	2656.51
407.00	2368.62
407.20	2406.07
407.39	2377.98
407.58	2572.25
407.77	2562.89
407.96	2480.97
408.15	2607.36
408.34	2609.70
408.54	2642.46
408.73	2635.44
408.92	2696.30
409.11	2595.65
409.30	2724.38
409.49	2724.38
409.68	2843.75
409.87	2710.34
410.07	2778.22
410.26	2874.18
410.45	2850.77
410.64	2862.48
410.83	2986.52
411.02	2937.37
411.21	3002.91
411.40	3019.29
411.59	3052.06
411.78	3061.42
411.98	3066.10
412.17	3199.51
412.36	3262.71
412.55	3206.53
412.74	3236.96
412.93	3286.11
413.12	3241.64
413.31	3492.08
413.50	3332.92
413.69	3403.14
413.88	3548.25
414.07	3426.54
414.26	3426.54
414.45	3616.13
414.64	3548.25
414.83	3641.87
415.02	3662.94
415.22	3726.13
415.41	3700.39
415.60	3798.69
415.79	3906.35
415.98	3723.79
416.17	3812.73
416.36	3878.27
416.55	3911.04
416.74	3857.20
416.93	3875.93
417.12	4056.15
417.31	3943.80
417.50	4039.76
417.69	4208.28
417.88	4102.96
418.07	4196.58
418.26	4046.79
418.45	4149.77
418.64	4278.50
418.83	4390.84
419.02	4205.94
419.21	4337.01
419.39	4301.90
419.58	4297.22
419.77	4344.03
419.96	4411.91
420.15	4461.06
420.34	4479.79
420.53	4456.38
420.72	4580.43
420.91	4557.02
421.10	4592.13
421.29	4643.62
421.48	4629.58
421.67	4720.86
421.86	4547.66
422.05	4697.46
422.24	4739.58
422.43	4622.56
422.61	4802.78
422.80	4755.97
422.99	4823.84
423.18	4880.02
423.37	4877.68
423.56	4966.62
423.75	4709.16
423.94	4772.35
424.13	4552.34
424.32	4594.47
424.50	4809.80
424.69	5022.79
424.88	5050.88
425.07	4805.12
425.26	4777.03
425.45	4971.30
425.64	4901.08
425.83	4889.38
426.01	4966.62
426.20	5062.58
426.39	4889.38
426.58	4919.81
426.77	5039.17
426.96	4997.04
427.15	4931.51
427.33	4992.36
427.52	5006.41
427.71	5198.33
427.90	5252.16
428.09	5317.70
428.28	5118.75
428.46	5352.81
428.65	5128.11
428.84	5329.40
429.03	5310.68
429.22	5210.03
429.40	5313.02
429.59	5408.98
429.78	5160.88
429.97	5331.74
430.16	5210.03
430.34	5383.23
430.53	5734.31
430.72	5453.45
430.91	5570.48
431.10	5437.06
431.28	5533.03
431.47	5636.01
431.66	5760.06
431.85	5673.46
432.03	5666.44
432.22	5989.43
432.41	5675.80
432.60	5877.09
432.79	5895.81
432.97	5849.00
433.16	5895.81
433.35	5830.27
433.54	5935.60
433.72	6134.54
433.91	6071.35
434.10	6211.78
434.28	5912.19
434.47	6118.16
434.66	6174.33
434.85	6232.85
435.03	6143.91
435.22	6087.73
435.41	6452.86
435.59	6312.42
435.78	6200.08
435.97	6333.49
436.16	6333.49
436.34	6399.02
436.53	6532.44
436.72	6532.44
436.90	6511.37
437.09	6445.84
437.28	6406.05
437.46	6518.39
437.65	6637.76
437.84	6698.61
438.02	6750.10
438.21	6583.93
438.40	6581.59
438.58	6855.43
438.77	6995.86
438.96	6668.19
439.14	6902.24
439.33	7098.84
439.52	7140.97
439.70	7129.27
439.89	7279.07
440.08	7260.34
440.26	7009.90
440.45	7297.79
440.63	7433.54
440.82	7573.97
441.01	7428.86
441.19	7412.48
441.38	7686.32
441.57	7618.44
441.75	7798.66
441.94	7873.56
442.12	7604.40
442.31	7852.50
442.50	7953.14
442.68	7854.84
442.87	7824.41
443.05	8093.57
443.24	8163.79
443.43	8077.19
443.61	8152.09
443.80	8203.58
443.98	8205.92
444.17	7882.92
444.35	8098.25
444.54	8334.65
444.73	8142.72
444.91	8173.15
445.10	8266.77
445.28	8329.97
445.47	8348.69
445.65	8161.45
445.84	8444.65
446.02	8287.84
446.21	8287.84
446.39	8131.02
446.58	8454.02
446.77	8421.25
446.95	8142.72
447.14	8306.56
447.32	8402.52
447.51	8582.74
447.69	8430.61
447.88	8571.04
448.06	8503.17
448.25	8521.89
448.43	8631.90
448.62	8444.65
448.80	8362.73
448.99	8416.57
449.17	8521.89
449.36	8788.71
449.54	8889.35
449.73	8945.53
449.91	8898.72
450.10	8884.67
450.28	8994.68
450.46	8950.21
450.65	8973.61
450.83	8987.66
451.02	8945.53
451.20	8922.12
451.39	8905.74
451.57	9139.79
451.76	9055.53
451.94	9146.81
452.13	9249.80
452.31	9039.15
452.49	8982.98
452.68	9198.31
452.86	9104.68
453.05	9497.89
453.23	9427.68
453.42	9310.65
453.60	9100.00
453.78	9575.13
453.97	9577.47
454.15	9390.23
454.34	9535.34
454.52	9678.12
454.70	9514.28
454.89	9675.77
455.07	9701.52
455.26	9767.06
455.44	9830.25
455.62	9792.80
455.81	9858.34
455.99	9804.50
456.17	9865.36
456.36	10104.09
456.54	10113.45
456.73	10019.83
456.91	10391.98
457.09	10326.44
457.28	10483.26
457.46	10310.06
457.64	10525.39
457.83	10256.23
458.01	10326.44
458.19	10560.50
458.38	10654.12
458.56	10619.01
458.74	10586.24
458.93	10530.07
459.11	10569.86
459.29	10574.54
459.48	10860.09
459.66	10635.39
459.84	10761.78
460.03	11007.54
460.21	10635.39
460.39	10937.32
460.57	11012.22
460.76	11187.76
460.94	11309.47
461.12	11197.12
461.31	11208.83
461.49	11166.70
461.67	10963.07
461.85	11325.85
462.04	11342.24
462.22	11829.07
462.40	11342.24
462.59	11396.07
462.77	11604.38
462.95	11634.80
463.13	11480.33
463.32	11580.97
463.50	11602.04
463.68	11580.97
463.86	11747.15
464.05	11662.89
464.23	11845.45
464.41	11585.65
464.59	11648.85
464.78	11934.39
464.96	11983.54
465.14	11889.92
465.32	11800.98
465.50	12006.95
465.69	11955.46
465.87	11857.15
466.05	11957.80
466.23	12128.66
466.41	12049.08
466.60	12353.35
466.78	12203.55
466.96	11983.54
467.14	12215.26
467.32	12278.45
467.51	12372.07
467.69	12215.26
467.87	12439.95
468.05	12409.52
468.23	12362.71
468.41	12276.11
468.60	12517.18
468.78	12638.89
468.96	12315.90
469.14	12645.91
469.32	12807.41
469.50	12676.34
469.69	13018.06
469.87	13158.49
470.05	13144.45
470.23	13156.15
470.41	12966.57
470.59	13069.55
470.77	12999.34
470.95	13170.19
471.14	13303.60
471.32	13167.85
471.50	13493.19
471.68	13628.94
471.86	13392.55
472.04	13523.62
472.22	13813.84
472.40	13575.11
472.58	13752.99
472.77	14015.13
472.95	14120.45
473.13	14293.65
473.31	13832.57
473.49	14040.87
473.67	14164.92
473.85	14183.65
474.03	14452.81
474.21	14513.66
474.39	14703.25
474.57	14925.60
474.75	14956.02
474.93	14906.87
475.12	14820.27
475.30	14815.59
475.48	14911.55
475.66	15194.76
475.84	15241.57
476.02	15669.89
476.20	15103.48
476.38	15513.07
476.56	15840.75
476.74	15791.59
476.92	15487.32
477.10	16046.71
477.28	15803.30
477.46	16271.40
477.64	16327.58
477.82	16563.97
478.00	16987.61
478.18	16601.42
478.36	16816.75
478.54	17001.65
478.72	17165.49
478.90	17130.38
479.08	17352.73
479.26	17467.42
479.44	17778.71
479.62	17448.69
479.80	17521.25
479.98	18120.43
480.16	18010.42
480.34	18094.68
480.52	18656.41
480.70	18593.22
480.88	18405.97
481.06	18747.69
481.24	18354.48
481.41	19082.39
481.59	19159.63
481.77	19374.95
481.95	19405.38
482.13	19484.96
482.31	19482.62
482.49	20023.28
482.67	20210.53
482.85	20102.86
483.03	20580.33
483.21	20769.91
483.39	20989.92
483.57	20769.91
483.74	21207.59
483.92	21205.25
484.10	21039.08
484.28	21589.10
484.46	22113.38
484.64	22249.13
484.82	22127.42
485.00	22335.73
485.18	22581.49
485.35	23122.15
485.53	22698.52
485.71	22937.25
485.89	23545.79
486.07	23236.84
486.25	23604.30
486.43	23892.19
486.61	23733.03
486.78	23749.42
486.96	24067.73
487.14	24470.30
487.32	24797.98
487.50	24898.62
487.68	24893.94
487.85	25170.12
488.03	25844.20
488.21	25748.23
488.39	25738.87
488.57	26052.50
488.75	26457.42
488.92	26850.63
489.10	26434.01
489.28	26661.04
489.46	27026.17
489.64	26848.29
489.81	27445.12
489.99	27538.74
490.17	27906.21
490.35	28133.24
490.53	28158.99
490.70	28379.00
490.88	28531.13
491.06	29017.96
491.24	28472.62
491.41	28975.83
491.59	29085.84
491.77	29359.68
491.95	29916.73
492.13	30206.95
492.30	29853.53
492.48	29879.28
492.66	30162.48
492.84	30038.44
493.01	30576.76
493.19	30670.38
493.37	30508.88
493.54	31335.09
493.72	31255.51
493.90	31536.38
494.08	31854.69
494.25	32163.64
494.43	32500.68
494.61	32458.55
494.79	32685.58
494.96	32587.28
495.14	32863.46
495.32	33310.50
495.49	33298.80
495.67	33085.81
495.85	33495.41
496.02	34139.05
496.20	34024.37
496.38	33853.51
496.55	34391.83
496.73	34876.32
496.91	34965.26
497.09	34738.23
497.26	35051.86
497.44	34998.03
497.62	35440.39
497.79	35772.75
497.97	35613.59
498.14	35538.69
498.32	35857.01
498.50	36357.88
498.67	36297.03
498.85	36863.44
499.03	36957.06
499.20	36898.55
499.38	36652.79
499.56	37148.98
499.73	37251.97
499.91	37743.48
500.08	37275.37
500.26	37371.33
500.44	37469.64
500.61	37921.36
500.79	38216.27
500.97	38377.76
501.14	38550.96
501.32	38759.27
501.49	38391.81
501.67	38679.69
501.84	39096.31
502.02	38841.19
502.20	39283.55
502.37	39276.53
502.55	39442.71
502.72	39667.40
502.90	39524.63
503.07	39414.62
503.25	39658.04
503.43	39922.52
503.60	40339.13
503.78	40392.97
503.95	40313.39
504.13	40367.22
504.30	40362.54
504.48	40210.40
504.65	40835.33
504.83	41191.09
505.01	41397.06
505.18	41385.35
505.36	41890.91
505.53	41478.97
505.71	41319.82
505.88	41621.75
506.06	41357.27
506.23	42153.05
506.41	42038.36
506.58	42265.39
506.76	42096.88
506.93	42857.55
507.11	42302.84
507.28	42616.47
507.46	42789.67
507.63	42883.30
507.81	43248.42
507.98	42845.85
508.16	43159.48
508.33	43599.50
508.50	43311.61
508.68	43807.81
508.85	44364.85
509.03	44460.82
509.20	44289.96
509.38	44205.70
509.55	44699.55
509.73	44512.31
509.90	44610.61
510.08	44442.09
510.25	44896.16
510.42	44931.26
510.60	44926.58
510.77	45287.03
510.95	45242.56
511.12	44893.82
511.30	45172.34
511.47	45584.27
511.64	45865.14
511.82	46131.96
511.99	45567.89
512.17	45731.73
512.34	45933.01
512.51	46265.37
512.69	46206.86
512.86	46478.36
513.04	46937.10
513.21	47349.04
513.38	46894.97
513.56	47175.84
513.73	46829.44
513.90	47358.40
514.08	47210.95
514.25	47349.04
514.43	47735.23
514.60	47405.21
514.77	47728.20
514.95	47660.33
515.12	47377.12
515.29	47618.20
515.47	47805.44
515.64	47859.27
515.81	47826.51
515.99	48402.28
516.16	48456.11
516.33	48474.84
516.51	48641.01
516.68	48507.60
516.85	48451.43
517.03	48797.83
517.20	48720.59
517.37	49043.59
517.54	48879.75
517.72	48966.35
517.89	49071.67
518.06	49209.76
518.24	49275.30
518.41	49137.21
518.58	49064.65
518.75	49345.51
518.93	49975.12
519.10	49495.31
519.27	49797.24
519.45	49818.30
519.62	49925.97
519.79	49640.42
519.96	49794.90
520.14	50153.00
520.31	50012.57
520.48	50555.57
520.65	50394.07
520.83	50443.23
521.00	50506.42
521.17	50618.77
521.34	50487.70
521.52	50522.80
521.69	50803.67
521.86	50810.69
522.03	51072.83
522.20	50953.46
522.38	51363.06
522.55	51379.44
522.72	51239.01
522.89	51480.08
523.07	51962.23
523.24	51842.87
523.41	51892.02
523.58	51498.81
523.75	51613.49
523.92	51608.81
524.10	51866.27
524.27	52109.69
524.44	51990.32
524.61	52463.11
524.78	52280.55
524.96	52275.87
525.13	52207.99
525.30	52186.92
525.47	52357.78
525.64	52493.54
525.81	52570.77
525.98	52931.22
526.16	52694.82
526.33	52575.45
526.50	52978.03
526.67	52360.12
526.84	52655.03
527.01	52734.61
527.18	53202.72
527.36	53193.36
527.53	53123.14
527.70	53581.88
527.87	53350.17
528.04	53141.86
528.21	53244.85
528.38	53216.76
528.55	53361.87
528.72	53656.78
528.89	53918.92
529.07	53624.01
529.24	53628.69
529.41	53977.43
529.58	53457.84
529.75	53530.39
529.92	53731.68
530.09	53947.01
530.26	53741.04
530.43	54087.44
530.60	53565.50
530.77	53834.66
530.94	54014.88
531.11	53986.80
531.28	53963.39
531.46	54026.59
531.63	54518.10
531.80	54525.12
531.97	54248.94
532.14	54571.93
532.31	54515.76
532.48	54358.94
532.65	54424.48
532.82	54356.60
532.99	54625.76
533.16	54536.82
533.33	54883.22
533.50	54855.14
533.67	54941.74
533.84	54798.96
534.01	54787.26
534.18	54897.27
534.35	55089.19
534.52	54784.92
534.69	55276.43
534.86	55281.11
535.03	55295.16
535.20	55089.19
535.37	55243.66
535.54	55199.19
535.71	54852.80
535.88	55304.52
536.05	55433.25
536.22	55344.31
536.38	55618.15
536.55	55398.14
536.72	55648.58
536.89	55451.97
537.06	55800.71
537.23	55756.24
537.40	55224.94
537.57	55533.89
537.74	55648.58
537.91	55810.07
538.08	55863.91
538.25	55894.33
538.42	55739.86
538.59	56065.19
538.75	55805.39
538.92	55819.44
539.09	56072.21
539.26	56083.92
539.43	56123.71
539.60	56250.09
539.77	56472.45
539.94	56341.38
540.11	56278.18
540.28	56090.94
540.44	56200.94
540.61	56076.90
540.78	56472.45
540.95	56259.46
541.12	56603.52
541.29	56369.46
541.46	56236.05
541.62	56514.58
541.79	56479.47
541.96	56224.35
542.13	56495.85
542.30	56633.94
542.47	56629.26
542.63	56907.79
542.80	56776.72
542.97	57153.54
543.14	57137.16
543.31	57095.03
543.48	57174.61
543.64	57062.26
543.81	57284.61
543.98	57268.23
544.15	57237.80
544.32	57319.72
544.48	57638.03
544.65	57303.34
544.82	57106.73
544.99	57242.48
545.16	57247.16
545.32	57371.21
545.49	57616.97
545.66	57778.46
545.83	57684.84
546.00	57553.77
546.16	57670.80
546.33	57090.35
546.50	57347.81
546.67	57434.41
546.83	57312.70
547.00	57406.32
547.17	57661.44
547.34	57832.30
547.50	57558.45
547.67	57855.70
547.84	57951.66
548.00	57869.75
548.17	58012.52
548.34	57839.32
548.51	57991.45
548.67	58085.07
548.84	57897.83
549.01	57972.73
549.18	57911.88
549.34	57790.17
549.51	57904.85
549.68	57832.30
549.84	57925.92
550.01	58337.85
550.18	58092.10
550.34	58328.49
550.51	58309.77
550.68	58082.73
550.84	58211.46
551.01	58054.65
551.18	58314.45
551.34	58066.35
551.51	58265.30
551.68	58363.60
551.84	58475.94
552.01	58356.58
552.18	58621.06
552.34	58621.06
552.51	58691.27
552.68	58398.71
552.84	58265.30
553.01	58719.36
553.18	58534.46
553.34	58567.23
553.51	58539.14
553.67	58841.07
553.84	59058.74
554.01	58972.14
554.17	58836.39
554.34	58780.21
554.51	58897.24
554.67	59063.42
554.84	58904.26
555.00	58897.24
555.17	58925.33
555.33	58824.68
555.50	58958.09
555.67	58932.35
555.83	58932.35
556.00	58965.12
556.16	59189.81
556.33	58691.27
556.50	59131.29
556.66	59124.27
556.83	59044.69
556.99	59133.63
557.16	59194.49
557.32	59224.92
557.49	58955.75
557.65	59025.97
557.82	59318.54
557.98	59231.94
558.15	59229.60
558.32	59402.80
558.48	59189.81
558.65	59180.45
558.81	59318.54
558.98	59475.35
559.14	59412.16
559.31	59313.86
559.47	59107.89
559.64	59463.65
559.80	59407.48
559.97	59498.76
560.13	59313.86
560.30	59440.24
560.46	59568.97
560.63	59664.94
560.79	59725.79
560.96	59615.79
561.12	59395.77
561.29	59451.95
561.45	59660.26
561.61	59721.11
561.78	59667.28
561.94	59636.85
562.11	59676.64
562.27	59480.03
562.44	59615.79
562.60	59540.89
562.77	59835.80
562.93	59653.23
563.10	59805.37
563.26	59557.27
563.42	59945.80
563.59	59898.99
563.75	59531.53
563.92	59831.11
564.08	59742.17
564.24	59788.98
564.41	59643.87
564.57	59774.94
564.74	59863.88
564.90	59934.10
565.07	59924.74
565.23	60062.83
565.39	60053.47
565.56	60067.51
565.72	59835.80
565.88	59927.08
566.05	59870.90
566.21	59735.15
566.38	59821.75
566.54	59903.67
566.70	59880.27
566.87	60032.40
567.03	60027.72
567.19	60271.14
567.36	59952.82
567.52	59891.97
567.68	60135.38
567.85	60016.02
568.01	60102.62
568.17	59997.29
568.34	60184.54
568.50	60196.24
568.66	60074.53
568.83	60006.65
568.99	59868.56
569.15	59828.77
569.32	60048.78
569.48	60001.97
569.64	60147.09
569.81	60156.45
569.97	60161.13
570.13	60259.43
570.30	60126.02
570.46	59973.89
570.62	60210.28
570.78	60200.92
570.95	60069.85
571.11	60275.82
571.27	59880.27
571.43	60224.32
571.60	60285.18
571.76	60097.94
571.92	60271.14
572.09	60280.50
572.25	60413.91
572.41	60350.71
572.57	60259.43
572.74	60729.88
572.90	60205.60
573.06	60324.97
573.22	60282.84
573.38	60481.78
573.55	60278.16
573.71	60367.10
573.87	60505.19
574.03	60378.80
574.20	60411.57
574.36	60413.91
574.52	60266.45
574.68	60285.18
574.84	60378.80
575.01	60537.96
575.17	60575.40
575.33	60453.70
575.49	60268.79
575.65	60493.49
575.82	60589.45
575.98	60423.27
576.14	60437.31
576.30	60416.25
576.46	60364.76
576.62	60423.27
576.79	60481.78
576.95	60224.32
577.11	60329.65
577.27	60484.12
577.43	60622.22
577.59	60465.40
577.75	60322.63
577.92	60271.14
578.08	60402.21
578.24	60549.66
578.40	60432.63
578.56	60444.33
578.72	60362.42
578.88	60505.19
579.04	60519.23
579.21	60402.21
579.37	60463.06
579.53	60470.08
579.69	60292.20
579.85	60495.83
580.01	60444.33
580.17	60514.55
580.33	60537.96
580.49	60662.00
580.65	60786.05
580.82	60769.67
580.98	60647.96
581.14	60388.16
581.30	60760.31
581.46	60523.91
581.62	60540.30
581.78	60439.65
581.94	60626.90
582.10	60458.38
582.26	60392.84
582.42	60563.70
582.58	60683.07
582.74	60659.66
582.90	60701.79
583.06	60811.80
583.22	60453.70
583.38	60594.13
583.54	60514.55
583.70	60479.44
583.86	60605.83
584.02	60570.72
584.18	60596.47
584.34	60692.43
584.50	60858.61
584.66	60587.11
584.82	60561.36
584.98	60617.53
585.14	60566.04
585.30	60416.25
585.46	60748.60
585.62	60720.52
585.78	60917.12
585.94	60460.72
586.10	60804.78
586.26	60640.94
586.42	60985.00
586.58	60685.41
586.74	60540.30
586.90	60491.15
587.06	60603.49
587.22	60715.84
587.38	60734.56
587.54	60577.75
587.70	60800.10
587.86	60837.54
588.02	60683.07
588.18	60823.50
588.34	60603.49
588.49	60779.03
588.65	60669.03
588.81	60701.79
588.97	60786.05
589.13	60704.13
