SpectraSuite Data File
++++++++++++++++++++++++++++++++++++
Date: Fri Oct 04 11:48:30 GMT-05:00 2013
User: price-jones
Dark Spectrum Present: No
Reference Spectrum Present: No
Number of Sampled Component Spectra: 1
Spectrometers: USB2+H05261
Integration Time (usec): 100000 (USB2+H05261)
Spectra Averaged: 1 (USB2+H05261)
Boxcar Smoothing: 0 (USB2+H05261)
Correct for Electrical Dark: No (USB2+H05261)
Strobe/Lamp Enabled: No (USB2+H05261)
Correct for Detector Non-linearity: No (USB2+H05261)
Correct for Stray Light: No (USB2+H05261)
Number of Pixels in Processed Spectrum: 2048
>>>>>Begin Processed Spectral Data<<<<<
365.73	7.02
365.92	7.02
366.12	7.02
366.32	0.00
366.52	0.00
366.72	0.00
366.91	0.00
367.11	0.00
367.31	7.02
367.51	0.00
367.70	0.00
367.90	0.00
368.10	0.00
368.30	0.00
368.49	0.00
368.69	0.00
368.89	0.00
369.09	0.00
369.28	0.00
369.48	0.00
369.68	0.00
369.87	25.75
370.07	25.75
370.27	25.75
370.47	88.94
370.66	297.25
370.86	379.17
371.06	379.17
371.25	477.47
371.45	451.72
371.65	442.36
371.84	498.53
372.04	400.23
372.24	442.36
372.44	376.83
372.63	444.70
372.83	470.45
373.03	479.81
373.22	503.22
373.42	510.24
373.62	557.05
373.81	493.85
374.01	624.92
374.21	613.22
374.40	624.92
374.60	559.39
374.79	624.92
374.99	531.30
375.19	624.92
375.38	622.58
375.58	594.50
375.78	587.47
375.97	559.39
376.17	690.46
376.37	641.31
376.56	571.09
376.76	554.71
376.95	645.99
377.15	543.00
377.35	566.41
377.54	650.67
377.74	550.03
377.93	582.79
378.13	746.63
378.33	678.76
378.52	718.54
378.72	664.71
378.91	711.52
379.11	751.31
379.31	716.20
379.50	571.09
379.70	685.78
379.89	688.12
380.09	709.18
380.28	676.41
380.48	734.93
380.68	713.86
380.87	760.67
381.07	711.52
381.26	807.48
381.46	699.82
381.65	702.16
381.85	751.31
382.04	755.99
382.24	816.85
382.43	791.10
382.63	713.86
382.83	805.14
383.02	840.25
383.22	835.57
383.41	784.08
383.61	854.30
383.80	866.00
384.00	802.80
384.19	833.23
384.39	947.92
384.58	779.40
384.78	819.19
384.97	873.02
385.17	814.51
385.36	875.36
385.56	844.93
385.75	809.83
385.95	821.53
386.14	903.45
386.34	887.06
386.53	861.32
386.72	828.55
386.92	957.28
387.11	940.90
387.31	985.37
387.50	889.40
387.70	910.47
387.89	961.96
388.09	828.55
388.28	945.58
388.48	954.94
388.67	1025.15
388.86	1015.79
389.06	973.66
389.25	917.49
389.45	1041.54
389.64	943.24
389.84	992.39
390.03	1053.24
390.22	1074.31
390.42	1036.86
390.61	952.60
390.81	1062.60
391.00	1135.16
391.19	1102.39
391.39	1139.84
391.58	1081.33
391.78	1177.29
391.97	1151.54
392.16	1128.14
392.36	1158.57
392.55	1097.71
392.75	1221.76
392.94	1160.91
393.13	1245.16
393.33	1095.37
393.52	1200.69
393.71	1219.42
393.91	1233.46
394.10	1196.01
394.29	1160.91
394.49	1217.08
394.68	1277.93
394.88	1301.34
395.07	1252.19
395.26	1252.19
395.46	1394.96
395.65	1439.43
395.84	1327.08
396.04	1376.24
396.23	1432.41
396.42	1362.19
396.62	1409.00
396.81	1413.68
397.00	1474.54
397.19	1404.32
397.39	1502.62
397.58	1511.99
397.77	1458.15
397.97	1526.03
398.16	1465.18
398.35	1497.94
398.55	1460.49
398.74	1500.28
398.93	1589.22
399.12	1547.09
399.32	1598.59
399.51	1460.49
399.70	1600.93
399.90	1542.41
400.09	1600.93
400.28	1638.38
400.47	1617.31
400.67	1589.22
400.86	1680.50
401.05	1734.34
401.24	1633.69
401.44	1820.94
401.63	1708.59
401.82	1762.42
402.01	1720.29
402.21	1664.12
402.40	1867.75
402.59	1764.76
402.78	1863.07
402.97	1778.81
403.17	1771.79
403.36	1844.34
403.55	1867.75
403.74	1998.82
403.93	1881.79
404.13	1916.90
404.32	1816.26
404.51	1919.24
404.70	1973.07
404.89	1935.62
405.09	2160.31
405.28	2069.03
405.47	2045.63
405.66	2029.24
405.85	2083.08
406.05	1937.96
406.24	2059.67
406.43	2113.50
406.62	2172.02
406.81	2174.36
407.00	2157.97
407.20	2134.57
407.39	2092.44
407.58	2214.15
407.77	2289.04
407.96	2345.22
408.15	2279.68
408.34	2232.87
408.54	2279.68
408.73	2321.81
408.92	2363.94
409.11	2413.09
409.30	2523.10
409.49	2476.29
409.68	2443.52
409.87	2420.11
410.07	2558.21
410.26	2427.14
410.45	2548.84
410.64	2495.01
410.83	2485.65
411.02	2565.23
411.21	2698.64
411.40	2642.46
411.59	2768.85
411.78	2736.09
411.98	2640.12
412.17	2693.96
412.36	2733.75
412.55	2864.82
412.74	2810.98
412.93	2803.96
413.12	2696.30
413.31	2916.31
413.50	2850.77
413.69	2892.90
413.88	3112.91
414.07	3016.95
414.26	3073.12
414.45	3101.21
414.64	3126.96
414.83	3187.81
415.02	3155.04
415.22	3267.39
415.41	3274.41
415.60	3267.39
415.79	3211.22
415.98	3279.09
416.17	3218.24
416.36	3304.84
416.55	3471.01
416.74	3454.63
416.93	3328.24
417.12	3442.93
417.31	3471.01
417.50	3613.79
417.69	3669.96
417.88	3538.89
418.07	3527.19
418.26	3503.78
418.45	3590.38
418.64	3742.52
418.83	3691.02
419.02	3552.93
419.21	3747.20
419.39	3744.86
419.58	3730.81
419.77	3749.54
419.96	3784.65
420.15	3854.86
420.34	3901.67
420.53	3824.44
420.72	4039.76
420.91	3873.59
421.10	4039.76
421.29	4156.79
421.48	3838.48
421.67	3955.51
421.86	4072.53
422.05	4081.89
422.24	3976.57
422.43	4060.83
422.61	4053.81
422.80	4081.89
422.99	4030.40
423.18	4149.77
423.37	4154.45
423.56	4299.56
423.75	4011.68
423.94	4138.07
424.13	3941.46
424.32	3943.80
424.50	4198.92
424.69	4140.41
424.88	4393.19
425.07	4203.60
425.26	4133.39
425.45	4245.73
425.64	4175.52
425.83	4196.58
426.01	4238.71
426.20	4269.14
426.39	4236.37
426.58	4250.41
426.77	4337.01
426.96	4180.20
427.15	4257.43
427.33	4304.25
427.52	4285.52
427.71	4332.33
427.90	4491.49
428.09	4540.64
428.28	4535.96
428.46	4545.32
428.65	4540.64
428.84	4695.11
429.03	4606.17
429.22	4447.02
429.40	4781.71
429.59	4702.14
429.78	4564.04
429.97	4557.02
430.16	4636.60
430.34	4718.52
430.53	4828.53
430.72	4830.87
430.91	4751.29
431.10	4784.06
431.28	4851.93
431.47	4945.55
431.66	4952.57
431.85	4826.18
432.03	5027.47
432.22	5095.35
432.41	4908.10
432.60	5036.83
432.79	5004.07
432.97	5043.85
433.16	5163.22
433.35	4954.91
433.54	5116.41
433.72	5214.71
433.91	4980.66
434.10	5165.56
434.28	4997.04
434.47	5174.92
434.66	5270.89
434.85	5282.59
435.03	5341.10
435.22	5188.97
435.41	5603.24
435.59	5315.36
435.78	5369.19
435.97	5369.19
436.16	5694.52
436.34	5476.85
436.53	5427.70
436.72	5554.09
436.90	5430.04
437.09	5593.88
437.28	5540.05
437.46	5692.18
437.65	5661.76
437.84	5720.27
438.02	5685.16
438.21	5729.63
438.40	5607.92
438.58	5844.32
438.77	5757.72
438.96	5942.62
439.14	6033.90
439.33	6120.50
439.52	6188.38
439.70	6132.20
439.89	6197.74
440.08	6090.07
440.26	6221.14
440.45	6321.79
440.63	6436.47
440.82	6642.44
441.01	6459.88
441.19	6469.24
441.38	6525.41
441.57	6534.78
441.75	6619.04
441.94	6707.98
442.12	6857.77
442.31	6649.46
442.50	6883.52
442.68	6834.36
442.87	6855.43
443.05	6825.00
443.24	6932.67
443.43	6832.02
443.61	7243.96
443.80	7152.68
443.98	7070.76
444.17	6759.47
444.35	7124.59
444.54	7145.66
444.73	7084.80
444.91	7056.72
445.10	7157.36
445.28	7077.78
445.47	7136.29
445.65	7040.33
445.84	7026.29
446.02	7215.87
446.21	7066.08
446.39	7035.65
446.58	7009.90
446.77	7096.50
446.95	7122.25
447.14	7279.07
447.32	7183.10
447.51	7311.83
447.69	7073.10
447.88	7138.63
448.06	7262.68
448.25	7321.20
448.43	7262.68
448.62	7124.59
448.80	7262.68
448.99	7300.13
449.17	7492.05
449.36	7368.01
449.54	7466.31
449.73	7728.45
449.91	7747.17
450.10	7581.00
450.28	7843.14
450.46	7822.07
450.65	7707.38
450.83	7569.29
451.02	7625.47
451.20	7948.46
451.39	7906.33
451.57	7735.47
451.76	7786.96
451.94	7878.24
452.13	7985.91
452.31	7871.22
452.49	7819.73
452.68	8025.70
452.86	8070.17
453.05	8091.23
453.23	8180.17
453.42	8044.42
453.60	7992.93
453.78	7955.48
453.97	8156.77
454.15	8013.99
454.34	7840.79
454.52	8533.59
454.70	8278.47
454.89	8276.13
455.07	8222.30
455.26	8278.47
455.44	8400.18
455.62	8557.00
455.81	8231.66
455.99	8629.56
456.17	8458.70
456.36	8540.61
456.54	8772.33
456.73	8760.63
456.91	8842.54
457.09	8973.61
457.28	8868.29
457.46	8879.99
457.64	8980.64
457.83	8950.21
458.01	8812.12
458.19	8975.95
458.38	8849.57
458.56	9088.30
458.74	9125.75
458.93	9210.01
459.11	9177.24
459.29	9102.34
459.48	9298.95
459.66	9214.69
459.84	9390.23
460.03	9462.79
460.21	9301.29
460.39	9518.96
460.57	9277.88
460.76	9533.00
460.94	9694.50
461.12	9514.28
461.31	9563.43
461.49	9551.73
461.67	9535.34
461.85	9603.22
462.04	9809.19
462.22	10265.59
462.40	9893.44
462.59	9809.19
462.77	9956.64
462.95	9774.08
463.13	9968.34
463.32	9872.38
463.50	9884.08
463.68	9926.21
463.86	10108.77
464.05	9998.77
464.23	9916.85
464.41	10214.10
464.59	10005.79
464.78	10111.11
464.96	10239.84
465.14	10225.80
465.32	10244.52
465.50	10546.45
465.69	10190.69
465.87	10078.35
466.05	10310.06
466.23	10326.44
466.41	10361.55
466.60	10590.92
466.78	10637.73
466.96	10441.13
467.14	10434.11
467.32	10455.17
467.51	10635.39
467.69	10539.43
467.87	10494.96
468.05	10665.82
468.23	10714.97
468.41	10775.83
468.60	10789.87
468.78	10911.58
468.96	10595.61
469.14	11136.27
469.32	11133.93
469.50	10803.91
469.69	11225.21
469.87	11279.04
470.05	10988.82
470.23	11400.75
470.41	11220.53
470.59	11323.51
470.77	11297.77
470.95	11169.04
471.14	11456.92
471.32	11365.64
471.50	11545.86
471.68	11903.96
471.86	11566.93
472.04	11672.25
472.22	11932.05
472.40	11648.85
472.58	11999.93
472.77	11763.53
472.95	11988.22
473.13	12533.57
473.31	12423.56
473.49	12072.48
473.67	12098.23
473.85	12051.42
474.03	12491.44
474.21	12379.09
474.39	12606.13
474.57	12674.00
474.75	12648.26
474.93	12812.09
475.12	12732.51
475.30	12886.99
475.48	12814.43
475.66	13034.44
475.84	12966.57
476.02	13102.32
476.20	13055.51
476.38	13226.37
476.56	13537.66
476.74	13570.43
476.92	13516.59
477.10	13429.99
477.28	13851.29
477.46	13785.76
477.64	14139.18
477.82	14127.47
478.00	14251.52
478.18	14300.67
478.36	14714.95
478.54	14349.82
478.72	14579.20
478.90	14862.40
479.08	15194.76
479.26	15239.23
479.44	15473.28
479.62	15283.70
479.80	15300.08
479.98	15501.37
480.16	15777.55
480.34	15667.55
480.52	15826.70
480.70	15880.53
480.88	15861.81
481.06	16283.11
481.24	16063.10
481.41	16156.72
481.59	16500.78
481.77	16531.20
481.95	16844.84
482.13	16922.07
482.31	16896.33
482.49	17163.15
482.67	17266.13
482.85	17561.04
483.03	17771.69
483.21	17582.10
483.39	17921.48
483.57	17764.67
483.74	18050.21
483.92	18258.52
484.10	18197.67
484.28	18630.66
484.46	18743.01
484.64	19257.93
484.82	18878.76
485.00	19094.09
485.18	19325.80
485.35	19700.29
485.53	20081.80
485.71	19899.23
485.89	20264.36
486.07	19697.95
486.25	20114.56
486.43	20042.01
486.61	20594.37
486.78	20659.91
486.96	20898.64
487.14	21329.30
487.32	20903.32
487.50	21331.64
487.68	21338.66
487.85	21699.11
488.03	21638.25
488.21	22064.23
488.39	21926.14
488.57	22373.18
488.75	22139.13
488.92	22822.56
489.10	22890.44
489.28	23087.04
489.46	23239.18
489.64	23204.07
489.81	23850.06
489.99	24350.93
490.17	23985.81
490.35	24020.92
490.53	24402.43
490.70	24444.56
490.88	24285.40
491.06	24903.30
491.24	24545.20
491.41	24589.67
491.59	25212.25
491.77	25113.95
491.95	25661.63
492.13	25563.33
492.30	25642.91
492.48	26089.95
492.66	26120.38
492.84	26295.92
493.01	26080.59
493.19	26246.77
493.37	26426.99
493.54	26803.82
493.72	26939.57
493.90	27197.02
494.08	27557.47
494.25	27688.54
494.43	27690.88
494.61	28016.21
494.79	28268.99
494.96	27728.33
495.14	28217.50
495.32	28161.33
495.49	28465.60
495.67	28989.88
495.85	28840.08
496.02	28872.85
496.20	28886.89
496.38	29142.01
496.55	29455.64
496.73	29919.07
496.91	29598.41
497.09	30092.27
497.26	30375.47
497.44	29867.58
497.62	30134.40
497.79	30859.96
497.97	30541.65
498.14	31000.40
498.32	30866.98
498.50	31197.00
498.67	31388.92
498.85	31351.48
499.03	31630.00
499.20	31742.35
499.38	31468.50
499.56	31747.03
499.73	32105.13
499.91	32294.71
500.08	32411.74
500.26	31950.65
500.44	32315.78
500.61	32851.76
500.79	32479.61
500.97	33090.49
501.14	33226.24
501.32	33352.63
501.49	32954.74
501.67	33338.59
501.84	33617.11
502.02	33242.63
502.20	33717.76
502.37	34120.33
502.55	33989.26
502.72	33759.89
502.90	34607.16
503.07	34520.56
503.25	34522.90
503.43	34040.75
503.60	34628.23
503.78	34965.26
503.95	34607.16
504.13	34623.54
504.30	34815.47
504.48	34691.42
504.65	34742.91
504.83	35587.85
505.01	36086.38
505.18	35381.88
505.36	36055.95
505.53	35915.52
505.71	35735.30
505.88	35948.29
506.06	36027.87
506.23	36217.45
506.41	36161.28
506.58	36802.58
506.76	36435.12
506.93	36418.74
507.11	36549.81
507.28	36989.83
507.46	36837.69
507.63	37383.04
507.81	37493.04
507.98	37228.56
508.16	37298.78
508.33	37532.83
508.50	37418.14
508.68	37668.58
508.85	37972.85
509.03	37806.67
509.20	38291.16
509.38	38663.31
509.55	38782.68
509.73	38494.79
509.90	38904.38
510.08	38710.12
510.25	38918.43
510.42	38733.53
510.60	39260.15
510.77	39264.83
510.95	39688.46
511.12	39138.44
511.30	39140.78
511.47	39590.16
511.64	39491.86
511.82	39934.22
511.99	39875.71
512.17	40027.84
512.34	39981.03
512.51	40531.06
512.69	40329.77
512.86	40563.82
513.04	40797.88
513.21	41104.49
513.38	40856.39
513.56	40928.95
513.73	40657.45
513.90	41282.37
514.08	41083.42
514.25	41493.02
514.43	41359.61
514.60	41776.22
514.77	41970.49
514.95	41935.38
515.12	41521.10
515.29	41675.58
515.47	41776.22
515.64	42773.29
515.81	42122.62
515.99	42380.08
516.16	42590.73
516.33	42216.24
516.51	42756.91
516.68	42534.56
516.85	42567.32
517.03	42808.40
517.20	43599.50
517.37	42911.38
517.54	43318.64
517.72	43313.95
517.89	43056.50
518.06	42979.26
518.24	43695.46
518.41	42597.75
518.58	43470.77
518.75	43875.68
518.93	44083.99
519.10	43758.66
519.27	43751.63
519.45	43807.81
519.62	43952.92
519.79	44264.21
519.96	44336.77
520.14	44292.30
520.31	44224.42
520.48	44645.72
520.65	44746.36
520.83	44264.21
521.00	44521.67
521.17	44659.76
521.34	45212.13
521.52	45027.23
521.69	45446.18
521.86	45551.51
522.03	45394.69
522.20	45434.48
522.38	45390.01
522.55	45567.89
522.72	45647.47
522.89	45713.00
523.07	46080.47
523.24	46092.17
523.41	45815.99
523.58	45684.92
523.75	45563.21
523.92	45993.87
524.10	46108.55
524.27	46171.75
524.44	47040.09
524.61	46902.00
524.78	46728.80
524.96	46866.89
525.13	46745.18
525.30	46878.59
525.47	47002.64
525.64	46377.72
525.81	47475.43
525.98	47435.64
526.16	47543.30
526.33	47463.72
526.50	47501.17
526.67	47342.02
526.84	47552.66
527.01	47583.09
527.18	47442.66
527.36	47672.03
527.53	47934.17
527.70	48172.91
527.87	48465.47
528.04	47969.28
528.21	47929.49
528.38	47763.31
528.55	48090.99
528.72	48210.35
528.89	48732.29
529.07	48299.30
529.24	48451.43
529.41	48240.78
529.58	48388.24
529.75	48390.58
529.92	48657.40
530.09	48704.21
530.26	48697.19
530.43	48863.36
530.60	48603.56
530.77	49088.06
530.94	49043.59
531.11	48839.96
531.28	48538.03
531.46	48676.12
531.63	49294.02
531.80	49263.60
531.97	49638.08
532.14	49413.39
532.31	49310.41
532.48	49085.72
532.65	49841.71
532.82	49488.29
532.99	49668.51
533.16	49607.65
533.33	49682.55
533.50	50174.06
533.67	50014.91
533.84	50087.46
534.01	50021.93
534.18	49932.99
534.35	50220.87
534.52	50005.55
534.69	50113.21
534.86	50279.39
535.03	50237.26
535.20	50454.93
535.37	50642.17
535.54	50672.60
535.71	50244.28
535.88	50457.27
536.05	50291.09
536.22	50644.51
536.38	50878.57
536.55	50688.98
536.72	50911.33
536.89	50735.79
537.06	50663.24
537.23	50937.08
537.40	50887.93
537.57	51035.38
537.74	51168.79
537.91	51086.87
538.08	51264.75
538.25	51091.55
538.42	51274.12
538.59	51126.66
538.75	51091.55
538.92	51323.27
539.09	51463.70
539.26	51578.39
539.43	51377.10
539.60	51760.95
539.77	51562.00
539.94	51674.35
540.11	51664.99
540.28	51384.12
540.44	51751.59
540.61	52172.88
540.78	51845.21
540.95	51983.30
541.12	52079.26
541.29	52196.29
541.46	51669.67
541.62	51955.21
541.79	51767.97
541.96	51672.01
542.13	52137.77
542.30	52261.82
542.47	52182.24
542.63	52605.88
542.80	52500.56
542.97	52566.09
543.14	52589.50
543.31	52514.60
543.48	52818.87
543.64	52809.51
543.81	52884.40
543.98	53034.20
544.15	53109.10
544.32	53102.07
544.48	53073.99
544.65	53226.12
544.82	53062.29
544.99	52886.74
545.16	53109.10
545.32	53186.33
545.49	53492.94
545.66	53516.35
545.83	53523.37
546.00	53083.35
546.16	53275.27
546.33	52910.15
546.50	52664.39
546.67	53422.73
546.83	52980.37
547.00	52994.41
547.17	53378.26
547.34	53396.98
547.50	53586.57
547.67	53968.07
547.84	53734.02
548.00	53624.01
548.17	53806.58
548.34	53694.23
548.51	53907.22
548.67	54223.19
548.84	53890.83
549.01	53977.43
549.18	53984.46
549.34	53853.39
549.51	53724.66
549.68	54115.53
549.84	54183.40
550.01	54178.72
550.18	54017.22
550.34	53591.25
550.51	54103.82
550.68	54426.82
550.84	53829.98
551.01	54064.03
551.18	53958.71
551.34	54017.22
551.51	54300.43
551.68	54134.25
551.84	54740.45
552.01	54274.68
552.18	54202.13
552.34	54178.72
552.51	54625.76
552.68	54272.34
552.84	54080.42
553.01	54852.80
553.18	54344.90
553.34	54735.77
553.51	54653.85
553.67	54546.18
553.84	55089.19
554.01	54712.36
554.17	54768.54
554.34	54796.62
554.51	54550.87
554.67	54759.17
554.84	54878.54
555.00	54822.37
555.17	54803.64
555.33	54871.52
555.50	54908.97
555.67	54869.18
555.83	54763.85
556.00	55084.51
556.16	55157.06
556.33	55241.32
556.50	55018.97
556.66	55189.83
556.83	55096.21
556.99	55276.43
557.16	55260.05
557.32	55267.07
557.49	55262.39
557.65	55194.51
557.82	54990.89
557.98	55234.30
558.15	55522.19
558.32	55374.73
558.48	55208.56
558.65	55365.37
558.81	55318.56
558.98	55454.31
559.14	55138.34
559.31	55288.13
559.47	55547.93
559.64	55576.02
559.80	55590.06
559.97	55526.87
560.13	55484.74
560.30	55388.78
560.46	55650.92
560.63	55533.89
560.79	55711.77
560.96	55936.46
561.12	55704.75
561.29	55622.83
561.45	55840.50
561.61	55812.41
561.78	55877.95
561.94	55833.48
562.11	55973.91
562.27	55676.66
562.44	55777.31
562.60	55690.71
562.77	55566.66
562.93	55718.79
563.10	55950.51
563.26	55931.78
563.42	55931.78
563.59	55679.00
563.75	55833.48
563.92	56058.17
564.08	55889.65
564.24	55760.92
564.41	56083.92
564.57	55950.51
564.74	56048.81
564.90	55978.59
565.07	56278.18
565.23	56250.09
565.39	56079.24
565.56	56130.73
565.72	55863.91
565.88	56116.68
566.05	55847.52
566.21	55887.31
566.38	56006.68
566.54	55943.48
566.70	56385.85
566.87	56250.09
567.03	56030.08
567.19	56671.39
567.36	56481.81
567.52	56060.51
567.68	56240.73
567.85	55943.48
568.01	56268.82
568.17	56039.45
568.34	56371.80
568.50	56460.74
568.66	56341.38
568.83	56292.22
568.99	56156.47
569.15	56011.36
569.32	56135.41
569.48	56161.15
569.64	56306.27
569.81	56310.95
569.97	56425.64
570.13	56488.83
570.30	56530.96
570.46	56245.41
570.62	56451.38
570.78	56495.85
570.95	56320.31
571.11	56402.23
571.27	56168.18
571.43	56313.29
571.60	56406.91
571.76	56444.36
571.92	56460.74
572.09	56528.62
572.25	56449.04
572.41	56250.09
572.57	56343.72
572.74	56449.04
572.90	56315.63
573.06	56509.89
573.22	56566.07
573.38	56664.37
573.55	56605.86
573.71	56591.81
573.87	56516.92
574.03	56362.44
574.20	56439.68
574.36	56381.16
574.52	56516.92
574.68	56549.68
574.84	56617.56
575.01	56713.52
575.17	56802.46
575.33	56676.07
575.49	56788.42
575.65	56584.79
575.82	56804.80
575.98	56519.26
576.14	56757.99
576.30	56739.27
576.46	56537.98
576.62	56580.11
576.79	56519.26
576.95	56479.47
577.11	56701.82
577.27	56629.26
577.43	56577.77
577.59	56982.68
577.75	56788.42
577.92	56437.34
578.08	56472.45
578.24	56528.62
578.40	56451.38
578.56	56765.01
578.72	56437.34
578.88	56690.12
579.04	57212.06
579.21	56685.43
579.37	56802.46
579.53	56741.61
579.69	56547.34
579.85	56720.54
580.01	56699.48
580.17	56645.65
580.33	56727.56
580.49	56858.63
580.65	56891.40
580.82	56917.15
580.98	56736.93
581.14	56746.29
581.30	57048.22
581.46	56772.03
581.62	56622.24
581.78	56760.33
581.94	56835.23
582.10	56832.89
582.26	56949.92
582.42	56722.88
582.58	57022.47
582.74	57052.90
582.90	57006.09
583.06	57092.69
583.22	56856.29
583.38	57038.86
583.54	56837.57
583.70	56954.60
583.86	56839.91
584.02	56687.78
584.18	57071.62
584.34	57020.13
584.50	57062.26
584.66	56945.23
584.82	56680.75
584.98	56896.08
585.14	56673.73
585.30	56814.16
585.46	56837.57
585.62	56844.59
585.78	57106.73
585.94	56502.87
586.10	56886.72
586.26	56914.81
586.42	57221.42
586.58	57099.71
586.74	56626.92
586.90	56853.95
587.06	56757.99
587.22	56790.76
587.38	56844.59
587.54	57221.42
587.70	57310.36
587.86	56821.19
588.02	57111.41
588.18	57027.15
588.34	57193.33
588.49	56886.72
588.65	57010.77
588.81	56776.72
588.97	57043.54
589.13	57003.75
589.29	56947.57
589.45	57123.11
589.61	57492.92
589.77	57240.14
