SpectraSuite Data File
++++++++++++++++++++++++++++++++++++
Date: Fri Oct 04 11:48:39 GMT-05:00 2013
User: price-jones
Dark Spectrum Present: No
Reference Spectrum Present: No
Number of Sampled Component Spectra: 1
Spectrometers: USB2+H05261
Integration Time (usec): 100000 (USB2+H05261)
Spectra Averaged: 1 (USB2+H05261)
Boxcar Smoothing: 0 (USB2+H05261)
Correct for Electrical Dark: No (USB2+H05261)
Strobe/Lamp Enabled: No (USB2+H05261)
Correct for Detector Non-linearity: No (USB2+H05261)
Correct for Stray Light: No (USB2+H05261)
Number of Pixels in Processed Spectrum: 2048
>>>>>Begin Processed Spectral Data<<<<<
365.73	88.94
365.92	88.94
366.12	88.94
366.32	0.00
366.52	0.00
366.72	0.00
366.91	0.00
367.11	0.00
367.31	0.00
367.51	0.00
367.70	0.00
367.90	0.00
368.10	0.00
368.30	0.00
368.49	0.00
368.69	0.00
368.89	0.00
369.09	4.68
369.28	0.00
369.48	0.00
369.68	0.00
369.87	32.77
370.07	25.75
370.27	4.68
370.47	208.31
370.66	472.79
370.86	660.03
371.06	512.58
371.25	610.88
371.45	608.54
371.65	610.88
371.84	589.82
372.04	638.97
372.24	629.60
372.44	664.71
372.63	575.77
372.83	793.44
373.03	748.97
373.22	732.59
373.42	706.84
373.62	734.93
373.81	681.10
374.01	828.55
374.21	741.95
374.40	770.04
374.60	723.23
374.79	823.87
374.99	770.04
375.19	755.99
375.38	812.17
375.58	809.83
375.78	772.38
375.97	961.96
376.17	901.11
376.37	772.38
376.56	819.19
376.76	844.93
376.95	884.72
377.15	919.83
377.35	868.34
377.54	922.17
377.74	891.74
377.93	964.30
378.13	1006.43
378.33	997.07
378.52	971.32
378.72	971.32
378.91	980.68
379.11	929.19
379.31	924.51
379.50	1025.15
379.70	1086.01
379.89	1083.67
380.09	1036.86
380.28	936.21
380.48	1088.35
380.68	1100.05
380.87	1060.26
381.07	985.37
381.26	1198.35
381.46	1062.60
381.65	1109.41
381.85	1064.94
382.04	1086.01
382.24	1076.65
382.43	1167.93
382.63	1116.44
382.83	1153.88
383.02	1268.57
383.22	1156.22
383.41	1125.80
383.61	1217.08
383.80	1256.87
384.00	1296.66
384.19	1221.76
384.39	1207.72
384.58	1158.57
384.78	1254.53
384.97	1282.61
385.17	1277.93
385.36	1315.38
385.56	1289.64
385.75	1296.66
385.95	1315.38
386.14	1315.38
386.34	1266.23
386.53	1306.02
386.72	1275.59
386.92	1439.43
387.11	1387.94
387.31	1350.49
387.50	1324.74
387.70	1430.07
387.89	1355.17
388.09	1406.66
388.28	1427.73
388.48	1497.94
388.67	1437.09
388.86	1446.45
389.06	1483.90
389.25	1516.67
389.45	1465.18
389.64	1523.69
389.84	1523.69
390.03	1547.09
390.22	1572.84
390.42	1551.78
390.61	1490.92
390.81	1544.75
391.00	1668.80
391.19	1547.09
391.39	1570.50
391.58	1579.86
391.78	1675.82
391.97	1717.95
392.16	1678.16
392.36	1790.51
392.55	1741.36
392.75	1720.29
392.94	1750.72
393.13	1713.27
393.33	1755.40
393.52	1736.68
393.71	1891.15
393.91	1884.13
394.10	1830.30
394.29	1886.47
394.49	1809.23
394.68	2005.84
394.88	1998.82
395.07	1919.24
395.26	1982.43
395.46	1820.94
395.65	1912.22
395.84	2120.53
396.04	1998.82
396.23	2094.78
396.42	2083.08
396.62	1991.80
396.81	2043.29
397.00	1961.37
397.19	2113.50
397.39	2202.44
397.58	2094.78
397.77	2017.54
397.97	2153.29
398.16	2085.42
398.35	2251.60
398.55	2146.27
398.74	2186.06
398.93	2377.98
399.12	2289.04
399.32	2305.43
399.51	2195.42
399.70	2490.33
399.90	2298.41
400.09	2267.98
400.28	2370.96
400.47	2445.86
400.67	2541.82
400.86	2502.03
401.05	2480.97
401.24	2445.86
401.44	2572.25
401.63	2480.97
401.82	2586.29
402.01	2555.86
402.21	2567.57
402.40	2665.87
402.59	2649.49
402.78	2705.66
402.97	2633.10
403.17	2567.57
403.36	2693.96
403.55	2722.04
403.74	2904.60
403.93	2738.43
404.13	2888.22
404.32	2841.41
404.51	2803.96
404.70	3026.31
404.89	2796.94
405.09	2995.89
405.28	2862.48
405.47	2787.58
405.66	3052.06
405.85	3066.10
406.05	3047.38
406.24	2963.12
406.43	3000.57
406.62	3070.78
406.81	3220.58
407.00	3091.85
407.20	2993.55
407.39	3096.53
407.58	3342.28
407.77	3267.39
407.96	3309.52
408.15	3391.44
408.34	3314.20
408.54	3361.01
408.73	3349.31
408.92	3393.78
409.11	3461.65
409.30	3543.57
409.49	3494.42
409.68	3494.42
409.87	3471.01
410.07	3686.34
410.26	3651.24
410.45	3548.25
410.64	3641.87
410.83	3866.56
411.02	3794.01
411.21	3927.42
411.40	3723.79
411.59	3784.65
411.78	4025.72
411.98	3873.59
412.17	4044.45
412.36	4058.49
412.55	4145.09
412.74	4107.64
412.93	4121.68
413.12	4138.07
413.31	4334.67
413.50	4102.96
413.69	4365.10
413.88	4306.59
414.07	4337.01
414.26	4409.57
414.45	4276.16
414.64	4519.57
414.83	4432.97
415.02	4617.88
415.22	4671.71
415.41	4779.37
415.60	4720.86
415.79	4788.74
415.98	4784.06
416.17	4856.61
416.36	4905.76
416.55	4891.72
416.74	4891.72
416.93	4770.01
417.12	5184.29
417.31	5001.72
417.50	4915.12
417.69	5210.03
417.88	5193.65
418.07	5055.56
418.26	5107.05
418.45	5214.71
418.64	5441.75
418.83	5390.25
419.02	5203.01
419.21	5458.13
419.39	5451.11
419.58	5413.66
419.77	5366.85
419.96	5533.03
420.15	5535.37
420.34	5603.24
420.53	5654.73
420.72	5830.27
420.91	5645.37
421.10	5930.92
421.29	5701.54
421.48	5619.63
421.67	5865.38
421.86	5923.90
422.05	5844.32
422.24	5776.44
422.43	5696.86
422.61	5959.00
422.80	5994.11
422.99	6160.29
423.18	6001.13
423.37	6010.50
423.56	6001.13
423.75	5970.71
423.94	5790.49
424.13	5657.07
424.32	5832.62
424.50	6171.99
424.69	6237.53
424.88	6022.20
425.07	6080.71
425.26	6139.23
425.45	6146.25
425.64	6101.78
425.83	5860.70
426.01	6171.99
426.20	5928.58
426.39	6113.48
426.58	6083.05
426.77	6319.45
426.96	6225.82
427.15	6143.91
427.33	6221.14
427.52	6237.53
427.71	6394.34
427.90	6310.08
428.09	6445.84
428.28	6569.88
428.46	6588.61
428.65	6569.88
428.84	6642.44
429.03	6775.85
429.22	6520.73
429.40	6829.68
429.59	6787.55
429.78	6373.28
429.97	6518.39
430.16	6647.12
430.34	6920.96
430.53	7150.34
430.72	6909.26
430.91	6825.00
431.10	6810.96
431.28	6986.50
431.47	7183.10
431.66	7253.32
431.85	6904.58
432.03	7262.68
432.22	7358.64
432.41	7325.88
432.60	7386.73
432.79	7250.98
432.97	7269.70
433.16	7360.98
433.35	7499.08
433.54	7466.31
433.72	7442.90
433.91	7400.77
434.10	7545.89
434.28	7651.21
434.47	7639.51
434.66	7709.72
434.85	7810.37
435.03	7686.32
435.22	7864.20
435.41	7866.54
435.59	7796.32
435.78	7674.62
435.97	7885.26
436.16	8112.30
436.34	8063.15
436.53	7925.05
436.72	8257.41
436.90	8013.99
437.09	8091.23
437.28	8121.66
437.46	8093.57
437.65	8201.24
437.84	8102.93
438.02	8311.24
438.21	8292.52
438.40	8266.77
438.58	8718.50
438.77	8547.64
438.96	8507.85
439.14	8786.37
439.33	8945.53
439.52	8858.93
439.70	8896.38
439.89	8851.91
440.08	9193.62
440.26	9062.55
440.45	9247.46
440.63	9343.42
440.82	9406.61
441.01	9055.53
441.19	9446.40
441.38	9518.96
441.57	9542.36
441.75	9453.42
441.94	9764.72
442.12	9708.54
442.31	10050.26
442.50	9944.94
442.68	9928.55
442.87	10054.94
443.05	10050.26
443.24	10108.77
443.43	10162.61
443.61	10134.52
443.80	10663.48
443.98	9980.04
444.17	10001.11
444.35	10630.71
444.54	10391.98
444.73	10321.76
444.91	10209.42
445.10	10464.54
445.28	10244.52
445.47	10195.37
445.65	10310.06
445.84	10569.86
446.02	10401.34
446.21	10441.13
446.39	10518.37
446.58	10630.71
446.77	10478.58
446.95	10487.94
447.14	10558.16
447.32	10829.66
447.51	10597.95
447.69	10492.62
447.88	10672.84
448.06	10689.23
448.25	10614.33
448.43	10494.96
448.62	10565.18
448.80	10782.85
448.99	10597.95
449.17	10679.86
449.36	10752.42
449.54	11028.60
449.73	11091.80
449.91	11293.08
450.10	11239.25
450.28	11293.08
450.46	11194.78
450.65	11131.59
450.83	11424.15
451.02	11185.42
451.20	11293.08
451.39	11391.39
451.57	11255.64
451.76	11129.25
451.94	11342.24
452.13	11501.39
452.31	11515.44
452.49	11419.47
452.68	11606.72
452.86	11627.78
453.05	11887.58
453.23	12159.08
453.42	11775.24
453.60	11686.29
453.78	11918.01
453.97	11845.45
454.15	11782.26
454.34	11775.24
454.52	11929.71
454.70	12311.22
454.89	12142.70
455.07	12091.21
455.26	12229.30
455.44	12704.43
455.62	12372.07
455.81	12362.71
455.99	12257.39
456.17	12564.00
456.36	12564.00
456.54	12727.83
456.73	12844.86
456.91	13116.36
457.09	12952.52
457.28	13060.19
457.46	12989.97
457.64	13102.32
457.83	12954.87
458.01	13069.55
458.19	13224.03
458.38	13174.88
458.56	13385.52
458.74	13682.77
458.93	13352.76
459.11	13324.67
459.29	13474.46
459.48	13540.00
459.66	13626.60
459.84	13804.48
460.03	13944.91
460.21	13678.09
460.39	13902.78
460.57	13638.30
460.76	13717.88
460.94	14164.92
461.12	13741.29
461.31	13895.76
461.49	13764.69
461.67	13619.58
461.85	14256.20
462.04	14029.17
462.22	14930.28
462.40	14380.25
462.59	14263.22
462.77	14534.73
462.95	14506.64
463.13	14546.43
463.32	14406.00
463.50	14733.67
463.68	14651.75
463.86	14913.89
464.05	14534.73
464.23	14604.94
464.41	15145.61
464.59	14801.55
464.78	15377.32
464.96	15201.78
465.14	14820.27
465.32	15339.87
465.50	15206.46
465.69	15419.45
465.87	15047.30
466.05	15059.01
466.23	15243.91
466.41	15342.21
466.60	15824.36
466.78	15382.00
466.96	15206.46
467.14	14986.45
467.32	15606.69
467.51	15651.16
467.69	15232.21
467.87	15775.21
468.05	15871.17
468.23	15353.91
468.41	15414.77
468.60	15873.51
468.78	16044.37
468.96	15658.18
469.14	16248.00
469.32	15934.37
469.50	15754.15
469.69	16460.99
469.87	16355.66
470.05	16538.23
470.23	16498.44
470.41	16556.95
470.59	16388.43
470.77	16439.92
470.95	16830.79
471.14	16812.07
471.32	16681.00
471.50	17221.66
471.68	16961.86
471.86	16940.80
472.04	17364.43
472.22	17465.08
472.40	17104.64
472.58	17561.04
472.77	17703.81
472.95	17570.40
473.13	18307.67
473.31	17933.18
473.49	17776.37
473.67	17680.41
473.85	18017.44
474.03	18277.24
474.21	18340.44
474.39	18546.40
474.57	18345.12
474.75	18810.89
474.93	18909.19
475.12	19080.05
475.30	18869.40
475.48	18871.74
475.66	19295.38
475.84	18951.32
476.02	19183.03
476.20	19534.11
476.38	19843.06
476.56	19915.62
476.74	19946.05
476.92	19791.57
477.10	20369.68
477.28	20346.28
477.46	19948.39
477.64	20669.27
477.82	20940.77
478.00	21434.63
478.18	21451.01
478.36	21504.84
478.54	21553.99
478.72	21420.58
478.90	21724.85
479.08	21942.52
479.26	22171.89
479.44	22499.57
479.62	22572.13
479.80	22300.62
479.98	23108.11
480.16	23374.93
480.34	23033.21
480.52	23566.85
480.70	23545.79
480.88	23597.28
481.06	23880.49
481.24	23693.24
481.41	24137.94
481.59	24383.70
481.77	24460.94
481.95	24830.74
482.13	25137.35
482.31	24943.09
482.49	25535.24
482.67	25575.03
482.85	25813.77
483.03	25923.77
483.21	26595.51
483.39	26728.92
483.57	26714.87
483.74	26595.51
483.92	26920.84
484.10	27014.46
484.28	27779.82
484.46	27754.07
484.64	28369.63
484.82	27782.16
485.00	27946.00
485.18	28500.70
485.35	29120.95
485.53	28903.28
485.71	29380.74
485.89	29425.22
486.07	29317.55
486.25	29706.08
486.43	29893.32
486.61	30017.37
486.78	30515.90
486.96	30586.12
487.14	31587.87
487.32	31297.64
487.50	31346.79
487.68	31262.54
487.85	32367.27
488.03	32470.25
488.21	33008.58
488.39	32950.06
488.57	32638.77
488.75	33376.04
488.92	33699.03
489.10	34078.20
489.28	34312.25
489.46	34452.69
489.64	34572.05
489.81	35035.48
489.99	34925.47
490.17	35370.18
490.35	35892.12
490.53	35555.08
490.70	36112.13
490.88	35969.35
491.06	36582.57
491.24	36741.73
491.41	37106.85
491.59	36781.52
491.77	37251.97
491.95	37633.47
492.13	37809.01
492.30	38080.52
492.48	37909.66
492.66	38274.78
492.84	38157.75
493.01	38899.70
493.19	38967.58
493.37	39496.54
493.54	39306.96
493.72	39856.98
493.90	39943.58
494.08	40236.15
494.25	40659.79
494.43	40910.22
494.61	40751.07
494.79	41043.63
494.96	40926.61
495.14	41347.90
495.32	41642.81
495.49	42185.82
495.67	42291.14
495.85	42639.88
496.02	42644.56
496.20	42824.78
496.38	42960.53
496.55	43023.73
496.73	44147.18
496.91	43332.68
497.09	43863.98
497.26	44154.21
497.44	43871.00
497.62	43873.34
497.79	44767.43
497.97	44680.83
498.14	45254.26
498.32	45565.55
498.50	45647.47
498.67	45830.03
498.85	45324.47
499.03	45794.92
499.20	46155.36
499.38	45972.80
499.56	46284.09
499.73	46600.07
499.91	46859.87
500.08	47086.90
500.26	47028.38
500.44	47136.05
500.61	47407.55
500.79	47384.15
500.97	47709.48
501.14	47995.03
501.32	48315.68
501.49	48226.74
501.67	48238.44
501.84	48231.42
502.02	48329.72
502.20	48161.20
502.37	49216.78
502.55	48762.72
502.72	48854.00
502.90	49226.15
503.07	48987.41
503.25	49074.01
503.43	48980.39
503.60	49783.19
503.78	49652.12
503.95	49624.04
504.13	49804.26
504.30	49755.11
504.48	49766.81
504.65	50234.92
504.83	50518.12
505.01	50698.34
505.18	50431.52
505.36	50726.43
505.53	50759.20
505.71	50801.33
505.88	50920.70
506.06	50728.77
506.23	51536.26
506.41	51428.59
506.58	51613.49
506.76	51718.82
506.93	51620.52
507.11	51519.87
507.28	52044.15
507.46	52198.63
507.63	52088.62
507.81	52296.93
507.98	52229.05
508.16	52362.46
508.33	52516.94
508.50	52388.21
508.68	52980.37
508.85	53193.36
509.03	52966.32
509.20	53237.83
509.38	53602.95
509.55	53598.27
509.73	53176.97
509.90	53380.60
510.08	53338.47
510.25	53635.72
510.42	53663.80
510.60	54071.06
510.77	53872.11
510.95	54262.98
511.12	53717.64
511.30	53932.96
511.47	54377.67
511.64	54101.48
511.82	54471.29
511.99	54520.44
512.17	54749.81
512.34	54466.61
512.51	54539.16
512.69	54747.47
512.86	54714.70
513.04	55260.05
513.21	55199.19
513.38	55189.83
513.56	55180.47
513.73	55206.22
513.90	55377.08
514.08	55379.42
514.25	55262.39
514.43	55625.17
514.60	55711.77
514.77	55838.16
514.95	55910.72
515.12	55709.43
515.29	55496.44
515.47	56186.90
515.64	56343.72
515.81	56107.32
515.99	56079.24
516.16	56112.00
516.33	56409.25
516.51	56575.43
516.68	56303.93
516.85	56631.60
517.03	56530.96
517.20	56750.97
517.37	56603.52
517.54	56664.37
517.72	56563.73
517.89	56708.84
518.06	56519.26
518.24	57008.43
518.41	56692.46
518.58	56872.68
518.75	57003.75
518.93	57190.99
519.10	57254.18
519.27	57513.98
519.45	57085.67
519.62	57354.83
519.79	57322.06
519.96	57511.64
520.14	57682.50
520.31	57528.03
520.48	57719.95
520.65	57563.14
520.83	57848.68
521.00	57811.23
521.17	57869.75
521.34	57907.19
521.52	57930.60
521.69	57902.51
521.86	58309.77
522.03	58262.96
522.20	58185.72
522.38	58291.04
522.55	58195.08
522.72	58548.50
522.89	58312.11
523.07	58857.45
523.24	58724.04
523.41	58827.02
523.58	58604.67
523.75	58908.94
523.92	58506.37
524.10	58908.94
524.27	58824.68
524.44	59161.72
524.61	59267.05
524.78	59082.14
524.96	59119.59
525.13	59068.10
525.30	59227.26
525.47	59267.05
525.64	59269.39
525.81	59388.75
525.98	59636.85
526.16	59477.69
526.33	59512.80
526.50	59796.01
526.67	59568.97
526.84	59554.93
527.01	59510.46
527.18	59831.11
527.36	59777.28
527.53	59826.43
527.70	59913.03
527.87	60144.75
528.04	59791.33
528.21	59980.91
528.38	59943.46
528.55	60233.69
528.72	60076.87
528.89	60243.05
529.07	60350.71
529.24	60278.16
529.41	60355.39
529.58	60381.14
529.75	60163.47
529.92	60488.80
530.09	60523.91
530.26	60582.43
530.43	60720.52
530.60	60516.89
530.77	60498.17
530.94	60793.07
531.11	60643.28
531.28	60535.62
531.46	60645.62
531.63	60685.41
531.80	60924.14
531.97	60910.10
532.14	60830.52
532.31	60914.78
532.48	60907.76
532.65	60996.70
532.82	61001.38
532.99	61087.98
533.16	60954.57
533.33	61233.10
533.50	61432.04
533.67	61336.08
533.84	61373.53
534.01	61139.47
534.18	61003.72
534.35	61450.77
534.52	61354.80
534.69	61577.15
534.86	61619.28
535.03	61537.36
535.20	61506.94
535.37	61324.38
535.54	61677.80
535.71	61584.18
535.88	61769.08
536.05	61647.37
536.22	61815.89
536.38	61883.76
536.55	62047.60
536.72	61790.14
536.89	61722.27
537.06	61951.64
537.23	62082.71
537.40	61762.06
537.57	61986.75
537.74	61996.11
537.91	62169.31
538.08	62143.56
538.25	62019.52
538.42	62237.19
538.59	62251.23
538.75	62003.13
538.92	62211.44
539.09	62368.26
539.26	62546.14
539.43	62349.53
539.60	62520.39
539.77	62291.02
539.94	62567.20
540.11	62391.66
540.28	62606.99
540.44	62246.55
540.61	62489.96
540.78	62560.18
540.95	62532.09
541.12	62611.67
541.29	62702.95
541.46	62782.53
541.62	62609.33
541.79	62885.51
541.96	62452.51
542.13	62735.72
542.30	62990.84
542.47	62932.32
542.63	63098.50
542.80	62934.66
542.97	63065.73
543.14	63348.94
543.31	63135.95
543.48	63325.53
543.64	63454.26
543.81	63538.52
543.98	63482.35
544.15	63440.22
544.32	63330.22
544.48	63557.25
544.65	63416.82
544.82	63433.20
544.99	63206.17
545.16	63398.09
545.32	63571.29
545.49	63646.19
545.66	63861.52
545.83	63728.11
546.00	63702.36
546.16	63585.33
546.33	63435.54
546.50	63386.39
546.67	63587.67
546.83	63505.76
547.00	63835.77
547.17	63716.40
547.34	63800.66
547.50	63852.15
547.67	63910.67
547.84	63910.67
548.00	63917.69
548.17	64104.93
548.34	63969.18
548.51	64018.33
548.67	64116.64
548.84	63997.27
549.01	63997.27
549.18	64062.80
549.34	64067.48
549.51	63983.22
549.68	64102.59
549.84	64207.92
550.01	64280.47
550.18	64154.08
550.34	64130.68
550.51	64441.97
550.68	64231.32
550.84	64257.07
551.01	64413.88
551.18	64156.42
551.34	64151.74
551.51	64315.58
551.68	64463.03
551.84	64456.01
552.01	64427.93
552.18	64566.02
552.34	64587.08
552.51	64624.53
552.68	64432.61
552.84	64367.07
553.01	64753.26
553.18	64680.70
553.34	64673.68
553.51	64851.56
553.67	64961.57
553.84	64893.69
554.01	64722.83
554.17	64750.92
554.34	64872.63
554.51	64853.90
554.67	64788.37
554.84	64853.90
555.00	64821.14
555.17	65020.08
555.33	65087.96
555.50	65001.36
555.67	64874.97
555.83	64935.82
556.00	64924.12
556.16	65013.06
556.33	65099.66
556.50	65027.10
556.66	65167.54
556.83	65134.77
556.99	65331.37
557.16	65204.98
557.32	65219.03
557.49	65317.33
557.65	65038.81
557.82	65092.64
557.98	65249.45
558.15	65064.55
558.32	65485.85
558.48	65317.33
558.65	65359.46
558.81	65520.96
558.98	65443.72
559.14	65326.69
559.31	65279.88
559.47	65361.80
559.64	65535.00
559.80	65535.00
559.97	65535.00
560.13	65471.81
560.30	65535.00
560.46	65535.00
560.63	65478.83
560.79	65535.00
560.96	65535.00
561.12	65535.00
561.29	65499.89
561.45	65535.00
561.61	65535.00
561.78	65535.00
561.94	65535.00
562.11	65535.00
562.27	65535.00
562.44	65535.00
562.60	65535.00
562.77	65535.00
562.93	65535.00
563.10	65535.00
563.26	65535.00
563.42	65535.00
563.59	65535.00
563.75	65535.00
563.92	65535.00
564.08	65535.00
564.24	65535.00
564.41	65535.00
564.57	65535.00
564.74	65535.00
564.90	65535.00
565.07	65535.00
565.23	65535.00
565.39	65535.00
565.56	65535.00
565.72	65535.00
565.88	65535.00
566.05	65535.00
566.21	65535.00
566.38	65535.00
566.54	65535.00
566.70	65535.00
566.87	65535.00
567.03	65535.00
567.19	65535.00
567.36	65535.00
567.52	65535.00
567.68	65535.00
567.85	65535.00
568.01	65535.00
568.17	65535.00
568.34	65535.00
568.50	65535.00
568.66	65535.00
568.83	65535.00
568.99	65535.00
569.15	65535.00
569.32	65535.00
569.48	65535.00
569.64	65535.00
569.81	65535.00
569.97	65535.00
570.13	65535.00
570.30	65535.00
570.46	65535.00
570.62	65535.00
570.78	65535.00
570.95	65535.00
571.11	65535.00
571.27	65535.00
571.43	65535.00
571.60	65535.00
571.76	65535.00
571.92	65535.00
572.09	65535.00
572.25	65535.00
572.41	65535.00
572.57	65535.00
572.74	65535.00
572.90	65535.00
573.06	65535.00
573.22	65535.00
573.38	65535.00
573.55	65535.00
573.71	65535.00
573.87	65535.00
574.03	65535.00
574.20	65535.00
574.36	65535.00
574.52	65535.00
574.68	65535.00
574.84	65535.00
575.01	65535.00
575.17	65535.00
575.33	65535.00
575.49	65535.00
575.65	65535.00
575.82	65535.00
575.98	65535.00
576.14	65535.00
576.30	65535.00
576.46	65535.00
576.62	65535.00
576.79	65535.00
576.95	65535.00
577.11	65535.00
577.27	65535.00
577.43	65535.00
577.59	65535.00
577.75	65535.00
577.92	65535.00
578.08	65535.00
578.24	65535.00
578.40	65535.00
578.56	65535.00
578.72	65535.00
578.88	65535.00
579.04	65535.00
579.21	65535.00
579.37	65535.00
579.53	65535.00
579.69	65535.00
579.85	65535.00
580.01	65535.00
580.17	65535.00
580.33	65535.00
580.49	65535.00
580.65	65535.00
580.82	65535.00
580.98	65535.00
581.14	65535.00
581.30	65535.00
581.46	65535.00
581.62	65535.00
581.78	65535.00
581.94	65535.00
582.10	65535.00
582.26	65535.00
582.42	65535.00
582.58	65535.00
582.74	65535.00
582.90	65535.00
583.06	65535.00
583.22	65535.00
583.38	65535.00
583.54	65535.00
583.70	65535.00
583.86	65535.00
584.02	65535.00
584.18	65535.00
584.34	65535.00
584.50	65535.00
584.66	65535.00
584.82	65535.00
584.98	65535.00
585.14	65535.00
585.30	65535.00
585.46	65535.00
585.62	65535.00
585.78	65535.00
585.94	65535.00
586.10	65535.00
586.26	65535.00
586.42	65535.00
586.58	65535.00
586.74	65535.00
586.90	65535.00
587.06	65535.00
587.22	65535.00
587.38	65535.00
587.54	65535.00
587.70	65535.00
587.86	65535.00
588.02	65535.00
