SpectraSuite Data File
++++++++++++++++++++++++++++++++++++
Date: Fri Oct 04 11:48:38 GMT-05:00 2013
User: price-jones
Dark Spectrum Present: No
Reference Spectrum Present: No
Number of Sampled Component Spectra: 1
Spectrometers: USB2+H05261
Integration Time (usec): 100000 (USB2+H05261)
Spectra Averaged: 1 (USB2+H05261)
Boxcar Smoothing: 0 (USB2+H05261)
Correct for Electrical Dark: No (USB2+H05261)
Strobe/Lamp Enabled: No (USB2+H05261)
Correct for Detector Non-linearity: No (USB2+H05261)
Correct for Stray Light: No (USB2+H05261)
Number of Pixels in Processed Spectrum: 2048
>>>>>Begin Processed Spectral Data<<<<<
365.73	23.41
365.92	23.41
366.12	23.41
366.32	0.00
366.52	0.00
366.72	2.34
366.91	0.00
367.11	0.00
367.31	0.00
367.51	0.00
367.70	0.00
367.90	0.00
368.10	0.00
368.30	0.00
368.49	0.00
368.69	0.00
368.89	0.00
369.09	0.00
369.28	0.00
369.48	0.00
369.68	0.00
369.87	0.00
370.07	0.00
370.27	32.77
370.47	18.72
370.66	67.88
370.86	140.43
371.06	28.09
371.25	222.35
371.45	222.35
371.65	180.22
371.84	107.66
372.04	175.54
372.24	173.20
372.44	215.33
372.63	133.41
372.83	149.79
373.03	163.84
373.22	173.20
373.42	227.03
373.62	166.18
373.81	294.91
374.01	266.82
374.21	271.50
374.40	220.01
374.60	299.59
374.79	266.82
374.99	297.25
375.19	241.08
375.38	217.67
375.58	215.33
375.78	238.73
375.97	292.57
376.17	278.52
376.37	161.50
376.56	177.88
376.76	203.63
376.95	210.65
377.15	229.37
377.35	191.92
377.54	231.71
377.74	227.03
377.93	208.31
378.13	203.63
378.33	231.71
378.52	262.14
378.72	248.10
378.91	257.46
379.11	227.03
379.31	264.48
379.50	311.29
379.70	259.80
379.89	280.86
380.09	238.73
380.28	252.78
380.48	184.90
380.68	215.33
380.87	145.11
381.07	285.55
381.26	297.25
381.46	252.78
381.65	241.08
381.85	252.78
382.04	262.14
382.24	236.39
382.43	243.42
382.63	259.80
382.83	304.27
383.02	301.93
383.22	262.14
383.41	287.89
383.61	290.23
383.80	290.23
384.00	215.33
384.19	262.14
384.39	322.99
384.58	313.63
384.78	315.97
384.97	304.27
385.17	212.99
385.36	280.86
385.56	280.86
385.75	287.89
385.95	243.42
386.14	369.80
386.34	301.93
386.53	313.63
386.72	325.33
386.92	318.31
387.11	280.86
387.31	330.02
387.50	372.15
387.70	339.38
387.89	301.93
388.09	330.02
388.28	294.91
388.48	306.61
388.67	337.04
388.86	327.68
389.06	362.78
389.25	372.15
389.45	404.91
389.64	304.27
389.84	365.12
390.03	386.19
390.22	332.36
390.42	365.12
390.61	444.70
390.81	332.36
391.00	463.43
391.19	451.72
391.39	407.25
391.58	416.62
391.78	353.42
391.97	489.17
392.16	339.38
392.36	425.98
392.55	447.04
392.75	425.98
392.94	433.00
393.13	442.36
393.33	393.21
393.52	491.51
393.71	447.04
393.91	493.85
394.10	428.32
394.29	475.13
394.49	390.87
394.68	528.96
394.88	491.51
395.07	482.15
395.26	531.30
395.46	470.45
395.65	592.16
395.84	514.92
396.04	664.71
396.23	512.58
396.42	566.41
396.62	561.73
396.81	489.17
397.00	557.05
397.19	540.66
397.39	526.62
397.58	578.11
397.77	521.94
397.97	610.88
398.16	657.69
398.35	559.39
398.55	519.60
398.74	545.34
398.93	578.11
399.12	641.31
399.32	704.50
399.51	568.75
399.70	650.67
399.90	650.67
400.09	615.56
400.28	685.78
400.47	550.03
400.67	758.33
400.86	653.01
401.05	706.84
401.24	732.59
401.44	720.88
401.63	748.97
401.82	788.76
402.01	704.50
402.21	765.36
402.40	837.91
402.59	718.54
402.78	741.95
402.97	706.84
403.17	734.93
403.36	891.74
403.55	751.31
403.74	781.74
403.93	814.51
404.13	873.02
404.32	896.43
404.51	891.74
404.70	870.68
404.89	873.02
405.09	954.94
405.28	959.62
405.47	957.28
405.66	919.83
405.85	901.11
406.05	898.77
406.24	985.37
406.43	990.05
406.62	957.28
406.81	1043.88
407.00	1060.26
407.20	1006.43
407.39	940.90
407.58	976.00
407.77	1121.12
407.96	1128.14
408.15	1081.33
408.34	1231.12
408.54	1174.95
408.73	1210.06
408.92	1252.19
409.11	1341.13
409.30	1273.25
409.49	1277.93
409.68	1191.33
409.87	1186.65
410.07	1252.19
410.26	1329.42
410.45	1214.74
410.64	1378.58
410.83	1235.80
411.02	1359.85
411.21	1348.15
411.40	1486.24
411.59	1320.06
411.78	1390.28
411.98	1439.43
412.17	1387.94
412.36	1420.71
412.55	1488.58
412.74	1451.13
412.93	1647.74
413.12	1488.58
413.31	1558.80
413.50	1629.01
413.69	1603.27
413.88	1565.82
414.07	1579.86
414.26	1645.40
414.45	1544.75
414.64	1741.36
414.83	1746.04
415.02	1755.40
415.22	1680.50
415.41	1886.47
415.60	1746.04
415.79	1806.89
415.98	1842.00
416.17	1804.55
416.36	1842.00
416.55	1844.34
416.74	1898.17
416.93	1881.79
417.12	1968.39
417.31	1952.01
417.50	1928.60
417.69	1921.58
417.88	2024.56
418.07	1956.69
418.26	1907.54
418.45	2050.31
418.64	2148.61
418.83	2038.61
419.02	2040.95
419.21	2169.68
419.39	2139.25
419.58	2183.72
419.77	2155.63
419.96	2071.37
420.15	2186.06
420.34	2085.42
420.53	2062.01
420.72	2209.47
420.91	2282.02
421.10	2263.30
421.29	2352.24
421.48	2275.00
421.67	2307.77
421.86	2244.57
422.05	2289.04
422.24	2422.45
422.43	2438.84
422.61	2267.98
422.80	2401.39
422.99	2319.47
423.18	2422.45
423.37	2375.64
423.56	2307.77
423.75	2370.96
423.94	2387.35
424.13	2307.77
424.32	2303.09
424.50	2403.73
424.69	2443.52
424.88	2448.20
425.07	2340.54
425.26	2370.96
425.45	2478.63
425.64	2382.67
425.83	2401.39
426.01	2471.61
426.20	2490.33
426.39	2504.37
426.58	2443.52
426.77	2523.10
426.96	2424.80
427.15	2553.52
427.33	2478.63
427.52	2548.84
427.71	2525.44
427.90	2541.82
428.09	2469.27
428.28	2590.97
428.46	2574.59
428.65	2492.67
428.84	2590.97
429.03	2642.46
429.22	2459.90
429.40	2658.85
429.59	2612.04
429.78	2665.87
429.97	2565.23
430.16	2626.08
430.34	2792.26
430.53	2729.06
430.72	2640.12
430.91	2703.32
431.10	2614.38
431.28	2705.66
431.47	2827.37
431.66	2752.47
431.85	2665.87
432.03	2862.48
432.22	2888.22
432.41	2839.07
432.60	2860.13
432.79	2834.39
432.97	2953.76
433.16	2766.51
433.35	2820.35
433.54	2871.84
433.72	2883.54
433.91	2883.54
434.10	2913.97
434.28	2829.71
434.47	2897.58
434.66	2977.16
434.85	2949.08
435.03	3052.06
435.22	2911.63
435.41	3211.22
435.59	3091.85
435.78	3157.38
435.97	3108.23
436.16	3047.38
436.34	3052.06
436.53	3145.68
436.72	3215.90
436.90	3075.46
437.09	3281.43
437.28	3197.17
437.46	3192.49
437.65	3208.87
437.84	3187.81
438.02	3323.56
438.21	3281.43
438.40	3215.90
438.58	3405.48
438.77	3461.65
438.96	3311.86
439.14	3435.91
439.33	3449.95
439.52	3592.72
439.70	3449.95
439.89	3482.72
440.08	3531.87
440.26	3616.13
440.45	3543.57
440.63	3597.40
440.82	3651.24
441.01	3576.34
441.19	3672.30
441.38	3674.64
441.57	3779.97
441.75	3758.90
441.94	3969.55
442.12	3819.75
442.31	3880.61
442.50	3786.99
442.68	3803.37
442.87	3925.08
443.05	3812.73
443.24	4067.85
443.43	3978.91
443.61	3915.72
443.80	3990.61
443.98	3901.67
444.17	3817.41
444.35	4046.79
444.54	4180.20
444.73	4023.38
444.91	4011.68
445.10	3932.10
445.28	3953.16
445.47	3868.91
445.65	3920.40
445.84	3995.29
446.02	3992.95
446.21	3918.06
446.39	4067.85
446.58	4032.74
446.77	4051.47
446.95	4025.72
447.14	4112.32
447.32	4135.73
447.51	4133.39
447.69	3983.59
447.88	4079.55
448.06	4081.89
448.25	4124.02
448.43	4243.39
448.62	4198.92
448.80	4109.98
448.99	4227.01
449.17	4369.78
449.36	4140.41
449.54	4400.21
449.73	4294.88
449.91	4276.16
450.10	4332.33
450.28	4372.12
450.46	4308.93
450.65	4315.95
450.83	4304.25
451.02	4449.36
451.20	4346.37
451.39	4386.16
451.57	4517.23
451.76	4386.16
451.94	4461.06
452.13	4678.73
452.31	4538.30
452.49	4365.10
452.68	4561.70
452.86	4528.94
453.05	4631.92
453.23	4629.58
453.42	4585.11
453.60	4545.32
453.78	4601.49
453.97	4589.79
454.15	4484.47
454.34	4613.20
454.52	4688.09
454.70	4585.11
454.89	4681.07
455.07	4683.41
455.26	4702.14
455.44	4943.21
455.62	4798.10
455.81	4758.31
455.99	4835.55
456.17	4926.83
456.36	4961.94
456.54	4854.27
456.73	4952.57
456.91	4833.21
457.09	5041.51
457.28	5085.98
457.46	5029.81
457.64	5095.35
457.83	4865.97
458.01	4919.81
458.19	5050.88
458.38	4980.66
458.56	5107.05
458.74	5149.18
458.93	5048.54
459.11	5137.48
459.29	5078.96
459.48	5177.26
459.66	5188.97
459.84	5195.99
460.03	5348.12
460.21	5380.89
460.39	5366.85
460.57	5256.84
460.76	5287.27
460.94	5416.00
461.12	5219.39
461.31	5298.97
461.49	5397.28
461.67	5331.74
461.85	5502.60
462.04	5411.32
462.22	5846.66
462.40	5476.85
462.59	5474.51
462.77	5441.75
462.95	5387.91
463.13	5462.81
463.32	5600.90
463.50	5535.37
463.68	5542.39
463.86	5556.43
464.05	5554.09
464.23	5334.08
464.41	5628.99
464.59	5675.80
464.78	5643.03
464.96	5640.69
465.14	5636.01
465.32	5816.23
465.50	5863.04
465.69	5720.27
465.87	5788.14
466.05	5668.78
466.23	5621.97
466.41	5909.85
466.60	5884.11
466.78	5902.83
466.96	5757.72
467.14	5788.14
467.32	5975.39
467.51	5912.19
467.69	5703.89
467.87	5898.15
468.05	5935.60
468.23	5792.83
468.41	6059.65
468.60	6139.23
468.78	5980.07
468.96	5926.24
469.14	5961.34
469.32	6183.70
469.50	5947.30
469.69	6326.47
469.87	6225.82
470.05	6139.23
470.23	6242.21
470.41	6267.95
470.59	6153.27
470.77	6115.82
470.95	6338.17
471.14	6389.66
471.32	6193.06
471.50	6436.47
471.68	6483.28
471.86	6450.52
472.04	6375.62
472.22	6420.09
472.40	6558.18
472.58	6476.26
472.77	6476.26
472.95	6719.68
473.13	6775.85
473.31	6684.57
473.49	6698.61
473.67	6803.94
473.85	6850.75
474.03	6633.08
474.21	6761.81
474.39	7089.48
474.57	6792.23
474.75	6942.03
474.93	7094.16
475.12	6960.75
475.30	7054.37
475.48	7169.06
475.66	7103.53
475.84	7173.74
476.02	7258.00
476.20	7426.52
476.38	7293.11
476.56	7424.18
476.74	7478.01
476.92	7370.35
477.10	7494.40
477.28	7557.59
477.46	7543.55
477.64	7405.46
477.82	7695.68
478.00	7892.29
478.18	8016.33
478.36	7920.37
478.54	7882.92
478.72	8023.36
478.90	8210.60
479.08	8306.56
479.26	8348.69
479.44	8266.77
479.62	8053.78
479.80	8177.83
479.98	8362.73
480.16	8575.72
480.34	8702.11
480.52	8755.94
480.70	8718.50
480.88	8622.53
481.06	8734.88
481.24	8898.72
481.41	9048.51
481.59	9139.79
481.77	9020.42
481.95	9188.94
482.13	9261.50
482.31	9071.92
482.49	9322.35
482.67	9448.74
482.85	9533.00
483.03	9589.17
483.21	9717.90
483.39	9586.83
483.57	9778.76
483.74	10001.11
483.92	9865.36
484.10	9781.10
484.28	10052.60
484.46	10111.11
484.64	10518.37
484.82	9963.66
485.00	10382.62
485.18	10520.71
485.35	10443.47
485.53	10782.85
485.71	10752.42
485.89	10558.16
486.07	10623.69
486.25	11026.26
486.43	10911.58
486.61	11112.86
486.78	11157.33
486.96	11047.33
487.14	11222.87
487.32	11384.37
487.50	11510.75
487.68	11611.40
487.85	11566.93
488.03	11833.75
488.21	11934.39
488.39	12042.06
488.57	12196.53
488.75	12109.93
488.92	12439.95
489.10	12322.92
489.28	12091.21
489.46	12489.10
489.64	12271.43
489.81	12718.47
489.99	12578.04
490.17	13088.28
490.35	13146.79
490.53	12994.65
490.70	13188.92
490.88	12999.34
491.06	13296.58
491.24	13085.94
491.41	13448.72
491.59	13439.36
491.77	13359.78
491.95	13579.79
492.13	13652.34
492.30	13984.70
492.48	13617.24
492.66	13942.57
492.84	14129.81
493.01	14286.63
493.19	14087.68
493.37	14216.41
493.54	14136.84
493.72	14551.11
493.90	14499.62
494.08	14518.34
494.25	14487.92
494.43	14761.76
494.61	14679.84
494.79	14848.36
494.96	14813.25
495.14	15108.16
495.32	15176.03
495.49	15344.55
495.67	15433.49
495.85	15417.11
496.02	15564.56
496.20	15625.42
496.38	15639.46
496.55	15765.85
496.73	15885.22
496.91	15742.44
497.09	15861.81
497.26	16243.32
497.44	15840.75
497.62	16126.29
497.79	16365.03
497.97	16107.57
498.14	16479.71
498.32	16348.64
498.50	16585.04
498.67	16442.26
498.85	16800.37
499.03	16760.58
499.20	16830.79
499.38	16886.97
499.56	16884.62
499.73	17294.22
499.91	17135.06
500.08	17425.29
500.26	17219.32
500.44	17277.83
500.61	17355.07
500.79	17422.95
500.97	17703.81
501.14	17703.81
501.32	17928.50
501.49	17745.94
501.67	17802.11
501.84	18204.69
502.02	18094.68
502.20	18160.22
502.37	18022.12
502.55	17987.02
502.72	17795.09
502.90	18347.46
503.07	18111.07
503.25	18373.21
503.43	18080.64
503.60	18326.39
503.78	18410.65
503.95	18546.40
504.13	18291.29
504.30	18604.92
504.48	18787.48
504.65	18927.91
504.83	18670.45
505.01	19119.84
505.18	18998.13
505.36	18930.25
505.53	19286.01
505.71	19185.37
505.88	19304.74
506.06	19274.31
506.23	19384.32
506.41	19389.00
506.58	19480.28
506.76	19482.62
506.93	19384.32
507.11	19225.16
507.28	19744.76
507.46	19623.05
507.63	19929.66
507.81	19917.96
507.98	19887.53
508.16	19896.89
508.33	20091.16
508.50	20006.90
508.68	20102.86
508.85	20315.85
509.03	20561.61
509.20	20617.78
509.38	20514.80
509.55	20524.16
509.73	20479.69
509.90	20561.61
510.08	20779.28
510.25	20603.74
510.42	20833.11
510.60	20823.75
510.77	20875.24
510.95	21186.53
511.12	21060.14
511.30	21135.04
511.47	21268.45
511.64	21179.51
511.82	21551.65
511.99	21418.24
512.17	21434.63
512.34	21584.42
512.51	21451.01
512.69	21558.67
512.86	21689.74
513.04	21792.73
513.21	21984.65
513.38	22169.55
513.56	21488.46
513.73	21521.23
513.90	22073.59
514.08	21610.17
514.25	21898.05
514.43	22361.48
514.60	22118.06
514.77	22324.03
514.95	22637.66
515.12	21991.67
515.29	22387.22
515.47	22572.13
515.64	22218.71
515.81	22494.89
515.99	22590.85
516.16	23005.13
516.33	22679.79
516.51	22757.03
516.68	22665.75
516.85	23051.94
517.03	22831.93
517.20	23084.70
517.37	23187.69
517.54	23173.64
517.72	23007.47
517.89	23129.17
518.06	23147.90
518.24	23414.72
518.41	23335.14
518.58	23438.12
518.75	23426.42
518.93	23475.57
519.10	23667.50
519.27	23812.61
519.45	23606.64
519.62	23601.96
519.79	23667.50
519.96	23470.89
520.14	23908.57
520.31	23843.04
520.48	23754.10
520.65	23756.44
520.83	24161.35
521.00	24025.60
521.17	23960.06
521.34	24077.09
521.52	24180.07
521.69	24306.46
521.86	24339.23
522.03	24582.65
522.20	24587.33
522.38	24575.62
522.55	24369.66
522.72	24446.90
522.89	24945.43
523.07	24790.95
523.24	24737.12
523.41	24854.15
523.58	24982.88
523.75	24645.84
523.92	24922.02
524.10	25008.62
524.27	25097.56
524.44	25067.14
524.61	25184.16
524.78	25219.27
524.96	25270.76
525.13	24765.21
525.30	25287.15
525.47	25298.85
525.64	25153.74
525.81	25331.62
525.98	25369.07
526.16	25514.18
526.33	25380.77
526.50	25631.21
526.67	25757.60
526.84	25450.99
527.01	25369.07
527.18	25415.88
527.36	25645.25
527.53	25586.74
527.70	26115.70
527.87	26218.68
528.04	25926.11
528.21	26029.10
528.38	25809.09
528.55	26246.77
528.72	26113.36
528.89	25998.67
529.07	26286.56
529.24	25989.31
529.41	26181.23
529.58	26181.23
529.75	26176.55
529.92	26150.81
530.09	26195.28
530.26	26567.42
530.43	26492.52
530.60	26401.24
530.77	26328.69
530.94	26888.07
531.11	26518.27
531.28	26494.86
531.46	26373.16
531.63	26632.96
531.80	27229.79
531.97	27026.17
532.14	26941.91
532.31	26932.54
532.48	27239.15
532.65	27126.81
532.82	26864.67
532.99	26761.69
533.16	27129.15
533.33	26977.01
533.50	27461.51
533.67	27138.51
533.84	27087.02
534.01	26906.80
534.18	27077.66
534.35	26951.27
534.52	27185.32
534.69	27253.20
534.86	27529.38
535.03	27302.35
535.20	27552.79
535.37	27234.47
535.54	27709.60
535.71	27309.37
535.88	27826.63
536.05	27585.55
536.22	27414.69
536.38	27866.42
536.55	27765.78
536.72	28166.01
536.89	27733.01
537.06	27733.01
537.23	27931.95
537.40	27637.05
537.57	27487.25
537.74	27833.65
537.91	28002.17
538.08	28077.07
538.25	27878.12
538.42	28205.80
538.59	27934.29
538.75	27967.06
538.92	27637.05
539.09	28428.15
539.26	27857.06
539.43	28278.35
539.60	28601.35
539.77	27938.97
539.94	28355.59
540.11	28444.53
540.28	28641.14
540.44	27990.47
540.61	28294.74
540.78	28217.50
540.95	28568.58
541.12	28430.49
541.29	28533.47
541.46	28643.48
541.62	28694.97
541.79	28013.87
541.96	28395.38
542.13	28453.89
542.30	28713.69
542.47	28804.97
542.63	29034.35
542.80	29017.96
542.97	28978.17
543.14	28856.46
543.31	28767.52
543.48	28945.41
543.64	29460.32
543.81	29455.64
543.98	29319.89
544.15	29134.99
544.32	29022.64
544.48	29450.96
544.65	29041.37
544.82	29427.56
544.99	28627.09
545.16	29324.57
545.32	29247.33
545.49	29675.65
545.66	29898.00
545.83	29479.05
546.00	29457.98
546.16	29404.15
546.33	28980.51
546.50	28975.83
546.67	29481.39
546.83	29474.37
547.00	29694.38
547.17	29820.77
547.34	29652.25
547.50	30171.85
547.67	30012.69
547.84	29855.87
548.00	29804.38
548.17	29640.54
548.34	29708.42
548.51	29851.19
548.67	29919.07
548.84	29947.15
549.01	29883.96
549.18	30167.16
549.34	29710.76
549.51	29956.52
549.68	29757.57
549.84	30228.02
550.01	30146.10
550.18	30209.29
550.34	30008.01
550.51	30103.97
550.68	30293.55
550.84	29649.91
551.01	30658.68
551.18	30054.82
551.34	30277.17
551.51	30307.60
551.68	30274.83
551.84	30494.84
552.01	30192.91
552.18	30143.76
552.34	30134.40
552.51	30930.18
552.68	30382.49
552.84	30515.90
553.01	30857.62
553.18	30462.07
553.34	30663.36
553.51	30501.86
553.67	30646.97
553.84	30958.27
554.01	30433.99
554.17	30841.24
554.34	30469.09
554.51	30693.79
554.67	30909.11
554.84	30906.77
555.00	30742.94
555.17	30679.74
555.33	30579.10
555.50	30754.64
555.67	30445.69
555.83	30515.90
556.00	30623.57
556.16	30899.75
556.33	31131.47
556.50	31030.82
556.66	30543.99
556.83	30993.37
556.99	31377.22
557.16	31459.14
557.32	31098.70
557.49	31077.63
557.65	30558.03
557.82	30962.95
557.98	30817.83
558.15	31274.24
558.32	31061.25
558.48	31002.74
558.65	31288.28
558.81	31213.38
558.98	31044.87
559.14	31257.85
559.31	31108.06
559.47	30895.07
559.64	31056.57
559.80	31344.45
559.97	31197.00
560.13	31189.98
560.30	31091.68
560.46	31304.67
560.63	31122.10
560.79	30939.54
560.96	31220.41
561.12	31119.76
561.29	31021.46
561.45	31426.37
561.61	31276.58
561.78	31527.02
561.94	31377.22
562.11	31185.30
562.27	30827.20
562.44	30925.50
562.60	30995.71
562.77	31246.15
562.93	31206.36
563.10	31215.72
563.26	31288.28
563.42	31615.96
563.59	31646.38
563.75	31393.61
563.92	31077.63
564.08	31267.22
564.24	31337.43
564.41	31342.11
564.57	31094.02
564.74	31412.33
564.90	31129.12
565.07	31042.53
565.23	31747.03
565.39	31611.28
565.56	31927.25
565.72	31398.29
565.88	31384.24
566.05	31026.14
566.21	31154.87
566.38	31339.77
566.54	31358.50
566.70	31620.64
566.87	31814.90
567.03	31496.59
567.19	31910.86
567.36	31512.97
567.52	31585.53
567.68	31601.91
567.85	31269.56
568.01	31412.33
568.17	31648.72
568.34	31402.97
568.50	31587.87
568.66	31356.16
568.83	31695.53
568.99	31206.36
569.15	31438.08
569.32	31236.79
569.48	31449.78
569.64	31707.24
569.81	31171.25
569.97	31842.99
570.13	31850.01
570.30	31440.42
570.46	31688.51
570.62	31548.08
570.78	31126.78
570.95	31370.20
571.11	31477.86
571.27	31255.51
571.43	31414.67
571.60	31765.75
571.76	31414.67
571.92	31573.83
572.09	31714.26
572.25	31665.11
572.41	31484.89
572.57	31459.14
572.74	31655.75
572.90	31445.10
573.06	31599.57
573.22	31559.78
573.38	31779.79
573.55	31728.30
573.71	31985.76
573.87	31641.70
574.03	31522.34
574.20	31857.03
574.36	31442.76
574.52	31679.15
574.68	31599.57
574.84	31662.77
575.01	31835.97
575.17	31777.45
575.33	31910.86
575.49	31728.30
575.65	31915.54
575.82	32060.66
575.98	31620.64
576.14	31264.88
576.30	31697.88
576.46	31765.75
576.62	31613.62
576.79	31934.27
576.95	31878.10
577.11	31805.54
577.27	31585.53
577.43	31564.46
577.59	32034.91
577.75	31512.97
577.92	31405.31
578.08	31803.20
578.24	31807.88
578.40	31627.66
578.56	31456.80
578.72	31400.63
578.88	31824.26
579.04	31875.76
579.21	31461.48
579.37	32095.77
579.53	32229.18
579.69	31655.75
579.85	31407.65
580.01	31817.24
580.17	31637.02
580.33	31501.27
580.49	31938.95
580.65	31737.66
580.82	32081.72
580.98	31915.54
581.14	31519.99
581.30	31803.20
581.46	31735.32
581.62	31606.59
581.78	31545.74
581.94	31697.88
582.10	31428.71
582.26	31835.97
582.42	31711.92
582.58	32055.98
582.74	31819.58
582.90	31742.35
583.06	31992.78
583.22	31550.42
583.38	31622.98
583.54	31835.97
583.70	31920.23
583.86	32023.21
584.02	31559.78
584.18	31817.24
584.34	32011.51
584.50	31831.29
584.66	31679.15
584.82	31606.59
584.98	32079.38
585.14	31686.17
585.30	31763.41
585.46	31786.82
585.62	31723.62
585.78	31641.70
585.94	31510.63
586.10	31852.35
586.26	31917.89
586.42	32006.83
586.58	31777.45
586.74	31718.94
586.90	31662.77
587.06	31653.40
587.22	31772.77
587.38	31962.36
587.54	31854.69
587.70	31721.28
587.86	31906.18
588.02	31840.65
588.18	31681.49
588.34	31545.74
588.49	31658.09
588.65	31807.88
588.81	31800.86
588.97	31906.18
589.13	31810.22
589.29	31770.43
589.45	31990.44
589.61	31974.06
589.77	32301.73
589.93	32079.38
590.08	32268.97
590.24	31882.78
590.40	32165.98
590.56	31938.95
590.72	31920.23
590.88	31307.01
591.04	31732.98
591.20	32084.06
591.35	32479.61
591.51	32371.95
591.67	32280.67
