SpectraSuite Data File
++++++++++++++++++++++++++++++++++++
Date: Fri Oct 04 11:48:38 GMT-05:00 2013
User: price-jones
Dark Spectrum Present: No
Reference Spectrum Present: No
Number of Sampled Component Spectra: 1
Spectrometers: USB2+H05261
Integration Time (usec): 100000 (USB2+H05261)
Spectra Averaged: 1 (USB2+H05261)
Boxcar Smoothing: 0 (USB2+H05261)
Correct for Electrical Dark: No (USB2+H05261)
Strobe/Lamp Enabled: No (USB2+H05261)
Correct for Detector Non-linearity: No (USB2+H05261)
Correct for Stray Light: No (USB2+H05261)
Number of Pixels in Processed Spectrum: 2048
>>>>>Begin Processed Spectral Data<<<<<
365.73	86.60
365.92	86.60
366.12	86.60
366.32	0.00
366.52	0.00
366.72	0.00
366.91	0.00
367.11	0.00
367.31	0.00
367.51	0.00
367.70	0.00
367.90	0.00
368.10	0.00
368.30	0.00
368.49	0.00
368.69	25.75
368.89	0.00
369.09	0.00
369.28	0.00
369.48	0.00
369.68	0.00
369.87	0.00
370.07	0.00
370.27	67.88
370.47	124.05
370.66	533.64
370.86	407.25
371.06	433.00
371.25	493.85
371.45	514.92
371.65	594.50
371.84	571.09
372.04	468.11
372.24	615.56
372.44	636.63
372.63	641.31
372.83	716.20
373.03	727.91
373.22	681.10
373.42	695.14
373.62	683.44
373.81	702.16
374.01	753.65
374.21	641.31
374.40	688.12
374.60	711.52
374.79	746.63
374.99	713.86
375.19	777.06
375.38	793.44
375.58	751.31
375.78	720.88
375.97	753.65
376.17	861.32
376.37	774.72
376.56	770.04
376.76	744.29
376.95	760.67
377.15	725.57
377.35	858.98
377.54	884.72
377.74	901.11
377.93	819.19
378.13	767.70
378.33	866.00
378.52	861.32
378.72	835.57
378.91	877.70
379.11	858.98
379.31	856.64
379.50	854.30
379.70	830.89
379.89	968.98
380.09	863.66
380.28	809.83
380.48	926.85
380.68	894.08
380.87	976.00
381.07	997.07
381.26	961.96
381.46	901.11
381.65	978.34
381.85	915.15
382.04	978.34
382.24	1022.81
382.43	947.92
382.63	1036.86
382.83	1060.26
383.02	999.41
383.22	1086.01
383.41	1055.58
383.61	1114.10
383.80	1170.27
384.00	1006.43
384.19	1116.44
384.39	1046.22
384.58	1142.18
384.78	1135.16
384.97	1062.60
385.17	1076.65
385.36	1020.47
385.56	1027.50
385.75	1163.25
385.95	1221.76
386.14	1224.10
386.34	1081.33
386.53	1156.22
386.72	1163.25
386.92	1221.76
387.11	1217.08
387.31	1263.89
387.50	1200.69
387.70	1193.67
387.89	1210.06
388.09	1282.61
388.28	1203.04
388.48	1261.55
388.67	1315.38
388.86	1235.80
389.06	1320.06
389.25	1268.57
389.45	1350.49
389.64	1383.26
389.84	1380.92
390.03	1416.02
390.22	1343.47
390.42	1296.66
390.61	1404.32
390.81	1434.75
391.00	1437.09
391.19	1507.30
391.39	1434.75
391.58	1448.79
391.78	1350.49
391.97	1554.12
392.16	1521.35
392.36	1554.12
392.55	1448.79
392.75	1570.50
392.94	1551.78
393.13	1631.35
393.33	1490.92
393.52	1516.67
393.71	1589.22
393.91	1591.56
394.10	1621.99
394.29	1650.08
394.49	1636.03
394.68	1600.93
394.88	1708.59
395.07	1816.26
395.26	1743.70
395.46	1633.69
395.65	1809.23
395.84	1727.32
396.04	1760.08
396.23	1790.51
396.42	1755.40
396.62	1818.60
396.81	1823.28
397.00	1816.26
397.19	1912.22
397.39	1900.52
397.58	1900.52
397.77	1877.11
397.97	1987.11
398.16	1842.00
398.35	1949.67
398.55	2017.54
398.74	1996.48
398.93	2054.99
399.12	1963.71
399.32	1832.64
399.51	2003.50
399.70	2064.35
399.90	2078.40
400.09	2249.25
400.28	2062.01
400.47	2078.40
400.67	2230.53
400.86	2204.78
401.05	2155.63
401.24	2218.83
401.44	2296.07
401.63	2150.95
401.82	2373.30
402.01	2263.30
402.21	2303.09
402.40	2242.23
402.59	2347.56
402.78	2356.92
402.97	2345.22
403.17	2331.17
403.36	2394.37
403.55	2459.90
403.74	2431.82
403.93	2448.20
404.13	2534.80
404.32	2572.25
404.51	2466.92
404.70	2572.25
404.89	2665.87
405.09	2541.82
405.28	2509.05
405.47	2616.72
405.66	2640.12
405.85	2766.51
406.05	2686.94
406.24	2740.77
406.43	2951.42
406.62	2766.51
406.81	2953.76
407.00	2738.43
407.20	2801.62
407.39	2860.13
407.58	2960.78
407.77	3082.49
407.96	3075.46
408.15	2998.23
408.34	3124.62
408.54	3084.83
408.73	3047.38
408.92	3028.65
409.11	3068.44
409.30	3194.83
409.49	3124.62
409.68	3141.00
409.87	3239.30
410.07	3295.47
410.26	3311.86
410.45	3295.47
410.64	3356.33
410.83	3375.05
411.02	3286.11
411.21	3314.20
411.40	3471.01
411.59	3475.70
411.78	3463.99
411.98	3454.63
412.17	3609.11
412.36	3590.38
412.55	3590.38
412.74	3822.09
412.93	3782.31
413.12	3765.92
413.31	3990.61
413.50	3829.12
413.69	3794.01
413.88	4016.36
414.07	3925.08
414.26	3850.18
414.45	4046.79
414.64	4044.45
414.83	4196.58
415.02	4035.08
415.22	4294.88
415.41	4346.37
415.60	4283.18
415.79	4245.73
415.98	4388.50
416.17	4395.53
416.36	4402.55
416.55	4517.23
416.74	4390.84
416.93	4383.82
417.12	4645.96
417.31	4592.13
417.50	4580.43
417.69	4774.69
417.88	4704.48
418.07	4784.06
418.26	4816.82
418.45	4863.63
418.64	4865.97
418.83	4959.60
419.02	4929.17
419.21	5015.77
419.39	4943.21
419.58	4919.81
419.77	4997.04
419.96	5123.43
420.15	5198.33
420.34	5067.26
420.53	5057.90
420.72	5205.35
420.91	5195.99
421.10	5212.37
421.29	5420.68
421.48	5210.03
421.67	5338.76
421.86	5287.27
422.05	5387.91
422.24	5352.81
422.43	5313.02
422.61	5420.68
422.80	5481.53
422.99	5446.43
423.18	5549.41
423.37	5514.30
423.56	5570.48
423.75	5427.70
423.94	5357.49
424.13	5158.54
424.32	5280.25
424.50	5479.19
424.69	5640.69
424.88	5614.95
425.07	5366.85
425.26	5451.11
425.45	5535.37
425.64	5465.15
425.83	5540.05
426.01	5554.09
426.20	5497.92
426.39	5612.60
426.58	5743.67
426.77	5834.96
426.96	5650.05
427.15	5692.18
427.33	5806.87
427.52	5891.13
427.71	5820.91
427.90	5804.53
428.09	5977.73
428.28	5987.09
428.46	5860.70
428.65	6038.58
428.84	6132.20
429.03	6029.22
429.22	5930.92
429.40	6218.80
429.59	6228.17
429.78	5881.77
429.97	5940.28
430.16	5954.32
430.34	6190.72
430.53	6338.17
430.72	6387.32
430.91	6272.64
431.10	6193.06
431.28	6300.72
431.47	6382.64
431.66	6532.44
431.85	6469.24
432.03	6853.09
432.22	6757.13
432.41	6520.73
432.60	6771.17
432.79	6750.10
432.97	6642.44
433.16	6782.87
433.35	6546.48
433.54	6668.19
433.72	6724.36
433.91	6693.93
434.10	6677.55
434.28	6892.88
434.47	6942.03
434.66	6869.47
434.85	7059.06
435.03	6939.69
435.22	7040.33
435.41	7412.48
435.59	7023.95
435.78	7138.63
435.97	7330.56
436.16	7283.75
436.34	7262.68
436.53	7323.54
436.72	7382.05
436.90	7262.68
437.09	7449.93
437.28	7255.66
437.46	7447.58
437.65	7588.02
437.84	7606.74
438.02	7506.10
438.21	7557.59
438.40	7639.51
438.58	7903.99
438.77	7852.50
438.96	7922.71
439.14	7915.69
439.33	8168.47
439.52	7995.27
439.70	8035.06
439.89	8292.52
440.08	8311.24
440.26	8252.73
440.45	8257.41
440.63	8374.44
440.82	8421.25
441.01	8407.20
441.19	8592.11
441.38	8674.03
441.57	8695.09
441.75	8723.18
441.94	9046.17
442.12	9015.74
442.31	8990.00
442.50	9067.24
442.68	8870.63
442.87	9097.66
443.05	9273.20
443.24	9371.50
443.43	9298.95
443.61	9324.69
443.80	9418.32
443.98	9137.45
444.17	8940.85
444.35	9289.59
444.54	9266.18
444.73	9411.29
444.91	9362.14
445.10	9303.63
445.28	9458.10
445.47	9308.31
445.65	9378.53
445.84	9373.85
446.02	9324.69
446.21	9542.36
446.39	9329.38
446.58	9647.69
446.77	9643.01
446.95	9287.25
447.14	9797.48
447.32	9640.67
447.51	9479.17
447.69	9605.56
447.88	9820.89
448.06	9563.43
448.25	9563.43
448.43	9778.76
448.62	9671.09
448.80	9703.86
448.99	9776.42
449.17	10052.60
449.36	9659.39
449.54	10040.90
449.73	9863.02
449.91	10097.07
450.10	10127.50
450.28	9996.43
450.46	10214.10
450.65	10153.24
450.83	10008.13
451.02	10078.35
451.20	10340.49
451.39	10527.73
451.57	10436.45
451.76	10066.64
451.94	10258.57
452.13	10375.59
452.31	10289.00
452.49	10183.67
452.68	10403.68
452.86	10511.35
453.05	10712.63
453.23	10731.36
453.42	10492.62
453.60	10785.19
453.78	10899.87
453.97	10480.92
454.15	10600.29
454.34	10551.14
454.52	10885.83
454.70	10799.23
454.89	11012.22
455.07	10939.66
455.26	11070.73
455.44	11131.59
455.62	11140.95
455.81	11136.27
455.99	11218.19
456.17	11487.35
456.36	11274.36
456.54	11470.97
456.73	11524.80
456.91	11988.22
457.09	11587.99
457.28	11775.24
457.46	11707.36
457.64	11810.34
457.83	11957.80
458.01	11700.34
458.19	12013.97
458.38	11957.80
458.56	12126.32
458.74	12241.00
458.93	12208.23
459.11	11992.90
459.29	12142.70
459.48	12280.79
459.66	12175.47
459.84	12416.54
460.03	12259.73
460.21	12432.93
460.39	12383.77
460.57	12372.07
460.76	12453.99
460.94	12945.50
461.12	12414.20
461.31	12524.21
461.49	12407.18
461.67	12437.61
461.85	12870.61
462.04	12828.48
462.22	13252.11
462.40	12982.95
462.59	12912.74
462.77	13163.17
462.95	13224.03
463.13	13224.03
463.32	13247.43
463.50	13228.71
463.68	13308.29
463.86	13057.85
464.05	13233.39
464.23	13282.54
464.41	13680.43
464.59	13259.13
464.78	13549.36
464.96	13268.50
465.14	13600.85
465.32	13678.09
465.50	13605.53
465.69	13963.64
465.87	13504.89
466.05	13685.11
466.23	13748.31
466.41	13862.99
466.60	14167.26
466.78	13980.02
466.96	13788.10
467.14	13788.10
467.32	14057.26
467.51	14228.12
467.69	13673.41
467.87	13989.38
468.05	14319.40
468.23	14075.98
468.41	13886.40
468.60	14162.58
468.78	14630.69
468.96	14340.46
469.14	14443.45
469.32	14862.40
469.50	14054.92
469.69	14766.44
469.87	14712.61
470.05	14904.53
470.23	14850.70
470.41	14946.66
470.59	14806.23
470.77	14839.00
470.95	15215.82
471.14	15019.22
471.32	15129.22
471.50	15295.40
471.68	15424.13
471.86	15557.54
472.04	15620.74
472.22	15971.82
472.40	15358.60
472.58	15941.39
472.77	15932.03
472.95	16042.03
473.13	16177.78
473.31	16123.95
473.49	16105.23
473.67	16240.98
473.85	16051.39
474.03	16585.04
474.21	16353.32
474.39	16720.79
474.57	16837.81
474.75	16861.22
474.93	16889.31
475.12	16737.17
475.30	17029.74
475.48	17106.98
475.66	17319.96
475.84	17291.88
476.02	17764.67
476.20	17432.31
476.38	17811.48
476.56	18052.55
476.74	18190.64
476.92	17980.00
477.10	18073.62
477.28	18420.02
477.46	18394.27
477.64	18534.70
477.82	18860.04
478.00	19321.12
478.18	19328.14
478.36	19241.54
478.54	19543.47
478.72	19426.45
478.90	19826.68
479.08	19831.36
479.26	19822.00
479.44	19969.45
479.62	20166.06
479.80	20573.31
479.98	20379.04
480.16	20753.53
480.34	20606.08
480.52	20947.79
480.70	21338.66
480.88	20992.26
481.06	21102.27
481.24	21223.98
481.41	21301.22
481.59	21642.93
481.77	22377.86
481.95	22618.94
482.13	22602.55
482.31	22726.60
482.49	22979.38
482.67	22745.33
482.85	22984.06
483.03	23552.81
483.21	23908.57
483.39	23573.88
483.57	23606.64
483.74	24027.94
483.92	24383.70
484.10	24266.67
484.28	24840.11
484.46	25266.08
484.64	25584.40
484.82	25085.86
485.00	25212.25
485.18	25790.36
485.35	26103.99
485.53	25783.34
485.71	25970.58
485.89	26874.03
486.07	26679.77
486.25	26757.00
486.43	27098.72
486.61	27044.89
486.78	27452.14
486.96	27791.52
487.14	28325.16
487.32	27704.92
487.50	28542.83
487.68	28318.14
487.85	28746.46
488.03	29123.29
488.21	29153.71
488.39	29266.06
488.57	29488.41
488.75	29584.37
488.92	30174.19
489.10	30579.10
489.28	30518.25
489.46	31292.96
489.64	30480.80
489.81	31218.07
489.99	31765.75
490.17	32020.87
490.35	32154.28
490.53	32203.43
490.70	32606.00
490.88	32105.13
491.06	32795.59
491.24	32444.51
491.41	32720.69
491.59	33165.39
491.77	33212.20
491.95	33897.98
492.13	33617.11
492.30	34139.05
492.48	33963.51
492.66	34340.34
492.84	34199.91
493.01	34710.14
493.19	35232.08
493.37	35391.24
493.54	35566.78
493.72	35899.14
493.90	35882.75
494.08	36151.91
494.25	36416.40
494.43	36355.54
494.61	36795.56
494.79	37120.90
494.96	36807.26
495.14	37249.63
495.32	37467.30
495.49	37928.38
495.67	37787.95
495.85	38396.49
496.02	38799.06
496.20	38527.56
496.38	38595.43
496.55	38572.03
496.73	39555.05
496.91	39391.22
497.09	39585.48
497.26	40002.10
497.44	39819.53
497.62	39840.60
497.79	40179.98
497.97	40608.29
498.14	40814.26
498.32	41024.91
498.50	41457.91
498.67	41235.56
498.85	41317.48
499.03	41731.75
499.20	41773.88
499.38	41813.67
499.56	42239.65
499.73	42462.00
499.91	42466.68
500.08	42735.84
500.26	42443.27
500.44	42335.61
500.61	43012.02
500.79	42766.27
500.97	43430.98
501.14	43683.76
501.32	43672.06
501.49	43512.90
501.67	43452.05
501.84	44137.82
502.02	43976.33
502.20	44327.41
502.37	44708.91
502.55	44673.81
502.72	44683.17
502.90	44947.65
503.07	44870.41
503.25	44608.27
503.43	44884.45
503.60	45553.85
503.78	45469.59
503.95	45095.10
504.13	45495.33
504.30	45762.15
504.48	45427.46
504.65	46071.10
504.83	46541.55
505.01	46380.06
505.18	46256.01
505.36	46569.64
505.53	46815.40
505.71	46813.05
505.88	47072.85
506.06	46698.37
506.23	47346.70
506.41	47194.56
506.58	47363.08
506.76	47569.05
506.93	47510.53
507.11	47168.82
507.28	47997.37
507.46	47889.70
507.63	47826.51
507.81	48355.47
507.98	48114.39
508.16	48329.72
508.33	48151.84
508.50	48399.94
508.68	48669.10
508.85	49177.00
509.03	49001.46
509.20	49036.56
509.38	49514.03
509.55	49441.48
509.73	49279.98
509.90	49785.54
510.08	49631.06
510.25	49666.17
510.42	49961.08
510.60	49776.17
510.77	50412.80
510.95	50150.66
511.12	50286.41
511.30	50164.70
511.47	50396.42
511.64	50705.37
511.82	51091.55
511.99	50719.41
512.17	50967.51
512.34	50972.19
512.51	51168.79
512.69	51274.12
512.86	51372.42
513.04	51379.44
513.21	51709.46
513.38	51842.87
513.56	51789.03
513.73	51269.43
513.90	51887.34
514.08	51540.94
514.25	52130.75
514.43	52097.98
514.60	52273.52
514.77	52254.80
514.95	52308.63
515.12	52107.35
515.29	52229.05
515.47	52619.92
515.64	52566.09
515.81	52886.74
515.99	52954.62
516.16	53460.18
516.33	53059.94
516.51	53329.11
516.68	53073.99
516.85	53303.36
517.03	53118.46
517.20	53289.32
517.37	53588.91
517.54	53392.30
517.72	53188.67
517.89	53600.61
518.06	53771.47
518.24	53801.89
518.41	53420.39
518.58	53750.40
518.75	53939.99
518.93	53984.46
519.10	54089.78
519.27	54103.82
519.45	54141.27
519.62	54316.81
519.79	54176.38
519.96	54478.31
520.14	54714.70
520.31	54419.80
520.48	54674.91
520.65	54550.87
520.83	54773.22
521.00	54937.05
521.17	54710.02
521.34	54585.97
521.52	55168.77
521.69	55021.31
521.86	55213.24
522.03	55168.77
522.20	55299.84
522.38	55337.29
522.55	55323.24
522.72	55370.05
522.89	55643.90
523.07	55756.24
523.24	55667.30
523.41	55477.72
523.58	55440.27
523.75	55791.35
523.92	55763.26
524.10	55899.01
524.27	56011.36
524.44	55987.95
524.61	56217.33
524.78	56121.37
524.96	56062.85
525.13	56226.69
525.30	56357.76
525.47	56355.42
525.64	56165.84
525.81	56346.06
525.98	56589.47
526.16	56437.34
526.33	56385.85
526.50	56605.86
526.67	56413.93
526.84	56722.88
527.01	56788.42
527.18	56793.10
527.36	56889.06
527.53	57144.18
527.70	57102.05
527.87	57038.86
528.04	56914.81
528.21	57085.67
528.38	57261.21
528.55	57031.83
528.72	57380.57
528.89	57378.23
529.07	57148.86
529.24	57123.11
529.41	57366.53
529.58	57301.00
529.75	57338.44
529.92	57396.96
530.09	57581.86
530.26	57773.78
530.43	57801.87
530.60	57652.08
530.77	57579.52
530.94	57785.49
531.11	57766.76
531.28	57815.91
531.46	57757.40
531.63	57839.32
531.80	57832.30
531.97	58096.78
532.14	58003.16
532.31	58056.99
532.48	57942.30
532.65	58354.24
532.82	58176.36
532.99	58330.83
533.16	58164.65
533.33	58513.39
533.50	58401.05
533.67	58424.45
533.84	58204.44
534.01	58330.83
534.18	58150.61
534.35	58607.01
534.52	58436.16
534.69	58731.06
534.86	58637.44
535.03	58815.32
535.20	58707.66
535.37	58782.55
535.54	58698.30
535.71	58679.57
535.88	58827.02
536.05	58801.28
536.22	59025.97
536.38	58995.54
536.55	59054.06
536.72	59313.86
536.89	58969.80
537.06	59007.25
537.23	59281.09
537.40	58953.41
537.57	58958.09
537.74	59058.74
537.91	59430.88
538.08	59220.23
538.25	59234.28
538.42	59208.53
538.59	59367.69
538.75	59208.53
538.92	59374.71
539.09	59540.89
539.26	59421.52
539.43	59470.67
539.60	59793.67
539.77	59512.80
539.94	59784.30
540.11	59676.64
540.28	59625.15
540.44	59683.66
540.61	59512.80
540.78	59587.70
540.95	59756.22
541.12	59667.28
541.29	59690.68
541.46	59824.09
541.62	59805.37
541.79	59978.57
541.96	59552.59
542.13	59854.52
542.30	60030.06
542.47	59955.16
542.63	60126.02
542.80	60198.58
542.97	60411.57
543.14	60456.04
543.31	60383.48
543.48	60299.22
543.64	60596.47
543.81	60725.20
543.98	60575.40
544.15	60556.68
544.32	60575.40
544.48	60580.09
544.65	60561.36
544.82	60500.51
544.99	60547.32
545.16	60760.31
545.32	60570.72
545.49	60788.39
545.66	60987.34
545.83	60970.96
546.00	60893.72
546.16	60999.04
546.33	60624.56
546.50	60643.28
546.67	60830.52
546.83	60793.07
547.00	60985.00
547.17	60767.33
547.34	60870.31
547.50	61001.38
547.67	61153.52
547.84	61289.27
548.00	61029.47
548.17	61235.44
548.34	60963.93
548.51	61293.95
548.67	61340.76
548.84	61387.57
549.01	61350.12
549.18	61209.69
549.34	61167.56
549.51	61155.86
549.68	61312.67
549.84	61261.18
550.01	61535.02
550.18	61305.65
550.34	61488.21
550.51	61490.55
550.68	61396.93
550.84	61279.91
551.01	61553.75
551.18	61352.46
551.34	61359.48
551.51	61614.60
551.68	61773.76
551.84	61677.80
552.01	61642.69
552.18	61839.29
552.34	61563.11
552.51	61783.12
552.68	61825.25
552.84	61670.78
553.01	61778.44
553.18	61902.49
553.34	61752.69
553.51	61773.76
553.67	62024.20
553.84	62178.67
554.01	62368.26
554.17	62040.58
554.34	62014.83
554.51	61900.15
554.67	62089.73
554.84	61956.32
555.00	62169.31
555.17	61932.92
555.33	62129.52
555.50	62106.12
555.67	62047.60
555.83	62213.78
556.00	62178.67
556.16	62335.49
556.33	62251.23
556.50	62199.74
556.66	62405.70
556.83	62358.89
556.99	62602.31
557.16	62426.77
557.32	62328.47
557.49	62475.92
557.65	62232.50
557.82	62251.23
557.98	62511.03
558.15	62522.73
558.32	62609.33
558.48	62415.07
558.65	62550.82
558.81	62597.63
558.98	62560.18
559.14	62482.94
559.31	62564.86
559.47	62433.79
559.64	62677.21
559.80	62782.53
559.97	62581.24
560.13	62506.35
560.30	62562.52
560.46	62934.66
560.63	62740.40
560.79	62721.68
560.96	62801.25
561.12	62803.59
561.29	62817.64
561.45	62714.65
561.61	62796.57
561.78	62890.19
561.94	62922.96
562.11	62841.04
562.27	62852.75
562.44	62822.32
562.60	62623.37
562.77	62852.75
562.93	62740.40
563.10	62997.86
563.26	62883.17
563.42	63252.98
563.59	63213.19
563.75	62976.79
563.92	62866.79
564.08	62817.64
564.24	62798.91
564.41	62688.91
564.57	62876.15
564.74	62831.68
564.90	63009.56
565.07	63149.99
565.23	63161.70
565.39	62976.79
565.56	63091.48
565.72	63089.14
565.88	63138.29
566.05	63054.03
566.21	62941.69
566.38	63072.76
566.54	62990.84
566.70	63264.68
566.87	63252.98
567.03	63091.48
567.19	63491.71
567.36	63142.97
567.52	63082.12
567.68	63384.05
567.85	63131.27
568.01	63196.80
568.17	63255.32
568.34	63152.33
568.50	63079.78
568.66	63292.77
568.83	63316.17
568.99	63229.57
569.15	63192.12
569.32	63241.28
569.48	63313.83
569.64	63318.51
569.81	63238.93
569.97	63276.38
570.13	63358.30
570.30	63360.64
570.46	63501.07
570.62	63395.75
570.78	63187.44
570.95	63302.13
571.11	63201.49
571.27	63002.54
571.43	63281.06
571.60	63454.26
571.76	63414.47
571.92	63487.03
572.09	63590.01
572.25	63435.54
572.41	63433.20
572.57	63599.38
572.74	63599.38
572.90	63468.31
573.06	63358.30
573.22	63489.37
573.38	63440.22
573.55	63461.29
573.71	63505.76
573.87	63578.31
574.03	63475.33
574.20	63653.21
574.36	63468.31
574.52	63578.31
574.68	63515.12
574.84	63461.29
575.01	63615.76
575.17	63681.30
575.33	63594.70
575.49	63435.54
575.65	63714.06
575.82	63674.27
575.98	63484.69
576.14	63468.31
576.30	63585.33
576.46	63365.32
576.62	63519.80
576.79	63480.01
576.95	63430.86
577.11	63552.57
577.27	63620.44
577.43	63641.51
577.59	63662.57
577.75	63634.48
577.92	63489.37
578.08	63573.63
578.24	63547.89
578.40	63449.58
578.56	63711.72
578.72	63636.83
578.88	63866.20
579.04	63674.27
579.21	63744.49
579.37	63805.34
579.53	63746.83
579.69	63482.35
579.85	63725.77
580.01	63611.08
580.17	63526.82
580.33	63611.08
580.49	63693.00
580.65	63833.43
580.82	64041.74
580.98	63688.32
581.14	63924.71
581.30	63795.98
581.46	63625.12
581.62	63905.99
581.78	63639.17
581.94	63702.36
582.10	63575.97
582.26	63863.86
582.42	63700.02
582.58	63763.21
582.74	63760.87
582.90	63861.52
583.06	63756.19
583.22	63660.23
583.38	63826.41
583.54	63873.22
583.70	63810.03
583.86	63908.33
584.02	63622.78
584.18	63852.15
584.34	63859.18
584.50	63894.28
584.66	63636.83
584.82	63622.78
584.98	63774.92
585.14	63758.53
585.30	63721.08
585.46	63732.79
585.62	63987.91
585.78	63950.46
585.94	63774.92
586.10	63875.56
586.26	63831.09
586.42	63859.18
586.58	63917.69
586.74	63824.07
586.90	63875.56
587.06	63831.09
587.22	63856.84
587.38	63803.00
587.54	63934.07
587.70	64123.66
587.86	64034.72
588.02	63833.43
588.18	64090.89
588.34	63891.94
588.49	63945.78
