SpectraSuite Data File
++++++++++++++++++++++++++++++++++++
Date: Fri Oct 04 11:48:23 GMT-05:00 2013
User: price-jones
Dark Spectrum Present: No
Reference Spectrum Present: No
Number of Sampled Component Spectra: 1
Spectrometers: USB2+H05261
Integration Time (usec): 100000 (USB2+H05261)
Spectra Averaged: 1 (USB2+H05261)
Boxcar Smoothing: 0 (USB2+H05261)
Correct for Electrical Dark: No (USB2+H05261)
Strobe/Lamp Enabled: No (USB2+H05261)
Correct for Detector Non-linearity: No (USB2+H05261)
Correct for Stray Light: No (USB2+H05261)
Number of Pixels in Processed Spectrum: 2048
>>>>>Begin Processed Spectral Data<<<<<
365.73	0.00
365.92	0.00
366.12	0.00
366.32	0.00
366.52	0.00
366.72	0.00
366.91	0.00
367.11	0.00
367.31	0.00
367.51	0.00
367.70	0.00
367.90	0.00
368.10	0.00
368.30	0.00
368.49	0.00
368.69	0.00
368.89	0.00
369.09	0.00
369.28	9.36
369.48	0.00
369.68	0.00
369.87	0.00
370.07	16.38
370.27	67.88
370.47	166.18
370.66	374.49
370.86	393.21
371.06	512.58
371.25	510.24
371.45	484.49
371.65	514.92
371.84	503.22
372.04	461.09
372.24	514.92
372.44	507.90
372.63	543.00
372.83	547.69
373.03	603.86
373.22	531.30
373.42	547.69
373.62	507.90
373.81	601.52
374.01	561.73
374.21	716.20
374.40	582.79
374.60	594.50
374.79	622.58
374.99	543.00
375.19	561.73
375.38	592.16
375.58	620.24
375.78	704.50
375.97	610.88
376.17	690.46
376.37	634.29
376.56	650.67
376.76	615.56
376.95	657.69
377.15	699.82
377.35	674.07
377.54	739.61
377.74	702.16
377.93	655.35
378.13	671.73
378.33	678.76
378.52	784.08
378.72	681.10
378.91	842.59
379.11	791.10
379.31	730.25
379.50	730.25
379.70	781.74
379.89	755.99
380.09	725.57
380.28	760.67
380.48	791.10
380.68	805.14
380.87	798.12
381.07	781.74
381.26	880.04
381.46	798.12
381.65	802.80
381.85	798.12
382.04	814.51
382.24	847.27
382.43	833.23
382.63	840.25
382.83	875.36
383.02	959.62
383.22	1043.88
383.41	875.36
383.61	861.32
383.80	880.04
384.00	835.57
384.19	943.24
384.39	809.83
384.58	915.15
384.78	901.11
384.97	976.00
385.17	905.79
385.36	947.92
385.56	1055.58
385.75	938.55
385.95	1015.79
386.14	978.34
386.34	922.17
386.53	1020.47
386.72	1004.09
386.92	1130.48
387.11	1050.90
387.31	1032.18
387.50	1008.77
387.70	1053.24
387.89	1107.07
388.09	1048.56
388.28	1069.62
388.48	1076.65
388.67	1102.39
388.86	1086.01
389.06	1062.60
389.25	1006.43
389.45	1130.48
389.64	1114.10
389.84	1090.69
390.03	1116.44
390.22	1144.52
390.42	1256.87
390.61	1219.42
390.81	1214.74
391.00	1205.38
391.19	1282.61
391.39	1261.55
391.58	1294.32
391.78	1284.95
391.97	1259.21
392.16	1261.55
392.36	1362.19
392.55	1259.21
392.75	1268.57
392.94	1352.83
393.13	1306.02
393.33	1235.80
393.52	1427.73
393.71	1301.34
393.91	1313.04
394.10	1263.89
394.29	1411.34
394.49	1401.98
394.68	1385.60
394.88	1364.53
395.07	1418.36
395.26	1406.66
395.46	1390.28
395.65	1409.00
395.84	1432.41
396.04	1610.29
396.23	1540.07
396.42	1591.56
396.62	1514.33
396.81	1568.16
397.00	1629.01
397.19	1614.97
397.39	1607.95
397.58	1633.69
397.77	1610.29
397.97	1617.31
398.16	1504.96
398.35	1682.85
398.55	1617.31
398.74	1629.01
398.93	1732.00
399.12	1692.21
399.32	1708.59
399.51	1699.23
399.70	1703.91
399.90	1743.70
400.09	1781.15
400.28	1774.13
400.47	1923.92
400.67	1769.44
400.86	1823.28
401.05	1963.71
401.24	1912.22
401.44	1905.20
401.63	1902.86
401.82	1881.79
402.01	1947.33
402.21	1952.01
402.40	2033.93
402.59	1949.67
402.78	1947.33
402.97	1996.48
403.17	1982.43
403.36	2111.16
403.55	2108.82
403.74	2052.65
403.93	2083.08
404.13	2167.34
404.32	2150.95
404.51	2071.37
404.70	2115.84
404.89	2125.21
405.09	2223.51
405.28	2214.15
405.47	2349.90
405.66	2406.07
405.85	2417.77
406.05	2314.79
406.24	2293.72
406.43	2349.90
406.62	2352.24
406.81	2476.29
407.00	2373.30
407.20	2338.20
407.39	2380.32
407.58	2382.67
407.77	2490.33
407.96	2485.65
408.15	2562.89
408.34	2509.05
408.54	2649.49
408.73	2633.10
408.92	2546.50
409.11	2558.21
409.30	2607.36
409.49	2663.53
409.68	2665.87
409.87	2661.19
410.07	2785.24
410.26	2771.19
410.45	2750.13
410.64	2782.90
410.83	2825.03
411.02	2939.71
411.21	2972.48
411.40	2846.09
411.59	2984.18
411.78	2998.23
411.98	3061.42
412.17	2991.20
412.36	3075.46
412.55	3129.30
412.74	3136.32
412.93	3157.38
413.12	3166.74
413.31	3396.12
413.50	3180.79
413.69	3356.33
413.88	3234.62
414.07	3295.47
414.26	3410.16
414.45	3339.94
414.64	3370.37
414.83	3419.52
415.02	3456.97
415.22	3611.45
415.41	3641.87
415.60	3616.13
415.79	3456.97
415.98	3597.40
416.17	3733.15
416.36	3868.91
416.55	3730.81
416.74	3616.13
416.93	3784.65
417.12	3878.27
417.31	3847.84
417.50	3875.93
417.69	4053.81
417.88	4046.79
418.07	4100.62
418.26	3976.57
418.45	4149.77
418.64	4315.95
418.83	4156.79
419.02	4100.62
419.21	4217.65
419.39	4198.92
419.58	4140.41
419.77	4180.20
419.96	4259.78
420.15	4306.59
420.34	4292.54
420.53	4241.05
420.72	4290.20
420.91	4409.57
421.10	4386.16
421.29	4435.32
421.48	4456.38
421.67	4545.32
421.86	4521.92
422.05	4397.87
422.24	4526.60
422.43	4503.19
422.61	4566.39
422.80	4517.23
422.99	4641.28
423.18	4793.42
423.37	4559.36
423.56	4615.54
423.75	4620.22
423.94	4498.51
424.13	4271.48
424.32	4393.19
424.50	4631.92
424.69	4835.55
424.88	4706.82
425.07	4704.48
425.26	4592.13
425.45	4702.14
425.64	4727.88
425.83	4582.77
426.01	4777.03
426.20	4751.29
426.39	4851.93
426.58	4664.69
426.77	4915.12
426.96	4858.95
427.15	4833.21
427.33	4798.10
427.52	4868.31
427.71	4887.04
427.90	4826.18
428.09	4952.57
428.28	5041.51
428.46	5020.45
428.65	5046.20
428.84	5184.29
429.03	5179.61
429.22	5085.98
429.40	5231.10
429.59	5212.37
429.78	4919.81
429.97	5020.45
430.16	5167.90
430.34	5376.21
430.53	5263.86
430.72	5441.75
430.91	5282.59
431.10	5207.69
431.28	5313.02
431.47	5439.40
431.66	5563.45
431.85	5397.28
432.03	5430.04
432.22	5701.54
432.41	5523.66
432.60	5603.24
432.79	5537.71
432.97	5593.88
433.16	5617.29
433.35	5633.67
433.54	5717.93
433.72	5689.84
433.91	5764.74
434.10	5736.65
434.28	5762.40
434.47	5921.56
434.66	6001.13
434.85	6043.26
435.03	5951.98
435.22	5989.43
435.41	6073.69
435.59	6094.76
435.78	6005.81
435.97	6043.26
436.16	5966.03
436.34	6218.80
436.53	6066.67
436.72	6303.06
436.90	5879.43
437.09	6228.17
437.28	6012.84
437.46	6160.29
437.65	6272.64
437.84	6211.78
438.02	6459.88
438.21	6359.24
438.40	6373.28
438.58	6525.41
438.77	6457.54
438.96	6647.12
439.14	6700.95
439.33	6665.85
439.52	6862.45
439.70	6761.81
439.89	6920.96
440.08	6855.43
440.26	6923.30
440.45	6988.84
440.63	7049.69
440.82	7185.44
441.01	7049.69
441.19	7279.07
441.38	7265.02
441.57	7377.37
441.75	7197.15
441.94	7330.56
442.12	7419.50
442.31	7559.93
442.50	7623.12
442.68	7676.96
442.87	7566.95
443.05	7744.83
443.24	7819.73
443.43	7669.94
443.61	7840.79
443.80	8035.06
443.98	7520.14
444.17	7487.37
444.35	7957.82
444.54	7964.84
444.73	8044.42
444.91	7791.64
445.10	7864.20
445.28	7864.20
445.47	7803.35
445.65	7939.10
445.84	7861.86
446.02	7957.82
446.21	7775.26
446.39	7950.80
446.58	7878.24
446.77	7981.23
446.95	7889.95
447.14	8109.96
447.32	7999.95
447.51	7992.93
447.69	8077.19
447.88	8093.57
448.06	8170.81
448.25	8067.83
448.43	8400.18
448.62	8140.38
448.80	8156.77
448.99	8226.98
449.17	8262.09
449.36	8269.11
449.54	8463.38
449.73	8287.84
449.91	8638.92
450.10	8475.08
450.28	8781.69
450.46	8341.67
450.65	8486.78
450.83	8594.45
451.02	8681.05
451.20	8720.84
451.39	8627.21
451.57	8461.04
451.76	8568.70
451.94	8634.24
452.13	8856.59
452.31	8954.89
452.49	8667.00
452.68	8678.71
452.86	8578.06
453.05	8936.17
453.23	8987.66
453.42	8966.59
453.60	8912.76
453.78	8973.61
453.97	8901.06
454.15	9001.70
454.34	8835.52
454.52	9167.88
454.70	9128.09
454.89	9362.14
455.07	9193.62
455.26	9217.03
455.44	9418.32
455.62	9305.97
455.81	9462.79
455.99	9294.27
456.17	9736.63
456.36	9394.91
456.54	9764.72
456.73	9603.22
456.91	10015.15
457.09	9781.10
457.28	9764.72
457.46	9764.72
457.64	9954.30
457.83	10150.90
458.01	9802.16
458.19	9848.97
458.38	9886.42
458.56	10211.76
458.74	10216.44
458.93	10122.82
459.11	10214.10
459.29	10176.65
459.48	10223.46
459.66	10523.05
459.84	10237.50
460.03	10331.12
460.21	10452.83
460.39	10452.83
460.57	10424.75
460.76	10558.16
460.94	10509.01
461.12	10455.17
461.31	10539.43
461.49	10469.22
461.67	10438.79
461.85	11150.31
462.04	10946.69
462.22	11360.96
462.40	10892.85
462.59	11012.22
462.77	10747.74
462.95	10944.34
463.13	11075.42
463.32	10958.39
463.50	11250.96
463.68	11063.71
463.86	11208.83
464.05	11047.33
464.23	11304.79
464.41	11295.43
464.59	11016.90
464.78	11351.60
464.96	11417.13
465.14	11232.23
465.32	11424.15
465.50	11442.88
465.69	11449.90
465.87	11480.33
466.05	11337.56
466.23	11353.94
466.41	11651.19
466.60	11885.24
466.78	11517.78
466.96	11419.47
467.14	11550.54
467.32	11761.19
467.51	11960.14
467.69	11391.39
467.87	11784.60
468.05	11836.09
468.23	11726.08
468.41	11950.78
468.60	11833.75
468.78	11988.22
468.96	11857.15
469.14	12365.05
469.32	12088.87
469.50	11967.16
469.69	12215.26
469.87	12245.68
470.05	12524.21
470.23	12271.43
470.41	12699.75
470.59	12643.57
470.77	12582.72
470.95	12678.68
471.14	12702.09
471.32	12549.95
471.50	13029.76
471.68	13036.78
471.86	13076.57
472.04	12994.65
472.22	13284.88
472.40	13048.49
472.58	13256.79
472.77	13310.63
472.95	13547.02
473.13	13764.69
473.31	13291.90
473.49	13399.57
473.67	13614.90
473.85	13570.43
474.03	13799.80
474.21	13734.26
474.39	14120.45
474.57	14087.68
474.75	14370.89
474.93	14190.67
475.12	14253.86
475.30	14368.55
475.48	14338.12
475.66	14373.23
475.84	14569.83
476.02	14698.56
476.20	14611.96
476.38	15047.30
476.56	15124.54
476.74	15037.94
476.92	14960.70
477.10	15178.37
477.28	15609.03
477.46	15459.24
477.64	15662.86
477.82	15613.71
478.00	15988.20
478.18	15995.22
478.36	16013.95
478.54	16341.62
478.72	16327.58
478.90	16327.58
479.08	16610.78
479.26	16978.25
479.44	17095.27
479.62	17270.81
479.80	17326.99
479.98	17310.60
480.16	17652.32
480.34	17446.35
480.52	17582.10
480.70	17802.11
480.88	17748.28
481.06	18129.79
481.24	17862.97
481.41	18527.68
481.59	18366.18
481.77	18576.83
481.95	18719.60
482.13	18792.16
482.31	18897.49
482.49	19253.25
482.67	19332.82
482.85	19559.86
483.03	19709.65
483.21	19761.14
483.39	19875.83
483.57	19922.64
483.74	19985.83
483.92	20437.56
484.10	20250.32
484.28	20919.71
484.46	21184.19
484.64	21345.69
484.82	21067.16
485.00	21523.57
485.18	21642.93
485.35	21792.73
485.53	21979.97
485.71	21977.63
485.89	22602.55
486.07	22434.03
486.25	22387.22
486.43	22530.00
486.61	22869.37
486.78	22871.72
486.96	23400.68
487.14	23653.45
487.32	23339.82
487.50	23461.53
487.68	23894.53
487.85	24023.26
488.03	24662.22
488.21	24709.04
488.39	24959.47
488.57	25078.84
488.75	24730.10
488.92	25638.23
489.10	25495.46
489.28	25385.45
489.46	26024.42
489.64	25944.84
489.81	26366.13
489.99	26338.05
490.17	26462.10
490.35	27101.06
490.53	26948.93
490.70	27232.13
490.88	27491.93
491.06	27513.00
491.24	27330.44
491.41	27538.74
491.59	28163.67
491.77	27782.16
491.95	28559.22
492.13	28514.75
492.30	28547.51
492.48	28648.16
492.66	28781.57
492.84	28849.44
493.01	28849.44
493.19	29905.02
493.37	29619.48
493.54	29956.52
493.72	30377.81
493.90	30368.45
494.08	30581.44
494.25	30513.56
494.43	30572.08
494.61	30904.43
494.79	30909.11
494.96	30518.25
495.14	31328.07
495.32	31590.21
495.49	31527.02
495.67	31800.86
495.85	32266.63
496.02	32250.24
496.20	32231.52
496.38	32664.52
496.55	33146.67
496.73	33223.90
496.91	33067.09
497.09	33455.62
497.26	33677.97
497.44	33488.38
497.62	33778.61
497.79	34160.12
497.97	34206.93
498.14	34536.94
498.32	34607.16
498.50	34675.04
498.67	34813.13
498.85	35264.85
499.03	34696.10
499.20	35112.72
499.38	35168.89
499.56	35519.97
499.73	35555.08
499.91	35992.76
500.08	36100.42
500.26	36156.60
500.44	36100.42
500.61	36444.48
500.79	36215.11
500.97	36797.90
501.14	36851.73
501.32	36781.52
501.49	36669.17
501.67	36921.95
501.84	36985.15
502.02	36968.76
502.20	37216.86
502.37	37809.01
502.55	37752.84
502.72	38029.02
502.90	37799.65
503.07	38068.81
503.25	38061.79
503.43	38094.56
503.60	38890.34
503.78	38780.34
503.95	38616.50
504.13	38443.30
504.30	39026.09
504.48	38995.67
504.65	39470.79
504.83	39782.09
505.01	39501.22
505.18	39218.02
505.36	39995.07
505.53	39711.87
505.71	39810.17
505.88	40371.90
506.06	39976.35
506.23	40493.61
506.41	40102.74
506.58	40381.26
506.76	40741.71
506.93	41017.89
507.11	40772.13
507.28	40474.88
507.46	41118.53
507.63	41151.30
507.81	41872.18
507.98	41069.38
508.16	41003.85
508.33	41689.62
508.50	41448.55
508.68	42005.59
508.85	41867.50
509.03	42342.63
509.20	42436.25
509.38	42595.41
509.55	42838.83
509.73	42941.81
509.90	42593.07
510.08	42827.12
510.25	43131.39
510.42	43030.75
510.60	43742.27
510.77	44006.75
510.95	43784.40
511.12	43040.11
511.30	43856.96
511.47	43934.20
511.64	44013.77
511.82	44329.75
511.99	44371.88
512.17	44137.82
512.34	44259.53
512.51	44484.22
512.69	44481.88
512.86	44964.03
513.04	44971.05
513.21	44931.26
513.38	45137.23
513.56	45263.62
513.73	44795.51
513.90	45336.18
514.08	45460.23
514.25	45558.53
514.43	45890.88
514.60	45724.71
514.77	46103.87
514.95	46000.89
515.12	45406.39
515.29	46141.32
515.47	46199.83
515.64	46185.79
515.81	46059.40
515.99	46459.63
516.16	46857.52
516.33	46698.37
516.51	46890.29
516.68	46450.27
516.85	46499.42
517.03	46941.78
517.20	47269.46
517.37	47269.46
517.54	47564.37
517.72	47283.50
517.89	47587.77
518.06	46824.76
518.24	47459.04
518.41	47515.22
518.58	47735.23
518.75	47880.34
518.93	48142.48
519.10	48098.01
519.27	48367.17
519.45	48156.52
519.62	48336.74
519.79	48133.12
519.96	48334.40
520.14	48505.26
520.31	48526.33
520.48	48966.35
520.65	48725.27
520.83	48846.98
521.00	48755.70
521.17	48968.69
521.34	49001.46
521.52	49066.99
521.69	49357.22
521.86	49689.57
522.03	49499.99
522.20	49801.92
522.38	49778.51
522.55	49539.78
522.72	49801.92
522.89	49687.23
523.07	49921.29
523.24	49577.23
523.41	50031.29
523.58	49626.38
523.75	50426.84
523.92	50302.79
524.10	50117.89
524.27	50642.17
524.44	50712.39
524.61	50740.47
524.78	50616.43
524.96	50424.50
525.13	50431.52
525.30	50780.26
525.47	50775.58
525.64	50923.04
525.81	51306.88
525.98	51049.42
526.16	51112.62
526.33	51119.64
526.50	51468.38
526.67	50953.46
526.84	51110.28
527.01	50974.53
527.18	51253.05
527.36	51519.87
527.53	51817.12
527.70	52158.84
527.87	51952.87
528.04	51920.10
528.21	52009.04
528.38	51564.34
528.55	52388.21
528.72	51885.00
528.89	51735.20
529.07	52205.65
529.24	51847.55
529.41	52357.78
529.58	52289.91
529.75	52184.58
529.92	52238.42
530.09	52439.70
530.26	52301.61
530.43	52727.59
530.60	52296.93
530.77	52526.30
530.94	52907.81
531.11	52493.54
531.28	52584.82
531.46	52638.65
531.63	52741.63
531.80	53043.56
531.97	53003.77
532.14	53059.94
532.31	52800.15
532.48	53034.20
532.65	53116.12
532.82	52767.38
532.99	52956.96
533.16	52947.60
533.33	53345.49
533.50	53771.47
533.67	53652.10
533.84	53366.55
534.01	53354.85
534.18	53261.23
534.35	53698.91
534.52	53670.82
534.69	54078.08
534.86	53771.47
535.03	53602.95
535.20	53874.45
535.37	53993.82
535.54	53757.42
535.71	53546.78
535.88	53645.08
536.05	53776.15
536.22	54094.46
536.38	54365.96
536.55	54122.55
536.72	54209.15
536.89	54202.13
537.06	54024.25
537.23	54255.96
537.40	54152.97
537.57	54188.08
537.74	54466.61
537.91	54864.50
538.08	54536.82
538.25	54213.83
538.42	54284.04
538.59	54670.23
538.75	54176.38
538.92	54759.17
539.09	54815.35
539.26	54974.50
539.43	54693.64
539.60	54782.58
539.77	54813.01
539.94	55068.12
540.11	54721.72
540.28	55096.21
540.44	54710.02
540.61	54836.41
540.78	54986.21
540.95	55157.06
541.12	55159.41
541.29	55136.00
541.46	55250.69
541.62	55065.78
541.79	55278.77
541.96	54892.58
542.13	55440.27
542.30	55451.97
542.47	55297.50
542.63	55625.17
542.80	55400.48
542.97	55695.39
543.14	55648.58
543.31	55536.23
543.48	55646.24
543.64	56154.13
543.81	55753.90
543.98	55943.48
544.15	55980.93
544.32	55952.85
544.48	56200.94
544.65	55952.85
544.82	56175.20
544.99	55966.89
545.16	56140.09
545.32	55852.20
545.49	56390.53
545.66	56296.91
545.83	56324.99
546.00	56472.45
546.16	56374.14
546.33	56250.09
546.50	56172.86
546.67	56200.94
546.83	55992.64
547.00	56420.95
547.17	56369.46
547.34	56339.04
547.50	56631.60
547.67	56743.95
547.84	56697.14
548.00	56917.15
548.17	56891.40
548.34	56816.50
548.51	56839.91
548.67	56673.73
548.84	56912.47
549.01	56788.42
549.18	56879.70
549.34	56882.04
549.51	56809.48
549.68	56816.50
549.84	56697.14
550.01	56947.57
550.18	56743.95
550.34	56704.16
550.51	57041.20
550.68	57219.08
550.84	56868.00
551.01	57111.41
551.18	57137.16
551.34	56842.25
551.51	57092.69
551.68	56994.39
551.84	57158.22
552.01	56996.73
552.18	57270.57
552.34	57165.24
552.51	57167.58
552.68	57296.31
552.84	57036.51
553.01	57406.32
553.18	57399.30
553.34	57373.55
553.51	57354.83
553.67	57303.34
553.84	57741.02
554.01	57513.98
554.17	57598.24
554.34	57537.39
554.51	57415.68
554.67	57844.00
554.84	57677.82
555.00	57668.46
555.17	57705.91
555.33	57893.15
555.50	57602.92
555.67	57680.16
555.83	57628.67
556.00	57659.10
556.16	57785.49
556.33	57778.46
556.50	57834.64
556.66	57916.56
556.83	57844.00
556.99	58281.68
557.16	58237.21
557.32	58178.70
557.49	58089.76
557.65	57778.46
557.82	58122.52
557.98	57731.65
558.15	58342.53
558.32	58220.83
558.48	58000.82
558.65	58159.97
558.81	58131.89
558.98	57972.73
559.14	58181.04
559.31	58127.20
559.47	58529.78
559.64	58260.62
559.80	58155.29
559.97	58468.92
560.13	58080.39
560.30	58457.22
560.46	58258.27
560.63	58293.38
560.79	58309.77
560.96	58515.73
561.12	58312.11
561.29	58440.84
561.45	58464.24
561.61	58475.94
561.78	58375.30
561.94	58548.50
562.11	58515.73
562.27	58457.22
562.44	58513.39
562.60	58188.06
562.77	58501.69
562.93	58583.61
563.10	58642.12
563.26	58539.14
563.42	58953.41
563.59	58529.78
563.75	58543.82
563.92	58693.61
564.08	58501.69
564.24	58710.00
564.41	58513.39
564.57	58475.94
564.74	58518.07
564.90	58848.09
565.07	58777.87
565.23	58890.22
565.39	58761.49
565.56	58915.96
565.72	58705.32
565.88	58824.68
566.05	58525.10
566.21	58349.56
566.38	58906.60
566.54	58883.20
566.70	58906.60
566.87	58988.52
567.03	58843.41
567.19	59044.69
567.36	59000.22
567.52	58728.72
567.68	58951.07
567.85	58658.51
568.01	59002.56
568.17	58869.15
568.34	58878.52
568.50	58965.12
568.66	59025.97
568.83	58993.20
568.99	58798.94
569.15	58976.82
569.32	58801.28
569.48	58918.31
569.64	59023.63
569.81	58775.53
569.97	59159.38
570.13	59084.48
570.30	58955.75
570.46	59199.17
570.62	58939.37
570.78	59098.53
570.95	58958.09
571.11	58801.28
571.27	59025.97
571.43	59065.76
571.60	59114.91
571.76	59016.61
571.92	59117.25
572.09	59065.76
572.25	59126.61
572.41	59274.07
572.57	59133.63
572.74	59128.95
572.90	58822.34
573.06	58869.15
573.22	59070.44
573.38	59220.23
573.55	59210.87
573.71	59416.84
573.87	59348.96
574.03	59014.27
574.20	59201.51
574.36	59119.59
574.52	59168.74
574.68	59049.38
574.84	59370.03
575.01	59341.94
575.17	59269.39
575.33	59138.32
575.49	59189.81
575.65	59290.45
575.82	59377.05
575.98	59201.51
576.14	59526.84
576.30	59391.09
576.46	59175.76
576.62	59213.21
576.79	59084.48
576.95	58948.73
577.11	59238.96
577.27	59227.26
577.43	59470.67
577.59	59360.67
577.75	59370.03
577.92	59194.49
578.08	59117.25
578.24	59236.62
578.40	59208.53
578.56	59119.59
578.72	59306.83
578.88	59604.08
579.04	59512.80
579.21	59320.88
579.37	59281.09
579.53	59681.32
579.69	59152.36
579.85	59341.94
580.01	59489.40
580.17	59192.15
580.33	59145.34
580.49	59444.93
580.65	59512.80
580.82	59454.29
580.98	59278.75
581.14	59412.16
581.30	59426.20
581.46	59320.88
581.62	59295.13
581.78	59341.94
581.94	59283.43
582.10	59327.90
582.26	59480.03
582.42	59648.55
582.58	59531.53
582.74	59358.33
582.90	59508.12
583.06	59515.14
583.22	59194.49
583.38	59355.99
583.54	59494.08
583.70	59419.18
583.86	59367.69
584.02	59405.14
584.18	59503.44
584.34	59494.08
584.50	59667.28
584.66	59332.58
584.82	59484.72
584.98	59573.66
585.14	59274.07
585.30	59077.46
585.46	59578.34
585.62	59299.81
585.78	59608.76
585.94	59393.43
586.10	59463.65
586.26	59365.35
586.42	59772.60
586.58	59597.06
586.74	59641.53
586.90	59325.56
587.06	59379.39
587.22	59388.75
587.38	59730.47
587.54	59646.21
587.70	59662.60
587.86	59643.87
588.02	59849.84
588.18	59788.98
588.34	59709.41
588.49	59674.30
588.65	59608.76
588.81	59351.30
588.97	59585.36
589.13	59618.13
