SpectraSuite Data File
++++++++++++++++++++++++++++++++++++
Date: Fri Oct 04 11:48:23 GMT-05:00 2013
User: price-jones
Dark Spectrum Present: No
Reference Spectrum Present: No
Number of Sampled Component Spectra: 1
Spectrometers: USB2+H05261
Integration Time (usec): 100000 (USB2+H05261)
Spectra Averaged: 1 (USB2+H05261)
Boxcar Smoothing: 0 (USB2+H05261)
Correct for Electrical Dark: No (USB2+H05261)
Strobe/Lamp Enabled: No (USB2+H05261)
Correct for Detector Non-linearity: No (USB2+H05261)
Correct for Stray Light: No (USB2+H05261)
Number of Pixels in Processed Spectrum: 2048
>>>>>Begin Processed Spectral Data<<<<<
365.73	30.43
365.92	30.43
366.12	30.43
366.32	0.00
366.52	0.00
366.72	7.02
366.91	0.00
367.11	0.00
367.31	0.00
367.51	0.00
367.70	0.00
367.90	0.00
368.10	0.00
368.30	0.00
368.49	0.00
368.69	4.68
368.89	0.00
369.09	0.00
369.28	0.00
369.48	0.00
369.68	0.00
369.87	0.00
370.07	0.00
370.27	44.47
370.47	124.05
370.66	484.49
370.86	531.30
371.06	547.69
371.25	603.86
371.45	517.26
371.65	594.50
371.84	681.10
372.04	547.69
372.24	603.86
372.44	641.31
372.63	587.47
372.83	629.60
373.03	622.58
373.22	629.60
373.42	695.14
373.62	681.10
373.81	643.65
374.01	704.50
374.21	727.91
374.40	685.78
374.60	795.78
374.79	753.65
374.99	720.88
375.19	826.21
375.38	863.66
375.58	755.99
375.78	805.14
375.97	760.67
376.17	837.91
376.37	786.42
376.56	763.01
376.76	760.67
376.95	774.72
377.15	816.85
377.35	844.93
377.54	884.72
377.74	727.91
377.93	826.21
378.13	887.06
378.33	917.49
378.52	791.10
378.72	952.60
378.91	844.93
379.11	849.61
379.31	976.00
379.50	844.93
379.70	889.40
379.89	901.11
380.09	990.05
380.28	957.28
380.48	961.96
380.68	933.87
380.87	952.60
381.07	966.64
381.26	990.05
381.46	992.39
381.65	1004.09
381.85	976.00
382.04	983.02
382.24	999.41
382.43	957.28
382.63	1004.09
382.83	1013.45
383.02	1071.97
383.22	1109.41
383.41	1069.62
383.61	1078.99
383.80	1128.14
384.00	1132.82
384.19	1121.12
384.39	1001.75
384.58	1177.29
384.78	1149.20
384.97	1235.80
385.17	1137.50
385.36	1193.67
385.56	1186.65
385.75	1186.65
385.95	1165.59
386.14	1289.64
386.34	1123.46
386.53	1165.59
386.72	1135.16
386.92	1299.00
387.11	1256.87
387.31	1310.70
387.50	1343.47
387.70	1270.91
387.89	1390.28
388.09	1310.70
388.28	1341.13
388.48	1266.23
388.67	1273.25
388.86	1373.89
389.06	1303.68
389.25	1313.04
389.45	1308.36
389.64	1366.87
389.84	1362.19
390.03	1420.71
390.22	1418.36
390.42	1479.22
390.61	1411.34
390.81	1451.13
391.00	1493.26
391.19	1610.29
391.39	1462.83
391.58	1476.88
391.78	1540.07
391.97	1542.41
392.16	1519.01
392.36	1666.46
392.55	1509.65
392.75	1523.69
392.94	1551.78
393.13	1638.38
393.33	1572.84
393.52	1668.80
393.71	1689.87
393.91	1692.21
394.10	1678.16
394.29	1717.95
394.49	1633.69
394.68	1804.55
394.88	1664.12
395.07	1748.38
395.26	1781.15
395.46	1715.61
395.65	1832.64
395.84	1750.72
396.04	2019.88
396.23	1863.07
396.42	1879.45
396.62	1870.09
396.81	1921.58
397.00	2026.90
397.19	1933.28
397.39	1888.81
397.58	2012.86
397.77	2022.22
397.97	2026.90
398.16	2017.54
398.35	2036.27
398.55	2146.27
398.74	2087.76
398.93	2099.46
399.12	2085.42
399.32	2094.78
399.51	2157.97
399.70	2197.76
399.90	2225.85
400.09	2216.49
400.28	2225.85
400.47	2221.17
400.67	2312.45
400.86	2307.77
401.05	2352.24
401.24	2249.25
401.44	2335.85
401.63	2373.30
401.82	2370.96
402.01	2230.53
402.21	2354.58
402.40	2438.84
402.59	2464.58
402.78	2424.80
402.97	2506.71
403.17	2506.71
403.36	2497.35
403.55	2495.01
403.74	2588.63
403.93	2593.31
404.13	2480.97
404.32	2642.46
404.51	2588.63
404.70	2626.08
404.89	2677.57
405.09	2689.28
405.28	2679.91
405.47	2647.15
405.66	2909.29
405.85	2920.99
406.05	2827.37
406.24	2719.70
406.43	2902.26
406.62	2911.63
406.81	2925.67
407.00	2958.44
407.20	2932.69
407.39	2988.86
407.58	3040.36
407.77	3124.62
407.96	3080.14
408.15	3152.70
408.34	3108.23
408.54	3124.62
408.73	3126.96
408.92	3150.36
409.11	3302.50
409.30	3246.32
409.49	3138.66
409.68	3314.20
409.87	3201.85
410.07	3452.29
410.26	3463.99
410.45	3337.60
410.64	3578.68
410.83	3529.53
411.02	3447.61
411.21	3541.23
411.40	3581.02
411.59	3709.75
411.78	3623.15
411.98	3559.95
412.17	3651.24
412.36	3651.24
412.55	3744.86
412.74	3904.01
412.93	3803.37
413.12	3730.81
413.31	4109.98
413.50	3859.54
413.69	4035.08
413.88	4184.88
414.07	4138.07
414.26	4032.74
414.45	4166.15
414.64	4081.89
414.83	4229.35
415.02	4201.26
415.22	4348.72
415.41	4447.02
415.60	4491.49
415.79	4348.72
415.98	4493.83
416.17	4594.47
416.36	4465.74
416.55	4493.83
416.74	4582.77
416.93	4657.67
417.12	4657.67
417.31	4795.76
417.50	4795.76
417.69	4873.00
417.88	4936.19
418.07	4765.33
418.26	4882.36
418.45	5034.49
418.64	5121.09
418.83	5102.37
419.02	5020.45
419.21	5224.08
419.39	5142.16
419.58	5043.85
419.77	5032.15
419.96	5217.05
420.15	5373.87
420.34	5198.33
420.53	5226.42
420.72	5305.99
420.91	5397.28
421.10	5289.61
421.29	5476.85
421.48	5420.68
421.67	5586.86
421.86	5460.47
422.05	5446.43
422.24	5392.59
422.43	5448.77
422.61	5540.05
422.80	5434.72
422.99	5612.60
423.18	5678.14
423.37	5636.01
423.56	5741.33
423.75	5612.60
423.94	5659.42
424.13	5453.45
424.32	5441.75
424.50	5577.50
424.69	5664.10
424.88	5874.74
425.07	5547.07
425.26	5685.16
425.45	5554.09
425.64	5633.67
425.83	5673.46
426.01	6005.81
426.20	5900.49
426.39	5837.30
426.58	5806.87
426.77	5806.87
426.96	5900.49
427.15	5706.23
427.33	5891.13
427.52	5951.98
427.71	5774.10
427.90	5926.24
428.09	6127.52
428.28	6204.76
428.46	6010.50
428.65	6174.33
428.84	6380.30
429.03	6258.59
429.22	6164.97
429.40	6174.33
429.59	6298.38
429.78	6129.86
429.97	6183.70
430.16	6181.35
430.34	6387.32
430.53	6691.59
430.72	6403.71
430.91	6263.27
431.10	6282.00
431.28	6715.00
431.47	6738.40
431.66	6670.53
431.85	6682.23
432.03	6871.81
432.22	6913.94
432.41	6825.00
432.60	6635.42
432.79	6628.40
432.97	6995.86
433.16	6927.99
433.35	6696.27
433.54	6946.71
433.72	7028.63
433.91	6869.47
434.10	7094.16
434.28	7143.32
434.47	6995.86
434.66	7089.48
434.85	7119.91
435.03	7286.09
435.22	7180.76
435.41	7463.97
435.59	7265.02
435.78	7386.73
435.97	7463.97
436.16	7363.33
436.34	7363.33
436.53	7510.78
436.72	7606.74
436.90	7494.40
437.09	7602.06
437.28	7522.48
437.46	7545.89
437.65	7735.47
437.84	7903.99
438.02	7632.49
438.21	7735.47
438.40	7676.96
438.58	7962.50
438.77	7880.58
438.96	8030.38
439.14	7988.25
439.33	8177.83
439.52	8273.79
439.70	8245.71
439.89	8454.02
440.08	8369.76
440.26	8589.77
440.45	8706.79
440.63	8683.39
440.82	8615.51
441.01	8629.56
441.19	8938.51
441.38	8901.06
441.57	8964.25
441.75	8821.48
441.94	9114.05
442.12	9114.05
442.31	9202.99
442.50	9158.52
442.68	9036.81
442.87	9486.19
443.05	9348.10
443.24	9617.26
443.43	9327.03
443.61	9535.34
443.80	9790.46
443.98	9486.19
444.17	9268.52
444.35	9537.68
444.54	9841.95
444.73	9689.82
444.91	9792.80
445.10	9523.64
445.28	9678.12
445.47	9600.88
445.65	9848.97
445.84	9703.86
446.02	9757.69
446.21	9334.06
446.39	9614.92
446.58	9930.89
446.77	10104.09
446.95	9556.41
447.14	9877.06
447.32	9792.80
447.51	9696.84
447.69	9933.23
447.88	9874.72
448.06	9820.89
448.25	9912.17
448.43	9980.04
448.62	10113.45
448.80	9848.97
448.99	10012.81
449.17	10242.18
449.36	10134.52
449.54	10207.08
449.73	10361.55
449.91	10270.27
450.10	10471.56
450.28	10455.17
450.46	10356.87
450.65	10527.73
450.83	10703.27
451.02	10670.50
451.20	10696.25
451.39	10698.59
451.57	10729.02
451.76	10438.79
451.94	10518.37
452.13	10813.28
452.31	10853.06
452.49	10656.46
452.68	10923.28
452.86	11061.37
453.05	10888.17
453.23	11016.90
453.42	11089.46
453.60	10902.22
453.78	10827.32
453.97	11098.82
454.15	11007.54
454.34	11101.16
454.52	11300.11
454.70	11169.04
454.89	11318.83
455.07	11227.55
455.26	11552.88
455.44	11529.48
455.62	11461.60
455.81	11384.37
455.99	11492.03
456.17	11733.11
456.36	11892.26
456.54	11793.96
456.73	11690.98
456.91	12039.72
457.09	12308.88
457.28	12505.48
457.46	12032.69
457.64	12393.14
457.83	12250.36
458.01	11960.14
458.19	12313.56
458.38	11978.86
458.56	12690.38
458.74	12493.78
458.93	12655.28
459.11	12395.48
459.29	12334.62
459.48	12709.11
459.66	12571.02
459.84	12786.35
460.03	12769.96
460.21	12746.56
460.39	12926.78
460.57	12664.64
460.76	13224.03
460.94	13128.06
461.12	13008.70
461.31	13179.56
461.49	12938.48
461.67	12954.87
461.85	13432.33
462.04	13275.52
462.22	13774.05
462.40	13596.17
462.59	13462.76
462.77	13626.60
462.95	13895.76
463.13	13626.60
463.32	13621.92
463.50	13596.17
463.68	13806.82
463.86	13631.28
464.05	13507.23
464.23	13680.43
464.41	13818.52
464.59	13607.87
464.78	14169.60
464.96	13884.06
465.14	13874.70
465.32	14258.54
465.50	14106.41
465.69	14476.21
465.87	14125.13
466.05	14354.51
466.23	14218.75
466.41	14085.34
466.60	14883.47
466.78	14359.19
466.96	14267.91
467.14	14183.65
467.32	14057.26
467.51	14817.93
467.69	14253.86
467.87	14483.24
468.05	14504.30
468.23	14920.92
468.41	14771.12
468.60	14747.72
468.78	14796.87
468.96	14637.71
469.14	14972.41
469.32	15332.85
469.50	14810.91
469.69	15274.34
469.87	15463.92
470.05	15295.40
470.23	15557.54
470.41	15382.00
470.59	15688.61
470.77	15672.23
470.95	15768.19
471.14	15719.04
471.32	15618.39
471.50	15981.18
471.68	15875.85
471.86	16231.62
472.04	15885.22
472.22	16592.06
472.40	16243.32
472.58	16308.85
472.77	16475.03
472.95	16444.60
473.13	17060.16
473.31	16657.59
473.49	16484.39
473.67	16877.60
473.85	16758.24
474.03	17186.55
474.21	17008.67
474.39	17429.97
474.57	17465.08
474.75	17715.51
474.93	17741.26
475.12	17628.92
475.30	17715.51
475.48	17748.28
475.66	17898.08
475.84	18244.48
476.02	18230.43
476.20	18047.87
476.38	18546.40
476.56	18476.19
476.74	18656.41
476.92	18789.82
477.10	18644.71
477.28	19026.21
477.46	19124.52
477.64	19566.88
477.82	19789.23
478.00	20187.12
478.18	20046.69
478.36	20051.37
478.54	20128.61
478.72	20161.37
478.90	20673.95
479.08	20290.10
479.26	20734.81
479.44	21120.99
479.62	21259.09
479.80	21177.17
479.98	21296.53
480.16	21645.27
480.34	21495.48
480.52	21839.54
480.70	22052.53
480.88	21895.71
481.06	22080.61
481.24	22005.72
481.41	22340.41
481.59	22944.27
481.77	23089.38
481.95	23248.54
482.13	23133.86
482.31	23360.89
482.49	23885.17
482.67	24121.56
482.85	24109.86
483.03	24311.14
483.21	24648.18
483.39	24915.00
483.57	24666.91
483.74	25109.27
483.92	25233.32
484.10	25312.89
484.28	26047.82
484.46	26354.43
484.64	26623.59
484.82	25912.07
485.00	26113.36
485.18	26874.03
485.35	27159.58
485.53	27014.46
485.71	27016.80
485.89	27878.12
486.07	27756.41
486.25	27733.01
486.43	28341.55
486.61	28182.39
486.78	28662.20
486.96	28891.57
487.14	29326.91
487.32	29069.45
487.50	29378.40
487.68	29832.47
487.85	30206.95
488.03	30384.83
488.21	30380.15
488.39	30604.84
488.57	30754.64
488.75	31159.55
488.92	31332.75
489.10	31449.78
489.28	32081.72
489.46	32264.28
489.64	31847.67
489.81	32767.50
489.99	33120.92
490.17	32704.31
490.35	33408.81
490.53	33324.55
490.70	33607.75
490.88	33570.30
491.06	33855.85
491.24	33951.81
491.41	34209.27
491.59	34796.74
491.77	34937.18
491.95	35314.00
492.13	35489.54
492.30	35651.04
492.48	35456.78
492.66	35821.90
492.84	35910.84
493.01	36346.18
493.19	36411.71
493.37	36664.49
493.54	36875.14
493.72	37221.54
493.90	37371.33
494.08	37783.27
494.25	37972.85
494.43	38277.12
494.61	38501.81
494.79	38565.01
494.96	38443.30
495.14	38672.67
495.32	39281.21
495.49	39248.44
495.67	39737.62
495.85	39917.84
496.02	39910.82
496.20	39842.94
496.38	40084.01
496.55	40322.75
496.73	41144.28
496.91	40715.96
497.09	41434.50
497.26	41404.08
497.44	41244.92
497.62	41698.98
497.79	42218.58
497.97	41895.59
498.14	42384.76
498.32	42457.32
498.50	42780.31
498.67	42820.10
498.85	43044.79
499.03	43349.06
499.20	43194.59
499.38	43487.15
499.56	44069.95
499.73	44217.40
499.91	44210.38
500.08	44456.14
500.26	44311.02
500.44	44486.56
500.61	44816.58
500.79	44465.50
500.97	44769.77
501.14	45268.30
501.32	45170.00
501.49	45254.26
501.67	45815.99
501.84	45420.44
502.02	45581.93
502.20	46071.10
502.37	46560.28
502.55	46218.56
502.72	46117.92
502.90	46363.67
503.07	46103.87
503.25	46536.87
503.43	46653.90
503.60	47239.03
503.78	47260.10
503.95	47360.74
504.13	47679.05
504.30	47421.59
504.48	47330.31
504.65	48107.37
504.83	48076.94
505.01	48098.01
505.18	48083.97
505.36	48648.03
505.53	48229.08
505.71	48385.89
505.88	48509.94
506.06	48086.31
506.23	48985.07
506.41	48655.06
506.58	48886.77
506.76	48917.20
506.93	49249.55
507.11	48659.74
507.28	49586.59
507.46	49382.96
507.63	49759.79
507.81	49914.26
507.98	49825.32
508.16	49724.68
508.33	49893.20
508.50	50019.59
508.68	50358.97
508.85	50951.12
509.03	50761.54
509.20	50747.50
509.38	51035.38
509.55	51140.71
509.73	51222.62
509.90	51231.99
510.08	51220.28
510.25	51320.93
510.42	51482.42
510.60	51973.94
510.77	51990.32
510.95	51807.76
511.12	51728.18
511.30	51669.67
511.47	52233.74
511.64	52200.97
511.82	52275.87
511.99	52535.66
512.17	52566.09
512.34	52472.47
512.51	52638.65
512.69	52884.40
512.86	52802.49
513.04	53279.96
513.21	53144.20
513.38	53043.56
513.56	53045.90
513.73	52746.31
513.90	53081.01
514.08	53153.57
514.25	53460.18
514.43	53764.45
514.60	53457.84
514.77	53544.44
514.95	53851.05
515.12	53532.73
515.29	53427.41
515.47	54031.27
515.64	54138.93
515.81	54248.94
515.99	54337.88
516.16	54307.45
516.33	54611.72
516.51	54679.60
516.68	54494.69
516.85	54300.43
517.03	54738.11
517.20	54471.29
517.37	54871.52
517.54	54824.71
517.72	54836.41
517.89	54953.44
518.06	54993.23
518.24	54934.71
518.41	54951.10
518.58	55030.68
518.75	55215.58
518.93	55194.51
519.10	55208.56
519.27	55512.83
519.45	55440.27
519.62	55561.98
519.79	55613.47
519.96	55721.13
520.14	56182.22
520.31	55599.43
520.48	56034.77
520.65	55835.82
520.83	55875.61
521.00	56046.47
521.17	56348.40
521.34	55931.78
521.52	56287.54
521.69	56154.13
521.86	56378.82
522.03	56559.05
522.20	56371.80
522.38	56687.78
522.55	56659.69
522.72	56519.26
522.89	56603.52
523.07	56718.20
523.24	56612.88
523.41	56898.42
523.58	56804.80
523.75	56830.55
523.92	56924.17
524.10	57027.15
524.27	57111.41
524.44	57200.35
524.61	57509.30
524.78	57443.77
524.96	57155.88
525.13	57289.29
525.30	57432.07
525.47	57504.62
525.64	57464.83
525.81	57729.31
525.98	57834.64
526.16	57790.17
526.33	57773.78
526.50	57916.56
526.67	57656.76
526.84	57804.21
527.01	57677.82
527.18	57890.81
527.36	58087.42
527.53	58164.65
527.70	58349.56
527.87	58340.19
528.04	57979.75
528.21	58384.66
528.38	58319.13
528.55	58363.60
528.72	58223.17
528.89	58485.31
529.07	58384.66
529.24	58379.98
529.41	58667.87
529.58	58379.98
529.75	58487.65
529.92	58754.47
530.09	58749.79
530.26	58735.74
530.43	58738.08
530.60	58815.32
530.77	58866.81
530.94	58885.54
531.11	58904.26
531.28	58773.19
531.46	58927.67
531.63	59203.85
531.80	59021.29
531.97	59309.18
532.14	59458.97
532.31	58887.88
532.48	59194.49
532.65	59208.53
532.82	59257.68
532.99	59538.55
533.16	59323.22
533.33	59306.83
533.50	59646.21
533.67	59597.06
533.84	59512.80
534.01	59615.79
534.18	59402.80
534.35	59655.57
534.52	59709.41
534.69	59824.09
534.86	59955.16
535.03	59901.33
535.20	59774.94
535.37	59817.07
535.54	59966.87
535.71	59695.36
535.88	59976.23
536.05	59791.33
536.22	60371.78
536.38	60186.88
536.55	59992.61
536.72	60238.37
536.89	60032.40
537.06	60175.17
537.23	60247.73
537.40	60219.64
537.57	60467.74
537.74	60247.73
537.91	60516.89
538.08	60732.22
538.25	60456.04
538.42	60425.61
538.59	60434.97
538.75	60413.91
538.92	60392.84
539.09	60594.13
539.26	60669.03
539.43	60591.79
539.60	60884.36
539.77	60830.52
539.94	60584.77
540.11	60977.98
540.28	60921.80
540.44	60966.27
540.61	60917.12
540.78	60994.36
540.95	60856.27
541.12	60959.25
541.29	60898.40
541.46	61090.32
541.62	60945.21
541.79	60882.02
541.96	60767.33
542.13	61071.60
542.30	61212.03
542.47	61478.85
542.63	61343.10
542.80	61446.08
542.97	61560.77
543.14	61588.86
543.31	61471.83
543.48	61579.49
543.64	61764.40
543.81	61921.21
543.98	61745.67
544.15	61673.12
544.32	61724.61
544.48	61858.02
544.65	61691.84
544.82	61698.86
544.99	61600.56
545.16	61724.61
545.32	61869.72
545.49	62096.75
545.66	62225.48
545.83	62059.30
546.00	62115.48
546.16	62040.58
546.33	62021.86
546.50	61855.68
546.67	62028.88
546.83	61806.53
547.00	62087.39
547.17	62171.65
547.34	62394.00
547.50	62309.74
547.67	62424.43
547.84	62370.60
548.00	62255.91
548.17	62452.51
548.34	62234.84
548.51	62489.96
548.67	62555.50
548.84	62501.67
549.01	62466.56
549.18	62401.02
549.34	62391.66
549.51	62578.90
549.68	62628.05
549.84	62405.70
550.01	62394.00
550.18	62473.58
550.34	62766.15
550.51	62717.00
550.68	62773.17
550.84	62487.62
551.01	62775.51
551.18	62522.73
551.34	62574.22
551.51	62733.38
551.68	62639.76
551.84	62962.75
552.01	62731.04
552.18	63056.37
552.34	63037.65
552.51	62777.85
552.68	62974.45
552.84	62944.03
553.01	63047.01
553.18	63089.14
553.34	63128.93
553.51	63145.31
553.67	63381.71
553.84	63283.40
554.01	63309.15
554.17	63070.42
554.34	63391.07
554.51	62944.03
554.67	63360.64
554.84	63299.79
555.00	63332.56
555.17	63362.98
555.33	63337.24
555.50	63250.64
555.67	63252.98
555.83	63400.43
556.00	63215.53
556.16	63503.42
556.33	63463.63
556.50	63587.67
556.66	63557.25
556.83	63444.90
556.99	63688.32
557.16	63669.59
557.32	63620.44
557.49	63877.90
557.65	63341.92
557.82	63557.25
557.98	63543.20
558.15	63777.26
558.32	63767.90
558.48	63847.47
558.65	63826.41
558.81	63908.33
558.98	63777.26
559.14	63643.85
559.31	63615.76
559.47	63873.22
559.64	63903.65
559.80	63763.21
559.97	63917.69
560.13	63849.81
560.30	63997.27
560.46	63887.26
560.63	63758.53
560.79	63870.88
560.96	64023.01
561.12	63730.45
561.29	63847.47
561.45	63913.01
561.61	64013.65
561.78	64011.31
561.94	64245.36
562.11	64156.42
562.27	64079.19
562.44	64048.76
562.60	63959.82
562.77	64179.83
562.93	63927.05
563.10	64236.00
563.26	64149.40
563.42	64458.35
563.59	64221.96
563.75	64140.04
563.92	64240.68
564.08	64025.35
564.24	64238.34
564.41	64030.04
564.57	64168.13
564.74	64177.49
564.90	64294.52
565.07	64317.92
565.23	64448.99
565.39	64458.35
565.56	64427.93
565.72	64118.98
565.88	64432.61
566.05	64273.45
566.21	64367.07
566.38	64292.18
566.54	64317.92
566.70	64526.23
566.87	64605.81
567.03	64448.99
567.19	64596.45
567.36	64488.78
567.52	64350.69
567.68	64484.10
567.85	64271.11
568.01	64542.61
568.17	64329.62
568.34	64575.38
568.50	64533.25
568.66	64619.85
568.83	64573.04
568.99	64467.72
569.15	64474.74
569.32	64425.59
569.48	64413.88
569.64	64559.00
569.81	64594.10
569.97	64598.79
570.13	64601.13
570.30	64437.29
570.46	64577.72
570.62	64570.70
570.78	64582.40
570.95	64376.43
571.11	64544.95
571.27	64348.35
571.43	64624.53
571.60	64814.12
571.76	64727.52
571.92	64762.62
572.09	64919.44
572.25	64811.77
572.41	64666.66
572.57	64753.26
572.74	64942.84
572.90	64596.45
573.06	64715.81
573.22	64757.94
573.38	64849.22
573.55	64711.13
573.71	64961.57
573.87	65008.38
574.03	64736.88
574.20	64708.79
574.36	64713.47
574.52	64584.74
574.68	64748.58
574.84	64949.87
575.01	64809.43
575.17	64933.48
575.33	64846.88
575.49	64757.94
575.65	64790.71
575.82	65001.36
575.98	64865.61
576.14	64949.87
576.30	64849.22
576.46	64790.71
576.62	64788.37
576.79	64809.43
576.95	64832.84
577.11	64907.74
577.27	64963.91
577.43	64889.01
577.59	64811.77
577.75	64853.90
577.92	64598.79
578.08	64825.82
578.24	64680.70
578.40	64874.97
578.56	64870.29
578.72	64767.30
578.88	65123.07
579.04	64994.34
579.21	64935.82
579.37	64886.67
579.53	65153.49
579.69	64870.29
579.85	65064.55
580.01	64987.31
580.17	64781.35
580.33	64947.53
580.49	64952.21
580.65	65064.55
580.82	65155.83
580.98	64924.12
581.14	64968.59
581.30	65062.21
581.46	64952.21
581.62	64708.79
581.78	64711.13
581.94	65127.75
582.10	64842.20
582.26	65055.19
582.42	65073.91
582.58	65265.84
582.74	64980.29
582.90	64980.29
583.06	65094.98
583.22	65092.64
583.38	65041.15
583.54	65085.62
583.70	65127.75
583.86	65102.00
584.02	65062.21
584.18	65197.96
584.34	65275.20
584.50	65167.54
584.66	65144.13
584.82	64999.02
584.98	65162.85
585.14	65057.53
585.30	64996.68
585.46	65148.81
585.62	64907.74
585.78	65022.42
585.94	64924.12
586.10	64886.67
586.26	65209.67
586.42	65214.35
586.58	65427.34
586.74	65235.41
586.90	64952.21
587.06	64938.16
587.22	65083.28
587.38	64989.66
587.54	65240.09
587.70	65242.43
587.86	65420.31
588.02	65408.61
588.18	65385.21
588.34	65118.38
588.49	65190.94
