SpectraSuite Data File
++++++++++++++++++++++++++++++++++++
Date: Fri Oct 04 11:48:45 GMT-05:00 2013
User: price-jones
Dark Spectrum Present: No
Reference Spectrum Present: No
Number of Sampled Component Spectra: 1
Spectrometers: USB2+H05261
Integration Time (usec): 100000 (USB2+H05261)
Spectra Averaged: 1 (USB2+H05261)
Boxcar Smoothing: 0 (USB2+H05261)
Correct for Electrical Dark: No (USB2+H05261)
Strobe/Lamp Enabled: No (USB2+H05261)
Correct for Detector Non-linearity: No (USB2+H05261)
Correct for Stray Light: No (USB2+H05261)
Number of Pixels in Processed Spectrum: 2048
>>>>>Begin Processed Spectral Data<<<<<
365.73	44.47
365.92	44.47
366.12	44.47
366.32	0.00
366.52	0.00
366.72	0.00
366.91	0.00
367.11	0.00
367.31	0.00
367.51	0.00
367.70	0.00
367.90	0.00
368.10	0.00
368.30	0.00
368.49	0.00
368.69	0.00
368.89	0.00
369.09	0.00
369.28	0.00
369.48	0.00
369.68	0.00
369.87	0.00
370.07	0.00
370.27	0.00
370.47	131.07
370.66	311.29
370.86	278.52
371.06	360.44
371.25	311.29
371.45	367.46
371.65	407.25
371.84	320.65
372.04	292.57
372.24	486.83
372.44	400.23
372.63	367.46
372.83	433.00
373.03	383.85
373.22	376.83
373.42	437.68
373.62	383.85
373.81	395.55
374.01	360.44
374.21	475.13
374.40	477.47
374.60	500.87
374.79	390.87
374.99	376.83
375.19	475.13
375.38	449.38
375.58	531.30
375.78	461.09
375.97	486.83
376.17	528.96
376.37	491.51
376.56	568.75
376.76	500.87
376.95	489.17
377.15	571.09
377.35	491.51
377.54	461.09
377.74	477.47
377.93	496.19
378.13	557.05
378.33	545.34
378.52	552.37
378.72	519.60
378.91	521.94
379.11	517.26
379.31	533.64
379.50	470.45
379.70	566.41
379.89	601.52
380.09	606.20
380.28	585.13
380.48	491.51
380.68	531.30
380.87	512.58
381.07	557.05
381.26	660.03
381.46	603.86
381.65	575.77
381.85	568.75
382.04	587.47
382.24	603.86
382.43	524.28
382.63	615.56
382.83	695.14
383.02	660.03
383.22	645.99
383.41	631.94
383.61	655.35
383.80	720.88
384.00	648.33
384.19	582.79
384.39	746.63
384.58	664.71
384.78	699.82
384.97	674.07
385.17	716.20
385.36	702.16
385.56	709.18
385.75	716.20
385.95	655.35
386.14	704.50
386.34	683.44
386.53	765.36
386.72	699.82
386.92	809.83
387.11	692.80
387.31	774.72
387.50	690.46
387.70	650.67
387.89	760.67
388.09	744.29
388.28	730.25
388.48	725.57
388.67	800.46
388.86	784.08
389.06	730.25
389.25	781.74
389.45	861.32
389.64	788.76
389.84	880.04
390.03	889.40
390.22	901.11
390.42	786.42
390.61	835.57
390.81	826.21
391.00	894.08
391.19	877.70
391.39	884.72
391.58	922.17
391.78	896.43
391.97	903.45
392.16	915.15
392.36	1018.13
392.55	1041.54
392.75	919.83
392.94	866.00
393.13	954.94
393.33	851.96
393.52	866.00
393.71	971.32
393.91	957.28
394.10	1004.09
394.29	1006.43
394.49	1008.77
394.68	1062.60
394.88	1071.97
395.07	1057.92
395.26	973.66
395.46	1020.47
395.65	1107.07
395.84	1097.71
396.04	1179.63
396.23	1064.94
396.42	1071.97
396.62	1203.04
396.81	1205.38
397.00	1078.99
397.19	1139.84
397.39	1107.07
397.58	1153.88
397.77	1144.52
397.97	1149.20
398.16	1179.63
398.35	1191.33
398.55	1217.08
398.74	1245.16
398.93	1296.66
399.12	1193.67
399.32	1153.88
399.51	1224.10
399.70	1226.44
399.90	1256.87
400.09	1345.81
400.28	1301.34
400.47	1406.66
400.67	1355.17
400.86	1345.81
401.05	1387.94
401.24	1411.34
401.44	1432.41
401.63	1355.17
401.82	1376.24
402.01	1352.83
402.21	1427.73
402.40	1453.47
402.59	1453.47
402.78	1458.15
402.97	1364.53
403.17	1607.95
403.36	1549.43
403.55	1472.20
403.74	1621.99
403.93	1612.63
404.13	1556.46
404.32	1500.28
404.51	1568.16
404.70	1589.22
404.89	1640.72
405.09	1631.35
405.28	1685.19
405.47	1757.74
405.66	1570.50
405.85	1785.83
406.05	1659.44
406.24	1764.76
406.43	1732.00
406.62	1706.25
406.81	1799.87
407.00	1750.72
407.20	1853.70
407.39	1769.44
407.58	1813.92
407.77	1874.77
407.96	1989.46
408.15	1881.79
408.34	1881.79
408.54	1984.77
408.73	1914.56
408.92	1980.09
409.11	2024.56
409.30	2064.35
409.49	2094.78
409.68	2097.12
409.87	2045.63
410.07	2073.71
410.26	2099.46
410.45	2120.53
410.64	2167.34
410.83	2204.78
411.02	2186.06
411.21	2150.95
411.40	2232.87
411.59	2312.45
411.78	2314.79
411.98	2312.45
412.17	2328.83
412.36	2380.32
412.55	2459.90
412.74	2492.67
412.93	2464.58
413.12	2413.09
413.31	2495.01
413.50	2471.61
413.69	2525.44
413.88	2593.31
414.07	2527.78
414.26	2609.70
414.45	2682.25
414.64	2576.93
414.83	2759.49
415.02	2581.61
415.22	2724.38
415.41	2906.95
415.60	2864.82
415.79	2806.30
415.98	2939.71
416.17	2810.98
416.36	2932.69
416.55	2956.10
416.74	2909.29
416.93	3070.78
417.12	2972.48
417.31	3056.74
417.50	3101.21
417.69	3159.72
417.88	3176.11
418.07	3061.42
418.26	3227.60
418.45	3276.75
418.64	3199.51
418.83	3283.77
419.02	3389.10
419.21	3281.43
419.39	3351.65
419.58	3335.26
419.77	3234.62
419.96	3293.13
420.15	3407.82
420.34	3370.37
420.53	3428.88
420.72	3529.53
420.91	3431.23
421.10	3611.45
421.29	3653.58
421.48	3344.63
421.67	3473.36
421.86	3489.74
422.05	3667.62
422.24	3389.10
422.43	3602.08
422.61	3524.85
422.80	3595.06
422.99	3786.99
423.18	3681.66
423.37	3840.82
423.56	3618.47
423.75	3604.42
423.94	3449.95
424.13	3398.46
424.32	3468.67
424.50	3646.55
424.69	3609.11
424.88	3695.71
425.07	3611.45
425.26	3625.49
425.45	3627.83
425.64	3611.45
425.83	3730.81
426.01	3761.24
426.20	3796.35
426.39	3695.71
426.58	3723.79
426.77	3831.46
426.96	3765.92
427.15	3868.91
427.33	3808.05
427.52	3854.86
427.71	3871.25
427.90	3875.93
428.09	3899.33
428.28	4018.70
428.46	4077.21
428.65	4119.34
428.84	3927.42
429.03	4128.70
429.22	3967.21
429.40	4035.08
429.59	4074.87
429.78	3936.78
429.97	3838.48
430.16	3838.48
430.34	4018.70
430.53	4243.39
430.72	4313.61
430.91	4081.89
431.10	4093.60
431.28	4212.96
431.47	4229.35
431.66	4271.48
431.85	4245.73
432.03	4337.01
432.22	4573.41
432.41	4444.68
432.60	4376.80
432.79	4416.59
432.97	4552.34
433.16	4538.30
433.35	4465.74
433.54	4620.22
433.72	4571.07
433.91	4554.68
434.10	4484.47
434.28	4592.13
434.47	4514.89
434.66	4711.50
434.85	4568.73
435.03	4713.84
435.22	4617.88
435.41	4849.59
435.59	4664.69
435.78	4812.14
435.97	4793.42
436.16	4830.87
436.34	4730.22
436.53	4802.78
436.72	4833.21
436.90	4779.37
437.09	4919.81
437.28	4854.27
437.46	5032.15
437.65	4896.40
437.84	4945.55
438.02	5144.50
438.21	4980.66
438.40	5081.30
438.58	5352.81
438.77	5177.26
438.96	5132.79
439.14	5350.46
439.33	5315.36
439.52	5472.17
439.70	5481.53
439.89	5479.19
440.08	5575.16
440.26	5544.73
440.45	5694.52
440.63	5526.00
440.82	5603.24
441.01	5640.69
441.19	5518.98
441.38	5858.36
441.57	5746.02
441.75	5802.19
441.94	5963.68
442.12	5891.13
442.31	5832.62
442.50	5937.94
442.68	5816.23
442.87	6106.46
443.05	6069.01
443.24	6225.82
443.43	6326.47
443.61	6186.04
443.80	6403.71
443.98	6167.31
444.17	5982.41
444.35	6134.54
444.54	6174.33
444.73	6399.02
444.91	6310.08
445.10	6188.38
445.28	6155.61
445.47	6204.76
445.65	6214.12
445.84	6143.91
446.02	6193.06
446.21	6134.54
446.39	6160.29
446.58	6326.47
446.77	6310.08
446.95	6190.72
447.14	6298.38
447.32	6296.04
447.51	6289.02
447.69	6452.86
447.88	6516.05
448.06	6249.23
448.25	6244.55
448.43	6480.94
448.62	6347.53
448.80	6436.47
448.99	6363.92
449.17	6595.63
449.36	6289.02
449.54	6497.33
449.73	6567.54
449.91	6663.51
450.10	6651.80
450.28	6771.17
450.46	6684.57
450.65	6754.79
450.83	6750.10
451.02	6752.45
451.20	6738.40
451.39	6775.85
451.57	6712.66
451.76	6951.39
451.94	6890.54
452.13	7105.87
452.31	6930.33
452.49	6885.86
452.68	6956.07
452.86	6988.84
453.05	6998.20
453.23	7152.68
453.42	7054.37
453.60	6871.81
453.78	7073.10
453.97	7138.63
454.15	7030.97
454.34	6963.09
454.52	7243.96
454.70	7208.85
454.89	7276.73
455.07	7143.32
455.26	7344.60
455.44	7288.43
455.62	7463.97
455.81	7307.15
455.99	7557.59
456.17	7513.12
456.36	7403.11
456.54	7382.05
456.73	7508.44
456.91	7861.86
457.09	7845.48
457.28	7908.67
457.46	7644.19
457.64	7922.71
457.83	7871.22
458.01	7791.64
458.19	8021.02
458.38	7770.58
458.56	8088.89
458.74	8081.87
458.93	7927.39
459.11	7964.84
459.29	8063.15
459.48	8138.04
459.66	8028.04
459.84	8145.06
460.03	8081.87
460.21	8124.00
460.39	8100.59
460.57	8119.32
460.76	8259.75
460.94	8402.52
461.12	8362.73
461.31	8262.09
461.49	8393.16
461.67	8379.12
461.85	8641.26
462.04	8336.99
462.22	8884.67
462.40	8505.51
462.59	8592.11
462.77	8669.34
462.95	8741.90
463.13	8634.24
463.32	8748.92
463.50	8690.41
463.68	8704.45
463.86	8842.54
464.05	8765.31
464.23	8723.18
464.41	8807.44
464.59	8678.71
464.78	8908.08
464.96	8685.73
465.14	8716.16
465.32	9027.45
465.50	9036.81
465.69	9015.74
465.87	8894.04
466.05	9137.45
466.23	8973.61
466.41	9100.00
466.60	9219.37
466.78	9081.28
466.96	9050.85
467.14	9107.02
467.32	9430.02
467.51	9280.22
467.69	8933.82
467.87	9174.90
468.05	9317.67
468.23	9364.48
468.41	9238.09
468.60	9331.72
468.78	9294.27
468.96	9350.44
469.14	9472.15
469.32	9521.30
469.50	9423.00
469.69	9706.20
469.87	9647.69
470.05	9692.16
470.23	9724.93
470.41	9841.95
470.59	9851.31
470.77	9844.29
470.95	9963.66
471.14	10019.83
471.32	10001.11
471.50	10188.35
471.68	10078.35
471.86	10200.05
472.04	10155.58
472.22	10317.08
472.40	10008.13
472.58	10157.92
472.77	10176.65
472.95	10548.79
473.13	10757.10
473.31	10415.38
473.49	10490.28
473.67	10415.38
473.85	10555.82
474.03	10686.89
474.21	10562.84
474.39	11112.86
474.57	10984.13
474.75	11021.58
474.93	11143.29
475.12	11126.91
475.30	11351.60
475.48	11180.74
475.66	11454.58
475.84	11353.94
476.02	11690.98
476.20	11508.41
476.38	11667.57
476.56	11920.35
476.74	11728.42
476.92	11770.55
477.10	12004.61
477.28	12152.06
477.46	11918.01
477.64	12093.55
477.82	12168.45
478.00	12461.01
478.18	12549.95
478.36	12711.45
478.54	12585.06
478.72	12727.83
478.90	12826.14
479.08	12842.52
479.26	12877.63
479.44	13240.41
479.62	13310.63
479.80	13371.48
479.98	13341.05
480.16	13624.26
480.34	13488.51
480.52	13776.39
480.70	13703.84
480.88	13710.86
481.06	13818.52
481.24	14078.32
481.41	14080.66
481.59	14305.35
481.77	14293.65
481.95	14595.58
482.13	14703.25
482.31	14862.40
482.49	15082.41
482.67	14892.83
482.85	15173.69
483.03	15419.45
483.21	15576.27
483.39	15826.70
483.57	15389.02
483.74	15545.84
483.92	15925.00
484.10	16023.31
484.28	16170.76
484.46	16414.18
484.64	16638.87
484.82	16245.66
485.00	16641.21
485.18	16802.71
485.35	16828.45
485.53	16886.97
485.71	16814.41
485.89	17259.11
486.07	17074.21
486.25	17462.74
486.43	17495.50
486.61	17905.10
486.78	17785.73
486.96	18104.04
487.14	18661.09
487.32	18312.35
487.50	18361.50
487.68	18279.58
487.85	18649.39
488.03	18899.83
488.21	19194.73
488.39	19119.84
488.57	19290.70
488.75	19321.12
488.92	19901.58
489.10	19777.53
489.28	20037.33
489.46	20081.80
489.64	20037.33
489.81	20540.54
489.99	20269.04
490.17	20414.15
490.35	20807.36
490.53	21191.21
490.70	21113.97
490.88	21221.64
491.06	21331.64
491.24	21329.30
491.41	21455.69
491.59	21694.43
491.77	22258.49
491.95	21795.07
492.13	21940.18
492.30	22567.45
492.48	22162.53
492.66	22326.37
492.84	22794.48
493.01	23147.90
493.19	22841.29
493.37	22967.68
493.54	23129.17
493.72	23274.29
493.90	23002.78
494.08	23871.12
494.25	23833.68
494.43	24056.03
494.61	24063.05
494.79	24418.81
494.96	23988.15
495.14	24341.57
495.32	24479.66
495.49	24510.09
495.67	24978.20
495.85	25127.99
496.02	25434.60
496.20	25268.42
496.38	24978.20
496.55	25191.19
496.73	26237.41
496.91	25584.40
497.09	25675.68
497.26	26068.89
497.44	25811.43
497.62	26368.48
497.79	26305.28
497.97	26305.28
498.14	26607.21
498.32	26698.49
498.50	27028.51
498.67	26850.63
498.85	27281.28
499.03	27379.59
499.20	27447.46
499.38	27541.08
499.56	27669.81
499.73	27899.19
499.91	28252.61
500.08	28112.17
500.26	27847.69
500.44	27967.06
500.61	28414.10
500.79	27948.34
500.97	28250.27
501.14	28800.29
501.32	28608.37
501.49	28891.57
501.67	29027.32
501.84	28849.44
502.02	28959.45
502.20	29020.30
502.37	29436.92
502.55	29268.40
502.72	29165.42
502.90	29565.65
503.07	29511.81
503.25	29923.75
503.43	29750.55
503.60	29783.32
503.78	30171.85
503.95	30082.91
504.13	30110.99
504.30	30202.27
504.48	30338.02
504.65	30174.19
504.83	30806.13
505.01	31246.15
505.18	31007.42
505.36	30869.33
505.53	30780.39
505.71	31211.04
505.88	31220.41
506.06	31133.81
506.23	31433.39
506.41	31243.81
506.58	31613.62
506.76	31360.84
506.93	32006.83
507.11	31566.81
507.28	31878.10
507.46	32285.35
507.63	32280.67
507.81	32444.51
507.98	32205.77
508.16	32477.27
508.33	32292.37
508.50	32631.75
508.68	32229.18
508.85	32783.88
509.03	32985.17
509.20	32870.48
509.38	33436.89
509.55	33380.72
509.73	33507.11
509.90	33177.09
510.08	33490.73
510.25	33289.44
510.42	33673.29
510.60	34015.01
510.77	33830.10
510.95	33900.32
511.12	33713.08
511.30	34110.97
511.47	34265.44
511.64	34169.48
511.82	34775.68
511.99	34534.60
512.17	34368.43
512.34	34504.18
512.51	34829.51
512.69	34904.41
512.86	35232.08
513.04	35098.67
513.21	35632.32
513.38	35328.05
513.56	35529.33
513.73	35466.14
513.90	35386.56
514.08	35185.27
514.25	35824.24
514.43	35491.88
514.60	35875.73
514.77	35775.09
514.95	36091.06
515.12	35849.99
515.29	36332.14
515.47	36259.58
515.64	36388.31
515.81	36336.82
515.99	36692.58
516.16	36914.93
516.33	36285.33
516.51	37181.75
516.68	37015.57
516.85	36603.64
517.03	37336.23
517.20	37315.16
517.37	37024.93
517.54	37759.86
517.72	37160.69
517.89	37219.20
518.06	37556.24
518.24	37469.64
518.41	37186.43
518.58	37806.67
518.75	37710.71
518.93	37853.48
519.10	38110.94
519.27	38281.80
519.45	38052.43
519.62	38380.10
519.79	38012.64
519.96	38382.45
520.14	38768.63
520.31	38089.88
520.48	38855.23
520.65	38522.88
520.83	38782.68
521.00	39218.02
521.17	38941.83
521.34	38651.61
521.52	39337.38
521.69	39328.02
521.86	39405.26
522.03	39494.20
522.20	39779.74
522.38	39505.90
522.55	39536.33
522.72	39480.16
522.89	39693.15
523.07	40238.49
523.24	39735.27
523.41	40367.22
523.58	39681.44
523.75	40065.29
523.92	39889.75
524.10	40179.98
524.27	40151.89
524.44	40481.91
524.61	41043.63
524.78	41001.50
524.96	40575.53
525.13	40605.95
525.30	40914.90
525.47	40538.08
525.64	41242.58
525.81	41397.06
525.98	40818.94
526.16	41333.86
526.33	41020.23
526.50	41530.47
526.67	41284.71
526.84	41254.28
527.01	41544.51
527.18	41497.70
527.36	41539.83
527.53	41879.21
527.70	42157.73
527.87	41837.08
528.04	42253.69
528.21	41794.95
528.38	42160.07
528.55	42335.61
528.72	42096.88
528.89	42377.74
529.07	42632.86
529.24	42139.00
529.41	42183.48
529.58	41935.38
529.75	42249.01
529.92	42155.39
530.09	42817.76
530.26	42841.17
530.43	42604.77
530.60	42527.53
530.77	42951.17
530.94	43082.24
531.11	42256.03
531.28	42787.33
531.46	42576.69
531.63	43480.13
531.80	43438.00
531.97	43700.14
532.14	43257.78
532.31	43316.29
532.48	43325.66
532.65	43438.00
532.82	43735.25
532.99	43903.77
533.16	43615.88
533.33	43999.73
533.50	43948.24
533.67	44327.41
533.84	43943.56
534.01	43667.37
534.18	43438.00
534.35	44409.32
534.52	43924.83
534.69	44411.67
534.86	44643.38
535.03	44137.82
535.20	44570.82
535.37	44587.21
535.54	44322.72
535.71	44353.15
535.88	44472.52
536.05	44610.61
536.22	45144.25
536.38	44980.42
536.55	44652.74
536.72	45146.59
536.89	44437.41
537.06	45242.56
537.23	44994.46
537.40	44933.60
537.57	45006.16
537.74	45038.93
537.91	45883.86
538.08	45191.06
538.25	45200.43
538.42	45446.18
538.59	45485.97
538.75	45160.64
538.92	45258.94
539.09	45450.86
539.26	45558.53
539.43	46014.93
539.60	45790.24
539.77	45668.53
539.94	45823.01
540.11	45233.19
540.28	46178.77
540.44	46141.32
540.61	45682.58
540.78	45502.35
540.95	46527.51
541.12	46021.95
541.29	46012.59
541.46	45689.60
541.62	45867.48
541.79	45923.65
541.96	45752.79
542.13	46064.08
542.30	46433.89
542.47	46670.28
542.63	46459.63
542.80	46658.58
542.97	46745.18
543.14	46576.66
543.31	47037.75
543.48	46728.80
543.64	47070.51
543.81	46925.40
543.98	47056.47
544.15	47229.67
544.32	47103.28
544.48	47683.73
544.65	46946.47
544.82	46820.08
544.99	46796.67
545.16	47480.11
545.32	47391.17
545.49	47566.71
545.66	48222.06
545.83	48123.75
546.00	48025.45
546.16	48271.21
546.33	47618.20
546.50	47456.70
546.67	47856.93
546.83	47606.50
547.00	47580.75
547.17	47636.92
547.34	47529.26
547.50	47976.30
547.67	48004.39
547.84	47817.14
548.00	48294.61
548.17	48273.55
548.34	48570.80
548.51	48318.02
548.67	48406.96
548.84	48229.08
549.01	48509.94
549.18	47950.56
549.34	47856.93
549.51	47709.48
549.68	48619.95
549.84	48521.65
550.01	48612.93
550.18	47980.98
550.34	48561.44
550.51	48715.91
550.68	48706.55
550.84	48121.41
551.01	48481.86
551.18	48343.77
551.34	48411.64
551.51	48648.03
551.68	49155.93
551.84	49057.63
552.01	49144.23
552.18	49160.61
552.34	49069.33
552.51	49064.65
552.68	48645.69
552.84	48809.53
553.01	49169.97
553.18	49050.61
553.34	49303.38
553.51	49050.61
553.67	49485.95
553.84	49666.17
554.01	49502.33
554.17	49268.28
554.34	49338.49
554.51	49432.11
554.67	49565.52
554.84	49289.34
555.00	49525.74
555.17	49631.06
555.33	49537.44
555.50	49289.34
555.67	49277.64
555.83	49785.54
556.00	49734.04
556.16	49434.45
556.33	49579.57
556.50	49497.65
556.66	49593.61
556.83	49989.16
556.99	50057.04
557.16	50155.34
557.32	49844.05
557.49	49813.62
557.65	49684.89
557.82	49745.75
557.98	49860.43
558.15	49619.36
558.32	50106.19
558.48	50284.07
558.65	49986.82
558.81	50120.23
558.98	49982.14
559.14	49925.97
559.31	49918.95
559.47	50094.49
559.64	50415.14
559.80	50513.44
559.97	50309.82
560.13	49986.82
560.30	50227.90
560.46	50408.12
560.63	50415.14
560.79	50398.76
560.96	50461.95
561.12	50438.54
561.29	50302.79
561.45	50714.73
561.61	50365.99
561.78	49881.50
561.94	50342.58
562.11	50483.01
562.27	50632.81
562.44	50181.09
562.60	50408.12
562.77	50424.50
562.93	50475.99
563.10	50878.57
563.26	50234.92
563.42	50913.67
563.59	50492.38
563.75	50602.38
563.92	50820.05
564.08	50361.31
564.24	50361.31
564.41	50291.09
564.57	50536.85
564.74	50206.83
564.90	50567.27
565.07	50876.22
565.23	50916.01
565.39	50691.32
565.56	50768.56
565.72	50380.03
565.88	50974.53
566.05	50431.52
566.21	50621.11
566.38	50693.66
566.54	50876.22
566.70	51168.79
566.87	51194.54
567.03	50911.33
567.19	51267.09
567.36	50787.28
567.52	50908.99
567.68	51208.58
567.85	50841.12
568.01	50990.91
568.17	50873.88
568.34	51386.46
568.50	51344.33
568.66	51178.15
568.83	51119.64
568.99	50990.91
569.15	50911.33
569.32	50796.65
569.48	50817.71
569.64	51306.88
569.81	51171.13
569.97	50862.18
570.13	51164.11
570.30	50906.65
570.46	51084.53
570.62	50920.70
570.78	50904.31
570.95	50784.94
571.11	51114.96
571.27	50550.89
571.43	50869.20
571.60	51257.73
571.76	51143.05
571.92	51468.38
572.09	51269.43
572.25	51236.67
572.41	51196.88
572.57	51306.88
572.74	51466.04
572.90	50899.63
573.06	51320.93
573.22	51089.21
573.38	51629.88
573.55	51428.59
573.71	51430.93
573.87	51426.25
574.03	51313.90
574.20	51695.41
574.36	51243.69
574.52	50965.17
574.68	51409.87
574.84	51306.88
575.01	51463.70
575.17	51325.61
575.33	51271.78
575.49	51606.47
575.65	51320.93
575.82	51496.47
575.98	51260.07
576.14	51283.48
576.30	51606.47
576.46	51262.41
576.62	51023.68
576.79	51248.37
576.95	51229.65
577.11	51491.79
577.27	51414.55
577.43	51737.54
577.59	51449.66
577.75	51365.40
577.92	51002.61
578.08	51576.04
578.24	51423.91
578.40	51812.44
578.56	51573.70
578.72	51452.00
578.88	51557.32
579.04	51489.45
579.21	51508.17
579.37	51674.35
579.53	51454.34
579.69	51341.99
579.85	51508.17
580.01	51522.21
580.17	51379.44
580.33	51700.09
580.49	51552.64
580.65	51547.96
580.82	51718.82
580.98	51381.78
581.14	51178.15
581.30	51730.52
581.46	51363.06
581.62	50939.42
581.78	50908.99
581.94	51501.15
582.10	51419.23
582.26	51524.55
582.42	51456.68
582.58	51735.20
582.74	52072.24
582.90	51700.09
583.06	51416.89
583.22	51248.37
583.38	51508.17
583.54	51367.74
583.70	51639.24
583.86	51704.77
584.02	51419.23
584.18	51899.04
584.34	51835.84
584.50	51852.23
584.66	51672.01
584.82	51337.31
584.98	51566.68
585.14	51669.67
585.30	51288.16
585.46	51772.65
585.62	51606.47
585.78	52006.70
585.94	51641.58
586.10	51615.83
586.26	51662.64
586.42	51943.51
586.58	52051.17
586.74	51789.03
586.90	51473.06
587.06	51686.05
587.22	51636.90
587.38	51817.12
587.54	51873.29
587.70	51742.22
587.86	51679.03
588.02	51899.04
588.18	52006.70
588.34	51782.01
588.49	51774.99
588.65	51243.69
588.81	51473.06
588.97	51690.73
589.13	51892.02
589.29	51430.93
589.45	51798.40
589.61	52032.45
589.77	52222.03
589.93	51868.61
590.08	51859.25
590.24	51767.97
