SpectraSuite Data File
++++++++++++++++++++++++++++++++++++
Date: Fri Oct 04 11:48:42 GMT-05:00 2013
User: price-jones
Dark Spectrum Present: No
Reference Spectrum Present: No
Number of Sampled Component Spectra: 1
Spectrometers: USB2+H05261
Integration Time (usec): 100000 (USB2+H05261)
Spectra Averaged: 1 (USB2+H05261)
Boxcar Smoothing: 0 (USB2+H05261)
Correct for Electrical Dark: No (USB2+H05261)
Strobe/Lamp Enabled: No (USB2+H05261)
Correct for Detector Non-linearity: No (USB2+H05261)
Correct for Stray Light: No (USB2+H05261)
Number of Pixels in Processed Spectrum: 2048
>>>>>Begin Processed Spectral Data<<<<<
365.73	44.47
365.92	44.47
366.12	44.47
366.32	0.00
366.52	0.00
366.72	0.00
366.91	0.00
367.11	0.00
367.31	0.00
367.51	0.00
367.70	0.00
367.90	0.00
368.10	0.00
368.30	0.00
368.49	0.00
368.69	0.00
368.89	4.68
369.09	0.00
369.28	0.00
369.48	0.00
369.68	0.00
369.87	0.00
370.07	0.00
370.27	9.36
370.47	2.34
370.66	46.81
370.86	84.26
371.06	177.88
371.25	124.05
371.45	145.11
371.65	152.13
371.84	131.07
372.04	102.98
372.24	110.01
372.44	138.09
372.63	67.88
372.83	166.18
373.03	168.52
373.22	91.28
373.42	88.94
373.62	203.63
373.81	194.26
374.01	196.60
374.21	175.54
374.40	147.45
374.60	126.39
374.79	140.43
374.99	102.98
375.19	163.84
375.38	142.77
375.58	124.05
375.78	145.11
375.97	187.24
376.17	252.78
376.37	138.09
376.56	159.16
376.76	140.43
376.95	121.71
377.15	112.35
377.35	154.48
377.54	170.86
377.74	184.90
377.93	156.82
378.13	117.03
378.33	189.58
378.52	145.11
378.72	175.54
378.91	198.95
379.11	170.86
379.31	149.79
379.50	163.84
379.70	212.99
379.89	168.52
380.09	191.92
380.28	119.37
380.48	163.84
380.68	102.98
380.87	184.90
381.07	184.90
381.26	208.31
381.46	140.43
381.65	156.82
381.85	163.84
382.04	152.13
382.24	241.08
382.43	131.07
382.63	173.20
382.83	154.48
383.02	227.03
383.22	252.78
383.41	152.13
383.61	212.99
383.80	128.73
384.00	177.88
384.19	215.33
384.39	252.78
384.58	187.24
384.78	184.90
384.97	161.50
385.17	212.99
385.36	145.11
385.56	208.31
385.75	147.45
385.95	184.90
386.14	138.09
386.34	119.37
386.53	147.45
386.72	231.71
386.92	231.71
387.11	203.63
387.31	210.65
387.50	203.63
387.70	201.29
387.89	224.69
388.09	194.26
388.28	133.41
388.48	212.99
388.67	196.60
388.86	210.65
389.06	182.56
389.25	241.08
389.45	238.73
389.64	168.52
389.84	271.50
390.03	252.78
390.22	287.89
390.42	229.37
390.61	210.65
390.81	166.18
391.00	245.76
391.19	290.23
391.39	257.46
391.58	299.59
391.78	184.90
391.97	292.57
392.16	266.82
392.36	367.46
392.55	257.46
392.75	278.52
392.94	227.03
393.13	224.69
393.33	252.78
393.52	280.86
393.71	243.42
393.91	255.12
394.10	264.48
394.29	278.52
394.49	311.29
394.68	315.97
394.88	266.82
395.07	353.42
395.26	301.93
395.46	266.82
395.65	290.23
395.84	369.80
396.04	339.38
396.23	299.59
396.42	297.25
396.62	339.38
396.81	308.95
397.00	348.74
397.19	308.95
397.39	341.72
397.58	313.63
397.77	304.27
397.97	362.78
398.16	369.80
398.35	402.57
398.55	280.86
398.74	360.44
398.93	407.25
399.12	362.78
399.32	421.30
399.51	369.80
399.70	372.15
399.90	435.34
400.09	425.98
400.28	463.43
400.47	421.30
400.67	435.34
400.86	437.68
401.05	456.40
401.24	500.87
401.44	468.11
401.63	545.34
401.82	451.72
402.01	507.90
402.21	493.85
402.40	468.11
402.59	484.49
402.78	425.98
402.97	411.93
403.17	550.03
403.36	456.40
403.55	411.93
403.74	528.96
403.93	526.62
404.13	500.87
404.32	610.88
404.51	526.62
404.70	596.84
404.89	533.64
405.09	645.99
405.28	638.97
405.47	535.98
405.66	683.44
405.85	617.90
406.05	648.33
406.24	622.58
406.43	725.57
406.62	674.07
406.81	788.76
407.00	627.26
407.20	699.82
407.39	690.46
407.58	704.50
407.77	697.48
407.96	751.31
408.15	763.01
408.34	697.48
408.54	695.14
408.73	730.25
408.92	788.76
409.11	784.08
409.30	746.63
409.49	849.61
409.68	830.89
409.87	842.59
410.07	870.68
410.26	816.85
410.45	891.74
410.64	875.36
410.83	877.70
411.02	866.00
411.21	973.66
411.40	842.59
411.59	985.37
411.78	959.62
411.98	915.15
412.17	954.94
412.36	947.92
412.55	992.39
412.74	1050.90
412.93	1053.24
413.12	1018.13
413.31	1156.22
413.50	1006.43
413.69	1172.61
413.88	1153.88
414.07	1095.37
414.26	1029.84
414.45	1116.44
414.64	1153.88
414.83	1256.87
415.02	1153.88
415.22	1205.38
415.41	1315.38
415.60	1034.52
415.79	1217.08
415.98	1317.72
416.17	1240.48
416.36	1303.68
416.55	1315.38
416.74	1317.72
416.93	1266.23
417.12	1322.40
417.31	1306.02
417.50	1324.74
417.69	1364.53
417.88	1329.42
418.07	1336.45
418.26	1418.36
418.45	1277.93
418.64	1572.84
418.83	1385.60
419.02	1504.96
419.21	1483.90
419.39	1493.26
419.58	1488.58
419.77	1493.26
419.96	1469.86
420.15	1554.12
420.34	1441.77
420.53	1561.14
420.72	1554.12
420.91	1535.39
421.10	1549.43
421.29	1516.67
421.48	1563.48
421.67	1586.88
421.86	1458.15
422.05	1668.80
422.24	1626.67
422.43	1692.21
422.61	1645.40
422.80	1612.63
422.99	1607.95
423.18	1659.44
423.37	1659.44
423.56	1710.93
423.75	1570.50
423.94	1540.07
424.13	1523.69
424.32	1640.72
424.50	1542.41
424.69	1783.49
424.88	1621.99
425.07	1624.33
425.26	1694.55
425.45	1657.10
425.64	1640.72
425.83	1736.68
426.01	1584.54
426.20	1626.67
426.39	1647.74
426.58	1732.00
426.77	1746.04
426.96	1701.57
427.15	1753.06
427.33	1717.95
427.52	1694.55
427.71	1813.92
427.90	1664.12
428.09	1820.94
428.28	1846.68
428.46	1827.96
428.65	1832.64
428.84	1856.04
429.03	1987.11
429.22	1809.23
429.40	1760.08
429.59	1799.87
429.78	1788.17
429.97	1764.76
430.16	1825.62
430.34	1842.00
430.53	1900.52
430.72	1825.62
430.91	1874.77
431.10	1823.28
431.28	1891.15
431.47	1919.24
431.66	1858.39
431.85	1916.90
432.03	2040.95
432.22	1952.01
432.41	1849.02
432.60	1984.77
432.79	1963.71
432.97	1973.07
433.16	2054.99
433.35	2045.63
433.54	2176.70
433.72	2111.16
433.91	1923.92
434.10	2003.50
434.28	1975.41
434.47	1928.60
434.66	2153.29
434.85	2127.55
435.03	2054.99
435.22	2150.95
435.41	2230.53
435.59	2132.23
435.78	2221.17
435.97	2125.21
436.16	2214.15
436.34	2153.29
436.53	2230.53
436.72	2202.44
436.90	2169.68
437.09	2373.30
437.28	2085.42
437.46	2162.66
437.65	2235.21
437.84	2193.08
438.02	2298.41
438.21	2193.08
438.40	2190.74
438.58	2303.09
438.77	2380.32
438.96	2368.62
439.14	2389.69
439.33	2553.52
439.52	2408.41
439.70	2298.41
439.89	2471.61
440.08	2399.05
440.26	2408.41
440.45	2511.39
440.63	2520.76
440.82	2539.48
441.01	2441.18
441.19	2506.71
441.38	2499.69
441.57	2504.37
441.75	2607.36
441.94	2551.18
442.12	2525.44
442.31	2729.06
442.50	2691.62
442.68	2644.81
442.87	2726.72
443.05	2710.34
443.24	2778.22
443.43	2827.37
443.61	2752.47
443.80	2754.81
443.98	2693.96
444.17	2668.21
444.35	2890.56
444.54	2785.24
444.73	2789.92
444.91	2759.49
445.10	2715.02
445.28	2771.19
445.47	2768.85
445.65	2761.83
445.84	2710.34
446.02	2846.09
446.21	2647.15
446.39	2731.41
446.58	2677.57
446.77	2747.79
446.95	2890.56
447.14	2906.95
447.32	2810.98
447.51	2773.53
447.69	2789.92
447.88	2848.43
448.06	2916.31
448.25	3002.91
448.43	2846.09
448.62	2876.52
448.80	2897.58
448.99	2925.67
449.17	2885.88
449.36	2871.84
449.54	2885.88
449.73	3052.06
449.91	3028.65
450.10	2902.26
450.28	3145.68
450.46	3122.27
450.65	3045.04
450.83	3080.14
451.02	3047.38
451.20	3103.55
451.39	3038.02
451.57	3026.31
451.76	3016.95
451.94	3056.74
452.13	3131.64
452.31	3098.87
452.49	3155.04
452.68	3084.83
452.86	3049.72
453.05	3068.44
453.23	3133.98
453.42	3152.70
453.60	3115.25
453.78	3159.72
453.97	2991.20
454.15	3218.24
454.34	3241.64
454.52	3236.96
454.70	3236.96
454.89	3316.54
455.07	3316.54
455.26	3295.47
455.44	3442.93
455.62	3351.65
455.81	3346.97
455.99	3293.13
456.17	3325.90
456.36	3234.62
456.54	3396.12
456.73	3353.99
456.91	3358.67
457.09	3503.78
457.28	3456.97
457.46	3407.82
457.64	3506.12
457.83	3435.91
458.01	3531.87
458.19	3524.85
458.38	3396.12
458.56	3557.61
458.74	3501.44
458.93	3555.27
459.11	3520.17
459.29	3503.78
459.48	3508.46
459.66	3597.40
459.84	3597.40
460.03	3733.15
460.21	3578.68
460.39	3754.22
460.57	3620.81
460.76	3541.23
460.94	3655.92
461.12	3630.17
461.31	3648.90
461.49	3735.50
461.67	3695.71
461.85	3882.95
462.04	3655.92
462.22	4234.03
462.40	3815.07
462.59	3801.03
462.77	3735.50
462.95	3908.69
463.13	3875.93
463.32	3915.72
463.50	3824.44
463.68	3824.44
463.86	3840.82
464.05	3899.33
464.23	3950.82
464.41	4014.02
464.59	3997.64
464.78	3981.25
464.96	3875.93
465.14	3960.19
465.32	4011.68
465.50	4039.76
465.69	3974.23
465.87	3857.20
466.05	3908.69
466.23	3997.64
466.41	4098.28
466.60	3981.25
466.78	4011.68
466.96	4002.32
467.14	4067.85
467.32	4079.55
467.51	4077.21
467.69	3962.53
467.87	4262.12
468.05	4053.81
468.23	4159.13
468.41	4119.34
468.60	4124.02
468.78	4074.87
468.96	4152.11
469.14	4201.26
469.32	4227.01
469.50	4128.70
469.69	4248.07
469.87	4196.58
470.05	4201.26
470.23	4236.37
470.41	4372.12
470.59	4372.12
470.77	4283.18
470.95	4454.04
471.14	4386.16
471.32	4322.97
471.50	4432.97
471.68	4418.93
471.86	4358.08
472.04	4449.36
472.22	4510.21
472.40	4519.57
472.58	4683.41
472.77	4496.17
472.95	4550.00
473.13	4798.10
473.31	4657.67
473.49	4652.98
473.67	4688.09
473.85	4826.18
474.03	4828.53
474.21	4798.10
474.39	4669.37
474.57	4971.30
474.75	4915.12
474.93	5029.81
475.12	4713.84
475.30	4936.19
475.48	4798.10
475.66	5097.69
475.84	5107.05
476.02	4964.28
476.20	4975.98
476.38	4945.55
476.56	5256.84
476.74	5107.05
476.92	5167.90
477.10	5107.05
477.28	5317.70
477.46	5146.84
477.64	5254.50
477.82	5284.93
478.00	5430.04
478.18	5455.79
478.36	5481.53
478.54	5647.71
478.72	5628.99
478.90	5614.95
479.08	5715.59
479.26	5680.48
479.44	5771.76
479.62	5806.87
479.80	5806.87
479.98	5902.83
480.16	6073.69
480.34	5832.62
480.52	6050.28
480.70	6104.12
480.88	6099.44
481.06	5970.71
481.24	5870.06
481.41	6195.40
481.59	6209.44
481.77	6298.38
481.95	6291.36
482.13	6490.31
482.31	6352.21
482.49	6403.71
482.67	6452.86
482.85	6410.73
483.03	6789.89
483.21	6789.89
483.39	6525.41
483.57	6759.47
483.74	6820.32
483.92	6796.92
484.10	6897.56
484.28	6942.03
484.46	7140.97
484.64	7400.77
484.82	7239.28
485.00	7260.34
485.18	7290.77
485.35	7346.94
485.53	7304.81
485.71	7368.01
485.89	7426.52
486.07	7330.56
486.25	7489.71
486.43	7309.49
486.61	7801.01
486.78	7653.55
486.96	7812.71
487.14	7836.11
487.32	8004.63
487.50	8044.42
487.68	7978.89
487.85	8037.40
488.03	8285.50
488.21	8365.07
488.39	8236.35
488.57	8388.48
488.75	8386.14
488.92	8667.00
489.10	8442.31
489.28	8493.80
489.46	8568.70
489.64	8634.24
489.81	8837.86
489.99	8784.03
490.17	8912.76
490.35	8931.48
490.53	8919.78
490.70	9247.46
490.88	9064.89
491.06	9102.34
491.24	9252.14
491.41	9254.48
491.59	9343.42
491.77	9434.70
491.95	9404.27
492.13	9525.98
492.30	9544.70
492.48	9488.53
492.66	9469.81
492.84	9837.27
493.01	9755.35
493.19	9767.06
493.37	9973.02
493.54	9839.61
493.72	10003.45
493.90	9984.73
494.08	10108.77
494.25	10174.31
494.43	10249.21
494.61	10382.62
494.79	10410.70
494.96	10303.04
495.14	10305.38
495.32	10429.43
495.49	10434.11
495.67	10654.12
495.85	10656.46
496.02	10820.30
496.20	10860.09
496.38	10647.10
496.55	10911.58
496.73	11061.37
496.91	10998.18
497.09	10930.30
497.26	11052.01
497.44	11110.52
497.62	11171.38
497.79	11234.57
497.97	11192.44
498.14	11438.20
498.32	11625.44
498.50	11477.99
498.67	11506.07
498.85	11550.54
499.03	11555.22
499.20	11529.48
499.38	11779.92
499.56	11915.67
499.73	11852.47
499.91	11845.45
500.08	11983.54
500.26	11721.40
500.44	11943.75
500.61	12074.82
500.79	12046.74
500.97	12133.34
501.14	12224.62
501.32	12215.26
501.49	12304.20
501.67	12194.19
501.84	12409.52
502.02	12229.30
502.20	12297.17
502.37	12517.18
502.55	12674.00
502.72	12510.16
502.90	12538.25
503.07	12271.43
503.25	12500.80
503.43	12503.14
503.60	12877.63
503.78	12861.24
503.95	12837.84
504.13	12776.98
504.30	12720.81
504.48	12732.51
504.65	13104.66
504.83	12999.34
505.01	12968.91
505.18	13034.44
505.36	13277.86
505.53	13174.88
505.71	13111.68
505.88	13238.07
506.06	13193.60
506.23	13523.62
506.41	13291.90
506.58	13385.52
506.76	13448.72
506.93	13418.29
507.11	13706.18
507.28	13596.17
507.46	13893.42
507.63	13659.37
507.81	13797.46
507.98	13760.01
508.16	13907.46
508.33	13949.59
508.50	13710.86
508.68	13720.22
508.85	14211.73
509.03	13898.10
509.20	14078.32
509.38	13965.98
509.55	14200.03
509.73	14225.78
509.90	14277.27
510.08	14363.87
510.25	14441.11
510.42	14293.65
510.60	14387.27
510.77	14604.94
510.95	14700.90
511.12	14485.58
511.30	14745.38
511.47	14892.83
511.64	14960.70
511.82	14906.87
511.99	14710.27
512.17	15047.30
512.34	14747.72
512.51	14766.44
512.69	14731.33
512.86	15169.01
513.04	15082.41
513.21	15234.55
513.38	15274.34
513.56	15164.33
513.73	15087.09
513.90	15112.84
514.08	15272.00
514.25	15417.11
514.43	15377.32
514.60	15379.66
514.77	15302.42
514.95	15459.24
515.12	15328.17
515.29	15403.07
515.47	15571.58
515.64	15807.98
515.81	15754.15
515.99	15775.21
516.16	15906.28
516.33	15857.13
516.51	15747.12
516.68	15625.42
516.85	15765.85
517.03	15882.88
517.20	15955.43
517.37	16226.93
517.54	16126.29
517.72	16079.48
517.89	16109.91
518.06	16283.11
518.24	16070.12
518.41	15901.60
518.58	16491.41
518.75	16255.02
518.93	16329.92
519.10	16233.96
519.27	16327.58
519.45	16407.16
519.62	16615.46
519.79	16477.37
519.96	16491.41
520.14	16585.04
520.31	16631.85
520.48	16732.49
520.65	16475.03
520.83	16718.45
521.00	16872.92
521.17	16802.71
521.34	16954.84
521.52	16996.97
521.69	16851.86
521.86	16924.41
522.03	17106.98
522.20	17308.26
522.38	16931.44
522.55	17083.57
522.72	16952.50
522.89	17179.53
523.07	17373.80
523.24	17179.53
523.41	17305.92
523.58	17301.24
523.75	17118.68
523.92	17165.49
524.10	17401.88
524.27	17600.83
524.44	17600.83
524.61	17521.25
524.78	17324.65
524.96	17867.65
525.13	17710.83
525.30	17385.50
525.47	17518.91
525.64	17680.41
525.81	17874.67
525.98	17757.64
526.16	17509.55
526.33	17568.06
526.50	17734.24
526.67	17652.32
526.84	17745.94
527.01	17638.28
527.18	18153.20
527.36	18228.09
527.53	18001.06
527.70	18164.90
527.87	17972.97
528.04	18090.00
528.21	18274.90
528.38	18377.89
528.55	18300.65
528.72	18263.20
528.89	18469.17
529.07	18464.49
529.24	18270.22
529.41	18511.30
529.58	18366.18
529.75	18146.17
529.92	18251.50
530.09	18188.30
530.26	18349.80
530.43	18682.16
530.60	18410.65
530.77	18368.52
530.94	18696.20
531.11	18277.24
531.28	18635.35
531.46	18757.05
531.63	18644.71
531.80	18773.44
531.97	18857.70
532.14	18967.70
532.31	18548.75
532.48	18785.14
532.65	18773.44
532.82	18483.21
532.99	18827.27
533.16	18953.66
533.33	19040.26
533.50	19087.07
533.67	18937.27
533.84	18984.09
534.01	19117.50
534.18	19286.01
534.35	18838.97
534.52	18998.13
534.69	19257.93
534.86	19150.26
535.03	18836.63
535.20	19105.79
535.37	19206.44
535.54	19386.66
535.71	19147.92
535.88	19400.70
536.05	19499.00
536.22	19344.53
536.38	19344.53
536.55	19356.23
536.72	19426.45
536.89	19089.41
537.06	19463.90
537.23	19339.85
537.40	19758.80
537.57	19475.60
537.74	19644.12
537.91	19744.76
538.08	19833.70
538.25	19405.38
538.42	19604.33
538.59	19913.28
538.75	19461.55
538.92	19744.76
539.09	19847.74
539.26	20006.90
539.43	19831.36
539.60	19833.70
539.77	19674.54
539.94	19735.40
540.11	19866.47
540.28	20243.29
540.44	19936.68
540.61	19889.87
540.78	20018.60
540.95	19674.54
541.12	19932.00
541.29	20130.95
541.46	19871.15
541.62	19992.86
541.79	19873.49
541.96	19585.60
542.13	20039.67
542.30	20049.03
542.47	20411.81
542.63	20205.84
542.80	19887.53
542.97	20407.13
543.14	20334.57
543.31	20250.32
543.48	20283.08
543.64	20524.16
543.81	20601.40
543.98	20542.88
544.15	20664.59
544.32	20769.91
544.48	20421.17
544.65	20538.20
544.82	20411.81
544.99	20233.93
545.16	20844.81
545.32	20561.61
545.49	20655.23
545.66	20926.73
545.83	20638.84
546.00	20802.68
546.16	20648.21
546.33	20697.36
546.50	20680.97
546.67	20793.32
546.83	20577.99
547.00	20886.94
547.17	20821.41
547.34	20458.62
547.50	20910.35
547.67	21076.52
547.84	21027.37
548.00	21025.03
548.17	21177.17
548.34	21078.86
548.51	20912.69
548.67	21132.70
548.84	21116.31
549.01	20908.01
549.18	20732.47
549.34	20645.87
549.51	20875.24
549.68	20973.54
549.84	21149.08
550.01	21179.51
550.18	20840.13
550.34	21156.10
550.51	21273.13
550.68	21020.35
550.84	20945.45
551.01	21120.99
551.18	21200.57
551.34	21111.63
551.51	21158.44
551.68	21465.05
551.84	21294.19
552.01	21378.45
552.18	21034.39
552.34	21441.65
552.51	21249.72
552.68	21483.78
552.84	21207.59
553.01	21509.52
553.18	21518.89
553.34	21296.53
553.51	21385.47
553.67	21301.22
553.84	21509.52
554.01	21811.45
554.17	21593.78
554.34	21706.13
554.51	21481.44
554.67	21706.13
554.84	21715.49
555.00	21411.22
555.17	21561.02
555.33	21776.34
555.50	21516.54
555.67	21596.12
555.83	21352.71
556.00	21434.63
556.16	22024.44
556.33	21694.43
556.50	21401.86
556.66	21762.30
556.83	22054.87
556.99	21720.17
557.16	21631.23
557.32	21476.76
557.49	21724.85
557.65	21654.64
557.82	21645.27
557.98	21591.44
558.15	21678.04
558.32	21598.46
558.48	22022.10
558.65	21834.86
558.81	21642.93
558.98	21867.63
559.14	21919.12
559.31	21516.54
559.47	21764.64
559.64	21816.13
559.80	21888.69
559.97	21738.90
560.13	21727.19
560.30	22036.14
560.46	21862.94
560.63	22106.36
560.79	21996.35
560.96	22146.15
561.12	21680.38
561.29	21734.21
561.45	21928.48
561.61	21806.77
561.78	21982.31
561.94	21965.93
562.11	21876.99
562.27	21989.33
562.44	21759.96
562.60	21963.59
562.77	21860.60
562.93	22221.05
563.10	22017.42
563.26	22155.51
563.42	22071.25
563.59	22312.33
563.75	22197.64
563.92	22038.48
564.08	22080.61
564.24	21928.48
564.41	21844.22
564.57	22335.73
564.74	22214.02
564.90	21998.70
565.07	22125.08
565.23	22377.86
565.39	22059.55
565.56	22157.85
565.72	21944.86
565.88	21942.52
566.05	22045.51
566.21	21895.71
566.38	22080.61
566.54	21986.99
566.70	22375.52
566.87	22354.46
567.03	22082.95
567.19	22256.15
567.36	22115.72
567.52	22312.33
567.68	22204.66
567.85	21986.99
568.01	22209.34
568.17	22134.45
568.34	22214.02
568.50	22235.09
568.66	22064.23
568.83	22293.60
568.99	22122.74
569.15	21846.56
569.32	22047.85
569.48	22445.74
569.64	22244.45
569.81	22087.64
569.97	22099.34
570.13	22246.79
570.30	21979.97
570.46	22185.94
570.62	22174.24
570.78	22267.86
570.95	22190.62
571.11	22263.18
571.27	21858.26
571.43	21961.25
571.60	22499.57
571.76	22338.07
571.92	22244.45
572.09	22560.42
572.25	22160.19
572.41	22312.33
572.57	22293.60
572.74	22408.29
572.90	21991.67
573.06	22279.56
573.22	22342.75
573.38	22277.22
573.55	22195.30
573.71	22441.06
573.87	22286.58
574.03	22115.72
574.20	22389.56
574.36	22324.03
574.52	22232.75
574.68	22111.04
574.84	22410.63
575.01	22590.85
575.17	22319.35
575.33	22295.94
575.49	22111.04
575.65	22757.03
575.82	22530.00
575.98	22209.34
576.14	22427.01
576.30	22382.54
576.46	22040.82
576.62	22445.74
576.79	22553.40
576.95	22272.54
577.11	22401.27
577.27	22225.73
577.43	22204.66
577.59	22359.14
577.75	22506.59
577.92	22368.50
578.08	22155.51
578.24	22178.92
578.40	22244.45
578.56	22129.77
578.72	22111.04
578.88	22228.07
579.04	22480.85
579.21	22419.99
579.37	22293.60
579.53	22625.96
579.69	22178.92
579.85	22244.45
580.01	22363.82
580.17	22160.19
580.33	22216.36
580.49	22518.29
580.65	22700.86
580.82	22462.12
580.98	22295.94
581.14	22434.03
581.30	22354.46
581.46	22033.80
581.62	22260.84
581.78	22469.14
581.94	22691.49
582.10	22382.54
582.26	22501.91
582.42	22321.69
582.58	22373.18
582.74	22391.91
582.90	22352.12
583.06	22565.10
583.22	22394.25
583.38	22150.83
583.54	22375.52
583.70	22567.45
583.86	22632.98
584.02	22209.34
584.18	22185.94
584.34	22614.26
584.50	22382.54
584.66	22108.70
584.82	22176.58
584.98	22036.14
585.14	22132.11
585.30	22471.48
585.46	22211.68
585.62	22387.22
585.78	22508.93
585.94	22583.83
586.10	22427.01
586.26	22396.59
586.42	22471.48
586.58	22457.44
586.74	22515.95
586.90	22207.00
587.06	22377.86
587.22	22401.27
587.38	22192.96
587.54	22843.63
587.70	22513.61
587.86	22408.29
588.02	22207.00
588.18	22768.73
588.34	22513.61
588.49	22174.24
588.65	22380.20
588.81	22555.74
588.97	22286.58
589.13	22635.32
589.29	22492.55
589.45	22143.81
589.61	22597.87
589.77	22670.43
589.93	22684.47
590.08	22867.03
590.24	22651.70
590.40	22918.53
590.56	22869.37
590.72	22511.27
590.88	22408.29
591.04	22530.00
591.20	22700.86
591.35	22757.03
591.51	22906.82
591.67	22836.61
591.83	22771.07
591.99	22817.88
592.15	22745.33
592.31	22824.90
592.46	22677.45
592.62	22508.93
