SpectraSuite Data File
++++++++++++++++++++++++++++++++++++
Date: Fri Oct 04 11:48:27 GMT-05:00 2013
User: price-jones
Dark Spectrum Present: No
Reference Spectrum Present: No
Number of Sampled Component Spectra: 1
Spectrometers: USB2+H05261
Integration Time (usec): 100000 (USB2+H05261)
Spectra Averaged: 1 (USB2+H05261)
Boxcar Smoothing: 0 (USB2+H05261)
Correct for Electrical Dark: No (USB2+H05261)
Strobe/Lamp Enabled: No (USB2+H05261)
Correct for Detector Non-linearity: No (USB2+H05261)
Correct for Stray Light: No (USB2+H05261)
Number of Pixels in Processed Spectrum: 2048
>>>>>Begin Processed Spectral Data<<<<<
365.73	49.15
365.92	49.15
366.12	49.15
366.32	0.00
366.52	0.00
366.72	0.00
366.91	0.00
367.11	0.00
367.31	0.00
367.51	0.00
367.70	0.00
367.90	0.00
368.10	0.00
368.30	0.00
368.49	0.00
368.69	0.00
368.89	0.00
369.09	0.00
369.28	0.00
369.48	0.00
369.68	0.00
369.87	0.00
370.07	0.00
370.27	35.11
370.47	119.37
370.66	383.85
370.86	283.20
371.06	341.72
371.25	400.23
371.45	313.63
371.65	355.76
371.84	287.89
372.04	320.65
372.24	348.74
372.44	301.93
372.63	322.99
372.83	461.09
373.03	397.89
373.22	376.83
373.42	404.91
373.62	449.38
373.81	421.30
374.01	407.25
374.21	428.32
374.40	435.34
374.60	538.32
374.79	414.27
374.99	552.37
375.19	418.96
375.38	477.47
375.58	421.30
375.78	543.00
375.97	559.39
376.17	568.75
376.37	397.89
376.56	512.58
376.76	468.11
376.95	423.64
377.15	512.58
377.35	484.49
377.54	486.83
377.74	493.85
377.93	486.83
378.13	486.83
378.33	514.92
378.52	517.26
378.72	594.50
378.91	596.84
379.11	510.24
379.31	564.07
379.50	533.64
379.70	552.37
379.89	613.22
380.09	533.64
380.28	461.09
380.48	559.39
380.68	554.71
380.87	524.28
381.07	624.92
381.26	606.20
381.46	564.07
381.65	575.77
381.85	589.82
382.04	573.43
382.24	601.52
382.43	636.63
382.63	608.54
382.83	674.07
383.02	711.52
383.22	716.20
383.41	638.97
383.61	638.97
383.80	655.35
384.00	676.41
384.19	636.63
384.39	685.78
384.58	681.10
384.78	718.54
384.97	678.76
385.17	674.07
385.36	667.05
385.56	730.25
385.75	723.23
385.95	791.10
386.14	704.50
386.34	739.61
386.53	758.33
386.72	753.65
386.92	819.19
387.11	741.95
387.31	711.52
387.50	788.76
387.70	779.40
387.89	751.31
388.09	765.36
388.28	765.36
388.48	681.10
388.67	802.80
388.86	748.97
389.06	851.96
389.25	816.85
389.45	823.87
389.64	866.00
389.84	858.98
390.03	781.74
390.22	842.59
390.42	889.40
390.61	868.34
390.81	809.83
391.00	856.64
391.19	945.58
391.39	858.98
391.58	945.58
391.78	847.27
391.97	898.77
392.16	882.38
392.36	933.87
392.55	931.53
392.75	952.60
392.94	1006.43
393.13	943.24
393.33	847.27
393.52	947.92
393.71	1064.94
393.91	971.32
394.10	1001.75
394.29	1055.58
394.49	1013.45
394.68	1062.60
394.88	1090.69
395.07	1034.52
395.26	1011.11
395.46	1064.94
395.65	1095.37
395.84	1188.99
396.04	1071.97
396.23	1095.37
396.42	1109.41
396.62	1160.91
396.81	1102.39
397.00	1149.20
397.19	1179.63
397.39	1128.14
397.58	1240.48
397.77	1184.31
397.97	1170.27
398.16	1151.54
398.35	1135.16
398.55	1193.67
398.74	1252.19
398.93	1224.10
399.12	1273.25
399.32	1151.54
399.51	1266.23
399.70	1217.08
399.90	1296.66
400.09	1303.68
400.28	1331.76
400.47	1287.29
400.67	1355.17
400.86	1289.64
401.05	1338.79
401.24	1294.32
401.44	1352.83
401.63	1329.42
401.82	1380.92
402.01	1394.96
402.21	1413.68
402.40	1451.13
402.59	1373.89
402.78	1432.41
402.97	1430.07
403.17	1556.46
403.36	1563.48
403.55	1483.90
403.74	1561.14
403.93	1610.29
404.13	1561.14
404.32	1526.03
404.51	1486.24
404.70	1526.03
404.89	1570.50
405.09	1603.27
405.28	1544.75
405.47	1706.25
405.66	1673.48
405.85	1727.32
406.05	1699.23
406.24	1668.80
406.43	1788.17
406.62	1802.21
406.81	1823.28
407.00	1785.83
407.20	1818.60
407.39	1664.12
407.58	1846.68
407.77	1921.58
407.96	1893.49
408.15	1877.11
408.34	1907.54
408.54	1909.88
408.73	1952.01
408.92	1949.67
409.11	1856.04
409.30	1884.13
409.49	1984.77
409.68	2019.88
409.87	1895.83
410.07	2059.67
410.26	2001.16
410.45	2108.82
410.64	2029.24
410.83	2113.50
411.02	2036.27
411.21	2139.25
411.40	2319.47
411.59	2221.17
411.78	2275.00
411.98	2195.42
412.17	2132.23
412.36	2134.57
412.55	2457.56
412.74	2401.39
412.93	2382.67
413.12	2373.30
413.31	2445.86
413.50	2462.24
413.69	2441.18
413.88	2548.84
414.07	2476.29
414.26	2548.84
414.45	2539.48
414.64	2588.63
414.83	2619.06
415.02	2635.44
415.22	2602.68
415.41	2829.71
415.60	2715.02
415.79	2520.76
415.98	2672.89
416.17	2684.59
416.36	2778.22
416.55	2782.90
416.74	2871.84
416.93	2888.22
417.12	2860.13
417.31	2897.58
417.50	2803.96
417.69	2986.52
417.88	3038.02
418.07	2963.12
418.26	2967.80
418.45	3000.57
418.64	3201.85
418.83	3105.89
419.02	3148.02
419.21	3194.83
419.39	3133.98
419.58	3047.38
419.77	3126.96
419.96	3145.68
420.15	3323.56
420.34	3176.11
420.53	3138.66
420.72	3248.66
420.91	3279.09
421.10	3389.10
421.29	3368.03
421.48	3384.41
421.67	3318.88
421.86	3288.45
422.05	3337.60
422.24	3325.90
422.43	3220.58
422.61	3358.67
422.80	3382.07
422.99	3372.71
423.18	3433.57
423.37	3585.70
423.56	3410.16
423.75	3440.59
423.94	3412.50
424.13	3276.75
424.32	3339.94
424.50	3475.70
424.69	3623.15
424.88	3639.53
425.07	3520.17
425.26	3461.65
425.45	3501.44
425.64	3468.67
425.83	3419.52
426.01	3662.94
426.20	3609.11
426.39	3592.72
426.58	3487.40
426.77	3574.00
426.96	3562.30
427.15	3604.42
427.33	3707.41
427.52	3651.24
427.71	3709.75
427.90	3723.79
428.09	3590.38
428.28	3810.39
428.46	3946.14
428.65	3688.68
428.84	3995.29
429.03	3854.86
429.22	3693.37
429.40	3878.27
429.59	3922.74
429.78	3772.94
429.97	3627.83
430.16	3859.54
430.34	3920.40
430.53	3964.87
430.72	3908.69
430.91	3995.29
431.10	3957.85
431.28	4091.26
431.47	3941.46
431.66	4084.23
431.85	3894.65
432.03	4168.49
432.22	4332.33
432.41	4243.39
432.60	4109.98
432.79	4091.26
432.97	4058.49
433.16	4161.47
433.35	4203.60
433.54	4194.24
433.72	4322.97
433.91	4341.69
434.10	4414.25
434.28	4257.43
434.47	4414.25
434.66	4491.49
434.85	4311.27
435.03	4301.90
435.22	4320.63
435.41	4606.17
435.59	4514.89
435.78	4470.42
435.97	4498.51
436.16	4580.43
436.34	4517.23
436.53	4758.31
436.72	4727.88
436.90	4531.28
437.09	4716.18
437.28	4465.74
437.46	4655.33
437.65	4678.73
437.84	4823.84
438.02	4833.21
438.21	4772.35
438.40	4798.10
438.58	4905.76
438.77	4933.85
438.96	4938.53
439.14	5055.56
439.33	5116.41
439.52	5163.22
439.70	4945.55
439.89	5165.56
440.08	5235.78
440.26	5231.10
440.45	5448.77
440.63	5193.65
440.82	5416.00
441.01	5338.76
441.19	5441.75
441.38	5451.11
441.57	5378.55
441.75	5544.73
441.94	5626.65
442.12	5591.54
442.31	5792.83
442.50	5675.80
442.68	5575.16
442.87	5727.29
443.05	5659.42
443.24	5919.21
443.43	5806.87
443.61	5867.72
443.80	5933.26
443.98	5788.14
444.17	5495.58
444.35	5804.53
444.54	5926.24
444.73	6008.16
444.91	5781.12
445.10	5860.70
445.28	5921.56
445.47	5818.57
445.65	5860.70
445.84	5825.59
446.02	5935.60
446.21	5856.02
446.39	5832.62
446.58	6001.13
446.77	5980.07
446.95	5743.67
447.14	6043.26
447.32	5893.47
447.51	6069.01
447.69	5935.60
447.88	6092.41
448.06	6129.86
448.25	5980.07
448.43	5998.79
448.62	6101.78
448.80	6050.28
448.99	6148.59
449.17	6197.74
449.36	6036.24
449.54	6190.72
449.73	6319.45
449.91	6296.04
450.10	6424.77
450.28	6417.75
450.46	6363.92
450.65	6349.87
450.83	6506.69
451.02	6534.78
451.20	6490.31
451.39	6471.58
451.57	6429.45
451.76	6562.86
451.94	6518.39
452.13	6621.38
452.31	6670.53
452.49	6558.18
452.68	6637.76
452.86	6656.48
453.05	6651.80
453.23	6726.70
453.42	6771.17
453.60	6775.85
453.78	6951.39
453.97	6588.61
454.15	6569.88
454.34	6583.93
454.52	6775.85
454.70	6848.41
454.89	7122.25
455.07	6885.86
455.26	6979.48
455.44	6958.41
455.62	7023.95
455.81	7094.16
455.99	7155.02
456.17	7166.72
456.36	7180.76
456.54	7192.47
456.73	7342.26
456.91	7197.15
457.09	7353.96
457.28	7508.44
457.46	7342.26
457.64	7269.70
457.83	7349.28
458.01	7211.19
458.19	7503.76
458.38	7330.56
458.56	7604.40
458.74	7569.29
458.93	7438.22
459.11	7531.84
459.29	7583.34
459.48	7836.11
459.66	7522.48
459.84	7733.13
460.03	7978.89
460.21	7763.56
460.39	7796.32
460.57	7655.89
460.76	8009.31
460.94	7976.55
461.12	7770.58
461.31	7826.75
461.49	8004.63
461.67	8109.96
461.85	8077.19
462.04	8058.46
462.22	8456.36
462.40	8077.19
462.59	8196.56
462.77	8086.55
462.95	8248.05
463.13	8159.11
463.32	8189.53
463.50	8397.84
463.68	8393.16
463.86	8376.78
464.05	8409.54
464.23	8287.84
464.41	8334.65
464.59	8245.71
464.78	8341.67
464.96	8578.06
465.14	8484.44
465.32	8435.29
465.50	8496.14
465.69	8617.85
465.87	8585.08
466.05	8758.28
466.23	8416.57
466.41	8442.31
466.60	8741.90
466.78	8540.61
466.96	8730.20
467.14	8629.56
467.32	8706.79
467.51	8877.65
467.69	8582.74
467.87	8816.80
468.05	8896.38
468.23	8688.07
468.41	8917.44
468.60	8814.46
468.78	8851.91
468.96	8915.10
469.14	9034.47
469.32	9291.93
469.50	8863.61
469.69	9181.92
469.87	9235.75
470.05	9547.05
470.23	9252.14
470.41	9095.32
470.59	9249.80
470.77	9301.29
470.95	9308.31
471.14	9490.87
471.32	9228.73
471.50	9781.10
471.68	9750.67
471.86	9708.54
472.04	9589.17
472.22	10047.92
472.40	9568.11
472.58	9661.73
472.77	9657.05
472.95	9841.95
473.13	10019.83
473.31	9830.25
473.49	10001.11
473.67	9907.49
473.85	10167.29
474.03	10258.57
474.21	10108.77
474.39	10466.88
474.57	10478.58
474.75	10614.33
474.93	10466.88
475.12	10478.58
475.30	10572.20
475.48	10448.15
475.66	10714.97
475.84	10457.51
476.02	10860.09
476.20	10871.79
476.38	11145.63
476.56	11178.40
476.74	11159.67
476.92	11105.84
477.10	11220.53
477.28	11414.79
477.46	11534.16
477.64	11269.68
477.82	11655.87
478.00	11789.28
478.18	11836.09
478.36	11882.90
478.54	12159.08
478.72	12264.41
478.90	12262.07
479.08	12112.27
479.26	12533.57
479.44	12622.51
479.62	12716.13
479.80	12727.83
479.98	12657.62
480.16	12835.50
480.34	13200.62
480.52	13135.09
480.70	13137.43
480.88	13090.62
481.06	13261.48
481.24	13458.08
481.41	13390.20
481.59	13764.69
481.77	13731.92
481.95	13790.44
482.13	13792.78
482.31	13774.05
482.49	14171.94
482.67	13977.68
482.85	14356.85
483.03	14504.30
483.21	14714.95
483.39	14728.99
483.57	14890.49
483.74	14920.92
483.92	14972.41
484.10	14888.15
484.28	15274.34
484.46	15513.07
484.64	15721.38
484.82	15283.70
485.00	15641.80
485.18	15789.25
485.35	16439.92
485.53	16311.19
485.71	16161.40
485.89	16393.11
486.07	16613.12
486.25	16669.30
486.43	16819.09
486.61	16814.41
486.78	17074.21
486.96	17277.83
487.14	17345.71
487.32	17444.01
487.50	17425.29
487.68	17923.82
487.85	17865.31
488.03	18078.30
488.21	18242.14
488.39	18272.56
488.57	18235.11
488.75	18569.81
488.92	18616.62
489.10	19103.45
489.28	18855.36
489.46	19531.77
489.64	19201.76
489.81	19466.24
489.99	19307.08
490.17	19686.25
490.35	19616.03
490.53	20046.69
490.70	20046.69
490.88	19955.41
491.06	20365.00
491.24	20304.15
491.41	20304.15
491.59	20556.93
491.77	20718.42
491.95	21198.23
492.13	21158.44
492.30	21071.84
492.48	21010.99
492.66	21355.05
492.84	21525.91
493.01	21715.49
493.19	21717.83
493.37	22155.51
493.54	21706.13
493.72	22153.17
493.90	22223.39
494.08	22558.08
494.25	22782.77
494.43	22733.62
494.61	22857.67
494.79	22972.36
494.96	22878.74
495.14	23253.22
495.32	23585.58
495.49	23491.96
495.67	23630.05
495.85	23798.57
496.02	24163.69
496.20	23999.85
496.38	23941.34
496.55	23826.65
496.73	24540.52
496.91	24421.15
497.09	25060.12
497.26	24936.07
497.44	24723.08
497.62	24849.47
497.79	25425.24
497.97	25193.53
498.14	25663.97
498.32	25563.33
498.50	25656.95
498.67	26057.18
498.85	25998.67
499.03	25631.21
499.20	26244.43
499.38	26342.73
499.56	26085.27
499.73	26202.30
499.91	26082.93
500.08	26827.22
500.26	26452.73
500.44	26485.50
500.61	26888.07
500.79	26745.30
500.97	27318.73
501.14	27543.42
501.32	27271.92
501.49	27388.95
501.67	27440.44
501.84	27206.39
502.02	27398.31
502.20	28229.20
502.37	27964.72
502.55	27824.29
502.72	27784.50
502.90	28107.49
503.07	28266.65
503.25	28350.91
503.43	28477.30
503.60	28519.43
503.78	29027.32
503.95	28451.55
504.13	28971.15
504.30	28582.62
504.48	28683.27
504.65	28753.48
504.83	29252.02
505.01	29310.53
505.18	29188.82
505.36	29537.56
505.53	29460.32
505.71	29818.42
505.88	29656.93
506.06	29689.70
506.23	29923.75
506.41	29661.61
506.58	30024.39
506.76	29937.79
506.93	30323.98
507.11	30590.80
507.28	30204.61
507.46	30513.56
507.63	30850.60
507.81	30621.23
507.98	30754.64
508.16	30745.28
508.33	30520.59
508.50	30995.71
508.68	30862.30
508.85	31543.40
509.03	31431.05
509.20	31658.09
509.38	31534.04
509.55	31943.63
509.73	31864.05
509.90	31793.84
510.08	31824.26
510.25	31871.07
510.42	32233.86
510.60	32278.33
510.77	32463.23
510.95	32367.27
511.12	32657.49
511.30	32545.15
511.47	32856.44
511.64	33088.15
511.82	33376.04
511.99	32826.01
512.17	33266.03
512.34	33015.60
512.51	33373.70
512.69	33376.04
512.86	33425.19
513.04	33638.18
513.21	33511.79
513.38	33692.01
513.56	34155.44
513.73	33518.81
513.90	33656.90
514.08	34171.82
514.25	34267.78
514.43	34103.95
514.60	34457.37
514.77	34115.65
514.95	34174.16
515.12	34244.38
515.29	34216.29
515.47	34698.44
515.64	35093.99
515.81	34895.05
515.99	35339.75
516.16	35445.07
516.33	35302.30
516.51	35159.53
516.68	35267.19
516.85	35351.45
517.03	35704.87
517.20	35679.13
517.37	35859.35
517.54	36327.45
517.72	35683.81
517.89	35763.39
518.06	35477.84
518.24	35866.37
518.41	35786.79
518.58	36343.84
518.75	35913.18
518.93	36009.14
519.10	36198.73
519.27	36236.17
519.45	35728.28
519.62	36521.72
519.79	36758.11
519.96	36622.36
520.14	36968.76
520.31	36856.42
520.48	36982.80
520.65	36872.80
520.83	37340.91
521.00	37123.24
521.17	37123.24
521.34	37109.19
521.52	37488.36
521.69	37411.12
521.86	37633.47
522.03	37853.48
522.20	37649.86
522.38	38007.96
522.55	38087.54
522.72	37851.14
522.89	37876.89
523.07	38085.20
523.24	37982.21
523.41	38293.50
523.58	38225.63
523.75	38312.23
523.92	38621.18
524.10	38827.15
524.27	38337.98
524.44	39161.84
524.61	38986.30
524.78	39119.71
524.96	38913.75
525.13	39028.43
525.30	38829.49
525.47	39100.99
525.64	39042.48
525.81	38838.85
525.98	39346.75
526.16	39384.19
526.33	39030.77
526.50	39491.86
526.67	38958.22
526.84	39442.71
527.01	39482.50
527.18	39646.33
527.36	39758.68
527.53	40004.44
527.70	40259.55
527.87	40135.51
528.04	39971.67
528.21	40325.09
528.38	39866.34
528.55	40030.18
528.72	40418.71
528.89	40222.11
529.07	40697.24
529.24	40348.50
529.41	40458.50
529.58	40201.04
529.75	40816.60
529.92	40851.71
530.09	40762.77
530.26	41069.38
530.43	40844.69
530.60	40802.56
530.77	40905.54
530.94	41212.15
531.11	40786.18
531.28	40732.34
531.46	40694.89
531.63	41165.34
531.80	41390.03
531.97	41837.08
532.14	41448.55
532.31	41610.04
532.48	41675.58
532.65	41799.63
532.82	41401.74
532.99	41893.25
533.16	41736.43
533.33	41872.18
533.50	42698.39
533.67	42543.92
533.84	41776.22
534.01	41890.91
534.18	41942.40
534.35	42590.73
534.52	42471.36
534.69	42667.97
534.86	42513.49
535.03	41928.36
535.20	42560.30
535.37	42415.19
535.54	42520.51
535.71	42534.56
535.88	42784.99
536.05	42576.69
536.22	42932.45
536.38	42792.01
536.55	43196.93
536.72	42703.07
536.89	42909.04
537.06	43056.50
537.23	43091.60
537.40	43019.05
537.57	43154.80
537.74	43313.95
537.91	43756.32
538.08	43882.70
538.25	43515.24
538.42	43519.92
538.59	43791.42
538.75	43491.83
538.92	43583.12
539.09	43466.09
539.26	43730.57
539.43	43763.34
539.60	43746.95
539.77	44285.28
539.94	44147.18
540.11	43880.36
540.28	43716.53
540.44	44299.32
540.61	44161.23
540.78	44266.55
540.95	44626.99
541.12	44072.29
541.29	44669.12
541.46	44357.83
541.62	43782.06
541.79	44198.68
541.96	44266.55
542.13	44910.20
542.30	44762.75
542.47	44706.57
542.63	44828.28
542.80	45116.17
542.97	45048.29
543.14	45240.21
543.31	44891.48
543.48	45298.73
543.64	45443.84
543.81	45570.23
543.98	45785.56
544.15	45708.32
544.32	45443.84
544.48	45949.40
544.65	45443.84
544.82	45092.76
544.99	45420.44
545.16	45448.52
545.32	45551.51
545.49	46122.60
545.66	46445.59
545.83	45624.06
546.00	46153.02
546.16	45670.87
546.33	45567.89
546.50	45528.10
546.67	45762.15
546.83	45689.60
547.00	46073.45
547.17	45996.21
547.34	46230.26
547.50	46253.67
547.67	47124.35
547.84	45968.12
548.00	46553.26
548.17	46333.24
548.34	46113.23
548.51	46827.10
548.67	46965.19
548.84	46794.33
549.01	46689.01
549.18	46958.17
549.34	46532.19
549.51	46799.01
549.68	46859.87
549.84	46564.96
550.01	46850.50
550.18	46827.10
550.34	46941.78
550.51	47049.45
550.68	46864.55
550.84	46672.62
551.01	46813.05
551.18	46660.92
551.34	46480.70
551.51	47065.83
551.68	46972.21
551.84	46801.35
552.01	47077.54
552.18	47365.42
552.34	47079.88
552.51	47763.31
552.68	47405.21
552.84	47274.14
553.01	47253.08
553.18	47377.12
553.34	47697.78
553.51	47585.43
553.67	47466.06
553.84	48336.74
554.01	48088.65
554.17	48011.41
554.34	47482.45
554.51	47688.42
554.67	48343.77
554.84	48067.58
555.00	48072.26
555.17	48467.81
555.33	48224.40
555.50	47749.27
555.67	47931.83
555.83	47826.51
556.00	47831.19
556.16	48208.01
556.33	47784.38
556.50	48425.68
556.66	48392.92
556.83	48184.61
556.99	48236.10
557.16	48264.19
557.32	48470.15
557.49	48453.77
557.65	47927.15
557.82	48505.26
557.98	48315.68
558.15	48566.12
558.32	48385.89
558.48	48545.05
558.65	48516.96
558.81	48240.78
558.98	48505.26
559.14	48509.94
559.31	48444.41
559.47	48772.08
559.64	48725.27
559.80	48765.06
559.97	49013.16
560.13	48596.54
560.30	48512.28
560.46	48392.92
560.63	48821.23
560.79	49066.99
560.96	48921.88
561.12	48966.35
561.29	48800.17
561.45	49092.74
561.61	49083.37
561.78	48818.89
561.94	48968.69
562.11	48968.69
562.27	48938.26
562.44	49144.23
562.60	48947.62
562.77	49207.42
562.93	49048.27
563.10	49221.47
563.26	48982.73
563.42	49308.07
563.59	49329.13
563.75	49174.66
563.92	49092.74
564.08	48924.22
564.24	49581.91
564.41	49169.97
564.57	49242.53
564.74	48975.71
564.90	49565.52
565.07	49361.90
565.23	49139.55
565.39	49366.58
565.56	49619.36
565.72	49265.94
565.88	49200.40
566.05	49177.00
566.21	48821.23
566.38	49219.13
566.54	49600.63
566.70	49682.55
566.87	49640.42
567.03	49155.93
567.19	49958.73
567.36	49724.68
567.52	49228.49
567.68	49780.85
567.85	49427.43
568.01	49539.78
568.17	49205.08
568.34	49441.48
568.50	49364.24
568.66	49614.68
568.83	49759.79
568.99	49483.61
569.15	49455.52
569.32	49502.33
569.48	49579.57
569.64	49689.57
569.81	49593.61
569.97	49471.90
570.13	49748.09
570.30	49572.55
570.46	49801.92
570.62	49785.54
570.78	49647.44
570.95	49549.14
571.11	49780.85
571.27	49352.54
571.43	49762.13
571.60	50099.17
571.76	49970.44
571.92	50131.93
572.09	50003.20
572.25	50138.96
572.41	49794.90
572.57	49904.90
572.74	50087.46
572.90	49860.43
573.06	50047.68
573.22	49815.96
573.38	50138.96
573.55	49996.18
573.71	50557.91
573.87	50340.24
574.03	49560.84
574.20	50129.59
574.36	49853.41
574.52	49806.60
574.68	50038.31
574.84	49801.92
575.01	50078.10
575.17	50050.02
575.33	50190.45
575.49	49729.36
575.65	49872.14
575.82	50050.02
575.98	49925.97
576.14	50321.52
576.30	50148.32
576.46	50284.07
576.62	49755.11
576.79	49914.26
576.95	50003.20
577.11	50174.06
577.27	50206.83
577.43	50188.11
577.59	50305.13
577.75	50358.97
577.92	49808.94
578.08	50143.64
578.24	49645.10
578.40	50059.38
578.56	50265.34
578.72	49949.37
578.88	50373.01
579.04	50574.30
579.21	50021.93
579.37	50457.27
579.53	50241.94
579.69	50160.02
579.85	50183.43
580.01	50293.43
580.17	50087.46
580.33	50483.01
580.49	50508.76
580.65	50436.20
580.82	50653.87
580.98	50059.38
581.14	50237.26
581.30	50124.91
581.46	50534.51
581.62	50153.00
581.78	49806.60
581.94	50475.99
582.10	50150.66
582.26	50651.53
582.42	50424.50
582.58	50480.67
582.74	50574.30
582.90	50288.75
583.06	50555.57
583.22	50363.65
583.38	50085.12
583.54	50220.87
583.70	50347.26
583.86	50461.95
584.02	50129.59
584.18	50401.10
584.34	50621.11
584.50	50810.69
584.66	50529.83
584.82	50099.17
584.98	50314.50
585.14	50120.23
585.30	50181.09
585.46	50136.62
585.62	50628.13
585.78	50466.63
585.94	50307.47
586.10	50199.81
586.26	50574.30
586.42	50389.39
586.58	50672.60
586.74	50127.25
586.90	49907.24
587.06	50223.22
587.22	50258.32
587.38	50443.23
587.54	50433.86
587.70	50686.64
587.86	50471.31
588.02	50557.91
588.18	50511.10
588.34	50473.65
588.49	50312.16
588.65	50735.79
588.81	50405.78
588.97	50361.31
589.13	50658.56
589.29	50560.25
589.45	50567.27
589.61	50747.50
589.77	50787.28
589.93	50937.08
590.08	51014.32
590.24	50670.26
590.40	50471.31
