SpectraSuite Data File
++++++++++++++++++++++++++++++++++++
Date: Fri Oct 04 11:48:26 GMT-05:00 2013
User: price-jones
Dark Spectrum Present: No
Reference Spectrum Present: No
Number of Sampled Component Spectra: 1
Spectrometers: USB2+H05261
Integration Time (usec): 100000 (USB2+H05261)
Spectra Averaged: 1 (USB2+H05261)
Boxcar Smoothing: 0 (USB2+H05261)
Correct for Electrical Dark: No (USB2+H05261)
Strobe/Lamp Enabled: No (USB2+H05261)
Correct for Detector Non-linearity: No (USB2+H05261)
Correct for Stray Light: No (USB2+H05261)
Number of Pixels in Processed Spectrum: 2048
>>>>>Begin Processed Spectral Data<<<<<
365.73	63.19
365.92	63.19
366.12	63.19
366.32	0.00
366.52	0.00
366.72	0.00
366.91	0.00
367.11	0.00
367.31	0.00
367.51	0.00
367.70	0.00
367.90	0.00
368.10	0.00
368.30	0.00
368.49	0.00
368.69	0.00
368.89	0.00
369.09	0.00
369.28	0.00
369.48	0.00
369.68	0.00
369.87	0.00
370.07	2.34
370.27	37.45
370.47	142.77
370.66	552.37
370.86	643.65
371.06	575.77
371.25	690.46
371.45	653.01
371.65	645.99
371.84	702.16
372.04	711.52
372.24	765.36
372.44	676.41
372.63	751.31
372.83	835.57
373.03	870.68
373.22	807.48
373.42	854.30
373.62	912.81
373.81	812.17
374.01	875.36
374.21	863.66
374.40	863.66
374.60	866.00
374.79	858.98
374.99	873.02
375.19	847.27
375.38	903.45
375.58	931.53
375.78	954.94
375.97	866.00
376.17	997.07
376.37	950.26
376.56	912.81
376.76	926.85
376.95	940.90
377.15	910.47
377.35	926.85
377.54	992.39
377.74	980.68
377.93	1041.54
378.13	997.07
378.33	1074.31
378.52	1027.50
378.72	1144.52
378.91	1128.14
379.11	1032.18
379.31	1001.75
379.50	1086.01
379.70	1097.71
379.89	1153.88
380.09	1018.13
380.28	1174.95
380.48	1114.10
380.68	1088.35
380.87	1128.14
381.07	1067.28
381.26	1193.67
381.46	1090.69
381.65	1151.54
381.85	1200.69
382.04	1170.27
382.24	1299.00
382.43	1308.36
382.63	1238.14
382.83	1343.47
383.02	1366.87
383.22	1291.98
383.41	1249.85
383.61	1256.87
383.80	1268.57
384.00	1303.68
384.19	1369.21
384.39	1355.17
384.58	1355.17
384.78	1355.17
384.97	1341.13
385.17	1380.92
385.36	1380.92
385.56	1418.36
385.75	1390.28
385.95	1371.55
386.14	1413.68
386.34	1502.62
386.53	1409.00
386.72	1418.36
386.92	1397.30
387.11	1565.82
387.31	1467.52
387.50	1488.58
387.70	1504.96
387.89	1507.30
388.09	1556.46
388.28	1572.84
388.48	1570.50
388.67	1579.86
388.86	1629.01
389.06	1593.90
389.25	1589.22
389.45	1668.80
389.64	1710.93
389.84	1739.02
390.03	1753.06
390.22	1647.74
390.42	1680.50
390.61	1743.70
390.81	1692.21
391.00	1696.89
391.19	1811.57
391.39	1802.21
391.58	1837.32
391.78	1799.87
391.97	1806.89
392.16	1884.13
392.36	1961.37
392.55	1888.81
392.75	1842.00
392.94	1935.62
393.13	1842.00
393.33	1907.54
393.52	1970.73
393.71	1914.56
393.91	2059.67
394.10	2022.22
394.29	1977.75
394.49	2019.88
394.68	2047.97
394.88	2125.21
395.07	2040.95
395.26	2167.34
395.46	2047.97
395.65	2193.08
395.84	2228.19
396.04	2328.83
396.23	2174.36
396.42	2216.49
396.62	2183.72
396.81	2204.78
397.00	2272.66
397.19	2314.79
397.39	2396.71
397.58	2303.09
397.77	2380.32
397.97	2427.14
398.16	2298.41
398.35	2438.84
398.55	2401.39
398.74	2389.69
398.93	2483.31
399.12	2459.90
399.32	2377.98
399.51	2504.37
399.70	2626.08
399.90	2527.78
400.09	2710.34
400.28	2590.97
400.47	2708.00
400.67	2771.19
400.86	2736.09
401.05	2785.24
401.24	2731.41
401.44	2719.70
401.63	2850.77
401.82	2738.43
402.01	2806.30
402.21	2806.30
402.40	2822.69
402.59	2913.97
402.78	3052.06
402.97	2855.45
403.17	2946.73
403.36	2796.94
403.55	3021.63
403.74	3042.70
403.93	3098.87
404.13	3185.47
404.32	3023.97
404.51	3122.27
404.70	3234.62
404.89	3133.98
405.09	3103.55
405.28	3309.52
405.47	3248.66
405.66	3297.81
405.85	3386.76
406.05	3323.56
406.24	3281.43
406.43	3356.33
406.62	3473.36
406.81	3468.67
407.00	3473.36
407.20	3419.52
407.39	3478.04
407.58	3510.80
407.77	3655.92
407.96	3641.87
408.15	3651.24
408.34	3576.34
408.54	3672.30
408.73	3684.00
408.92	3782.31
409.11	3812.73
409.30	3798.69
409.49	3805.71
409.68	3789.33
409.87	3859.54
410.07	4021.04
410.26	3967.21
410.45	4119.34
410.64	4028.06
410.83	3943.80
411.02	4060.83
411.21	4147.43
411.40	4100.62
411.59	4255.09
411.78	4210.62
411.98	4161.47
412.17	4236.37
412.36	4461.06
412.55	4526.60
412.74	4594.47
412.93	4477.44
413.12	4442.34
413.31	4688.09
413.50	4695.11
413.69	4645.96
413.88	4905.76
414.07	4835.55
414.26	4915.12
414.45	4873.00
414.64	4924.49
414.83	4952.57
415.02	4952.57
415.22	4990.02
415.41	5125.77
415.60	5025.13
415.79	5102.37
415.98	5207.69
416.17	5401.96
416.36	5313.02
416.55	5359.83
416.74	5418.34
416.93	5467.49
417.12	5453.45
417.31	5579.84
417.50	5645.37
417.69	5659.42
417.88	5757.72
418.07	5844.32
418.26	5722.61
418.45	5907.51
418.64	5905.17
418.83	5863.04
419.02	5879.43
419.21	6122.84
419.39	6057.31
419.58	5888.79
419.77	6054.97
419.96	6033.90
420.15	6113.48
420.34	6008.16
420.53	6211.78
420.72	6293.70
420.91	6167.31
421.10	6382.64
421.29	6370.94
421.48	6150.93
421.67	6392.00
421.86	6228.17
422.05	6310.08
422.24	6466.90
422.43	6272.64
422.61	6602.65
422.80	6537.12
422.99	6642.44
423.18	6640.10
423.37	6609.67
423.56	6478.60
423.75	6455.20
423.94	6441.15
424.13	6141.57
424.32	6047.94
424.50	6757.13
424.69	6736.06
424.88	6686.91
425.07	6436.47
425.26	6548.82
425.45	6494.99
425.64	6759.47
425.83	6654.14
426.01	6719.68
426.20	6717.34
426.39	6792.23
426.58	6644.78
426.77	6726.70
426.96	6743.08
427.15	6799.26
427.33	7103.53
427.52	6656.48
427.71	7105.87
427.90	7028.63
428.09	7059.06
428.28	7117.57
428.46	7070.76
428.65	7108.21
428.84	7543.55
429.03	7265.02
429.22	7082.46
429.40	7508.44
429.59	7583.34
429.78	7101.19
429.97	7166.72
430.16	7265.02
430.34	7281.41
430.53	7480.35
430.72	7398.43
430.91	7414.82
431.10	7552.91
431.28	7768.24
431.47	7829.09
431.66	7801.01
431.85	7641.85
432.03	7861.86
432.22	7857.18
432.41	7999.95
432.60	8037.40
432.79	7852.50
432.97	7946.12
433.16	8138.04
433.35	7976.55
433.54	8217.62
433.72	8112.30
433.91	8070.17
434.10	8346.35
434.28	8212.94
434.47	8231.66
434.66	8311.24
434.85	8355.71
435.03	8402.52
435.22	8540.61
435.41	8875.31
435.59	8615.51
435.78	8517.21
435.97	8800.41
436.16	8620.19
436.34	8688.07
436.53	8690.41
436.72	9053.19
436.90	8645.94
437.09	8769.99
437.28	8554.66
437.46	8858.93
437.65	8924.46
437.84	8912.76
438.02	9135.11
438.21	9179.58
438.40	9013.40
438.58	9310.65
438.77	9233.41
438.96	9256.82
439.14	9511.94
439.33	9493.21
439.52	9813.87
439.70	9645.35
439.89	9781.10
440.08	9626.62
440.26	9928.55
440.45	10043.24
440.63	10195.37
440.82	10193.03
441.01	10272.61
441.19	10244.52
441.38	10270.27
441.57	10422.41
441.75	10544.11
441.94	10731.36
442.12	10719.65
442.31	10853.06
442.50	10815.62
442.68	10721.99
442.87	10832.00
443.05	10869.45
443.24	11246.27
443.43	10958.39
443.61	11138.61
443.80	11386.71
443.98	10846.04
444.17	10619.01
444.35	11140.95
444.54	11438.20
444.73	11407.77
444.91	11307.13
445.10	11363.30
445.28	11157.33
445.47	11140.95
445.65	11269.68
445.84	11337.56
446.02	11276.70
446.21	11386.71
446.39	11527.14
446.58	11639.48
446.77	11564.59
446.95	11428.84
447.14	11417.13
447.32	11506.07
447.51	11644.17
447.69	11393.73
447.88	11861.84
448.06	11459.26
448.25	11461.60
448.43	11719.06
448.62	11536.50
448.80	11449.90
448.99	11709.70
449.17	12028.01
449.36	11569.27
449.54	11927.37
449.73	12152.06
449.91	12159.08
450.10	12119.29
450.28	12210.57
450.46	12395.48
450.65	12386.12
450.83	12238.66
451.02	12449.31
451.20	12409.52
451.39	12173.13
451.57	12484.42
451.76	12482.08
451.94	12512.50
452.13	12692.73
452.31	12606.13
452.49	12575.70
452.68	12643.57
452.86	12681.02
453.05	12968.91
453.23	13046.15
453.42	12702.09
453.60	12912.74
453.78	12781.67
453.97	12798.05
454.15	13025.08
454.34	12915.08
454.52	13401.91
454.70	13006.36
454.89	13228.71
455.07	13104.66
455.26	13422.97
455.44	13516.59
455.62	13591.49
455.81	13570.43
455.99	13563.40
456.17	13769.37
456.36	13898.10
456.54	13996.40
456.73	14108.75
456.91	14319.40
457.09	14466.85
457.28	14553.45
457.46	14078.32
457.64	14506.64
457.83	14422.38
458.01	14015.13
458.19	14558.13
458.38	14391.95
458.56	14693.88
458.74	14733.67
458.93	14546.43
459.11	14979.43
459.29	14628.35
459.48	14904.53
459.66	14941.98
459.84	14890.49
460.03	15208.80
460.21	14932.62
460.39	15117.52
460.57	14977.09
460.76	15257.95
460.94	15211.14
461.12	15140.93
461.31	15222.84
461.49	15316.47
461.67	15255.61
461.85	15932.03
462.04	15360.94
462.22	15831.38
462.40	15681.59
462.59	15749.46
462.77	15531.80
462.95	15854.79
463.13	15950.75
463.32	16105.23
463.50	16346.30
463.68	16369.71
463.86	16109.91
464.05	15962.45
464.23	16067.78
464.41	16212.89
464.59	15950.75
464.78	16531.20
464.96	16212.89
465.14	16170.76
465.32	16379.07
465.50	16737.17
465.69	16673.98
465.87	16664.61
466.05	16711.42
466.23	16568.65
466.41	17074.21
466.60	17186.55
466.78	16690.36
466.96	16699.72
467.14	17013.35
467.32	17277.83
467.51	17177.19
467.69	16870.58
467.87	17160.81
468.05	17188.89
468.23	17266.13
468.41	17298.90
468.60	17336.35
468.78	17781.05
468.96	17287.20
469.14	17591.47
469.32	17949.57
469.50	17352.73
469.69	17914.46
469.87	18239.79
470.05	18223.41
470.23	17891.06
470.41	18113.41
470.59	18443.42
470.77	17937.87
470.95	18211.71
471.14	18422.36
471.32	18225.75
471.50	18878.76
471.68	18761.73
471.86	18883.44
472.04	18780.46
472.22	19073.03
472.40	18731.31
472.58	19475.60
472.77	19286.01
472.95	19852.42
473.13	20292.44
473.31	19419.42
473.49	19557.52
473.67	19693.27
473.85	19772.85
474.03	20137.97
474.21	20016.26
474.39	20393.09
474.57	20542.88
474.75	20762.89
474.93	20671.61
475.12	20641.18
475.30	20851.83
475.48	20858.85
475.66	21018.01
475.84	20872.90
476.02	21425.26
476.20	21266.11
476.38	21682.72
476.56	21951.88
476.74	22125.08
476.92	21984.65
477.10	21876.99
477.28	22551.06
477.46	22434.03
477.64	22860.01
477.82	23236.84
478.00	23414.72
478.18	23594.94
478.36	23564.51
478.54	23782.18
478.72	23786.86
478.90	24009.22
479.08	24306.46
479.26	24189.44
479.44	24868.19
479.62	25102.25
479.80	24999.26
479.98	25305.87
480.16	25577.37
480.34	25167.78
480.52	25783.34
480.70	25982.29
480.88	25659.29
481.06	26431.67
481.24	26003.35
481.41	26508.91
481.59	26958.29
481.77	27182.98
481.95	27498.95
482.13	27082.34
482.31	27667.47
482.49	28259.63
482.67	27995.15
482.85	28519.43
483.03	29099.88
483.21	29139.67
483.39	29184.14
483.57	29132.65
483.74	29413.51
483.92	29383.09
484.10	29872.26
484.28	30125.04
484.46	30504.20
484.64	31321.05
484.82	30377.81
485.00	30913.80
485.18	31232.11
485.35	31873.42
485.53	31665.11
485.71	31981.08
485.89	32577.92
486.07	32589.62
486.25	32514.72
486.43	33022.62
486.61	33237.95
486.78	33479.02
486.96	33813.72
487.14	34387.15
487.32	34094.58
487.50	34457.37
487.68	34834.19
487.85	35227.40
488.03	35388.90
488.21	35828.92
488.39	36212.77
488.57	36023.19
488.75	36465.55
488.92	37017.91
489.10	37001.53
489.28	37706.03
489.46	37752.84
489.64	37560.92
489.81	38139.03
489.99	38557.99
490.17	38691.40
490.35	39182.91
490.53	39140.78
490.70	39512.92
490.88	39269.51
491.06	40107.42
491.24	39590.16
491.41	40566.16
491.59	40582.55
491.77	40706.60
491.95	41460.25
492.13	41511.74
492.30	41638.13
492.48	41291.73
492.66	41916.65
492.84	41972.83
493.01	42483.06
493.19	42574.34
493.37	42969.90
493.54	43019.05
493.72	43669.72
493.90	43346.72
494.08	43573.75
494.25	44343.79
494.43	44151.87
494.61	44774.45
494.79	45272.98
494.96	45017.86
495.14	45200.43
495.32	45610.02
495.49	45677.90
495.67	46106.21
495.85	46234.94
496.02	46227.92
496.20	46445.59
496.38	46953.49
496.55	46852.84
496.73	47543.30
496.91	47618.20
497.09	48198.65
497.26	48044.18
497.44	47948.21
497.62	47777.36
497.79	48584.84
497.97	48332.06
498.14	48882.09
498.32	49270.62
498.50	49382.96
498.67	49991.50
498.85	49069.33
499.03	49727.02
499.20	49453.18
499.38	50061.72
499.56	50204.49
499.73	50326.20
499.91	50452.59
500.08	50178.75
500.26	50494.72
500.44	50813.03
500.61	50791.97
500.79	50932.40
500.97	51391.14
501.14	51917.76
501.32	51789.03
501.49	51728.18
501.67	51569.02
501.84	51817.12
502.02	51936.49
502.20	52018.41
502.37	52458.43
502.55	52346.08
502.72	52449.06
502.90	52655.03
503.07	52418.64
503.25	52907.81
503.43	52905.47
503.60	53268.25
503.78	53043.56
503.95	53169.95
504.13	53340.81
504.30	53207.40
504.48	53193.36
504.65	53418.05
504.83	53778.49
505.01	54267.66
505.18	53645.08
505.36	54052.33
505.53	53801.89
505.71	54101.48
505.88	54398.73
506.06	54019.56
506.23	54525.12
506.41	54527.46
506.58	54644.49
506.76	54614.06
506.93	54611.72
507.11	54571.93
507.28	55018.97
507.46	54925.35
507.63	55290.48
507.81	55494.10
507.98	55051.74
508.16	55281.11
508.33	55444.95
508.50	55538.57
508.68	55688.37
508.85	56109.66
509.03	55941.14
509.20	55973.91
509.38	56107.32
509.55	56362.44
509.73	56385.85
509.90	56198.60
510.08	56533.30
510.25	56322.65
510.42	56514.58
510.60	56849.27
510.77	56797.78
510.95	56746.29
511.12	56631.60
511.30	56872.68
511.47	56949.92
511.64	56879.70
511.82	57312.70
511.99	57305.68
512.17	57305.68
512.34	57165.24
512.51	57762.08
512.69	57605.26
512.86	57722.29
513.04	57675.48
513.21	57904.85
513.38	57937.62
513.56	57932.94
513.73	57825.28
513.90	57932.94
514.08	57909.53
514.25	58061.67
514.43	58370.62
514.60	58225.51
514.77	58340.19
514.95	58588.29
515.12	58445.52
515.29	58211.46
515.47	58602.33
515.64	58798.94
515.81	58543.82
515.99	58618.72
516.16	58843.41
516.33	58920.65
516.51	59009.59
516.68	58920.65
516.85	59091.51
517.03	59253.00
517.20	59316.20
517.37	59288.11
517.54	59386.41
517.72	59456.63
517.89	59332.58
518.06	59622.81
518.24	59477.69
518.41	59463.65
518.58	59505.78
518.75	59604.08
518.93	59739.83
519.10	59714.09
519.27	59908.35
519.45	59807.71
519.62	59877.93
519.79	59891.97
519.96	59812.39
520.14	60177.51
520.31	60119.00
520.48	60144.75
520.65	60250.07
520.83	60406.89
521.00	60465.40
521.17	60182.19
521.34	60549.66
521.52	60570.72
521.69	60495.83
521.86	60753.29
522.03	60619.88
522.20	60832.86
522.38	60856.27
522.55	60739.24
522.72	60846.91
522.89	61020.11
523.07	61104.37
523.24	61123.09
523.41	61153.52
523.58	61045.85
523.75	61366.51
523.92	61071.60
524.10	61291.61
524.27	61399.27
524.44	61399.27
524.61	61766.74
524.78	61509.28
524.96	61504.60
525.13	61581.84
525.30	61769.08
525.47	61841.63
525.64	61595.88
525.81	62014.83
525.98	62028.88
526.16	61780.78
526.33	61930.58
526.50	62101.43
526.67	61862.70
526.84	62017.17
527.01	62042.92
527.18	62092.07
527.36	62269.95
527.53	62276.97
527.70	62576.56
527.87	62602.31
528.04	62445.49
528.21	62466.56
528.38	62405.70
528.55	62614.01
528.72	62635.08
528.89	62803.59
529.07	62550.82
529.24	62646.78
529.41	62766.15
529.58	62691.25
529.75	62686.57
529.92	62801.25
530.09	62812.96
530.26	62939.35
530.43	62908.92
530.60	62834.02
530.77	62892.54
530.94	62988.50
531.11	62897.22
531.28	63030.63
531.46	63119.57
531.63	63112.55
531.80	63203.83
531.97	63384.05
532.14	63433.20
532.31	63311.49
532.48	63154.68
532.65	63564.27
532.82	63288.09
532.99	63384.05
533.16	63444.90
533.33	63606.40
533.50	63866.20
533.67	63824.07
533.84	63274.04
534.01	63538.52
534.18	63442.56
534.35	63833.43
534.52	63852.15
534.69	63971.52
534.86	64116.64
535.03	63777.26
535.20	63929.39
535.37	64165.79
535.54	63884.92
535.71	63969.18
535.88	63854.50
536.05	64083.87
536.22	64083.87
536.38	64371.75
536.55	64402.18
536.72	64313.24
536.89	64217.28
537.06	64189.19
537.23	64168.13
537.40	64130.68
537.57	64331.96
537.74	64404.52
537.91	64481.76
538.08	64470.06
538.25	64203.24
538.42	64495.80
538.59	64605.81
538.75	64353.03
538.92	64376.43
539.09	64753.26
539.26	64559.00
539.43	64671.34
539.60	64732.20
539.77	64636.23
539.94	64867.95
540.11	64940.50
540.28	64849.22
540.44	64896.03
540.61	64973.27
540.78	64947.53
540.95	65008.38
541.12	64886.67
541.29	65249.45
541.46	64968.59
541.62	64947.53
541.79	65111.36
541.96	64764.96
542.13	65003.70
542.30	65261.16
542.47	65284.56
542.63	65424.99
542.80	65303.29
542.97	65450.74
543.14	65535.00
543.31	65504.57
543.48	65350.10
543.64	65535.00
543.81	65535.00
543.98	65535.00
544.15	65535.00
544.32	65535.00
544.48	65535.00
544.65	65535.00
544.82	65535.00
544.99	65504.57
545.16	65535.00
545.32	65535.00
545.49	65535.00
545.66	65535.00
545.83	65535.00
546.00	65535.00
546.16	65535.00
546.33	65535.00
546.50	65535.00
546.67	65535.00
546.83	65535.00
547.00	65535.00
547.17	65535.00
547.34	65535.00
547.50	65535.00
547.67	65535.00
547.84	65535.00
548.00	65535.00
548.17	65535.00
548.34	65535.00
548.51	65535.00
548.67	65535.00
548.84	65535.00
549.01	65535.00
549.18	65535.00
549.34	65535.00
549.51	65535.00
549.68	65535.00
549.84	65535.00
550.01	65535.00
550.18	65535.00
550.34	65535.00
550.51	65535.00
550.68	65535.00
550.84	65535.00
551.01	65535.00
551.18	65535.00
551.34	65535.00
551.51	65535.00
551.68	65535.00
551.84	65535.00
552.01	65535.00
552.18	65535.00
552.34	65535.00
552.51	65535.00
552.68	65535.00
552.84	65535.00
553.01	65535.00
553.18	65535.00
553.34	65535.00
553.51	65535.00
553.67	65535.00
553.84	65535.00
554.01	65535.00
554.17	65535.00
554.34	65535.00
554.51	65535.00
554.67	65535.00
554.84	65535.00
555.00	65535.00
555.17	65535.00
555.33	65535.00
555.50	65535.00
555.67	65535.00
555.83	65535.00
556.00	65535.00
556.16	65535.00
556.33	65535.00
556.50	65535.00
556.66	65535.00
556.83	65535.00
556.99	65535.00
557.16	65535.00
557.32	65535.00
557.49	65535.00
557.65	65535.00
557.82	65535.00
557.98	65535.00
558.15	65535.00
558.32	65535.00
558.48	65535.00
558.65	65535.00
558.81	65535.00
558.98	65535.00
559.14	65535.00
559.31	65535.00
559.47	65535.00
559.64	65535.00
559.80	65535.00
559.97	65535.00
560.13	65535.00
560.30	65535.00
560.46	65535.00
560.63	65535.00
560.79	65535.00
560.96	65535.00
561.12	65535.00
561.29	65535.00
561.45	65535.00
561.61	65535.00
561.78	65535.00
561.94	65535.00
562.11	65535.00
562.27	65535.00
562.44	65535.00
562.60	65535.00
562.77	65535.00
562.93	65535.00
563.10	65535.00
563.26	65535.00
563.42	65535.00
563.59	65535.00
563.75	65535.00
563.92	65535.00
564.08	65535.00
564.24	65535.00
564.41	65535.00
564.57	65535.00
564.74	65535.00
564.90	65535.00
565.07	65535.00
565.23	65535.00
565.39	65535.00
565.56	65535.00
565.72	65535.00
565.88	65535.00
566.05	65535.00
566.21	65535.00
566.38	65535.00
566.54	65535.00
566.70	65535.00
566.87	65535.00
567.03	65535.00
567.19	65535.00
567.36	65535.00
567.52	65535.00
567.68	65535.00
567.85	65535.00
568.01	65535.00
568.17	65535.00
568.34	65535.00
568.50	65535.00
568.66	65535.00
568.83	65535.00
568.99	65535.00
569.15	65535.00
569.32	65535.00
569.48	65535.00
569.64	65535.00
569.81	65535.00
569.97	65535.00
570.13	65535.00
570.30	65535.00
570.46	65535.00
570.62	65535.00
570.78	65535.00
570.95	65535.00
571.11	65535.00
571.27	65535.00
571.43	65535.00
571.60	65535.00
571.76	65535.00
571.92	65535.00
572.09	65535.00
572.25	65535.00
572.41	65535.00
572.57	65535.00
572.74	65535.00
572.90	65535.00
573.06	65535.00
573.22	65535.00
573.38	65535.00
573.55	65535.00
573.71	65535.00
573.87	65535.00
574.03	65535.00
574.20	65535.00
574.36	65535.00
574.52	65535.00
574.68	65535.00
574.84	65535.00
575.01	65535.00
575.17	65535.00
575.33	65535.00
575.49	65535.00
575.65	65535.00
575.82	65535.00
575.98	65535.00
576.14	65535.00
576.30	65535.00
576.46	65535.00
576.62	65535.00
576.79	65535.00
576.95	65535.00
577.11	65535.00
577.27	65535.00
577.43	65535.00
577.59	65535.00
577.75	65535.00
577.92	65535.00
578.08	65535.00
578.24	65535.00
578.40	65535.00
578.56	65535.00
578.72	65535.00
578.88	65535.00
579.04	65535.00
579.21	65535.00
579.37	65535.00
579.53	65535.00
579.69	65535.00
579.85	65535.00
580.01	65535.00
580.17	65535.00
580.33	65535.00
580.49	65535.00
580.65	65535.00
580.82	65535.00
580.98	65535.00
581.14	65535.00
581.30	65535.00
581.46	65535.00
581.62	65535.00
581.78	65535.00
581.94	65535.00
582.10	65535.00
582.26	65535.00
582.42	65535.00
582.58	65535.00
582.74	65535.00
582.90	65535.00
583.06	65535.00
583.22	65535.00
583.38	65535.00
583.54	65535.00
583.70	65535.00
583.86	65535.00
584.02	65535.00
584.18	65535.00
584.34	65535.00
584.50	65535.00
584.66	65535.00
584.82	65535.00
584.98	65535.00
585.14	65535.00
585.30	65535.00
585.46	65535.00
585.62	65535.00
585.78	65535.00
585.94	65535.00
586.10	65535.00
586.26	65535.00
586.42	65535.00
586.58	65535.00
586.74	65535.00
586.90	65535.00
587.06	65535.00
587.22	65535.00
587.38	65535.00
587.54	65535.00
587.70	65535.00
587.86	65535.00
