SpectraSuite Data File
++++++++++++++++++++++++++++++++++++
Date: Fri Oct 04 11:48:23 GMT-05:00 2013
User: price-jones
Dark Spectrum Present: No
Reference Spectrum Present: No
Number of Sampled Component Spectra: 1
Spectrometers: USB2+H05261
Integration Time (usec): 100000 (USB2+H05261)
Spectra Averaged: 1 (USB2+H05261)
Boxcar Smoothing: 0 (USB2+H05261)
Correct for Electrical Dark: No (USB2+H05261)
Strobe/Lamp Enabled: No (USB2+H05261)
Correct for Detector Non-linearity: No (USB2+H05261)
Correct for Stray Light: No (USB2+H05261)
Number of Pixels in Processed Spectrum: 2048
>>>>>Begin Processed Spectral Data<<<<<
365.73	46.81
365.92	46.81
366.12	46.81
366.32	0.00
366.52	0.00
366.72	0.00
366.91	0.00
367.11	0.00
367.31	0.00
367.51	0.00
367.70	0.00
367.90	0.00
368.10	0.00
368.30	0.00
368.49	0.00
368.69	0.00
368.89	0.00
369.09	0.00
369.28	0.00
369.48	0.00
369.68	0.00
369.87	0.00
370.07	0.00
370.27	67.88
370.47	142.77
370.66	365.12
370.86	491.51
371.06	547.69
371.25	505.56
371.45	456.40
371.65	475.13
371.84	507.90
372.04	472.79
372.24	489.17
372.44	557.05
372.63	580.45
372.83	524.28
373.03	571.09
373.22	645.99
373.42	531.30
373.62	573.43
373.81	589.82
374.01	622.58
374.21	615.56
374.40	594.50
374.60	660.03
374.79	643.65
374.99	596.84
375.19	702.16
375.38	655.35
375.58	678.76
375.78	725.57
375.97	734.93
376.17	732.59
376.37	697.48
376.56	662.37
376.76	704.50
376.95	641.31
377.15	814.51
377.35	688.12
377.54	645.99
377.74	683.44
377.93	683.44
378.13	662.37
378.33	676.41
378.52	678.76
378.72	758.33
378.91	709.18
379.11	763.01
379.31	791.10
379.50	774.72
379.70	692.80
379.89	744.29
380.09	777.06
380.28	723.23
380.48	854.30
380.68	765.36
380.87	809.83
381.07	861.32
381.26	957.28
381.46	812.17
381.65	894.08
381.85	889.40
382.04	851.96
382.24	912.81
382.43	851.96
382.63	898.77
382.83	894.08
383.02	952.60
383.22	826.21
383.41	938.55
383.61	945.58
383.80	896.43
384.00	971.32
384.19	880.04
384.39	976.00
384.58	992.39
384.78	983.02
384.97	954.94
385.17	976.00
385.36	912.81
385.56	1050.90
385.75	983.02
385.95	1029.84
386.14	1090.69
386.34	917.49
386.53	1055.58
386.72	1020.47
386.92	1060.26
387.11	1013.45
387.31	1083.67
387.50	1039.20
387.70	1064.94
387.89	1090.69
388.09	1048.56
388.28	1151.54
388.48	1163.25
388.67	1196.01
388.86	1060.26
389.06	1102.39
389.25	1107.07
389.45	1186.65
389.64	1090.69
389.84	1186.65
390.03	1210.06
390.22	1233.46
390.42	1231.12
390.61	1249.85
390.81	1224.10
391.00	1291.98
391.19	1306.02
391.39	1268.57
391.58	1308.36
391.78	1299.00
391.97	1277.93
392.16	1266.23
392.36	1378.58
392.55	1289.64
392.75	1308.36
392.94	1362.19
393.13	1376.24
393.33	1334.11
393.52	1430.07
393.71	1453.47
393.91	1465.18
394.10	1378.58
394.29	1352.83
394.49	1411.34
394.68	1500.28
394.88	1460.49
395.07	1514.33
395.26	1556.46
395.46	1544.75
395.65	1565.82
395.84	1533.05
396.04	1673.48
396.23	1687.53
396.42	1582.20
396.62	1654.76
396.81	1657.10
397.00	1621.99
397.19	1596.25
397.39	1696.89
397.58	1645.40
397.77	1678.16
397.97	1743.70
398.16	1636.03
398.35	1783.49
398.55	1792.85
398.74	1813.92
398.93	1788.17
399.12	1746.04
399.32	1678.16
399.51	1741.36
399.70	1809.23
399.90	1778.81
400.09	1926.26
400.28	2003.50
400.47	1881.79
400.67	2031.58
400.86	1952.01
401.05	1886.47
401.24	1949.67
401.44	1977.75
401.63	2071.37
401.82	2085.42
402.01	2106.48
402.21	1998.82
402.40	2019.88
402.59	1982.43
402.78	2026.90
402.97	2195.42
403.17	2186.06
403.36	2087.76
403.55	2228.19
403.74	2246.91
403.93	2256.28
404.13	2200.10
404.32	2211.81
404.51	2115.84
404.70	2235.21
404.89	2331.17
405.09	2406.07
405.28	2363.94
405.47	2530.12
405.66	2396.71
405.85	2502.03
406.05	2377.98
406.24	2410.75
406.43	2399.05
406.62	2600.34
406.81	2614.38
407.00	2420.11
407.20	2314.79
407.39	2516.08
407.58	2640.12
407.77	2668.21
407.96	2675.23
408.15	2708.00
408.34	2649.49
408.54	2602.68
408.73	2630.76
408.92	2799.28
409.11	2747.79
409.30	2803.96
409.49	2834.39
409.68	2883.54
409.87	2883.54
410.07	2967.80
410.26	3021.63
410.45	2920.99
410.64	2839.07
410.83	2942.05
411.02	3091.85
411.21	3005.25
411.40	3005.25
411.59	3133.98
411.78	3119.93
411.98	3199.51
412.17	3234.62
412.36	3201.85
412.55	3290.79
412.74	3302.50
412.93	3433.57
413.12	3337.60
413.31	3435.91
413.50	3421.86
413.69	3442.93
413.88	3452.29
414.07	3478.04
414.26	3588.04
414.45	3566.98
414.64	3644.21
414.83	3515.48
415.02	3662.94
415.22	3723.79
415.41	3655.92
415.60	3889.97
415.79	3899.33
415.98	3864.22
416.17	3803.37
416.36	3992.95
416.55	3971.89
416.74	3943.80
416.93	4058.49
417.12	4147.43
417.31	4028.06
417.50	4053.81
417.69	4227.01
417.88	4227.01
418.07	4271.48
418.26	4187.22
418.45	4133.39
418.64	4372.12
418.83	4299.56
419.02	4212.96
419.21	4451.70
419.39	4447.02
419.58	4280.84
419.77	4360.42
419.96	4372.12
420.15	4418.93
420.34	4498.51
420.53	4709.16
420.72	4723.20
420.91	4449.36
421.10	4533.62
421.29	4660.01
421.48	4557.02
421.67	4711.50
421.86	4692.77
422.05	4805.12
422.24	4889.38
422.43	4753.63
422.61	4809.80
422.80	4638.94
422.99	4770.01
423.18	4805.12
423.37	4882.36
423.56	4798.10
423.75	4851.93
423.94	4823.84
424.13	4578.09
424.32	4695.11
424.50	4954.91
424.69	5083.64
424.88	4812.14
425.07	4718.52
425.26	4830.87
425.45	4795.76
425.64	4868.31
425.83	4940.87
426.01	4798.10
426.20	4908.10
426.39	4863.63
426.58	5018.11
426.77	5123.43
426.96	5055.56
427.15	4992.36
427.33	5078.96
427.52	4983.00
427.71	5210.03
427.90	5200.67
428.09	5254.50
428.28	5137.48
428.46	5357.49
428.65	5336.42
428.84	5408.98
429.03	5460.47
429.22	5305.99
429.40	5448.77
429.59	5441.75
429.78	5212.37
429.97	5090.67
430.16	5296.63
430.34	5420.68
430.53	5654.73
430.72	5619.63
430.91	5521.32
431.10	5643.03
431.28	5668.78
431.47	5724.95
431.66	5802.19
431.85	5584.52
432.03	5942.62
432.22	5933.26
432.41	5823.25
432.60	5912.19
432.79	5954.32
432.97	5891.13
433.16	5968.37
433.35	6057.31
433.54	5980.07
433.72	5928.58
433.91	5987.09
434.10	6003.47
434.28	6127.52
434.47	6286.68
434.66	6047.94
434.85	6284.34
435.03	6312.42
435.22	6305.40
435.41	6473.92
435.59	6352.21
435.78	6509.03
435.97	6352.21
436.16	6464.56
436.34	6361.58
436.53	6483.28
436.72	6747.76
436.90	6258.59
437.09	6590.95
437.28	6389.66
437.46	6476.26
437.65	6747.76
437.84	6525.41
438.02	6597.97
438.21	6581.59
438.40	6466.90
438.58	6836.70
438.77	6974.80
438.96	6902.24
439.14	6984.16
439.33	7098.84
439.52	7194.81
439.70	7037.99
439.89	7166.72
440.08	7412.48
440.26	7393.75
440.45	7293.11
440.63	7398.43
440.82	7494.40
441.01	7473.33
441.19	7613.76
441.38	7679.30
441.57	7454.61
441.75	7604.40
441.94	7880.58
442.12	7854.84
442.31	7922.71
442.50	8081.87
442.68	7871.22
442.87	7997.61
443.05	7978.89
443.24	7997.61
443.43	7864.20
443.61	8355.71
443.80	8449.33
443.98	8119.32
444.17	7859.52
444.35	8243.37
444.54	8280.82
444.73	8194.22
444.91	8313.58
445.10	8334.65
445.28	8189.53
445.47	8252.73
445.65	8318.26
445.84	8463.38
446.02	8587.43
446.21	8418.91
446.39	8271.45
446.58	8519.55
446.77	8521.89
446.95	8400.18
447.14	8430.61
447.32	8557.00
447.51	8355.71
447.69	8575.72
447.88	8575.72
448.06	8655.30
448.25	8587.43
448.43	8390.82
448.62	8493.80
448.80	8503.17
448.99	8592.11
449.17	8833.18
449.36	8643.60
449.54	8805.10
449.73	8903.40
449.91	9025.11
450.10	8905.74
450.28	9041.49
450.46	9053.19
450.65	8924.46
450.83	9142.13
451.02	8973.61
451.20	9128.09
451.39	9242.78
451.57	8912.76
451.76	9167.88
451.94	9289.59
452.13	9453.42
452.31	9170.22
452.49	9320.01
452.68	9465.13
452.86	9334.06
453.05	9434.70
453.23	9469.81
453.42	9462.79
453.60	9334.06
453.78	9666.41
453.97	9507.26
454.15	9420.66
454.34	9444.06
454.52	9687.48
454.70	9397.25
454.89	9844.29
455.07	9776.42
455.26	9853.66
455.44	9874.72
455.62	9898.13
455.81	10129.84
455.99	9909.83
456.17	10010.47
456.36	10059.62
456.54	10127.50
456.73	10305.38
456.91	10197.71
457.09	10148.56
457.28	10614.33
457.46	10263.25
457.64	10595.61
457.83	10462.19
458.01	10160.27
458.19	10553.48
458.38	10345.17
458.56	10729.02
458.74	10532.41
458.93	10729.02
459.11	10686.89
459.29	10927.96
459.48	10881.15
459.66	10642.42
459.84	11068.39
460.03	10906.90
460.21	10822.64
460.39	11143.29
460.57	10939.66
460.76	11052.01
460.94	11101.16
461.12	11197.12
461.31	11166.70
461.49	11248.61
461.67	11063.71
461.85	11365.64
462.04	11325.85
462.22	12067.80
462.40	11489.69
462.59	11562.25
462.77	11569.27
462.95	11768.21
463.13	11662.89
463.32	11564.59
463.50	11609.06
463.68	11878.22
463.86	11859.49
464.05	11653.53
464.23	11646.51
464.41	12032.69
464.59	11634.80
464.78	12095.89
464.96	11859.49
465.14	11908.65
465.32	12177.81
465.50	12149.72
465.69	12189.51
465.87	12063.12
466.05	11873.54
466.23	11969.50
466.41	12187.17
466.60	12531.23
466.78	12191.85
466.96	12339.30
467.14	12226.96
467.32	12456.33
467.51	12592.08
467.69	12379.09
467.87	12631.87
468.05	12397.82
468.23	12332.28
468.41	12556.97
468.60	12870.61
468.78	12741.88
468.96	12475.06
469.14	12774.64
469.32	12884.65
469.50	12629.53
469.69	13090.62
469.87	13081.25
470.05	13071.89
470.23	13090.62
470.41	13025.08
470.59	13392.55
470.77	13256.79
470.95	13149.13
471.14	13650.00
471.32	13057.85
471.50	13605.53
471.68	13694.47
471.86	13858.31
472.04	13891.08
472.22	14174.28
472.40	13577.45
472.58	13851.29
472.77	13977.68
472.95	13951.93
473.13	14586.22
473.31	14277.27
473.49	14146.20
473.67	14054.92
473.85	14588.56
474.03	14508.98
474.21	14506.64
474.39	14640.05
474.57	14998.15
474.75	15199.44
474.93	15040.28
475.12	15159.65
475.30	15279.02
475.48	15000.49
475.66	15253.27
475.84	15466.26
476.02	15602.01
476.20	15538.82
476.38	15651.16
476.56	15983.52
476.74	15800.96
476.92	15889.90
477.10	15754.15
477.28	16201.19
477.46	16306.51
477.64	16329.92
477.82	16671.64
478.00	16989.95
478.18	16875.26
478.36	17055.48
478.54	17174.85
478.72	17579.76
478.90	17469.76
479.08	17600.83
479.26	17762.33
479.44	17949.57
479.62	18066.60
479.80	18078.30
479.98	18003.40
480.16	18487.89
480.34	18448.10
480.52	18658.75
480.70	18918.55
480.88	18476.19
481.06	19300.06
481.24	18588.53
481.41	19316.44
481.59	19391.34
481.77	19590.28
481.95	19791.57
482.13	19711.99
482.31	19953.07
482.49	20400.11
482.67	20112.22
482.85	20538.20
483.03	20531.18
483.21	21029.71
483.39	21546.97
483.57	20912.69
483.74	21111.63
483.92	21231.00
484.10	21413.56
484.28	21757.62
484.46	22263.18
484.64	22448.08
484.82	21994.01
485.00	22366.16
485.18	22925.55
485.35	23073.00
485.53	23157.26
485.71	23183.01
485.89	23494.30
486.07	23597.28
486.25	23543.45
486.43	23992.83
486.61	23892.19
486.78	24430.51
486.96	24400.08
487.14	24404.77
487.32	24711.38
487.50	24996.92
487.68	24903.30
487.85	25319.92
488.03	25546.95
488.21	26111.02
488.39	26059.52
488.57	26370.82
488.75	26359.11
488.92	26565.08
489.10	26766.37
489.28	26803.82
489.46	27239.15
489.64	27527.04
489.81	27721.30
489.99	27704.92
490.17	27878.12
490.35	28231.54
490.53	28479.64
490.70	28629.43
490.88	28699.65
491.06	28954.77
491.24	28931.36
491.41	29560.97
491.59	29422.87
491.77	29752.89
491.95	29788.00
492.13	30029.07
492.30	30675.06
492.48	30532.29
492.66	30534.63
492.84	30663.36
493.01	31063.59
493.19	31021.46
493.37	31407.65
493.54	31541.06
493.72	31576.17
493.90	31756.39
494.08	32123.85
494.25	32243.22
494.43	32322.80
494.61	32704.31
494.79	32334.50
494.96	33120.92
495.14	33266.03
495.32	33369.02
495.49	33385.40
495.67	33493.07
495.85	34209.27
496.02	34117.99
496.20	34085.22
496.38	34019.69
496.55	34565.03
496.73	34834.19
496.91	34806.11
497.09	35096.33
497.26	35690.83
497.44	35147.82
497.62	35440.39
497.79	35622.95
497.97	35833.60
498.14	36540.44
498.32	36739.39
498.50	36418.74
498.67	36563.85
498.85	36753.43
499.03	36938.33
499.20	36755.77
499.38	36931.31
499.56	37926.04
499.73	37502.40
499.91	38101.58
500.08	38129.67
500.26	37443.89
500.44	37841.78
500.61	38637.56
500.79	38115.62
500.97	38455.00
501.14	38944.17
501.32	38735.87
501.49	38918.43
501.67	38579.05
501.84	38780.34
502.02	39531.65
502.20	39489.52
502.37	40084.01
502.55	39379.51
502.72	39604.20
502.90	40067.63
503.07	39627.61
503.25	40184.66
503.43	39896.77
503.60	40774.47
503.78	40715.96
503.95	40666.81
504.13	40491.27
504.30	40989.80
504.48	40921.93
504.65	40774.47
504.83	41434.50
505.01	42054.75
505.18	41546.85
505.36	42080.49
505.53	41670.90
505.71	42019.64
505.88	41799.63
506.06	41750.48
506.23	42522.85
506.41	42291.14
506.58	42244.33
506.76	42740.52
506.93	42930.11
507.11	42684.35
507.28	42965.21
507.46	42932.45
507.63	43051.81
507.81	43470.77
507.98	43023.73
508.16	43625.25
508.33	44144.84
508.50	43658.01
508.68	43718.87
508.85	44278.25
509.03	44278.25
509.20	44275.91
509.38	44842.32
509.55	44456.14
509.73	45034.25
509.90	44889.13
510.08	45020.20
510.25	44676.15
510.42	45055.31
510.60	45270.64
510.77	45455.54
510.95	45947.06
511.12	45113.83
511.30	45603.00
511.47	46117.92
511.64	46263.03
511.82	46508.79
511.99	46216.22
512.17	46302.82
512.34	46368.35
512.51	46471.34
512.69	46817.74
512.86	47122.01
513.04	47033.07
513.21	47555.00
513.38	47117.32
513.56	47180.52
513.73	46930.08
513.90	47461.38
514.08	47285.84
514.25	47505.85
514.43	47634.58
514.60	48011.41
514.77	48081.63
514.95	48210.35
515.12	47547.98
515.29	47910.77
515.47	48198.65
515.64	48357.81
515.81	48177.59
515.99	48765.06
516.16	48968.69
516.33	48486.54
516.51	48992.09
516.68	48327.38
516.85	48603.56
517.03	49567.87
517.20	49535.10
517.37	49422.75
517.54	49404.03
517.72	49329.13
517.89	49050.61
518.06	49415.73
518.24	49617.02
518.41	49645.10
518.58	49780.85
518.75	49642.76
518.93	49914.26
519.10	49970.44
519.27	50199.81
519.45	50148.32
519.62	49961.08
519.79	50169.38
519.96	50010.23
520.14	50684.30
520.31	50408.12
520.48	50677.28
520.65	51077.51
520.83	50630.47
521.00	50890.27
521.17	50688.98
521.34	51274.12
521.52	51058.79
521.69	51276.46
521.86	51360.72
522.03	51463.70
522.20	51503.49
522.38	51360.72
522.55	51407.53
522.72	51358.38
522.89	51276.46
523.07	51774.99
523.24	51767.97
523.41	51470.72
523.58	51753.93
523.75	51924.78
523.92	51863.93
524.10	52023.09
524.27	52240.76
524.44	52112.03
524.61	52575.45
524.78	52458.43
524.96	52362.46
525.13	52671.42
525.30	52458.43
525.47	52570.77
525.64	52673.76
525.81	52858.66
525.98	52954.62
526.16	53017.82
526.33	52715.89
526.50	53116.12
526.67	52776.74
526.84	53048.24
527.01	52938.24
527.18	53027.18
527.36	53619.33
527.53	53343.15
527.70	53535.07
527.87	53502.31
528.04	53275.27
528.21	53563.16
528.38	53380.60
528.55	53565.50
528.72	53663.80
528.89	53757.42
529.07	53722.32
529.24	53401.66
529.41	53829.98
529.58	53748.06
529.75	53935.30
529.92	54124.89
530.09	53998.50
530.26	54143.61
530.43	54351.92
530.60	54152.97
530.77	54087.44
530.94	54237.23
531.11	53970.41
531.28	54330.86
531.46	54113.19
531.63	54368.30
531.80	54550.87
531.97	54639.81
532.14	54609.38
532.31	54508.74
532.48	54784.92
532.65	54766.20
532.82	54824.71
532.99	54761.51
533.16	54885.56
533.33	55157.06
533.50	55178.13
533.67	55051.74
533.84	54798.96
534.01	54721.72
534.18	54810.67
534.35	55391.12
534.52	55007.27
534.69	55278.77
534.86	55456.65
535.03	55037.70
535.20	55463.67
535.37	55168.77
535.54	55360.69
535.71	55143.02
535.88	55189.83
536.05	55557.30
536.22	55714.11
536.38	55536.23
536.55	55763.26
536.72	55653.26
536.89	55337.29
537.06	55569.00
537.23	55840.50
537.40	55803.05
537.57	55711.77
537.74	55903.70
537.91	56324.99
538.08	56069.87
538.25	55852.20
538.42	55852.20
538.59	55845.18
538.75	55807.73
538.92	55931.78
539.09	56381.16
539.26	56250.09
539.43	56002.00
539.60	56477.13
539.77	56254.78
539.94	56350.74
540.11	56371.80
540.28	56718.20
540.44	56324.99
540.61	56444.36
540.78	56451.38
540.95	56772.03
541.12	56547.34
541.29	56856.29
541.46	56762.67
541.62	56516.92
541.79	56472.45
541.96	56484.15
542.13	56381.16
542.30	56891.40
542.47	56987.36
542.63	56830.55
542.80	56891.40
542.97	57249.50
543.14	57326.74
543.31	57244.82
543.48	57193.33
543.64	57525.69
543.81	57432.07
543.98	57382.91
544.15	57516.32
544.32	57502.28
544.48	57565.48
544.65	57244.82
544.82	57619.31
544.99	57183.97
545.16	57467.17
545.32	57460.15
545.49	57712.93
545.66	58157.63
545.83	57712.93
546.00	57862.72
546.16	57677.82
546.33	57607.61
546.50	57350.15
546.67	57813.57
546.83	57408.66
547.00	57708.25
547.17	57869.75
547.34	57797.19
547.50	57832.30
547.67	58286.36
547.84	57881.45
548.00	57813.57
548.17	58071.03
548.34	57874.43
548.51	58216.14
548.67	58061.67
548.84	58134.23
549.01	58026.56
549.18	58197.42
549.34	57911.88
549.51	58082.73
549.68	58166.99
549.84	58073.37
550.01	58326.15
550.18	58113.16
550.34	58216.14
550.51	58473.60
550.68	58564.88
550.84	58281.68
551.01	58300.40
551.18	58358.92
551.34	58323.81
551.51	58330.83
551.68	58396.37
551.84	58487.65
552.01	58637.44
552.18	58625.74
552.34	58616.38
552.51	58731.06
552.68	58550.84
552.84	58838.73
553.01	58789.58
553.18	58850.43
553.34	58759.15
553.51	58930.01
553.67	58787.24
553.84	59070.44
554.01	58939.37
554.17	58960.44
554.34	58831.71
554.51	58871.49
554.67	59018.95
554.84	58908.94
555.00	58988.52
555.17	58848.09
555.33	59196.83
555.50	59084.48
555.67	59093.85
555.83	59295.13
556.00	59140.66
556.16	59189.81
556.33	59302.15
556.50	59182.79
556.66	59309.18
556.83	59143.00
556.99	59494.08
557.16	59320.88
557.32	59222.58
557.49	59611.10
557.65	59086.82
557.82	59257.68
557.98	59473.01
558.15	59615.79
558.32	59655.57
558.48	59622.81
558.65	59702.38
558.81	59632.17
558.98	59508.12
559.14	59613.44
559.31	59351.30
559.47	59400.46
559.64	59611.10
559.80	59671.96
559.97	59709.41
560.13	59454.29
560.30	59454.29
560.46	59753.88
560.63	59421.52
560.79	59821.75
560.96	59657.91
561.12	59508.12
561.29	59894.31
561.45	59615.79
561.61	59728.13
561.78	59737.49
561.94	59990.27
562.11	59866.22
562.27	59943.46
562.44	59664.94
562.60	59891.97
562.77	59831.11
562.93	59716.43
563.10	59896.65
563.26	59906.01
563.42	60095.60
563.59	59880.27
563.75	59938.78
563.92	60018.36
564.08	59898.99
564.24	59908.35
564.41	59664.94
564.57	60018.36
564.74	59798.35
564.90	59835.80
565.07	60133.04
565.23	60292.20
565.39	60126.02
565.56	59938.78
565.72	59896.65
565.88	60114.32
566.05	60069.85
566.21	59781.96
566.38	60186.88
566.54	60329.65
566.70	60158.79
566.87	60362.42
567.03	60278.16
567.19	60339.01
567.36	60200.92
567.52	60264.11
567.68	60275.82
567.85	60121.34
568.01	60119.00
568.17	59997.29
568.34	60210.28
568.50	60226.66
568.66	60151.77
568.83	60406.89
568.99	60030.06
569.15	60114.32
569.32	60317.95
569.48	60170.49
569.64	60243.05
569.81	60245.39
569.97	60151.77
570.13	60200.92
570.30	60081.55
570.46	60224.32
570.62	60465.40
570.78	60313.26
570.95	60271.14
571.11	60486.46
571.27	60231.35
571.43	60278.16
571.60	60481.78
571.76	60474.76
571.92	60521.57
572.09	60383.48
572.25	60697.11
572.41	60509.87
572.57	60317.95
572.74	60376.46
572.90	60114.32
573.06	60229.01
573.22	60411.57
573.38	60645.62
573.55	60523.91
573.71	60860.95
573.87	60563.70
574.03	60430.29
574.20	60441.99
574.36	60273.48
574.52	60416.25
574.68	60441.99
574.84	60432.63
575.01	60383.48
575.17	60488.80
575.33	60470.08
575.49	60409.23
575.65	60552.00
575.82	60725.20
575.98	60477.10
576.14	60694.77
576.30	60662.00
576.46	60645.62
576.62	60580.09
576.79	60514.55
576.95	60404.55
577.11	60474.76
577.27	60509.87
577.43	60563.70
577.59	60404.55
577.75	60666.69
577.92	60404.55
578.08	60259.43
578.24	60619.88
578.40	60612.85
578.56	60764.99
578.72	60764.99
578.88	60818.82
579.04	60807.12
579.21	60631.58
579.37	60788.39
579.53	60664.35
579.69	60446.68
579.85	60622.22
580.01	60568.38
580.17	60603.49
580.33	60743.92
580.49	60755.63
580.65	60690.09
580.82	60741.58
580.98	60575.40
581.14	60685.41
581.30	60790.73
581.46	60516.89
581.62	60603.49
581.78	60341.35
581.94	60729.88
582.10	60612.85
582.26	60718.18
582.42	60783.71
582.58	60870.31
582.74	60563.70
582.90	60823.50
583.06	60874.99
583.22	60528.59
583.38	60722.86
583.54	60701.79
583.70	60835.20
583.86	60814.14
584.02	60725.20
584.18	60891.38
584.34	60987.34
584.50	60825.84
584.66	60821.16
584.82	60865.63
584.98	60556.68
585.14	60626.90
585.30	60603.49
585.46	60809.46
585.62	60582.43
585.78	61006.06
585.94	60507.53
586.10	60790.73
586.26	60757.97
586.42	60874.99
586.58	61172.24
586.74	60882.02
586.90	60704.13
587.06	60474.76
587.22	60947.55
587.38	60669.03
587.54	60889.04
587.70	61268.20
587.86	60996.70
588.02	61010.74
588.18	61036.49
588.34	60947.55
588.49	60694.77
588.65	60774.35
588.81	60818.82
588.97	60711.16
589.13	60797.76
