SpectraSuite Data File
++++++++++++++++++++++++++++++++++++
Date: Fri Oct 04 11:48:37 GMT-05:00 2013
User: price-jones
Dark Spectrum Present: No
Reference Spectrum Present: No
Number of Sampled Component Spectra: 1
Spectrometers: USB2+H05261
Integration Time (usec): 100000 (USB2+H05261)
Spectra Averaged: 1 (USB2+H05261)
Boxcar Smoothing: 0 (USB2+H05261)
Correct for Electrical Dark: No (USB2+H05261)
Strobe/Lamp Enabled: No (USB2+H05261)
Correct for Detector Non-linearity: No (USB2+H05261)
Correct for Stray Light: No (USB2+H05261)
Number of Pixels in Processed Spectrum: 2048
>>>>>Begin Processed Spectral Data<<<<<
365.73	7.02
365.92	7.02
366.12	7.02
366.32	0.00
366.52	0.00
366.72	0.00
366.91	0.00
367.11	0.00
367.31	0.00
367.51	0.00
367.70	0.00
367.90	0.00
368.10	0.00
368.30	0.00
368.49	0.00
368.69	0.00
368.89	0.00
369.09	0.00
369.28	0.00
369.48	0.00
369.68	0.00
369.87	30.43
370.07	0.00
370.27	7.02
370.47	25.75
370.66	72.56
370.86	135.75
371.06	184.90
371.25	217.67
371.45	131.07
371.65	175.54
371.84	154.48
372.04	91.28
372.24	215.33
372.44	100.64
372.63	166.18
372.83	175.54
373.03	180.22
373.22	236.39
373.42	107.66
373.62	140.43
373.81	203.63
374.01	220.01
374.21	189.58
374.40	154.48
374.60	196.60
374.79	191.92
374.99	161.50
375.19	105.32
375.38	205.97
375.58	198.95
375.78	222.35
375.97	248.10
376.17	229.37
376.37	231.71
376.56	205.97
376.76	220.01
376.95	205.97
377.15	264.48
377.35	175.54
377.54	227.03
377.74	198.95
377.93	187.24
378.13	217.67
378.33	212.99
378.52	210.65
378.72	210.65
378.91	154.48
379.11	208.31
379.31	271.50
379.50	264.48
379.70	205.97
379.89	198.95
380.09	201.29
380.28	217.67
380.48	208.31
380.68	159.16
380.87	168.52
381.07	201.29
381.26	201.29
381.46	180.22
381.65	292.57
381.85	294.91
382.04	189.58
382.24	229.37
382.43	224.69
382.63	278.52
382.83	271.50
383.02	238.73
383.22	257.46
383.41	236.39
383.61	196.60
383.80	184.90
384.00	227.03
384.19	297.25
384.39	262.14
384.58	283.20
384.78	262.14
384.97	287.89
385.17	212.99
385.36	220.01
385.56	236.39
385.75	262.14
385.95	278.52
386.14	245.76
386.34	248.10
386.53	255.12
386.72	285.55
386.92	304.27
387.11	294.91
387.31	259.80
387.50	231.71
387.70	250.44
387.89	266.82
388.09	301.93
388.28	276.18
388.48	259.80
388.67	351.08
388.86	271.50
389.06	334.70
389.25	330.02
389.45	337.04
389.64	238.73
389.84	255.12
390.03	325.33
390.22	241.08
390.42	294.91
390.61	264.48
390.81	327.68
391.00	351.08
391.19	348.74
391.39	372.15
391.58	287.89
391.78	266.82
391.97	325.33
392.16	311.29
392.36	273.84
392.55	383.85
392.75	332.36
392.94	337.04
393.13	414.27
393.33	304.27
393.52	320.65
393.71	294.91
393.91	346.40
394.10	285.55
394.29	292.57
394.49	322.99
394.68	390.87
394.88	278.52
395.07	383.85
395.26	388.53
395.46	327.68
395.65	458.74
395.84	390.87
396.04	468.11
396.23	395.55
396.42	365.12
396.62	433.00
396.81	372.15
397.00	421.30
397.19	444.70
397.39	423.64
397.58	475.13
397.77	491.51
397.97	475.13
398.16	397.89
398.35	479.81
398.55	489.17
398.74	449.38
398.93	463.43
399.12	433.00
399.32	463.43
399.51	423.64
399.70	514.92
399.90	528.96
400.09	521.94
400.28	557.05
400.47	538.32
400.67	554.71
400.86	496.19
401.05	559.39
401.24	524.28
401.44	636.63
401.63	552.37
401.82	681.10
402.01	538.32
402.21	589.82
402.40	634.29
402.59	538.32
402.78	507.90
402.97	615.56
403.17	645.99
403.36	650.67
403.55	674.07
403.74	671.73
403.93	660.03
404.13	723.23
404.32	613.22
404.51	755.99
404.70	716.20
404.89	809.83
405.09	753.65
405.28	802.80
405.47	833.23
405.66	781.74
405.85	830.89
406.05	767.70
406.24	828.55
406.43	823.87
406.62	823.87
406.81	917.49
407.00	898.77
407.20	870.68
407.39	798.12
407.58	936.21
407.77	936.21
407.96	952.60
408.15	929.19
408.34	964.30
408.54	1041.54
408.73	894.08
408.92	924.51
409.11	1004.09
409.30	971.32
409.49	968.98
409.68	1027.50
409.87	1018.13
410.07	1015.79
410.26	978.34
410.45	1032.18
410.64	1048.56
410.83	1128.14
411.02	1060.26
411.21	1163.25
411.40	1228.78
411.59	1086.01
411.78	1139.84
411.98	1151.54
412.17	1254.53
412.36	1156.22
412.55	1191.33
412.74	1289.64
412.93	1315.38
413.12	1303.68
413.31	1299.00
413.50	1266.23
413.69	1369.21
413.88	1334.11
414.07	1352.83
414.26	1287.29
414.45	1416.02
414.64	1469.86
414.83	1394.96
415.02	1430.07
415.22	1397.30
415.41	1526.03
415.60	1497.94
415.79	1479.22
415.98	1563.48
416.17	1490.92
416.36	1528.37
416.55	1514.33
416.74	1626.67
416.93	1717.95
417.12	1617.31
417.31	1661.78
417.50	1722.63
417.69	1717.95
417.88	1776.47
418.07	1708.59
418.26	1701.57
418.45	1839.66
418.64	1827.96
418.83	1853.70
419.02	1727.32
419.21	1778.81
419.39	1853.70
419.58	1816.26
419.77	1778.81
419.96	1809.23
420.15	1844.34
420.34	1797.53
420.53	1860.73
420.72	1973.07
420.91	1806.89
421.10	1928.60
421.29	1977.75
421.48	1975.41
421.67	1926.26
421.86	1963.71
422.05	2026.90
422.24	1975.41
422.43	2015.20
422.61	1942.64
422.80	1914.56
422.99	1949.67
423.18	1891.15
423.37	2097.12
423.56	2090.10
423.75	1968.39
423.94	1980.09
424.13	1851.36
424.32	1952.01
424.50	2024.56
424.69	2087.76
424.88	2230.53
425.07	1923.92
425.26	1956.69
425.45	2043.29
425.64	2047.97
425.83	2054.99
426.01	2136.91
426.20	1994.14
426.39	2092.44
426.58	2045.63
426.77	2054.99
426.96	2139.25
427.15	2129.89
427.33	2155.63
427.52	2160.31
427.71	2165.00
427.90	2111.16
428.09	2122.87
428.28	2249.25
428.46	2263.30
428.65	2176.70
428.84	2223.51
429.03	2232.87
429.22	2139.25
429.40	2225.85
429.59	2214.15
429.78	2188.40
429.97	2204.78
430.16	2176.70
430.34	2265.64
430.53	2317.13
430.72	2202.44
430.91	2277.34
431.10	2277.34
431.28	2279.68
431.47	2380.32
431.66	2420.11
431.85	2312.45
432.03	2431.82
432.22	2478.63
432.41	2415.43
432.60	2363.94
432.79	2574.59
432.97	2546.50
433.16	2434.16
433.35	2492.67
433.54	2478.63
433.72	2602.68
433.91	2478.63
434.10	2490.33
434.28	2539.48
434.47	2492.67
434.66	2527.78
434.85	2581.61
435.03	2506.71
435.22	2513.74
435.41	2630.76
435.59	2642.46
435.78	2651.83
435.97	2593.31
436.16	2612.04
436.34	2574.59
436.53	2609.70
436.72	2719.70
436.90	2602.68
437.09	2710.34
437.28	2565.23
437.46	2750.13
437.65	2771.19
437.84	2768.85
438.02	2775.88
438.21	2822.69
438.40	2764.17
438.58	2803.96
438.77	2825.03
438.96	2862.48
439.14	2906.95
439.33	2967.80
439.52	3061.42
439.70	2993.55
439.89	2988.86
440.08	2991.20
440.26	2937.37
440.45	3098.87
440.63	3155.04
440.82	3063.76
441.01	3012.27
441.19	3199.51
441.38	3251.00
441.57	3155.04
441.75	3204.19
441.94	3318.88
442.12	3370.37
442.31	3356.33
442.50	3375.05
442.68	3311.86
442.87	3262.71
443.05	3330.58
443.24	3403.14
443.43	3332.92
443.61	3321.22
443.80	3272.07
443.98	3316.54
444.17	3215.90
444.35	3368.03
444.54	3346.97
444.73	3503.78
444.91	3466.33
445.10	3412.50
445.28	3307.18
445.47	3482.72
445.65	3447.61
445.84	3382.07
446.02	3492.08
446.21	3447.61
446.39	3461.65
446.58	3475.70
446.77	3454.63
446.95	3424.20
447.14	3492.08
447.32	3658.26
447.51	3583.36
447.69	3534.21
447.88	3506.12
448.06	3630.17
448.25	3471.01
448.43	3545.91
448.62	3552.93
448.80	3566.98
448.99	3522.51
449.17	3695.71
449.36	3609.11
449.54	3609.11
449.73	3679.32
449.91	3695.71
450.10	3695.71
450.28	3782.31
450.46	3716.77
450.65	3655.92
450.83	3637.19
451.02	3751.88
451.20	3747.20
451.39	3775.28
451.57	3726.13
451.76	3686.34
451.94	3763.58
452.13	3871.25
452.31	3737.84
452.49	3763.58
452.68	3737.84
452.86	3880.61
453.05	3995.29
453.23	3901.67
453.42	3843.16
453.60	3819.75
453.78	3838.48
453.97	3796.35
454.15	3976.57
454.34	3875.93
454.52	3892.31
454.70	4004.66
454.89	3976.57
455.07	3918.06
455.26	3978.91
455.44	4114.66
455.62	3981.25
455.81	4039.76
455.99	4102.96
456.17	4154.45
456.36	4175.52
456.54	4067.85
456.73	4011.68
456.91	4252.75
457.09	4210.62
457.28	4322.97
457.46	4222.33
457.64	4360.42
457.83	4234.03
458.01	4065.51
458.19	4273.82
458.38	4301.90
458.56	4482.13
458.74	4414.25
458.93	4344.03
459.11	4416.59
459.29	4381.48
459.48	4528.94
459.66	4388.50
459.84	4535.96
460.03	4510.21
460.21	4414.25
460.39	4489.15
460.57	4454.04
460.76	4540.64
460.94	4503.19
461.12	4610.86
461.31	4554.68
461.49	4596.81
461.67	4533.62
461.85	4550.00
462.04	4688.09
462.22	5144.50
462.40	4702.14
462.59	4674.05
462.77	4571.07
462.95	4695.11
463.13	4667.03
463.32	4779.37
463.50	4971.30
463.68	4863.63
463.86	4770.01
464.05	4765.33
464.23	4854.27
464.41	5015.77
464.59	4685.75
464.78	4730.22
464.96	4753.63
465.14	4961.94
465.32	4947.89
465.50	4957.25
465.69	5032.15
465.87	4828.53
466.05	4894.06
466.23	4947.89
466.41	4819.16
466.60	4961.94
466.78	4947.89
466.96	4887.04
467.14	4903.42
467.32	5018.11
467.51	5114.07
467.69	4940.87
467.87	5128.11
468.05	5107.05
468.23	5055.56
468.41	5100.03
468.60	5048.54
468.78	5212.37
468.96	5050.88
469.14	5205.35
469.32	5238.12
469.50	5191.31
469.69	5284.93
469.87	5294.29
470.05	5198.33
470.23	5387.91
470.41	5423.02
470.59	5233.44
470.77	5355.15
470.95	5352.81
471.14	5504.94
471.32	5322.38
471.50	5526.00
471.68	5446.43
471.86	5579.84
472.04	5373.87
472.22	5624.31
472.40	5490.90
472.58	5598.56
472.77	5523.66
472.95	5526.00
473.13	5968.37
473.31	5706.23
473.49	5657.07
473.67	5673.46
473.85	5757.72
474.03	5685.16
474.21	5664.10
474.39	5846.66
474.57	6090.07
474.75	6317.11
474.93	6059.65
475.12	5851.34
475.30	5968.37
475.48	6181.35
475.66	6253.91
475.84	6040.92
476.02	6263.27
476.20	6235.19
476.38	6272.64
476.56	6443.49
476.74	6368.60
476.92	6260.93
477.10	6286.68
477.28	6466.90
477.46	6413.07
477.64	6471.58
477.82	6619.04
478.00	6860.11
478.18	6782.87
478.36	6841.39
478.54	6953.73
478.72	6960.75
478.90	6909.26
479.08	7138.63
479.26	7152.68
479.44	6944.37
479.62	7169.06
479.80	7274.38
479.98	7066.08
480.16	7176.08
480.34	7260.34
480.52	7442.90
480.70	7520.14
480.88	7253.32
481.06	7419.50
481.24	7499.08
481.41	7492.05
481.59	7676.96
481.77	7583.34
481.95	7777.60
482.13	7761.22
482.31	7864.20
482.49	7985.91
482.67	7913.35
482.85	8028.04
483.03	8070.17
483.21	8238.69
483.39	8241.03
483.57	8463.38
483.74	8446.99
483.92	8383.80
484.10	8468.06
484.28	8692.75
484.46	8788.71
484.64	8823.82
484.82	8769.99
485.00	8835.52
485.18	8990.00
485.35	8980.64
485.53	8917.44
485.71	9088.30
485.89	9502.58
486.07	9156.18
486.25	9177.24
486.43	9266.18
486.61	9439.38
486.78	9366.82
486.96	9628.96
487.14	9701.52
487.32	9432.36
487.50	9671.09
487.68	9696.84
487.85	9949.62
488.03	10019.83
488.21	10200.05
488.39	10284.31
488.57	10361.55
488.75	10277.29
488.92	10579.22
489.10	10328.78
489.28	10544.11
489.46	10593.26
489.64	10572.20
489.81	10817.96
489.99	10640.08
490.17	10721.99
490.35	11169.04
490.53	10920.94
490.70	11075.42
490.88	11115.20
491.06	11192.44
491.24	11283.72
491.41	11206.48
491.59	11611.40
491.77	11398.41
491.95	11641.82
492.13	11609.06
492.30	11651.19
492.48	11803.32
492.66	11719.06
492.84	11763.53
493.01	11974.18
493.19	12009.29
493.37	12283.13
493.54	12067.80
493.72	12315.90
493.90	12456.33
494.08	12233.98
494.25	12795.71
494.43	12425.90
494.61	12720.81
494.79	12727.83
494.96	12901.03
495.14	12798.05
495.32	12926.78
495.49	13006.36
495.67	13121.04
495.85	13336.37
496.02	13455.74
496.20	13338.71
496.38	13483.83
496.55	13495.53
496.73	13617.24
496.91	13495.53
497.09	13415.95
497.26	13757.67
497.44	13612.56
497.62	13738.94
497.79	13762.35
497.97	13907.46
498.14	13797.46
498.32	14001.08
498.50	14122.79
498.67	14438.76
498.85	14188.33
499.03	14090.02
499.20	14122.79
499.38	14359.19
499.56	14443.45
499.73	14562.81
499.91	14712.61
500.08	14637.71
500.26	14499.62
500.44	14588.56
500.61	14878.79
500.79	14548.77
500.97	14876.44
501.14	14995.81
501.32	15229.87
501.49	15089.43
501.67	14965.39
501.84	14949.00
502.02	15248.59
502.20	15190.08
502.37	15300.08
502.55	15470.94
502.72	15487.32
502.90	15557.54
503.07	15494.35
503.25	15587.97
503.43	15496.69
503.60	15749.46
503.78	16006.92
503.95	15674.57
504.13	15805.64
504.30	15880.53
504.48	15878.19
504.65	16191.83
504.83	16292.47
505.01	16100.55
505.18	16163.74
505.36	16327.58
505.53	16100.55
505.71	16262.04
505.88	16299.49
506.06	16528.86
506.23	16580.36
506.41	16615.46
506.58	16482.05
506.76	16383.75
506.93	16762.92
507.11	16840.15
507.28	16788.66
507.46	16657.59
507.63	16903.35
507.81	17123.36
507.98	16938.46
508.16	16753.55
508.33	17195.92
508.50	17287.20
508.68	17355.07
508.85	17518.91
509.03	17177.19
509.20	17610.19
509.38	17488.48
509.55	17415.93
509.73	17577.42
509.90	17659.34
510.08	17394.86
510.25	17816.16
510.42	17755.30
510.60	17834.88
510.77	18066.60
510.95	17743.60
511.12	18085.32
511.30	17961.27
511.47	17933.18
511.64	18242.14
511.82	18162.56
511.99	18478.53
512.17	18317.03
512.34	18312.35
512.51	18485.55
512.69	18497.25
512.86	18403.63
513.04	18703.22
513.21	18417.68
513.38	18274.90
513.56	18691.52
513.73	18607.26
513.90	18864.72
514.08	18728.97
514.25	18951.32
514.43	19136.22
514.60	18853.02
514.77	19201.76
514.95	19449.85
515.12	18876.42
515.29	19082.39
515.47	19400.70
515.64	19410.06
515.81	19152.60
515.99	19321.12
516.16	19398.36
516.33	19566.88
516.51	19559.86
516.68	19061.32
516.85	19695.61
517.03	19683.91
517.20	19791.57
517.37	19964.77
517.54	19908.60
517.72	19836.04
517.89	19852.42
518.06	19709.65
518.24	20126.27
518.41	20016.26
518.58	20063.07
518.75	19822.00
518.93	20208.19
519.10	20112.22
519.27	20203.50
519.45	19878.17
519.62	20290.10
519.79	20262.02
519.96	20243.29
520.14	20620.12
520.31	20208.19
520.48	20706.72
520.65	20531.18
520.83	20606.08
521.00	20645.87
521.17	20507.77
521.34	20250.32
521.52	20645.87
521.69	20776.94
521.86	20999.29
522.03	20954.82
522.20	20938.43
522.38	20882.26
522.55	20737.15
522.72	20781.62
522.89	21069.50
523.07	21181.85
523.24	21095.25
523.41	21041.42
523.58	21104.61
523.75	21212.28
523.92	20954.82
524.10	21275.47
524.27	21097.59
524.44	21458.03
524.61	21504.84
524.78	21619.53
524.96	21575.06
525.13	21462.71
525.30	21521.23
525.47	21696.77
525.64	21551.65
525.81	21633.57
525.98	21858.26
526.16	21979.97
526.33	21874.65
526.50	22019.76
526.67	21965.93
526.84	21862.94
527.01	21979.97
527.18	22057.21
527.36	22253.81
527.53	22031.46
527.70	22291.26
527.87	22129.77
528.04	22249.13
528.21	22279.56
528.38	22155.51
528.55	22462.12
528.72	22324.03
528.89	22412.97
529.07	22171.89
529.24	22417.65
529.41	22459.78
529.58	22340.41
529.75	22462.12
529.92	22593.19
530.09	22574.47
530.26	22204.66
530.43	22623.62
530.60	22410.63
530.77	22382.54
530.94	22672.77
531.11	22668.09
531.28	22483.19
531.46	22785.12
531.63	22813.20
531.80	23014.49
531.97	22906.82
532.14	23112.79
532.31	22967.68
532.48	22899.80
532.65	23314.08
532.82	22574.47
532.99	23161.94
533.16	23080.02
533.33	23424.08
533.50	23290.67
533.67	23096.41
533.84	22881.08
534.01	23290.67
534.18	22808.52
534.35	23260.24
534.52	23229.82
534.69	23611.32
534.86	23700.26
535.03	23267.27
535.20	23440.47
535.37	23391.31
535.54	23363.23
535.71	23377.27
535.88	23297.69
536.05	23597.28
536.22	23864.10
536.38	23730.69
536.55	23885.17
536.72	23903.89
536.89	23360.89
537.06	23831.33
537.23	23564.51
537.40	23864.10
537.57	23793.89
537.74	23852.40
537.91	24301.78
538.08	24184.76
538.25	24060.71
538.42	24056.03
538.59	24229.23
538.75	23852.40
538.92	24034.96
539.09	24364.98
539.26	24018.58
539.43	24266.67
539.60	24170.71
539.77	23908.57
539.94	23990.49
540.11	23964.75
540.28	24645.84
540.44	24442.21
540.61	24215.18
540.78	24149.65
540.95	24212.84
541.12	24294.76
541.29	24531.15
541.46	24620.10
541.62	24479.66
541.79	24535.84
541.96	24261.99
542.13	24133.26
542.30	24704.35
542.47	24755.85
542.63	24489.03
542.80	25001.60
542.97	24996.92
543.14	24870.53
543.31	24474.98
543.48	24510.09
543.64	25245.02
543.81	25083.52
543.98	24854.15
544.15	25062.46
544.32	25383.11
544.48	25385.45
544.65	25022.67
544.82	25003.94
544.99	25273.10
545.16	25193.53
545.32	25109.27
545.49	25357.36
545.66	25296.51
545.83	25071.82
546.00	25469.71
546.16	25223.95
546.33	24980.54
546.50	25104.59
546.67	25095.22
546.83	25174.80
547.00	25460.35
547.17	25502.48
547.34	25443.96
547.50	25713.13
547.67	25759.94
547.84	25502.48
548.00	25413.54
548.17	25827.81
548.34	25350.34
548.51	25816.11
548.67	25539.93
548.84	26047.82
549.01	25289.49
549.18	25605.46
549.34	25238.00
549.51	25741.21
549.68	25855.90
549.84	25788.02
550.01	25785.68
550.18	25874.62
550.34	26010.37
550.51	25678.02
550.68	25773.98
550.84	25568.01
551.01	25741.21
551.18	26101.65
551.34	25837.17
551.51	25820.79
551.68	25556.31
551.84	26127.40
552.01	25855.90
552.18	25862.92
552.34	26050.16
552.51	25813.77
552.68	25628.87
552.84	25825.47
553.01	26188.25
553.18	26057.18
553.34	26073.57
553.51	26450.39
553.67	26319.32
553.84	26352.09
554.01	26068.89
554.17	26424.65
554.34	25926.11
554.51	26277.19
554.67	25949.52
554.84	26553.38
555.00	26560.40
555.17	26382.52
555.33	26396.56
555.50	26267.83
555.67	26071.23
555.83	26188.25
556.00	26396.56
556.16	26757.00
556.33	26520.61
556.50	26345.07
556.66	26588.49
556.83	26288.90
556.99	26621.25
557.16	26965.31
557.32	26874.03
557.49	26740.62
557.65	26312.30
557.82	26106.34
557.98	26389.54
558.15	26403.58
558.32	26569.76
558.48	26354.43
558.65	26785.09
558.81	26548.70
558.98	26448.05
559.14	26211.66
559.31	26429.33
559.47	26560.40
559.64	26412.95
559.80	26780.41
559.97	26789.77
560.13	26785.09
560.30	26759.34
560.46	26710.19
560.63	26588.49
560.79	26747.64
560.96	27070.64
561.12	26902.12
561.29	26768.71
561.45	26855.31
561.61	27159.58
561.78	26782.75
561.94	26787.43
562.11	26614.23
562.27	26735.94
562.44	26689.13
562.60	26508.91
562.77	26892.76
562.93	26642.32
563.10	27005.10
563.26	26895.10
563.42	26616.57
563.59	26845.94
563.75	26478.48
563.92	27007.44
564.08	26759.34
564.24	27070.64
564.41	26469.12
564.57	26745.30
564.74	26974.67
564.90	27199.37
565.07	26930.20
565.23	27349.16
565.39	26834.24
565.56	27122.13
565.72	26934.88
565.88	26787.43
566.05	27061.27
566.21	27115.11
566.38	26522.95
566.54	26953.61
566.70	27110.43
566.87	27129.15
567.03	27009.78
567.19	27253.20
567.36	27023.83
567.52	26904.46
567.68	26988.72
567.85	27136.17
568.01	27234.47
568.17	26906.80
568.34	27332.78
568.50	27103.40
568.66	26969.99
568.83	27332.78
568.99	27260.22
569.15	27063.61
569.32	27068.30
569.48	27173.62
569.64	27005.10
569.81	27257.88
569.97	26637.64
570.13	27150.21
570.30	27262.56
570.46	27213.41
570.62	26813.18
570.78	26735.94
570.95	27030.85
571.11	27466.19
571.27	26913.82
571.43	26700.83
571.60	27182.98
571.76	26890.41
571.92	27040.21
572.09	26731.26
572.25	26682.11
572.41	27103.40
572.57	27080.00
572.74	27323.41
572.90	27192.34
573.06	27311.71
573.22	27381.93
573.38	27323.41
573.55	27091.70
573.71	27426.40
573.87	27608.96
574.03	27035.53
574.20	27552.79
574.36	27014.46
574.52	27080.00
574.68	26960.63
574.84	27154.90
575.01	27482.57
575.17	27035.53
575.33	27178.30
575.49	27220.43
575.65	27302.35
575.82	27124.47
575.98	26455.08
576.14	27292.99
576.30	27386.61
576.46	27356.18
576.62	27297.67
576.79	27328.10
576.95	26986.38
577.11	27168.94
577.27	27047.23
577.43	27393.63
577.59	27267.24
577.75	26934.88
577.92	27168.94
578.08	27096.38
578.24	27335.12
578.40	26834.24
578.56	27056.59
578.72	27513.00
578.88	27318.73
579.04	27138.51
579.21	26932.54
579.37	27133.83
579.53	27215.75
579.69	27101.06
579.85	27250.86
580.01	27363.20
580.17	27161.92
580.33	27428.74
580.49	27103.40
580.65	27388.95
580.82	27517.68
580.98	27377.25
581.14	27173.62
581.30	27171.28
581.46	27042.55
581.62	26995.74
581.78	26986.38
581.94	27541.08
582.10	27424.06
582.26	27623.00
582.42	27133.83
582.58	27725.99
582.74	27250.86
582.90	27061.27
583.06	27213.41
583.22	27585.55
583.38	27374.91
583.54	27187.66
583.70	27328.10
583.86	27267.24
584.02	27222.77
584.18	27058.93
584.34	27887.48
584.50	27531.72
584.66	27192.34
584.82	26986.38
584.98	27276.60
585.14	27278.94
585.30	27072.98
585.46	27524.70
585.62	27117.45
585.78	27342.14
585.94	27239.15
586.10	27241.50
586.26	27346.82
586.42	27246.18
586.58	27625.34
586.74	27274.26
586.90	27157.24
587.06	27456.82
587.22	27185.32
587.38	27098.72
587.54	27372.57
587.70	27234.47
587.86	27721.30
588.02	27377.25
588.18	27634.71
588.34	27374.91
588.49	27498.95
588.65	27349.16
588.81	26869.35
588.97	27508.32
589.13	27302.35
589.29	27407.67
589.45	27335.12
589.61	27522.36
589.77	27513.00
589.93	27557.47
590.08	27552.79
590.24	27651.09
590.40	27571.51
590.56	27529.38
590.72	27491.93
590.88	27180.64
591.04	27314.05
591.20	27323.41
591.35	27417.04
591.51	27800.88
591.67	27676.83
591.83	27302.35
591.99	27693.22
592.15	27229.79
