SpectraSuite Data File
++++++++++++++++++++++++++++++++++++
Date: Fri Oct 04 11:48:48 GMT-05:00 2013
User: price-jones
Dark Spectrum Present: No
Reference Spectrum Present: No
Number of Sampled Component Spectra: 1
Spectrometers: USB2+H05261
Integration Time (usec): 100000 (USB2+H05261)
Spectra Averaged: 1 (USB2+H05261)
Boxcar Smoothing: 0 (USB2+H05261)
Correct for Electrical Dark: No (USB2+H05261)
Strobe/Lamp Enabled: No (USB2+H05261)
Correct for Detector Non-linearity: No (USB2+H05261)
Correct for Stray Light: No (USB2+H05261)
Number of Pixels in Processed Spectrum: 2048
>>>>>Begin Processed Spectral Data<<<<<
365.73	37.45
365.92	37.45
366.12	37.45
366.32	0.00
366.52	0.00
366.72	0.00
366.91	0.00
367.11	0.00
367.31	0.00
367.51	0.00
367.70	0.00
367.90	0.00
368.10	0.00
368.30	0.00
368.49	0.00
368.69	0.00
368.89	0.00
369.09	0.00
369.28	0.00
369.48	0.00
369.68	0.00
369.87	2.34
370.07	0.00
370.27	37.45
370.47	72.56
370.66	215.33
370.86	283.20
371.06	320.65
371.25	332.36
371.45	430.66
371.65	397.89
371.84	269.16
372.04	327.68
372.24	299.59
372.44	327.68
372.63	381.51
372.83	423.64
373.03	400.23
373.22	421.30
373.42	435.34
373.62	360.44
373.81	430.66
374.01	498.53
374.21	449.38
374.40	444.70
374.60	475.13
374.79	393.21
374.99	496.19
375.19	400.23
375.38	475.13
375.58	402.57
375.78	421.30
375.97	449.38
376.17	543.00
376.37	507.90
376.56	454.06
376.76	390.87
376.95	393.21
377.15	580.45
377.35	442.36
377.54	528.96
377.74	458.74
377.93	440.02
378.13	477.47
378.33	507.90
378.52	514.92
378.72	498.53
378.91	512.58
379.11	524.28
379.31	521.94
379.50	510.24
379.70	615.56
379.89	519.60
380.09	596.84
380.28	493.85
380.48	503.22
380.68	512.58
380.87	519.60
381.07	566.41
381.26	636.63
381.46	526.62
381.65	557.05
381.85	521.94
382.04	535.98
382.24	571.09
382.43	533.64
382.63	559.39
382.83	547.69
383.02	538.32
383.22	606.20
383.41	566.41
383.61	585.13
383.80	575.77
384.00	578.11
384.19	589.82
384.39	622.58
384.58	702.16
384.78	568.75
384.97	601.52
385.17	613.22
385.36	624.92
385.56	594.50
385.75	664.71
385.95	688.12
386.14	629.60
386.34	664.71
386.53	585.13
386.72	683.44
386.92	566.41
387.11	669.39
387.31	706.84
387.50	732.59
387.70	592.16
387.89	627.26
388.09	667.05
388.28	636.63
388.48	718.54
388.67	802.80
388.86	685.78
389.06	650.67
389.25	734.93
389.45	819.19
389.64	807.48
389.84	812.17
390.03	805.14
390.22	713.86
390.42	781.74
390.61	835.57
390.81	716.20
391.00	732.59
391.19	772.38
391.39	774.72
391.58	849.61
391.78	854.30
391.97	770.04
392.16	837.91
392.36	901.11
392.55	922.17
392.75	882.38
392.94	891.74
393.13	990.05
393.33	882.38
393.52	875.36
393.71	861.32
393.91	943.24
394.10	976.00
394.29	961.96
394.49	884.72
394.68	1006.43
394.88	905.79
395.07	980.68
395.26	954.94
395.46	954.94
395.65	997.07
395.84	1020.47
396.04	1078.99
396.23	1004.09
396.42	950.26
396.62	1013.45
396.81	1146.86
397.00	1046.22
397.19	1104.73
397.39	1102.39
397.58	1043.88
397.77	1076.65
397.97	1191.33
398.16	1060.26
398.35	1064.94
398.55	1083.67
398.74	1107.07
398.93	1104.73
399.12	1128.14
399.32	1104.73
399.51	1184.31
399.70	1256.87
399.90	1170.27
400.09	1240.48
400.28	1163.25
400.47	1256.87
400.67	1261.55
400.86	1282.61
401.05	1348.15
401.24	1348.15
401.44	1315.38
401.63	1289.64
401.82	1345.81
402.01	1338.79
402.21	1404.32
402.40	1458.15
402.59	1343.47
402.78	1331.76
402.97	1336.45
403.17	1446.45
403.36	1341.13
403.55	1455.81
403.74	1460.49
403.93	1448.79
404.13	1577.52
404.32	1533.05
404.51	1476.88
404.70	1647.74
404.89	1610.29
405.09	1610.29
405.28	1621.99
405.47	1575.18
405.66	1671.14
405.85	1638.38
406.05	1708.59
406.24	1678.16
406.43	1689.87
406.62	1710.93
406.81	1837.32
407.00	1708.59
407.20	1788.17
407.39	1851.36
407.58	1795.19
407.77	1818.60
407.96	1818.60
408.15	1795.19
408.34	1914.56
408.54	1888.81
408.73	1832.64
408.92	1919.24
409.11	1902.86
409.30	2008.18
409.49	1996.48
409.68	1959.03
409.87	1916.90
410.07	1989.46
410.26	2015.20
410.45	2029.24
410.64	2057.33
410.83	2019.88
411.02	2174.36
411.21	2200.10
411.40	2162.66
411.59	2150.95
411.78	2181.38
411.98	2200.10
412.17	2293.72
412.36	2195.42
412.55	2270.32
412.74	2300.75
412.93	2293.72
413.12	2471.61
413.31	2471.61
413.50	2382.67
413.69	2520.76
413.88	2511.39
414.07	2480.97
414.26	2483.31
414.45	2448.20
414.64	2670.55
414.83	2684.59
415.02	2574.59
415.22	2801.62
415.41	2722.04
415.60	2700.98
415.79	2778.22
415.98	2825.03
416.17	2860.13
416.36	2967.80
416.55	2810.98
416.74	2902.26
416.93	2832.05
417.12	2986.52
417.31	2995.89
417.50	3066.10
417.69	3105.89
417.88	3009.93
418.07	3038.02
418.26	3054.40
418.45	3131.64
418.64	3260.37
418.83	3176.11
419.02	3045.04
419.21	3178.45
419.39	3094.19
419.58	3323.56
419.77	3148.02
419.96	3243.98
420.15	3246.32
420.34	3124.62
420.53	3328.24
420.72	3438.25
420.91	3393.78
421.10	3339.94
421.29	3524.85
421.48	3372.71
421.67	3403.14
421.86	3424.20
422.05	3372.71
422.24	3253.34
422.43	3342.28
422.61	3475.70
422.80	3513.14
422.99	3510.80
423.18	3520.17
423.37	3611.45
423.56	3550.59
423.75	3625.49
423.94	3466.33
424.13	3307.18
424.32	3375.05
424.50	3597.40
424.69	3618.47
424.88	3648.90
425.07	3665.28
425.26	3496.76
425.45	3669.96
425.64	3559.95
425.83	3569.32
426.01	3557.61
426.20	3574.00
426.39	3602.08
426.58	3667.62
426.77	3651.24
426.96	3648.90
427.15	3655.92
427.33	3742.52
427.52	3875.93
427.71	3922.74
427.90	3913.38
428.09	3908.69
428.28	3765.92
428.46	3812.73
428.65	3775.28
428.84	3889.97
429.03	3995.29
429.22	3726.13
429.40	3817.41
429.59	3871.25
429.78	3829.12
429.97	3782.31
430.16	3943.80
430.34	3974.23
430.53	4105.30
430.72	4093.60
430.91	4021.04
431.10	4046.79
431.28	4114.66
431.47	4180.20
431.66	4152.11
431.85	4147.43
432.03	4315.95
432.22	4290.20
432.41	4374.46
432.60	4332.33
432.79	4250.41
432.97	4404.89
433.16	4322.97
433.35	4201.26
433.54	4517.23
433.72	4311.27
433.91	4383.82
434.10	4332.33
434.28	4369.78
434.47	4456.38
434.66	4571.07
434.85	4360.42
435.03	4524.26
435.22	4449.36
435.41	4610.86
435.59	4636.60
435.78	4568.73
435.97	4627.24
436.16	4550.00
436.34	4636.60
436.53	4777.03
436.72	4713.84
436.90	4613.20
437.09	4636.60
437.28	4685.75
437.46	4734.90
437.65	4840.23
437.84	4781.71
438.02	4912.78
438.21	5011.09
438.40	4793.42
438.58	4966.62
438.77	4961.94
438.96	5116.41
439.14	5067.26
439.33	5195.99
439.52	5188.97
439.70	5245.14
439.89	5352.81
440.08	5294.29
440.26	5448.77
440.45	5266.21
440.63	5298.97
440.82	5451.11
441.01	5441.75
441.19	5479.19
441.38	5640.69
441.57	5570.48
441.75	5462.81
441.94	5846.66
442.12	5724.95
442.31	5776.44
442.50	5933.26
442.68	5731.97
442.87	5724.95
443.05	5783.46
443.24	6001.13
443.43	5940.28
443.61	6101.78
443.80	6052.63
443.98	5930.92
444.17	5781.12
444.35	6090.07
444.54	6017.52
444.73	6148.59
444.91	6085.39
445.10	6111.14
445.28	6026.88
445.47	5994.11
445.65	6015.18
445.84	6087.73
446.02	6071.35
446.21	5947.30
446.39	6092.41
446.58	6136.88
446.77	6171.99
446.95	6115.82
447.14	6190.72
447.32	6127.52
447.51	6125.18
447.69	6197.74
447.88	6193.06
448.06	6176.67
448.25	6134.54
448.43	6181.35
448.62	6012.84
448.80	6291.36
448.99	6164.97
449.17	6256.25
449.36	6188.38
449.54	6399.02
449.73	6377.96
449.91	6270.30
450.10	6551.16
450.28	6546.48
450.46	6616.69
450.65	6471.58
450.83	6595.63
451.02	6619.04
451.20	6724.36
451.39	6459.88
451.57	6787.55
451.76	6569.88
451.94	6506.69
452.13	6693.93
452.31	6890.54
452.49	6843.73
452.68	6761.81
452.86	6649.46
453.05	6853.09
453.23	6981.82
453.42	6913.94
453.60	6972.46
453.78	6951.39
453.97	6780.53
454.15	7035.65
454.34	6869.47
454.52	6935.01
454.70	7199.49
454.89	6970.12
455.07	6855.43
455.26	7023.95
455.44	7124.59
455.62	7070.76
455.81	7166.72
455.99	7150.34
456.17	7318.86
456.36	7211.19
456.54	7267.36
456.73	7520.14
456.91	7489.71
457.09	7447.58
457.28	7581.00
457.46	7379.71
457.64	7651.21
457.83	7695.68
458.01	7595.04
458.19	7667.60
458.38	7627.81
458.56	7866.54
458.74	7698.02
458.93	7665.25
459.11	7632.49
459.29	7625.47
459.48	7761.22
459.66	7826.75
459.84	8070.17
460.03	8018.68
460.21	7887.61
460.39	7812.71
460.57	7925.05
460.76	7953.14
460.94	8042.08
461.12	7976.55
461.31	8121.66
461.49	7953.14
461.67	8112.30
461.85	8397.84
462.04	8119.32
462.22	8643.60
462.40	8159.11
462.59	8086.55
462.77	8301.88
462.95	8400.18
463.13	8266.77
463.32	8290.18
463.50	8608.49
463.68	8355.71
463.86	8491.46
464.05	8526.57
464.23	8547.64
464.41	8589.77
464.59	8397.84
464.78	8655.30
464.96	8568.70
465.14	8521.89
465.32	8795.73
465.50	8713.81
465.69	8723.18
465.87	8596.79
466.05	8774.67
466.23	8800.41
466.41	8767.65
466.60	8966.59
466.78	8648.28
466.96	8856.59
467.14	8800.41
467.32	8903.40
467.51	9186.60
467.69	8877.65
467.87	9078.94
468.05	9011.06
468.23	8924.46
468.41	8947.87
468.60	8994.68
468.78	9053.19
468.96	9027.45
469.14	9284.91
469.32	9228.73
469.50	9043.83
469.69	9214.69
469.87	9324.69
470.05	9298.95
470.23	9507.26
470.41	9350.44
470.59	9460.45
470.77	9348.10
470.95	9584.49
471.14	9816.21
471.32	9657.05
471.50	9944.94
471.68	9781.10
471.86	9813.87
472.04	9802.16
472.22	9930.89
472.40	9832.59
472.58	10047.92
472.77	9891.10
472.95	10281.97
473.13	10200.05
473.31	10036.22
473.49	10073.67
473.67	10298.36
473.85	10221.12
474.03	10530.07
474.21	10296.02
474.39	10724.33
474.57	10611.99
474.75	10663.48
474.93	10670.50
475.12	10771.15
475.30	10846.04
475.48	10827.32
475.66	10752.42
475.84	10939.66
476.02	11150.31
476.20	11234.57
476.38	11344.58
476.56	11358.62
476.74	11393.73
476.92	11463.94
477.10	11482.67
477.28	11632.46
477.46	11548.20
477.64	11852.47
477.82	11824.39
478.00	12035.03
478.18	12166.10
478.36	12147.38
478.54	12217.60
478.72	12269.09
478.90	12358.03
479.08	12519.53
479.26	12631.87
479.44	12865.92
479.62	12826.14
479.80	12718.47
479.98	13099.98
480.16	13319.99
480.34	13392.55
480.52	13474.46
480.70	13650.00
480.88	13121.04
481.06	13532.98
481.24	13451.06
481.41	13507.23
481.59	13921.51
481.77	13954.27
481.95	14019.81
482.13	14195.35
482.31	13998.74
482.49	14288.97
482.67	14452.81
482.85	14764.10
483.03	14827.29
483.21	14881.13
483.39	15094.11
483.57	15056.67
483.74	15096.46
483.92	15447.54
484.10	15150.29
484.28	15384.34
484.46	15728.40
484.64	15861.81
484.82	15719.04
485.00	15974.16
485.18	16219.91
485.35	16154.38
485.53	16465.67
485.71	16325.24
485.89	16798.02
486.07	16812.07
486.25	16681.00
486.43	16851.86
486.61	17064.85
486.78	17308.26
486.96	17469.76
487.14	17752.96
487.32	17664.02
487.50	17593.81
487.68	17767.01
487.85	18387.25
488.03	18300.65
488.21	18340.44
488.39	18527.68
488.57	18775.78
488.75	18904.51
488.92	19103.45
489.10	19157.28
489.28	19225.16
489.46	19281.33
489.64	19426.45
489.81	19765.82
489.99	19814.98
490.17	19716.67
490.35	20135.63
490.53	20189.46
490.70	20322.87
490.88	20489.05
491.06	20533.52
491.24	20629.48
491.41	20851.83
491.59	20882.26
491.77	20975.88
491.95	21186.53
492.13	21359.73
492.30	21497.82
492.48	21090.57
492.66	21790.39
492.84	21830.18
493.01	21902.73
493.19	21977.63
493.37	22092.32
493.54	22162.53
493.72	22029.12
493.90	22747.67
494.08	23080.02
494.25	22963.00
494.43	23051.94
494.61	23482.59
494.79	23316.42
494.96	23309.40
495.14	23716.65
495.32	23784.52
495.49	23660.48
495.67	23714.31
495.85	23960.06
496.02	24095.82
496.20	24109.86
496.38	23960.06
496.55	24133.26
496.73	25156.08
496.91	25282.47
497.09	25039.05
497.26	25270.76
497.44	24786.27
497.62	24870.53
497.79	25270.76
497.97	25563.33
498.14	25661.63
498.32	25846.54
498.50	25757.60
498.67	25935.48
498.85	26125.06
499.03	26284.22
499.20	26920.84
499.38	26419.97
499.56	26593.17
499.73	26979.36
499.91	27021.48
500.08	26771.05
500.26	26721.90
500.44	27150.21
500.61	26932.54
500.79	27391.29
500.97	26941.91
501.14	27707.26
501.32	27566.83
501.49	27517.68
501.67	27566.83
501.84	27943.66
502.02	27730.67
502.20	28458.57
502.37	28376.66
502.55	28123.88
502.72	28226.86
502.90	28561.56
503.07	27953.02
503.25	28627.09
503.43	28709.01
503.60	28737.10
503.78	28849.44
503.95	28854.12
504.13	29186.48
504.30	29333.93
504.48	29046.05
504.65	29331.59
504.83	29607.78
505.01	29708.42
505.18	30089.93
505.36	30008.01
505.53	29661.61
505.71	29972.90
505.88	30031.41
506.06	29951.84
506.23	30331.00
506.41	30412.92
506.58	30347.39
506.76	30298.23
506.93	30696.13
507.11	30426.96
507.28	30717.19
507.46	30586.12
507.63	31541.06
507.81	31042.53
507.98	31054.23
508.16	30960.61
508.33	31274.24
508.50	31028.48
508.68	31440.42
508.85	31578.51
509.03	31695.53
509.20	32477.27
509.38	32149.60
509.55	32187.05
509.73	32149.60
509.90	32664.52
510.08	32371.95
510.25	32039.59
510.42	32402.38
510.60	32863.46
510.77	32603.66
510.95	33134.96
511.12	32769.84
511.30	32507.70
511.47	32641.11
511.64	33310.50
511.82	33275.40
511.99	33549.24
512.17	33261.35
512.34	33425.19
512.51	34059.48
512.69	33818.40
512.86	33333.91
513.04	34099.26
513.21	33876.91
513.38	34265.44
513.56	34136.71
513.73	34281.83
513.90	34263.10
514.08	33750.52
514.25	34354.38
514.43	34639.93
514.60	34646.95
514.77	34558.01
514.95	34679.72
515.12	34817.81
515.29	34899.73
515.47	35232.08
515.64	35426.35
515.81	35145.48
515.99	35262.51
516.16	35814.88
516.33	35599.55
516.51	35775.09
516.68	35381.88
516.85	35419.33
517.03	36093.40
517.20	35739.98
517.37	36144.89
517.54	36109.78
517.72	35887.43
517.89	35995.10
518.06	35896.80
518.24	36051.27
518.41	36580.23
518.58	36070.00
518.75	36711.30
518.93	36407.03
519.10	37090.47
519.27	36928.97
519.45	36552.15
519.62	36877.48
519.79	36823.65
519.96	36825.99
520.14	37179.41
520.31	37160.69
520.48	37532.83
520.65	37207.50
520.83	37755.18
521.00	37638.15
521.17	37530.49
521.34	37514.11
521.52	37713.05
521.69	37401.76
521.86	37872.21
522.03	37792.63
522.20	38213.93
522.38	38529.90
522.55	38071.15
522.72	38375.42
522.89	38366.06
523.07	38602.46
523.24	38352.02
523.41	38691.40
523.58	38274.78
523.75	38642.24
523.92	38492.45
524.10	38759.27
524.27	39210.99
524.44	39044.82
524.61	39363.13
524.78	39189.93
524.96	39229.72
525.13	38953.54
525.30	39505.90
525.47	39622.93
525.64	39449.73
525.81	39332.70
525.98	39328.02
526.16	39519.95
526.33	39592.50
526.50	39880.39
526.67	39618.25
526.84	40051.25
527.01	39681.44
527.18	40128.48
527.36	40023.16
527.53	40128.48
527.70	40465.52
527.87	40493.61
528.04	40259.55
528.21	40643.40
528.38	40048.91
528.55	40676.17
528.72	40587.23
528.89	40975.76
529.07	40650.42
529.24	40776.81
529.41	40701.92
529.58	40919.59
529.75	40786.18
529.92	40732.34
530.09	41158.32
530.26	41064.70
530.43	41352.58
530.60	41394.71
530.77	41212.15
530.94	41443.87
531.11	41333.86
531.28	41240.24
531.46	41717.71
531.63	41422.80
531.80	41890.91
531.97	41804.31
532.14	41949.42
532.31	41750.48
532.48	41759.84
532.65	41818.35
532.82	41916.65
532.99	42153.05
533.16	41478.97
533.33	42719.46
533.50	42410.51
533.67	42288.80
533.84	42141.35
534.01	41979.85
534.18	42232.63
534.35	42787.33
534.52	42745.20
534.69	42920.74
534.86	43166.50
535.03	42782.65
535.20	42476.04
535.37	42836.48
535.54	42824.78
535.71	42508.81
535.88	42602.43
536.05	43285.87
536.22	43145.44
536.38	43203.95
536.55	43398.21
536.72	43470.77
536.89	43187.56
537.06	43363.11
537.23	43419.28
537.40	43285.87
537.57	43210.97
537.74	43381.83
537.91	44161.23
538.08	43955.26
538.25	43711.84
538.42	43407.58
538.59	44184.63
538.75	43494.18
538.92	43847.60
539.09	44231.44
539.26	44224.42
539.43	44301.66
539.60	43931.86
539.77	44126.12
539.94	44208.04
540.11	43908.45
540.28	44545.08
540.44	44257.19
540.61	44100.37
540.78	44282.94
540.95	44325.07
541.12	44502.95
541.29	44336.77
541.46	44395.28
541.62	44357.83
541.79	44762.75
541.96	44046.54
542.13	44507.63
542.30	45088.08
542.47	45006.16
542.63	45148.93
542.80	44978.07
542.97	45228.51
543.14	44886.79
543.31	45329.16
543.48	44973.39
543.64	45352.56
543.81	45902.59
543.98	45460.23
544.15	45876.84
544.32	45949.40
544.48	45996.21
544.65	45928.33
544.82	45633.42
544.99	45710.66
545.16	45940.04
545.32	46422.19
545.49	46071.10
545.66	46415.16
545.83	46202.18
546.00	46567.30
546.16	46026.63
546.33	45916.63
546.50	45645.13
546.67	46080.47
546.83	45797.26
547.00	46349.63
547.17	45944.72
547.34	46511.13
547.50	46307.50
547.67	46913.70
547.84	46347.29
548.00	46295.80
548.17	46595.38
548.34	46794.33
548.51	46923.06
548.67	46768.58
548.84	46815.40
549.01	46852.84
549.18	47026.04
549.34	46574.32
549.51	46674.96
549.68	46988.60
549.84	46351.97
550.01	46934.76
550.18	47147.75
550.34	47004.98
550.51	46972.21
550.68	47419.25
550.84	46637.51
551.01	47217.97
551.18	46958.17
551.34	47147.75
551.51	47002.64
551.68	47157.11
551.84	47538.62
552.01	47587.77
552.18	47122.01
552.34	47393.51
552.51	47250.74
552.68	47430.96
552.84	47498.83
553.01	47145.41
553.18	46974.55
553.34	47662.67
553.51	47730.54
553.67	48039.50
553.84	48037.16
554.01	47620.54
554.17	47896.72
554.34	47793.74
554.51	47634.58
554.67	48065.24
554.84	48039.50
555.00	48098.01
555.17	47580.75
555.33	47938.85
555.50	47875.66
555.67	47990.34
555.83	48257.17
556.00	47732.89
556.16	48322.70
556.33	47992.68
556.50	48224.40
556.66	48343.77
556.83	48100.35
556.99	48418.66
557.16	48610.59
557.32	48664.42
557.49	48519.31
557.65	48023.11
557.82	48179.93
557.98	48107.37
558.15	48189.29
558.32	48816.55
558.48	48561.44
558.65	48582.50
558.81	48863.36
558.98	48542.71
559.14	48566.12
559.31	48458.45
559.47	48633.99
559.64	48294.61
559.80	48528.67
559.97	48856.34
560.13	48683.14
560.30	48802.51
560.46	48940.60
560.63	49139.55
560.79	48755.70
560.96	48982.73
561.12	48641.01
561.29	48385.89
561.45	49020.18
561.61	49130.19
561.78	48893.79
561.94	48793.15
562.11	49066.99
562.27	48566.12
562.44	48755.70
562.60	48779.10
562.77	49071.67
562.93	49069.33
563.10	49588.93
563.26	48921.88
563.42	49776.17
563.59	49052.95
563.75	49165.29
563.92	49017.84
564.08	48650.38
564.24	48968.69
564.41	49034.22
564.57	49020.18
564.74	49057.63
564.90	49249.55
565.07	49469.56
565.23	49565.52
565.39	49359.56
565.56	49247.21
565.72	48952.30
565.88	49036.56
566.05	48978.05
566.21	48928.90
566.38	48989.75
566.54	49287.00
566.70	49773.83
566.87	49432.11
567.03	49570.21
567.19	49610.00
567.36	49242.53
567.52	48954.64
567.68	49343.17
567.85	49310.41
568.01	49460.20
568.17	49186.36
568.34	49790.22
568.50	49687.23
568.66	49418.07
568.83	49668.51
568.99	49560.84
569.15	49368.92
569.32	49045.93
569.48	49333.81
569.64	49652.12
569.81	49677.87
569.97	49521.05
570.13	49469.56
570.30	49771.49
570.46	49392.33
570.62	49642.76
570.78	49432.11
570.95	49420.41
571.11	49350.20
571.27	49317.43
571.43	49478.92
571.60	49420.41
571.76	49633.40
571.92	49624.04
572.09	49757.45
572.25	49659.15
572.41	49710.64
572.57	49425.09
572.74	50141.30
572.90	49123.16
573.06	49654.47
573.22	49598.29
573.38	49954.05
573.55	49577.23
573.71	49783.19
573.87	50061.72
574.03	49696.59
574.20	49879.16
574.36	49755.11
574.52	49780.85
574.68	49937.67
574.84	49853.41
575.01	49724.68
575.17	50061.72
575.33	49911.92
575.49	49982.14
575.65	50199.81
575.82	50225.56
575.98	49806.60
576.14	49918.95
576.30	49872.14
576.46	49705.96
576.62	49471.90
576.79	49645.10
576.95	49954.05
577.11	50073.42
577.27	49914.26
577.43	50401.10
577.59	49684.89
577.75	49897.88
577.92	49628.72
578.08	49689.57
578.24	50019.59
578.40	49874.48
578.56	49694.25
578.72	49563.18
578.88	50255.98
579.04	50183.43
579.21	49928.31
579.37	49804.26
579.53	50248.96
579.69	49794.90
579.85	50024.27
580.01	50241.94
580.17	49965.76
580.33	49844.05
580.49	50155.34
580.65	50120.23
580.82	50122.57
580.98	50075.76
581.14	49897.88
581.30	50258.32
581.46	50005.55
581.62	49654.47
581.78	49663.83
581.94	49792.56
582.10	49556.16
582.26	49783.19
582.42	50092.15
582.58	50356.63
582.74	50127.25
582.90	49881.50
583.06	50110.87
583.22	50307.47
583.38	50258.32
583.54	50094.49
583.70	50291.09
583.86	50075.76
584.02	50103.85
584.18	50195.13
584.34	50155.34
584.50	50501.74
584.66	50138.96
584.82	50110.87
584.98	50244.28
585.14	50377.69
585.30	50026.61
585.46	49830.01
585.62	50017.25
585.78	50059.38
585.94	50433.86
586.10	49923.63
586.26	50010.23
586.42	50335.56
586.58	50085.12
586.74	49947.03
586.90	49996.18
587.06	50010.23
587.22	49991.50
587.38	49731.70
587.54	50234.92
587.70	50323.86
587.86	50171.72
588.02	50080.44
588.18	50546.21
588.34	50298.11
588.49	50178.75
588.65	50089.80
588.81	50232.58
588.97	50354.29
589.13	49834.69
589.29	50220.87
589.45	50464.29
589.61	50398.76
589.77	50677.28
589.93	50237.26
590.08	50358.97
590.24	50365.99
590.40	50321.52
590.56	50485.36
