SpectraSuite Data File
++++++++++++++++++++++++++++++++++++
Date: Fri Oct 04 11:48:31 GMT-05:00 2013
User: price-jones
Dark Spectrum Present: No
Reference Spectrum Present: No
Number of Sampled Component Spectra: 1
Spectrometers: USB2+H05261
Integration Time (usec): 100000 (USB2+H05261)
Spectra Averaged: 1 (USB2+H05261)
Boxcar Smoothing: 0 (USB2+H05261)
Correct for Electrical Dark: No (USB2+H05261)
Strobe/Lamp Enabled: No (USB2+H05261)
Correct for Detector Non-linearity: No (USB2+H05261)
Correct for Stray Light: No (USB2+H05261)
Number of Pixels in Processed Spectrum: 2048
>>>>>Begin Processed Spectral Data<<<<<
365.73	4.68
365.92	4.68
366.12	4.68
366.32	0.00
366.52	0.00
366.72	0.00
366.91	0.00
367.11	0.00
367.31	0.00
367.51	0.00
367.70	0.00
367.90	0.00
368.10	0.00
368.30	0.00
368.49	0.00
368.69	0.00
368.89	0.00
369.09	0.00
369.28	0.00
369.48	0.00
369.68	0.00
369.87	0.00
370.07	0.00
370.27	0.00
370.47	65.54
370.66	348.74
370.86	374.49
371.06	465.77
371.25	381.51
371.45	381.51
371.65	463.43
371.84	456.40
372.04	491.51
372.24	510.24
372.44	578.11
372.63	514.92
372.83	543.00
373.03	528.96
373.22	514.92
373.42	561.73
373.62	561.73
373.81	631.94
374.01	608.54
374.21	613.22
374.40	596.84
374.60	585.13
374.79	580.45
374.99	528.96
375.19	641.31
375.38	624.92
375.58	653.01
375.78	737.27
375.97	636.63
376.17	690.46
376.37	603.86
376.56	636.63
376.76	634.29
376.95	692.80
377.15	692.80
377.35	800.46
377.54	681.10
377.74	662.37
377.93	716.20
378.13	725.57
378.33	786.42
378.52	695.14
378.72	781.74
378.91	699.82
379.11	695.14
379.31	793.44
379.50	638.97
379.70	758.33
379.89	758.33
380.09	791.10
380.28	744.29
380.48	739.61
380.68	805.14
380.87	791.10
381.07	823.87
381.26	807.48
381.46	802.80
381.65	842.59
381.85	807.48
382.04	840.25
382.24	779.40
382.43	791.10
382.63	816.85
382.83	912.81
383.02	940.90
383.22	929.19
383.41	898.77
383.61	882.38
383.80	985.37
384.00	959.62
384.19	968.98
384.39	912.81
384.58	917.49
384.78	947.92
384.97	950.26
385.17	978.34
385.36	931.53
385.56	954.94
385.75	994.73
385.95	877.70
386.14	1039.20
386.34	929.19
386.53	1027.50
386.72	1008.77
386.92	1022.81
387.11	1121.12
387.31	1046.22
387.50	1090.69
387.70	945.58
387.89	1041.54
388.09	1067.28
388.28	1027.50
388.48	1128.14
388.67	1207.72
388.86	1144.52
389.06	1067.28
389.25	1118.78
389.45	1191.33
389.64	1095.37
389.84	1128.14
390.03	1224.10
390.22	1188.99
390.42	1142.18
390.61	1043.88
390.81	1245.16
391.00	1275.59
391.19	1233.46
391.39	1263.89
391.58	1249.85
391.78	1266.23
391.97	1270.91
392.16	1256.87
392.36	1263.89
392.55	1252.19
392.75	1327.08
392.94	1390.28
393.13	1355.17
393.33	1203.04
393.52	1226.44
393.71	1369.21
393.91	1385.60
394.10	1341.13
394.29	1383.26
394.49	1474.54
394.68	1350.49
394.88	1434.75
395.07	1458.15
395.26	1504.96
395.46	1509.65
395.65	1507.30
395.84	1418.36
396.04	1568.16
396.23	1483.90
396.42	1572.84
396.62	1624.33
396.81	1577.52
397.00	1516.67
397.19	1584.54
397.39	1582.20
397.58	1610.29
397.77	1549.43
397.97	1603.27
398.16	1584.54
398.35	1607.95
398.55	1633.69
398.74	1764.76
398.93	1657.10
399.12	1631.35
399.32	1645.40
399.51	1654.76
399.70	1860.73
399.90	1802.21
400.09	1764.76
400.28	1678.16
400.47	1788.17
400.67	1881.79
400.86	1856.04
401.05	1823.28
401.24	1811.57
401.44	1858.39
401.63	1809.23
401.82	1914.56
402.01	1849.02
402.21	1879.45
402.40	1916.90
402.59	2064.35
402.78	2043.29
402.97	1968.39
403.17	2043.29
403.36	2005.84
403.55	2092.44
403.74	2176.70
403.93	2040.95
404.13	2057.33
404.32	2087.76
404.51	2118.18
404.70	2272.66
404.89	2083.08
405.09	2195.42
405.28	2307.77
405.47	2141.59
405.66	2335.85
405.85	2303.09
406.05	2293.72
406.24	2246.91
406.43	2305.43
406.62	2415.43
406.81	2415.43
407.00	2373.30
407.20	2495.01
407.39	2382.67
407.58	2509.05
407.77	2516.08
407.96	2560.55
408.15	2572.25
408.34	2478.63
408.54	2450.54
408.73	2530.12
408.92	2590.97
409.11	2516.08
409.30	2712.68
409.49	2637.78
409.68	2708.00
409.87	2635.44
410.07	2682.25
410.26	2719.70
410.45	2759.49
410.64	2778.22
410.83	2822.69
411.02	2773.53
411.21	2792.26
411.40	2764.17
411.59	2869.50
411.78	2984.18
411.98	2984.18
412.17	3096.53
412.36	3080.14
412.55	3061.42
412.74	3173.77
412.93	3297.81
413.12	3138.66
413.31	3253.34
413.50	3124.62
413.69	3368.03
413.88	3316.54
414.07	3279.09
414.26	3346.97
414.45	3311.86
414.64	3435.91
414.83	3618.47
415.02	3487.40
415.22	3616.13
415.41	3604.42
415.60	3487.40
415.79	3578.68
415.98	3662.94
416.17	3658.26
416.36	3665.28
416.55	3770.60
416.74	3796.35
416.93	3838.48
417.12	3962.53
417.31	3941.46
417.50	3913.38
417.69	3953.16
417.88	3932.10
418.07	3997.64
418.26	3941.46
418.45	3992.95
418.64	4063.17
418.83	4224.67
419.02	4065.51
419.21	4107.64
419.39	4077.21
419.58	3962.53
419.77	4074.87
419.96	4222.33
420.15	4159.13
420.34	4152.11
420.53	4166.15
420.72	4344.03
420.91	4461.06
421.10	4383.82
421.29	4470.42
421.48	4334.67
421.67	4491.49
421.86	4400.21
422.05	4465.74
422.24	4383.82
422.43	4589.79
422.61	4496.17
422.80	4519.57
422.99	4681.07
423.18	4507.87
423.37	4531.28
423.56	4578.09
423.75	4524.26
423.94	4540.64
424.13	4325.31
424.32	4493.83
424.50	4531.28
424.69	4699.80
424.88	4842.57
425.07	4542.98
425.26	4622.56
425.45	4671.71
425.64	4603.83
425.83	4610.86
426.01	4652.98
426.20	4702.14
426.39	4784.06
426.58	4517.23
426.77	4786.40
426.96	4725.54
427.15	4669.37
427.33	4610.86
427.52	4828.53
427.71	4772.35
427.90	4849.59
428.09	4957.25
428.28	4952.57
428.46	5025.13
428.65	4919.81
428.84	5090.67
429.03	5151.52
429.22	5011.09
429.40	5046.20
429.59	5139.82
429.78	4858.95
429.97	4863.63
430.16	4987.68
430.34	5193.65
430.53	5268.55
430.72	5256.84
430.91	5151.52
431.10	5291.95
431.28	5294.29
431.47	5451.11
431.66	5479.19
431.85	5303.65
432.03	5401.96
432.22	5516.64
432.41	5523.66
432.60	5575.16
432.79	5530.69
432.97	5631.33
433.16	5444.09
433.35	5500.26
433.54	5727.29
433.72	5706.23
433.91	5736.65
434.10	5715.59
434.28	5612.60
434.47	5671.12
434.66	5788.14
434.85	5944.96
435.03	5872.40
435.22	5713.25
435.41	5968.37
435.59	5991.77
435.78	5841.98
435.97	5856.02
436.16	6087.73
436.34	6010.50
436.53	5879.43
436.72	6083.05
436.90	6111.14
437.09	6272.64
437.28	6176.67
437.46	6127.52
437.65	6141.57
437.84	6286.68
438.02	6431.79
438.21	6307.74
438.40	6286.68
438.58	6396.68
438.77	6532.44
438.96	6579.25
439.14	6532.44
439.33	6602.65
439.52	6607.33
439.70	6530.09
439.89	6850.75
440.08	7035.65
440.26	6963.09
440.45	6822.66
440.63	7002.88
440.82	6892.88
441.01	7056.72
441.19	7096.50
441.38	7283.75
441.57	7164.38
441.75	7456.95
441.94	7435.88
442.12	7211.19
442.31	7531.84
442.50	7459.29
442.68	7445.24
442.87	7529.50
443.05	7616.10
443.24	7819.73
443.43	7698.02
443.61	7674.62
443.80	7943.78
443.98	7789.30
444.17	7494.40
444.35	7831.43
444.54	7992.93
444.73	7801.01
444.91	7824.41
445.10	7630.15
445.28	7985.91
445.47	7667.60
445.65	7754.19
445.84	7756.54
446.02	7742.49
446.21	7808.03
446.39	7803.35
446.58	8009.31
446.77	7880.58
446.95	7948.46
447.14	7735.47
447.32	7859.52
447.51	7857.18
447.69	7896.97
447.88	7868.88
448.06	7908.67
448.25	8013.99
448.43	8166.13
448.62	8049.10
448.80	8070.17
448.99	8149.75
449.17	8205.92
449.36	8077.19
449.54	8283.16
449.73	8241.03
449.91	8184.85
450.10	8559.34
450.28	8486.78
450.46	8315.92
450.65	8636.58
450.83	8444.65
451.02	8667.00
451.20	8652.96
451.39	8685.73
451.57	8638.92
451.76	8674.03
451.94	8606.15
452.13	8840.20
452.31	8704.45
452.49	8540.61
452.68	8730.20
452.86	8842.54
453.05	8870.63
453.23	8938.51
453.42	8723.18
453.60	8744.24
453.78	9074.26
453.97	8823.82
454.15	8807.44
454.34	8879.99
454.52	9057.87
454.70	9114.05
454.89	9092.98
455.07	9074.26
455.26	9303.63
455.44	9280.22
455.62	9362.14
455.81	9284.91
455.99	9310.65
456.17	9329.38
456.36	9383.21
456.54	9535.34
456.73	9942.60
456.91	9734.29
457.09	9809.19
457.28	9900.47
457.46	9820.89
457.64	9956.64
457.83	9701.52
458.01	9804.50
458.19	10071.33
458.38	9923.87
458.56	10068.98
458.74	9975.36
458.93	10115.80
459.11	10085.37
459.29	9928.55
459.48	10136.86
459.66	10068.98
459.84	10396.66
460.03	10452.83
460.21	10272.61
460.39	10354.53
460.57	10139.20
460.76	10684.55
460.94	10501.98
461.12	10532.41
461.31	10373.25
461.49	10551.14
461.67	10448.15
461.85	10752.42
462.04	10684.55
462.22	11192.44
462.40	11047.33
462.59	10864.77
462.77	10846.04
462.95	11056.69
463.13	10958.39
463.32	10942.00
463.50	11066.05
463.68	11049.67
463.86	10977.11
464.05	11002.86
464.23	10932.64
464.41	11047.33
464.59	10895.19
464.78	11358.62
464.96	11136.27
465.14	11066.05
465.32	11506.07
465.50	11454.58
465.69	11506.07
465.87	11517.78
466.05	11318.83
466.23	11459.26
466.41	11510.75
466.60	11819.71
466.78	11456.92
466.96	11674.59
467.14	11452.24
467.32	11648.85
467.51	11899.28
467.69	11351.60
467.87	11733.11
468.05	11756.51
468.23	11800.98
468.41	11812.68
468.60	11873.54
468.78	12381.43
468.96	11742.47
469.14	11985.88
469.32	12163.76
469.50	11889.92
469.69	12084.19
469.87	12542.93
470.05	12320.58
470.23	12601.44
470.41	12491.44
470.59	12388.46
470.77	12477.40
470.95	12594.42
471.14	12898.69
471.32	12624.85
471.50	12823.80
471.68	13053.17
471.86	13048.49
472.04	12950.18
472.22	13172.54
472.40	12879.97
472.58	13132.75
472.77	13507.23
472.95	13617.24
473.13	13575.11
473.31	13195.94
473.49	13259.13
473.67	13151.47
473.85	13888.74
474.03	13558.72
474.21	13680.43
474.39	13708.52
474.57	13853.63
474.75	13703.84
474.93	14319.40
475.12	14120.45
475.30	14333.44
475.48	14068.96
475.66	14295.99
475.84	14450.47
476.02	14686.86
476.20	14352.16
476.38	14773.46
476.56	15112.84
476.74	15033.26
476.92	15194.76
477.10	14993.47
477.28	15222.84
477.46	15323.49
477.64	15393.70
477.82	15634.78
478.00	15939.05
478.18	15894.58
478.36	16123.95
478.54	16119.27
478.72	16105.23
478.90	16519.50
479.08	16491.41
479.26	17132.72
479.44	16629.51
479.62	16793.34
479.80	17109.32
479.98	17102.29
480.16	17415.93
480.34	17397.20
480.52	17451.03
480.70	17935.53
480.88	17509.55
481.06	17860.63
481.24	17942.55
481.41	18169.58
481.59	18181.28
481.77	18160.22
481.95	18661.09
482.13	18792.16
482.31	19012.17
482.49	18759.39
482.67	18899.83
482.85	19494.32
483.03	19445.17
483.21	19697.95
483.39	20086.48
483.57	19786.89
483.74	20091.16
483.92	20233.93
484.10	20283.08
484.28	20402.45
484.46	20849.49
484.64	20978.22
484.82	20863.54
485.00	20968.86
485.18	21603.14
485.35	22026.78
485.53	21713.15
485.71	21713.15
485.89	22319.35
486.07	22174.24
486.25	22097.00
486.43	22581.49
486.61	22630.64
486.78	23435.78
486.96	23236.84
487.14	23346.84
487.32	23309.40
487.50	23800.91
487.68	23763.46
487.85	24084.11
488.03	24166.03
488.21	24416.47
488.39	24727.76
488.57	24779.25
488.75	25046.07
488.92	25209.91
489.10	25343.32
489.28	25418.22
489.46	25605.46
489.64	25617.16
489.81	26377.84
489.99	26628.27
490.17	26511.25
490.35	27012.12
490.53	26827.22
490.70	26955.95
490.88	26841.26
491.06	27623.00
491.24	27269.58
491.41	27623.00
491.59	27744.71
491.77	28070.04
491.95	28091.11
492.13	28009.19
492.30	28240.90
492.48	28929.02
492.66	28727.74
492.84	28760.50
493.01	29237.97
493.19	29546.92
493.37	29846.51
493.54	29560.97
493.72	30274.83
493.90	30118.01
494.08	30031.41
494.25	30815.49
494.43	30415.26
494.61	30955.93
494.79	31044.87
494.96	30654.00
495.14	31232.11
495.32	31325.73
495.49	31831.29
495.67	31402.97
495.85	32236.20
496.02	32636.43
496.20	32631.75
496.38	32116.83
496.55	32404.72
496.73	33151.35
496.91	32765.16
497.09	33476.68
497.26	33322.21
497.44	33518.81
497.62	33076.45
497.79	33832.44
497.97	33722.44
498.14	34202.25
498.32	34801.43
498.50	34473.75
498.67	35058.88
498.85	34831.85
499.03	34953.56
499.20	34892.71
499.38	35330.39
499.56	35096.33
499.73	35878.07
499.91	35934.24
500.08	35714.23
500.26	35557.42
500.44	36018.50
500.61	36041.91
500.79	36114.47
500.97	36369.58
501.14	36966.42
501.32	36650.45
501.49	36608.32
501.67	36582.57
501.84	37177.07
502.02	37041.32
502.20	37490.70
502.37	37720.07
502.55	37935.40
502.72	37942.42
502.90	37675.60
503.07	37912.00
503.25	38223.29
503.43	37699.01
503.60	38642.24
503.78	38227.97
503.95	38045.41
504.13	38897.36
504.30	38466.70
504.48	38923.11
504.65	38588.41
504.83	39054.18
505.01	39793.79
505.18	39452.07
505.36	39173.55
505.53	39662.72
505.71	39889.75
505.88	40322.75
506.06	39627.61
506.23	39969.33
506.41	40149.55
506.58	40484.25
506.76	39789.11
506.93	40231.47
507.11	40437.44
507.28	40561.48
507.46	40697.24
507.63	41010.87
507.81	41535.15
507.98	41130.23
508.16	41102.15
508.33	41647.49
508.50	41535.15
508.68	41694.30
508.85	41745.80
509.03	42040.70
509.20	41975.17
509.38	42536.90
509.55	42527.53
509.73	42700.73
509.90	42787.33
510.08	42920.74
510.25	42534.56
510.42	43360.76
510.60	43480.13
510.77	42951.17
510.95	43501.20
511.12	43243.74
511.30	43423.96
511.47	43594.82
511.64	43906.11
511.82	44079.31
511.99	43922.49
512.17	44294.64
512.34	43796.10
512.51	44737.00
512.69	44325.07
512.86	44484.22
513.04	45130.21
513.21	44767.43
513.38	45228.51
513.56	45151.27
513.73	45034.25
513.90	44949.99
514.08	45467.25
514.25	45514.06
514.43	45645.13
514.60	45497.67
514.77	45516.40
514.95	45834.71
515.12	45769.18
515.29	45815.99
515.47	46110.89
515.64	46473.68
515.81	46047.70
515.99	46403.46
516.16	46670.28
516.33	46747.52
516.51	47122.01
516.68	47058.81
516.85	46431.55
517.03	46969.87
517.20	47194.56
517.37	47587.77
517.54	47269.46
517.72	46927.74
517.89	47093.92
518.06	47264.78
518.24	47461.38
518.41	47423.93
518.58	47819.49
518.75	47962.26
518.93	47901.40
519.10	47522.24
519.27	48177.59
519.45	47323.29
519.62	48245.46
519.79	48608.25
519.96	48502.92
520.14	48493.56
520.31	48229.08
520.48	48643.35
520.65	48596.54
520.83	48507.60
521.00	48973.37
521.17	48758.04
521.34	49272.96
521.52	49062.31
521.69	49279.98
521.86	49542.12
522.03	49429.77
522.20	49401.69
522.38	49371.26
522.55	49698.94
522.72	49705.96
522.89	49984.48
523.07	50050.02
523.24	49825.32
523.41	50220.87
523.58	49963.42
523.75	50464.29
523.92	50094.49
524.10	50120.23
524.27	50422.16
524.44	50478.33
524.61	50806.01
524.78	50485.36
524.96	50681.96
525.13	50277.05
525.30	50588.34
525.47	50815.37
525.64	50724.09
525.81	51199.22
525.98	51129.00
526.16	51133.68
526.33	51019.00
526.50	51405.19
526.67	50761.54
526.84	51297.52
527.01	51384.12
527.18	51468.38
527.36	51372.42
527.53	51669.67
527.70	52172.88
527.87	51643.92
528.04	51480.08
528.21	51854.57
528.38	51714.14
528.55	52217.35
528.72	51917.76
528.89	51887.34
529.07	51917.76
529.24	51966.91
529.41	52402.25
529.58	52072.24
529.75	51987.98
529.92	52044.15
530.09	52364.81
530.26	52626.95
530.43	52212.67
530.60	52456.09
530.77	52247.78
530.94	52638.65
531.11	52486.51
531.28	52603.54
531.46	52556.73
531.63	52982.71
531.80	53024.84
531.97	53020.16
532.14	53045.90
532.31	52968.66
532.48	53191.01
532.65	53013.13
532.82	52933.56
532.99	53162.93
533.16	52844.62
533.33	53237.83
533.50	53235.48
533.67	53244.85
533.84	53546.78
534.01	53251.87
534.18	53333.79
534.35	53537.41
534.52	53551.46
534.69	53647.42
534.86	54096.80
535.03	53677.85
535.20	53663.80
535.37	54075.74
535.54	53876.79
535.71	53577.20
535.88	53764.45
536.05	53787.85
536.22	54464.27
536.38	54141.27
536.55	54155.32
536.72	54129.57
536.89	54361.28
537.06	54440.86
537.23	54438.52
537.40	54152.97
537.57	53902.54
537.74	54466.61
537.91	54777.90
538.08	54553.21
538.25	54588.31
538.42	54443.20
538.59	55007.27
538.75	54195.10
538.92	54522.78
539.09	54817.69
539.26	54981.52
539.43	54796.62
539.60	54866.84
539.77	54871.52
539.94	55018.97
540.11	55103.23
540.28	54855.14
540.44	54944.08
540.61	55105.57
540.78	55201.53
540.95	54904.29
541.12	55241.32
541.29	55243.66
541.46	55344.31
541.62	55016.63
541.79	55089.19
541.96	54824.71
542.13	55180.47
542.30	55356.01
542.47	55774.97
542.63	55437.93
542.80	55679.00
542.97	55789.01
543.14	56027.74
543.31	55725.81
543.48	55884.97
543.64	56041.79
543.81	56086.26
543.98	56200.94
544.15	56128.39
544.32	56339.04
544.48	56121.37
544.65	56341.38
544.82	56210.31
544.99	55849.86
545.16	56179.88
545.32	56170.52
545.49	56406.91
545.66	56472.45
545.83	56514.58
546.00	56385.85
546.16	56231.37
546.33	56142.43
546.50	55980.93
546.67	56299.25
546.83	56147.11
547.00	56371.80
547.17	56416.27
547.34	56727.56
547.50	56523.94
547.67	56968.64
547.84	56718.20
548.00	56530.96
548.17	56650.33
548.34	56860.97
548.51	57125.46
548.67	56903.10
548.84	56821.19
549.01	56860.97
549.18	56697.14
549.34	56914.81
549.51	56959.28
549.68	56968.64
549.84	56645.65
550.01	57116.09
550.18	56633.94
550.34	57111.41
550.51	56994.39
550.68	57460.15
550.84	56982.68
551.01	57181.63
551.18	57020.13
551.34	57048.22
551.51	57106.73
551.68	57249.50
551.84	57249.50
552.01	57062.26
552.18	57546.75
552.34	57366.53
552.51	57425.04
552.68	57251.84
552.84	57509.30
553.01	57506.96
553.18	57485.90
553.34	57525.69
553.51	57680.16
553.67	57844.00
553.84	57811.23
554.01	57717.61
554.17	57762.08
554.34	57762.08
554.51	57797.19
554.67	57911.88
554.84	58075.71
555.00	57705.91
555.17	57640.37
555.33	57682.50
555.50	57755.06
555.67	57865.06
555.83	57907.19
556.00	58007.84
556.16	57895.49
556.33	57979.75
556.50	58040.60
556.66	58148.27
556.83	57968.05
556.99	58150.61
557.16	58064.01
557.32	58003.16
557.49	58368.28
557.65	57951.66
557.82	58035.92
557.98	58113.16
558.15	58064.01
558.32	58129.54
558.48	58122.52
558.65	58314.45
558.81	58166.99
558.98	58286.36
559.14	58515.73
559.31	58110.82
559.47	58326.15
559.64	58188.06
559.80	58571.91
559.97	58433.81
560.13	58230.19
560.30	58410.41
560.46	58387.00
560.63	58080.39
560.79	58375.30
560.96	58497.01
561.12	58447.86
561.29	58485.31
561.45	58405.73
561.61	58534.46
561.78	58857.45
561.94	58791.92
562.11	58590.63
562.27	58616.38
562.44	58419.77
562.60	58738.08
562.77	58639.78
562.93	58571.91
563.10	58986.18
563.26	58604.67
563.42	58852.77
563.59	58602.33
563.75	58731.06
563.92	58932.35
564.08	58567.23
564.24	58859.79
564.41	58560.20
564.57	58866.81
564.74	58812.98
564.90	58939.37
565.07	59011.93
565.23	58976.82
565.39	58857.45
565.56	58829.37
565.72	58588.29
565.88	58988.52
566.05	58651.48
566.21	58890.22
566.38	58901.92
566.54	58918.31
566.70	59238.96
566.87	59206.19
567.03	58969.80
567.19	59238.96
567.36	58915.96
567.52	58733.40
567.68	59056.40
567.85	58660.85
568.01	58969.80
568.17	58925.33
568.34	59065.76
568.50	59203.85
568.66	59119.59
568.83	59297.47
568.99	58937.03
569.15	59161.72
569.32	59023.63
569.48	58953.41
569.64	59260.02
569.81	59147.68
569.97	59061.08
570.13	59295.13
570.30	59245.98
570.46	59150.02
570.62	59159.38
570.78	59426.20
570.95	59140.66
571.11	59192.15
571.27	59107.89
571.43	59220.23
571.60	59407.48
571.76	59496.42
571.92	59583.02
572.09	59458.97
572.25	59299.81
572.41	59208.53
572.57	59154.70
572.74	59374.71
572.90	59325.56
573.06	59217.89
573.22	59236.62
573.38	59325.56
573.55	59398.12
573.71	59571.32
573.87	59681.32
574.03	59178.10
574.20	59220.23
574.36	59173.42
574.52	59297.47
574.68	59355.99
574.84	59316.20
575.01	59573.66
575.17	59379.39
575.33	59519.82
575.49	59604.08
575.65	59646.21
575.82	59566.63
575.98	59128.95
576.14	59760.90
576.30	59526.84
576.46	59391.09
576.62	59379.39
576.79	59409.82
576.95	59269.39
577.11	59477.69
577.27	59526.84
577.43	59615.79
577.59	59611.10
577.75	59475.35
577.92	59271.73
578.08	59388.75
578.24	59372.37
578.40	59341.94
578.56	59442.59
578.72	59442.59
578.88	59714.09
579.04	59833.46
579.21	59730.47
579.37	59723.45
579.53	59426.20
579.69	59363.01
579.85	59561.95
580.01	59756.22
580.17	59320.88
580.33	59573.66
580.49	59849.84
580.65	59749.20
580.82	59763.24
580.98	59568.97
581.14	59695.36
581.30	59629.83
581.46	59529.19
581.62	59578.34
581.78	59554.93
581.94	59742.17
582.10	59538.55
582.26	59763.24
582.42	59622.81
582.58	59812.39
582.74	59873.24
582.90	59849.84
583.06	59889.63
583.22	59786.64
583.38	59877.93
583.54	59704.73
583.70	59721.11
583.86	59660.26
584.02	59671.96
584.18	59819.41
584.34	59831.11
584.50	59788.98
584.66	59718.77
584.82	59643.87
584.98	59547.91
585.14	59716.43
585.30	59760.90
585.46	59746.86
585.62	59578.34
585.78	59686.00
585.94	59489.40
586.10	59622.81
586.26	59957.50
586.42	59898.99
586.58	60107.30
586.74	59737.49
586.90	59613.44
587.06	59730.47
587.22	59700.04
587.38	59615.79
587.54	59805.37
587.70	59943.46
587.86	59845.16
588.02	60102.62
588.18	59976.23
588.34	59796.01
588.49	59903.67
588.65	59744.51
588.81	59709.41
588.97	59810.05
589.13	59772.60
589.29	59810.05
