SpectraSuite Data File
++++++++++++++++++++++++++++++++++++
Date: Fri Oct 04 11:48:24 GMT-05:00 2013
User: price-jones
Dark Spectrum Present: No
Reference Spectrum Present: No
Number of Sampled Component Spectra: 1
Spectrometers: USB2+H05261
Integration Time (usec): 100000 (USB2+H05261)
Spectra Averaged: 1 (USB2+H05261)
Boxcar Smoothing: 0 (USB2+H05261)
Correct for Electrical Dark: No (USB2+H05261)
Strobe/Lamp Enabled: No (USB2+H05261)
Correct for Detector Non-linearity: No (USB2+H05261)
Correct for Stray Light: No (USB2+H05261)
Number of Pixels in Processed Spectrum: 2048
>>>>>Begin Processed Spectral Data<<<<<
365.73	0.00
365.92	0.00
366.12	0.00
366.32	0.00
366.52	0.00
366.72	0.00
366.91	0.00
367.11	0.00
367.31	0.00
367.51	0.00
367.70	0.00
367.90	11.70
368.10	0.00
368.30	0.00
368.49	0.00
368.69	0.00
368.89	0.00
369.09	0.00
369.28	0.00
369.48	0.00
369.68	0.00
369.87	0.00
370.07	0.00
370.27	0.00
370.47	102.98
370.66	400.23
370.86	430.66
371.06	564.07
371.25	575.77
371.45	514.92
371.65	526.62
371.84	503.22
372.04	486.83
372.24	498.53
372.44	554.71
372.63	557.05
372.83	603.86
373.03	531.30
373.22	631.94
373.42	617.90
373.62	688.12
373.81	638.97
374.01	690.46
374.21	634.29
374.40	610.88
374.60	765.36
374.79	763.01
374.99	699.82
375.19	739.61
375.38	681.10
375.58	779.40
375.78	704.50
375.97	758.33
376.17	814.51
376.37	711.52
376.56	777.06
376.76	664.71
376.95	868.34
377.15	753.65
377.35	720.88
377.54	807.48
377.74	685.78
377.93	748.97
378.13	814.51
378.33	833.23
378.52	786.42
378.72	702.16
378.91	903.45
379.11	772.38
379.31	887.06
379.50	819.19
379.70	894.08
379.89	887.06
380.09	849.61
380.28	863.66
380.48	830.89
380.68	854.30
380.87	870.68
381.07	971.32
381.26	851.96
381.46	835.57
381.65	971.32
381.85	950.26
382.04	924.51
382.24	968.98
382.43	875.36
382.63	1006.43
382.83	1029.84
383.02	1020.47
383.22	1069.62
383.41	973.66
383.61	1088.35
383.80	1004.09
384.00	1020.47
384.19	1022.81
384.39	1060.26
384.58	1071.97
384.78	1022.81
384.97	1149.20
385.17	1034.52
385.36	1132.82
385.56	1081.33
385.75	980.68
385.95	1011.11
386.14	1130.48
386.34	1151.54
386.53	1116.44
386.72	1095.37
386.92	1256.87
387.11	1172.61
387.31	1174.95
387.50	1128.14
387.70	1165.59
387.89	1163.25
388.09	1149.20
388.28	1200.69
388.48	1172.61
388.67	1259.21
388.86	1146.86
389.06	1231.12
389.25	1270.91
389.45	1284.95
389.64	1181.97
389.84	1259.21
390.03	1341.13
390.22	1299.00
390.42	1231.12
390.61	1214.74
390.81	1343.47
391.00	1338.79
391.19	1465.18
391.39	1369.21
391.58	1364.53
391.78	1350.49
391.97	1387.94
392.16	1458.15
392.36	1497.94
392.55	1495.60
392.75	1420.71
392.94	1554.12
393.13	1476.88
393.33	1511.99
393.52	1547.09
393.71	1570.50
393.91	1528.37
394.10	1598.59
394.29	1453.47
394.49	1568.16
394.68	1568.16
394.88	1629.01
395.07	1617.31
395.26	1689.87
395.46	1746.04
395.65	1678.16
395.84	1678.16
396.04	1743.70
396.23	1757.74
396.42	1767.10
396.62	1701.57
396.81	1701.57
397.00	1802.21
397.19	1715.61
397.39	1724.97
397.58	1804.55
397.77	1776.47
397.97	1827.96
398.16	1853.70
398.35	1870.09
398.55	1809.23
398.74	1795.19
398.93	1839.66
399.12	1984.77
399.32	1975.41
399.51	1900.52
399.70	2008.18
399.90	1949.67
400.09	1921.58
400.28	2031.58
400.47	2099.46
400.67	1952.01
400.86	2080.74
401.05	2005.84
401.24	2132.23
401.44	2040.95
401.63	2204.78
401.82	2127.55
402.01	2134.57
402.21	2239.89
402.40	2174.36
402.59	2080.74
402.78	2223.51
402.97	2214.15
403.17	2279.68
403.36	2216.49
403.55	2270.32
403.74	2452.88
403.93	2396.71
404.13	2340.54
404.32	2352.24
404.51	2427.14
404.70	2443.52
404.89	2471.61
405.09	2487.99
405.28	2385.01
405.47	2370.96
405.66	2583.95
405.85	2593.31
406.05	2525.44
406.24	2647.15
406.43	2619.06
406.62	2640.12
406.81	2832.05
407.00	2661.19
407.20	2574.59
407.39	2768.85
407.58	2752.47
407.77	2766.51
407.96	2789.92
408.15	2836.73
408.34	2729.06
408.54	2799.28
408.73	2883.54
408.92	2857.79
409.11	2867.16
409.30	3002.91
409.49	2956.10
409.68	2918.65
409.87	2965.46
410.07	3021.63
410.26	3030.99
410.45	3082.49
410.64	3110.57
410.83	3033.33
411.02	3047.38
411.21	3251.00
411.40	3227.60
411.59	3171.43
411.78	3361.01
411.98	3234.62
412.17	3419.52
412.36	3339.94
412.55	3435.91
412.74	3492.08
412.93	3356.33
413.12	3515.48
413.31	3602.08
413.50	3496.76
413.69	3763.58
413.88	3744.86
414.07	3658.26
414.26	3714.43
414.45	3786.99
414.64	3770.60
414.83	3875.93
415.02	3878.27
415.22	3946.14
415.41	4042.11
415.60	3974.23
415.79	4007.00
415.98	4112.32
416.17	4175.52
416.36	4081.89
416.55	4173.18
416.74	4140.41
416.93	4147.43
417.12	4138.07
417.31	4332.33
417.50	4360.42
417.69	4489.15
417.88	4411.91
418.07	4519.57
418.26	4292.54
418.45	4631.92
418.64	4585.11
418.83	4554.68
419.02	4608.51
419.21	4596.81
419.39	4699.80
419.58	4564.04
419.77	4629.58
419.96	4650.64
420.15	4800.44
420.34	4702.14
420.53	4685.75
420.72	4943.21
420.91	4908.10
421.10	4964.28
421.29	5025.13
421.48	4774.69
421.67	4924.49
421.86	4905.76
422.05	5006.41
422.24	4936.19
422.43	5053.22
422.61	5032.15
422.80	5135.14
422.99	5041.51
423.18	5254.50
423.37	5111.73
423.56	5170.24
423.75	5050.88
423.94	5109.39
424.13	4748.95
424.32	4833.21
424.50	5191.31
424.69	5104.71
424.88	5308.34
425.07	5205.35
425.26	5039.17
425.45	5055.56
425.64	5104.71
425.83	5109.39
426.01	5242.80
426.20	5130.45
426.39	5275.57
426.58	5226.42
426.77	5221.74
426.96	5121.09
427.15	5212.37
427.33	5362.17
427.52	5427.70
427.71	5261.52
427.90	5355.15
428.09	5465.15
428.28	5666.44
428.46	5481.53
428.65	5544.73
428.84	5617.29
429.03	5741.33
429.22	5495.58
429.40	5636.01
429.59	5633.67
429.78	5584.52
429.97	5383.23
430.16	5596.22
430.34	5802.19
430.53	5959.00
430.72	5895.81
430.91	5820.91
431.10	5624.31
431.28	5834.96
431.47	5968.37
431.66	6157.95
431.85	6031.56
432.03	6094.76
432.22	6188.38
432.41	5895.81
432.60	6326.47
432.79	6317.11
432.97	6312.42
433.16	6146.25
433.35	6277.32
433.54	6473.92
433.72	6401.37
433.91	6328.81
434.10	6272.64
434.28	6499.67
434.47	6473.92
434.66	6520.73
434.85	6499.67
435.03	6471.58
435.22	6469.24
435.41	6754.79
435.59	6569.88
435.78	6621.38
435.97	6691.59
436.16	6677.55
436.34	6691.59
436.53	6686.91
436.72	6909.26
436.90	6846.07
437.09	6930.33
437.28	6778.19
437.46	6920.96
437.65	7021.61
437.84	6888.20
438.02	6853.09
438.21	7126.93
438.40	7194.81
438.58	7410.14
438.77	7164.38
438.96	7236.94
439.14	7393.75
439.33	7435.88
439.52	7489.71
439.70	7630.15
439.89	7428.86
440.08	7496.74
440.26	7620.78
440.45	7798.66
440.63	7709.72
440.82	7857.18
441.01	7913.35
441.19	8086.55
441.38	8060.80
441.57	8030.38
441.75	8037.40
441.94	8161.45
442.12	8521.89
442.31	8491.46
442.50	8425.93
442.68	8280.82
442.87	8238.69
443.05	8446.99
443.24	8470.40
443.43	8428.27
443.61	8730.20
443.80	8777.01
443.98	8411.89
444.17	8397.84
444.35	8601.47
444.54	8847.22
444.73	8659.98
444.91	8842.54
445.10	8690.41
445.28	8664.66
445.47	8718.50
445.65	8786.37
445.84	8828.50
446.02	9001.70
446.21	8652.96
446.39	8683.39
446.58	8954.89
446.77	8830.84
446.95	8835.52
447.14	8924.46
447.32	8891.70
447.51	9025.11
447.69	8779.35
447.88	8910.42
448.06	8711.47
448.25	8718.50
448.43	9055.53
448.62	8863.61
448.80	8858.93
448.99	8975.95
449.17	9202.99
449.36	9149.15
449.54	9415.98
449.73	9366.82
449.91	9511.94
450.10	9315.33
450.28	9500.23
450.46	9460.45
450.65	9640.67
450.83	9448.74
451.02	9385.55
451.20	9614.92
451.39	9764.72
451.57	9504.92
451.76	9483.85
451.94	9687.48
452.13	9940.26
452.31	9741.31
452.49	9685.14
452.68	9790.46
452.86	10115.80
453.05	9792.80
453.23	9942.60
453.42	9923.87
453.60	9790.46
453.78	9961.32
453.97	9778.76
454.15	9879.40
454.34	10054.94
454.52	10239.84
454.70	10153.24
454.89	10204.74
455.07	10218.78
455.26	10518.37
455.44	10331.12
455.62	10232.82
455.81	10380.28
455.99	10443.47
456.17	10377.94
456.36	10644.76
456.54	10602.63
456.73	10747.74
456.91	10862.43
457.09	11007.54
457.28	11190.10
457.46	10670.50
457.64	11154.99
457.83	10998.18
458.01	11105.84
458.19	11208.83
458.38	11185.42
458.56	11372.66
458.74	11318.83
458.93	11222.87
459.11	11360.96
459.29	11234.57
459.48	11215.85
459.66	11459.26
459.84	11325.85
460.03	11632.46
460.21	11618.42
460.39	11779.92
460.57	11580.97
460.76	11459.26
460.94	11868.86
461.12	11712.04
461.31	11812.68
461.49	11929.71
461.67	11796.30
461.85	12222.28
462.04	11868.86
462.22	12461.01
462.40	12264.41
462.59	12217.60
462.77	11962.48
462.95	12503.14
463.13	12138.02
463.32	12276.11
463.50	12453.99
463.68	12248.02
463.86	12212.92
464.05	12374.41
464.23	12383.77
464.41	12566.34
464.59	12479.74
464.78	12671.66
464.96	12711.45
465.14	12266.75
465.32	13006.36
465.50	12676.34
465.69	12877.63
465.87	12791.03
466.05	12919.76
466.23	12828.48
466.41	12840.18
466.60	13111.68
466.78	12844.86
466.96	12772.30
467.14	13039.12
467.32	12999.34
467.51	13350.42
467.69	12875.29
467.87	13011.04
468.05	13284.88
468.23	13060.19
468.41	13123.38
468.60	13214.66
468.78	13530.64
468.96	13209.98
469.14	13437.02
469.32	13540.00
469.50	13177.22
469.69	13769.37
469.87	13982.36
470.05	13781.07
470.23	14050.24
470.41	14066.62
470.59	14263.22
470.77	13853.63
470.95	14118.11
471.14	14448.13
471.32	13734.26
471.50	14391.95
471.68	14342.80
471.86	14537.07
472.04	14370.89
472.22	14588.56
472.40	14513.66
472.58	14724.31
472.77	14796.87
472.95	14895.17
473.13	15276.68
473.31	14738.35
473.49	14822.61
473.67	15094.11
473.85	15257.95
474.03	15592.65
474.21	15363.28
474.39	15461.58
474.57	15562.22
474.75	15721.38
474.93	15934.37
475.12	15728.40
475.30	16217.57
475.48	16032.67
475.66	16135.65
475.84	16086.50
476.02	16130.97
476.20	16166.08
476.38	16681.00
476.56	16650.57
476.74	16947.82
476.92	16755.90
477.10	17043.78
477.28	17043.78
477.46	17125.70
477.64	17420.61
477.82	17605.51
478.00	18115.75
478.18	17811.48
478.36	18232.77
478.54	17790.41
478.72	18221.07
478.90	18618.96
479.08	18263.20
479.26	18452.78
479.44	19035.58
479.62	19190.05
479.80	19129.20
479.98	19131.54
480.16	19484.96
480.34	19597.31
480.52	19768.16
480.70	19852.42
480.88	19487.30
481.06	20168.40
481.24	19983.49
481.41	20210.53
481.59	20772.25
481.77	20989.92
481.95	20697.36
482.13	21008.65
482.31	21015.67
482.49	21352.71
482.67	21202.91
482.85	22164.87
483.03	22162.53
483.21	22223.39
483.39	22141.47
483.57	22197.64
483.74	22298.28
483.92	22576.81
484.10	22539.36
484.28	22677.45
484.46	23360.89
484.64	23740.05
484.82	23417.06
485.00	23517.70
485.18	23953.04
485.35	24592.01
485.53	24350.93
485.71	24776.91
485.89	24982.88
486.07	25008.62
486.25	25092.88
486.43	25020.33
486.61	25125.65
486.78	25900.37
486.96	25818.45
487.14	26286.56
487.32	25916.75
487.50	26309.96
487.68	26293.58
487.85	27047.23
488.03	27318.73
488.21	27637.05
488.39	27332.78
488.57	27784.50
488.75	27950.68
488.92	28638.80
489.10	28451.55
489.28	28629.43
489.46	28961.79
489.64	28545.17
489.81	29357.34
489.99	29472.03
490.17	29638.20
490.35	29975.24
490.53	29752.89
490.70	30167.16
490.88	30155.46
491.06	30911.46
491.24	30895.07
491.41	30637.61
491.59	30782.73
491.77	31426.37
491.95	31751.71
492.13	31735.32
492.30	31573.83
492.48	31821.92
492.66	32535.79
492.84	32477.27
493.01	32673.88
493.19	32655.15
493.37	33060.07
493.54	33202.84
493.72	33366.68
493.90	33511.79
494.08	33619.46
494.25	33902.66
494.43	34419.92
494.61	34160.12
494.79	34810.79
494.96	34899.73
495.14	34831.85
495.32	35222.72
495.49	35058.88
495.67	35503.59
495.85	36149.57
496.02	35906.16
496.20	36067.66
496.38	36538.10
496.55	36727.69
496.73	37046.00
496.91	36753.43
497.09	36968.76
497.26	37518.79
497.44	37338.57
497.62	37577.30
497.79	37771.57
497.97	38054.77
498.14	38319.25
498.32	38838.85
498.50	38735.87
498.67	39072.90
498.85	38939.49
499.03	39349.09
499.20	39220.36
499.38	39573.78
499.56	39833.58
499.73	40023.16
499.91	39903.79
500.08	39955.29
500.26	39756.34
500.44	40151.89
500.61	40339.13
500.79	39974.01
500.97	40821.28
501.14	41081.08
501.32	40865.75
501.49	41443.87
501.67	41081.08
501.84	41530.47
502.02	41343.22
502.20	41727.07
502.37	41631.11
502.55	41588.98
502.72	42204.54
502.90	42447.96
503.07	42010.28
503.25	42368.38
503.43	42129.64
503.60	42670.31
503.78	43054.15
503.95	42813.08
504.13	43063.52
504.30	43208.63
504.48	43147.78
504.65	43529.28
504.83	43894.41
505.01	44116.76
505.18	43856.96
505.36	44053.56
505.53	44355.49
505.71	44210.38
505.88	44327.41
506.06	44142.50
506.23	44863.39
506.41	44664.44
506.58	44940.63
506.76	44926.58
506.93	45050.63
507.11	44992.12
507.28	45315.11
507.46	45132.55
507.63	45422.78
507.81	46050.04
507.98	45879.18
508.16	45776.20
508.33	46036.00
508.50	46232.60
508.68	46438.57
508.85	46316.86
509.03	46515.81
509.20	46777.95
509.38	47320.95
509.55	47075.19
509.73	46939.44
509.90	47217.97
510.08	47232.01
510.25	47386.49
510.42	47164.14
510.60	47608.84
510.77	47866.30
510.95	47915.45
511.12	47606.50
511.30	47798.42
511.47	48580.16
511.64	48463.13
511.82	48545.05
511.99	48636.33
512.17	48992.09
512.34	48671.44
512.51	48816.55
512.69	49162.95
512.86	49427.43
513.04	49371.26
513.21	49413.39
513.38	49710.64
513.56	49841.71
513.73	49340.83
513.90	49492.97
514.08	49462.54
514.25	50227.90
514.43	49932.99
514.60	50141.30
514.77	50288.75
514.95	50298.11
515.12	49925.97
515.29	50183.43
515.47	50134.28
515.64	50717.07
515.81	50497.06
515.99	50796.65
516.16	51229.65
516.33	51096.24
516.51	51082.19
516.68	50726.43
516.85	50838.78
517.03	51107.94
517.20	51454.34
517.37	51744.56
517.54	51339.65
517.72	51744.56
517.89	51414.55
518.06	51480.08
518.24	51473.06
518.41	51636.90
518.58	51739.88
518.75	51966.91
518.93	52140.11
519.10	51798.40
519.27	52444.38
519.45	51964.57
519.62	52308.63
519.79	52350.76
519.96	52397.57
520.14	52692.48
520.31	52362.46
520.48	52959.30
520.65	52533.32
520.83	52994.41
521.00	52720.57
521.17	52671.42
521.34	53034.20
521.52	53179.31
521.69	53249.53
521.86	53406.34
522.03	53408.68
522.20	53666.14
522.38	53453.15
522.55	53282.30
522.72	53425.07
522.89	53532.73
523.07	53825.30
523.24	53567.84
523.41	53874.45
523.58	53771.47
523.75	53694.23
523.92	53848.71
524.10	54134.25
524.27	54007.86
524.44	54167.02
524.61	54660.87
524.78	54401.07
524.96	54384.69
525.13	54335.54
525.30	54262.98
525.47	54440.86
525.64	54611.72
525.81	54897.27
525.98	54864.50
526.16	54681.94
526.33	54820.03
526.50	55058.76
526.67	54780.24
526.84	54892.58
527.01	55065.78
527.18	55248.35
527.36	55398.14
527.53	55168.77
527.70	55470.70
527.87	55480.06
528.04	55189.83
528.21	55475.38
528.38	55299.84
528.55	55571.34
528.72	55491.76
528.89	55435.59
529.07	55384.10
529.24	55571.34
529.41	55835.82
529.58	55791.35
529.75	55793.69
529.92	55622.83
530.09	55676.66
530.26	55758.58
530.43	55957.53
530.60	55994.98
530.77	56189.24
530.94	56044.13
531.11	55899.01
531.28	56095.62
531.46	56097.96
531.63	56254.78
531.80	56282.86
531.97	56493.51
532.14	56430.32
532.31	56481.81
532.48	56165.84
532.65	56465.42
532.82	56123.71
532.99	56535.64
533.16	56615.22
533.33	56797.78
533.50	56956.94
533.67	56896.08
533.84	56868.00
534.01	56481.81
534.18	56514.58
534.35	56884.38
534.52	56528.62
534.69	57240.14
534.86	57132.48
535.03	57066.94
535.20	57139.50
535.37	57223.76
535.54	57052.90
535.71	56940.55
535.88	57052.90
536.05	57230.78
536.22	57537.39
536.38	57551.43
536.55	57394.62
536.72	57546.75
536.89	57387.60
537.06	57256.53
537.23	57392.28
537.40	57584.20
537.57	57626.33
537.74	57439.09
537.91	57698.89
538.08	57813.57
538.25	57584.20
538.42	57645.05
538.59	57579.52
538.75	57785.49
538.92	57628.67
539.09	57853.36
539.26	57937.62
539.43	57946.98
539.60	57935.28
539.77	58141.25
539.94	58064.01
540.11	58071.03
540.28	58181.04
540.44	58028.90
540.61	58358.92
540.78	58330.83
540.95	58293.38
541.12	58363.60
541.29	58389.34
541.46	58284.02
541.62	58431.47
541.79	58269.98
541.96	58031.24
542.13	58103.80
542.30	58433.81
542.47	58504.03
542.63	58602.33
542.80	58602.33
542.97	59135.98
543.14	58852.77
543.31	58880.86
543.48	58930.01
543.64	59054.06
543.81	59061.08
543.98	59147.68
544.15	59103.21
544.32	59058.74
544.48	59271.73
544.65	59049.38
544.82	59227.26
544.99	59054.06
545.16	59306.83
545.32	59028.31
545.49	59547.91
545.66	59386.41
545.83	59568.97
546.00	59480.03
546.16	59437.90
546.33	59121.93
546.50	59138.32
546.67	59297.47
546.83	59196.83
547.00	59405.14
547.17	59257.68
547.34	59522.16
547.50	59931.76
547.67	59774.94
547.84	59700.04
548.00	59758.56
548.17	59774.94
548.34	59716.43
548.51	60062.83
548.67	60067.51
548.84	59969.21
549.01	59674.30
549.18	59702.38
549.34	59697.70
549.51	59950.48
549.68	59812.39
549.84	59910.69
550.01	60090.91
550.18	59927.08
550.34	60107.30
550.51	60135.38
550.68	60200.92
550.84	59978.57
551.01	60016.02
551.18	60023.04
551.34	60020.70
551.51	59976.23
551.68	60102.62
551.84	60301.56
552.01	60189.22
552.18	60221.98
552.34	60111.98
552.51	60334.33
552.68	60294.54
552.84	60184.54
553.01	60439.65
553.18	60343.69
553.34	60554.34
553.51	60334.33
553.67	60640.94
553.84	60818.82
554.01	60706.47
554.17	60559.02
554.34	60732.22
554.51	60612.85
554.67	60781.37
554.84	60800.10
555.00	60725.20
555.17	60729.88
555.33	60783.71
555.50	60795.42
555.67	60853.93
555.83	60753.29
556.00	60619.88
556.16	61066.92
556.33	60910.10
556.50	60727.54
556.66	60994.36
556.83	60750.94
556.99	61137.13
557.16	61233.10
557.32	61104.37
557.49	61118.41
557.65	60832.86
557.82	61043.51
557.98	61076.28
558.15	61233.10
558.32	61073.94
558.48	61116.07
558.65	61205.01
558.81	61226.07
558.98	61109.05
559.14	61357.14
559.31	60882.02
559.47	61235.44
559.64	61130.11
559.80	61258.84
559.97	61324.38
560.13	61315.01
560.30	61090.32
560.46	61354.80
560.63	61394.59
560.79	61523.32
560.96	61506.94
561.12	61146.50
561.29	61205.01
561.45	61240.12
561.61	61478.85
561.78	61609.92
561.94	61581.84
562.11	61499.92
562.27	61666.09
562.44	61403.95
562.60	61609.92
562.77	61378.21
562.93	61635.67
563.10	61764.40
563.26	61572.47
563.42	61755.03
563.59	61745.67
563.75	61656.73
563.92	61956.32
564.08	61460.13
564.24	61851.00
564.41	61635.67
564.57	61457.79
564.74	61630.99
564.90	61619.28
565.07	61745.67
565.23	61794.82
565.39	62061.64
565.56	61815.89
565.72	61626.31
565.88	61740.99
566.05	61785.46
566.21	61680.14
566.38	61794.82
566.54	61792.48
566.70	62010.15
566.87	62113.14
567.03	61923.55
567.19	62141.22
567.36	61916.53
567.52	61684.82
567.68	62063.99
567.85	61783.12
568.01	61886.10
568.17	61914.19
568.34	61897.81
568.50	62080.37
568.66	62181.01
568.83	62061.64
568.99	61900.15
569.15	61942.28
569.32	61958.66
569.48	61925.89
569.64	62143.56
569.81	62045.26
569.97	62003.13
570.13	62082.71
570.30	61916.53
570.46	62181.01
570.62	62106.12
570.78	61991.43
570.95	61883.76
571.11	61895.47
571.27	61865.04
571.43	62150.59
571.60	62063.99
571.76	62169.31
571.92	62248.89
572.09	62089.73
572.25	62145.90
572.41	62237.19
572.57	62019.52
572.74	62176.33
572.90	62148.24
573.06	62049.94
573.22	62127.18
573.38	62302.72
573.55	62101.43
573.71	62663.16
573.87	62223.14
574.03	62017.17
574.20	62188.03
574.36	62092.07
574.52	62136.54
574.68	62244.21
574.84	62319.10
575.01	62202.08
575.17	62302.72
575.33	62312.08
575.49	62176.33
575.65	62401.02
575.82	62433.79
575.98	62255.91
576.14	62307.40
576.30	62321.44
576.46	62244.21
576.62	62260.59
576.79	62293.36
576.95	62197.40
577.11	62185.69
577.27	62284.00
577.43	62386.98
577.59	62447.83
577.75	62232.50
577.92	62314.42
578.08	62220.80
578.24	62148.24
578.40	62342.51
578.56	62424.43
578.72	62438.47
578.88	62595.29
579.04	62588.27
579.21	62246.55
579.37	62330.81
579.53	62707.63
579.69	62337.83
579.85	62391.66
580.01	62326.13
580.17	62305.06
580.33	62234.84
580.49	62504.01
580.65	62536.77
580.82	62518.05
580.98	62265.27
581.14	62529.75
581.30	62597.63
581.46	62494.64
581.62	62171.65
581.78	62276.97
581.94	62581.24
582.10	62398.68
582.26	62536.77
582.42	62581.24
582.58	62567.20
582.74	62475.92
582.90	62499.33
583.06	62508.69
583.22	62323.78
583.38	62527.41
583.54	62588.27
583.70	62368.26
583.86	62642.10
584.02	62433.79
584.18	62379.96
584.34	62597.63
584.50	62705.29
584.66	62401.02
584.82	62518.05
584.98	62642.10
585.14	62501.67
585.30	62354.21
585.46	62576.56
585.62	62494.64
585.78	62574.22
585.94	62377.62
586.10	62475.92
586.26	62614.01
586.42	62780.19
586.58	62646.78
586.74	62597.63
586.90	62429.11
587.06	62454.86
587.22	62695.93
587.38	62564.86
587.54	62733.38
587.70	62848.06
587.86	62585.92
588.02	62733.38
588.18	62836.36
588.34	62759.12
588.49	62590.61
588.65	62536.77
588.81	62827.00
