SpectraSuite Data File
++++++++++++++++++++++++++++++++++++
Date: Fri Oct 04 11:48:46 GMT-05:00 2013
User: price-jones
Dark Spectrum Present: No
Reference Spectrum Present: No
Number of Sampled Component Spectra: 1
Spectrometers: USB2+H05261
Integration Time (usec): 100000 (USB2+H05261)
Spectra Averaged: 1 (USB2+H05261)
Boxcar Smoothing: 0 (USB2+H05261)
Correct for Electrical Dark: No (USB2+H05261)
Strobe/Lamp Enabled: No (USB2+H05261)
Correct for Detector Non-linearity: No (USB2+H05261)
Correct for Stray Light: No (USB2+H05261)
Number of Pixels in Processed Spectrum: 2048
>>>>>Begin Processed Spectral Data<<<<<
365.73	0.00
365.92	0.00
366.12	0.00
366.32	0.00
366.52	0.00
366.72	0.00
366.91	0.00
367.11	0.00
367.31	0.00
367.51	0.00
367.70	0.00
367.90	0.00
368.10	0.00
368.30	0.00
368.49	0.00
368.69	0.00
368.89	0.00
369.09	0.00
369.28	0.00
369.48	0.00
369.68	0.00
369.87	51.49
370.07	0.00
370.27	42.13
370.47	107.66
370.66	428.32
370.86	449.38
371.06	470.45
371.25	547.69
371.45	484.49
371.65	585.13
371.84	425.98
372.04	526.62
372.24	528.96
372.44	524.28
372.63	545.34
372.83	575.77
373.03	554.71
373.22	479.81
373.42	592.16
373.62	592.16
373.81	641.31
374.01	638.97
374.21	622.58
374.40	622.58
374.60	610.88
374.79	662.37
374.99	711.52
375.19	559.39
375.38	608.54
375.58	674.07
375.78	629.60
375.97	669.39
376.17	741.95
376.37	636.63
376.56	739.61
376.76	671.73
376.95	617.90
377.15	697.48
377.35	669.39
377.54	704.50
377.74	706.84
377.93	657.69
378.13	723.23
378.33	683.44
378.52	816.85
378.72	739.61
378.91	716.20
379.11	734.93
379.31	723.23
379.50	648.33
379.70	802.80
379.89	704.50
380.09	704.50
380.28	720.88
380.48	889.40
380.68	713.86
380.87	809.83
381.07	858.98
381.26	821.53
381.46	819.19
381.65	823.87
381.85	828.55
382.04	788.76
382.24	898.77
382.43	884.72
382.63	826.21
382.83	912.81
383.02	854.30
383.22	952.60
383.41	894.08
383.61	858.98
383.80	917.49
384.00	910.47
384.19	915.15
384.39	966.64
384.58	952.60
384.78	894.08
384.97	924.51
385.17	919.83
385.36	929.19
385.56	919.83
385.75	1064.94
385.95	940.90
386.14	957.28
386.34	940.90
386.53	997.07
386.72	1001.75
386.92	931.53
387.11	973.66
387.31	1043.88
387.50	1090.69
387.70	1001.75
387.89	985.37
388.09	1095.37
388.28	1093.03
388.48	1015.79
388.67	1114.10
388.86	1181.97
389.06	1118.78
389.25	1165.59
389.45	1153.88
389.64	1172.61
389.84	1142.18
390.03	1149.20
390.22	1280.27
390.42	1135.16
390.61	1137.50
390.81	1177.29
391.00	1249.85
391.19	1299.00
391.39	1226.44
391.58	1270.91
391.78	1284.95
391.97	1301.34
392.16	1310.70
392.36	1373.89
392.55	1409.00
392.75	1430.07
392.94	1301.34
393.13	1357.51
393.33	1221.76
393.52	1427.73
393.71	1376.24
393.91	1221.76
394.10	1397.30
394.29	1380.92
394.49	1390.28
394.68	1540.07
394.88	1472.20
395.07	1516.67
395.26	1437.09
395.46	1474.54
395.65	1493.26
395.84	1500.28
396.04	1556.46
396.23	1497.94
396.42	1528.37
396.62	1563.48
396.81	1542.41
397.00	1629.01
397.19	1554.12
397.39	1542.41
397.58	1699.23
397.77	1605.61
397.97	1603.27
398.16	1664.12
398.35	1741.36
398.55	1572.84
398.74	1755.40
398.93	1741.36
399.12	1732.00
399.32	1771.79
399.51	1717.95
399.70	1858.39
399.90	1717.95
400.09	1792.85
400.28	1844.34
400.47	1881.79
400.67	1959.03
400.86	1914.56
401.05	1825.62
401.24	1865.41
401.44	1909.88
401.63	1919.24
401.82	1849.02
402.01	1952.01
402.21	2008.18
402.40	1982.43
402.59	1998.82
402.78	2064.35
402.97	2087.76
403.17	2085.42
403.36	2120.53
403.55	2125.21
403.74	2169.68
403.93	2155.63
404.13	2101.80
404.32	2225.85
404.51	2183.72
404.70	2366.28
404.89	2286.70
405.09	2239.89
405.28	2160.31
405.47	2270.32
405.66	2317.13
405.85	2305.43
406.05	2340.54
406.24	2387.35
406.43	2335.85
406.62	2541.82
406.81	2565.23
407.00	2480.97
407.20	2403.73
407.39	2462.24
407.58	2495.01
407.77	2466.92
407.96	2527.78
408.15	2530.12
408.34	2651.83
408.54	2640.12
408.73	2626.08
408.92	2679.91
409.11	2766.51
409.30	2857.79
409.49	2827.37
409.68	2768.85
409.87	2787.58
410.07	2771.19
410.26	2789.92
410.45	2864.82
410.64	2874.18
410.83	2850.77
411.02	2965.46
411.21	3084.83
411.40	3019.29
411.59	3103.55
411.78	3112.91
411.98	3110.57
412.17	3094.19
412.36	3089.51
412.55	3236.96
412.74	3316.54
412.93	3361.01
413.12	3365.69
413.31	3492.08
413.50	3241.64
413.69	3222.92
413.88	3435.91
414.07	3419.52
414.26	3353.99
414.45	3574.00
414.64	3463.99
414.83	3611.45
415.02	3616.13
415.22	3691.02
415.41	3695.71
415.60	3751.88
415.79	3742.52
415.98	3971.89
416.17	3822.09
416.36	3826.78
416.55	3871.25
416.74	3971.89
416.93	3934.44
417.12	4074.87
417.31	4219.99
417.50	4030.40
417.69	4135.73
417.88	4248.07
418.07	4152.11
418.26	4098.28
418.45	4461.06
418.64	4383.82
418.83	4383.82
419.02	4278.50
419.21	4521.92
419.39	4381.48
419.58	4383.82
419.77	4372.12
419.96	4498.51
420.15	4542.98
420.34	4552.34
420.53	4440.00
420.72	4575.75
420.91	4610.86
421.10	4608.51
421.29	4596.81
421.48	4463.40
421.67	4748.95
421.86	4606.17
422.05	4755.97
422.24	4683.41
422.43	4762.99
422.61	4999.38
422.80	4767.67
422.99	5053.22
423.18	4856.61
423.37	4973.64
423.56	4851.93
423.75	4877.68
423.94	4767.67
424.13	4603.83
424.32	4777.03
424.50	4861.29
424.69	5041.51
424.88	4957.25
425.07	4908.10
425.26	4847.25
425.45	4851.93
425.64	4863.63
425.83	4868.31
426.01	4917.47
426.20	4938.53
426.39	4936.19
426.58	4812.14
426.77	4999.38
426.96	5029.81
427.15	4985.34
427.33	4978.32
427.52	5015.77
427.71	5146.84
427.90	5123.43
428.09	5195.99
428.28	5270.89
428.46	5207.69
428.65	5268.55
428.84	5371.53
429.03	5303.65
429.22	5219.39
429.40	5350.46
429.59	5507.28
429.78	5123.43
429.97	5270.89
430.16	5324.72
430.34	5446.43
430.53	5621.97
430.72	5561.11
430.91	5528.35
431.10	5568.13
431.28	5610.26
431.47	5769.42
431.66	5837.30
431.85	5713.25
432.03	5788.14
432.22	5951.98
432.41	5884.11
432.60	5963.68
432.79	5856.02
432.97	6024.54
433.16	5989.43
433.35	5926.24
433.54	6148.59
433.72	5975.39
433.91	6022.20
434.10	5928.58
434.28	5933.26
434.47	5909.85
434.66	6040.92
434.85	6071.35
435.03	6258.59
435.22	6202.42
435.41	6403.71
435.59	6317.11
435.78	6251.57
435.97	6286.68
436.16	6574.56
436.34	6331.15
436.53	6394.34
436.72	6623.72
436.90	6492.65
437.09	6586.27
437.28	6553.50
437.46	6523.07
437.65	6649.46
437.84	6747.76
438.02	6569.88
438.21	6576.91
438.40	6682.23
438.58	6801.60
438.77	6843.73
438.96	6768.83
439.14	6984.16
439.33	7030.97
439.52	7269.70
439.70	7279.07
439.89	7307.15
440.08	7405.46
440.26	7089.48
440.45	7368.01
440.63	7323.54
440.82	7480.35
441.01	7302.47
441.19	7501.42
441.38	7496.74
441.57	7674.62
441.75	7639.51
441.94	7801.01
442.12	7824.41
442.31	7896.97
442.50	7857.18
442.68	7976.55
442.87	7946.12
443.05	7889.95
443.24	8105.28
443.43	8018.68
443.61	8114.64
443.80	8477.42
443.98	8074.85
444.17	8018.68
444.35	8219.96
444.54	8484.44
444.73	8287.84
444.91	8105.28
445.10	8259.75
445.28	8362.73
445.47	8161.45
445.65	8557.00
445.84	8259.75
446.02	8360.39
446.21	8322.94
446.39	8334.65
446.58	8482.10
446.77	8278.47
446.95	8292.52
447.14	8336.99
447.32	8468.06
447.51	8238.69
447.69	8388.48
447.88	8603.81
448.06	8416.57
448.25	8573.38
448.43	8468.06
448.62	8355.71
448.80	8421.25
448.99	8423.59
449.17	8746.58
449.36	8491.46
449.54	8884.67
449.73	8901.06
449.91	9050.85
450.10	9107.02
450.28	9092.98
450.46	8973.61
450.65	9114.05
450.83	9186.60
451.02	9053.19
451.20	9195.96
451.39	9114.05
451.57	9205.33
451.76	9055.53
451.94	9352.78
452.13	9184.26
452.31	8992.34
452.49	9212.35
452.68	9284.91
452.86	9102.34
453.05	9486.19
453.23	9437.04
453.42	9291.93
453.60	9298.95
453.78	9523.64
453.97	9289.59
454.15	9427.68
454.34	9401.93
454.52	9645.35
454.70	9673.43
454.89	9757.69
455.07	9760.03
455.26	10090.05
455.44	9839.61
455.62	9755.35
455.81	9949.62
455.99	9902.81
456.17	10005.79
456.36	10017.49
456.54	10078.35
456.73	10218.78
456.91	10490.28
457.09	10532.41
457.28	10499.64
457.46	10356.87
457.64	10455.17
457.83	10387.30
458.01	10106.43
458.19	10729.02
458.38	10448.15
458.56	10834.34
458.74	10581.56
458.93	10654.12
459.11	10729.02
459.29	10717.31
459.48	10691.57
459.66	10597.95
459.84	10923.28
460.03	11009.88
460.21	10719.65
460.39	11012.22
460.57	10855.40
460.76	10958.39
460.94	11159.67
461.12	11199.46
461.31	11082.44
461.49	10988.82
461.67	11225.21
461.85	11456.92
462.04	11487.35
462.22	11836.09
462.40	11499.05
462.59	11485.01
462.77	11468.62
462.95	11630.12
463.13	11665.23
463.32	11510.75
463.50	11761.19
463.68	11599.70
463.86	11709.70
464.05	11538.84
464.23	11644.17
464.41	11683.95
464.59	11740.13
464.78	12053.76
464.96	11735.45
465.14	11740.13
465.32	12126.32
465.50	12264.41
465.69	12058.44
465.87	12191.85
466.05	12219.94
466.23	12189.51
466.41	12453.99
466.60	12290.15
466.78	12011.63
466.96	12437.61
467.14	12177.81
467.32	12203.55
467.51	12456.33
467.69	11882.90
467.87	12381.43
468.05	12659.96
468.23	12163.76
468.41	12348.67
468.60	12769.96
468.78	12851.88
468.96	12428.24
469.14	12819.11
469.32	12924.44
469.50	12898.69
469.69	13076.57
469.87	13034.44
470.05	13209.98
470.23	13315.31
470.41	13020.40
470.59	13172.54
470.77	13055.51
470.95	13212.32
471.14	13371.48
471.32	13153.81
471.50	13881.72
471.68	13511.91
471.86	13476.80
472.04	13507.23
472.22	14146.20
472.40	13654.69
472.58	13923.85
472.77	14118.11
472.95	13968.32
473.13	14462.17
473.31	14071.30
473.49	13900.44
473.67	14162.58
473.85	14422.38
474.03	14492.60
474.21	14689.20
474.39	14747.72
474.57	14906.87
474.75	14913.89
474.93	15019.22
475.12	14663.46
475.30	15159.65
475.48	14902.19
475.66	15468.60
475.84	15323.49
476.02	15477.96
476.20	15382.00
476.38	15597.33
476.56	15840.75
476.74	15990.54
476.92	15700.31
477.10	15777.55
477.28	16327.58
477.46	16343.96
477.64	16636.53
477.82	16482.05
478.00	16947.82
478.18	16676.32
478.36	17163.15
478.54	17090.59
478.72	17015.69
478.90	17453.37
479.08	17357.41
479.26	17530.61
479.44	17603.17
479.62	18099.36
479.80	17919.14
479.98	18312.35
480.16	18223.41
480.34	18562.79
480.52	18567.47
480.70	18881.10
480.88	18443.42
481.06	18888.12
481.24	18827.27
481.41	19147.92
481.59	19293.04
481.77	19358.57
481.95	19466.24
482.13	19744.76
482.31	19686.25
482.49	20077.12
482.67	20013.92
482.85	20311.17
483.03	20692.68
483.21	20971.20
483.39	21191.21
483.57	20823.75
483.74	21277.81
483.92	21394.84
484.10	21563.36
484.28	21848.90
484.46	22087.64
484.64	22307.65
484.82	21928.48
485.00	22380.20
485.18	22590.85
485.35	23084.70
485.53	22869.37
485.71	23005.13
485.89	23454.51
486.07	23543.45
486.25	23520.04
486.43	23501.32
486.61	23845.38
486.78	24306.46
486.96	24694.99
487.14	24800.32
487.32	25039.05
487.50	24861.17
487.68	25053.09
487.85	25504.82
488.03	25589.08
488.21	25919.09
488.39	26017.40
488.57	26654.02
488.75	26328.69
488.92	26792.11
489.10	26768.71
489.28	26855.31
489.46	27466.19
489.64	26948.93
489.81	27590.24
489.99	27737.69
490.17	27819.61
490.35	28285.37
490.53	28776.89
490.70	28762.84
490.88	28510.07
491.06	28968.81
491.24	29022.64
491.41	29434.58
491.59	29455.64
491.77	29357.34
491.95	29998.65
492.13	29706.08
492.30	29839.49
492.48	30244.40
492.66	30122.69
492.84	30239.72
493.01	30934.86
493.19	30941.88
493.37	30675.06
493.54	31222.75
493.72	31786.82
493.90	31793.84
494.08	32030.23
494.25	32154.28
494.43	32135.56
494.61	32659.84
494.79	32809.63
494.96	32528.77
495.14	33076.45
495.32	33369.02
495.49	33212.20
495.67	33457.96
495.85	34043.09
496.02	33809.04
496.20	33972.88
496.38	34330.98
496.55	34300.55
496.73	35012.07
496.91	34345.02
497.09	35164.21
497.26	35709.55
497.44	35061.22
497.62	34974.63
497.79	35754.02
497.97	35550.40
498.14	36481.93
498.32	36357.88
498.50	36065.31
498.67	36907.91
498.85	36327.45
499.03	36708.96
499.20	36933.65
499.38	37120.90
499.56	37876.89
499.73	37450.91
499.91	37986.89
500.08	38026.68
500.26	37146.64
500.44	37921.36
500.61	37801.99
500.79	38398.83
500.97	38492.45
501.14	38897.36
501.32	38665.65
501.49	38511.17
501.67	38829.49
501.84	39665.06
502.02	39419.30
502.20	39367.81
502.37	39536.33
502.55	39826.56
502.72	39665.06
502.90	39999.76
503.07	39538.67
503.25	39868.69
503.43	40261.90
503.60	40208.06
503.78	40638.72
503.95	40491.27
504.13	40793.20
504.30	40472.54
504.48	40275.94
504.65	41184.07
504.83	41607.70
505.01	41720.05
505.18	41689.62
505.36	41532.81
505.53	41537.49
505.71	41598.34
505.88	41902.61
506.06	41825.37
506.23	42621.16
506.41	42340.29
506.58	42363.70
506.76	42742.86
506.93	42426.89
507.11	42527.53
507.28	42483.06
507.46	42946.49
507.63	42897.34
507.81	43468.43
507.98	43241.40
508.16	43793.76
508.33	43746.95
508.50	43962.28
508.68	44128.46
508.85	44364.85
509.03	43906.11
509.20	44275.91
509.38	44781.47
509.55	44247.83
509.73	44949.99
509.90	44786.15
510.08	44659.76
510.25	44896.16
510.42	45118.51
510.60	45170.00
510.77	45188.72
510.95	45808.96
511.12	45308.09
511.30	45490.65
511.47	45773.86
511.64	45972.80
511.82	46389.42
511.99	46064.08
512.17	45900.25
512.34	46181.11
512.51	46499.42
512.69	46738.16
512.86	46588.36
513.04	47110.30
513.21	47234.35
513.38	47131.37
513.56	47217.97
513.73	47222.65
513.90	47229.67
514.08	47512.88
514.25	47725.86
514.43	47814.80
514.60	47805.44
514.77	47512.88
514.95	47629.90
515.12	47929.49
515.29	47796.08
515.47	48437.39
515.64	48556.75
515.81	48580.16
515.99	48629.31
516.16	48594.20
516.33	48659.74
516.51	48914.86
516.68	48582.50
516.85	48905.49
517.03	49198.06
517.20	49043.59
517.37	49436.80
517.54	49198.06
517.72	49399.35
517.89	49169.97
518.06	49251.89
518.24	49434.45
518.41	49535.10
518.58	49710.64
518.75	49806.60
518.93	49890.86
519.10	49844.05
519.27	50213.85
519.45	50038.31
519.62	50117.89
519.79	50085.12
519.96	50333.22
520.14	50527.48
520.31	50436.20
520.48	50485.36
520.65	50344.92
520.83	50731.11
521.00	50593.02
521.17	50906.65
521.34	50791.97
521.52	50988.57
521.69	51246.03
521.86	51044.74
522.03	51061.13
522.20	51063.47
522.38	51255.39
522.55	51299.86
522.72	51512.85
522.89	51414.55
523.07	51763.29
523.24	51805.42
523.41	51760.95
523.58	51650.94
523.75	51789.03
523.92	52041.81
524.10	52107.35
524.27	52224.37
524.44	52210.33
524.61	52500.56
524.78	52629.29
524.96	52484.17
525.13	52240.76
525.30	52617.58
525.47	52540.35
525.64	52477.15
525.81	52655.03
525.98	52743.97
526.16	52765.04
526.33	52690.14
526.50	52926.53
526.67	52783.76
526.84	52996.75
527.01	52772.06
527.18	53354.85
527.36	53331.45
527.53	53492.94
527.70	53609.97
527.87	53579.54
528.04	53151.23
528.21	53682.53
528.38	53647.42
528.55	53738.70
528.72	53506.99
528.89	53825.30
529.07	53649.76
529.24	53525.71
529.41	53979.78
529.58	53862.75
529.75	53560.82
529.92	53741.04
530.09	54007.86
530.26	53916.58
530.43	54089.78
530.60	54124.89
530.77	54092.12
530.94	54028.93
531.11	54082.76
531.28	54204.47
531.46	54382.35
531.63	54513.42
531.80	54632.78
531.97	54639.81
532.14	54754.49
532.31	54452.56
532.48	54590.66
532.65	54501.71
532.82	54688.96
532.99	54536.82
533.16	54684.28
533.33	55075.15
533.50	55194.51
533.67	54920.67
533.84	54834.07
534.01	55000.25
534.18	54866.84
534.35	55330.26
534.52	55047.06
534.69	55018.97
534.86	55498.78
535.03	55257.71
535.20	55150.04
535.37	55250.69
535.54	55440.27
535.71	55136.00
535.88	55508.14
536.05	55304.52
536.22	55540.91
536.38	55655.60
536.55	56004.34
536.72	55810.07
536.89	55641.56
537.06	55597.09
537.23	55676.66
537.40	55451.97
537.57	55674.32
537.74	55964.55
537.91	56058.17
538.08	56156.47
538.25	56090.94
538.42	56107.32
538.59	56088.60
538.75	55711.77
538.92	56044.13
539.09	56371.80
539.26	56271.16
539.43	56413.93
539.60	56273.50
539.77	56367.12
539.94	56390.53
540.11	56383.51
540.28	56037.11
540.44	56296.91
540.61	56224.35
540.78	56383.51
540.95	56516.92
541.12	56837.57
541.29	56530.96
541.46	56418.61
541.62	56392.87
541.79	56442.02
541.96	56528.62
542.13	56736.93
542.30	56725.22
542.47	56947.57
542.63	56926.51
542.80	57176.95
542.97	57312.70
543.14	57221.42
543.31	57172.27
543.48	57092.69
543.64	57420.36
543.81	57460.15
543.98	57364.19
544.15	57303.34
544.32	57305.68
544.48	57766.76
544.65	57336.10
544.82	57750.38
544.99	57284.61
545.16	57476.54
545.32	57502.28
545.49	57951.66
545.66	58052.31
545.83	57970.39
546.00	57876.77
546.16	57640.37
546.33	57448.45
546.50	57684.84
546.67	57783.15
546.83	57488.24
547.00	57853.36
547.17	57741.02
547.34	57752.72
547.50	57902.51
547.67	58145.93
547.84	57930.60
548.00	58087.42
548.17	57982.09
548.34	57839.32
548.51	58248.91
548.67	58049.97
548.84	58110.82
549.01	58136.57
549.18	58061.67
549.34	58185.72
549.51	58099.12
549.68	58181.04
549.84	58239.55
550.01	58342.53
550.18	58347.21
550.34	58288.70
550.51	58422.11
550.68	58412.75
550.84	58113.16
551.01	58663.19
551.18	58368.28
551.34	58164.65
551.51	58497.01
551.68	58583.61
551.84	58415.09
552.01	58700.64
552.18	58738.08
552.34	58780.21
552.51	58775.53
552.68	58623.40
552.84	58763.83
553.01	58717.02
553.18	58571.91
553.34	58827.02
553.51	58740.42
553.67	58913.62
553.84	59091.51
554.01	59023.63
554.17	58911.28
554.34	58885.54
554.51	58845.75
554.67	59082.14
554.84	59051.72
555.00	58901.92
555.17	58988.52
555.33	59189.81
555.50	58937.03
555.67	59018.95
555.83	59344.28
556.00	59222.58
556.16	59367.69
556.33	59032.99
556.50	59194.49
556.66	59398.12
556.83	59131.29
556.99	59529.19
557.16	59484.72
557.32	59388.75
557.49	59407.48
557.65	59096.19
557.82	59426.20
557.98	59152.36
558.15	59430.88
558.32	59290.45
558.48	59489.40
558.65	59416.84
558.81	59508.12
558.98	59517.48
559.14	59465.99
559.31	59449.61
559.47	59496.42
559.64	59583.02
559.80	59639.19
559.97	59901.33
560.13	59566.63
560.30	59723.45
560.46	59774.94
560.63	59688.34
560.79	59739.83
560.96	59938.78
561.12	59526.84
561.29	59777.28
561.45	59765.58
561.61	59889.63
561.78	59744.51
561.94	59648.55
562.11	59863.88
562.27	59660.26
562.44	59650.89
562.60	59709.41
562.77	59781.96
562.93	59650.89
563.10	60060.49
563.26	59765.58
563.42	60119.00
563.59	59880.27
563.75	59845.16
563.92	60200.92
564.08	59669.62
564.24	59901.33
564.41	59908.35
564.57	59901.33
564.74	59868.56
564.90	60079.21
565.07	60252.41
565.23	60193.90
565.39	60039.42
565.56	59966.87
565.72	59910.69
565.88	60074.53
566.05	60009.00
566.21	59833.46
566.38	60093.25
566.54	60006.65
566.70	60292.20
566.87	60392.84
567.03	60086.23
567.19	60196.24
567.36	60111.98
567.52	60097.94
567.68	60254.75
567.85	59976.23
568.01	60119.00
568.17	60069.85
568.34	60420.93
568.50	60278.16
568.66	60343.69
568.83	60411.57
568.99	60006.65
569.15	59948.14
569.32	60126.02
569.48	60165.81
569.64	60278.16
569.81	60292.20
569.97	60023.04
570.13	60184.54
570.30	60315.61
570.46	60324.97
570.62	60221.98
570.78	60299.22
570.95	60226.66
571.11	60339.01
571.27	60144.75
571.43	60158.79
571.60	60392.84
571.76	60275.82
571.92	60465.40
572.09	60411.57
572.25	60385.82
572.41	60411.57
572.57	60266.45
572.74	60786.05
572.90	60339.01
573.06	60392.84
573.22	60643.28
573.38	60554.34
573.55	60472.42
573.71	60882.02
573.87	60446.68
574.03	60336.67
574.20	60481.78
574.36	60353.05
574.52	60505.19
574.68	60535.62
574.84	60608.17
575.01	60669.03
575.17	60640.94
575.33	60650.30
575.49	60498.17
575.65	60317.95
575.82	60636.26
575.98	60509.87
576.14	60516.89
576.30	60404.55
576.46	60360.08
576.62	60413.91
576.79	60472.42
576.95	60427.95
577.11	60615.19
577.27	60645.62
577.43	60652.64
577.59	60680.73
577.75	60575.40
577.92	60544.98
578.08	60540.30
578.24	60467.74
578.40	60561.36
578.56	60507.53
578.72	60310.92
578.88	60769.67
579.04	60720.52
579.21	60495.83
579.37	60643.28
579.53	60760.31
579.69	60584.77
579.85	60622.22
580.01	60547.32
580.17	60725.20
580.33	60645.62
580.49	60657.32
580.65	61071.60
580.82	60851.59
580.98	60725.20
581.14	60678.39
581.30	60879.67
581.46	60601.15
581.62	60437.31
581.78	60643.28
581.94	60643.28
582.10	60662.00
582.26	60839.89
582.42	60779.03
582.58	60905.42
582.74	60762.65
582.90	60926.49
583.06	60914.78
583.22	60654.98
583.38	60734.56
583.54	60720.52
583.70	60657.32
583.86	60985.00
584.02	60486.46
584.18	60746.26
584.34	60760.31
584.50	60856.27
584.66	60807.12
584.82	60472.42
584.98	60886.70
585.14	60891.38
585.30	60652.64
585.46	60970.96
585.62	60544.98
585.78	60879.67
585.94	60673.71
586.10	60786.05
586.26	60968.61
586.42	60802.44
586.58	60945.21
586.74	60673.71
586.90	60772.01
587.06	60694.77
587.22	60811.80
587.38	60802.44
587.54	60853.93
587.70	60959.25
587.86	60903.08
588.02	60898.40
588.18	61010.74
588.34	60917.12
588.49	60914.78
588.65	60762.65
588.81	60832.86
588.97	60690.09
589.13	60818.82
