SpectraSuite Data File
++++++++++++++++++++++++++++++++++++
Date: Fri Oct 04 11:48:38 GMT-05:00 2013
User: price-jones
Dark Spectrum Present: No
Reference Spectrum Present: No
Number of Sampled Component Spectra: 1
Spectrometers: USB2+H05261
Integration Time (usec): 100000 (USB2+H05261)
Spectra Averaged: 1 (USB2+H05261)
Boxcar Smoothing: 0 (USB2+H05261)
Correct for Electrical Dark: No (USB2+H05261)
Strobe/Lamp Enabled: No (USB2+H05261)
Correct for Detector Non-linearity: No (USB2+H05261)
Correct for Stray Light: No (USB2+H05261)
Number of Pixels in Processed Spectrum: 2048
>>>>>Begin Processed Spectral Data<<<<<
365.73	42.13
365.92	42.13
366.12	42.13
366.32	0.00
366.52	0.00
366.72	0.00
366.91	0.00
367.11	0.00
367.31	0.00
367.51	0.00
367.70	0.00
367.90	0.00
368.10	0.00
368.30	0.00
368.49	0.00
368.69	0.00
368.89	0.00
369.09	0.00
369.28	28.09
369.48	0.00
369.68	2.34
369.87	0.00
370.07	0.00
370.27	88.94
370.47	121.71
370.66	454.06
370.86	470.45
371.06	472.79
371.25	465.77
371.45	468.11
371.65	503.22
371.84	503.22
372.04	451.72
372.24	533.64
372.44	540.66
372.63	608.54
372.83	690.46
373.03	627.26
373.22	528.96
373.42	550.03
373.62	601.52
373.81	638.97
374.01	622.58
374.21	667.05
374.40	657.69
374.60	781.74
374.79	704.50
374.99	641.31
375.19	631.94
375.38	645.99
375.58	718.54
375.78	751.31
375.97	704.50
376.17	732.59
376.37	643.65
376.56	760.67
376.76	786.42
376.95	760.67
377.15	730.25
377.35	770.04
377.54	669.39
377.74	753.65
377.93	763.01
378.13	744.29
378.33	763.01
378.52	802.80
378.72	793.44
378.91	777.06
379.11	809.83
379.31	788.76
379.50	758.33
379.70	791.10
379.89	805.14
380.09	873.02
380.28	835.57
380.48	891.74
380.68	821.53
380.87	854.30
381.07	884.72
381.26	889.40
381.46	861.32
381.65	917.49
381.85	858.98
382.04	901.11
382.24	926.85
382.43	936.21
382.63	866.00
382.83	940.90
383.02	917.49
383.22	997.07
383.41	1025.15
383.61	919.83
383.80	1011.11
384.00	1011.11
384.19	994.73
384.39	990.05
384.58	1015.79
384.78	1081.33
384.97	1032.18
385.17	933.87
385.36	966.64
385.56	1062.60
385.75	1093.03
385.95	1142.18
386.14	1095.37
386.34	990.05
386.53	1046.22
386.72	1069.62
386.92	1093.03
387.11	1036.86
387.31	1177.29
387.50	1104.73
387.70	1109.41
387.89	1151.54
388.09	1163.25
388.28	1109.41
388.48	1203.04
388.67	1217.08
388.86	1158.57
389.06	1118.78
389.25	1238.14
389.45	1224.10
389.64	1217.08
389.84	1315.38
390.03	1315.38
390.22	1231.12
390.42	1214.74
390.61	1212.40
390.81	1207.72
391.00	1320.06
391.19	1334.11
391.39	1317.72
391.58	1425.39
391.78	1317.72
391.97	1441.77
392.16	1376.24
392.36	1413.68
392.55	1439.43
392.75	1516.67
392.94	1434.75
393.13	1549.43
393.33	1472.20
393.52	1526.03
393.71	1556.46
393.91	1418.36
394.10	1495.60
394.29	1511.99
394.49	1542.41
394.68	1434.75
394.88	1474.54
395.07	1636.03
395.26	1521.35
395.46	1535.39
395.65	1659.44
395.84	1523.69
396.04	1734.34
396.23	1619.65
396.42	1643.06
396.62	1689.87
396.81	1652.42
397.00	1720.29
397.19	1680.50
397.39	1785.83
397.58	1743.70
397.77	1673.48
397.97	1675.82
398.16	1748.38
398.35	1891.15
398.55	1877.11
398.74	1970.73
398.93	1895.83
399.12	1977.75
399.32	1795.19
399.51	1870.09
399.70	1919.24
399.90	1867.75
400.09	1914.56
400.28	2047.97
400.47	2036.27
400.67	2069.03
400.86	2017.54
401.05	1956.69
401.24	2066.69
401.44	2073.71
401.63	2146.27
401.82	1989.46
402.01	2064.35
402.21	2150.95
402.40	2270.32
402.59	2256.28
402.78	2181.38
402.97	2190.74
403.17	2253.94
403.36	2207.13
403.55	2331.17
403.74	2312.45
403.93	2373.30
404.13	2319.47
404.32	2413.09
404.51	2335.85
404.70	2427.14
404.89	2377.98
405.09	2555.86
405.28	2558.21
405.47	2647.15
405.66	2504.37
405.85	2597.99
406.05	2637.78
406.24	2525.44
406.43	2635.44
406.62	2722.04
406.81	2738.43
407.00	2581.61
407.20	2623.74
407.39	2595.65
407.58	2829.71
407.77	2682.25
407.96	2808.64
408.15	2848.43
408.34	2799.28
408.54	2757.15
408.73	2867.16
408.92	2808.64
409.11	2974.82
409.30	2967.80
409.49	3080.14
409.68	2998.23
409.87	3019.29
410.07	3101.21
410.26	3122.27
410.45	3243.98
410.64	2995.89
410.83	3276.75
411.02	3176.11
411.21	3229.94
411.40	3157.38
411.59	3255.69
411.78	3279.09
411.98	3293.13
412.17	3428.88
412.36	3365.69
412.55	3520.17
412.74	3482.72
412.93	3410.16
413.12	3449.95
413.31	3660.60
413.50	3538.89
413.69	3726.13
413.88	3777.62
414.07	3651.24
414.26	3805.71
414.45	3861.88
414.64	3829.12
414.83	3826.78
415.02	3950.82
415.22	4074.87
415.41	4161.47
415.60	4063.17
415.79	4030.40
415.98	4145.09
416.17	4231.69
416.36	4149.77
416.55	4114.66
416.74	4182.54
416.93	4250.41
417.12	4191.90
417.31	4362.76
417.50	4425.95
417.69	4552.34
417.88	4484.47
418.07	4496.17
418.26	4451.70
418.45	4589.79
418.64	4819.16
418.83	4727.88
419.02	4610.86
419.21	4741.93
419.39	4746.61
419.58	4844.91
419.77	4777.03
419.96	4734.90
420.15	4978.32
420.34	4713.84
420.53	4851.93
420.72	5043.85
420.91	4868.31
421.10	5041.51
421.29	5064.92
421.48	4992.36
421.67	5020.45
421.86	4943.21
422.05	4997.04
422.24	4807.46
422.43	5046.20
422.61	5100.03
422.80	5214.71
422.99	5231.10
423.18	5254.50
423.37	5259.18
423.56	5139.82
423.75	5179.61
423.94	5109.39
424.13	4938.53
424.32	4919.81
424.50	5254.50
424.69	5184.29
424.88	5334.08
425.07	5083.64
425.26	5284.93
425.45	5090.67
425.64	5268.55
425.83	5416.00
426.01	5317.70
426.20	5254.50
426.39	5434.72
426.58	5336.42
426.77	5268.55
426.96	5341.10
427.15	5418.34
427.33	5563.45
427.52	5556.43
427.71	5603.24
427.90	5563.45
428.09	5561.11
428.28	5568.13
428.46	5664.10
428.65	5680.48
428.84	5706.23
429.03	5802.19
429.22	5610.26
429.40	6017.52
429.59	5853.68
429.78	5495.58
429.97	5572.82
430.16	5678.14
430.34	5743.67
430.53	6043.26
430.72	5907.51
430.91	5717.93
431.10	5895.81
431.28	6017.52
431.47	6143.91
431.66	6207.10
431.85	6193.06
432.03	6459.88
432.22	6296.04
432.41	6253.91
432.60	6225.82
432.79	6314.77
432.97	6340.51
433.16	6504.35
433.35	6291.36
433.54	6476.26
433.72	6401.37
433.91	6579.25
434.10	6429.45
434.28	6492.65
434.47	6541.80
434.66	6607.33
434.85	6679.89
435.03	6490.31
435.22	6654.14
435.41	6822.66
435.59	6682.23
435.78	6878.83
435.97	6789.89
436.16	6970.12
436.34	6761.81
436.53	6927.99
436.72	6967.77
436.90	7056.72
437.09	7056.72
437.28	6813.30
437.46	7129.27
437.65	7152.68
437.84	7290.77
438.02	7199.49
438.21	7215.87
438.40	7070.76
438.58	7431.20
438.77	7438.22
438.96	7496.74
439.14	7550.57
439.33	7653.55
439.52	7765.90
439.70	7648.87
439.89	7707.38
440.08	7836.11
440.26	7805.69
440.45	7796.32
440.63	7969.52
440.82	7946.12
441.01	8102.93
441.19	8152.09
441.38	8304.22
441.57	8116.98
441.75	8257.41
441.94	8362.73
442.12	8461.04
442.31	8582.74
442.50	8554.66
442.68	8308.90
442.87	8592.11
443.05	8564.02
443.24	8786.37
443.43	8617.85
443.61	8758.28
443.80	8992.34
443.98	8823.82
444.17	8397.84
444.35	8432.95
444.54	8877.65
444.73	8994.68
444.91	8879.99
445.10	8812.12
445.28	8699.77
445.47	8634.24
445.65	8889.35
445.84	9069.58
446.02	9137.45
446.21	8992.34
446.39	8898.72
446.58	8910.42
446.77	9104.68
446.95	8915.10
447.14	8870.63
447.32	9095.32
447.51	9121.07
447.69	9032.13
447.88	9198.31
448.06	9004.04
448.25	9029.79
448.43	9341.08
448.62	9165.54
448.80	9153.84
448.99	9097.66
449.17	9397.25
449.36	9139.79
449.54	9453.42
449.73	9322.35
449.91	9509.60
450.10	9657.05
450.28	9472.15
450.46	9490.87
450.65	9699.18
450.83	9525.98
451.02	9774.08
451.20	9762.37
451.39	9851.31
451.57	9776.42
451.76	9879.40
451.94	9771.74
452.13	9905.15
452.31	9839.61
452.49	10022.17
452.68	9947.28
452.86	10026.86
453.05	10029.20
453.23	10087.71
453.42	10003.45
453.60	10045.58
453.78	10244.52
453.97	9912.17
454.15	10092.39
454.34	9933.23
454.52	10429.43
454.70	10160.27
454.89	10223.46
455.07	10581.56
455.26	10506.66
455.44	10665.82
455.62	10471.56
455.81	10560.50
455.99	10712.63
456.17	10628.37
456.36	10717.31
456.54	10862.43
456.73	10864.77
456.91	11091.80
457.09	11262.66
457.28	11176.06
457.46	10927.96
457.64	11356.28
457.83	11176.06
458.01	11014.56
458.19	11311.81
458.38	11077.76
458.56	11477.99
458.74	11644.17
458.93	11482.67
459.11	11452.24
459.29	11712.04
459.48	11475.65
459.66	11300.11
459.84	11468.62
460.03	11747.15
460.21	11648.85
460.39	11751.83
460.57	11721.40
460.76	11796.30
460.94	11817.36
461.12	11698.00
461.31	12084.19
461.49	11850.13
461.67	11910.99
461.85	12152.06
462.04	12294.83
462.22	12641.23
462.40	12442.29
462.59	12236.32
462.77	12388.46
462.95	12315.90
463.13	12446.97
463.32	12409.52
463.50	12416.54
463.68	12458.67
463.86	12517.18
464.05	12475.06
464.23	12528.89
464.41	12999.34
464.59	12233.98
464.78	12835.50
464.96	12762.94
465.14	12975.93
465.32	13029.76
465.50	12961.89
465.69	12959.55
465.87	12849.54
466.05	12718.47
466.23	13006.36
466.41	13041.46
466.60	13261.48
466.78	13142.11
466.96	13130.41
467.14	13099.98
467.32	13181.90
467.51	13427.65
467.69	13013.38
467.87	13235.73
468.05	13336.37
468.23	13191.26
468.41	13207.64
468.60	13399.57
468.78	13806.82
468.96	13521.27
469.14	13596.17
469.32	13607.87
469.50	13425.31
469.69	13973.00
469.87	14136.84
470.05	14066.62
470.23	14090.02
470.41	13916.83
470.59	14228.12
470.77	14029.17
470.95	14073.64
471.14	14328.76
471.32	13987.04
471.50	14628.35
471.68	14637.71
471.86	14445.79
472.04	14721.97
472.22	15150.29
472.40	14469.19
472.58	14710.27
472.77	14682.18
472.95	15314.13
473.13	15569.24
473.31	15276.68
473.49	14991.13
473.67	15213.48
473.85	15131.56
474.03	15440.51
474.21	15346.89
474.39	15655.84
474.57	15929.69
474.75	15868.83
474.93	16259.70
475.12	16065.44
475.30	16322.90
475.48	15864.15
475.66	16315.87
475.84	16468.01
476.02	16475.03
476.20	16428.22
476.38	16748.87
476.56	16842.50
476.74	16959.52
476.92	16966.54
477.10	16992.29
477.28	17408.90
477.46	17277.83
477.64	17497.84
477.82	17647.64
478.00	18038.51
478.18	18036.17
478.36	18171.92
478.54	18434.06
478.72	18506.62
478.90	18127.45
479.08	18824.93
479.26	18923.23
479.44	18679.82
479.62	19367.93
479.80	19363.25
479.98	19379.64
480.16	19889.87
480.34	19819.66
480.52	19857.10
480.70	20018.60
480.88	19992.86
481.06	20025.62
481.24	20046.69
481.41	20292.44
481.59	20896.30
481.77	20975.88
481.95	21010.99
482.13	21275.47
482.31	21226.32
482.49	21598.46
482.67	21467.39
482.85	21869.97
483.03	22235.09
483.21	22537.02
483.39	22712.56
483.57	22593.19
483.74	23030.87
483.92	22995.76
484.10	22635.32
484.28	23440.47
484.46	23676.86
484.64	24154.33
484.82	23456.85
485.00	23817.29
485.18	24414.13
485.35	24425.83
485.53	24460.94
485.71	24552.22
485.89	24882.24
486.07	24872.87
486.25	25350.34
486.43	25563.33
486.61	25589.08
486.78	26001.01
486.96	25654.61
487.14	26279.54
487.32	26391.88
487.50	26967.65
487.68	26857.65
487.85	26836.58
488.03	27644.07
488.21	28060.68
488.39	27571.51
488.57	27716.62
488.75	28119.20
488.92	28903.28
489.10	28287.71
489.28	28393.04
489.46	29394.79
489.64	29160.73
489.81	29713.10
489.99	29305.85
490.17	29434.58
490.35	29900.34
490.53	30335.68
490.70	30614.21
490.88	30511.22
491.06	31143.17
491.24	30754.64
491.41	31278.92
491.59	31452.12
491.77	31681.49
491.95	31805.54
492.13	31955.33
492.30	32079.38
492.48	32142.58
492.66	32346.20
492.84	32800.27
493.01	32783.88
493.19	33081.13
493.37	33394.76
493.54	33432.21
493.72	33996.28
493.90	33961.17
494.08	33975.22
494.25	34440.98
494.43	34307.57
494.61	34623.54
494.79	34958.24
494.96	35014.41
495.14	35220.38
495.32	35505.93
495.49	35482.52
495.67	35747.00
495.85	35952.97
496.02	36718.32
496.20	36568.53
496.38	36678.54
496.55	36814.29
496.73	37666.24
496.91	36816.63
497.09	37191.11
497.26	37710.71
497.44	37682.62
497.62	37837.10
497.79	38197.54
497.97	37830.08
498.14	38927.79
498.32	38731.18
498.50	38911.41
498.67	39084.61
498.85	39016.73
499.03	38888.00
499.20	39108.01
499.38	39311.64
499.56	39693.15
499.73	39985.71
499.91	40011.46
500.08	40371.90
500.26	39917.84
500.44	40273.60
500.61	40465.52
500.79	40889.16
500.97	40800.22
501.14	40914.90
501.32	41202.79
501.49	40842.35
501.67	41242.58
501.84	41638.13
502.02	41855.80
502.20	41923.68
502.37	42071.13
502.55	42344.97
502.72	41982.19
502.90	42492.43
503.07	42506.47
503.25	42305.18
503.43	42450.30
503.60	43161.82
503.78	43295.23
503.95	43138.41
504.13	43459.07
504.30	43136.07
504.48	43154.80
504.65	43655.67
504.83	44112.08
505.01	43880.36
505.18	44339.11
505.36	44540.39
505.53	43840.57
505.71	44093.35
505.88	44430.39
506.06	44179.95
506.23	44849.35
506.41	45017.86
506.58	45076.38
506.76	44868.07
506.93	45408.73
507.11	45125.53
507.28	45280.00
507.46	45375.97
507.63	45893.22
507.81	45911.95
507.98	45722.37
508.16	45598.32
508.33	45944.72
508.50	46260.69
508.68	46614.11
508.85	46911.36
509.03	46766.24
509.20	46981.57
509.38	46892.63
509.55	47323.29
509.73	47203.92
509.90	47466.06
510.08	47182.86
510.25	47344.36
510.42	47702.46
510.60	47711.82
510.77	47660.33
510.95	48446.75
511.12	47707.14
511.30	47885.02
511.47	48095.67
511.64	48266.53
511.82	48645.69
511.99	48692.50
512.17	48992.09
512.34	48362.49
512.51	48947.62
512.69	48905.49
512.86	49099.76
513.04	49595.95
513.21	49804.26
513.38	49593.61
513.56	49666.17
513.73	49261.26
513.90	49645.10
514.08	49703.62
514.25	50286.41
514.43	49968.10
514.60	50110.87
514.77	50085.12
514.95	50204.49
515.12	49886.18
515.29	50410.46
515.47	50571.96
515.64	50487.70
515.81	50602.38
515.99	50937.08
516.16	50967.51
516.33	51136.02
516.51	51138.36
516.68	50703.03
516.85	51194.54
517.03	51386.46
517.20	51341.99
517.37	51405.19
517.54	51407.53
517.72	51358.38
517.89	51384.12
518.06	51531.57
518.24	51657.96
518.41	51730.52
518.58	51760.95
518.75	51756.27
518.93	51990.32
519.10	51873.29
519.27	52200.97
519.45	52090.96
519.62	52191.61
519.79	52332.04
519.96	52280.55
520.14	52678.44
520.31	52406.94
520.48	52884.40
520.65	52729.93
520.83	52861.00
521.00	53144.20
521.17	52875.04
521.34	53333.79
521.52	53256.55
521.69	53298.68
521.86	53357.19
522.03	53385.28
522.20	53408.68
522.38	53460.18
522.55	53389.96
522.72	53242.51
522.89	53652.10
523.07	54157.66
523.24	53855.73
523.41	54031.27
523.58	53605.29
523.75	54019.56
523.92	53759.76
524.10	54047.65
524.27	53771.47
524.44	53944.67
524.61	54279.36
524.78	54370.64
524.96	53975.09
525.13	54288.73
525.30	54258.30
525.47	54499.37
525.64	54403.41
525.81	54761.51
525.98	54705.34
526.16	54653.85
526.33	54873.86
526.50	54864.50
526.67	54869.18
526.84	55049.40
527.01	54707.68
527.18	54941.74
527.36	55100.89
527.53	55007.27
527.70	55466.02
527.87	55386.44
528.04	54972.16
528.21	55461.33
528.38	55084.51
528.55	55505.80
528.72	55515.17
528.89	55554.96
529.07	55711.77
529.24	55524.53
529.41	55480.06
529.58	55765.60
529.75	55648.58
529.92	55728.16
530.09	55742.20
530.26	55945.83
530.43	55978.59
530.60	55681.34
530.77	55681.34
530.94	56034.77
531.11	56154.13
531.28	56037.11
531.46	55950.51
531.63	56299.25
531.80	56289.88
531.97	56308.61
532.14	56509.89
532.31	56435.00
532.48	56179.88
532.65	56207.97
532.82	56245.41
532.99	56427.98
533.16	56460.74
533.33	56938.21
533.50	56924.17
533.67	56694.80
533.84	56418.61
534.01	56629.26
534.18	56472.45
534.35	56987.36
534.52	56996.73
534.69	57092.69
534.86	56917.15
535.03	57078.64
535.20	57059.92
535.37	56985.02
535.54	57242.48
535.71	57078.64
535.88	57301.00
536.05	57036.51
536.22	57509.30
536.38	57446.11
536.55	57441.43
536.72	57453.13
536.89	56994.39
537.06	57471.85
537.23	57389.94
537.40	57425.04
537.57	57380.57
537.74	57478.88
537.91	57752.72
538.08	57893.15
538.25	57818.25
538.42	57631.01
538.59	57811.23
538.75	57705.91
538.92	57762.08
539.09	57949.32
539.26	58047.63
539.43	58183.38
539.60	57780.81
539.77	57937.62
539.94	58265.30
540.11	58164.65
540.28	57996.13
540.44	57968.05
540.61	57918.90
540.78	58113.16
540.95	58239.55
541.12	58206.78
541.29	58181.04
541.46	58244.23
541.62	58096.78
541.79	58316.79
541.96	57909.53
542.13	58335.51
542.30	58466.58
542.47	58525.10
542.63	58454.88
542.80	58422.11
542.97	58702.98
543.14	58841.07
543.31	58887.88
543.48	58745.11
543.64	58885.54
543.81	59009.59
543.98	59370.03
544.15	58953.41
544.32	59164.06
544.48	59182.79
544.65	58995.54
544.82	59040.01
544.99	59007.25
545.16	59152.36
545.32	59018.95
545.49	59536.21
545.66	59325.56
545.83	59337.26
546.00	59435.56
546.16	59185.13
546.33	58915.96
546.50	59161.72
546.67	59306.83
546.83	59084.48
547.00	59330.24
547.17	59494.08
547.34	59543.23
547.50	59456.63
547.67	59742.17
547.84	59435.56
548.00	59538.55
548.17	59643.87
548.34	59419.18
548.51	59707.07
548.67	59568.97
548.84	59604.08
549.01	59557.27
549.18	59739.83
549.34	59730.47
549.51	59611.10
549.68	59861.54
549.84	59763.24
550.01	59765.58
550.18	59861.54
550.34	59950.48
550.51	59992.61
550.68	60114.32
550.84	59749.20
551.01	59856.86
551.18	59950.48
551.34	59807.71
551.51	59721.11
551.68	60156.45
551.84	60184.54
552.01	59964.52
552.18	60271.14
552.34	60020.70
552.51	60172.83
552.68	60236.03
552.84	60111.98
553.01	60367.10
553.18	60193.90
553.34	60392.84
553.51	60273.48
553.67	60465.40
553.84	60505.19
554.01	60669.03
554.17	60491.15
554.34	60245.39
554.51	60521.57
554.67	60559.02
554.84	60392.84
555.00	60397.52
555.17	60582.43
555.33	60664.35
555.50	60336.67
555.67	60582.43
555.83	60699.45
556.00	60533.28
556.16	60851.59
556.33	60470.08
556.50	60750.94
556.66	60748.60
556.83	60554.34
556.99	60872.65
557.16	60839.89
557.32	60774.35
557.49	60860.95
557.65	60638.60
557.82	60615.19
557.98	60898.40
558.15	60863.29
558.32	60823.50
558.48	60931.17
558.65	60914.78
558.81	61036.49
558.98	61097.34
559.14	60954.57
559.31	60764.99
559.47	60844.57
559.64	61020.11
559.80	60952.23
559.97	61361.82
560.13	60917.12
560.30	61099.68
560.46	61340.76
560.63	61078.62
560.79	61293.95
560.96	61272.88
561.12	61230.75
561.29	61097.34
561.45	61174.58
561.61	61333.74
561.78	61172.24
561.94	61052.87
562.11	61076.28
562.27	61317.35
562.44	61291.61
562.60	61279.91
562.77	61193.31
562.93	61017.77
563.10	61399.27
563.26	61258.84
563.42	61593.54
563.59	61535.02
563.75	61305.65
563.92	61530.34
564.08	61375.87
564.24	61340.76
564.41	61275.22
564.57	61322.04
564.74	61347.78
564.90	61436.72
565.07	61418.00
565.23	61406.30
565.39	61418.00
565.56	61579.49
565.72	61305.65
565.88	61448.42
566.05	61429.70
566.21	61436.72
566.38	61347.78
566.54	61406.30
566.70	61722.27
566.87	61776.10
567.03	61722.27
567.19	61818.23
567.36	61722.27
567.52	61455.45
567.68	61567.79
567.85	61333.74
568.01	61385.23
568.17	61694.18
568.34	61708.22
568.50	61724.61
568.66	61588.86
568.83	61712.91
568.99	61654.39
569.15	61609.92
569.32	61572.47
569.48	61394.59
569.64	61553.75
569.81	61591.20
569.97	61558.43
570.13	61827.59
570.30	61673.12
570.46	61675.46
570.62	61581.84
570.78	61724.61
570.95	61750.35
571.11	61607.58
571.27	61567.79
571.43	61769.08
571.60	61834.61
571.76	61965.68
571.92	61890.79
572.09	62038.24
572.25	61951.64
572.41	61841.63
572.57	61797.16
572.74	61895.47
572.90	61504.60
573.06	61748.01
573.22	61808.87
573.38	61876.74
573.55	61914.19
573.71	61855.68
573.87	62134.20
574.03	61879.08
574.20	61799.50
574.36	61829.93
574.52	61982.07
574.68	61867.38
574.84	62127.18
575.01	62157.61
575.17	61907.17
575.33	62003.13
575.49	62028.88
575.65	61998.45
575.82	62082.71
575.98	62049.94
576.14	61998.45
576.30	62157.61
576.46	61961.00
576.62	61986.75
576.79	61860.36
576.95	61691.84
577.11	61998.45
577.27	61991.43
577.43	62092.07
577.59	61923.55
577.75	61930.58
577.92	61851.00
578.08	61921.21
578.24	62000.79
578.40	61825.25
578.56	61914.19
578.72	62080.37
578.88	62347.19
579.04	62220.80
579.21	62031.22
579.37	62199.74
579.53	61970.36
579.69	61790.14
579.85	61881.42
580.01	61951.64
580.17	61876.74
580.33	61963.34
580.49	62094.41
580.65	62330.81
580.82	62216.12
580.98	62272.29
581.14	62110.80
581.30	62202.08
581.46	61907.17
581.62	62106.12
581.78	61881.42
581.94	62059.30
582.10	62157.61
582.26	62078.03
582.42	62251.23
582.58	62115.48
582.74	62166.97
582.90	62117.82
583.06	62094.41
583.22	62024.20
583.38	62157.61
583.54	62096.75
583.70	62148.24
583.86	62267.61
584.02	62328.47
584.18	62396.34
584.34	62312.08
584.50	62394.00
584.66	62110.80
584.82	62096.75
584.98	62195.06
585.14	61932.92
585.30	62155.27
585.46	62183.35
585.62	62206.76
585.78	62159.95
585.94	62054.62
586.10	62232.50
586.26	61958.66
586.42	62213.78
586.58	62314.42
586.74	62241.87
586.90	62152.93
587.06	62269.95
587.22	62347.19
587.38	62195.06
587.54	62138.88
587.70	62525.07
587.86	62382.30
588.02	62417.41
588.18	62337.83
588.34	62443.15
588.49	62333.15
588.65	61996.11
588.81	62377.62
