SpectraSuite Data File
++++++++++++++++++++++++++++++++++++
Date: Fri Oct 04 11:48:21 GMT-05:00 2013
User: price-jones
Dark Spectrum Present: No
Reference Spectrum Present: No
Number of Sampled Component Spectra: 1
Spectrometers: USB2+H05261
Integration Time (usec): 100000 (USB2+H05261)
Spectra Averaged: 1 (USB2+H05261)
Boxcar Smoothing: 0 (USB2+H05261)
Correct for Electrical Dark: No (USB2+H05261)
Strobe/Lamp Enabled: No (USB2+H05261)
Correct for Detector Non-linearity: No (USB2+H05261)
Correct for Stray Light: No (USB2+H05261)
Number of Pixels in Processed Spectrum: 2048
>>>>>Begin Processed Spectral Data<<<<<
365.73	0.00
365.92	0.00
366.12	0.00
366.32	0.00
366.52	0.00
366.72	0.00
366.91	0.00
367.11	0.00
367.31	0.00
367.51	0.00
367.70	0.00
367.90	0.00
368.10	0.00
368.30	0.00
368.49	0.00
368.69	0.00
368.89	0.00
369.09	0.00
369.28	0.00
369.48	0.00
369.68	0.00
369.87	0.00
370.07	0.00
370.27	16.38
370.47	56.17
370.66	72.56
370.86	18.72
371.06	98.30
371.25	67.88
371.45	58.51
371.65	128.73
371.84	128.73
372.04	35.11
372.24	98.30
372.44	149.79
372.63	177.88
372.83	149.79
373.03	102.98
373.22	154.48
373.42	117.03
373.62	175.54
373.81	138.09
374.01	175.54
374.21	142.77
374.40	170.86
374.60	168.52
374.79	105.32
374.99	177.88
375.19	161.50
375.38	259.80
375.58	159.16
375.78	131.07
375.97	170.86
376.17	264.48
376.37	210.65
376.56	222.35
376.76	128.73
376.95	212.99
377.15	243.42
377.35	152.13
377.54	184.90
377.74	145.11
377.93	161.50
378.13	212.99
378.33	173.20
378.52	128.73
378.72	168.52
378.91	229.37
379.11	177.88
379.31	105.32
379.50	177.88
379.70	170.86
379.89	210.65
380.09	105.32
380.28	121.71
380.48	117.03
380.68	203.63
380.87	152.13
381.07	168.52
381.26	121.71
381.46	140.43
381.65	161.50
381.85	112.35
382.04	184.90
382.24	210.65
382.43	84.26
382.63	107.66
382.83	196.60
383.02	201.29
383.22	180.22
383.41	154.48
383.61	159.16
383.80	135.75
384.00	140.43
384.19	229.37
384.39	163.84
384.58	205.97
384.78	205.97
384.97	154.48
385.17	245.76
385.36	152.13
385.56	196.60
385.75	189.58
385.95	210.65
386.14	187.24
386.34	229.37
386.53	166.18
386.72	154.48
386.92	196.60
387.11	215.33
387.31	140.43
387.50	166.18
387.70	175.54
387.89	182.56
388.09	222.35
388.28	227.03
388.48	224.69
388.67	198.95
388.86	205.97
389.06	133.41
389.25	210.65
389.45	145.11
389.64	154.48
389.84	229.37
390.03	234.05
390.22	163.84
390.42	283.20
390.61	149.79
390.81	234.05
391.00	229.37
391.19	229.37
391.39	189.58
391.58	304.27
391.78	229.37
391.97	220.01
392.16	220.01
392.36	285.55
392.55	262.14
392.75	194.26
392.94	229.37
393.13	306.61
393.33	234.05
393.52	224.69
393.71	250.44
393.91	170.86
394.10	264.48
394.29	229.37
394.49	231.71
394.68	304.27
394.88	248.10
395.07	304.27
395.26	259.80
395.46	250.44
395.65	334.70
395.84	327.68
396.04	365.12
396.23	287.89
396.42	276.18
396.62	313.63
396.81	381.51
397.00	330.02
397.19	269.16
397.39	308.95
397.58	273.84
397.77	299.59
397.97	276.18
398.16	283.20
398.35	276.18
398.55	330.02
398.74	414.27
398.93	355.76
399.12	320.65
399.32	313.63
399.51	353.42
399.70	365.12
399.90	297.25
400.09	397.89
400.28	360.44
400.47	346.40
400.67	374.49
400.86	393.21
401.05	418.96
401.24	393.21
401.44	362.78
401.63	437.68
401.82	456.40
402.01	402.57
402.21	416.62
402.40	437.68
402.59	514.92
402.78	418.96
402.97	505.56
403.17	411.93
403.36	477.47
403.55	451.72
403.74	442.36
403.93	545.34
404.13	482.15
404.32	475.13
404.51	416.62
404.70	524.28
404.89	482.15
405.09	559.39
405.28	512.58
405.47	566.41
405.66	552.37
405.85	566.41
406.05	585.13
406.24	559.39
406.43	662.37
406.62	606.20
406.81	634.29
407.00	631.94
407.20	559.39
407.39	566.41
407.58	634.29
407.77	653.01
407.96	589.82
408.15	674.07
408.34	606.20
408.54	688.12
408.73	704.50
408.92	568.75
409.11	720.88
409.30	826.21
409.49	720.88
409.68	734.93
409.87	777.06
410.07	699.82
410.26	819.19
410.45	791.10
410.64	875.36
410.83	802.80
411.02	744.29
411.21	840.25
411.40	861.32
411.59	840.25
411.78	826.21
411.98	903.45
412.17	880.04
412.36	898.77
412.55	954.94
412.74	919.83
412.93	917.49
413.12	875.36
413.31	961.96
413.50	905.79
413.69	990.05
413.88	947.92
414.07	952.60
414.26	971.32
414.45	929.19
414.64	992.39
414.83	990.05
415.02	1001.75
415.22	1032.18
415.41	1062.60
415.60	1067.28
415.79	1048.56
415.98	1069.62
416.17	1076.65
416.36	1074.31
416.55	1174.95
416.74	1163.25
416.93	1170.27
417.12	1095.37
417.31	1196.01
417.50	1067.28
417.69	1130.48
417.88	1090.69
418.07	1186.65
418.26	1174.95
418.45	1273.25
418.64	1263.89
418.83	1282.61
419.02	1191.33
419.21	1132.82
419.39	1284.95
419.58	1256.87
419.77	1254.53
419.96	1327.08
420.15	1373.89
420.34	1270.91
420.53	1350.49
420.72	1254.53
420.91	1366.87
421.10	1345.81
421.29	1451.13
421.48	1348.15
421.67	1383.26
421.86	1303.68
422.05	1460.49
422.24	1287.29
422.43	1376.24
422.61	1350.49
422.80	1434.75
422.99	1373.89
423.18	1533.05
423.37	1474.54
423.56	1462.83
423.75	1432.41
423.94	1511.99
424.13	1235.80
424.32	1334.11
424.50	1394.96
424.69	1409.00
424.88	1528.37
425.07	1327.08
425.26	1357.51
425.45	1476.88
425.64	1390.28
425.83	1434.75
426.01	1584.54
426.20	1430.07
426.39	1486.24
426.58	1472.20
426.77	1514.33
426.96	1516.67
427.15	1441.77
427.33	1568.16
427.52	1448.79
427.71	1460.49
427.90	1535.39
428.09	1565.82
428.28	1603.27
428.46	1570.50
428.65	1551.78
428.84	1708.59
429.03	1568.16
429.22	1502.62
429.40	1582.20
429.59	1533.05
429.78	1504.96
429.97	1563.48
430.16	1591.56
430.34	1535.39
430.53	1682.85
430.72	1554.12
430.91	1636.03
431.10	1572.84
431.28	1680.50
431.47	1727.32
431.66	1664.12
431.85	1643.06
432.03	1694.55
432.22	1799.87
432.41	1708.59
432.60	1764.76
432.79	1675.82
432.97	1675.82
433.16	1792.85
433.35	1816.26
433.54	1659.44
433.72	1727.32
433.91	1865.41
434.10	1710.93
434.28	1764.76
434.47	1657.10
434.66	1710.93
434.85	1755.40
435.03	1802.21
435.22	1856.04
435.41	1902.86
435.59	1881.79
435.78	1982.43
435.97	1795.19
436.16	1870.09
436.34	1834.98
436.53	1891.15
436.72	2050.31
436.90	1877.11
437.09	1905.20
437.28	1830.30
437.46	1816.26
437.65	1898.17
437.84	1921.58
438.02	1952.01
438.21	1893.49
438.40	1956.69
438.58	2083.08
438.77	1926.26
438.96	2036.27
439.14	2101.80
439.33	2108.82
439.52	1977.75
439.70	2092.44
439.89	2132.23
440.08	2167.34
440.26	2064.35
440.45	2167.34
440.63	2143.93
440.82	2186.06
441.01	2204.78
441.19	2148.61
441.38	2211.81
441.57	2176.70
441.75	2291.38
441.94	2303.09
442.12	2221.17
442.31	2310.11
442.50	2209.47
442.68	2249.25
442.87	2352.24
443.05	2342.88
443.24	2443.52
443.43	2326.49
443.61	2328.83
443.80	2424.80
443.98	2492.67
444.17	2368.62
444.35	2366.28
444.54	2380.32
444.73	2394.37
444.91	2377.98
445.10	2317.13
445.28	2277.34
445.47	2361.60
445.65	2317.13
445.84	2267.98
446.02	2291.38
446.21	2324.15
446.39	2356.92
446.58	2476.29
446.77	2450.54
446.95	2359.26
447.14	2389.69
447.32	2532.46
447.51	2438.84
447.69	2513.74
447.88	2546.50
448.06	2408.41
448.25	2487.99
448.43	2452.88
448.62	2387.35
448.80	2551.18
448.99	2455.22
449.17	2457.56
449.36	2450.54
449.54	2602.68
449.73	2558.21
449.91	2572.25
450.10	2525.44
450.28	2686.94
450.46	2546.50
450.65	2654.17
450.83	2581.61
451.02	2544.16
451.20	2693.96
451.39	2658.85
451.57	2567.57
451.76	2502.03
451.94	2614.38
452.13	2658.85
452.31	2827.37
452.49	2698.64
452.68	2649.49
452.86	2686.94
453.05	2731.41
453.23	2696.30
453.42	2651.83
453.60	2745.45
453.78	2700.98
453.97	2626.08
454.15	2726.72
454.34	2691.62
454.52	2710.34
454.70	2862.48
454.89	2843.75
455.07	2775.88
455.26	2825.03
455.44	2864.82
455.62	2843.75
455.81	2785.24
455.99	2902.26
456.17	2743.11
456.36	2888.22
456.54	2951.42
456.73	2928.01
456.91	2970.14
457.09	2970.14
457.28	3009.93
457.46	2857.79
457.64	2974.82
457.83	3052.06
458.01	2977.16
458.19	3033.33
458.38	3110.57
458.56	2960.78
458.74	3073.12
458.93	3068.44
459.11	3070.78
459.29	3056.74
459.48	2986.52
459.66	3145.68
459.84	3183.13
460.03	3162.06
460.21	3138.66
460.39	3155.04
460.57	3119.93
460.76	3124.62
460.94	3108.23
461.12	3075.46
461.31	3159.72
461.49	3169.09
461.67	3206.53
461.85	3129.30
462.04	3173.77
462.22	3791.67
462.40	3229.94
462.59	3300.16
462.77	3269.73
462.95	3215.90
463.13	3073.12
463.32	3344.63
463.50	3361.01
463.68	3445.27
463.86	3269.73
464.05	3332.92
464.23	3239.30
464.41	3349.31
464.59	3243.98
464.78	3272.07
464.96	3272.07
465.14	3279.09
465.32	3480.38
465.50	3494.42
465.69	3358.67
465.87	3370.37
466.05	3545.91
466.23	3559.95
466.41	3384.41
466.60	3627.83
466.78	3461.65
466.96	3431.23
467.14	3398.46
467.32	3400.80
467.51	3391.44
467.69	3433.57
467.87	3485.06
468.05	3702.73
468.23	3707.41
468.41	3585.70
468.60	3410.16
468.78	3515.48
468.96	3499.10
469.14	3524.85
469.32	3583.36
469.50	3676.98
469.69	3611.45
469.87	3681.66
470.05	3779.97
470.23	3775.28
470.41	3674.64
470.59	3782.31
470.77	3679.32
470.95	3712.09
471.14	3709.75
471.32	3698.05
471.50	3798.69
471.68	3859.54
471.86	3964.87
472.04	3838.48
472.22	3922.74
472.40	3805.71
472.58	3878.27
472.77	3765.92
472.95	4098.28
473.13	4117.00
473.31	4044.45
473.49	3983.59
473.67	4018.70
473.85	3934.44
474.03	4060.83
474.21	4070.19
474.39	4135.73
474.57	4187.22
474.75	4124.02
474.93	4168.49
475.12	3962.53
475.30	4329.99
475.48	4187.22
475.66	4212.96
475.84	4292.54
476.02	4435.32
476.20	4259.78
476.38	4306.59
476.56	4416.59
476.74	4376.80
476.92	4311.27
477.10	4418.93
477.28	4585.11
477.46	4550.00
477.64	4503.19
477.82	4669.37
478.00	4664.69
478.18	4648.30
478.36	4753.63
478.54	4636.60
478.72	4638.94
478.90	4809.80
479.08	4814.48
479.26	4997.04
479.44	4983.00
479.62	4903.42
479.80	4936.19
479.98	4924.49
480.16	5085.98
480.34	5181.95
480.52	5170.24
480.70	5263.86
480.88	5123.43
481.06	5123.43
481.24	5151.52
481.41	5341.10
481.59	5238.12
481.77	5453.45
481.95	5399.62
482.13	5481.53
482.31	5474.51
482.49	5476.85
482.67	5589.20
482.85	5516.64
483.03	5713.25
483.21	5853.68
483.39	5743.67
483.57	5699.20
483.74	5764.74
483.92	5905.17
484.10	5799.85
484.28	5963.68
484.46	6092.41
484.64	6008.16
484.82	5919.21
485.00	6066.67
485.18	6282.00
485.35	6129.86
485.53	6317.11
485.71	6132.20
485.89	6349.87
486.07	6256.25
486.25	6396.68
486.43	6436.47
486.61	6408.39
486.78	6530.09
486.96	6825.00
487.14	6668.19
487.32	6719.68
487.50	6562.86
487.68	6869.47
487.85	6909.26
488.03	7143.32
488.21	7122.25
488.39	7091.82
488.57	7103.53
488.75	7162.04
488.92	7365.67
489.10	7368.01
489.28	7215.87
489.46	7236.94
489.64	7241.62
489.81	7487.37
489.99	7606.74
490.17	7510.78
490.35	7461.63
490.53	7681.64
490.70	7602.06
490.88	7836.11
491.06	7674.62
491.24	7852.50
491.41	7815.05
491.59	7934.42
491.77	7875.90
491.95	8044.42
492.13	7941.44
492.30	8100.59
492.48	8138.04
492.66	8215.28
492.84	8074.85
493.01	8234.00
493.19	8241.03
493.37	8304.22
493.54	8208.26
493.72	8397.84
493.90	8505.51
494.08	8531.25
494.25	8432.95
494.43	8772.33
494.61	8807.44
494.79	8645.94
494.96	8781.69
495.14	8786.37
495.32	8842.54
495.49	9062.55
495.67	8919.78
495.85	8999.36
496.02	9280.22
496.20	9181.92
496.38	9242.78
496.55	9214.69
496.73	9399.59
496.91	9270.86
497.09	9280.22
497.26	9525.98
497.44	9277.88
497.62	9322.35
497.79	9287.25
497.97	9516.62
498.14	9661.73
498.32	9621.94
498.50	9788.12
498.67	9687.48
498.85	9729.61
499.03	9839.61
499.20	9933.23
499.38	9916.85
499.56	9937.91
499.73	10164.95
499.91	10038.56
500.08	10164.95
500.26	9933.23
500.44	9970.68
500.61	10293.68
500.79	10052.60
500.97	10370.91
501.14	10469.22
501.32	10162.61
501.49	10293.68
501.67	10303.04
501.84	10300.70
502.02	10417.72
502.20	10616.67
502.37	10520.71
502.55	10399.00
502.72	10462.19
502.90	10602.63
503.07	10494.96
503.25	10719.65
503.43	10682.20
503.60	10602.63
503.78	10750.08
503.95	10843.70
504.13	10717.31
504.30	11016.90
504.48	10871.79
504.65	11061.37
504.83	10869.45
505.01	10995.84
505.18	11052.01
505.36	11054.35
505.53	11126.91
505.71	11143.29
505.88	11016.90
506.06	11229.89
506.23	11590.33
506.41	11309.47
506.58	11367.98
506.76	11122.23
506.93	11302.45
507.11	11267.34
507.28	11431.18
507.46	11602.04
507.63	11529.48
507.81	11824.39
507.98	11557.57
508.16	11449.90
508.33	11541.18
508.50	11920.35
508.68	11950.78
508.85	11854.81
509.03	12018.65
509.20	11906.31
509.38	11889.92
509.55	11925.03
509.73	11934.39
509.90	12194.19
510.08	11981.20
510.25	12173.13
510.42	11985.88
510.60	12290.15
510.77	12332.28
510.95	12147.38
511.12	12138.02
511.30	12187.17
511.47	12053.76
511.64	12493.78
511.82	12358.03
511.99	12442.29
512.17	12664.64
512.34	12496.12
512.51	12739.54
512.69	12681.02
512.86	12669.32
513.04	12629.53
513.21	12898.69
513.38	12765.28
513.56	12610.81
513.73	12697.41
513.90	12910.40
514.08	12882.31
514.25	13083.59
514.43	12940.82
514.60	12863.58
514.77	13022.74
514.95	13123.38
515.12	12776.98
515.29	12975.93
515.47	13163.17
515.64	13217.01
515.81	13158.49
515.99	13291.90
516.16	13207.64
516.33	13348.08
516.51	13474.46
516.68	13408.93
516.85	13322.33
517.03	13383.18
517.20	13511.91
517.37	13535.32
517.54	13703.84
517.72	13596.17
517.89	13467.44
518.06	13437.02
518.24	13614.90
518.41	13242.75
518.58	13710.86
518.75	13638.30
518.93	13898.10
519.10	13827.88
519.27	13919.17
519.45	13666.39
519.62	13973.00
519.79	13788.10
519.96	13624.26
520.14	14038.53
520.31	13891.08
520.48	14148.54
520.65	14038.53
520.83	14328.76
521.00	13886.40
521.17	13958.96
521.34	14403.66
521.52	14143.86
521.69	14300.67
521.86	14242.16
522.03	14106.41
522.20	14333.44
522.38	14562.81
522.55	14450.47
522.72	14176.62
522.89	14281.95
523.07	14757.08
523.24	14382.59
523.41	14663.46
523.58	14516.00
523.75	14759.42
523.92	14366.21
524.10	14544.09
524.27	14572.18
524.44	14684.52
524.61	14810.91
524.78	14635.37
524.96	14822.61
525.13	14874.10
525.30	14757.08
525.47	14909.21
525.64	14949.00
525.81	14658.78
525.98	14855.38
526.16	14747.72
526.33	14719.63
526.50	14853.04
526.67	14860.06
526.84	15051.99
527.01	14881.13
527.18	15358.60
527.36	15220.50
527.53	15199.44
527.70	15492.01
527.87	15206.46
528.04	15154.97
528.21	15197.10
528.38	15037.94
528.55	15412.43
528.72	15433.49
528.89	15377.32
529.07	15356.25
529.24	15183.06
529.41	15583.29
529.58	15435.83
529.75	15328.17
529.92	15288.38
530.09	15550.52
530.26	15192.42
530.43	15461.58
530.60	15492.01
530.77	15452.22
530.94	15697.97
531.11	15445.20
531.28	15452.22
531.46	15580.95
531.63	15749.46
531.80	15913.30
531.97	15941.39
532.14	15925.00
532.31	15719.04
532.48	15948.41
532.65	15854.79
532.82	15695.63
532.99	15845.43
533.16	16018.63
533.33	15854.79
533.50	16072.46
533.67	16018.63
533.84	15864.15
534.01	15941.39
534.18	15819.68
534.35	16065.44
534.52	16147.36
534.69	16180.12
534.86	15960.11
535.03	16009.26
535.20	16140.33
535.37	16383.75
535.54	15964.79
535.71	15871.17
535.88	16058.42
536.05	16273.74
536.22	16383.75
536.38	16350.98
536.55	16222.25
536.72	16393.11
536.89	16044.37
537.06	16219.91
537.23	16240.98
537.40	16250.34
537.57	16477.37
537.74	16458.65
537.91	16559.29
538.08	16269.06
538.25	16477.37
538.42	16390.77
538.59	16519.50
538.75	16271.40
538.92	16414.18
539.09	16482.05
539.26	16730.15
539.43	16418.86
539.60	16727.81
539.77	16753.55
539.94	16386.09
540.11	16575.67
540.28	16762.92
540.44	16851.86
540.61	16725.47
540.78	17029.74
540.95	16765.26
541.12	16828.45
541.29	16903.35
541.46	16875.26
541.62	16929.09
541.79	16702.06
541.96	16648.23
542.13	16758.24
542.30	16662.27
542.47	16938.46
542.63	16877.60
542.80	17036.76
542.97	17123.36
543.14	17219.32
543.31	17191.23
543.48	16940.80
543.64	17238.05
543.81	17200.60
543.98	17434.65
544.15	17062.51
544.32	17289.54
544.48	17472.10
544.65	17135.06
544.82	17247.41
544.99	17221.66
545.16	17074.21
545.32	17294.22
545.49	17514.23
545.66	17476.78
545.83	17481.46
546.00	17568.06
546.16	17067.19
546.33	17345.71
546.50	17088.25
546.67	17427.63
546.83	17350.39
547.00	17436.99
547.17	17355.07
547.34	17277.83
547.50	17654.66
547.67	17790.41
547.84	17467.42
548.00	17626.57
548.17	17547.00
548.34	17638.28
548.51	17724.88
548.67	17657.00
548.84	17605.51
549.01	17544.66
549.18	17598.49
549.34	17432.31
549.51	17542.32
549.68	17408.90
549.84	17790.41
550.01	17652.32
550.18	17769.35
550.34	18022.12
550.51	17972.97
550.68	17731.90
550.84	17532.95
551.01	17682.75
551.18	17575.08
551.34	17858.29
551.51	17816.16
551.68	17640.62
551.84	17771.69
552.01	18106.38
552.18	18085.32
552.34	17825.52
552.51	17802.11
552.68	17736.58
552.84	17764.67
553.01	17954.25
553.18	17708.49
553.34	18160.22
553.51	18024.47
553.67	17963.61
553.84	18082.98
554.01	18225.75
554.17	17965.95
554.34	17837.22
554.51	17692.11
554.67	17954.25
554.84	18031.49
555.00	18232.77
555.17	18068.94
555.33	17977.65
555.50	17741.26
555.67	17530.61
555.83	18324.05
556.00	17797.43
556.16	18291.29
556.33	17933.18
556.50	18092.34
556.66	18134.47
556.83	18200.01
556.99	18429.38
557.16	18377.89
557.32	18235.11
557.49	18331.08
557.65	17949.57
557.82	17919.14
557.98	18157.88
558.15	18314.69
558.32	18513.64
558.48	18150.85
558.65	18415.34
558.81	18115.75
558.98	18314.69
559.14	18120.43
559.31	18169.58
559.47	18143.83
559.64	18197.67
559.80	18310.01
559.97	18143.83
560.13	18244.48
560.30	18141.49
560.46	18464.49
560.63	18466.83
560.79	18349.80
560.96	18008.08
561.12	18244.48
561.29	17926.16
561.45	18539.38
561.61	18183.62
561.78	18307.67
561.94	18473.85
562.11	18270.22
562.27	18340.44
562.44	18523.00
562.60	18487.89
562.77	18478.53
562.93	18230.43
563.10	18513.64
563.26	18403.63
563.42	18583.85
563.59	18511.30
563.75	18567.47
563.92	18436.40
564.08	18326.39
564.24	18361.50
564.41	18441.08
564.57	18600.24
564.74	18448.10
564.90	18672.79
565.07	18464.49
565.23	18572.15
565.39	18272.56
565.56	18656.41
565.72	18480.87
565.88	18408.31
566.05	18408.31
566.21	18169.58
566.38	18508.96
566.54	18614.28
566.70	18595.56
566.87	18644.71
567.03	18214.05
567.19	18471.51
567.36	18705.56
567.52	18499.59
567.68	18705.56
567.85	18462.15
568.01	18633.00
568.17	18724.29
568.34	18412.99
568.50	18160.22
568.66	18382.57
568.83	18513.64
568.99	18457.46
569.15	18272.56
569.32	18654.07
569.48	18436.40
569.64	18408.31
569.81	18593.22
569.97	18583.85
570.13	18698.54
570.30	18410.65
570.46	18412.99
570.62	18312.35
570.78	18377.89
570.95	18230.43
571.11	18279.58
571.27	18317.03
571.43	18625.98
571.60	18611.94
571.76	18380.23
571.92	18799.18
572.09	18604.92
572.25	18492.57
572.41	18567.47
572.57	18548.75
572.74	18504.28
572.90	18672.79
573.06	18520.66
573.22	18682.16
573.38	18724.29
573.55	18593.22
573.71	18745.35
573.87	18750.03
574.03	18530.02
574.20	18726.63
574.36	18576.83
574.52	18569.81
574.68	18438.74
574.84	18860.04
575.01	18492.57
575.17	18759.39
575.33	18618.96
575.49	18565.13
575.65	18831.95
575.82	18640.03
575.98	18937.27
576.14	18850.67
576.30	18633.00
576.46	18721.95
576.62	18361.50
576.79	18651.73
576.95	18675.13
577.11	18881.10
577.27	18448.10
577.43	18672.79
577.59	18892.80
577.75	18508.96
577.92	18548.75
578.08	18635.35
578.24	18412.99
578.40	18939.62
578.56	18850.67
578.72	18743.01
578.88	18665.77
579.04	18654.07
579.21	18642.37
579.37	18750.03
579.53	18611.94
579.69	18581.51
579.85	18822.59
580.01	18658.75
580.17	18637.69
580.33	18546.40
580.49	18831.95
580.65	18523.00
580.82	18707.90
580.98	18853.02
581.14	18420.02
581.30	18721.95
581.46	18569.81
581.62	18600.24
581.78	18607.26
581.94	18682.16
582.10	18384.91
582.26	18597.90
582.42	18824.93
582.58	18848.33
582.74	18707.90
582.90	18665.77
583.06	18726.63
583.22	18551.09
583.38	18747.69
583.54	18506.62
583.70	18602.58
583.86	18780.46
584.02	18572.15
584.18	18810.89
584.34	19054.30
584.50	18981.74
584.66	18595.56
584.82	18513.64
584.98	18862.38
585.14	18560.45
585.30	18733.65
585.46	18815.57
585.62	18455.12
585.78	18923.23
585.94	18792.16
586.10	18918.55
586.26	18523.00
586.42	18909.19
586.58	18841.31
586.74	18445.76
586.90	18480.87
587.06	18527.68
587.22	18724.29
587.38	18773.44
587.54	19070.68
587.70	18707.90
587.86	19215.80
588.02	18595.56
588.18	18574.49
588.34	18785.14
588.49	18625.98
588.65	18342.78
588.81	18604.92
588.97	18977.06
589.13	19129.20
589.29	18834.29
589.45	18735.99
589.61	18860.04
589.77	18869.40
589.93	18675.13
590.08	18831.95
590.24	18813.23
590.40	18810.89
590.56	18803.86
590.72	18691.52
590.88	18630.66
591.04	18808.54
591.20	18991.11
591.35	19030.90
591.51	19122.18
591.67	18761.73
591.83	19005.15
591.99	18815.57
592.15	18621.30
592.31	18665.77
592.46	19021.53
592.62	18785.14
592.78	18689.18
592.94	18775.78
593.10	18731.31
