SpectraSuite Data File
++++++++++++++++++++++++++++++++++++
Date: Fri Oct 04 11:48:20 GMT-05:00 2013
User: price-jones
Dark Spectrum Present: No
Reference Spectrum Present: No
Number of Sampled Component Spectra: 1
Spectrometers: USB2+H05261
Integration Time (usec): 100000 (USB2+H05261)
Spectra Averaged: 1 (USB2+H05261)
Boxcar Smoothing: 0 (USB2+H05261)
Correct for Electrical Dark: No (USB2+H05261)
Strobe/Lamp Enabled: No (USB2+H05261)
Correct for Detector Non-linearity: No (USB2+H05261)
Correct for Stray Light: No (USB2+H05261)
Number of Pixels in Processed Spectrum: 2048
>>>>>Begin Processed Spectral Data<<<<<
365.73	0.00
365.92	0.00
366.12	0.00
366.32	2.34
366.52	0.00
366.72	0.00
366.91	0.00
367.11	0.00
367.31	0.00
367.51	0.00
367.70	0.00
367.90	0.00
368.10	0.00
368.30	0.00
368.49	0.00
368.69	0.00
368.89	0.00
369.09	0.00
369.28	0.00
369.48	0.00
369.68	0.00
369.87	30.43
370.07	42.13
370.27	56.17
370.47	86.60
370.66	77.24
370.86	152.13
371.06	191.92
371.25	208.31
371.45	77.24
371.65	236.39
371.84	243.42
372.04	168.52
372.24	215.33
372.44	180.22
372.63	222.35
372.83	280.86
373.03	210.65
373.22	149.79
373.42	257.46
373.62	180.22
373.81	227.03
374.01	238.73
374.21	196.60
374.40	287.89
374.60	187.24
374.79	201.29
374.99	222.35
375.19	283.20
375.38	229.37
375.58	203.63
375.78	308.95
375.97	271.50
376.17	330.02
376.37	227.03
376.56	301.93
376.76	285.55
376.95	205.97
377.15	285.55
377.35	294.91
377.54	222.35
377.74	264.48
377.93	220.01
378.13	308.95
378.33	236.39
378.52	229.37
378.72	234.05
378.91	285.55
379.11	231.71
379.31	290.23
379.50	166.18
379.70	243.42
379.89	262.14
380.09	212.99
380.28	227.03
380.48	252.78
380.68	297.25
380.87	311.29
381.07	269.16
381.26	290.23
381.46	262.14
381.65	262.14
381.85	262.14
382.04	287.89
382.24	306.61
382.43	264.48
382.63	191.92
382.83	259.80
383.02	320.65
383.22	292.57
383.41	231.71
383.61	262.14
383.80	320.65
384.00	252.78
384.19	315.97
384.39	297.25
384.58	325.33
384.78	273.84
384.97	269.16
385.17	313.63
385.36	224.69
385.56	280.86
385.75	290.23
385.95	285.55
386.14	318.31
386.34	332.36
386.53	330.02
386.72	271.50
386.92	304.27
387.11	337.04
387.31	318.31
387.50	332.36
387.70	273.84
387.89	318.31
388.09	255.12
388.28	313.63
388.48	376.83
388.67	292.57
388.86	325.33
389.06	315.97
389.25	327.68
389.45	320.65
389.64	262.14
389.84	400.23
390.03	341.72
390.22	318.31
390.42	372.15
390.61	292.57
390.81	372.15
391.00	358.10
391.19	397.89
391.39	393.21
391.58	322.99
391.78	388.53
391.97	369.80
392.16	290.23
392.36	500.87
392.55	437.68
392.75	402.57
392.94	456.40
393.13	402.57
393.33	421.30
393.52	454.06
393.71	505.56
393.91	395.55
394.10	337.04
394.29	451.72
394.49	498.53
394.68	470.45
394.88	477.47
395.07	477.47
395.26	505.56
395.46	521.94
395.65	512.58
395.84	470.45
396.04	498.53
396.23	512.58
396.42	528.96
396.62	472.79
396.81	531.30
397.00	559.39
397.19	564.07
397.39	540.66
397.58	514.92
397.77	517.26
397.97	589.82
398.16	603.86
398.35	573.43
398.55	550.03
398.74	627.26
398.93	631.94
399.12	629.60
399.32	601.52
399.51	552.37
399.70	594.50
399.90	613.22
400.09	669.39
400.28	690.46
400.47	629.60
400.67	683.44
400.86	559.39
401.05	683.44
401.24	650.67
401.44	676.41
401.63	702.16
401.82	688.12
402.01	706.84
402.21	702.16
402.40	669.39
402.59	753.65
402.78	770.04
402.97	767.70
403.17	746.63
403.36	683.44
403.55	851.96
403.74	819.19
403.93	798.12
404.13	786.42
404.32	802.80
404.51	924.51
404.70	840.25
404.89	821.53
405.09	896.43
405.28	842.59
405.47	880.04
405.66	1020.47
405.85	889.40
406.05	882.38
406.24	973.66
406.43	950.26
406.62	968.98
406.81	1057.92
407.00	945.58
407.20	1060.26
407.39	976.00
407.58	1039.20
407.77	1025.15
407.96	1036.86
408.15	1064.94
408.34	1036.86
408.54	1060.26
408.73	1071.97
408.92	1188.99
409.11	1221.76
409.30	1121.12
409.49	1130.48
409.68	1174.95
409.87	1256.87
410.07	1156.22
410.26	1238.14
410.45	1270.91
410.64	1196.01
410.83	1219.42
411.02	1242.82
411.21	1280.27
411.40	1289.64
411.59	1390.28
411.78	1306.02
411.98	1270.91
412.17	1394.96
412.36	1409.00
412.55	1430.07
412.74	1467.52
412.93	1528.37
413.12	1423.05
413.31	1563.48
413.50	1514.33
413.69	1444.11
413.88	1565.82
414.07	1533.05
414.26	1577.52
414.45	1533.05
414.64	1586.88
414.83	1605.61
415.02	1614.97
415.22	1708.59
415.41	1678.16
415.60	1666.46
415.79	1706.25
415.98	1795.19
416.17	1727.32
416.36	1720.29
416.55	1706.25
416.74	1839.66
416.93	1771.79
417.12	1865.41
417.31	1851.36
417.50	1928.60
417.69	1977.75
417.88	1867.75
418.07	1827.96
418.26	1809.23
418.45	1996.48
418.64	2012.86
418.83	2040.95
419.02	2026.90
419.21	1961.37
419.39	2012.86
419.58	2029.24
419.77	1984.77
419.96	2036.27
420.15	2134.57
420.34	2038.61
420.53	2099.46
420.72	2085.42
420.91	1991.80
421.10	2136.91
421.29	2256.28
421.48	2193.08
421.67	2242.23
421.86	2146.27
422.05	2298.41
422.24	2172.02
422.43	2132.23
422.61	2267.98
422.80	2207.13
422.99	2202.44
423.18	2305.43
423.37	2260.96
423.56	2303.09
423.75	2181.38
423.94	2228.19
424.13	2172.02
424.32	2108.82
424.50	2296.07
424.69	2260.96
424.88	2260.96
425.07	2228.19
425.26	2345.22
425.45	2251.60
425.64	2218.83
425.83	2305.43
426.01	2307.77
426.20	2270.32
426.39	2331.17
426.58	2326.49
426.77	2370.96
426.96	2319.47
427.15	2265.64
427.33	2296.07
427.52	2340.54
427.71	2399.05
427.90	2436.50
428.09	2403.73
428.28	2413.09
428.46	2410.75
428.65	2565.23
428.84	2392.03
429.03	2469.27
429.22	2380.32
429.40	2499.69
429.59	2436.50
429.78	2487.99
429.97	2406.07
430.16	2583.95
430.34	2495.01
430.53	2633.10
430.72	2595.65
430.91	2502.03
431.10	2546.50
431.28	2640.12
431.47	2530.12
431.66	2567.57
431.85	2586.29
432.03	2689.28
432.22	2750.13
432.41	2621.40
432.60	2724.38
432.79	2754.81
432.97	2682.25
433.16	2825.03
433.35	2750.13
433.54	2773.53
433.72	2815.66
433.91	2717.36
434.10	2834.39
434.28	2733.75
434.47	2759.49
434.66	2892.90
434.85	2857.79
435.03	2862.48
435.22	2810.98
435.41	2958.44
435.59	2942.05
435.78	2953.76
435.97	2949.08
436.16	3070.78
436.34	2953.76
436.53	3056.74
436.72	2935.03
436.90	2981.84
437.09	3045.04
437.28	2913.97
437.46	3014.61
437.65	2979.50
437.84	3073.12
438.02	3049.72
438.21	3138.66
438.40	2939.71
438.58	3208.87
438.77	3052.06
438.96	3232.28
439.14	3173.77
439.33	3286.11
439.52	3316.54
439.70	3288.45
439.89	3398.46
440.08	3204.19
440.26	3297.81
440.45	3435.91
440.63	3480.38
440.82	3499.10
441.01	3471.01
441.19	3536.55
441.38	3646.55
441.57	3550.59
441.75	3536.55
441.94	3583.36
442.12	3721.45
442.31	3730.81
442.50	3641.87
442.68	3585.70
442.87	3627.83
443.05	3667.62
443.24	3784.65
443.43	3684.00
443.61	3786.99
443.80	3784.65
443.98	3644.21
444.17	3536.55
444.35	3775.28
444.54	3824.44
444.73	3763.58
444.91	3765.92
445.10	3684.00
445.28	3623.15
445.47	3845.50
445.65	3693.37
445.84	3744.86
446.02	3829.12
446.21	3791.67
446.39	3815.07
446.58	3822.09
446.77	3864.22
446.95	3812.73
447.14	3791.67
447.32	3794.01
447.51	3950.82
447.69	3840.82
447.88	3819.75
448.06	3911.04
448.25	3836.14
448.43	3772.94
448.62	3873.59
448.80	4035.08
448.99	4030.40
449.17	4037.42
449.36	3985.93
449.54	3983.59
449.73	4109.98
449.91	4133.39
450.10	4138.07
450.28	4187.22
450.46	4173.18
450.65	4198.92
450.83	4086.58
451.02	4149.77
451.20	4203.60
451.39	4105.30
451.57	4072.53
451.76	4255.09
451.94	4173.18
452.13	4236.37
452.31	4170.83
452.49	4196.58
452.68	4241.05
452.86	4280.84
453.05	4269.14
453.23	4388.50
453.42	4224.67
453.60	4299.56
453.78	4299.56
453.97	4332.33
454.15	4353.40
454.34	4168.49
454.52	4489.15
454.70	4327.65
454.89	4568.73
455.07	4404.89
455.26	4353.40
455.44	4664.69
455.62	4493.83
455.81	4503.19
455.99	4643.62
456.17	4521.92
456.36	4603.83
456.54	4587.45
456.73	4566.39
456.91	4777.03
457.09	4664.69
457.28	4781.71
457.46	4669.37
457.64	4812.14
457.83	4741.93
458.01	4657.67
458.19	4723.20
458.38	4791.08
458.56	4905.76
458.74	4875.34
458.93	4840.23
459.11	4957.25
459.29	4875.34
459.48	4781.71
459.66	4873.00
459.84	5011.09
460.03	5151.52
460.21	4830.87
460.39	4915.12
460.57	5013.43
460.76	5116.41
460.94	5088.32
461.12	5036.83
461.31	5022.79
461.49	5062.58
461.67	5090.67
461.85	5226.42
462.04	5167.90
462.22	5696.86
462.40	5434.72
462.59	5249.82
462.77	5247.48
462.95	5273.23
463.13	5116.41
463.32	5355.15
463.50	5287.27
463.68	5069.60
463.86	5191.31
464.05	5200.67
464.23	5378.55
464.41	5479.19
464.59	5327.06
464.78	5320.04
464.96	5289.61
465.14	5259.18
465.32	5528.35
465.50	5481.53
465.69	5479.19
465.87	5455.79
466.05	5444.09
466.23	5357.49
466.41	5575.16
466.60	5893.47
466.78	5518.98
466.96	5579.84
467.14	5554.09
467.32	5640.69
467.51	5671.12
467.69	5406.64
467.87	5668.78
468.05	5570.48
468.23	5628.99
468.41	5565.79
468.60	5675.80
468.78	5654.73
468.96	5612.60
469.14	5797.51
469.32	5706.23
469.50	5582.18
469.69	5841.98
469.87	5891.13
470.05	5968.37
470.23	5858.36
470.41	5834.96
470.59	6221.14
470.77	5919.21
470.95	5832.62
471.14	6171.99
471.32	5858.36
471.50	6134.54
471.68	6190.72
471.86	6071.35
472.04	6066.67
472.22	6235.19
472.40	6071.35
472.58	6256.25
472.77	6223.48
472.95	6375.62
473.13	6616.69
473.31	6253.91
473.49	6153.27
473.67	6317.11
473.85	6520.73
474.03	6396.68
474.21	6427.11
474.39	6717.34
474.57	6658.82
474.75	6612.01
474.93	6661.16
475.12	6593.29
475.30	6698.61
475.48	6700.95
475.66	6808.62
475.84	7000.54
476.02	6916.28
476.20	6778.19
476.38	6803.94
476.56	7187.79
476.74	7108.21
476.92	7059.06
477.10	7180.76
477.28	7037.99
477.46	6993.52
477.64	7199.49
477.82	7438.22
478.00	7562.27
478.18	7534.18
478.36	7632.49
478.54	7651.21
478.72	7393.75
478.90	7609.08
479.08	7667.60
479.26	7791.64
479.44	7850.16
479.62	8016.33
479.80	8072.51
479.98	8058.46
480.16	8177.83
480.34	8131.02
480.52	8194.22
480.70	8311.24
480.88	8215.28
481.06	8381.46
481.24	8290.18
481.41	8608.49
481.59	8425.93
481.77	8493.80
481.95	8510.19
482.13	8681.05
482.31	8830.84
482.49	8816.80
482.67	9015.74
482.85	9100.00
483.03	9121.07
483.21	9071.92
483.39	9191.28
483.57	9186.60
483.74	9455.76
483.92	9298.95
484.10	9462.79
484.28	9476.83
484.46	9933.23
484.64	9874.72
484.82	9628.96
485.00	9694.50
485.18	9996.43
485.35	10171.97
485.53	9973.02
485.71	10115.80
485.89	10195.37
486.07	10188.35
486.25	10347.51
486.43	10434.11
486.61	10403.68
486.78	10499.64
486.96	10567.52
487.14	10979.45
487.32	10824.98
487.50	10946.69
487.68	10853.06
487.85	11169.04
488.03	11040.31
488.21	11147.97
488.39	11351.60
488.57	11386.71
488.75	11468.62
488.92	11721.40
489.10	11782.26
489.28	11950.78
489.46	11873.54
489.64	11833.75
489.81	12077.16
489.99	12140.36
490.17	12201.21
490.35	12505.48
490.53	12245.68
490.70	12425.90
490.88	12388.46
491.06	12369.73
491.24	12444.63
491.41	12769.96
491.59	12760.60
491.77	12926.78
491.95	12889.33
492.13	13130.41
492.30	13053.17
492.48	13226.37
492.66	13315.31
492.84	13146.79
493.01	13308.29
493.19	13394.89
493.37	13771.71
493.54	13650.00
493.72	14029.17
493.90	13823.20
494.08	13954.27
494.25	13907.46
494.43	14090.02
494.61	14155.56
494.79	14204.71
494.96	14310.04
495.14	14324.08
495.32	14618.99
495.49	14228.12
495.67	14750.06
495.85	14588.56
496.02	14808.57
496.20	14831.97
496.38	14661.12
496.55	14986.45
496.73	15236.89
496.91	15101.14
497.09	15161.99
497.26	15274.34
497.44	15407.75
497.62	15522.43
497.79	15929.69
497.97	15861.81
498.14	15929.69
498.32	15733.08
498.50	15791.59
498.67	15843.09
498.85	15817.34
499.03	16107.57
499.20	15971.82
499.38	15934.37
499.56	16154.38
499.73	16325.24
499.91	16397.79
500.08	16446.94
500.26	16257.36
500.44	16294.81
500.61	16355.66
500.79	16779.30
500.97	16662.27
501.14	16650.57
501.32	16849.52
501.49	16931.44
501.67	16919.73
501.84	16936.12
502.02	17146.76
502.20	17212.30
502.37	17317.62
502.55	16996.97
502.72	16996.97
502.90	17235.70
503.07	17249.75
503.25	17390.18
503.43	17380.82
503.60	17806.80
503.78	17818.50
503.95	17427.63
504.13	17500.19
504.30	17930.84
504.48	17701.47
504.65	17816.16
504.83	18108.72
505.01	18106.38
505.18	18298.31
505.36	18146.17
505.53	18141.49
505.71	18214.05
505.88	18497.25
506.06	18424.70
506.23	18412.99
506.41	18370.86
506.58	18768.76
506.76	18513.64
506.93	18445.76
507.11	18768.76
507.28	18714.92
507.46	19019.19
507.63	18906.85
507.81	19066.00
507.98	18939.62
508.16	19297.72
508.33	19241.54
508.50	19253.25
508.68	19161.97
508.85	19342.19
509.03	19456.87
509.20	19475.60
509.38	19618.37
509.55	19438.15
509.73	19658.16
509.90	19672.20
510.08	19599.65
510.25	19812.63
510.42	19763.48
510.60	19630.07
510.77	20091.16
510.95	20264.36
511.12	19969.45
511.30	20088.82
511.47	20086.48
511.64	20430.54
511.82	20489.05
511.99	20226.91
512.17	20819.07
512.34	20482.03
512.51	20528.84
512.69	20360.32
512.86	20725.44
513.04	20699.70
513.21	20875.24
513.38	20900.98
513.56	20870.56
513.73	20730.12
513.90	20835.45
514.08	20870.56
514.25	20865.88
514.43	21256.75
514.60	20989.92
514.77	21137.38
514.95	21568.04
515.12	21223.98
515.29	21132.70
515.47	21788.05
515.64	21277.81
515.81	21535.27
515.99	21795.07
516.16	21888.69
516.33	21778.68
516.51	21523.57
516.68	21425.26
516.85	21813.79
517.03	21874.65
517.20	22253.81
517.37	22211.68
517.54	22022.10
517.72	22174.24
517.89	21996.35
518.06	21933.16
518.24	21986.99
518.41	22326.37
518.58	22146.15
518.75	22190.62
518.93	22588.51
519.10	22382.54
519.27	22621.28
519.45	22422.33
519.62	22628.30
519.79	22747.67
519.96	22579.15
520.14	23178.33
520.31	22934.91
520.48	22857.67
520.65	22719.58
520.83	23187.69
521.00	23002.78
521.17	23091.73
521.34	23028.53
521.52	22934.91
521.69	23278.97
521.86	23290.67
522.03	23342.16
522.20	23281.31
522.38	23290.67
522.55	23517.70
522.72	23297.69
522.89	23386.63
523.07	23323.44
523.24	23138.54
523.41	23494.30
523.58	23358.55
523.75	23683.88
523.92	23798.57
524.10	23716.65
524.27	24065.39
524.44	24231.57
524.61	24173.05
524.78	23920.28
524.96	24203.48
525.13	24107.52
525.30	24086.45
525.47	24285.40
525.64	24191.78
525.81	24243.27
525.98	24297.10
526.16	24395.40
526.33	24301.78
526.50	24652.86
526.67	24102.84
526.84	24503.07
527.01	24269.01
527.18	24783.93
527.36	24411.79
527.53	24407.11
527.70	25071.82
527.87	25106.93
528.04	24652.86
528.21	24631.80
528.38	24465.62
528.55	25034.37
528.72	25055.43
528.89	25158.42
529.07	24837.76
529.24	24842.45
529.41	24847.13
529.58	24858.83
529.75	24945.43
529.92	25294.17
530.09	25158.42
530.26	25310.55
530.43	25160.76
530.60	24905.64
530.77	25125.65
530.94	25095.22
531.11	25312.89
531.28	25582.06
531.46	25469.71
531.63	25605.46
531.80	25685.04
531.97	25596.10
532.14	26015.05
532.31	25649.93
532.48	25802.07
532.65	25558.65
532.82	25572.69
532.99	25542.27
533.16	25546.95
533.33	26087.61
533.50	26429.33
533.67	25926.11
533.84	25916.75
534.01	25996.33
534.18	26045.48
534.35	26125.06
534.52	26026.76
534.69	26445.71
534.86	26335.71
535.03	26078.25
535.20	26473.80
535.37	26155.49
535.54	26471.46
535.71	25933.14
535.88	26356.77
536.05	26206.98
536.22	26714.87
536.38	26485.50
536.55	26576.78
536.72	26651.68
536.89	26356.77
537.06	26347.41
537.23	26684.45
537.40	26867.01
537.57	26328.69
537.74	26637.64
537.91	27098.72
538.08	27054.25
538.25	26740.62
538.42	26602.53
538.59	27075.32
538.75	26714.87
538.92	26717.22
539.09	27234.47
539.26	27110.43
539.43	26991.06
539.60	27080.00
539.77	26888.07
539.94	26831.90
540.11	27236.81
540.28	27344.48
540.44	26972.33
540.61	27028.51
540.78	26909.14
540.95	27449.80
541.12	27543.42
541.29	27236.81
541.46	27346.82
541.62	27859.40
541.79	27435.76
541.96	26749.98
542.13	27262.56
542.30	27503.64
542.47	27615.98
542.63	27623.00
542.80	27686.20
542.97	27737.69
543.14	27882.80
543.31	28032.60
543.48	27831.31
543.64	28048.98
543.81	28025.57
543.98	27747.05
544.15	27861.74
544.32	27995.15
544.48	28205.80
544.65	28240.90
544.82	27768.12
544.99	27931.95
545.16	28105.15
545.32	27793.86
545.49	28168.35
545.66	28379.00
545.83	28360.27
546.00	28400.06
546.16	28070.04
546.33	28063.02
546.50	27892.16
546.67	28383.68
546.83	28006.85
547.00	28250.27
547.17	28210.48
547.34	28484.32
547.50	28638.80
547.67	28591.98
547.84	28395.38
548.00	28664.54
548.17	29085.84
548.34	28985.19
548.51	28657.52
548.67	28723.05
548.84	28690.29
549.01	28484.32
549.18	28589.64
549.34	28556.88
549.51	28666.88
549.68	29085.84
549.84	28397.72
550.01	28718.37
550.18	28814.34
550.34	28833.06
550.51	29022.64
550.68	29132.65
550.84	28690.29
551.01	29362.02
551.18	28659.86
551.34	28720.71
551.51	29240.31
551.68	29010.94
551.84	29017.96
552.01	28840.08
552.18	28868.17
552.34	29050.73
552.51	29303.51
552.68	28891.57
552.84	29441.60
553.01	29535.22
553.18	29315.21
553.34	29553.94
553.51	29387.77
553.67	29294.14
553.84	29362.02
554.01	29481.39
554.17	29158.39
554.34	29315.21
554.51	28926.68
554.67	29294.14
554.84	29553.94
555.00	29427.56
555.17	29357.34
555.33	29521.18
555.50	29383.09
555.67	29249.67
555.83	29539.90
556.00	29427.56
556.16	29773.95
556.33	29427.56
556.50	29790.34
556.66	29649.91
556.83	29586.71
556.99	29865.24
557.16	29862.90
557.32	29689.70
557.49	29750.55
557.65	29500.11
557.82	29556.28
557.98	29343.30
558.15	29858.21
558.32	29811.40
558.48	29680.33
558.65	30003.33
558.81	29675.65
558.98	29530.54
559.14	29596.07
559.31	29703.74
559.47	29762.25
559.64	29692.04
559.80	29731.83
559.97	30057.16
560.13	29687.36
560.30	30045.46
560.46	30029.07
560.63	29507.13
560.79	29984.60
560.96	30239.72
561.12	29930.77
561.29	30082.91
561.45	30235.04
561.61	29809.06
561.78	29619.48
561.94	30146.10
562.11	29965.88
562.27	30366.11
562.44	30061.84
562.60	29926.09
562.77	30328.66
562.93	29996.31
563.10	30326.32
563.26	29890.98
563.42	30012.69
563.59	30211.64
563.75	30230.36
563.92	30333.34
564.08	29797.36
564.24	29951.84
564.41	30183.55
564.57	30319.30
564.74	29724.80
564.90	30022.05
565.07	30225.68
565.23	30106.31
565.39	30345.05
565.56	30265.47
565.72	29715.44
565.88	30415.26
566.05	30618.89
566.21	30160.14
566.38	29991.62
566.54	30263.13
566.70	30335.68
566.87	30295.89
567.03	30321.64
567.19	30412.92
567.36	30141.42
567.52	30218.66
567.68	30181.21
567.85	30157.80
568.01	30279.51
568.17	30202.27
568.34	30096.95
568.50	30160.14
568.66	30274.83
568.83	30558.03
568.99	30492.50
569.15	30513.56
569.32	30181.21
569.48	30040.78
569.64	30316.96
569.81	30487.82
569.97	30478.46
570.13	30230.36
570.30	30391.86
570.46	30515.90
570.62	30728.89
570.78	30101.63
570.95	29832.47
571.11	30363.77
571.27	30237.38
571.43	30029.07
571.60	30181.21
571.76	29989.28
571.92	30448.03
572.09	30349.73
572.25	30436.33
572.41	30665.70
572.57	30232.70
572.74	30478.46
572.90	30396.54
573.06	30632.93
573.22	30230.36
573.38	30607.19
573.55	30721.87
573.71	30761.66
573.87	30122.69
574.03	30256.11
574.20	30450.37
574.36	29919.07
574.52	30546.33
574.68	30452.71
574.84	30363.77
575.01	30267.81
575.17	30506.54
575.33	30251.42
575.49	30272.49
575.65	31070.61
575.82	30387.18
575.98	30441.01
576.14	30366.11
576.30	30422.28
576.46	30249.08
576.62	30740.60
576.79	30361.43
576.95	30464.41
577.11	30670.38
577.27	30188.23
577.43	30384.83
577.59	30515.90
577.75	30284.19
577.92	30473.78
578.08	30368.45
578.24	29963.54
578.40	30553.35
578.56	30885.71
578.72	30691.44
578.88	31058.91
579.04	30558.03
579.21	30349.73
579.37	30981.67
579.53	30792.09
579.69	30438.67
579.85	30675.06
580.01	30506.54
580.17	30572.08
580.33	30742.94
580.49	30448.03
580.65	30651.66
580.82	30728.89
580.98	30401.22
581.14	30686.76
581.30	30951.24
581.46	30118.01
581.62	30141.42
581.78	30323.98
581.94	30836.56
582.10	30686.76
582.26	30756.98
582.42	31061.25
582.58	30625.91
582.74	30731.23
582.90	30586.12
583.06	30345.05
583.22	30532.29
583.38	30281.85
583.54	30492.50
583.70	30506.54
583.86	30668.04
584.02	30319.30
584.18	30462.07
584.34	30728.89
584.50	30529.95
584.66	30293.55
584.82	30398.88
584.98	30888.05
585.14	30445.69
585.30	30157.80
585.46	30670.38
585.62	30445.69
585.78	30738.26
585.94	30536.97
586.10	30658.68
586.26	30883.37
586.42	30878.69
586.58	30345.05
586.74	30558.03
586.90	30508.88
587.06	30085.25
587.22	30497.18
587.38	30382.49
587.54	30639.95
587.70	30597.82
587.86	30677.40
588.02	30529.95
588.18	30679.74
588.34	30775.70
588.49	30408.24
588.65	30562.72
588.81	30824.86
588.97	30885.71
589.13	30595.48
589.29	30843.58
589.45	30602.50
589.61	30897.41
589.77	30874.01
589.93	31283.60
590.08	30979.33
590.24	30951.24
590.40	30513.56
590.56	30684.42
590.72	30747.62
590.88	30431.65
591.04	30775.70
591.20	31409.99
591.35	30892.73
591.51	31222.75
591.67	31096.36
591.83	30773.36
