SpectraSuite Data File
++++++++++++++++++++++++++++++++++++
Date: Fri Oct 04 11:48:20 GMT-05:00 2013
User: price-jones
Dark Spectrum Present: No
Reference Spectrum Present: No
Number of Sampled Component Spectra: 1
Spectrometers: USB2+H05261
Integration Time (usec): 100000 (USB2+H05261)
Spectra Averaged: 1 (USB2+H05261)
Boxcar Smoothing: 0 (USB2+H05261)
Correct for Electrical Dark: No (USB2+H05261)
Strobe/Lamp Enabled: No (USB2+H05261)
Correct for Detector Non-linearity: No (USB2+H05261)
Correct for Stray Light: No (USB2+H05261)
Number of Pixels in Processed Spectrum: 2048
>>>>>Begin Processed Spectral Data<<<<<
365.73	28.09
365.92	28.09
366.12	28.09
366.32	0.00
366.52	0.00
366.72	0.00
366.91	0.00
367.11	0.00
367.31	0.00
367.51	0.00
367.70	0.00
367.90	0.00
368.10	0.00
368.30	0.00
368.49	0.00
368.69	0.00
368.89	0.00
369.09	0.00
369.28	0.00
369.48	0.00
369.68	28.09
369.87	0.00
370.07	0.00
370.27	0.00
370.47	81.92
370.66	49.15
370.86	63.19
371.06	56.17
371.25	142.77
371.45	77.24
371.65	37.45
371.84	166.18
372.04	121.71
372.24	138.09
372.44	124.05
372.63	112.35
372.83	163.84
373.03	124.05
373.22	156.82
373.42	119.37
373.62	131.07
373.81	152.13
374.01	182.56
374.21	175.54
374.40	168.52
374.60	163.84
374.79	161.50
374.99	110.01
375.19	93.62
375.38	163.84
375.58	170.86
375.78	215.33
375.97	58.51
376.17	182.56
376.37	163.84
376.56	119.37
376.76	79.58
376.95	161.50
377.15	166.18
377.35	67.88
377.54	187.24
377.74	119.37
377.93	212.99
378.13	128.73
378.33	212.99
378.52	168.52
378.72	105.32
378.91	180.22
379.11	100.64
379.31	112.35
379.50	168.52
379.70	124.05
379.89	180.22
380.09	229.37
380.28	121.71
380.48	105.32
380.68	117.03
380.87	154.48
381.07	149.79
381.26	152.13
381.46	152.13
381.65	138.09
381.85	128.73
382.04	142.77
382.24	124.05
382.43	112.35
382.63	142.77
382.83	105.32
383.02	138.09
383.22	126.39
383.41	100.64
383.61	154.48
383.80	189.58
384.00	133.41
384.19	142.77
384.39	131.07
384.58	182.56
384.78	161.50
384.97	159.16
385.17	177.88
385.36	198.95
385.56	114.69
385.75	187.24
385.95	156.82
386.14	182.56
386.34	152.13
386.53	245.76
386.72	126.39
386.92	156.82
387.11	163.84
387.31	198.95
387.50	91.28
387.70	121.71
387.89	145.11
388.09	187.24
388.28	156.82
388.48	142.77
388.67	187.24
388.86	238.73
389.06	124.05
389.25	184.90
389.45	229.37
389.64	163.84
389.84	205.97
390.03	184.90
390.22	163.84
390.42	210.65
390.61	180.22
390.81	163.84
391.00	177.88
391.19	224.69
391.39	243.42
391.58	259.80
391.78	238.73
391.97	236.39
392.16	194.26
392.36	215.33
392.55	222.35
392.75	259.80
392.94	161.50
393.13	271.50
393.33	173.20
393.52	236.39
393.71	217.67
393.91	191.92
394.10	210.65
394.29	191.92
394.49	222.35
394.68	194.26
394.88	264.48
395.07	215.33
395.26	196.60
395.46	257.46
395.65	294.91
395.84	266.82
396.04	297.25
396.23	330.02
396.42	217.67
396.62	229.37
396.81	205.97
397.00	222.35
397.19	203.63
397.39	271.50
397.58	255.12
397.77	220.01
397.97	320.65
398.16	269.16
398.35	241.08
398.55	334.70
398.74	332.36
398.93	273.84
399.12	271.50
399.32	215.33
399.51	283.20
399.70	299.59
399.90	337.04
400.09	280.86
400.28	348.74
400.47	308.95
400.67	285.55
400.86	313.63
401.05	341.72
401.24	318.31
401.44	313.63
401.63	315.97
401.82	360.44
402.01	414.27
402.21	304.27
402.40	425.98
402.59	351.08
402.78	390.87
402.97	346.40
403.17	360.44
403.36	400.23
403.55	362.78
403.74	388.53
403.93	353.42
404.13	437.68
404.32	372.15
404.51	388.53
404.70	409.59
404.89	355.76
405.09	545.34
405.28	362.78
405.47	528.96
405.66	465.77
405.85	472.79
406.05	400.23
406.24	423.64
406.43	458.74
406.62	514.92
406.81	554.71
407.00	533.64
407.20	561.73
407.39	507.90
407.58	498.53
407.77	463.43
407.96	550.03
408.15	535.98
408.34	643.65
408.54	514.92
408.73	564.07
408.92	606.20
409.11	638.97
409.30	559.39
409.49	589.82
409.68	564.07
409.87	599.18
410.07	568.75
410.26	582.79
410.45	627.26
410.64	578.11
410.83	585.13
411.02	627.26
411.21	631.94
411.40	645.99
411.59	638.97
411.78	648.33
411.98	669.39
412.17	685.78
412.36	683.44
412.55	664.71
412.74	779.40
412.93	744.29
413.12	711.52
413.31	788.76
413.50	657.69
413.69	741.95
413.88	816.85
414.07	800.46
414.26	777.06
414.45	779.40
414.64	816.85
414.83	709.18
415.02	739.61
415.22	807.48
415.41	891.74
415.60	835.57
415.79	788.76
415.98	915.15
416.17	917.49
416.36	910.47
416.55	851.96
416.74	880.04
416.93	884.72
417.12	896.43
417.31	877.70
417.50	917.49
417.69	1006.43
417.88	994.73
418.07	873.02
418.26	1032.18
418.45	938.55
418.64	1060.26
418.83	983.02
419.02	1022.81
419.21	922.17
419.39	994.73
419.58	971.32
419.77	945.58
419.96	971.32
420.15	1062.60
420.34	1067.28
420.53	985.37
420.72	1086.01
420.91	1039.20
421.10	1060.26
421.29	1090.69
421.48	1114.10
421.67	1093.03
421.86	1081.33
422.05	1029.84
422.24	1137.50
422.43	1076.65
422.61	1144.52
422.80	1090.69
422.99	1100.05
423.18	1107.07
423.37	1114.10
423.56	1078.99
423.75	1050.90
423.94	1057.92
424.13	1050.90
424.32	1111.75
424.50	1118.78
424.69	1139.84
424.88	1174.95
425.07	1053.24
425.26	1139.84
425.45	1071.97
425.64	1053.24
425.83	1118.78
426.01	1256.87
426.20	1097.71
426.39	1224.10
426.58	1121.12
426.77	1221.76
426.96	1118.78
427.15	1217.08
427.33	1048.56
427.52	1224.10
427.71	1100.05
427.90	1228.78
428.09	1196.01
428.28	1205.38
428.46	1217.08
428.65	1249.85
428.84	1266.23
429.03	1317.72
429.22	1214.74
429.40	1205.38
429.59	1200.69
429.78	1132.82
429.97	1235.80
430.16	1188.99
430.34	1268.57
430.53	1174.95
430.72	1371.55
430.91	1270.91
431.10	1196.01
431.28	1296.66
431.47	1331.76
431.66	1313.04
431.85	1310.70
432.03	1334.11
432.22	1430.07
432.41	1404.32
432.60	1247.51
432.79	1315.38
432.97	1423.05
433.16	1373.89
433.35	1334.11
433.54	1357.51
433.72	1315.38
433.91	1380.92
434.10	1336.45
434.28	1444.11
434.47	1418.36
434.66	1348.15
434.85	1399.64
435.03	1322.40
435.22	1439.43
435.41	1455.81
435.59	1406.66
435.78	1511.99
435.97	1334.11
436.16	1486.24
436.34	1507.30
436.53	1535.39
436.72	1500.28
436.90	1502.62
437.09	1420.71
437.28	1486.24
437.46	1516.67
437.65	1413.68
437.84	1460.49
438.02	1472.20
438.21	1481.56
438.40	1540.07
438.58	1540.07
438.77	1671.14
438.96	1509.65
439.14	1516.67
439.33	1572.84
439.52	1561.14
439.70	1671.14
439.89	1638.38
440.08	1626.67
440.26	1617.31
440.45	1638.38
440.63	1638.38
440.82	1706.25
441.01	1736.68
441.19	1661.78
441.38	1820.94
441.57	1703.91
441.75	1746.04
441.94	1820.94
442.12	1732.00
442.31	1792.85
442.50	1813.92
442.68	1664.12
442.87	1741.36
443.05	1720.29
443.24	1813.92
443.43	1895.83
443.61	1884.13
443.80	1813.92
443.98	1771.79
444.17	1762.42
444.35	1799.87
444.54	1846.68
444.73	1856.04
444.91	1827.96
445.10	1856.04
445.28	1825.62
445.47	1804.55
445.65	1870.09
445.84	1834.98
446.02	1935.62
446.21	1806.89
446.39	1879.45
446.58	1851.36
446.77	1900.52
446.95	1823.28
447.14	1867.75
447.32	1797.53
447.51	1980.09
447.69	1858.39
447.88	1928.60
448.06	1970.73
448.25	1872.43
448.43	1790.51
448.62	1788.17
448.80	2019.88
448.99	1994.14
449.17	1825.62
449.36	1963.71
449.54	2008.18
449.73	1987.11
449.91	2106.48
450.10	2036.27
450.28	2087.76
450.46	2026.90
450.65	2141.59
450.83	2012.86
451.02	2012.86
451.20	1937.96
451.39	2113.50
451.57	1998.82
451.76	2045.63
451.94	2099.46
452.13	2059.67
452.31	2059.67
452.49	2047.97
452.68	2073.71
452.86	2019.88
453.05	2143.93
453.23	2153.29
453.42	2036.27
453.60	2113.50
453.78	2033.93
453.97	2064.35
454.15	2118.18
454.34	1919.24
454.52	2129.89
454.70	2104.14
454.89	2179.04
455.07	2193.08
455.26	2228.19
455.44	2167.34
455.62	2202.44
455.81	2298.41
455.99	2172.02
456.17	2190.74
456.36	2265.64
456.54	2216.49
456.73	2237.55
456.91	2345.22
457.09	2319.47
457.28	2368.62
457.46	2251.60
457.64	2303.09
457.83	2260.96
458.01	2296.07
458.19	2417.77
458.38	2345.22
458.56	2258.62
458.74	2319.47
458.93	2448.20
459.11	2265.64
459.29	2387.35
459.48	2373.30
459.66	2377.98
459.84	2356.92
460.03	2504.37
460.21	2429.48
460.39	2466.92
460.57	2359.26
460.76	2656.51
460.94	2436.50
461.12	2431.82
461.31	2424.80
461.49	2492.67
461.67	2394.37
461.85	2523.10
462.04	2544.16
462.22	2993.55
462.40	2607.36
462.59	2502.03
462.77	2513.74
462.95	2462.24
463.13	2438.84
463.32	2520.76
463.50	2448.20
463.68	2537.14
463.86	2548.84
464.05	2642.46
464.23	2513.74
464.41	2546.50
464.59	2537.14
464.78	2583.95
464.96	2658.85
465.14	2630.76
465.32	2623.74
465.50	2677.57
465.69	2637.78
465.87	2609.70
466.05	2579.27
466.23	2733.75
466.41	2668.21
466.60	2780.56
466.78	2619.06
466.96	2576.93
467.14	2757.15
467.32	2740.77
467.51	2768.85
467.69	2583.95
467.87	2836.73
468.05	2712.68
468.23	2670.55
468.41	2717.36
468.60	2672.89
468.78	2700.98
468.96	2609.70
469.14	2733.75
469.32	2904.60
469.50	2675.23
469.69	2848.43
469.87	2913.97
470.05	2815.66
470.23	2904.60
470.41	2850.77
470.59	2806.30
470.77	2918.65
470.95	2869.50
471.14	2902.26
471.32	2911.63
471.50	2993.55
471.68	2932.69
471.86	2932.69
472.04	2925.67
472.22	2890.56
472.40	2963.12
472.58	3028.65
472.77	2956.10
472.95	2916.31
473.13	3148.02
473.31	2965.46
473.49	3070.78
473.67	2918.65
473.85	3105.89
474.03	2981.84
474.21	3164.40
474.39	3180.79
474.57	3187.81
474.75	3075.46
474.93	3328.24
475.12	3119.93
475.30	3227.60
475.48	3206.53
475.66	3265.05
475.84	3283.77
476.02	3372.71
476.20	3215.90
476.38	3215.90
476.56	3396.12
476.74	3290.79
476.92	3403.14
477.10	3447.61
477.28	3410.16
477.46	3522.51
477.64	3517.83
477.82	3524.85
478.00	3475.70
478.18	3599.74
478.36	3585.70
478.54	3733.15
478.72	3524.85
478.90	3658.26
479.08	3747.20
479.26	3737.84
479.44	3756.56
479.62	3686.34
479.80	3796.35
479.98	3763.58
480.16	3892.31
480.34	3878.27
480.52	3936.78
480.70	3925.08
480.88	3716.77
481.06	3981.25
481.24	3936.78
481.41	3997.64
481.59	4166.15
481.77	4229.35
481.95	4135.73
482.13	4182.54
482.31	4140.41
482.49	4231.69
482.67	4285.52
482.85	4341.69
483.03	4318.29
483.21	4374.46
483.39	4425.95
483.57	4400.21
483.74	4498.51
483.92	4496.17
484.10	4428.29
484.28	4578.09
484.46	4585.11
484.64	4765.33
484.82	4718.52
485.00	4657.67
485.18	4592.13
485.35	4814.48
485.53	4809.80
485.71	4819.16
485.89	4910.44
486.07	4926.83
486.25	4938.53
486.43	5008.75
486.61	4954.91
486.78	5151.52
486.96	5043.85
487.14	5181.95
487.32	5235.78
487.50	5132.79
487.68	5329.40
487.85	5397.28
488.03	5437.06
488.21	5605.58
488.39	5418.34
488.57	5570.48
488.75	5528.35
488.92	5708.57
489.10	5621.97
489.28	5640.69
489.46	5540.05
489.64	5561.11
489.81	5799.85
489.99	5682.82
490.17	5696.86
490.35	5956.66
490.53	5593.88
490.70	5785.80
490.88	5853.68
491.06	6012.84
491.24	5877.09
491.41	6141.57
491.59	6073.69
491.77	6003.47
491.95	6083.05
492.13	5980.07
492.30	6160.29
492.48	6164.97
492.66	6312.42
492.84	6169.65
493.01	6167.31
493.19	6342.85
493.37	6415.41
493.54	6291.36
493.72	6431.79
493.90	6513.71
494.08	6597.97
494.25	6583.93
494.43	6604.99
494.61	6736.06
494.79	6644.78
494.96	6825.00
495.14	6722.02
495.32	6913.94
495.49	6951.39
495.67	6815.64
495.85	6932.67
496.02	6778.19
496.20	7037.99
496.38	7126.93
496.55	6995.86
496.73	7129.27
496.91	6988.84
497.09	7063.74
497.26	7150.34
497.44	7164.38
497.62	7166.72
497.79	7335.24
497.97	7164.38
498.14	7478.01
498.32	7531.84
498.50	7571.63
498.67	7513.12
498.85	7618.44
499.03	7592.70
499.20	7283.75
499.38	7480.35
499.56	7515.46
499.73	7843.14
499.91	7616.10
500.08	7735.47
500.26	7758.88
500.44	7637.17
500.61	7845.48
500.79	7744.83
500.97	7859.52
501.14	7981.23
501.32	8131.02
501.49	7852.50
501.67	7845.48
501.84	8011.65
502.02	7915.69
502.20	7978.89
502.37	8175.49
502.55	7903.99
502.72	8030.38
502.90	8070.17
503.07	8140.38
503.25	8168.47
503.43	8149.75
503.60	8187.19
503.78	8292.52
503.95	8243.37
504.13	8210.60
504.30	8285.50
504.48	8226.98
504.65	8346.35
504.83	8479.76
505.01	8505.51
505.18	8578.06
505.36	8746.58
505.53	8580.40
505.71	8500.83
505.88	8573.38
506.06	8594.45
506.23	8578.06
506.41	8741.90
506.58	8690.41
506.76	8613.17
506.93	8697.43
507.11	8498.49
507.28	8613.17
507.46	8835.52
507.63	8812.12
507.81	8809.78
507.98	8748.92
508.16	8943.19
508.33	8982.98
508.50	9008.72
508.68	9092.98
508.85	9214.69
509.03	8971.27
509.20	9008.72
509.38	9195.96
509.55	9179.58
509.73	9036.81
509.90	9018.08
510.08	9312.99
510.25	9362.14
510.42	9437.04
510.60	9334.06
510.77	9518.96
510.95	9408.95
511.12	9275.54
511.30	9249.80
511.47	9420.66
511.64	9497.89
511.82	9692.16
511.99	9563.43
512.17	9483.85
512.34	9551.73
512.51	9764.72
512.69	9572.79
512.86	9858.34
513.04	9717.90
513.21	9753.01
513.38	9584.49
513.56	9659.39
513.73	9570.45
513.90	9891.10
514.08	9689.82
514.25	9980.04
514.43	9792.80
514.60	9958.98
514.77	9963.66
514.95	9781.10
515.12	9757.69
515.29	9935.57
515.47	9916.85
515.64	10031.54
515.81	9968.34
515.99	9984.73
516.16	10195.37
516.33	10239.84
516.51	10420.06
516.68	9991.75
516.85	10040.90
517.03	10312.40
517.20	10279.63
517.37	10345.17
517.54	10349.85
517.72	10221.12
517.89	10413.04
518.06	10284.31
518.24	10324.10
518.41	10270.27
518.58	10359.21
518.75	10579.22
518.93	10457.51
519.10	10345.17
519.27	10361.55
519.45	10420.06
519.62	10707.95
519.79	10509.01
519.96	10434.11
520.14	10586.24
520.31	10602.63
520.48	10647.10
520.65	10604.97
520.83	10630.71
521.00	10810.93
521.17	10747.74
521.34	10562.84
521.52	10794.55
521.69	10796.89
521.86	10897.53
522.03	10904.56
522.20	11014.56
522.38	10820.30
522.55	10883.49
522.72	10949.03
522.89	10874.13
523.07	11215.85
523.24	10881.15
523.41	11054.35
523.58	10946.69
523.75	11101.16
523.92	11061.37
524.10	11082.44
524.27	11087.12
524.44	11073.07
524.61	11138.61
524.78	11159.67
524.96	11152.65
525.13	11073.07
525.30	11302.45
525.47	11265.00
525.64	11489.69
525.81	11206.48
525.98	11435.86
526.16	11248.61
526.33	11276.70
526.50	11426.50
526.67	11129.25
526.84	11143.29
527.01	11515.44
527.18	11800.98
527.36	11283.72
527.53	11424.15
527.70	11510.75
527.87	11611.40
528.04	11552.88
528.21	11487.35
528.38	11569.27
528.55	11580.97
528.72	11719.06
528.89	11758.85
529.07	11499.05
529.24	11665.23
529.41	11686.29
529.58	11604.38
529.75	11737.79
529.92	11887.58
530.09	11770.55
530.26	11824.39
530.43	11786.94
530.60	11660.55
530.77	11779.92
530.94	11822.05
531.11	11796.30
531.28	11822.05
531.46	11843.11
531.63	11763.53
531.80	11901.62
531.97	11915.67
532.14	11786.94
532.31	11812.68
532.48	11648.85
532.65	12028.01
532.82	12219.94
532.99	12126.32
533.16	11969.50
533.33	12084.19
533.50	12229.30
533.67	12250.36
533.84	11955.46
534.01	12011.63
534.18	12159.08
534.35	12233.98
534.52	12259.73
534.69	12149.72
534.86	12238.66
535.03	12271.43
535.20	12135.68
535.37	12580.38
535.54	12241.00
535.71	12081.85
535.88	12292.49
536.05	12379.09
536.22	12580.38
536.38	12374.41
536.55	12343.99
536.72	12224.62
536.89	12348.67
537.06	12430.59
537.23	12276.11
537.40	12587.40
537.57	12458.67
537.74	12528.89
537.91	12423.56
538.08	12592.08
538.25	12264.41
538.42	12304.20
538.59	12578.04
538.75	12547.61
538.92	12390.80
539.09	12477.40
539.26	12704.43
539.43	12594.42
539.60	12444.63
539.77	12697.41
539.94	12723.15
540.11	12772.30
540.28	12512.50
540.44	12477.40
540.61	12751.24
540.78	12805.07
540.95	12884.65
541.12	12905.71
541.29	12465.69
541.46	12697.41
541.62	12688.04
541.79	12784.01
541.96	12489.10
542.13	12702.09
542.30	12812.09
542.47	12994.65
542.63	12847.20
542.80	12915.08
542.97	12961.89
543.14	12847.20
543.31	12901.03
543.48	13137.43
543.64	12926.78
543.81	13081.25
543.98	13090.62
544.15	12961.89
544.32	13202.96
544.48	13111.68
544.65	12947.84
544.82	13163.17
544.99	12842.52
545.16	12826.14
545.32	13107.00
545.49	13135.09
545.66	13266.16
545.83	13132.75
546.00	13394.89
546.16	13343.39
546.33	13043.81
546.50	13228.71
546.67	13217.01
546.83	13015.72
547.00	13107.00
547.17	13172.54
547.34	13247.43
547.50	13540.00
547.67	13439.36
547.84	13132.75
548.00	13418.29
548.17	13345.73
548.34	13432.33
548.51	13380.84
548.67	13394.89
548.84	13184.24
549.01	13422.97
549.18	13502.55
549.34	13434.68
549.51	13483.83
549.68	13238.07
549.84	13453.40
550.01	13626.60
550.18	13540.00
550.34	13287.22
550.51	13397.23
550.68	13752.99
550.84	13156.15
551.01	13500.21
551.18	13575.11
551.34	13469.78
551.51	13408.93
551.68	13645.32
551.84	13509.57
552.01	13327.01
552.18	13547.02
552.34	13462.76
552.51	13675.75
552.68	13392.55
552.84	13422.97
553.01	13638.30
553.18	13565.74
553.34	13589.15
553.51	13572.77
553.67	13516.59
553.84	13820.86
554.01	13710.86
554.17	13434.68
554.34	13635.96
554.51	13586.81
554.67	13827.88
554.84	13781.07
555.00	13783.41
555.17	13816.18
555.33	13666.39
555.50	13853.63
555.67	13963.64
555.83	13509.57
556.00	13628.94
556.16	13970.66
556.33	13729.58
556.50	13715.54
556.66	13816.18
556.83	13514.25
556.99	14017.47
557.16	14024.49
557.32	13848.95
557.49	14143.86
557.65	13769.37
557.82	13781.07
557.98	13729.58
558.15	13785.76
558.32	13813.84
558.48	13743.63
558.65	13949.59
558.81	13703.84
558.98	13675.75
559.14	13750.65
559.31	13853.63
559.47	13748.31
559.64	13844.27
559.80	14059.60
559.97	13996.40
560.13	13987.04
560.30	14129.81
560.46	13788.10
560.63	14157.90
560.79	13921.51
560.96	14036.19
561.12	13832.57
561.29	13975.34
561.45	14171.94
561.61	14008.11
561.78	14075.98
561.94	14195.35
562.11	14038.53
562.27	13921.51
562.44	13797.46
562.60	14295.99
562.77	14050.24
562.93	13804.48
563.10	13942.57
563.26	13785.76
563.42	14134.50
563.59	13788.10
563.75	14068.96
563.92	13795.12
564.08	14033.85
564.24	14047.90
564.41	13809.16
564.57	14022.15
564.74	14246.84
564.90	13949.59
565.07	14225.78
565.23	14284.29
565.39	13977.68
565.56	13987.04
565.72	14054.92
565.88	14085.34
566.05	14300.67
566.21	13774.05
566.38	14125.13
566.54	14078.32
566.70	14153.22
566.87	13956.61
567.03	14501.96
567.19	14328.76
567.36	14221.10
567.52	14050.24
567.68	14064.28
567.85	14008.11
568.01	14036.19
568.17	13994.06
568.34	14466.85
568.50	14244.50
568.66	14099.39
568.83	13923.85
568.99	14101.73
569.15	14015.13
569.32	14005.77
569.48	14092.37
569.64	14064.28
569.81	14104.07
569.97	13973.00
570.13	14377.91
570.30	14010.45
570.46	14281.95
570.62	14207.05
570.78	14029.17
570.95	13963.64
571.11	13937.89
571.27	14244.50
571.43	14036.19
571.60	13909.80
571.76	14370.89
571.92	14200.03
572.09	13895.76
572.25	14132.15
572.41	14291.31
572.57	14267.91
572.74	14485.58
572.90	14190.67
573.06	14143.86
573.22	14188.33
573.38	14143.86
573.55	14363.87
573.71	14221.10
573.87	14265.57
574.03	14101.73
574.20	13963.64
574.36	14207.05
574.52	14012.79
574.68	13970.66
574.84	14066.62
575.01	14223.44
575.17	14127.47
575.33	13963.64
575.49	14090.02
575.65	13989.38
575.82	14459.83
575.98	14235.14
576.14	14068.96
576.30	14111.09
576.46	14298.33
576.62	14347.48
576.79	14300.67
576.95	14319.40
577.11	14338.12
577.27	14057.26
577.43	14218.75
577.59	14328.76
577.75	14148.54
577.92	13956.61
578.08	14052.58
578.24	14068.96
578.40	14424.72
578.56	14370.89
578.72	14050.24
578.88	14445.79
579.04	14155.56
579.21	14104.07
579.37	14349.82
579.53	13977.68
579.69	14017.47
579.85	14024.49
580.01	14209.39
580.17	14242.16
580.33	14312.38
580.49	14094.71
580.65	14387.27
580.82	14324.08
580.98	14319.40
581.14	14200.03
581.30	14230.46
581.46	14066.62
581.62	14363.87
581.78	14127.47
581.94	14429.40
582.10	14169.60
582.26	14183.65
582.42	14333.44
582.58	14132.15
582.74	14291.31
582.90	14122.79
583.06	14286.63
583.22	14202.37
583.38	13996.40
583.54	14155.56
583.70	14209.39
583.86	14157.90
584.02	14324.08
584.18	14129.81
584.34	14054.92
584.50	14497.28
584.66	14288.97
584.82	14249.18
584.98	14291.31
585.14	14293.65
585.30	14293.65
585.46	13982.36
585.62	14160.24
585.78	14223.44
585.94	14221.10
586.10	14185.99
586.26	14143.86
586.42	14441.11
586.58	14324.08
586.74	14092.37
586.90	14326.42
587.06	14239.82
587.22	13968.32
587.38	14366.21
587.54	14291.31
587.70	14319.40
587.86	14464.51
588.02	14413.02
588.18	14644.73
588.34	14101.73
588.49	14300.67
588.65	14038.53
588.81	14396.64
588.97	14274.93
589.13	14214.07
589.29	14162.58
589.45	14293.65
589.61	14469.19
589.77	14251.52
589.93	14366.21
590.08	14228.12
590.24	14274.93
590.40	14338.12
590.56	14487.92
590.72	14209.39
590.88	14270.25
591.04	14391.95
591.20	14490.26
591.35	14497.28
591.51	14572.18
591.67	14633.03
591.83	14384.93
591.99	14218.75
592.15	14420.04
592.31	14253.86
592.46	14410.68
592.62	14216.41
592.78	14183.65
592.94	14265.57
593.10	14455.15
593.26	14539.41
593.41	14104.07
593.57	14281.95
593.73	14473.87
593.89	14462.17
594.05	14295.99
594.20	14134.50
