SpectraSuite Data File
++++++++++++++++++++++++++++++++++++
Date: Fri Oct 04 11:48:23 GMT-05:00 2013
User: price-jones
Dark Spectrum Present: No
Reference Spectrum Present: No
Number of Sampled Component Spectra: 1
Spectrometers: USB2+H05261
Integration Time (usec): 100000 (USB2+H05261)
Spectra Averaged: 1 (USB2+H05261)
Boxcar Smoothing: 0 (USB2+H05261)
Correct for Electrical Dark: No (USB2+H05261)
Strobe/Lamp Enabled: No (USB2+H05261)
Correct for Detector Non-linearity: No (USB2+H05261)
Correct for Stray Light: No (USB2+H05261)
Number of Pixels in Processed Spectrum: 2048
>>>>>Begin Processed Spectral Data<<<<<
365.73	0.00
365.92	0.00
366.12	0.00
366.32	0.00
366.52	0.00
366.72	0.00
366.91	0.00
367.11	0.00
367.31	0.00
367.51	0.00
367.70	0.00
367.90	0.00
368.10	0.00
368.30	0.00
368.49	0.00
368.69	0.00
368.89	0.00
369.09	0.00
369.28	0.00
369.48	30.43
369.68	0.00
369.87	0.00
370.07	0.00
370.27	0.00
370.47	124.05
370.66	388.53
370.86	475.13
371.06	535.98
371.25	458.74
371.45	461.09
371.65	524.28
371.84	454.06
372.04	454.06
372.24	468.11
372.44	505.56
372.63	447.04
372.83	617.90
373.03	557.05
373.22	585.13
373.42	561.73
373.62	528.96
373.81	543.00
374.01	674.07
374.21	692.80
374.40	667.05
374.60	678.76
374.79	645.99
374.99	655.35
375.19	624.92
375.38	606.20
375.58	655.35
375.78	704.50
375.97	678.76
376.17	730.25
376.37	615.56
376.56	671.73
376.76	629.60
376.95	660.03
377.15	725.57
377.35	758.33
377.54	685.78
377.74	629.60
377.93	763.01
378.13	723.23
378.33	744.29
378.52	767.70
378.72	866.00
378.91	737.27
379.11	725.57
379.31	765.36
379.50	716.20
379.70	889.40
379.89	802.80
380.09	786.42
380.28	781.74
380.48	854.30
380.68	732.59
380.87	774.72
381.07	772.38
381.26	795.78
381.46	828.55
381.65	894.08
381.85	739.61
382.04	856.64
382.24	877.70
382.43	896.43
382.63	826.21
382.83	887.06
383.02	1046.22
383.22	903.45
383.41	891.74
383.61	908.13
383.80	882.38
384.00	917.49
384.19	919.83
384.39	915.15
384.58	994.73
384.78	903.45
384.97	884.72
385.17	994.73
385.36	957.28
385.56	999.41
385.75	961.96
385.95	987.71
386.14	1043.88
386.34	1029.84
386.53	1053.24
386.72	1034.52
386.92	1046.22
387.11	1041.54
387.31	1074.31
387.50	1104.73
387.70	1090.69
387.89	1111.75
388.09	1090.69
388.28	1149.20
388.48	1135.16
388.67	1081.33
388.86	1156.22
389.06	1238.14
389.25	1102.39
389.45	1193.67
389.64	1102.39
389.84	1158.57
390.03	1221.76
390.22	1174.95
390.42	1240.48
390.61	1163.25
390.81	1207.72
391.00	1217.08
391.19	1235.80
391.39	1280.27
391.58	1245.16
391.78	1259.21
391.97	1263.89
392.16	1387.94
392.36	1334.11
392.55	1287.29
392.75	1322.40
392.94	1387.94
393.13	1322.40
393.33	1320.06
393.52	1401.98
393.71	1277.93
393.91	1469.86
394.10	1359.85
394.29	1530.71
394.49	1441.77
394.68	1455.81
394.88	1416.02
395.07	1495.60
395.26	1425.39
395.46	1474.54
395.65	1397.30
395.84	1479.22
396.04	1577.52
396.23	1551.78
396.42	1556.46
396.62	1514.33
396.81	1600.93
397.00	1650.08
397.19	1537.73
397.39	1645.40
397.58	1650.08
397.77	1643.06
397.97	1678.16
398.16	1694.55
398.35	1727.32
398.55	1692.21
398.74	1692.21
398.93	1769.44
399.12	1696.89
399.32	1724.97
399.51	1675.82
399.70	1907.54
399.90	1797.53
400.09	1689.87
400.28	1961.37
400.47	1860.73
400.67	1905.20
400.86	1942.64
401.05	2003.50
401.24	1865.41
401.44	2005.84
401.63	1980.09
401.82	1996.48
402.01	2008.18
402.21	2040.95
402.40	1935.62
402.59	2066.69
402.78	2054.99
402.97	2113.50
403.17	2125.21
403.36	2167.34
403.55	2069.03
403.74	2249.25
403.93	2242.23
404.13	2190.74
404.32	2197.76
404.51	2172.02
404.70	2246.91
404.89	2181.38
405.09	2242.23
405.28	2321.81
405.47	2389.69
405.66	2396.71
405.85	2356.92
406.05	2321.81
406.24	2366.28
406.43	2331.17
406.62	2434.16
406.81	2567.57
407.00	2394.37
407.20	2499.69
407.39	2511.39
407.58	2478.63
407.77	2595.65
407.96	2612.04
408.15	2757.15
408.34	2626.08
408.54	2712.68
408.73	2630.76
408.92	2656.51
409.11	2656.51
409.30	2787.58
409.49	2665.87
409.68	2829.71
409.87	2832.05
410.07	2841.41
410.26	2925.67
410.45	2888.22
410.64	2839.07
410.83	2963.12
411.02	2906.95
411.21	2920.99
411.40	2958.44
411.59	3059.08
411.78	2981.84
411.98	3014.61
412.17	3124.62
412.36	3033.33
412.55	3265.05
412.74	3206.53
412.93	3267.39
413.12	3185.47
413.31	3311.86
413.50	3330.58
413.69	3337.60
413.88	3433.57
414.07	3499.10
414.26	3405.48
414.45	3473.36
414.64	3543.57
414.83	3613.79
415.02	3569.32
415.22	3653.58
415.41	3726.13
415.60	3751.88
415.79	3684.00
415.98	3831.46
416.17	3803.37
416.36	3824.44
416.55	4004.66
416.74	3838.48
416.93	3749.54
417.12	4079.55
417.31	4053.81
417.50	4070.19
417.69	4173.18
417.88	4142.75
418.07	4044.45
418.26	4238.71
418.45	4168.49
418.64	4358.08
418.83	4369.78
419.02	4236.37
419.21	4339.35
419.39	4311.27
419.58	4318.29
419.77	4215.30
419.96	4266.80
420.15	4423.61
420.34	4381.48
420.53	4447.02
420.72	4463.40
420.91	4617.88
421.10	4599.15
421.29	4587.45
421.48	4482.13
421.67	4758.31
421.86	4617.88
422.05	4692.77
422.24	4533.62
422.43	4554.68
422.61	4795.76
422.80	4847.25
422.99	4779.37
423.18	4683.41
423.37	4795.76
423.56	4770.01
423.75	4877.68
423.94	4671.71
424.13	4685.75
424.32	4533.62
424.50	4931.51
424.69	4800.44
424.88	4786.40
425.07	4814.48
425.26	4678.73
425.45	4807.46
425.64	4730.22
425.83	4826.18
426.01	4945.55
426.20	4814.48
426.39	4758.31
426.58	4748.95
426.77	4922.15
426.96	4856.61
427.15	4938.53
427.33	4987.68
427.52	5074.28
427.71	5046.20
427.90	5130.45
428.09	5097.69
428.28	5184.29
428.46	5266.21
428.65	5371.53
428.84	5261.52
429.03	5320.04
429.22	5104.71
429.40	5249.82
429.59	5298.97
429.78	5158.54
429.97	5207.69
430.16	5277.91
430.34	5507.28
430.53	5401.96
430.72	5310.68
430.91	5441.75
431.10	5394.93
431.28	5572.82
431.47	5692.18
431.66	5837.30
431.85	5694.52
432.03	5685.16
432.22	5914.53
432.41	5687.50
432.60	5715.59
432.79	5696.86
432.97	5975.39
433.16	5963.68
433.35	5795.17
433.54	5982.41
433.72	5706.23
433.91	5884.11
434.10	5856.02
434.28	5879.43
434.47	6031.56
434.66	6050.28
434.85	6066.67
435.03	6087.73
435.22	6186.04
435.41	6218.80
435.59	6094.76
435.78	6155.61
435.97	6183.70
436.16	6242.21
436.34	6263.27
436.53	6300.72
436.72	6345.19
436.90	6361.58
437.09	6328.81
437.28	6349.87
437.46	6471.58
437.65	6546.48
437.84	6471.58
438.02	6567.54
438.21	6485.62
438.40	6319.45
438.58	6696.27
438.77	6717.34
438.96	6810.96
439.14	6944.37
439.33	7166.72
439.52	7059.06
439.70	6995.86
439.89	6953.73
440.08	7211.19
440.26	7220.55
440.45	7145.66
440.63	7330.56
440.82	7304.81
441.01	7356.30
441.19	7569.29
441.38	7358.64
441.57	7569.29
441.75	7405.46
441.94	7751.85
442.12	7707.38
442.31	7948.46
442.50	7960.16
442.68	7691.00
442.87	7798.66
443.05	7960.16
443.24	8037.40
443.43	8030.38
443.61	7997.61
443.80	8262.09
443.98	7892.29
444.17	7742.49
444.35	8070.17
444.54	8105.28
444.73	8023.36
444.91	8112.30
445.10	8404.86
445.28	8095.91
445.47	8074.85
445.65	8119.32
445.84	8351.03
446.02	8348.69
446.21	8224.64
446.39	8308.90
446.58	8313.58
446.77	8315.92
446.95	8184.85
447.14	8374.44
447.32	8538.27
447.51	8219.96
447.69	8236.35
447.88	8332.31
448.06	8313.58
448.25	8404.86
448.43	8486.78
448.62	8067.83
448.80	8475.08
448.99	8472.74
449.17	8580.40
449.36	8559.34
449.54	8659.98
449.73	8814.46
449.91	8872.97
450.10	8575.72
450.28	8744.24
450.46	8692.75
450.65	8791.05
450.83	8793.39
451.02	8769.99
451.20	8851.91
451.39	8978.30
451.57	8959.57
451.76	9004.04
451.94	8936.17
452.13	9146.81
452.31	9160.86
452.49	8987.66
452.68	8894.04
452.86	9078.94
453.05	9289.59
453.23	9343.42
453.42	9242.78
453.60	9167.88
453.78	9170.22
453.97	9032.13
454.15	9451.08
454.34	9238.09
454.52	9500.23
454.70	9380.87
454.89	9659.39
455.07	9486.19
455.26	9626.62
455.44	9673.43
455.62	9357.46
455.81	9486.19
455.99	9633.64
456.17	9907.49
456.36	9870.04
456.54	10143.88
456.73	9996.43
456.91	10249.21
457.09	10249.21
457.28	10565.18
457.46	10024.51
457.64	10237.50
457.83	10382.62
458.01	10146.22
458.19	10399.00
458.38	10076.01
458.56	10338.15
458.74	10586.24
458.93	10427.09
459.11	10516.03
459.29	10548.79
459.48	10595.61
459.66	10614.33
459.84	10698.59
460.03	10768.80
460.21	10480.92
460.39	10689.23
460.57	10597.95
460.76	10834.34
460.94	10993.50
461.12	10953.71
461.31	11023.92
461.49	11005.20
461.67	10974.77
461.85	11260.32
462.04	11162.01
462.22	11454.58
462.40	11227.55
462.59	11147.97
462.77	11248.61
462.95	11295.43
463.13	11307.13
463.32	11302.45
463.50	11384.37
463.68	11300.11
463.86	11559.91
464.05	11524.80
464.23	11325.85
464.41	11590.33
464.59	11482.67
464.78	11665.23
464.96	11648.85
465.14	11761.19
465.32	11901.62
465.50	11838.43
465.69	11941.41
465.87	11885.24
466.05	11836.09
466.23	11688.64
466.41	11693.32
466.60	12208.23
466.78	12011.63
466.96	11861.84
467.14	11934.39
467.32	12060.78
467.51	12233.98
467.69	12051.42
467.87	12175.47
468.05	12219.94
468.23	11995.25
468.41	12063.12
468.60	12257.39
468.78	12395.48
468.96	12430.59
469.14	12393.14
469.32	12617.83
469.50	12138.02
469.69	12638.89
469.87	12554.63
470.05	12842.52
470.23	13015.72
470.41	13015.72
470.59	12849.54
470.77	12823.80
470.95	12945.50
471.14	13334.03
471.32	13221.69
471.50	13476.80
471.68	13151.47
471.86	13357.44
472.04	13235.73
472.22	13799.80
472.40	13231.05
472.58	13671.07
472.77	13586.81
472.95	13912.14
473.13	14207.05
473.31	13764.69
473.49	13673.41
473.67	14127.47
473.85	13743.63
474.03	14420.04
474.21	14108.75
474.39	14508.98
474.57	14349.82
474.75	14497.28
474.93	14993.47
475.12	14644.73
475.30	14642.39
475.48	14853.04
475.66	15290.72
475.84	15033.26
476.02	15255.61
476.20	15145.61
476.38	15449.88
476.56	15499.03
476.74	15910.96
476.92	15793.94
477.10	15943.73
477.28	15679.25
477.46	15920.32
477.64	16191.83
477.82	16105.23
478.00	16634.19
478.18	16634.19
478.36	16769.94
478.54	16802.71
478.72	16666.95
478.90	17275.49
479.08	17151.45
479.26	17369.12
479.44	17224.00
479.62	17813.82
479.80	17750.62
479.98	17743.60
480.16	18272.56
480.34	18305.33
480.52	18546.40
480.70	18310.01
480.88	18125.11
481.06	18534.70
481.24	18345.12
481.41	18836.63
481.59	19042.60
481.77	18913.87
481.95	19119.84
482.13	19470.92
482.31	19264.95
482.49	19964.77
482.67	19864.13
482.85	20362.66
483.03	20563.95
483.21	20645.87
483.39	20847.15
483.57	20903.32
483.74	20741.83
483.92	20931.41
484.10	20856.51
484.28	21647.61
484.46	21799.75
484.64	22183.60
484.82	21769.32
485.00	21745.92
485.18	22670.43
485.35	22537.02
485.53	22590.85
485.71	22586.17
485.89	23442.81
486.07	23040.23
486.25	23000.44
486.43	23140.88
486.61	23328.12
486.78	23873.46
486.96	23878.15
487.14	24269.01
487.32	24261.99
487.50	24636.48
487.68	24570.94
487.85	24924.36
488.03	25266.08
488.21	25357.36
488.39	25287.15
488.57	25596.10
488.75	25769.30
488.92	26513.59
489.10	26452.73
489.28	26356.77
489.46	26906.80
489.64	26752.32
489.81	27197.02
489.99	27473.21
490.17	27367.88
490.35	27733.01
490.53	28011.53
490.70	28051.32
490.88	28379.00
491.06	28439.85
491.24	28533.47
491.41	28561.56
491.59	28950.09
491.77	28957.11
491.95	29734.17
492.13	29525.86
492.30	29469.69
492.48	29724.80
492.66	30338.02
492.84	29802.04
493.01	30419.94
493.19	30522.93
493.37	30796.77
493.54	30511.22
493.72	31126.78
493.90	31204.02
494.08	31349.14
494.25	31562.12
494.43	31810.22
494.61	32283.01
494.79	32280.67
494.96	32308.76
495.14	32603.66
495.32	33043.68
495.49	32449.19
495.67	33015.60
495.85	33343.27
496.02	32947.72
496.20	33198.16
496.38	33624.14
496.55	33591.37
496.73	34485.45
496.91	34239.70
497.09	34410.56
497.26	34675.04
497.44	34759.30
497.62	34700.78
497.79	35108.04
497.97	35044.84
498.14	35428.69
498.32	35854.67
498.50	35943.61
498.67	35849.99
498.85	35967.01
499.03	36306.39
499.20	36311.07
499.38	36664.49
499.56	36833.01
499.73	36886.84
499.91	37081.11
500.08	37282.39
500.26	36835.35
500.44	37415.80
500.61	37331.54
500.79	37446.23
500.97	37675.60
501.14	37897.95
501.32	37806.67
501.49	38115.62
501.67	38124.99
501.84	38375.42
502.02	38443.30
502.20	39047.16
502.37	38911.41
502.55	38686.71
502.72	38974.60
502.90	38785.02
503.07	38979.28
503.25	39213.34
503.43	39019.07
503.60	39718.89
503.78	39810.17
503.95	39901.45
504.13	39978.69
504.30	39786.77
504.48	39971.67
504.65	40285.30
504.83	40926.61
505.01	40704.26
505.18	40505.31
505.36	41207.47
505.53	40556.80
505.71	40781.49
505.88	41242.58
506.06	40776.81
506.23	41900.27
506.41	41666.22
506.58	41741.11
506.76	41706.01
506.93	42131.98
507.11	42253.69
507.28	41968.15
507.46	41900.27
507.63	42548.60
507.81	42962.87
507.98	42562.64
508.16	42419.87
508.33	42745.20
508.50	42958.19
508.68	43290.55
508.85	43435.66
509.03	43026.07
509.20	43915.47
509.38	44137.82
509.55	44156.55
509.73	44027.82
509.90	43908.45
510.08	43973.98
510.25	44039.52
510.42	44402.30
510.60	44708.91
510.77	44573.16
510.95	45099.78
511.12	44360.17
511.30	44500.61
511.47	44566.14
511.64	45256.60
511.82	45614.70
511.99	45223.83
512.17	45961.10
512.34	45563.21
512.51	46050.04
512.69	45610.02
512.86	46110.89
513.04	46391.76
513.21	46256.01
513.38	46454.95
513.56	46656.24
513.73	46459.63
513.90	46394.10
514.08	46216.22
514.25	46712.41
514.43	46801.35
514.60	47021.36
514.77	47051.79
514.95	47044.77
515.12	46909.02
515.29	46988.60
515.47	47239.03
515.64	47695.44
515.81	47585.43
515.99	47779.70
516.16	48435.05
516.33	48212.70
516.51	48098.01
516.68	47454.36
516.85	47636.92
517.03	48411.64
517.20	48587.18
517.37	48755.70
517.54	48341.42
517.72	48381.21
517.89	48519.31
518.06	48545.05
518.24	48652.72
518.41	48575.48
518.58	48736.98
518.75	49017.84
518.93	49123.16
519.10	49034.22
519.27	49404.03
519.45	49443.82
519.62	49237.85
519.79	49628.72
519.96	49553.82
520.14	50225.56
520.31	50012.57
520.48	49869.79
520.65	49745.75
520.83	50305.13
521.00	50057.04
521.17	50171.72
521.34	50153.00
521.52	50361.31
521.69	50351.94
521.86	50473.65
522.03	50787.28
522.20	50740.47
522.38	50894.95
522.55	50672.60
522.72	50586.00
522.89	50593.02
523.07	51173.47
523.24	50906.65
523.41	51056.45
523.58	51056.45
523.75	51222.62
523.92	51210.92
524.10	51236.67
524.27	51435.61
524.44	51707.12
524.61	51903.72
524.78	51796.06
524.96	51798.40
525.13	51690.73
525.30	52083.94
525.47	51573.70
525.64	51894.36
525.81	52069.90
525.98	52383.53
526.16	52076.92
526.33	51807.76
526.50	52523.96
526.67	52002.02
526.84	52474.81
527.01	52416.30
527.18	52383.53
527.36	52540.35
527.53	52685.46
527.70	52921.85
527.87	52933.56
528.04	52420.98
528.21	52648.01
528.38	52870.36
528.55	52802.49
528.72	53048.24
528.89	52774.40
529.07	53043.56
529.24	52708.86
529.41	53462.52
529.58	53261.23
529.75	53022.50
529.92	53668.48
530.09	53111.44
530.26	53319.74
530.43	53315.06
530.60	53282.30
530.77	53347.83
530.94	53876.79
531.11	53270.59
531.28	53577.20
531.46	53570.18
531.63	53867.43
531.80	54045.31
531.97	53972.75
532.14	53993.82
532.31	53942.33
532.48	54061.69
532.65	53897.86
532.82	54117.87
532.99	54066.38
533.16	54028.93
533.33	54555.55
533.50	54543.84
533.67	54398.73
533.84	54337.88
534.01	54372.99
534.18	54284.04
534.35	54670.23
534.52	54295.75
534.69	54672.57
534.86	54817.69
535.03	54614.06
535.20	54623.42
535.37	54836.41
535.54	55033.02
535.71	54726.41
535.88	54923.01
536.05	55072.81
536.22	55276.43
536.38	54946.42
536.55	55395.80
536.72	54946.42
536.89	54803.64
537.06	55112.59
537.23	55210.90
537.40	55229.62
537.57	55128.98
537.74	55117.28
537.91	55770.28
538.08	55267.07
538.25	55124.30
538.42	55482.40
538.59	55629.85
538.75	55164.09
538.92	55508.14
539.09	55697.73
539.26	55765.60
539.43	55718.79
539.60	55880.29
539.77	55489.42
539.94	55641.56
540.11	55814.76
540.28	55938.80
540.44	55828.80
540.61	55866.25
540.78	56002.00
540.95	56154.13
541.12	55863.91
541.29	56030.08
541.46	55826.46
541.62	56170.52
541.79	55948.17
541.96	55662.62
542.13	55796.03
542.30	56327.33
542.47	56252.44
542.63	56547.34
542.80	56505.21
542.97	56701.82
543.14	56535.64
543.31	56317.97
543.48	56570.75
543.64	56966.30
543.81	56938.21
543.98	57031.83
544.15	56891.40
544.32	56961.62
544.48	56842.25
544.65	56743.95
544.82	56605.86
544.99	56678.41
545.16	56896.08
545.32	56924.17
545.49	57256.53
545.66	57298.65
545.83	57528.03
546.00	57247.16
546.16	57158.22
546.33	56860.97
546.50	57064.60
546.67	57083.33
546.83	56800.12
547.00	57155.88
547.17	57083.33
547.34	57329.08
547.50	57247.16
547.67	57609.95
547.84	57167.58
548.00	57415.68
548.17	57563.14
548.34	57228.44
548.51	57439.09
548.67	57787.83
548.84	57499.94
549.01	57483.56
549.18	57621.65
549.34	57476.54
549.51	57729.31
549.68	57801.87
549.84	57638.03
550.01	57570.16
550.18	57567.82
550.34	57572.50
550.51	58202.10
550.68	57984.43
550.84	57687.18
551.01	57876.77
551.18	57736.34
551.34	57808.89
551.51	58000.82
551.68	58260.62
551.84	58141.25
552.01	57958.69
552.18	57991.45
552.34	58073.37
552.51	58045.29
552.68	58124.86
552.84	58026.56
553.01	58305.09
553.18	58365.94
553.34	58148.27
553.51	58152.95
553.67	58209.12
553.84	58663.19
554.01	58389.34
554.17	58244.23
554.34	58445.52
554.51	58248.91
554.67	58333.17
554.84	58361.26
555.00	58497.01
555.17	58431.47
555.33	58560.20
555.50	58377.64
555.67	58468.92
555.83	58344.87
556.00	58422.11
556.16	58836.39
556.33	58700.64
556.50	58628.08
556.66	58693.61
556.83	58628.08
556.99	58993.20
557.16	58857.45
557.32	58857.45
557.49	58927.67
557.65	58433.81
557.82	58663.19
557.98	58904.26
558.15	58752.13
558.32	59025.97
558.48	59100.87
558.65	59194.49
558.81	59011.93
558.98	59030.65
559.14	59035.33
559.31	58759.15
559.47	58824.68
559.64	59023.63
559.80	59189.81
559.97	59089.16
560.13	59035.33
560.30	58967.46
560.46	59110.23
560.63	59089.16
560.79	59187.47
560.96	59154.70
561.12	58939.37
561.29	59215.55
561.45	59133.63
561.61	58993.20
561.78	59309.18
561.94	59297.47
562.11	59339.60
562.27	59196.83
562.44	59093.85
562.60	59379.39
562.77	59194.49
562.93	59096.19
563.10	59461.31
563.26	59306.83
563.42	59543.23
563.59	59178.10
563.75	59253.00
563.92	59402.80
564.08	59159.38
564.24	59625.15
564.41	59299.81
564.57	59309.18
564.74	59435.56
564.90	59435.56
565.07	59664.94
565.23	59604.08
565.39	59419.18
565.56	59568.97
565.72	59370.03
565.88	59400.46
566.05	59526.84
566.21	59391.09
566.38	59557.27
566.54	59833.46
566.70	59606.42
566.87	59807.71
567.03	59725.79
567.19	59859.20
567.36	59807.71
567.52	59437.90
567.68	59536.21
567.85	59395.77
568.01	59533.87
568.17	59779.62
568.34	59597.06
568.50	59697.70
568.66	59737.49
568.83	59849.84
568.99	59456.63
569.15	59620.47
569.32	59522.16
569.48	59608.76
569.64	59597.06
569.81	59674.30
569.97	59859.20
570.13	59718.77
570.30	59550.25
570.46	59824.09
570.62	59964.52
570.78	59854.52
570.95	59707.07
571.11	59812.39
571.27	59725.79
571.43	59690.68
571.60	59973.89
571.76	59873.24
571.92	59973.89
572.09	60027.72
572.25	59833.46
572.41	60069.85
572.57	59927.08
572.74	59896.65
572.90	59817.07
573.06	59889.63
573.22	59798.35
573.38	59758.56
573.55	59870.90
573.71	60126.02
573.87	60034.74
574.03	59863.88
574.20	60023.04
574.36	59788.98
574.52	59877.93
574.68	59901.33
574.84	59788.98
575.01	59992.61
575.17	59992.61
575.33	59870.90
575.49	59987.93
575.65	60217.30
575.82	60193.90
575.98	59966.87
576.14	60107.30
576.30	59980.91
576.46	60041.76
576.62	59920.05
576.79	59973.89
576.95	59840.48
577.11	59859.20
577.27	60032.40
577.43	60184.54
577.59	60004.31
577.75	59992.61
577.92	59943.46
578.08	59945.80
578.24	59934.10
578.40	60053.47
578.56	60128.36
578.72	60196.24
578.88	60360.08
579.04	60378.80
579.21	59990.27
579.37	60437.31
579.53	60081.55
579.69	59999.63
579.85	60257.09
580.01	59950.48
580.17	60191.56
580.33	60137.72
580.49	59997.29
580.65	60467.74
580.82	60390.50
580.98	60090.91
581.14	59959.84
581.30	60313.26
581.46	60081.55
581.62	60069.85
581.78	59934.10
581.94	60289.86
582.10	60076.87
582.26	60135.38
582.42	60423.27
582.58	60179.85
582.74	60086.23
582.90	60214.96
583.06	60238.37
583.22	60189.22
583.38	60296.88
583.54	60184.54
583.70	60097.94
583.86	60137.72
584.02	60168.15
584.18	60371.78
584.34	60575.40
584.50	60310.92
584.66	60252.41
584.82	60135.38
584.98	60378.80
585.14	60142.41
585.30	60034.74
585.46	60196.24
585.62	60149.43
585.78	60182.19
585.94	60004.31
586.10	60310.92
586.26	60427.95
586.42	60463.06
586.58	60523.91
586.74	60196.24
586.90	60175.17
587.06	60219.64
587.22	60399.86
587.38	60189.22
587.54	60280.50
587.70	60214.96
587.86	60521.57
588.02	60324.97
588.18	60647.96
588.34	60530.93
588.49	60154.11
588.65	60261.77
588.81	60271.14
588.97	60360.08
589.13	60250.07
