SpectraSuite Data File
++++++++++++++++++++++++++++++++++++
Date: Fri Oct 04 11:48:24 GMT-05:00 2013
User: price-jones
Dark Spectrum Present: No
Reference Spectrum Present: No
Number of Sampled Component Spectra: 1
Spectrometers: USB2+H05261
Integration Time (usec): 100000 (USB2+H05261)
Spectra Averaged: 1 (USB2+H05261)
Boxcar Smoothing: 0 (USB2+H05261)
Correct for Electrical Dark: No (USB2+H05261)
Strobe/Lamp Enabled: No (USB2+H05261)
Correct for Detector Non-linearity: No (USB2+H05261)
Correct for Stray Light: No (USB2+H05261)
Number of Pixels in Processed Spectrum: 2048
>>>>>Begin Processed Spectral Data<<<<<
365.73	9.36
365.92	9.36
366.12	9.36
366.32	0.00
366.52	0.00
366.72	4.68
366.91	0.00
367.11	0.00
367.31	0.00
367.51	0.00
367.70	0.00
367.90	16.38
368.10	0.00
368.30	0.00
368.49	0.00
368.69	0.00
368.89	0.00
369.09	0.00
369.28	0.00
369.48	0.00
369.68	0.00
369.87	0.00
370.07	2.34
370.27	23.41
370.47	117.03
370.66	404.91
370.86	512.58
371.06	519.60
371.25	552.37
371.45	533.64
371.65	526.62
371.84	493.85
372.04	561.73
372.24	571.09
372.44	561.73
372.63	653.01
372.83	627.26
373.03	608.54
373.22	592.16
373.42	667.05
373.62	699.82
373.81	643.65
374.01	727.91
374.21	645.99
374.40	704.50
374.60	798.12
374.79	667.05
374.99	655.35
375.19	746.63
375.38	767.70
375.58	819.19
375.78	788.76
375.97	779.40
376.17	753.65
376.37	807.48
376.56	847.27
376.76	751.31
376.95	741.95
377.15	800.46
377.35	856.64
377.54	770.04
377.74	837.91
377.93	849.61
378.13	716.20
378.33	891.74
378.52	882.38
378.72	891.74
378.91	957.28
379.11	727.91
379.31	901.11
379.50	912.81
379.70	938.55
379.89	924.51
380.09	866.00
380.28	887.06
380.48	919.83
380.68	889.40
380.87	964.30
381.07	1004.09
381.26	1034.52
381.46	992.39
381.65	978.34
381.85	898.77
382.04	978.34
382.24	1095.37
382.43	1004.09
382.63	1078.99
382.83	976.00
383.02	1078.99
383.22	1123.46
383.41	1011.11
383.61	1121.12
383.80	1088.35
384.00	1156.22
384.19	997.07
384.39	1151.54
384.58	1111.75
384.78	1205.38
384.97	1203.04
385.17	1107.07
385.36	1130.48
385.56	1069.62
385.75	1158.57
385.95	1139.84
386.14	1142.18
386.34	1090.69
386.53	1142.18
386.72	1214.74
386.92	1282.61
387.11	1282.61
387.31	1228.78
387.50	1210.06
387.70	1240.48
387.89	1331.76
388.09	1352.83
388.28	1247.51
388.48	1294.32
388.67	1366.87
388.86	1284.95
389.06	1409.00
389.25	1287.29
389.45	1369.21
389.64	1357.51
389.84	1399.64
390.03	1409.00
390.22	1458.15
390.42	1394.96
390.61	1289.64
390.81	1500.28
391.00	1476.88
391.19	1418.36
391.39	1481.56
391.58	1465.18
391.78	1561.14
391.97	1507.30
392.16	1537.73
392.36	1495.60
392.55	1551.78
392.75	1572.84
392.94	1568.16
393.13	1614.97
393.33	1495.60
393.52	1591.56
393.71	1577.52
393.91	1645.40
394.10	1664.12
394.29	1535.39
394.49	1598.59
394.68	1706.25
394.88	1645.40
395.07	1771.79
395.26	1785.83
395.46	1720.29
395.65	1769.44
395.84	1795.19
396.04	1788.17
396.23	1919.24
396.42	1762.42
396.62	1813.92
396.81	1827.96
397.00	1792.85
397.19	1856.04
397.39	1870.09
397.58	1914.56
397.77	1914.56
397.97	1905.20
398.16	1980.09
398.35	2073.71
398.55	2012.86
398.74	1928.60
398.93	2022.22
399.12	2036.27
399.32	1928.60
399.51	2003.50
399.70	2099.46
399.90	2071.37
400.09	2097.12
400.28	2174.36
400.47	2120.53
400.67	2207.13
400.86	2235.21
401.05	2160.31
401.24	2186.06
401.44	2317.13
401.63	2237.55
401.82	2380.32
402.01	2331.17
402.21	2312.45
402.40	2275.00
402.59	2267.98
402.78	2464.58
402.97	2464.58
403.17	2424.80
403.36	2424.80
403.55	2450.54
403.74	2590.97
403.93	2518.42
404.13	2483.31
404.32	2513.74
404.51	2658.85
404.70	2607.36
404.89	2602.68
405.09	2766.51
405.28	2520.76
405.47	2696.30
405.66	2633.10
405.85	2675.23
406.05	2651.83
406.24	2745.45
406.43	2663.53
406.62	2862.48
406.81	2885.88
407.00	2818.00
407.20	2895.24
407.39	2832.05
407.58	2867.16
407.77	3014.61
407.96	2977.16
408.15	2935.03
408.34	2897.58
408.54	3005.25
408.73	2902.26
408.92	2932.69
409.11	3164.40
409.30	3049.72
409.49	3164.40
409.68	3098.87
409.87	3155.04
410.07	3332.92
410.26	3208.87
410.45	3424.20
410.64	3227.60
410.83	3468.67
411.02	3384.41
411.21	3485.06
411.40	3368.03
411.59	3543.57
411.78	3480.38
411.98	3501.44
412.17	3562.30
412.36	3555.27
412.55	3522.51
412.74	3581.02
412.93	3576.34
413.12	3705.07
413.31	3754.22
413.50	3698.05
413.69	3882.95
413.88	3779.97
414.07	3721.45
414.26	4046.79
414.45	3981.25
414.64	3889.97
414.83	4093.60
415.02	4105.30
415.22	4154.45
415.41	4121.68
415.60	4152.11
415.79	4266.80
415.98	4252.75
416.17	4229.35
416.36	4372.12
416.55	4308.93
416.74	4327.65
416.93	4304.25
417.12	4526.60
417.31	4510.21
417.50	4533.62
417.69	4594.47
417.88	4631.92
418.07	4533.62
418.26	4678.73
418.45	4723.20
418.64	4723.20
418.83	4894.06
419.02	4770.01
419.21	4823.84
419.39	4814.48
419.58	4978.32
419.77	4793.42
419.96	4924.49
420.15	4898.74
420.34	4861.29
420.53	5036.83
420.72	5071.94
420.91	5125.77
421.10	5050.88
421.29	5210.03
421.48	5158.54
421.67	5313.02
421.86	5158.54
422.05	5203.01
422.24	5305.99
422.43	5179.61
422.61	5350.46
422.80	5348.12
422.99	5427.70
423.18	5380.89
423.37	5411.32
423.56	5479.19
423.75	5301.31
423.94	5210.03
424.13	4924.49
424.32	5322.38
424.50	5380.89
424.69	5577.50
424.88	5434.72
425.07	5448.77
425.26	5444.09
425.45	5378.55
425.64	5376.21
425.83	5378.55
426.01	5465.15
426.20	5401.96
426.39	5437.06
426.58	5380.89
426.77	5387.91
426.96	5661.76
427.15	5647.71
427.33	5689.84
427.52	5551.75
427.71	5544.73
427.90	5703.89
428.09	5870.06
428.28	5675.80
428.46	5738.99
428.65	5891.13
428.84	6017.52
429.03	5998.79
429.22	5736.65
429.40	5867.72
429.59	6104.12
429.78	5781.12
429.97	5715.59
430.16	5893.47
430.34	6141.57
430.53	6312.42
430.72	6076.03
430.91	5980.07
431.10	6218.80
431.28	6359.24
431.47	6314.77
431.66	6359.24
431.85	6228.17
432.03	6504.35
432.22	6497.33
432.41	6429.45
432.60	6597.97
432.79	6424.77
432.97	6546.48
433.16	6427.11
433.35	6607.33
433.54	6590.95
433.72	6616.69
433.91	6530.09
434.10	6729.04
434.28	6726.70
434.47	6810.96
434.66	6801.60
434.85	6759.47
435.03	6923.30
435.22	6825.00
435.41	7185.44
435.59	6970.12
435.78	6834.36
435.97	6911.60
436.16	7274.38
436.34	6867.13
436.53	7197.15
436.72	7459.29
436.90	7049.69
437.09	7183.10
437.28	7274.38
437.46	7281.41
437.65	7215.87
437.84	7428.86
438.02	7517.80
438.21	7398.43
438.40	7438.22
438.58	7545.89
438.77	7634.83
438.96	7466.31
439.14	7871.22
439.33	7875.90
439.52	7887.61
439.70	7976.55
439.89	8056.12
440.08	8095.91
440.26	8149.75
440.45	7920.37
440.63	8116.98
440.82	8217.62
441.01	8294.86
441.19	8397.84
441.38	8737.22
441.57	8517.21
441.75	8671.68
441.94	8652.96
442.12	8667.00
442.31	8828.50
442.50	8812.12
442.68	8788.71
442.87	8823.82
443.05	8730.20
443.24	9076.60
443.43	8828.50
443.61	9029.79
443.80	9453.42
443.98	8863.61
444.17	8842.54
444.35	9202.99
444.54	9069.58
444.73	9071.92
444.91	9121.07
445.10	9128.09
445.28	9111.71
445.47	8973.61
445.65	9074.26
445.84	9158.52
446.02	9455.76
446.21	9184.26
446.39	9210.01
446.58	9392.57
446.77	9380.87
446.95	9277.88
447.14	9305.97
447.32	9408.95
447.51	9294.27
447.69	9341.08
447.88	9334.06
448.06	9568.11
448.25	9343.42
448.43	9446.40
448.62	9355.12
448.80	9455.76
448.99	9563.43
449.17	9671.09
449.36	9460.45
449.54	9841.95
449.73	9895.78
449.91	9790.46
450.10	9951.96
450.28	9970.68
450.46	10190.69
450.65	10068.98
450.83	9863.02
451.02	10225.80
451.20	10111.11
451.39	10157.92
451.57	9940.26
451.76	10150.90
451.94	10015.15
452.13	10375.59
452.31	10443.47
452.49	10111.11
452.68	10420.06
452.86	10228.14
453.05	10321.76
453.23	10626.03
453.42	10469.22
453.60	10441.13
453.78	10541.77
453.97	10466.88
454.15	10501.98
454.34	10546.45
454.52	10778.17
454.70	10623.69
454.89	10637.73
455.07	10808.59
455.26	10815.62
455.44	10988.82
455.62	10895.19
455.81	10979.45
455.99	11000.52
456.17	11180.74
456.36	11084.78
456.54	11248.61
456.73	11382.03
456.91	11410.11
457.09	11529.48
457.28	11721.40
457.46	11405.43
457.64	11548.20
457.83	11473.31
458.01	11419.47
458.19	12037.38
458.38	11756.51
458.56	12051.42
458.74	11843.11
458.93	11929.71
459.11	11690.98
459.29	11803.32
459.48	11885.24
459.66	11859.49
459.84	12112.27
460.03	12156.74
460.21	12198.87
460.39	12224.62
460.57	12133.34
460.76	12241.00
460.94	12334.62
461.12	12512.50
461.31	12388.46
461.49	12283.13
461.67	12512.50
461.85	12898.69
462.04	12856.56
462.22	13198.28
462.40	12905.71
462.59	12809.75
462.77	12769.96
462.95	12922.10
463.13	13011.04
463.32	12664.64
463.50	13008.70
463.68	12842.52
463.86	13039.12
464.05	12931.46
464.23	13081.25
464.41	13312.97
464.59	13062.53
464.78	13188.92
464.96	13221.69
465.14	13109.34
465.32	13284.88
465.50	13446.38
465.69	13507.23
465.87	13502.55
466.05	13455.74
466.23	13514.25
466.41	13598.51
466.60	13980.02
466.78	13483.83
466.96	13701.50
467.14	13554.04
467.32	13846.61
467.51	14038.53
467.69	13685.11
467.87	14052.58
468.05	13797.46
468.23	13928.53
468.41	13642.98
468.60	14321.74
468.78	14094.71
468.96	14139.18
469.14	14160.24
469.32	14333.44
469.50	14001.08
469.69	14303.01
469.87	14504.30
470.05	14504.30
470.23	14677.50
470.41	14721.97
470.59	14876.44
470.77	14466.85
470.95	14930.28
471.14	15122.20
471.32	14810.91
471.50	15161.99
471.68	15101.14
471.86	15272.00
472.04	15206.46
472.22	15639.46
472.40	15337.53
472.58	15426.47
472.77	15475.62
472.95	15779.89
473.13	16217.57
473.31	15625.42
473.49	15751.81
473.67	16051.39
473.85	15955.43
474.03	16255.02
474.21	16098.20
474.39	16528.86
474.57	16404.81
474.75	16669.30
474.93	16624.83
475.12	16791.00
475.30	16823.77
475.48	16828.45
475.66	17214.64
475.84	17287.20
476.02	17289.54
476.20	17144.42
476.38	17600.83
476.56	17886.37
476.74	17891.06
476.92	17860.63
477.10	17706.15
477.28	17980.00
477.46	17954.25
477.64	18314.69
477.82	18382.57
478.00	18647.05
478.18	18967.70
478.36	19112.81
478.54	19403.04
478.72	19281.33
478.90	19386.66
479.08	19616.03
479.26	19800.93
479.44	19618.37
479.62	19850.08
479.80	19964.77
479.98	20098.18
480.16	20273.72
480.34	20432.88
480.52	21212.28
480.70	21032.05
480.88	20767.57
481.06	20933.75
481.24	20929.07
481.41	21333.98
481.59	21837.20
481.77	22015.08
481.95	21949.54
482.13	22197.64
482.31	22071.25
482.49	22820.22
482.67	22436.38
482.85	22988.74
483.03	23154.92
483.21	23260.24
483.39	23405.36
483.57	23421.74
483.74	23880.49
483.92	23814.95
484.10	23744.73
484.28	24453.92
484.46	24680.95
484.64	24758.19
484.82	24341.57
485.00	24922.02
485.18	25481.41
485.35	25694.40
485.53	25893.35
485.71	25542.27
485.89	26508.91
486.07	26181.23
486.25	26267.83
486.43	26799.13
486.61	26993.40
486.78	26998.08
486.96	26977.01
487.14	27384.27
487.32	27278.94
487.50	27847.69
487.68	28280.69
487.85	28524.11
488.03	28416.44
488.21	28723.05
488.39	29230.95
488.57	28996.90
488.75	29493.09
488.92	29373.72
489.10	30204.61
489.28	30197.59
489.46	30490.16
489.64	30543.99
489.81	31105.72
489.99	31281.26
490.17	30965.29
490.35	31557.44
490.53	31510.63
490.70	31807.88
490.88	32261.94
491.06	32421.10
491.24	32395.35
491.41	32449.19
491.59	32797.93
491.77	33006.23
491.95	33610.09
492.13	33565.62
492.30	33813.72
492.48	34024.37
492.66	34113.31
492.84	34209.27
493.01	34403.53
493.19	34483.11
493.37	35014.41
493.54	35342.09
493.72	35351.45
493.90	34962.92
494.08	35784.45
494.25	36460.87
494.43	36142.55
494.61	36456.18
494.79	36825.99
494.96	36840.03
495.14	36898.55
495.32	37453.25
495.49	37464.96
495.67	37329.20
495.85	37792.63
496.02	38059.45
496.20	38218.61
496.38	38218.61
496.55	38232.65
496.73	39021.41
496.91	38815.44
497.09	39571.44
497.26	39372.49
497.44	39662.72
497.62	39707.19
497.79	39959.97
497.97	39920.18
498.14	40491.27
498.32	41062.36
498.50	40655.11
498.67	41088.10
498.85	40589.57
499.03	41256.62
499.20	41352.58
499.38	41762.18
499.56	41780.90
499.73	41956.44
499.91	41855.80
500.08	42178.79
500.26	41846.44
500.44	42073.47
500.61	42340.29
500.79	42656.26
500.97	42700.73
501.14	43395.87
501.32	43236.72
501.49	43157.14
501.67	43454.39
501.84	43615.88
502.02	43215.65
502.20	43995.05
502.37	44355.49
502.55	44011.43
502.72	44285.28
502.90	44648.06
503.07	44112.08
503.25	44842.32
503.43	45031.91
503.60	45549.17
503.78	45216.81
503.95	45331.50
504.13	45443.84
504.30	45521.08
504.48	45462.57
504.65	45846.41
504.83	45881.52
505.01	46300.48
505.18	46405.80
505.36	46405.80
505.53	45736.41
505.71	46653.90
505.88	46684.33
506.06	46160.05
506.23	47222.65
506.41	46780.29
506.58	47150.09
506.76	47159.45
506.93	47529.26
507.11	47129.03
507.28	47311.59
507.46	47440.32
507.63	48435.05
507.81	48149.50
507.98	48013.75
508.16	47861.61
508.33	48470.15
508.50	48353.13
508.68	48196.31
508.85	49158.27
509.03	48603.56
509.20	49127.84
509.38	49247.21
509.55	49549.14
509.73	49469.56
509.90	49221.47
510.08	49516.37
510.25	49022.52
510.42	49495.31
510.60	49485.95
510.77	49853.41
510.95	50169.38
511.12	49724.68
511.30	49827.66
511.47	50199.81
511.64	50508.76
511.82	50990.91
511.99	50628.13
512.17	51063.47
512.34	50665.58
512.51	51051.76
512.69	51267.09
512.86	51070.49
513.04	51278.80
513.21	51341.99
513.38	51468.38
513.56	51498.81
513.73	51510.51
513.90	51786.69
514.08	51452.00
514.25	51791.37
514.43	51812.44
514.60	51880.31
514.77	51997.34
514.95	52161.18
515.12	52055.85
515.29	52144.80
515.47	52493.54
515.64	52758.02
515.81	52442.04
515.99	52528.64
516.16	53083.35
516.33	52500.56
516.51	52978.03
516.68	52900.79
516.85	52713.55
517.03	53242.51
517.20	53263.57
517.37	53315.06
517.54	53296.34
517.72	53017.82
517.89	53354.85
518.06	53308.04
518.24	53155.91
518.41	53408.68
518.58	53654.44
518.75	53574.86
518.93	53895.52
519.10	53827.64
519.27	54007.86
519.45	53811.26
519.62	54157.66
519.79	53808.92
519.96	54279.36
520.14	54281.70
520.31	54314.47
520.48	54707.68
520.65	54401.07
520.83	54513.42
521.00	54438.52
521.17	54487.67
521.34	54733.43
521.52	54644.49
521.69	54934.71
521.86	54871.52
522.03	55084.51
522.20	55236.64
522.38	55168.77
522.55	55217.92
522.72	55299.84
522.89	55274.09
523.07	55557.30
523.24	55402.82
523.41	55489.42
523.58	55224.94
523.75	55629.85
523.92	55487.08
524.10	55683.69
524.27	56060.51
524.44	55973.91
524.61	56058.17
524.78	56002.00
524.96	55917.74
525.13	55845.18
525.30	56163.50
525.47	56060.51
525.64	56027.74
525.81	56259.46
525.98	56458.40
526.16	56591.81
526.33	56205.62
526.50	56554.36
526.67	56692.46
526.84	56519.26
527.01	56135.41
527.18	56500.53
527.36	56647.99
527.53	56807.14
527.70	56926.51
527.87	56910.13
528.04	56598.83
528.21	56891.40
528.38	56968.64
528.55	57052.90
528.72	56980.34
528.89	57179.29
529.07	56938.21
529.24	57006.09
529.41	57333.76
529.58	57219.08
529.75	57017.79
529.92	57385.25
530.09	57153.54
530.26	57324.40
530.43	57371.21
530.60	57425.04
530.77	57565.48
530.94	57719.95
531.11	57490.58
531.28	57490.58
531.46	57525.69
531.63	57890.81
531.80	57822.93
531.97	58113.16
532.14	57986.77
532.31	57773.78
532.48	57771.44
532.65	58117.84
532.82	57930.60
532.99	58183.38
533.16	57986.77
533.33	58188.06
533.50	58389.34
533.67	58319.13
533.84	58323.81
534.01	58166.99
534.18	57993.79
534.35	58438.50
534.52	58314.45
534.69	58571.91
534.86	58532.12
535.03	58394.03
535.20	58571.91
535.37	58550.84
535.54	58518.07
535.71	58328.49
535.88	58768.51
536.05	58768.51
536.22	58897.24
536.38	59089.16
536.55	58848.09
536.72	58960.44
536.89	58513.39
537.06	58918.31
537.23	58960.44
537.40	58747.45
537.57	58850.43
537.74	58997.88
537.91	59360.67
538.08	59199.17
538.25	59025.97
538.42	59068.10
538.59	59461.31
538.75	59178.10
538.92	59215.55
539.09	59442.59
539.26	59430.88
539.43	59414.50
539.60	59391.09
539.77	59515.14
539.94	59370.03
540.11	59615.79
540.28	59536.21
540.44	59671.96
540.61	59526.84
540.78	59597.06
540.95	59824.09
541.12	59796.01
541.29	59950.48
541.46	59859.20
541.62	59781.96
541.79	59812.39
541.96	59835.80
542.13	59763.24
542.30	60090.91
542.47	60086.23
542.63	60119.00
542.80	59980.91
542.97	60346.03
543.14	60411.57
543.31	60226.66
543.48	60142.41
543.64	60392.84
543.81	60346.03
543.98	60437.31
544.15	60552.00
544.32	60617.53
544.48	60671.37
544.65	60479.44
544.82	60544.98
544.99	60397.52
545.16	60544.98
545.32	60360.08
545.49	60818.82
545.66	60825.84
545.83	60814.14
546.00	61024.79
546.16	60781.37
546.33	60512.21
546.50	60629.24
546.67	60783.71
546.83	60624.56
547.00	60708.82
547.17	60949.89
547.34	60933.51
547.50	60945.21
547.67	61261.18
547.84	61226.07
548.00	61015.43
548.17	61116.07
548.34	61087.98
548.51	61333.74
548.67	61319.70
548.84	61244.80
549.01	61050.53
549.18	61034.15
549.34	61361.82
549.51	61392.25
549.68	61350.12
549.84	61137.13
550.01	61495.24
550.18	61403.95
550.34	61359.48
550.51	61382.89
550.68	61392.25
550.84	61385.23
551.01	61535.02
551.18	61499.92
551.34	61338.42
551.51	61499.92
551.68	61654.39
551.84	61773.76
552.01	61542.05
552.18	61733.97
552.34	61584.18
552.51	61797.16
552.68	61647.37
552.84	61666.09
553.01	61755.03
553.18	61762.06
553.34	61923.55
553.51	61916.53
553.67	61949.30
553.84	62019.52
554.01	62045.26
554.17	62122.50
554.34	62181.01
554.51	62141.22
554.67	62106.12
554.84	62028.88
555.00	61935.26
555.17	62115.48
555.33	62204.42
555.50	62145.90
555.67	62134.20
555.83	62204.42
556.00	62026.54
556.16	62363.57
556.33	62248.89
556.50	62431.45
556.66	62375.28
556.83	62314.42
556.99	62255.91
557.16	62625.71
557.32	62394.00
557.49	62644.44
557.65	62101.43
557.82	62185.69
557.98	62478.26
558.15	62501.67
558.32	62574.22
558.48	62660.82
558.65	62721.68
558.81	62588.27
558.98	62709.97
559.14	62506.35
559.31	62501.67
559.47	62546.14
559.64	62583.58
559.80	62447.83
559.97	62756.78
560.13	62646.78
560.30	62747.42
560.46	62761.47
560.63	62621.03
560.79	62841.04
560.96	62712.31
561.12	62735.72
561.29	62724.02
561.45	62810.62
561.61	62819.98
561.78	62876.15
561.94	62955.73
562.11	63037.65
562.27	62927.64
562.44	62721.68
562.60	62782.53
562.77	62918.28
562.93	62848.06
563.10	63100.84
563.26	62953.39
563.42	63189.78
563.59	62714.65
563.75	63068.08
563.92	63089.14
564.08	62932.32
564.24	63021.26
564.41	63075.10
564.57	63142.97
564.74	63117.23
564.90	63128.93
565.07	63353.62
565.23	63079.78
565.39	63299.79
565.56	63238.93
565.72	62972.11
565.88	63238.93
566.05	63124.25
566.21	63032.97
566.38	63173.40
566.54	63117.23
566.70	63370.00
566.87	63384.05
567.03	63168.72
567.19	63489.37
567.36	63393.41
567.52	63032.97
567.68	63189.78
567.85	62995.52
568.01	63299.79
568.17	63318.51
568.34	63323.19
568.50	63288.09
568.66	63501.07
568.83	63456.60
568.99	63255.32
569.15	63337.24
569.32	63309.15
569.48	63299.79
569.64	63341.92
569.81	63168.72
569.97	63187.44
570.13	63435.54
570.30	63426.18
570.46	63536.18
570.62	63409.79
570.78	63437.88
570.95	63412.13
571.11	63327.87
571.27	63428.52
571.43	63557.25
571.60	63543.20
571.76	63454.26
571.92	63522.14
572.09	63575.97
572.25	63641.51
572.41	63618.10
572.57	63468.31
572.74	63770.24
572.90	63449.58
573.06	63426.18
573.22	63554.91
573.38	63482.35
573.55	63519.80
573.71	63861.52
573.87	63777.26
574.03	63590.01
574.20	63489.37
574.36	63529.16
574.52	63627.46
574.68	63564.27
574.84	63477.67
575.01	63739.81
575.17	63620.44
575.33	63824.07
575.49	63604.06
575.65	63793.64
575.82	63950.46
575.98	63594.70
576.14	63756.19
576.30	63725.77
576.46	63515.12
576.62	63730.45
576.79	63795.98
576.95	63657.89
577.11	63592.36
577.27	63662.57
577.43	63781.94
577.59	63763.21
577.75	63725.77
577.92	63704.70
578.08	63559.59
578.24	63732.79
578.40	63688.32
578.56	63873.22
578.72	63810.03
578.88	64013.65
579.04	64039.40
579.21	63931.73
579.37	63901.31
579.53	63917.69
579.69	63575.97
579.85	63866.20
580.01	63866.20
580.17	63678.96
580.33	63821.73
580.49	63957.48
580.65	64008.97
580.82	63938.75
580.98	63721.08
581.14	63964.50
581.30	63941.10
581.46	63735.13
581.62	63702.36
581.78	63615.76
581.94	64053.44
582.10	63669.59
582.26	63913.01
582.42	63924.71
582.58	63929.39
582.74	63966.84
582.90	63976.20
583.06	63934.07
583.22	64058.12
583.38	64046.42
583.54	63833.43
583.70	63833.43
583.86	64067.48
584.02	63943.44
584.18	64015.99
584.34	64032.38
584.50	64137.70
584.66	63955.14
584.82	63793.64
584.98	63990.25
585.14	64048.76
585.30	63725.77
585.46	63987.91
585.62	63901.31
585.78	64067.48
585.94	63774.92
586.10	63992.59
586.26	64076.85
586.42	64175.15
586.58	64184.51
586.74	63845.13
586.90	63882.58
587.06	63814.71
587.22	63880.24
587.38	64025.35
587.54	64163.45
587.70	64212.60
587.86	64172.81
588.02	63992.59
588.18	64151.74
588.34	64048.76
588.49	64133.02
588.65	63877.90
