SpectraSuite Data File
++++++++++++++++++++++++++++++++++++
Date: Fri Oct 04 11:48:31 GMT-05:00 2013
User: price-jones
Dark Spectrum Present: No
Reference Spectrum Present: No
Number of Sampled Component Spectra: 1
Spectrometers: USB2+H05261
Integration Time (usec): 100000 (USB2+H05261)
Spectra Averaged: 1 (USB2+H05261)
Boxcar Smoothing: 0 (USB2+H05261)
Correct for Electrical Dark: No (USB2+H05261)
Strobe/Lamp Enabled: No (USB2+H05261)
Correct for Detector Non-linearity: No (USB2+H05261)
Correct for Stray Light: No (USB2+H05261)
Number of Pixels in Processed Spectrum: 2048
>>>>>Begin Processed Spectral Data<<<<<
365.73	77.24
365.92	77.24
366.12	77.24
366.32	0.00
366.52	0.00
366.72	11.70
366.91	0.00
367.11	0.00
367.31	0.00
367.51	0.00
367.70	0.00
367.90	0.00
368.10	0.00
368.30	0.00
368.49	0.00
368.69	0.00
368.89	0.00
369.09	0.00
369.28	0.00
369.48	0.00
369.68	0.00
369.87	14.04
370.07	0.00
370.27	14.04
370.47	147.45
370.66	416.62
370.86	411.93
371.06	500.87
371.25	573.43
371.45	437.68
371.65	568.75
371.84	519.60
372.04	477.47
372.24	510.24
372.44	538.32
372.63	554.71
372.83	540.66
373.03	552.37
373.22	613.22
373.42	540.66
373.62	596.84
373.81	622.58
374.01	601.52
374.21	622.58
374.40	578.11
374.60	643.65
374.79	674.07
374.99	589.82
375.19	561.73
375.38	711.52
375.58	678.76
375.78	760.67
375.97	690.46
376.17	751.31
376.37	645.99
376.56	713.86
376.76	732.59
376.95	681.10
377.15	767.70
377.35	725.57
377.54	683.44
377.74	793.44
377.93	746.63
378.13	767.70
378.33	821.53
378.52	678.76
378.72	784.08
378.91	744.29
379.11	844.93
379.31	739.61
379.50	798.12
379.70	826.21
379.89	823.87
380.09	800.46
380.28	828.55
380.48	718.54
380.68	798.12
380.87	854.30
381.07	851.96
381.26	861.32
381.46	866.00
381.65	851.96
381.85	884.72
382.04	896.43
382.24	849.61
382.43	851.96
382.63	924.51
382.83	903.45
383.02	945.58
383.22	997.07
383.41	912.81
383.61	919.83
383.80	933.87
384.00	915.15
384.19	891.74
384.39	1032.18
384.58	947.92
384.78	1015.79
384.97	959.62
385.17	952.60
385.36	1015.79
385.56	1050.90
385.75	1053.24
385.95	1025.15
386.14	1013.45
386.34	924.51
386.53	1083.67
386.72	999.41
386.92	1081.33
387.11	1039.20
387.31	1132.82
387.50	1111.75
387.70	1193.67
387.89	1135.16
388.09	1060.26
388.28	1074.31
388.48	1125.80
388.67	1118.78
388.86	1088.35
389.06	1188.99
389.25	1203.04
389.45	1188.99
389.64	1210.06
389.84	1294.32
390.03	1184.31
390.22	1228.78
390.42	1247.51
390.61	1256.87
390.81	1142.18
391.00	1200.69
391.19	1280.27
391.39	1231.12
391.58	1306.02
391.78	1247.51
391.97	1394.96
392.16	1369.21
392.36	1308.36
392.55	1394.96
392.75	1364.53
392.94	1359.85
393.13	1418.36
393.33	1371.55
393.52	1383.26
393.71	1418.36
393.91	1481.56
394.10	1460.49
394.29	1437.09
394.49	1460.49
394.68	1406.66
394.88	1530.71
395.07	1542.41
395.26	1467.52
395.46	1570.50
395.65	1544.75
395.84	1556.46
396.04	1542.41
396.23	1565.82
396.42	1631.35
396.62	1610.29
396.81	1589.22
397.00	1722.63
397.19	1605.61
397.39	1706.25
397.58	1633.69
397.77	1617.31
397.97	1743.70
398.16	1802.21
398.35	1706.25
398.55	1774.13
398.74	1863.07
398.93	1879.45
399.12	1774.13
399.32	1741.36
399.51	1769.44
399.70	1827.96
399.90	1830.30
400.09	1879.45
400.28	1973.07
400.47	1863.07
400.67	1863.07
400.86	1949.67
401.05	1940.30
401.24	1952.01
401.44	2108.82
401.63	2125.21
401.82	2094.78
402.01	2097.12
402.21	2029.24
402.40	2047.97
402.59	2017.54
402.78	2111.16
402.97	2076.06
403.17	2169.68
403.36	2125.21
403.55	2129.89
403.74	2179.04
403.93	2279.68
404.13	2272.66
404.32	2179.04
404.51	2157.97
404.70	2377.98
404.89	2370.96
405.09	2282.02
405.28	2267.98
405.47	2305.43
405.66	2413.09
405.85	2356.92
406.05	2457.56
406.24	2483.31
406.43	2436.50
406.62	2434.16
406.81	2560.55
407.00	2473.95
407.20	2457.56
407.39	2448.20
407.58	2541.82
407.77	2586.29
407.96	2602.68
408.15	2637.78
408.34	2665.87
408.54	2668.21
408.73	2689.28
408.92	2724.38
409.11	2682.25
409.30	2708.00
409.49	2682.25
409.68	2796.94
409.87	2890.56
410.07	2801.62
410.26	2923.33
410.45	2768.85
410.64	2899.92
410.83	3042.70
411.02	2932.69
411.21	3173.77
411.40	3049.72
411.59	3136.32
411.78	3152.70
411.98	3148.02
412.17	3047.38
412.36	3091.85
412.55	3232.28
412.74	3260.37
412.93	3349.31
413.12	3349.31
413.31	3496.76
413.50	3314.20
413.69	3330.58
413.88	3496.76
414.07	3330.58
414.26	3569.32
414.45	3590.38
414.64	3492.08
414.83	3648.90
415.02	3564.64
415.22	3665.28
415.41	3836.14
415.60	3756.56
415.79	3747.20
415.98	3737.84
416.17	3742.52
416.36	3730.81
416.55	3829.12
416.74	3859.54
416.93	3906.35
417.12	4135.73
417.31	3971.89
417.50	3985.93
417.69	4170.83
417.88	4145.09
418.07	3988.27
418.26	4138.07
418.45	4107.64
418.64	4231.69
418.83	4180.20
419.02	4243.39
419.21	4257.43
419.39	4432.97
419.58	4353.40
419.77	4285.52
419.96	4451.70
420.15	4510.21
420.34	4447.02
420.53	4444.68
420.72	4479.79
420.91	4535.96
421.10	4589.79
421.29	4751.29
421.48	4559.36
421.67	4601.49
421.86	4669.37
422.05	4819.16
422.24	4503.19
422.43	4547.66
422.61	4777.03
422.80	4809.80
422.99	4816.82
423.18	4882.36
423.37	4835.55
423.56	4795.76
423.75	4755.97
423.94	4746.61
424.13	4505.53
424.32	4678.73
424.50	4870.65
424.69	4980.66
424.88	4868.31
425.07	4751.29
425.26	4809.80
425.45	4826.18
425.64	4945.55
425.83	4868.31
426.01	4999.38
426.20	4887.04
426.39	4851.93
426.58	4870.65
426.77	4851.93
426.96	4985.34
427.15	4840.23
427.33	5032.15
427.52	5013.43
427.71	5085.98
427.90	5043.85
428.09	5064.92
428.28	5121.09
428.46	5256.84
428.65	5107.05
428.84	5275.57
429.03	5357.49
429.22	5193.65
429.40	5186.63
429.59	5331.74
429.78	4936.19
429.97	5067.26
430.16	5214.71
430.34	5483.88
430.53	5418.34
430.72	5462.81
430.91	5242.80
431.10	5432.38
431.28	5579.84
431.47	5418.34
431.66	5769.42
431.85	5607.92
432.03	5633.67
432.22	5853.68
432.41	5771.76
432.60	5731.97
432.79	5799.85
432.97	5720.27
433.16	5975.39
433.35	5834.96
433.54	5844.32
433.72	5781.12
433.91	5916.87
434.10	6022.20
434.28	5919.21
434.47	5991.77
434.66	6108.80
434.85	6111.14
435.03	6122.84
435.22	6071.35
435.41	6232.85
435.59	6258.59
435.78	6190.72
435.97	6392.00
436.16	6188.38
436.34	6366.26
436.53	6373.28
436.72	6569.88
436.90	6235.19
437.09	6504.35
437.28	6314.77
437.46	6525.41
437.65	6422.43
437.84	6534.78
438.02	6679.89
438.21	6523.07
438.40	6450.52
438.58	6698.61
438.77	6759.47
438.96	6771.17
439.14	6967.77
439.33	7063.74
439.52	6792.23
439.70	7012.24
439.89	7061.40
440.08	7171.40
440.26	7173.74
440.45	7218.21
440.63	7318.86
440.82	7330.56
441.01	7386.73
441.19	7386.73
441.38	7520.14
441.57	7480.35
441.75	7681.64
441.94	7606.74
442.12	7782.28
442.31	7812.71
442.50	7866.54
442.68	7864.20
442.87	7868.88
443.05	7908.67
443.24	8119.32
443.43	7953.14
443.61	8051.44
443.80	8255.07
443.98	8018.68
444.17	7793.98
444.35	8072.51
444.54	8280.82
444.73	8198.90
444.91	8280.82
445.10	8119.32
445.28	8060.80
445.47	8184.85
445.65	8018.68
445.84	8339.33
446.02	8243.37
446.21	8091.23
446.39	8091.23
446.58	8287.84
446.77	8273.79
446.95	8269.11
447.14	8198.90
447.32	8388.48
447.51	8348.69
447.69	8334.65
447.88	8344.01
448.06	8226.98
448.25	8512.53
448.43	8348.69
448.62	8353.37
448.80	8489.12
448.99	8688.07
449.17	8662.32
449.36	8505.51
449.54	8791.05
449.73	8915.10
449.91	8798.07
450.10	8739.56
450.28	8896.38
450.46	8772.33
450.65	9055.53
450.83	8903.40
451.02	8901.06
451.20	8933.82
451.39	8992.34
451.57	8823.82
451.76	9018.08
451.94	9048.51
452.13	9163.20
452.31	8966.59
452.49	9062.55
452.68	9242.78
452.86	9298.95
453.05	9238.09
453.23	9291.93
453.42	9261.50
453.60	9163.20
453.78	9259.16
453.97	9107.02
454.15	9467.47
454.34	9228.73
454.52	9469.81
454.70	9343.42
454.89	9556.41
455.07	9380.87
455.26	9891.10
455.44	9928.55
455.62	9799.82
455.81	9635.99
455.99	9893.44
456.17	9888.76
456.36	10197.71
456.54	10054.94
456.73	10162.61
456.91	10223.46
457.09	10160.27
457.28	10340.49
457.46	10260.91
457.64	10237.50
457.83	10478.58
458.01	10120.48
458.19	10492.62
458.38	10377.94
458.56	10619.01
458.74	10675.18
458.93	10511.35
459.11	10602.63
459.29	10616.67
459.48	10902.22
459.66	10719.65
459.84	10792.21
460.03	10885.83
460.21	10867.11
460.39	10822.64
460.57	10586.24
460.76	10850.72
460.94	11000.52
461.12	11173.72
461.31	11000.52
461.49	10937.32
461.67	10822.64
461.85	11309.47
462.04	11272.02
462.22	11882.90
462.40	11410.11
462.59	11316.49
462.77	11250.96
462.95	11321.17
463.13	11382.03
463.32	11393.73
463.50	11597.35
463.68	11674.59
463.86	11737.79
464.05	11433.52
464.23	11611.40
464.41	11744.81
464.59	11485.01
464.78	11906.31
464.96	11791.62
465.14	11599.70
465.32	11714.38
465.50	11906.31
465.69	11819.71
465.87	11882.90
466.05	11943.75
466.23	11889.92
466.41	12065.46
466.60	12203.55
466.78	12233.98
466.96	11822.05
467.14	12194.19
467.32	12114.61
467.51	12390.80
467.69	11910.99
467.87	12194.19
468.05	12528.89
468.23	12290.15
468.41	12187.17
468.60	12287.81
468.78	12432.93
468.96	12339.30
469.14	12620.17
469.32	12662.30
469.50	12325.26
469.69	12692.73
469.87	12943.16
470.05	12919.76
470.23	12865.92
470.41	12901.03
470.59	13123.38
470.77	13011.04
470.95	13062.53
471.14	13425.31
471.32	12987.63
471.50	13458.08
471.68	13406.59
471.86	13696.82
472.04	13575.11
472.22	13614.90
472.40	13511.91
472.58	13902.78
472.77	13809.16
472.95	13879.38
473.13	14232.80
473.31	14164.92
473.49	14108.75
473.67	14040.87
473.85	14085.34
474.03	14389.61
474.21	14345.14
474.39	14661.12
474.57	14768.78
474.75	14663.46
474.93	14672.82
475.12	14991.13
475.30	15047.30
475.48	15061.35
475.66	15026.24
475.84	15056.67
476.02	15164.33
476.20	15302.42
476.38	15662.86
476.56	15548.18
476.74	15892.24
476.92	15812.66
477.10	15800.96
477.28	16252.68
477.46	15798.62
477.64	16250.34
477.82	16339.28
478.00	16456.31
478.18	16905.69
478.36	16919.73
478.54	17006.33
478.72	17081.23
478.90	17296.56
479.08	17507.21
479.26	17525.93
479.44	17689.77
479.62	17729.56
479.80	17790.41
479.98	18068.94
480.16	18197.67
480.34	17919.14
480.52	18377.89
480.70	18604.92
480.88	18497.25
481.06	18593.22
481.24	19000.47
481.41	18838.97
481.59	19101.11
481.77	19339.85
481.95	19403.04
482.13	19194.73
482.31	19470.92
482.49	19719.01
482.67	19990.52
482.85	20336.91
483.03	20437.56
483.21	20748.85
483.39	20842.47
483.57	20692.68
483.74	20903.32
483.92	21193.55
484.10	21076.52
484.28	21476.76
484.46	21603.14
484.64	22026.78
484.82	21750.60
485.00	22326.37
485.18	22682.13
485.35	22902.14
485.53	22614.26
485.71	23012.15
485.89	22930.23
486.07	22838.95
486.25	23285.99
486.43	23342.16
486.61	23871.12
486.78	24105.18
486.96	24336.89
487.14	24507.75
487.32	24741.80
487.50	24692.65
487.68	24783.93
487.85	25092.88
488.03	25589.08
488.21	25827.81
488.39	25486.09
488.57	25823.13
488.75	26352.09
488.92	26651.68
489.10	26703.17
489.28	26305.28
489.46	27147.87
489.64	26808.50
489.81	28053.66
489.99	27831.31
490.17	27903.87
490.35	28016.21
490.53	28020.89
490.70	28435.17
490.88	28027.92
491.06	28826.04
491.24	28917.32
491.41	28840.08
491.59	29022.64
491.77	29242.65
491.95	29446.28
492.13	29614.80
492.30	29792.68
492.48	29991.62
492.66	30050.14
492.84	30050.14
493.01	30651.66
493.19	30094.61
493.37	31023.80
493.54	31487.23
493.72	31391.26
493.90	31402.97
494.08	31990.44
494.25	32102.79
494.43	32636.43
494.61	32238.54
494.79	32620.05
494.96	32397.70
495.14	32680.90
495.32	33003.89
495.49	33237.95
495.67	33008.58
495.85	33930.75
496.02	33837.12
496.20	33577.33
496.38	34136.71
496.55	34024.37
496.73	34888.03
496.91	34249.06
497.09	34888.03
497.26	35054.20
497.44	35103.35
497.62	35180.59
497.79	35292.94
497.97	35257.83
498.14	36196.38
498.32	36109.78
498.50	36416.40
498.67	36793.22
498.85	36254.90
499.03	36954.72
499.20	36601.30
499.38	37123.24
499.56	36680.88
499.73	37013.23
499.91	37104.51
500.08	37661.56
500.26	37088.13
500.44	37415.80
500.61	37792.63
500.79	37916.68
500.97	38000.94
501.14	38286.48
501.32	38686.71
501.49	38405.85
501.67	38560.33
501.84	38845.87
502.02	38487.77
502.20	39152.48
502.37	39250.78
502.55	38988.64
502.72	39419.30
502.90	39632.29
503.07	39409.94
503.25	39805.49
503.43	40051.25
503.60	40137.85
503.78	40231.47
503.95	40257.21
504.13	40065.29
504.30	40854.05
504.48	40638.72
504.65	40627.02
504.83	40980.44
505.01	41088.10
505.18	41268.33
505.36	41621.75
505.53	41357.27
505.71	41827.71
505.88	41888.57
506.06	41614.72
506.23	42344.97
506.41	41551.53
506.58	42424.55
506.76	42761.59
506.93	42234.97
507.11	42267.73
507.28	42717.12
507.46	42934.79
507.63	42667.97
507.81	43442.68
507.98	42972.24
508.16	43225.01
508.33	43075.22
508.50	42684.35
508.68	43807.81
508.85	43749.29
509.03	44222.08
509.20	43969.30
509.38	44664.44
509.55	44509.97
509.73	44376.56
509.90	44282.94
510.08	44516.99
510.25	44905.52
510.42	44575.50
510.60	45202.77
510.77	45258.94
510.95	45404.05
511.12	45158.30
511.30	45134.89
511.47	45392.35
511.64	46031.32
511.82	46185.79
511.99	46024.29
512.17	46424.53
512.34	46052.38
512.51	46733.48
512.69	46305.16
512.86	46557.94
513.04	47110.30
513.21	46656.24
513.38	46733.48
513.56	47164.14
513.73	47056.47
513.90	47217.97
514.08	47306.91
514.25	47290.52
514.43	47594.79
514.60	47632.24
514.77	47667.35
514.95	47749.27
515.12	47618.20
515.29	47323.29
515.47	47992.68
515.64	48346.11
515.81	48392.92
515.99	48273.55
516.16	48708.89
516.33	48495.90
516.51	48828.26
516.68	48301.64
516.85	48678.46
517.03	48767.40
517.20	49371.26
517.37	49200.40
517.54	48994.43
517.72	49113.80
517.89	49397.01
518.06	49120.82
518.24	49205.08
518.41	49230.83
518.58	49380.62
518.75	49401.69
518.93	49614.68
519.10	49422.75
519.27	50101.51
519.45	49617.02
519.62	49715.32
519.79	49851.07
519.96	50127.25
520.14	50438.54
520.31	50190.45
520.48	50586.00
520.65	50274.71
520.83	50791.97
521.00	50426.84
521.17	50635.15
521.34	50908.99
521.52	50820.05
521.69	50990.91
521.86	51236.67
522.03	51175.81
522.20	51168.79
522.38	51356.03
522.55	51220.28
522.72	51267.09
522.89	51510.51
523.07	51817.12
523.24	51807.76
523.41	51725.84
523.58	51220.28
523.75	51721.16
523.92	51765.63
524.10	51976.28
524.27	52444.38
524.44	52030.11
524.61	52320.34
524.78	52147.14
524.96	52299.27
525.13	51995.00
525.30	52538.01
525.47	52575.45
525.64	52308.63
525.81	52343.74
525.98	52828.23
526.16	52722.91
526.33	52732.27
526.50	53183.99
526.67	52549.71
526.84	52966.32
527.01	52921.85
527.18	53083.35
527.36	53015.47
527.53	53207.40
527.70	53368.90
527.87	53277.61
528.04	53188.67
528.21	53064.63
528.38	53071.65
528.55	53502.31
528.72	53539.75
528.89	53710.61
529.07	53687.21
529.24	53375.92
529.41	53965.73
529.58	53731.68
529.75	53537.41
529.92	53560.82
530.09	53937.65
530.26	53932.96
530.43	54141.27
530.60	53911.90
530.77	54000.84
530.94	54220.85
531.11	53911.90
531.28	54017.22
531.46	54152.97
531.63	54230.21
531.80	54546.18
531.97	54431.50
532.14	54497.03
532.31	54583.63
532.48	54691.30
532.65	54426.82
532.82	54419.80
532.99	54632.78
533.16	54649.17
533.33	54780.24
533.50	55035.36
533.67	54915.99
533.84	54855.14
534.01	54873.86
534.18	54841.09
534.35	55009.61
534.52	54934.71
534.69	55250.69
534.86	55260.05
535.03	55068.12
535.20	55323.24
535.37	55332.60
535.54	55299.84
535.71	55278.77
535.88	55377.08
536.05	55636.87
536.22	55634.53
536.38	55798.37
536.55	55671.98
536.72	55519.85
536.89	55533.89
537.06	55554.96
537.23	55693.05
537.40	55646.24
537.57	55519.85
537.74	55728.16
537.91	56144.77
538.08	56236.05
538.25	55945.83
538.42	55920.08
538.59	56055.83
538.75	55889.65
538.92	55863.91
539.09	56093.28
539.26	56207.97
539.43	56308.61
539.60	56355.42
539.77	56306.27
539.94	56547.34
540.11	56406.91
540.28	56179.88
540.44	56186.90
540.61	56404.57
540.78	56509.89
540.95	56811.82
541.12	56624.58
541.29	56676.07
541.46	56537.98
541.62	56427.98
541.79	56680.75
541.96	56233.71
542.13	56587.13
542.30	56704.16
542.47	56907.79
542.63	57024.81
542.80	56966.30
542.97	56992.04
543.14	57017.79
543.31	56875.02
543.48	56963.96
543.64	57181.63
543.81	57605.26
543.98	57340.78
544.15	57558.45
544.32	57373.55
544.48	57591.22
544.65	57476.54
544.82	57623.99
544.99	57193.33
545.16	57200.35
545.32	57628.67
545.49	57609.95
545.66	57888.47
545.83	57731.65
546.00	57876.77
546.16	57670.80
546.33	57408.66
546.50	57296.31
546.67	57556.11
546.83	57623.99
547.00	57776.12
547.17	57619.31
547.34	57939.96
547.50	57874.43
547.67	58117.84
547.84	57958.69
548.00	58162.31
548.17	58101.46
548.34	57977.41
548.51	58433.81
548.67	58356.58
548.84	58248.91
549.01	58174.02
549.18	58258.27
549.34	58120.18
549.51	58183.38
549.68	58150.61
549.84	58199.76
550.01	58253.59
550.18	57909.53
550.34	58066.35
550.51	58375.30
550.68	58394.03
550.84	58089.76
551.01	58616.38
551.18	58370.62
551.34	58293.38
551.51	58532.12
551.68	58649.14
551.84	58707.66
552.01	58520.41
552.18	58597.65
552.34	58677.23
552.51	59091.51
552.68	58501.69
552.84	58534.46
553.01	58869.15
553.18	58770.85
553.34	58747.45
553.51	58756.81
553.67	58789.58
553.84	59014.27
554.01	58974.48
554.17	58810.64
554.34	58965.12
554.51	58932.35
554.67	59276.41
554.84	58904.26
555.00	58965.12
555.17	59075.12
555.33	59145.34
555.50	59040.01
555.67	59124.27
555.83	59042.35
556.00	59309.18
556.16	59285.77
556.33	59201.51
556.50	58990.86
556.66	59288.11
556.83	59145.34
556.99	59433.22
557.16	59487.06
557.32	59529.19
557.49	59566.63
557.65	59430.88
557.82	59498.76
557.98	59365.35
558.15	59379.39
558.32	59550.25
558.48	59540.89
558.65	59517.48
558.81	59774.94
558.98	59573.66
559.14	59313.86
559.31	59554.93
559.47	59487.06
559.64	59526.84
559.80	59693.02
559.97	59922.40
560.13	59606.42
560.30	59650.89
560.46	59695.36
560.63	59702.38
560.79	59730.47
560.96	59896.65
561.12	59805.37
561.29	59690.68
561.45	59767.92
561.61	59891.97
561.78	59952.82
561.94	59938.78
562.11	59969.21
562.27	60009.00
562.44	59681.32
562.60	59671.96
562.77	59852.18
562.93	60023.04
563.10	60126.02
563.26	59826.43
563.42	60214.96
563.59	59955.16
563.75	59964.52
563.92	60048.78
564.08	60179.85
564.24	59896.65
564.41	60137.72
564.57	59840.48
564.74	59936.44
564.90	59948.14
565.07	60268.79
565.23	60172.83
565.39	60168.15
565.56	60051.12
565.72	60179.85
565.88	60144.75
566.05	59913.03
566.21	60055.81
566.38	60062.83
566.54	60317.95
566.70	60420.93
566.87	60488.80
567.03	60261.77
567.19	60542.64
567.36	60479.44
567.52	59971.55
567.68	60289.86
567.85	60055.81
568.01	60250.07
568.17	60058.15
568.34	60406.89
568.50	60591.79
568.66	60247.73
568.83	60418.59
568.99	60320.29
569.15	60083.89
569.32	60303.90
569.48	60254.75
569.64	60411.57
569.81	60287.52
569.97	60247.73
570.13	60336.67
570.30	60245.39
570.46	60573.06
570.62	60406.89
570.78	60481.78
570.95	60460.72
571.11	60474.76
571.27	60542.64
571.43	60434.97
571.60	60687.75
571.76	60388.16
571.92	60582.43
572.09	60690.09
572.25	60687.75
572.41	60601.15
572.57	60535.62
572.74	60678.39
572.90	60399.86
573.06	60289.86
573.22	60369.44
573.38	60772.01
573.55	60491.15
573.71	60767.33
573.87	60828.18
574.03	60509.87
574.20	60746.26
574.36	60488.80
574.52	60617.53
574.68	60491.15
574.84	60669.03
575.01	60629.24
575.17	60573.06
575.33	60734.56
575.49	60748.60
575.65	60851.59
575.82	60842.23
575.98	60633.92
576.14	60921.80
576.30	60748.60
576.46	60746.26
576.62	60594.13
576.79	60549.66
576.95	60552.00
577.11	60704.13
577.27	60893.72
577.43	60807.12
577.59	60645.62
577.75	60891.38
577.92	60764.99
578.08	60453.70
578.24	60540.30
578.40	60715.84
578.56	60617.53
578.72	60947.55
578.88	60931.17
579.04	60985.00
579.21	60818.82
579.37	60807.12
579.53	60870.31
579.69	60725.20
579.85	60729.88
580.01	60811.80
580.17	60842.23
580.33	61015.43
580.49	60912.44
580.65	60924.14
580.82	60977.98
580.98	61022.45
581.14	60954.57
581.30	60853.93
581.46	61095.00
581.62	60652.64
581.78	60516.89
581.94	61013.08
582.10	60851.59
582.26	61029.47
582.42	60912.44
582.58	61020.11
582.74	61151.18
582.90	60973.30
583.06	60910.10
583.22	60992.02
583.38	60973.30
583.54	60975.64
583.70	60879.67
583.86	61020.11
584.02	60757.97
584.18	61041.17
584.34	61024.79
584.50	61162.88
584.66	61034.15
584.82	60893.72
584.98	60921.80
585.14	60842.23
585.30	60823.50
585.46	60776.69
585.62	60767.33
585.78	60935.85
585.94	60863.29
586.10	61020.11
586.26	61066.92
586.42	61062.24
586.58	61109.05
586.74	60919.46
586.90	61078.62
587.06	60849.25
587.22	61167.56
587.38	61062.24
587.54	61270.54
587.70	61155.86
587.86	61197.99
588.02	61043.51
588.18	61315.01
588.34	61291.61
588.49	61057.56
588.65	60987.34
588.81	61073.94
588.97	61265.86
