SpectraSuite Data File
++++++++++++++++++++++++++++++++++++
Date: Fri Oct 04 11:48:27 GMT-05:00 2013
User: price-jones
Dark Spectrum Present: No
Reference Spectrum Present: No
Number of Sampled Component Spectra: 1
Spectrometers: USB2+H05261
Integration Time (usec): 100000 (USB2+H05261)
Spectra Averaged: 1 (USB2+H05261)
Boxcar Smoothing: 0 (USB2+H05261)
Correct for Electrical Dark: No (USB2+H05261)
Strobe/Lamp Enabled: No (USB2+H05261)
Correct for Detector Non-linearity: No (USB2+H05261)
Correct for Stray Light: No (USB2+H05261)
Number of Pixels in Processed Spectrum: 2048
>>>>>Begin Processed Spectral Data<<<<<
365.73	0.00
365.92	0.00
366.12	0.00
366.32	0.00
366.52	0.00
366.72	0.00
366.91	0.00
367.11	0.00
367.31	0.00
367.51	0.00
367.70	0.00
367.90	0.00
368.10	25.75
368.30	0.00
368.49	0.00
368.69	0.00
368.89	0.00
369.09	0.00
369.28	0.00
369.48	0.00
369.68	0.00
369.87	0.00
370.07	0.00
370.27	28.09
370.47	0.00
370.66	203.63
370.86	168.52
371.06	205.97
371.25	231.71
371.45	264.48
371.65	198.95
371.84	266.82
372.04	250.44
372.24	170.86
372.44	299.59
372.63	327.68
372.83	245.76
373.03	297.25
373.22	210.65
373.42	283.20
373.62	334.70
373.81	250.44
374.01	327.68
374.21	351.08
374.40	257.46
374.60	409.59
374.79	280.86
374.99	351.08
375.19	294.91
375.38	332.36
375.58	337.04
375.78	330.02
375.97	294.91
376.17	447.04
376.37	355.76
376.56	383.85
376.76	358.10
376.95	318.31
377.15	292.57
377.35	407.25
377.54	360.44
377.74	397.89
377.93	404.91
378.13	348.74
378.33	416.62
378.52	348.74
378.72	407.25
378.91	344.06
379.11	332.36
379.31	332.36
379.50	404.91
379.70	353.42
379.89	355.76
380.09	379.17
380.28	400.23
380.48	428.32
380.68	374.49
380.87	365.12
381.07	367.46
381.26	341.72
381.46	482.15
381.65	348.74
381.85	393.21
382.04	393.21
382.24	383.85
382.43	435.34
382.63	411.93
382.83	411.93
383.02	409.59
383.22	409.59
383.41	362.78
383.61	390.87
383.80	367.46
384.00	482.15
384.19	482.15
384.39	458.74
384.58	505.56
384.78	500.87
384.97	447.04
385.17	440.02
385.36	500.87
385.56	503.22
385.75	461.09
385.95	458.74
386.14	477.47
386.34	465.77
386.53	491.51
386.72	533.64
386.92	543.00
387.11	531.30
387.31	503.22
387.50	566.41
387.70	507.90
387.89	498.53
388.09	535.98
388.28	489.17
388.48	519.60
388.67	477.47
388.86	538.32
389.06	552.37
389.25	580.45
389.45	564.07
389.64	559.39
389.84	521.94
390.03	514.92
390.22	568.75
390.42	571.09
390.61	578.11
390.81	540.66
391.00	470.45
391.19	676.41
391.39	559.39
391.58	641.31
391.78	587.47
391.97	613.22
392.16	578.11
392.36	627.26
392.55	650.67
392.75	657.69
392.94	617.90
393.13	641.31
393.33	533.64
393.52	571.09
393.71	706.84
393.91	643.65
394.10	692.80
394.29	580.45
394.49	631.94
394.68	648.33
394.88	706.84
395.07	699.82
395.26	716.20
395.46	695.14
395.65	702.16
395.84	753.65
396.04	779.40
396.23	690.46
396.42	718.54
396.62	653.01
396.81	767.70
397.00	847.27
397.19	695.14
397.39	704.50
397.58	856.64
397.77	774.72
397.97	702.16
398.16	786.42
398.35	821.53
398.55	793.44
398.74	753.65
398.93	767.70
399.12	800.46
399.32	753.65
399.51	866.00
399.70	875.36
399.90	880.04
400.09	833.23
400.28	870.68
400.47	877.70
400.67	959.62
400.86	870.68
401.05	1025.15
401.24	933.87
401.44	976.00
401.63	945.58
401.82	997.07
402.01	908.13
402.21	943.24
402.40	896.43
402.59	964.30
402.78	1039.20
402.97	1022.81
403.17	1053.24
403.36	1039.20
403.55	917.49
403.74	1069.62
403.93	968.98
404.13	1083.67
404.32	1095.37
404.51	1043.88
404.70	1149.20
404.89	1121.12
405.09	1167.93
405.28	1093.03
405.47	1203.04
405.66	1128.14
405.85	1184.31
406.05	1153.88
406.24	1193.67
406.43	1231.12
406.62	1245.16
406.81	1193.67
407.00	1219.42
407.20	1172.61
407.39	1249.85
407.58	1296.66
407.77	1315.38
407.96	1273.25
408.15	1303.68
408.34	1324.74
408.54	1383.26
408.73	1427.73
408.92	1320.06
409.11	1401.98
409.30	1453.47
409.49	1380.92
409.68	1376.24
409.87	1404.32
410.07	1481.56
410.26	1383.26
410.45	1380.92
410.64	1563.48
410.83	1516.67
411.02	1406.66
411.21	1664.12
411.40	1598.59
411.59	1610.29
411.78	1607.95
411.98	1577.52
412.17	1563.48
412.36	1621.99
412.55	1724.97
412.74	1664.12
412.93	1692.21
413.12	1675.82
413.31	1760.08
413.50	1682.85
413.69	1743.70
413.88	1804.55
414.07	1900.52
414.26	1863.07
414.45	1858.39
414.64	1820.94
414.83	1942.64
415.02	1834.98
415.22	1937.96
415.41	1877.11
415.60	1818.60
415.79	1982.43
415.98	1996.48
416.17	2064.35
416.36	1949.67
416.55	2012.86
416.74	2036.27
416.93	2129.89
417.12	2127.55
417.31	2160.31
417.50	2108.82
417.69	2160.31
417.88	2244.57
418.07	2153.29
418.26	2204.78
418.45	2136.91
418.64	2265.64
418.83	2153.29
419.02	2228.19
419.21	2195.42
419.39	2242.23
419.58	2260.96
419.77	2186.06
419.96	2267.98
420.15	2354.58
420.34	2377.98
420.53	2387.35
420.72	2436.50
420.91	2356.92
421.10	2422.45
421.29	2534.80
421.48	2457.56
421.67	2497.35
421.86	2495.01
422.05	2532.46
422.24	2455.22
422.43	2450.54
422.61	2422.45
422.80	2586.29
422.99	2593.31
423.18	2555.86
423.37	2403.73
423.56	2693.96
423.75	2530.12
423.94	2436.50
424.13	2321.81
424.32	2354.58
424.50	2576.93
424.69	2581.61
424.88	2590.97
425.07	2495.01
425.26	2525.44
425.45	2492.67
425.64	2471.61
425.83	2626.08
426.01	2637.78
426.20	2612.04
426.39	2567.57
426.58	2555.86
426.77	2619.06
426.96	2637.78
427.15	2647.15
427.33	2754.81
427.52	2637.78
427.71	2738.43
427.90	2661.19
428.09	2743.11
428.28	2686.94
428.46	2799.28
428.65	2803.96
428.84	2846.09
429.03	2892.90
429.22	2764.17
429.40	2885.88
429.59	2743.11
429.78	2712.68
429.97	2708.00
430.16	2778.22
430.34	2768.85
430.53	2839.07
430.72	2736.09
430.91	2862.48
431.10	3049.72
431.28	3028.65
431.47	3028.65
431.66	3049.72
431.85	3045.04
432.03	2944.39
432.22	3098.87
432.41	3035.67
432.60	3215.90
432.79	3073.12
432.97	3040.36
433.16	3124.62
433.35	3040.36
433.54	3141.00
433.72	3124.62
433.91	3159.72
434.10	3225.26
434.28	3122.27
434.47	3279.09
434.66	3204.19
434.85	3141.00
435.03	3183.13
435.22	3229.94
435.41	3251.00
435.59	3227.60
435.78	3236.96
435.97	3290.79
436.16	3232.28
436.34	3180.79
436.53	3431.23
436.72	3454.63
436.90	3232.28
437.09	3569.32
437.28	3358.67
437.46	3393.78
437.65	3487.40
437.84	3482.72
438.02	3510.80
438.21	3431.23
438.40	3372.71
438.58	3517.83
438.77	3578.68
438.96	3639.53
439.14	3627.83
439.33	3613.79
439.52	3630.17
439.70	3758.90
439.89	3758.90
440.08	3660.60
440.26	3908.69
440.45	3812.73
440.63	3847.84
440.82	3871.25
441.01	3864.22
441.19	3918.06
441.38	3983.59
441.57	4028.06
441.75	4002.32
441.94	4180.20
442.12	4102.96
442.31	4294.88
442.50	4131.05
442.68	4180.20
442.87	3983.59
443.05	4149.77
443.24	4266.80
443.43	4238.71
443.61	4170.83
443.80	4236.37
443.98	4187.22
444.17	4072.53
444.35	4152.11
444.54	4269.14
444.73	4140.41
444.91	4194.24
445.10	4255.09
445.28	4093.60
445.47	4241.05
445.65	4339.35
445.84	4337.01
446.02	4404.89
446.21	4173.18
446.39	4306.59
446.58	4259.78
446.77	4348.72
446.95	4390.84
447.14	4311.27
447.32	4360.42
447.51	4332.33
447.69	4383.82
447.88	4463.40
448.06	4353.40
448.25	4341.69
448.43	4421.27
448.62	4402.55
448.80	4355.74
448.99	4395.53
449.17	4500.85
449.36	4353.40
449.54	4526.60
449.73	4461.06
449.91	4624.90
450.10	4657.67
450.28	4643.62
450.46	4631.92
450.65	4617.88
450.83	4667.03
451.02	4695.11
451.20	4592.13
451.39	4784.06
451.57	4557.02
451.76	4648.30
451.94	4788.74
452.13	4833.21
452.31	4725.54
452.49	4645.96
452.68	4823.84
452.86	4777.03
453.05	4868.31
453.23	4919.81
453.42	4828.53
453.60	4727.88
453.78	4779.37
453.97	4957.25
454.15	4821.50
454.34	4889.38
454.52	4917.47
454.70	4950.23
454.89	5062.58
455.07	5036.83
455.26	5043.85
455.44	5118.75
455.62	4978.32
455.81	5043.85
455.99	5025.13
456.17	5083.64
456.36	5027.47
456.54	5111.73
456.73	5252.16
456.91	5191.31
457.09	5331.74
457.28	5413.66
457.46	5439.40
457.64	5451.11
457.83	5298.97
458.01	5404.30
458.19	5373.87
458.38	5453.45
458.56	5490.90
458.74	5350.46
458.93	5387.91
459.11	5427.70
459.29	5577.50
459.48	5521.32
459.66	5621.97
459.84	5575.16
460.03	5762.40
460.21	5589.20
460.39	5610.26
460.57	5575.16
460.76	5598.56
460.94	5724.95
461.12	5701.54
461.31	5729.63
461.49	5820.91
461.67	5753.04
461.85	5951.98
462.04	5797.51
462.22	6282.00
462.40	5970.71
462.59	5748.36
462.77	5949.64
462.95	6031.56
463.13	5853.68
463.32	5900.49
463.50	6005.81
463.68	5802.19
463.86	5935.60
464.05	5909.85
464.23	5973.05
464.41	6097.10
464.59	5989.43
464.78	6127.52
464.96	5963.68
465.14	6019.86
465.32	6228.17
465.50	5914.53
465.69	6274.98
465.87	6216.46
466.05	6141.57
466.23	6186.04
466.41	6314.77
466.60	6342.85
466.78	6183.70
466.96	6277.32
467.14	6298.38
467.32	6251.57
467.51	6370.94
467.69	6193.06
467.87	6406.05
468.05	6452.86
468.23	6223.48
468.41	6321.79
468.60	6314.77
468.78	6361.58
468.96	6352.21
469.14	6628.40
469.32	6352.21
469.50	6537.12
469.69	6616.69
469.87	6801.60
470.05	6745.42
470.23	6661.16
470.41	6743.08
470.59	6803.94
470.77	6642.44
470.95	6607.33
471.14	6909.26
471.32	6808.62
471.50	6925.65
471.68	6927.99
471.86	6867.13
472.04	6897.56
472.22	7112.89
472.40	6846.07
472.58	6953.73
472.77	7056.72
472.95	7241.62
473.13	7393.75
473.31	7236.94
473.49	7000.54
473.67	7143.32
473.85	7019.27
474.03	7421.84
474.21	7391.41
474.39	7445.24
474.57	7470.99
474.75	7709.72
474.93	7805.69
475.12	7618.44
475.30	7709.72
475.48	7501.42
475.66	7604.40
475.84	7566.95
476.02	7763.56
476.20	7808.03
476.38	7885.26
476.56	8149.75
476.74	8133.36
476.92	8042.08
477.10	7915.69
477.28	7915.69
477.46	8077.19
477.64	8081.87
477.82	8334.65
478.00	8456.36
478.18	8374.44
478.36	8531.25
478.54	8571.04
478.72	8681.05
478.90	8542.96
479.08	8711.47
479.26	8807.44
479.44	8910.42
479.62	9050.85
479.80	9111.71
479.98	9015.74
480.16	9240.44
480.34	9280.22
480.52	9282.56
480.70	9263.84
480.88	9303.63
481.06	9476.83
481.24	9245.12
481.41	9383.21
481.59	9699.18
481.77	9891.10
481.95	9753.01
482.13	9870.04
482.31	10008.13
482.49	9966.00
482.67	9961.32
482.85	10094.73
483.03	10317.08
483.21	10544.11
483.39	10455.17
483.57	10565.18
483.74	10511.35
483.92	10829.66
484.10	10581.56
484.28	10925.62
484.46	11000.52
484.64	11021.58
484.82	10925.62
485.00	11145.63
485.18	11215.85
485.35	11461.60
485.53	11239.25
485.71	11260.32
485.89	11707.36
486.07	11683.95
486.25	11602.04
486.43	11578.63
486.61	11796.30
486.78	12053.76
486.96	12161.42
487.14	12304.20
487.32	12170.79
487.50	12257.39
487.68	12320.58
487.85	12566.34
488.03	12397.82
488.21	12982.95
488.39	12842.52
488.57	13085.94
488.75	13099.98
488.92	13123.38
489.10	13448.72
489.28	13341.05
489.46	13696.82
489.64	13432.33
489.81	13785.76
489.99	13563.40
490.17	13748.31
490.35	13940.23
490.53	14090.02
490.70	13879.38
490.88	14391.95
491.06	14277.27
491.24	14546.43
491.41	14370.89
491.59	14420.04
491.77	14417.70
491.95	14698.56
492.13	14864.74
492.30	15012.20
492.48	14785.16
492.66	14899.85
492.84	15035.60
493.01	15314.13
493.19	15138.58
493.37	15197.10
493.54	15456.90
493.72	15403.07
493.90	15585.63
494.08	15765.85
494.25	15906.28
494.43	15838.41
494.61	16276.09
494.79	15941.39
494.96	16112.25
495.14	16140.33
495.32	16100.55
495.49	16498.44
495.67	16692.70
495.85	16744.19
496.02	17111.66
496.20	16886.97
496.38	16727.81
496.55	16645.89
496.73	17256.77
496.91	17287.20
497.09	16994.63
497.26	17511.89
497.44	17336.35
497.62	17532.95
497.79	17502.53
497.97	17671.04
498.14	17848.93
498.32	18050.21
498.50	17963.61
498.67	18368.52
498.85	18157.88
499.03	18277.24
499.20	18111.07
499.38	18207.03
499.56	18506.62
499.73	18480.87
499.91	18853.02
500.08	18731.31
500.26	18761.73
500.44	18665.77
500.61	18958.34
500.79	18838.97
500.97	18946.64
501.14	19267.29
501.32	19066.00
501.49	19241.54
501.67	18956.00
501.84	19227.50
502.02	19381.98
502.20	19449.85
502.37	19618.37
502.55	19459.21
502.72	19559.86
502.90	19726.04
503.07	19674.54
503.25	19885.19
503.43	19946.05
503.60	19913.28
503.78	19625.39
503.95	20023.28
504.13	20144.99
504.30	20159.03
504.48	19955.41
504.65	20203.50
504.83	20280.74
505.01	20311.17
505.18	20198.82
505.36	20952.48
505.53	20688.00
505.71	21055.46
505.88	20683.31
506.06	20657.57
506.23	21043.76
506.41	21153.76
506.58	21186.53
506.76	21113.97
506.93	21209.93
507.11	21207.59
507.28	21343.35
507.46	21369.09
507.63	21308.24
507.81	21923.80
507.98	21380.79
508.16	21153.76
508.33	21764.64
508.50	21682.72
508.68	21649.96
508.85	22078.27
509.03	22043.17
509.20	21713.15
509.38	22473.82
509.55	22305.31
509.73	22075.93
509.90	22300.62
510.08	22225.73
510.25	22202.32
510.42	22405.95
510.60	22485.53
510.77	22476.16
510.95	22614.26
511.12	22792.14
511.30	22904.48
511.47	22841.29
511.64	22991.08
511.82	23388.97
511.99	23323.44
512.17	23194.71
512.34	23101.09
512.51	23213.43
512.69	23438.12
512.86	23138.54
513.04	23555.15
513.21	23627.71
513.38	23569.19
513.56	23681.54
513.73	23527.06
513.90	23950.70
514.08	23496.64
514.25	23896.87
514.43	24201.14
514.60	24238.59
514.77	24343.91
514.95	24254.97
515.12	23864.10
515.29	24095.82
515.47	24329.87
515.64	24563.92
515.81	24491.37
515.99	24807.34
516.16	24505.41
516.33	24379.02
516.51	24662.22
516.68	24683.29
516.85	24474.98
517.03	25301.19
517.20	24744.14
517.37	24945.43
517.54	25216.93
517.72	24999.26
517.89	25041.39
518.06	25017.99
518.24	24917.34
518.41	25177.14
518.58	25029.69
518.75	25085.86
518.93	25317.57
519.10	25069.48
519.27	25216.93
519.45	25319.92
519.62	25596.10
519.79	25308.21
519.96	25708.44
520.14	25701.42
520.31	25703.76
520.48	26010.37
520.65	25846.54
520.83	26192.94
521.00	25986.97
521.17	25764.62
521.34	26525.29
521.52	26457.42
521.69	26120.38
521.86	26328.69
522.03	26663.38
522.20	26405.92
522.38	26656.36
522.55	26487.84
522.72	26546.36
522.89	26642.32
523.07	27019.14
523.24	26675.09
523.41	26771.05
523.58	26630.62
523.75	27014.46
523.92	26391.88
524.10	27119.79
524.27	27143.19
524.44	27204.05
524.61	27358.52
524.78	27255.54
524.96	27213.41
525.13	27524.70
525.30	27386.61
525.47	27208.73
525.64	27419.38
525.81	27850.03
525.98	27772.80
526.16	27365.54
526.33	27583.21
526.50	28208.14
526.67	27414.69
526.84	27695.56
527.01	27735.35
527.18	28283.03
527.36	28051.32
527.53	28002.17
527.70	28481.98
527.87	27786.84
528.04	28210.48
528.21	28086.43
528.38	27875.78
528.55	27992.81
528.72	28236.22
528.89	28261.97
529.07	28219.84
529.24	28088.77
529.41	28582.62
529.58	28114.52
529.75	28259.63
529.92	28416.44
530.09	28528.79
530.26	28215.16
530.43	28746.46
530.60	28491.34
530.77	28533.47
530.94	28783.91
531.11	28627.09
531.28	28652.84
531.46	28783.91
531.63	28961.79
531.80	28992.22
531.97	29064.77
532.14	29163.08
532.31	28994.56
532.48	28961.79
532.65	28912.64
532.82	29099.88
532.99	29310.53
533.16	29149.03
533.33	29399.47
533.50	29809.06
533.67	29745.87
533.84	29357.34
534.01	29469.69
534.18	29312.87
534.35	29598.41
534.52	29287.12
534.69	29844.17
534.86	29778.64
535.03	29589.05
535.20	29521.18
535.37	30064.18
535.54	29855.87
535.71	29509.47
535.88	29720.12
536.05	30176.53
536.22	30054.82
536.38	29954.18
536.55	30113.33
536.72	30075.88
536.89	29963.54
537.06	30036.09
537.23	29612.46
537.40	29916.73
537.57	29823.11
537.74	29996.31
537.91	30206.95
538.08	30555.69
538.25	30588.46
538.42	29755.23
538.59	30513.56
538.75	30157.80
538.92	30223.34
539.09	30831.88
539.26	30396.54
539.43	30656.34
539.60	30387.18
539.77	30792.09
539.94	30969.97
540.11	31084.65
540.28	30698.47
540.44	31019.12
540.61	30668.04
540.78	30459.73
540.95	30864.64
541.12	30993.37
541.29	30988.69
541.46	30876.35
541.62	31150.19
541.79	30932.52
541.96	31084.65
542.13	30904.43
542.30	31290.62
542.47	31278.92
542.63	31522.34
542.80	31466.16
542.97	31625.32
543.14	31838.31
543.31	31578.51
543.48	31241.47
543.64	31910.86
543.81	31828.95
543.98	31740.00
544.15	31821.92
544.32	31845.33
544.48	31929.59
544.65	31807.88
544.82	32058.32
544.99	31477.86
545.16	31948.31
545.32	31960.02
545.49	32510.04
545.66	32032.57
545.83	32250.24
546.00	32329.82
546.16	32297.05
546.33	31711.92
546.50	32147.26
546.67	32697.28
546.83	31938.95
547.00	32662.18
547.17	32093.43
547.34	32446.85
547.50	32203.43
547.67	32397.70
547.84	32507.70
548.00	32589.62
548.17	32254.92
548.34	32465.57
548.51	32753.46
548.67	32350.88
548.84	32858.78
549.01	32765.16
549.18	32360.25
549.34	32374.29
549.51	32739.41
549.68	32793.25
549.84	32683.24
550.01	32811.97
550.18	32240.88
550.34	32898.57
550.51	32708.99
550.68	32917.29
550.84	32481.95
551.01	33081.13
551.18	32737.07
551.34	32907.93
551.51	33013.26
551.68	33228.59
551.84	33596.05
552.01	32849.42
552.18	33242.63
552.34	33376.04
552.51	33280.08
552.68	33120.92
552.84	33284.76
553.01	33134.96
553.18	33181.77
553.34	32921.98
553.51	33551.58
553.67	33663.93
553.84	33722.44
554.01	33612.43
554.17	33214.54
554.34	33598.39
554.51	33589.03
554.67	33610.09
554.84	33441.57
555.00	33624.14
555.17	33610.09
555.33	34071.18
555.50	33209.86
555.67	33888.62
555.83	33415.83
556.00	33659.24
556.16	33479.02
556.33	33603.07
556.50	33890.96
556.66	34040.75
556.83	33951.81
556.99	33942.45
557.16	33865.21
557.32	33818.40
557.49	34103.95
557.65	33633.50
557.82	33764.57
557.98	33816.06
558.15	34190.55
558.32	34232.68
558.48	33521.15
558.65	33769.25
558.81	34000.96
558.98	33951.81
559.14	33797.34
559.31	33542.22
559.47	33809.04
559.64	33862.87
559.80	33890.96
559.97	34333.32
560.13	34164.80
560.30	34003.30
560.46	34005.64
560.63	34132.03
560.79	34000.96
560.96	34260.76
561.12	34312.25
561.29	34066.50
561.45	34459.71
561.61	34450.35
561.78	34323.96
561.94	33790.31
562.11	34525.24
562.27	33860.53
562.44	34075.86
562.60	34211.61
562.77	34096.92
562.93	34356.72
563.10	34506.52
563.26	34026.71
563.42	34450.35
563.59	34293.53
563.75	34504.18
563.92	34426.94
564.08	34279.49
564.24	34555.67
564.41	34700.78
564.57	34693.76
564.74	34532.26
564.90	34593.12
565.07	34504.18
565.23	34382.47
565.39	34288.85
565.56	34707.80
565.72	34527.58
565.88	34382.47
566.05	34462.05
566.21	34628.23
566.38	34646.95
566.54	34274.80
566.70	34412.90
566.87	34712.49
567.03	34560.35
567.19	35119.74
567.36	34976.97
567.52	34745.25
567.68	34691.42
567.85	34267.78
568.01	34653.97
568.17	34705.46
568.34	34904.41
568.50	34796.74
568.66	35016.75
568.83	35262.51
568.99	34656.31
569.15	34614.18
569.32	34436.30
569.48	34780.36
569.64	35026.12
569.81	34731.21
569.97	34712.49
570.13	35325.71
570.30	34731.21
570.46	34859.94
570.62	34808.45
570.78	34824.83
570.95	34485.45
571.11	35108.04
571.27	34628.23
571.43	34586.10
571.60	35428.69
571.76	34885.68
571.92	34958.24
572.09	34735.89
572.25	35019.10
572.41	34550.99
572.57	34635.25
572.74	34834.19
572.90	34986.33
573.06	34864.62
573.22	34939.52
573.38	34660.99
573.55	35061.22
573.71	35201.66
573.87	35269.53
574.03	34906.75
574.20	35122.08
574.36	34499.50
574.52	34866.96
574.68	34881.00
574.84	34780.36
575.01	35019.10
575.17	35281.24
575.33	34857.60
575.49	34714.83
575.65	35206.34
575.82	34951.22
575.98	34672.70
576.14	35119.74
576.30	34878.66
576.46	35028.46
576.62	34960.58
576.79	35239.11
576.95	35005.05
577.11	35054.20
577.27	35189.95
577.43	35185.27
577.59	35274.21
577.75	35023.78
577.92	34976.97
578.08	34660.99
578.24	35103.35
578.40	34796.74
578.56	34988.67
578.72	34859.94
578.88	35211.02
579.04	35463.80
579.21	35229.74
579.37	34740.57
579.53	35175.91
579.69	35042.50
579.85	35161.87
580.01	35297.62
580.17	35168.89
580.33	35220.38
580.49	35529.33
580.65	35154.85
580.82	35225.06
580.98	34998.03
581.14	34745.25
581.30	35374.86
581.46	34827.17
581.62	35098.67
581.78	34927.81
581.94	34885.68
582.10	35709.55
582.26	34747.59
582.42	35452.09
582.58	35419.33
582.74	35241.45
582.90	35143.14
583.06	35147.82
583.22	34871.64
583.38	35089.31
583.54	35105.70
583.70	35002.71
583.86	35101.01
584.02	35072.93
584.18	35360.81
584.34	35377.20
584.50	35646.36
584.66	35433.37
584.82	35168.89
584.98	35353.79
585.14	35241.45
585.30	35171.23
585.46	35049.52
585.62	35175.91
585.78	35321.02
585.94	34831.85
586.10	35225.06
586.26	35157.19
586.42	35311.66
586.58	35007.39
586.74	34946.54
586.90	34593.12
587.06	35124.42
587.22	35007.39
587.38	34787.38
587.54	35461.46
587.70	35828.92
587.86	35606.57
588.02	35267.19
588.18	35276.55
588.34	35084.63
588.49	35431.03
588.65	35079.95
588.81	35040.16
588.97	35522.31
589.13	35545.72
589.29	35164.21
589.45	35679.13
589.61	35398.26
589.77	35651.04
589.93	35454.44
590.08	35363.15
590.24	35253.15
590.40	35477.84
590.56	35054.20
590.72	35697.85
590.88	35267.19
591.04	35360.81
591.20	35412.31
591.35	35821.90
