SpectraSuite Data File
++++++++++++++++++++++++++++++++++++
Date: Fri Oct 04 11:48:30 GMT-05:00 2013
User: price-jones
Dark Spectrum Present: No
Reference Spectrum Present: No
Number of Sampled Component Spectra: 1
Spectrometers: USB2+H05261
Integration Time (usec): 100000 (USB2+H05261)
Spectra Averaged: 1 (USB2+H05261)
Boxcar Smoothing: 0 (USB2+H05261)
Correct for Electrical Dark: No (USB2+H05261)
Strobe/Lamp Enabled: No (USB2+H05261)
Correct for Detector Non-linearity: No (USB2+H05261)
Correct for Stray Light: No (USB2+H05261)
Number of Pixels in Processed Spectrum: 2048
>>>>>Begin Processed Spectral Data<<<<<
365.73	56.17
365.92	56.17
366.12	56.17
366.32	0.00
366.52	0.00
366.72	0.00
366.91	0.00
367.11	0.00
367.31	0.00
367.51	0.00
367.70	0.00
367.90	0.00
368.10	0.00
368.30	0.00
368.49	0.00
368.69	0.00
368.89	0.00
369.09	0.00
369.28	0.00
369.48	0.00
369.68	0.00
369.87	0.00
370.07	44.47
370.27	49.15
370.47	117.03
370.66	273.84
370.86	367.46
371.06	332.36
371.25	299.59
371.45	367.46
371.65	365.12
371.84	301.93
372.04	397.89
372.24	428.32
372.44	369.80
372.63	393.21
372.83	545.34
373.03	491.51
373.22	423.64
373.42	407.25
373.62	493.85
373.81	503.22
374.01	578.11
374.21	507.90
374.40	475.13
374.60	489.17
374.79	545.34
374.99	449.38
375.19	465.77
375.38	386.19
375.58	498.53
375.78	500.87
375.97	430.66
376.17	526.62
376.37	486.83
376.56	531.30
376.76	505.56
376.95	465.77
377.15	538.32
377.35	585.13
377.54	517.26
377.74	554.71
377.93	599.18
378.13	524.28
378.33	585.13
378.52	554.71
378.72	587.47
378.91	603.86
379.11	545.34
379.31	526.62
379.50	622.58
379.70	554.71
379.89	615.56
380.09	641.31
380.28	557.05
380.48	613.22
380.68	622.58
380.87	685.78
381.07	615.56
381.26	634.29
381.46	578.11
381.65	601.52
381.85	671.73
382.04	704.50
382.24	681.10
382.43	638.97
382.63	669.39
382.83	650.67
383.02	674.07
383.22	667.05
383.41	695.14
383.61	638.97
383.80	629.60
384.00	692.80
384.19	725.57
384.39	709.18
384.58	720.88
384.78	718.54
384.97	713.86
385.17	697.48
385.36	706.84
385.56	716.20
385.75	807.48
385.95	620.24
386.14	730.25
386.34	739.61
386.53	781.74
386.72	741.95
386.92	812.17
387.11	833.23
387.31	833.23
387.50	809.83
387.70	835.57
387.89	716.20
388.09	662.37
388.28	819.19
388.48	889.40
388.67	863.66
388.86	849.61
389.06	814.51
389.25	924.51
389.45	877.70
389.64	933.87
389.84	868.34
390.03	908.13
390.22	929.19
390.42	856.64
390.61	936.21
390.81	837.91
391.00	861.32
391.19	952.60
391.39	929.19
391.58	915.15
391.78	994.73
391.97	884.72
392.16	957.28
392.36	1025.15
392.55	1053.24
392.75	992.39
392.94	1025.15
393.13	985.37
393.33	917.49
393.52	1036.86
393.71	1093.03
393.91	1011.11
394.10	1057.92
394.29	976.00
394.49	1004.09
394.68	1107.07
394.88	1146.86
395.07	1053.24
395.26	1093.03
395.46	1020.47
395.65	1153.88
395.84	1116.44
396.04	1240.48
396.23	1193.67
396.42	1071.97
396.62	1093.03
396.81	1177.29
397.00	1142.18
397.19	1179.63
397.39	1219.42
397.58	1252.19
397.77	1102.39
397.97	1165.59
398.16	1231.12
398.35	1287.29
398.55	1315.38
398.74	1221.76
398.93	1371.55
399.12	1275.59
399.32	1273.25
399.51	1289.64
399.70	1444.11
399.90	1357.51
400.09	1406.66
400.28	1416.02
400.47	1446.45
400.67	1371.55
400.86	1406.66
401.05	1373.89
401.24	1455.81
401.44	1504.96
401.63	1439.43
401.82	1490.92
402.01	1476.88
402.21	1481.56
402.40	1544.75
402.59	1446.45
402.78	1544.75
402.97	1561.14
403.17	1556.46
403.36	1607.95
403.55	1495.60
403.74	1596.25
403.93	1570.50
404.13	1629.01
404.32	1736.68
404.51	1701.57
404.70	1668.80
404.89	1753.06
405.09	1755.40
405.28	1678.16
405.47	1736.68
405.66	1792.85
405.85	1832.64
406.05	1795.19
406.24	1781.15
406.43	1837.32
406.62	1870.09
406.81	1853.70
407.00	1865.41
407.20	1827.96
407.39	1947.33
407.58	1837.32
407.77	1930.94
407.96	1968.39
408.15	1902.86
408.34	2029.24
408.54	2045.63
408.73	1926.26
408.92	1975.41
409.11	1989.46
409.30	1966.05
409.49	1898.17
409.68	2012.86
409.87	2099.46
410.07	2036.27
410.26	2155.63
410.45	2174.36
410.64	2003.50
410.83	2125.21
411.02	2207.13
411.21	2239.89
411.40	2214.15
411.59	2279.68
411.78	2291.38
411.98	2223.51
412.17	2356.92
412.36	2420.11
412.55	2427.14
412.74	2422.45
412.93	2485.65
413.12	2455.22
413.31	2490.33
413.50	2490.33
413.69	2518.42
413.88	2530.12
414.07	2583.95
414.26	2656.51
414.45	2724.38
414.64	2590.97
414.83	2731.41
415.02	2792.26
415.22	2698.64
415.41	2813.32
415.60	2806.30
415.79	2860.13
415.98	2909.29
416.17	2834.39
416.36	2778.22
416.55	2928.01
416.74	2916.31
416.93	2789.92
417.12	3030.99
417.31	3007.59
417.50	3087.17
417.69	3159.72
417.88	3103.55
418.07	3049.72
418.26	3045.04
418.45	2970.14
418.64	3279.09
418.83	3248.66
419.02	3279.09
419.21	3274.41
419.39	3290.79
419.58	3246.32
419.77	3377.39
419.96	3276.75
420.15	3377.39
420.34	3141.00
420.53	3379.73
420.72	3349.31
420.91	3316.54
421.10	3496.76
421.29	3559.95
421.48	3382.07
421.67	3618.47
421.86	3590.38
422.05	3440.59
422.24	3471.01
422.43	3555.27
422.61	3375.05
422.80	3662.94
422.99	3625.49
423.18	3658.26
423.37	3679.32
423.56	3632.51
423.75	3468.67
423.94	3377.39
424.13	3201.85
424.32	3566.98
424.50	3604.42
424.69	3723.79
424.88	3691.02
425.07	3417.18
425.26	3538.89
425.45	3545.91
425.64	3552.93
425.83	3604.42
426.01	3695.71
426.20	3637.19
426.39	3733.15
426.58	3625.49
426.77	3658.26
426.96	3751.88
427.15	3684.00
427.33	3763.58
427.52	3833.80
427.71	3857.20
427.90	3885.29
428.09	3953.16
428.28	3976.57
428.46	3901.67
428.65	3904.01
428.84	3962.53
429.03	3906.35
429.22	4002.32
429.40	3950.82
429.59	3934.44
429.78	3939.12
429.97	3866.56
430.16	3964.87
430.34	4021.04
430.53	4070.19
430.72	4021.04
430.91	4100.62
431.10	4067.85
431.28	4102.96
431.47	4327.65
431.66	4205.94
431.85	4198.92
432.03	4287.86
432.22	4379.14
432.41	4257.43
432.60	4395.53
432.79	4273.82
432.97	4269.14
433.16	4395.53
433.35	4430.63
433.54	4463.40
433.72	4440.00
433.91	4337.01
434.10	4554.68
434.28	4486.81
434.47	4416.59
434.66	4531.28
434.85	4671.71
435.03	4554.68
435.22	4648.30
435.41	4753.63
435.59	4613.20
435.78	4580.43
435.97	4746.61
436.16	4702.14
436.34	4770.01
436.53	4894.06
436.72	4919.81
436.90	4753.63
437.09	4858.95
437.28	4784.06
437.46	4877.68
437.65	4772.35
437.84	4898.74
438.02	4985.34
438.21	5018.11
438.40	4898.74
438.58	5081.30
438.77	5195.99
438.96	5214.71
439.14	5226.42
439.33	5397.28
439.52	5284.93
439.70	5322.38
439.89	5502.60
440.08	5411.32
440.26	5352.81
440.45	5437.06
440.63	5467.49
440.82	5636.01
441.01	5373.87
441.19	5579.84
441.38	5535.37
441.57	5657.07
441.75	5818.57
441.94	5764.74
442.12	5827.93
442.31	5970.71
442.50	5898.15
442.68	5617.29
442.87	5785.80
443.05	5947.30
443.24	6047.94
443.43	6078.37
443.61	6054.97
443.80	6136.88
443.98	5930.92
444.17	5776.44
444.35	6193.06
444.54	6235.19
444.73	6120.50
444.91	6181.35
445.10	6239.87
445.28	6108.80
445.47	6200.08
445.65	6061.99
445.84	6115.82
446.02	6274.98
446.21	6270.30
446.39	6317.11
446.58	6317.11
446.77	6150.93
446.95	6214.12
447.14	6104.12
447.32	6298.38
447.51	6300.72
447.69	6272.64
447.88	6204.76
448.06	6291.36
448.25	6256.25
448.43	6384.98
448.62	6223.48
448.80	6134.54
448.99	6380.30
449.17	6321.79
449.36	6284.34
449.54	6520.73
449.73	6452.86
449.91	6492.65
450.10	6576.91
450.28	6651.80
450.46	6640.10
450.65	6789.89
450.83	6724.36
451.02	6504.35
451.20	6715.00
451.39	6586.27
451.57	6544.14
451.76	6738.40
451.94	6754.79
452.13	6808.62
452.31	6822.66
452.49	6602.65
452.68	6778.19
452.86	6689.25
453.05	6801.60
453.23	6967.77
453.42	6796.92
453.60	6846.07
453.78	7007.56
453.97	6995.86
454.15	7070.76
454.34	6860.11
454.52	7026.29
454.70	7176.08
454.89	7283.75
455.07	7112.89
455.26	7129.27
455.44	7190.13
455.62	7227.57
455.81	7290.77
455.99	7328.22
456.17	7405.46
456.36	7410.14
456.54	7487.37
456.73	7531.84
456.91	7705.04
457.09	7564.61
457.28	7716.75
457.46	7653.55
457.64	7700.36
457.83	7686.32
458.01	7761.22
458.19	7887.61
458.38	7719.09
458.56	8028.04
458.74	7843.14
458.93	7801.01
459.11	7852.50
459.29	7906.33
459.48	8023.36
459.66	8056.12
459.84	8053.78
460.03	8081.87
460.21	8196.56
460.39	8180.17
460.57	8037.40
460.76	8072.51
460.94	8156.77
461.12	8180.17
461.31	8358.05
461.49	8215.28
461.67	8126.34
461.85	8400.18
462.04	8276.13
462.22	8917.44
462.40	8468.06
462.59	8362.73
462.77	8285.50
462.95	8606.15
463.13	8397.84
463.32	8631.90
463.50	8521.89
463.68	8592.11
463.86	8580.40
464.05	8416.57
464.23	8676.37
464.41	8683.39
464.59	8580.40
464.78	8627.21
464.96	8744.24
465.14	8657.64
465.32	8847.22
465.50	9083.62
465.69	9158.52
465.87	8863.61
466.05	8636.58
466.23	8971.27
466.41	9001.70
466.60	9074.26
466.78	8760.63
466.96	8959.57
467.14	8901.06
467.32	9210.01
467.51	9074.26
467.69	8737.22
467.87	8980.64
468.05	9015.74
468.23	9022.77
468.41	9128.09
468.60	9032.13
468.78	9294.27
468.96	9231.07
469.14	9291.93
469.32	9404.27
469.50	9287.25
469.69	9664.07
469.87	9621.94
470.05	9905.15
470.23	9525.98
470.41	9568.11
470.59	9935.57
470.77	9551.73
470.95	9643.01
471.14	9827.91
471.32	9614.92
471.50	9867.70
471.68	9797.48
471.86	9820.89
472.04	9877.06
472.22	10221.12
472.40	9912.17
472.58	10373.25
472.77	10286.65
472.95	10281.97
473.13	10604.97
473.31	10218.78
473.49	10377.94
473.67	10363.89
473.85	10279.63
474.03	10572.20
474.21	10457.51
474.39	10899.87
474.57	11084.78
474.75	10902.22
474.93	10895.19
475.12	10857.75
475.30	10953.71
475.48	11183.08
475.66	11187.76
475.84	11314.15
476.02	11508.41
476.20	11295.43
476.38	11538.84
476.56	11730.76
476.74	11653.53
476.92	11805.66
477.10	11433.52
477.28	11730.76
477.46	11796.30
477.64	11992.90
477.82	12149.72
478.00	12283.13
478.18	12397.82
478.36	12425.90
478.54	12561.66
478.72	12634.21
478.90	12613.15
479.08	12908.05
479.26	12650.60
479.44	13022.74
479.62	13144.45
479.80	13099.98
479.98	13043.81
480.16	13097.64
480.34	13521.27
480.52	13540.00
480.70	13820.86
480.88	13561.06
481.06	13778.73
481.24	13860.65
481.41	13912.14
481.59	14019.81
481.77	14260.88
481.95	14370.89
482.13	14443.45
482.31	14441.11
482.49	14890.49
482.67	14710.27
482.85	15063.69
483.03	15049.64
483.21	15255.61
483.39	15447.54
483.57	15372.64
483.74	15405.41
483.92	15466.26
484.10	15627.76
484.28	15697.97
484.46	16065.44
484.64	16243.32
484.82	16025.65
485.00	16208.21
485.18	16737.17
485.35	16620.14
485.53	16821.43
485.71	16875.26
485.89	17025.06
486.07	16940.80
486.25	16929.09
486.43	17212.30
486.61	17242.73
486.78	17441.67
486.96	17724.88
487.14	18019.78
487.32	17762.33
487.50	18195.32
487.68	18352.14
487.85	18775.78
488.03	18590.88
488.21	18782.80
488.39	18977.06
488.57	19318.78
488.75	19131.54
488.92	19501.34
489.10	19646.46
489.28	19634.75
489.46	20032.65
489.64	19871.15
489.81	20201.16
489.99	20322.87
490.17	20271.38
490.35	20552.24
490.53	20545.22
490.70	20936.09
490.88	21081.21
491.06	21001.63
491.24	21179.51
491.41	21319.94
491.59	21308.24
491.77	21411.22
491.95	21671.02
492.13	21958.91
492.30	21961.25
492.48	21947.20
492.66	21996.35
492.84	22298.28
493.01	22335.73
493.19	22530.00
493.37	22651.70
493.54	22647.02
493.72	23166.62
493.90	23260.24
494.08	23716.65
494.25	23293.01
494.43	23566.85
494.61	24025.60
494.79	24297.10
494.96	23915.59
495.14	23929.64
495.32	24088.79
495.49	24053.69
495.67	24596.69
495.85	24456.26
496.02	24884.58
496.20	25027.35
496.38	25001.60
496.55	24982.88
496.73	25682.70
496.91	25692.06
497.09	25446.30
497.26	25762.28
497.44	25972.92
497.62	25844.20
497.79	26345.07
497.97	26071.23
498.14	26522.95
498.32	26366.13
498.50	26909.14
498.67	26604.87
498.85	26513.59
499.03	26934.88
499.20	26951.27
499.38	27229.79
499.56	27131.49
499.73	27765.78
499.91	27583.21
500.08	27456.82
500.26	27543.42
500.44	27573.85
500.61	27728.33
500.79	27908.55
500.97	27995.15
501.14	28212.82
501.32	28187.07
501.49	28140.26
501.67	28224.52
501.84	28945.41
502.02	28741.78
502.20	28978.17
502.37	29048.39
502.55	29039.03
502.72	29170.10
502.90	28922.00
503.07	28936.04
503.25	29207.55
503.43	29378.40
503.60	29635.86
503.78	29453.30
503.95	29415.85
504.13	29654.59
504.30	29642.88
504.48	29893.32
504.65	30078.22
504.83	30103.97
505.01	30522.93
505.18	30471.43
505.36	30581.44
505.53	30181.21
505.71	30618.89
505.88	30396.54
506.06	30787.41
506.23	31063.59
506.41	30923.16
506.58	31379.56
506.76	31524.68
506.93	31594.89
507.11	31564.46
507.28	31250.83
507.46	31833.63
507.63	32114.49
507.81	31988.10
507.98	31690.85
508.16	31704.90
508.33	32048.96
508.50	32058.32
508.68	32425.78
508.85	32458.55
509.03	32594.30
509.20	32905.59
509.38	32676.22
509.55	33029.64
509.73	32985.17
509.90	33486.04
510.08	33354.97
510.25	32891.55
510.42	33362.00
510.60	33514.13
510.77	33310.50
510.95	33991.60
511.12	33415.83
511.30	33881.60
511.47	34043.09
511.64	33914.36
511.82	34267.78
511.99	34225.65
512.17	34452.69
512.34	34391.83
512.51	34794.40
512.69	34323.96
512.86	34590.78
513.04	35124.42
513.21	34904.41
513.38	35040.16
513.56	35468.48
513.73	34993.35
513.90	35030.80
514.08	35077.61
514.25	35435.71
514.43	35365.49
514.60	35709.55
514.77	35679.13
514.95	35955.31
515.12	35449.75
515.29	35702.53
515.47	36044.25
515.64	36538.10
515.81	36233.83
515.99	36453.84
516.16	36762.79
516.33	36348.52
516.51	36830.67
516.68	36659.81
516.85	36833.01
517.03	36467.89
517.20	37074.09
517.37	37153.66
517.54	37289.42
517.72	36978.12
517.89	36720.66
518.06	37415.80
518.24	36715.98
518.41	37411.12
518.58	37205.16
518.75	37504.74
518.93	37780.93
519.10	37577.30
519.27	37558.58
519.45	37610.07
519.62	37654.54
519.79	37567.94
519.96	38085.20
520.14	38478.41
520.31	38085.20
520.48	38291.16
520.65	38588.41
520.83	38295.85
521.00	38352.02
521.17	37904.98
521.34	38234.99
521.52	38581.39
521.69	38679.69
521.86	39159.50
522.03	39171.21
522.20	39136.10
522.38	39147.80
522.55	39070.56
522.72	39082.27
522.89	39313.98
523.07	39325.68
523.24	39402.92
523.41	39646.33
523.58	39086.95
523.75	39819.53
523.92	39447.39
524.10	39833.58
524.27	39920.18
524.44	40226.79
524.61	40414.03
524.78	40484.25
524.96	40470.20
525.13	40346.15
525.30	40362.54
525.47	40603.61
525.64	40320.41
525.81	40591.91
525.98	41104.49
526.16	40840.01
526.33	40538.08
526.50	40942.99
526.67	40425.73
526.84	40882.14
527.01	40818.94
527.18	40840.01
527.36	40769.79
527.53	41191.09
527.70	41434.50
527.87	41766.86
528.04	41263.64
528.21	41549.19
528.38	41504.72
528.55	41385.35
528.72	41684.94
528.89	41930.70
529.07	41654.51
529.24	42087.51
529.41	42146.03
529.58	41986.87
529.75	41808.99
529.92	42298.16
530.09	41918.99
530.26	42705.41
530.43	42117.94
530.60	42253.69
530.77	42590.73
530.94	42714.78
531.11	41911.97
531.28	42623.50
531.46	42656.26
531.63	42546.26
531.80	42698.39
531.97	43377.15
532.14	43274.16
532.31	42916.06
532.48	43360.76
532.65	42902.02
532.82	43150.12
532.99	43269.48
533.16	43201.61
533.33	43021.39
533.50	43702.48
533.67	43377.15
533.84	43550.35
534.01	43672.06
534.18	43136.07
534.35	44016.11
534.52	43419.28
534.69	43784.40
534.86	44233.78
535.03	43714.19
535.20	44161.23
535.37	43868.66
535.54	43842.92
535.71	43833.55
535.88	43810.15
536.05	43746.95
536.22	44399.96
536.38	44442.09
536.55	44507.63
536.72	44519.33
536.89	44502.95
537.06	44692.53
537.23	44608.27
537.40	44381.24
537.57	44507.63
537.74	44491.24
537.91	45258.94
538.08	44952.33
538.25	44837.64
538.42	44854.03
538.59	45099.78
538.75	44594.23
538.92	45158.30
539.09	45055.31
539.26	45141.91
539.43	45233.19
539.60	45013.18
539.77	45340.86
539.94	45338.52
540.11	45544.48
540.28	45556.19
540.44	45762.15
540.61	45441.50
540.78	45574.91
540.95	46066.42
541.12	45621.72
541.29	45848.75
541.46	46281.75
541.62	45682.58
541.79	45841.73
541.96	45031.91
542.13	45855.78
542.30	46239.62
542.47	46443.25
542.63	46160.05
542.80	46178.77
542.97	46906.68
543.14	46351.97
543.31	46499.42
543.48	46153.02
543.64	46972.21
543.81	46990.94
543.98	46946.47
544.15	46845.82
544.32	47253.08
544.48	47728.20
544.65	47030.72
544.82	46883.27
544.99	46775.61
545.16	46485.38
545.32	47033.07
545.49	47224.99
545.66	47742.25
545.83	47065.83
546.00	47276.48
546.16	47400.53
546.33	46770.93
546.50	46993.28
546.67	47599.47
546.83	47056.47
547.00	47498.83
547.17	47662.67
547.34	47395.85
547.50	47665.01
547.67	48018.43
547.84	47669.69
548.00	47913.11
548.17	47842.89
548.34	47641.60
548.51	48498.24
548.67	47943.53
548.84	48023.11
549.01	48144.82
549.18	48226.74
549.34	48065.24
549.51	48261.85
549.68	48086.31
549.84	48327.38
550.01	48215.04
550.18	47377.12
550.34	48369.51
550.51	48383.55
550.68	48776.76
550.84	47831.19
551.01	48451.43
551.18	48105.03
551.34	47910.77
551.51	48498.24
551.68	48633.99
551.84	48800.17
552.01	48208.01
552.18	48238.44
552.34	48542.71
552.51	48832.94
552.68	48608.25
552.84	48531.01
553.01	48865.70
553.18	48767.40
553.34	49038.90
553.51	48933.58
553.67	48854.00
553.84	48996.77
554.01	49106.78
554.17	49071.67
554.34	49045.93
554.51	48926.56
554.67	49132.53
554.84	49277.64
555.00	49174.66
555.17	49406.37
555.33	49029.54
555.50	48884.43
555.67	48959.33
555.83	49364.24
556.00	49214.44
556.16	49879.16
556.33	49624.04
556.50	49565.52
556.66	49303.38
556.83	49134.87
556.99	49488.29
557.16	49911.92
557.32	49701.28
557.49	49780.85
557.65	49345.51
557.82	49605.31
557.98	49572.55
558.15	49968.10
558.32	49687.23
558.48	49846.39
558.65	49895.54
558.81	49738.72
558.98	49764.47
559.14	49743.41
559.31	49820.64
559.47	49879.16
559.64	50115.55
559.80	50080.44
559.97	50424.50
560.13	49991.50
560.30	50127.25
560.46	50045.33
560.63	50206.83
560.79	50160.02
560.96	50141.30
561.12	50293.43
561.29	50578.98
561.45	50349.60
561.61	50192.79
561.78	50230.24
561.94	50319.18
562.11	50375.35
562.27	50244.28
562.44	50237.26
562.60	50223.22
562.77	50288.75
562.93	50220.87
563.10	50433.86
563.26	50401.10
563.42	50759.20
563.59	50344.92
563.75	50480.67
563.92	50492.38
564.08	50412.80
564.24	50375.35
564.41	50356.63
564.57	50363.65
564.74	50770.90
564.90	50473.65
565.07	50621.11
565.23	50721.75
565.39	50649.19
565.56	50862.18
565.72	50288.75
565.88	50543.87
566.05	50586.00
566.21	50658.56
566.38	50843.46
566.54	50700.68
566.70	50831.75
566.87	51114.96
567.03	50712.39
567.19	51299.86
567.36	50967.51
567.52	50880.91
567.68	50527.48
567.85	50693.66
568.01	50791.97
568.17	50822.39
568.34	50679.62
568.50	50855.16
568.66	50815.37
568.83	50864.52
568.99	50475.99
569.15	50866.86
569.32	50665.58
569.48	50721.75
569.64	51367.74
569.81	50873.88
569.97	51040.06
570.13	51061.13
570.30	50843.46
570.46	50784.94
570.62	50965.17
570.78	50780.26
570.95	51009.64
571.11	50784.94
571.27	50700.68
571.43	51255.39
571.60	51435.61
571.76	51157.09
571.92	51035.38
572.09	51236.67
572.25	51171.13
572.41	50967.51
572.57	51054.11
572.74	51292.84
572.90	51147.73
573.06	51119.64
573.22	50780.26
573.38	51157.09
573.55	51126.66
573.71	51515.19
573.87	51763.29
574.03	51292.84
574.20	51119.64
574.36	51061.13
574.52	50930.06
574.68	51070.49
574.84	50885.59
575.01	51482.42
575.17	51559.66
575.33	51332.63
575.49	51110.28
575.65	51168.79
575.82	51292.84
575.98	51370.08
576.14	51437.95
576.30	51203.90
576.46	51002.61
576.62	51234.33
576.79	51119.64
576.95	51061.13
577.11	51227.31
577.27	51236.67
577.43	51487.10
577.59	51049.42
577.75	51231.99
577.92	51021.34
578.08	51217.94
578.24	51154.75
578.40	51021.34
578.56	51456.68
578.72	51231.99
578.88	51449.66
579.04	51344.33
579.21	51751.59
579.37	51578.39
579.53	51405.19
579.69	51234.33
579.85	51164.11
580.01	51746.90
580.17	51519.87
580.33	51379.44
580.49	51648.60
580.65	51407.53
580.82	51332.63
580.98	51320.93
581.14	51466.04
581.30	51585.41
581.46	51253.05
581.62	51178.15
581.78	51374.76
581.94	51742.22
582.10	51344.33
582.26	51409.87
582.42	51491.79
582.58	51557.32
582.74	51760.95
582.90	51606.47
583.06	51564.34
583.22	51547.96
583.38	51597.11
583.54	51522.21
583.70	51547.96
583.86	51543.28
584.02	51475.40
584.18	51667.33
584.34	51620.52
584.50	51475.40
584.66	51599.45
584.82	51407.53
584.98	51831.16
585.14	51386.46
585.30	51655.62
585.46	51330.29
585.62	51091.55
585.78	51349.01
585.94	51173.47
586.10	51206.24
586.26	51835.84
586.42	51576.04
586.58	51910.74
586.74	51482.42
586.90	51461.36
587.06	51487.10
587.22	51721.16
587.38	51660.30
587.54	51955.21
587.70	51990.32
587.86	51835.84
588.02	51861.59
588.18	51814.78
588.34	51767.97
588.49	51634.56
588.65	51377.10
588.81	51260.07
588.97	51648.60
589.13	51442.63
589.29	51386.46
589.45	51721.16
589.61	51758.61
589.77	52095.64
589.93	52025.43
590.08	52060.54
590.24	51889.68
