SpectraSuite Data File
++++++++++++++++++++++++++++++++++++
Date: Fri Oct 04 11:39:53 GMT-05:00 2013
User: price-jones
Dark Spectrum Present: No
Reference Spectrum Present: No
Number of Sampled Component Spectra: 1
Spectrometers: USB2+H05261
Integration Time (usec): 100000 (USB2+H05261)
Spectra Averaged: 1 (USB2+H05261)
Boxcar Smoothing: 0 (USB2+H05261)
Correct for Electrical Dark: No (USB2+H05261)
Strobe/Lamp Enabled: No (USB2+H05261)
Correct for Detector Non-linearity: No (USB2+H05261)
Correct for Stray Light: No (USB2+H05261)
Number of Pixels in Processed Spectrum: 2048
>>>>>Begin Processed Spectral Data<<<<<
365.73	65.54
365.92	65.54
366.12	65.54
366.32	0.00
366.52	28.09
366.72	0.00
366.91	0.00
367.11	21.06
367.31	0.00
367.51	0.00
367.70	0.00
367.90	0.00
368.10	4.68
368.30	0.00
368.49	0.00
368.69	23.41
368.89	0.00
369.09	28.09
369.28	0.00
369.48	0.00
369.68	0.00
369.87	0.00
370.07	2.34
370.27	72.56
370.47	86.60
370.66	100.64
370.86	208.31
371.06	175.54
371.25	189.58
371.45	131.07
371.65	196.60
371.84	135.75
372.04	112.35
372.24	152.13
372.44	184.90
372.63	180.22
372.83	276.18
373.03	152.13
373.22	177.88
373.42	224.69
373.62	173.20
373.81	212.99
374.01	294.91
374.21	248.10
374.40	198.95
374.60	229.37
374.79	229.37
374.99	215.33
375.19	182.56
375.38	255.12
375.58	243.42
375.78	201.29
375.97	271.50
376.17	325.33
376.37	269.16
376.56	205.97
376.76	276.18
376.95	248.10
377.15	255.12
377.35	297.25
377.54	198.95
377.74	252.78
377.93	245.76
378.13	262.14
378.33	243.42
378.52	220.01
378.72	238.73
378.91	241.08
379.11	236.39
379.31	231.71
379.50	194.26
379.70	245.76
379.89	264.48
380.09	189.58
380.28	227.03
380.48	257.46
380.68	191.92
380.87	184.90
381.07	243.42
381.26	283.20
381.46	355.76
381.65	250.44
381.85	252.78
382.04	220.01
382.24	301.93
382.43	271.50
382.63	304.27
382.83	255.12
383.02	322.99
383.22	299.59
383.41	297.25
383.61	348.74
383.80	238.73
384.00	285.55
384.19	245.76
384.39	299.59
384.58	299.59
384.78	245.76
384.97	280.86
385.17	322.99
385.36	278.52
385.56	332.36
385.75	287.89
385.95	276.18
386.14	266.82
386.34	285.55
386.53	327.68
386.72	255.12
386.92	297.25
387.11	341.72
387.31	304.27
387.50	266.82
387.70	306.61
387.89	257.46
388.09	285.55
388.28	278.52
388.48	334.70
388.67	355.76
388.86	355.76
389.06	369.80
389.25	351.08
389.45	379.17
389.64	273.84
389.84	386.19
390.03	388.53
390.22	397.89
390.42	390.87
390.61	334.70
390.81	311.29
391.00	330.02
391.19	379.17
391.39	341.72
391.58	458.74
391.78	365.12
391.97	379.17
392.16	269.16
392.36	379.17
392.55	402.57
392.75	416.62
392.94	449.38
393.13	369.80
393.33	407.25
393.52	390.87
393.71	381.51
393.91	402.57
394.10	358.10
394.29	367.46
394.49	372.15
394.68	414.27
394.88	482.15
395.07	425.98
395.26	484.49
395.46	421.30
395.65	409.59
395.84	514.92
396.04	507.90
396.23	416.62
396.42	482.15
396.62	449.38
396.81	416.62
397.00	414.27
397.19	447.04
397.39	444.70
397.58	566.41
397.77	435.34
397.97	428.32
398.16	503.22
398.35	507.90
398.55	531.30
398.74	479.81
398.93	620.24
399.12	482.15
399.32	507.90
399.51	470.45
399.70	503.22
399.90	573.43
400.09	514.92
400.28	585.13
400.47	566.41
400.67	578.11
400.86	568.75
401.05	578.11
401.24	622.58
401.44	543.00
401.63	533.64
401.82	690.46
402.01	669.39
402.21	566.41
402.40	643.65
402.59	629.60
402.78	723.23
402.97	622.58
403.17	620.24
403.36	685.78
403.55	648.33
403.74	711.52
403.93	697.48
404.13	716.20
404.32	791.10
404.51	758.33
404.70	727.91
404.89	711.52
405.09	716.20
405.28	821.53
405.47	744.29
405.66	767.70
405.85	847.27
406.05	842.59
406.24	905.79
406.43	826.21
406.62	891.74
406.81	919.83
407.00	866.00
407.20	720.88
407.39	915.15
407.58	938.55
407.77	936.21
407.96	842.59
408.15	1015.79
408.34	901.11
408.54	905.79
408.73	931.53
408.92	961.96
409.11	1109.41
409.30	1015.79
409.49	964.30
409.68	1060.26
409.87	1008.77
410.07	1064.94
410.26	1116.44
410.45	1170.27
410.64	1116.44
410.83	1142.18
411.02	1118.78
411.21	1118.78
411.40	1029.84
411.59	1214.74
411.78	1207.72
411.98	1207.72
412.17	1196.01
412.36	1181.97
412.55	1341.13
412.74	1282.61
412.93	1263.89
413.12	1240.48
413.31	1401.98
413.50	1357.51
413.69	1359.85
413.88	1437.09
414.07	1427.73
414.26	1352.83
414.45	1465.18
414.64	1465.18
414.83	1434.75
415.02	1500.28
415.22	1572.84
415.41	1535.39
415.60	1544.75
415.79	1490.92
415.98	1610.29
416.17	1579.86
416.36	1579.86
416.55	1703.91
416.74	1708.59
416.93	1722.63
417.12	1645.40
417.31	1544.75
417.50	1680.50
417.69	1778.81
417.88	1724.97
418.07	1668.80
418.26	1668.80
418.45	1774.13
418.64	1863.07
418.83	1797.53
419.02	1750.72
419.21	1870.09
419.39	1891.15
419.58	1886.47
419.77	1891.15
419.96	1832.64
420.15	1989.46
420.34	1989.46
420.53	1893.49
420.72	1980.09
420.91	2050.31
421.10	2017.54
421.29	1926.26
421.48	1966.05
421.67	2099.46
421.86	2033.93
422.05	1984.77
422.24	2064.35
422.43	1970.73
422.61	2057.33
422.80	2143.93
422.99	2106.48
423.18	1998.82
423.37	1991.80
423.56	2141.59
423.75	2045.63
423.94	2062.01
424.13	1991.80
424.32	1959.03
424.50	2115.84
424.69	2183.72
424.88	2235.21
425.07	2059.67
425.26	2120.53
425.45	2104.14
425.64	2172.02
425.83	2139.25
426.01	2186.06
426.20	2214.15
426.39	2090.10
426.58	2148.61
426.77	2263.30
426.96	2277.34
427.15	2214.15
427.33	2141.59
427.52	2167.34
427.71	2188.40
427.90	2284.36
428.09	2228.19
428.28	2296.07
428.46	2303.09
428.65	2300.75
428.84	2452.88
429.03	2497.35
429.22	2317.13
429.40	2352.24
429.59	2429.48
429.78	2300.75
429.97	2263.30
430.16	2354.58
430.34	2455.22
430.53	2567.57
430.72	2410.75
430.91	2345.22
431.10	2396.71
431.28	2546.50
431.47	2455.22
431.66	2464.58
431.85	2565.23
432.03	2658.85
432.22	2602.68
432.41	2567.57
432.60	2548.84
432.79	2464.58
432.97	2464.58
433.16	2597.99
433.35	2717.36
433.54	2745.45
433.72	2733.75
433.91	2729.06
434.10	2630.76
434.28	2766.51
434.47	2700.98
434.66	2705.66
434.85	2712.68
435.03	2853.11
435.22	2984.18
435.41	3159.72
435.59	3173.77
435.78	2979.50
435.97	2970.14
436.16	2822.69
436.34	2796.94
436.53	2787.58
436.72	2869.50
436.90	2832.05
437.09	2958.44
437.28	2832.05
437.46	2897.58
437.65	2951.42
437.84	2937.37
438.02	2892.90
438.21	2918.65
438.40	2923.33
438.58	3035.67
438.77	2991.20
438.96	3030.99
439.14	3148.02
439.33	2956.10
439.52	3059.08
439.70	2967.80
439.89	3150.36
440.08	3220.58
440.26	3187.81
440.45	3229.94
440.63	3232.28
440.82	3318.88
441.01	3201.85
441.19	3103.55
441.38	3307.18
441.57	3386.76
441.75	3386.76
441.94	3473.36
442.12	3557.61
442.31	3545.91
442.50	3332.92
442.68	3286.11
442.87	3330.58
443.05	3597.40
443.24	3623.15
443.43	3665.28
443.61	3681.66
443.80	3651.24
443.98	3515.48
444.17	3515.48
444.35	3698.05
444.54	3676.98
444.73	3574.00
444.91	3599.74
445.10	3691.02
445.28	3552.93
445.47	3485.06
445.65	3585.70
445.84	3637.19
446.02	3728.47
446.21	3728.47
446.39	3574.00
446.58	3749.54
446.77	3852.52
446.95	3667.62
447.14	3770.60
447.32	3625.49
447.51	3735.50
447.69	3735.50
447.88	3686.34
448.06	3712.09
448.25	3695.71
448.43	3782.31
448.62	3740.18
448.80	3873.59
448.99	3775.28
449.17	3847.84
449.36	3709.75
449.54	3948.48
449.73	3801.03
449.91	3950.82
450.10	3932.10
450.28	4011.68
450.46	4002.32
450.65	3995.29
450.83	3941.46
451.02	3950.82
451.20	3971.89
451.39	3995.29
451.57	4088.92
451.76	4095.94
451.94	3948.48
452.13	4124.02
452.31	4063.17
452.49	4060.83
452.68	4007.00
452.86	4100.62
453.05	4241.05
453.23	4133.39
453.42	4156.79
453.60	4051.47
453.78	4105.30
453.97	3985.93
454.15	4117.00
454.34	4095.94
454.52	4117.00
454.70	4217.65
454.89	4386.16
455.07	4397.87
455.26	4252.75
455.44	4402.55
455.62	4285.52
455.81	4409.57
455.99	4411.91
456.17	4454.04
456.36	4393.19
456.54	4411.91
456.73	4437.66
456.91	4592.13
457.09	4526.60
457.28	4592.13
457.46	4241.05
457.64	4587.45
457.83	4699.80
458.01	4440.00
458.19	4573.41
458.38	4636.60
458.56	4641.28
458.74	4704.48
458.93	4697.46
459.11	4807.46
459.29	4716.18
459.48	4730.22
459.66	4826.18
459.84	4643.62
460.03	4835.55
460.21	4711.50
460.39	4788.74
460.57	4716.18
460.76	4741.93
460.94	4931.51
461.12	4837.89
461.31	4926.83
461.49	4833.21
461.67	4779.37
461.85	4945.55
462.04	5001.72
462.22	5359.83
462.40	5057.90
462.59	5083.64
462.77	5071.94
462.95	5057.90
463.13	4978.32
463.32	5067.26
463.50	5067.26
463.68	5102.37
463.86	5093.01
464.05	5109.39
464.23	5078.96
464.41	5093.01
464.59	5027.47
464.78	5205.35
464.96	5193.65
465.14	5210.03
465.32	5329.40
465.50	5121.09
465.69	5203.01
465.87	5116.41
466.05	5289.61
466.23	5203.01
466.41	5352.81
466.60	5444.09
466.78	5156.20
466.96	5252.16
467.14	5399.62
467.32	5305.99
467.51	5341.10
467.69	5418.34
467.87	5469.83
468.05	5313.02
468.23	5479.19
468.41	5423.02
468.60	5509.62
468.78	5451.11
468.96	5420.68
469.14	5640.69
469.32	5540.05
469.50	5647.71
469.69	5666.44
469.87	5671.12
470.05	5792.83
470.23	5743.67
470.41	5617.29
470.59	5734.31
470.77	5692.18
470.95	5633.67
471.14	5841.98
471.32	5713.25
471.50	5877.09
471.68	6078.37
471.86	5816.23
472.04	5930.92
472.22	6038.58
472.40	5947.30
472.58	6164.97
472.77	6029.22
472.95	6164.97
473.13	6282.00
473.31	5888.79
473.49	6214.12
473.67	6052.63
473.85	6181.35
474.03	6258.59
474.21	6193.06
474.39	6197.74
474.57	6565.20
474.75	6466.90
474.93	6452.86
475.12	6401.37
475.30	6436.47
475.48	6401.37
475.66	6691.59
475.84	6607.33
476.02	6895.22
476.20	6743.08
476.38	6846.07
476.56	6892.88
476.74	6752.45
476.92	6890.54
477.10	6986.50
477.28	7080.12
477.46	6988.84
477.64	7035.65
477.82	7162.04
478.00	7360.98
478.18	7398.43
478.36	7232.26
478.54	7424.18
478.72	7447.58
478.90	7485.03
479.08	7529.50
479.26	7597.38
479.44	7452.27
479.62	7667.60
479.80	7805.69
479.98	7735.47
480.16	7981.23
480.34	7974.21
480.52	7866.54
480.70	8196.56
480.88	7925.05
481.06	7896.97
481.24	8163.79
481.41	8142.72
481.59	8276.13
481.77	8561.68
481.95	8475.08
482.13	8407.20
482.31	8322.94
482.49	8507.85
482.67	8622.53
482.85	8676.37
483.03	8894.04
483.21	9132.77
483.39	9011.06
483.57	9025.11
483.74	9174.90
483.92	8964.25
484.10	9441.72
484.28	9348.10
484.46	9664.07
484.64	9617.26
484.82	9355.12
485.00	9415.98
485.18	9675.77
485.35	10036.22
485.53	9790.46
485.71	9874.72
485.89	10183.67
486.07	9942.60
486.25	10143.88
486.43	10148.56
486.61	10164.95
486.78	10267.93
486.96	10597.95
487.14	10691.57
487.32	10509.01
487.50	10492.62
487.68	10640.08
487.85	10537.09
488.03	10965.41
488.21	11218.19
488.39	11009.88
488.57	11190.10
488.75	10995.84
488.92	11749.49
489.10	11241.59
489.28	11536.50
489.46	11679.27
489.64	11733.11
489.81	11740.13
489.99	11800.98
490.17	11733.11
490.35	12037.38
490.53	12095.89
490.70	12084.19
490.88	12180.15
491.06	12084.19
491.24	12348.67
491.41	12362.71
491.59	12596.76
491.77	12521.87
491.95	12685.70
492.13	12723.15
492.30	12819.11
492.48	12798.05
492.66	13029.76
492.84	12931.46
493.01	12929.12
493.19	13025.08
493.37	13327.01
493.54	13254.45
493.72	13633.62
493.90	13549.36
494.08	13572.77
494.25	13635.96
494.43	13640.64
494.61	13982.36
494.79	13902.78
494.96	13760.01
495.14	13816.18
495.32	14373.23
495.49	14008.11
495.67	14029.17
495.85	14356.85
496.02	14424.72
496.20	14410.68
496.38	14394.29
496.55	14579.20
496.73	14867.08
496.91	14855.38
497.09	14862.40
497.26	14932.62
497.44	15007.52
497.62	15129.22
497.79	14972.41
497.97	15185.40
498.14	15351.57
498.32	15592.65
498.50	15325.83
498.67	15616.05
498.85	15484.98
499.03	15398.38
499.20	15726.06
499.38	15676.91
499.56	15903.94
499.73	15857.13
499.91	16035.01
500.08	16053.73
500.26	15721.38
500.44	16128.63
500.61	16266.72
500.79	16236.30
500.97	16135.65
501.14	16769.94
501.32	16407.16
501.49	16400.13
501.67	16334.60
501.84	16498.44
502.02	16507.80
502.20	16814.41
502.37	16760.58
502.55	16999.31
502.72	16905.69
502.90	17125.70
503.07	16783.98
503.25	16950.16
503.43	16940.80
503.60	17366.78
503.78	17528.27
503.95	17399.54
504.13	17214.64
504.30	17324.65
504.48	17291.88
504.65	17563.38
504.83	17757.64
505.01	17806.80
505.18	17638.28
505.36	18066.60
505.53	18043.19
505.71	18015.10
505.88	17884.03
506.06	17687.43
506.23	17991.70
506.41	18008.08
506.58	18080.64
506.76	18125.11
506.93	18314.69
507.11	18101.70
507.28	18345.12
507.46	18015.10
507.63	18546.40
507.81	18747.69
507.98	18515.98
508.16	18621.30
508.33	18775.78
508.50	18888.12
508.68	18611.94
508.85	19171.33
509.03	18740.67
509.20	19115.16
509.38	19183.03
509.55	19379.64
509.73	19264.95
509.90	18979.40
510.08	19166.65
510.25	19246.23
510.42	19293.04
510.60	19653.48
510.77	19800.93
510.95	19812.63
511.12	19440.49
511.30	19819.66
511.47	19927.32
511.64	20231.59
511.82	20390.75
511.99	20030.30
512.17	19726.04
512.34	20072.43
512.51	20463.30
512.69	20266.70
512.86	20210.53
513.04	20170.74
513.21	20240.95
513.38	20376.70
513.56	20374.36
513.73	20442.24
513.90	20575.65
514.08	20395.43
514.25	20910.35
514.43	20561.61
514.60	20713.74
514.77	20919.71
514.95	20882.26
515.12	20854.17
515.29	20886.94
515.47	21191.21
515.64	20994.61
515.81	21170.15
515.99	21200.57
516.16	21238.02
516.33	21638.25
516.51	21390.16
516.68	21240.36
516.85	21106.95
517.03	21319.94
517.20	21589.10
517.37	21673.36
517.54	21788.05
517.72	21654.64
517.89	21434.63
518.06	21816.13
518.24	21792.73
518.41	21701.45
518.58	21944.86
518.75	22068.91
518.93	22108.70
519.10	22113.38
519.27	22359.14
519.45	22286.58
519.62	22176.58
519.79	22199.98
519.96	22160.19
520.14	22700.86
520.31	22553.40
520.48	22347.44
520.65	22298.28
520.83	22588.51
521.00	22747.67
521.17	22735.96
521.34	22941.93
521.52	22930.23
521.69	22787.46
521.86	23030.87
522.03	23154.92
522.20	23068.32
522.38	23026.19
522.55	23014.49
522.72	23133.86
522.89	23616.01
523.07	23396.00
523.24	23550.47
523.41	23498.98
523.58	23264.92
523.75	23096.41
523.92	23536.43
524.10	23438.12
524.27	23908.57
524.44	23875.80
524.61	24025.60
524.78	23936.66
524.96	23674.52
525.13	24049.00
525.30	23782.18
525.47	24072.41
525.64	23946.02
525.81	24126.24
525.98	23665.16
526.16	24163.69
526.33	24020.92
526.50	24489.03
526.67	23983.47
526.84	24070.07
527.01	24191.78
527.18	24439.87
527.36	24713.72
527.53	24123.90
527.70	24893.94
527.87	24252.63
528.04	24627.12
528.21	24254.97
528.38	24437.53
528.55	24821.38
528.72	24718.40
528.89	24622.44
529.07	24837.76
529.24	24872.87
529.41	24954.79
529.58	24702.01
529.75	25109.27
529.92	25029.69
530.09	24802.66
530.26	25027.35
530.43	25158.42
530.60	25514.18
530.77	24877.55
530.94	24926.71
531.11	25060.12
531.28	25305.87
531.46	25137.35
531.63	25088.20
531.80	25668.66
531.97	25397.15
532.14	25586.74
532.31	25579.71
532.48	25420.56
532.65	25525.88
532.82	25411.20
532.99	25745.89
533.16	25717.81
533.33	26089.95
533.50	26347.41
533.67	26022.08
533.84	25844.20
534.01	26024.42
534.18	25570.35
534.35	26071.23
534.52	26022.08
534.69	26153.15
534.86	26295.92
535.03	25832.49
535.20	26029.10
535.37	26143.78
535.54	26223.36
535.71	25790.36
535.88	25991.65
536.05	26136.76
536.22	26274.85
536.38	26431.67
536.55	26874.03
536.72	26712.53
536.89	26052.50
537.06	26731.26
537.23	26726.58
537.40	26841.26
537.57	26583.80
537.74	26574.44
537.91	27002.76
538.08	26869.35
538.25	26937.23
538.42	26967.65
538.59	26937.23
538.75	26848.29
538.92	27021.48
539.09	26906.80
539.26	27283.62
539.43	27129.15
539.60	27080.00
539.77	26799.13
539.94	27140.85
540.11	27164.26
540.28	27482.57
540.44	27433.42
540.61	27360.86
540.78	27733.01
540.95	27782.16
541.12	27697.90
541.29	27611.30
541.46	27735.35
541.62	27229.79
541.79	27744.71
541.96	27702.58
542.13	27276.60
542.30	27880.46
542.47	27920.25
542.63	27639.39
542.80	27821.95
542.97	28173.03
543.14	28268.99
543.31	28044.30
543.48	28163.67
543.64	28599.01
543.81	28669.22
543.98	28549.85
544.15	28718.37
544.32	29006.26
544.48	28531.13
544.65	28772.21
544.82	28252.61
544.99	28453.89
545.16	28922.00
545.32	28568.58
545.49	28929.02
545.66	29362.02
545.83	29408.83
546.00	29413.51
546.16	28835.40
546.33	28772.21
546.50	28680.92
546.67	28648.16
546.83	28507.72
547.00	28680.92
547.17	28779.23
547.34	28781.57
547.50	28596.67
547.67	29116.26
547.84	28891.57
548.00	29118.60
548.17	29322.23
548.34	29099.88
548.51	28961.79
548.67	28849.44
548.84	29322.23
549.01	28830.72
549.18	29125.63
549.34	29001.58
549.51	28989.88
549.68	29130.31
549.84	28842.42
550.01	29090.52
550.18	28856.46
550.34	29186.48
550.51	29411.17
550.68	29165.42
550.84	28844.76
551.01	28900.94
551.18	28788.59
551.34	29212.23
551.51	29453.30
551.68	29165.42
551.84	29474.37
552.01	29359.68
552.18	29074.13
552.34	29572.67
552.51	29261.38
552.68	29326.91
552.84	29589.05
553.01	29390.11
553.18	29289.46
553.34	29720.12
553.51	29621.82
553.67	29890.98
553.84	29853.53
554.01	29560.97
554.17	29851.19
554.34	29366.70
554.51	29202.86
554.67	30017.37
554.84	29916.73
555.00	29198.18
555.17	29788.00
555.33	29692.04
555.50	29830.13
555.67	29883.96
555.83	30204.61
556.00	29507.13
556.16	30134.40
556.33	29783.32
556.50	29951.84
556.66	29788.00
556.83	29614.80
556.99	30548.67
557.16	30064.18
557.32	30174.19
557.49	29996.31
557.65	29862.90
557.82	29603.10
557.98	30171.85
558.15	29773.95
558.32	29956.52
558.48	30059.50
558.65	30125.04
558.81	30190.57
558.98	30153.12
559.14	30192.91
559.31	29944.81
559.47	30157.80
559.64	30059.50
559.80	30136.74
559.97	30504.20
560.13	30092.27
560.30	30345.05
560.46	30143.76
560.63	30057.16
560.79	29963.54
560.96	30181.21
561.12	30272.49
561.29	30422.28
561.45	30501.86
561.61	30583.78
561.78	30426.96
561.94	29996.31
562.11	30218.66
562.27	30354.41
562.44	30316.96
562.60	30080.56
562.77	30408.24
562.93	30223.34
563.10	30546.33
563.26	30515.90
563.42	30944.22
563.59	30520.59
563.75	30965.29
563.92	30679.74
564.08	30312.28
564.24	30548.67
564.41	30443.35
564.57	30223.34
564.74	30607.19
564.90	30749.96
565.07	30754.64
565.23	30808.47
565.39	30553.35
565.56	30789.75
565.72	30925.50
565.88	30354.41
566.05	30518.25
566.21	30389.52
566.38	30707.83
566.54	30710.17
566.70	30579.10
566.87	31021.46
567.03	30581.44
567.19	31157.21
567.36	30698.47
567.52	30223.34
567.68	30265.47
567.85	30766.34
568.01	30476.12
568.17	30478.46
568.34	30824.86
568.50	30913.80
568.66	31098.70
568.83	30911.46
568.99	30747.62
569.15	30710.17
569.32	30698.47
569.48	30756.98
569.64	30888.05
569.81	30572.08
569.97	30909.11
570.13	30661.02
570.30	30749.96
570.46	31194.66
570.62	30796.77
570.78	30672.72
570.95	30895.07
571.11	30808.47
571.27	30518.25
571.43	30792.09
571.60	31250.83
571.76	30890.39
571.92	31381.90
572.09	31079.97
572.25	30958.27
572.41	31257.85
572.57	31058.91
572.74	31384.24
572.90	30707.83
573.06	31140.83
573.22	30911.46
573.38	31281.26
573.55	30663.36
573.71	31318.71
573.87	31377.22
574.03	31035.50
574.20	31037.84
574.36	30752.30
574.52	30890.39
574.68	30848.26
574.84	31154.87
575.01	31358.50
575.17	31185.30
575.33	30764.00
575.49	30979.33
575.65	30991.03
575.82	31299.98
575.98	31379.56
576.14	31225.09
576.30	31400.63
576.46	31000.40
576.62	30946.56
576.79	31049.55
576.95	31173.60
577.11	31559.78
577.27	31342.11
577.43	31131.47
577.59	31524.68
577.75	31402.97
577.92	30953.58
578.08	30904.43
578.24	30881.03
578.40	31384.24
578.56	31283.60
578.72	31527.02
578.88	31812.56
579.04	31419.35
579.21	31274.24
579.37	31255.51
579.53	31564.46
579.69	31339.77
579.85	31339.77
580.01	31229.77
580.17	31014.44
580.33	31501.27
580.49	31388.92
580.65	31412.33
580.82	31192.32
580.98	31749.37
581.14	31267.22
581.30	31700.22
581.46	30747.62
581.62	31227.43
581.78	31269.56
581.94	31838.31
582.10	30829.54
582.26	31206.36
582.42	31592.55
582.58	31276.58
582.74	31447.44
582.90	31447.44
583.06	31323.39
583.22	31182.96
583.38	31850.01
583.54	31297.64
583.70	30965.29
583.86	31372.54
584.02	31386.58
584.18	31442.76
584.34	31803.20
584.50	31400.63
584.66	31714.26
584.82	31257.85
584.98	31770.43
585.14	31197.00
585.30	31164.23
585.46	31164.23
585.62	31089.34
585.78	31407.65
585.94	31087.00
586.10	30998.06
586.26	31262.54
586.42	31941.29
586.58	31667.45
586.74	31543.40
586.90	31260.20
587.06	31068.27
587.22	31599.57
587.38	31314.03
587.54	32121.51
587.70	31606.59
587.86	31859.37
588.02	31742.35
588.18	31653.40
588.34	31742.35
588.49	31887.46
588.65	31524.68
588.81	31208.70
588.97	31754.05
589.13	31587.87
589.29	31559.78
589.45	31498.93
589.61	31702.56
589.77	31805.54
589.93	32151.94
590.08	31854.69
590.24	31538.72
590.40	31852.35
590.56	31728.30
590.72	31512.97
590.88	31339.77
591.04	31791.50
591.20	31693.19
591.35	31892.14
591.51	31913.20
591.67	31927.25
591.83	31938.95
