SpectraSuite Data File
++++++++++++++++++++++++++++++++++++
Date: Fri Oct 04 11:40:02 GMT-05:00 2013
User: price-jones
Dark Spectrum Present: No
Reference Spectrum Present: No
Number of Sampled Component Spectra: 1
Spectrometers: USB2+H05261
Integration Time (usec): 100000 (USB2+H05261)
Spectra Averaged: 1 (USB2+H05261)
Boxcar Smoothing: 0 (USB2+H05261)
Correct for Electrical Dark: No (USB2+H05261)
Strobe/Lamp Enabled: No (USB2+H05261)
Correct for Detector Non-linearity: No (USB2+H05261)
Correct for Stray Light: No (USB2+H05261)
Number of Pixels in Processed Spectrum: 2048
>>>>>Begin Processed Spectral Data<<<<<
365.73	93.62
365.92	93.62
366.12	93.62
366.32	0.00
366.52	0.00
366.72	0.00
366.91	0.00
367.11	0.00
367.31	0.00
367.51	0.00
367.70	0.00
367.90	9.36
368.10	0.00
368.30	0.00
368.49	0.00
368.69	9.36
368.89	0.00
369.09	0.00
369.28	0.00
369.48	0.00
369.68	0.00
369.87	0.00
370.07	0.00
370.27	23.41
370.47	60.85
370.66	110.01
370.86	147.45
371.06	177.88
371.25	163.84
371.45	191.92
371.65	135.75
371.84	236.39
372.04	248.10
372.24	252.78
372.44	194.26
372.63	198.95
372.83	231.71
373.03	182.56
373.22	166.18
373.42	189.58
373.62	306.61
373.81	252.78
374.01	191.92
374.21	191.92
374.40	266.82
374.60	339.38
374.79	236.39
374.99	280.86
375.19	198.95
375.38	215.33
375.58	231.71
375.78	271.50
375.97	220.01
376.17	236.39
376.37	238.73
376.56	203.63
376.76	332.36
376.95	252.78
377.15	215.33
377.35	231.71
377.54	203.63
377.74	210.65
377.93	222.35
378.13	212.99
378.33	222.35
378.52	201.29
378.72	182.56
378.91	278.52
379.11	191.92
379.31	294.91
379.50	283.20
379.70	198.95
379.89	327.68
380.09	231.71
380.28	236.39
380.48	306.61
380.68	271.50
380.87	201.29
381.07	243.42
381.26	283.20
381.46	250.44
381.65	271.50
381.85	212.99
382.04	259.80
382.24	243.42
382.43	224.69
382.63	297.25
382.83	255.12
383.02	259.80
383.22	290.23
383.41	280.86
383.61	278.52
383.80	255.12
384.00	255.12
384.19	241.08
384.39	203.63
384.58	271.50
384.78	318.31
384.97	285.55
385.17	271.50
385.36	290.23
385.56	334.70
385.75	217.67
385.95	229.37
386.14	257.46
386.34	280.86
386.53	255.12
386.72	308.95
386.92	351.08
387.11	297.25
387.31	311.29
387.50	264.48
387.70	266.82
387.89	311.29
388.09	306.61
388.28	266.82
388.48	301.93
388.67	358.10
388.86	264.48
389.06	318.31
389.25	339.38
389.45	367.46
389.64	313.63
389.84	341.72
390.03	365.12
390.22	430.66
390.42	397.89
390.61	315.97
390.81	325.33
391.00	311.29
391.19	395.55
391.39	344.06
391.58	337.04
391.78	339.38
391.97	379.17
392.16	348.74
392.36	425.98
392.55	414.27
392.75	362.78
392.94	355.76
393.13	440.02
393.33	390.87
393.52	428.32
393.71	514.92
393.91	454.06
394.10	454.06
394.29	423.64
394.49	407.25
394.68	482.15
394.88	430.66
395.07	503.22
395.26	440.02
395.46	486.83
395.65	535.98
395.84	433.00
396.04	550.03
396.23	425.98
396.42	496.19
396.62	425.98
396.81	475.13
397.00	507.90
397.19	538.32
397.39	444.70
397.58	571.09
397.77	538.32
397.97	449.38
398.16	456.40
398.35	573.43
398.55	582.79
398.74	554.71
398.93	514.92
399.12	479.81
399.32	564.07
399.51	528.96
399.70	601.52
399.90	662.37
400.09	580.45
400.28	564.07
400.47	561.73
400.67	636.63
400.86	613.22
401.05	653.01
401.24	725.57
401.44	631.94
401.63	667.05
401.82	660.03
402.01	608.54
402.21	697.48
402.40	767.70
402.59	655.35
402.78	720.88
402.97	676.41
403.17	676.41
403.36	641.31
403.55	751.31
403.74	856.64
403.93	702.16
404.13	873.02
404.32	793.44
404.51	706.84
404.70	849.61
404.89	732.59
405.09	861.32
405.28	739.61
405.47	805.14
405.66	898.77
405.85	950.26
406.05	816.85
406.24	889.40
406.43	901.11
406.62	954.94
406.81	933.87
407.00	917.49
407.20	968.98
407.39	898.77
407.58	1029.84
407.77	1004.09
407.96	968.98
408.15	983.02
408.34	1076.65
408.54	1057.92
408.73	1011.11
408.92	1008.77
409.11	1121.12
409.30	1062.60
409.49	1125.80
409.68	1104.73
409.87	1160.91
410.07	1139.84
410.26	1135.16
410.45	1177.29
410.64	1210.06
410.83	1179.63
411.02	1249.85
411.21	1317.72
411.40	1320.06
411.59	1341.13
411.78	1266.23
411.98	1362.19
412.17	1291.98
412.36	1401.98
412.55	1383.26
412.74	1331.76
412.93	1315.38
413.12	1390.28
413.31	1526.03
413.50	1411.34
413.69	1514.33
413.88	1561.14
414.07	1657.10
414.26	1565.82
414.45	1631.35
414.64	1659.44
414.83	1586.88
415.02	1687.53
415.22	1652.42
415.41	1717.95
415.60	1708.59
415.79	1813.92
415.98	1757.74
416.17	1720.29
416.36	1870.09
416.55	1849.02
416.74	1820.94
416.93	1872.43
417.12	1839.66
417.31	1952.01
417.50	1820.94
417.69	1797.53
417.88	1921.58
418.07	1926.26
418.26	1963.71
418.45	1980.09
418.64	1975.41
418.83	2153.29
419.02	2076.06
419.21	2029.24
419.39	2120.53
419.58	2052.65
419.77	2104.14
419.96	2183.72
420.15	2218.83
420.34	2204.78
420.53	2272.66
420.72	2277.34
420.91	2129.89
421.10	2242.23
421.29	2118.18
421.48	2174.36
421.67	2279.68
421.86	2235.21
422.05	2267.98
422.24	2331.17
422.43	2251.60
422.61	2312.45
422.80	2317.13
422.99	2282.02
423.18	2221.17
423.37	2361.60
423.56	2349.90
423.75	2289.04
423.94	2214.15
424.13	2214.15
424.32	2237.55
424.50	2375.64
424.69	2349.90
424.88	2389.69
425.07	2321.81
425.26	2300.75
425.45	2455.22
425.64	2300.75
425.83	2370.96
426.01	2382.67
426.20	2282.02
426.39	2448.20
426.58	2342.88
426.77	2478.63
426.96	2427.14
427.15	2377.98
427.33	2478.63
427.52	2499.69
427.71	2520.76
427.90	2483.31
428.09	2490.33
428.28	2443.52
428.46	2511.39
428.65	2600.34
428.84	2621.40
429.03	2663.53
429.22	2403.73
429.40	2600.34
429.59	2698.64
429.78	2462.24
429.97	2551.18
430.16	2534.80
430.34	2640.12
430.53	2785.24
430.72	2656.51
430.91	2733.75
431.10	2661.19
431.28	2696.30
431.47	2717.36
431.66	2808.64
431.85	2761.83
432.03	2850.77
432.22	2808.64
432.41	2862.48
432.60	2916.31
432.79	2747.79
432.97	2836.73
433.16	2906.95
433.35	2834.39
433.54	2848.43
433.72	2909.29
433.91	2892.90
434.10	2848.43
434.28	2958.44
434.47	3047.38
434.66	3023.97
434.85	3033.33
435.03	3066.10
435.22	3215.90
435.41	3499.10
435.59	3391.44
435.78	3323.56
435.97	3141.00
436.16	3063.76
436.34	3180.79
436.53	3103.55
436.72	3274.41
436.90	3101.21
437.09	3213.56
437.28	3026.31
437.46	3243.98
437.65	3068.44
437.84	3211.22
438.02	3269.73
438.21	3314.20
438.40	3192.49
438.58	3410.16
438.77	3190.15
438.96	3396.12
439.14	3318.88
439.33	3368.03
439.52	3466.33
439.70	3489.74
439.89	3382.07
440.08	3576.34
440.26	3428.88
440.45	3578.68
440.63	3590.38
440.82	3606.77
441.01	3618.47
441.19	3651.24
441.38	3749.54
441.57	3763.58
441.75	3779.97
441.94	3962.53
442.12	3747.20
442.31	3882.95
442.50	3772.94
442.68	3885.29
442.87	3817.41
443.05	3880.61
443.24	3992.95
443.43	3864.22
443.61	3843.16
443.80	4147.43
443.98	3908.69
444.17	3782.31
444.35	3873.59
444.54	3918.06
444.73	4021.04
444.91	3974.23
445.10	4016.36
445.28	3957.85
445.47	3955.51
445.65	3953.16
445.84	3981.25
446.02	3974.23
446.21	4077.21
446.39	3885.29
446.58	4102.96
446.77	4030.40
446.95	3887.63
447.14	4119.34
447.32	3946.14
447.51	4114.66
447.69	4072.53
447.88	4140.41
448.06	4088.92
448.25	4032.74
448.43	3988.27
448.62	3990.61
448.80	4088.92
448.99	4264.46
449.17	4093.60
449.36	4259.78
449.54	4051.47
449.73	4304.25
449.91	4334.67
450.10	4308.93
450.28	4304.25
450.46	4304.25
450.65	4383.82
450.83	4304.25
451.02	4381.48
451.20	4425.95
451.39	4315.95
451.57	4351.06
451.76	4353.40
451.94	4344.03
452.13	4517.23
452.31	4358.08
452.49	4344.03
452.68	4442.34
452.86	4386.16
453.05	4465.74
453.23	4430.63
453.42	4248.07
453.60	4365.10
453.78	4437.66
453.97	4517.23
454.15	4507.87
454.34	4578.09
454.52	4545.32
454.70	4461.06
454.89	4547.66
455.07	4573.41
455.26	4685.75
455.44	4697.46
455.62	4521.92
455.81	4638.94
455.99	4641.28
456.17	4877.68
456.36	4760.65
456.54	4664.69
456.73	4685.75
456.91	4880.02
457.09	4847.25
457.28	5018.11
457.46	4863.63
457.64	5088.32
457.83	5013.43
458.01	4912.78
458.19	4940.87
458.38	5022.79
458.56	4964.28
458.74	5109.39
458.93	5022.79
459.11	4975.98
459.29	5153.86
459.48	4990.02
459.66	5095.35
459.84	5231.10
460.03	5327.06
460.21	5102.37
460.39	5139.82
460.57	5263.86
460.76	5151.52
460.94	5432.38
461.12	5268.55
461.31	5308.34
461.49	5249.82
461.67	5308.34
461.85	5458.13
462.04	5200.67
462.22	5816.23
462.40	5554.09
462.59	5458.13
462.77	5348.12
462.95	5416.00
463.13	5441.75
463.32	5406.64
463.50	5423.02
463.68	5343.44
463.86	5558.77
464.05	5418.34
464.23	5500.26
464.41	5692.18
464.59	5509.62
464.78	5762.40
464.96	5561.11
465.14	5617.29
465.32	5577.50
465.50	5657.07
465.69	5811.55
465.87	5577.50
466.05	5699.20
466.23	5628.99
466.41	5659.42
466.60	5863.04
466.78	5849.00
466.96	5785.80
467.14	5715.59
467.32	5830.27
467.51	5902.83
467.69	5802.19
467.87	5664.10
468.05	5813.89
468.23	5973.05
468.41	5872.40
468.60	5781.12
468.78	5820.91
468.96	5912.19
469.14	6054.97
469.32	5891.13
469.50	5984.75
469.69	6260.93
469.87	6108.80
470.05	6078.37
470.23	6106.46
470.41	6204.76
470.59	6197.74
470.77	6036.24
470.95	6162.63
471.14	6169.65
471.32	6216.46
471.50	6459.88
471.68	6256.25
471.86	6249.23
472.04	6321.79
472.22	6502.01
472.40	6359.24
472.58	6415.41
472.77	6600.31
472.95	6586.27
473.13	6766.49
473.31	6574.56
473.49	6565.20
473.67	6572.22
473.85	6628.40
474.03	6747.76
474.21	6722.02
474.39	6878.83
474.57	6757.13
474.75	6918.62
474.93	7061.40
475.12	6984.16
475.30	6899.90
475.48	6874.15
475.66	7112.89
475.84	6888.20
476.02	6850.75
476.20	7066.08
476.38	7286.09
476.56	7646.53
476.74	7229.91
476.92	7250.98
477.10	7229.91
477.28	7386.73
477.46	7328.22
477.64	7648.87
477.82	7728.45
478.00	7761.22
478.18	7866.54
478.36	7796.32
478.54	7857.18
478.72	8079.53
478.90	8109.96
479.08	7983.57
479.26	8086.55
479.44	8231.66
479.62	8278.47
479.80	8416.57
479.98	8173.15
480.16	8369.76
480.34	8362.73
480.52	8524.23
480.70	8521.89
480.88	8620.19
481.06	8669.34
481.24	8636.58
481.41	8802.75
481.59	8753.60
481.77	9013.40
481.95	9029.79
482.13	9090.64
482.31	9036.81
482.49	9261.50
482.67	9055.53
482.85	9511.94
483.03	9544.70
483.21	9427.68
483.39	9554.07
483.57	9764.72
483.74	9586.83
483.92	9947.28
484.10	10019.83
484.28	9872.38
484.46	10122.82
484.64	10181.33
484.82	10036.22
485.00	10197.71
485.18	10391.98
485.35	10597.95
485.53	10347.51
485.71	10686.89
485.89	10766.46
486.07	10700.93
486.25	10628.37
486.43	10689.23
486.61	10637.73
486.78	11073.07
486.96	11049.67
487.14	11126.91
487.32	11239.25
487.50	11119.89
487.68	11517.78
487.85	11569.27
488.03	11447.56
488.21	11637.14
488.39	11618.42
488.57	11721.40
488.75	11747.15
488.92	12102.91
489.10	12196.53
489.28	12140.36
489.46	12299.52
489.64	12283.13
489.81	12603.78
489.99	12390.80
490.17	12559.31
490.35	12620.17
490.53	12795.71
490.70	13029.76
490.88	12985.29
491.06	13074.23
491.24	12938.48
491.41	13125.72
491.59	13348.08
491.77	13139.77
491.95	13369.14
492.13	13458.08
492.30	13392.55
492.48	13654.69
492.66	13699.16
492.84	13741.29
493.01	13949.59
493.19	13785.76
493.37	13872.36
493.54	14122.79
493.72	14017.47
493.90	14242.16
494.08	14307.69
494.25	14391.95
494.43	14583.88
494.61	14497.28
494.79	14728.99
494.96	14464.51
495.14	14899.85
495.32	14824.95
495.49	14829.63
495.67	14916.23
495.85	15133.90
496.02	15161.99
496.20	15080.07
496.38	15454.56
496.55	15236.89
496.73	15382.00
496.91	15775.21
497.09	15920.32
497.26	15913.30
497.44	15700.31
497.62	15714.36
497.79	15936.71
497.97	15941.39
498.14	16191.83
498.32	16348.64
498.50	16201.19
498.67	16449.28
498.85	16573.33
499.03	16350.98
499.20	16489.07
499.38	16823.77
499.56	16893.99
499.73	16723.13
499.91	16814.41
500.08	16879.94
500.26	16922.07
500.44	17111.66
500.61	17214.64
500.79	17008.67
500.97	17329.33
501.14	17649.98
501.32	17177.19
501.49	17172.51
501.67	17544.66
501.84	17528.27
502.02	17523.59
502.20	17610.19
502.37	17738.92
502.55	17738.92
502.72	17806.80
502.90	17816.16
503.07	17987.02
503.25	18059.57
503.43	18064.25
503.60	17792.75
503.78	17994.04
503.95	18132.13
504.13	18162.56
504.30	18080.64
504.48	18305.33
504.65	18272.56
504.83	18485.55
505.01	18834.29
505.18	18396.61
505.36	18890.46
505.53	18712.58
505.71	18853.02
505.88	18726.63
506.06	18731.31
506.23	18693.86
506.41	18904.51
506.58	19183.03
506.76	18953.66
506.93	18988.77
507.11	18883.44
507.28	19094.09
507.46	19356.23
507.63	19564.54
507.81	19461.55
507.98	19456.87
508.16	19456.87
508.33	19445.17
508.50	19866.47
508.68	19690.93
508.85	19807.95
509.03	19733.06
509.20	20046.69
509.38	19920.30
509.55	20091.16
509.73	20058.39
509.90	20603.74
510.08	20245.63
510.25	20444.58
510.42	20095.84
510.60	20533.52
510.77	20582.67
510.95	20444.58
511.12	20599.05
511.30	20514.80
511.47	20671.61
511.64	21013.33
511.82	20924.39
511.99	20608.42
512.17	21046.10
512.34	20968.86
512.51	21160.78
512.69	20982.90
512.86	21273.13
513.04	21165.46
513.21	21329.30
513.38	21572.72
513.56	21099.93
513.73	21158.44
513.90	21591.44
514.08	21626.55
514.25	21359.73
514.43	21617.19
514.60	21542.29
514.77	21944.86
514.95	21862.94
515.12	21766.98
515.29	21816.13
515.47	21954.22
515.64	22064.23
515.81	21998.70
515.99	22232.75
516.16	22272.54
516.33	22162.53
516.51	22253.81
516.68	22277.22
516.85	22270.20
517.03	22478.50
517.20	22649.36
517.37	22530.00
517.54	22490.21
517.72	22434.03
517.89	22288.92
518.06	22490.21
518.24	22792.14
518.41	22857.67
518.58	22773.41
518.75	22991.08
518.93	22855.33
519.10	22775.75
519.27	22925.55
519.45	22885.76
519.62	22953.63
519.79	23183.01
519.96	23253.22
520.14	23367.91
520.31	23253.22
520.48	23407.70
520.65	23503.66
520.83	23379.61
521.00	23185.35
521.17	23356.21
521.34	23501.32
521.52	23653.45
521.69	24116.88
521.86	23765.80
522.03	23974.11
522.20	24095.82
522.38	23873.46
522.55	24119.22
522.72	24020.92
522.89	24009.22
523.07	23985.81
523.24	23999.85
523.41	24372.00
523.58	24205.82
523.75	24315.83
523.92	23995.17
524.10	24304.12
524.27	24636.48
524.44	24336.89
524.61	24685.63
524.78	24727.76
524.96	24645.84
525.13	24767.55
525.30	24896.28
525.47	24599.03
525.64	24964.15
525.81	24992.24
525.98	24992.24
526.16	25118.63
526.33	24723.08
526.50	25025.01
526.67	24826.06
526.84	24950.11
527.01	24973.52
527.18	25352.68
527.36	25193.53
527.53	25167.78
527.70	25532.90
527.87	25486.09
528.04	25752.91
528.21	25186.50
528.38	25483.75
528.55	25397.15
528.72	25806.75
528.89	25411.20
529.07	25734.19
529.24	25694.40
529.41	25998.67
529.58	25575.03
529.75	25727.17
529.92	25511.84
530.09	25699.08
530.26	25891.01
530.43	25757.60
530.60	25881.64
530.77	25869.94
530.94	26054.84
531.11	25671.00
531.28	25848.88
531.46	25647.59
531.63	25965.90
531.80	26176.55
531.97	26345.07
532.14	26419.97
532.31	26401.24
532.48	26277.19
532.65	26401.24
532.82	26195.28
532.99	26441.03
533.16	26183.57
533.33	26649.34
533.50	26888.07
533.67	26670.40
533.84	26235.06
534.01	26539.33
534.18	26602.53
534.35	26852.97
534.52	26609.55
534.69	27047.23
534.86	26871.69
535.03	26345.07
535.20	27108.08
535.37	26754.66
535.54	26923.18
535.71	26766.37
535.88	27145.53
536.05	27166.60
536.22	26948.93
536.38	27091.70
536.55	27269.58
536.72	27295.33
536.89	27475.55
537.06	27239.15
537.23	27300.01
537.40	27168.94
537.57	27197.02
537.74	27204.05
537.91	27580.87
538.08	27740.03
538.25	27323.41
538.42	27644.07
538.59	27704.92
538.75	27171.28
538.92	27438.10
539.09	27538.74
539.26	27967.06
539.43	27903.87
539.60	27817.27
539.77	28067.70
539.94	28109.83
540.11	27632.36
540.28	27843.01
540.44	28037.28
540.61	28343.89
540.78	28332.18
540.95	28500.70
541.12	28460.91
541.29	28489.00
541.46	28510.07
541.62	28470.28
541.79	28531.13
541.96	28334.53
542.13	28393.04
542.30	28470.28
542.47	28744.12
542.63	28840.08
542.80	28882.21
542.97	28765.18
543.14	28975.83
543.31	29062.43
543.48	28762.84
543.64	29134.99
543.81	29146.69
543.98	29205.20
544.15	28926.68
544.32	29305.85
544.48	28987.53
544.65	29134.99
544.82	28795.61
544.99	28718.37
545.16	29233.29
545.32	28912.64
545.49	29928.43
545.66	30263.13
545.83	30279.51
546.00	30726.55
546.16	29680.33
546.33	29425.22
546.50	28903.28
546.67	29586.71
546.83	28821.36
547.00	29439.26
547.17	29472.03
547.34	29268.40
547.50	29216.91
547.67	29766.93
547.84	29345.64
548.00	29254.36
548.17	29610.12
548.34	29336.27
548.51	29579.69
548.67	29577.35
548.84	29523.52
549.01	29490.75
549.18	29104.56
549.34	29628.84
549.51	29436.92
549.68	29415.85
549.84	29305.85
550.01	30057.16
550.18	29596.07
550.34	29832.47
550.51	29752.89
550.68	29926.09
550.84	29263.72
551.01	29867.58
551.18	29661.61
551.34	29537.56
551.51	29460.32
551.68	29965.88
551.84	29797.36
552.01	29757.57
552.18	30059.50
552.34	29685.01
552.51	30052.48
552.68	29890.98
552.84	29682.67
553.01	30103.97
553.18	29862.90
553.34	30106.31
553.51	29649.91
553.67	29912.05
553.84	30118.01
554.01	30312.28
554.17	29975.24
554.34	30129.72
554.51	30272.49
554.67	30246.74
554.84	29851.19
555.00	29797.36
555.17	30108.65
555.33	30218.66
555.50	30155.46
555.67	29926.09
555.83	30183.55
556.00	30286.53
556.16	30314.62
556.33	29881.62
556.50	30471.43
556.66	30249.08
556.83	30288.87
556.99	30759.32
557.16	30661.02
557.32	30288.87
557.49	30171.85
557.65	30246.74
557.82	30216.32
557.98	30588.46
558.15	30209.29
558.32	30590.80
558.48	30534.63
558.65	30291.21
558.81	30415.26
558.98	30291.21
559.14	30300.58
559.31	30232.70
559.47	30506.54
559.64	30630.59
559.80	30611.87
559.97	30707.83
560.13	30473.78
560.30	30293.55
560.46	30426.96
560.63	30464.41
560.79	30892.73
560.96	30822.51
561.12	30518.25
561.29	30682.08
561.45	30588.46
561.61	30611.87
561.78	31262.54
561.94	30782.73
562.11	30719.53
562.27	30497.18
562.44	30340.36
562.60	30333.34
562.77	30338.02
562.93	30462.07
563.10	30806.13
563.26	30490.16
563.42	30773.36
563.59	30986.35
563.75	30455.05
563.92	31047.21
564.08	30469.09
564.24	30277.17
564.41	30845.92
564.57	30331.00
564.74	30405.90
564.90	30923.16
565.07	30881.03
565.23	30764.00
565.39	30539.31
565.56	30728.89
565.72	30672.72
565.88	30543.99
566.05	30649.32
566.21	30621.23
566.38	30897.41
566.54	30684.42
566.70	30775.70
566.87	30810.81
567.03	31089.34
567.19	30862.30
567.36	30749.96
567.52	30738.26
567.68	30871.67
567.85	30799.11
568.01	30438.67
568.17	30707.83
568.34	31033.16
568.50	30829.54
568.66	31129.12
568.83	31096.36
568.99	30721.87
569.15	30824.86
569.32	30630.59
569.48	30628.25
569.64	30764.00
569.81	30785.07
569.97	30759.32
570.13	31133.81
570.30	30646.97
570.46	31023.80
570.62	30892.73
570.78	30871.67
570.95	30881.03
571.11	30925.50
571.27	30696.13
571.43	30946.56
571.60	30761.66
571.76	31068.27
571.92	30792.09
572.09	30883.37
572.25	30749.96
572.41	30923.16
572.57	30731.23
572.74	31084.65
572.90	30679.74
573.06	31028.48
573.22	30607.19
573.38	31276.58
573.55	31096.36
573.71	30951.24
573.87	31222.75
574.03	30993.37
574.20	30925.50
574.36	30569.74
574.52	31087.00
574.68	31129.12
574.84	31054.23
575.01	31461.48
575.17	31058.91
575.33	30918.48
575.49	30955.93
575.65	31197.00
575.82	31054.23
575.98	30710.17
576.14	31220.41
576.30	31021.46
576.46	30984.01
576.62	30906.77
576.79	31239.13
576.95	30953.58
577.11	30831.88
577.27	31147.85
577.43	31269.56
577.59	30981.67
577.75	30831.88
577.92	30876.35
578.08	30789.75
578.24	30944.22
578.40	31239.13
578.56	31037.84
578.72	31115.08
578.88	31358.50
579.04	31608.93
579.21	31220.41
579.37	31173.60
579.53	30969.97
579.69	30719.53
579.85	31101.04
580.01	30806.13
580.17	31108.06
580.33	31019.12
580.49	31166.57
580.65	31538.72
580.82	31274.24
580.98	31065.93
581.14	31035.50
581.30	31440.42
581.46	31129.12
581.62	30939.54
581.78	30628.25
581.94	31061.25
582.10	31143.17
582.26	31166.57
582.42	30981.67
582.58	31119.76
582.74	31496.59
582.90	30993.37
583.06	31344.45
583.22	31023.80
583.38	30946.56
583.54	31222.75
583.70	31108.06
583.86	31133.81
584.02	31395.95
584.18	31489.57
584.34	31269.56
584.50	31393.61
584.66	30822.51
584.82	30745.28
584.98	31330.41
585.14	31222.75
585.30	30937.20
585.46	31363.18
585.62	30649.32
585.78	31527.02
585.94	31077.63
586.10	30864.64
586.26	31007.42
586.42	31246.15
586.58	31246.15
586.74	31316.37
586.90	30759.32
587.06	31229.77
587.22	31421.69
587.38	31246.15
587.54	31236.79
587.70	31438.08
587.86	30951.24
588.02	31597.23
588.18	31419.35
588.34	31117.42
588.49	30993.37
588.65	30848.26
588.81	31133.81
588.97	31426.37
589.13	31290.62
589.29	31185.30
589.45	31232.11
589.61	30995.71
589.77	31538.72
589.93	31400.63
590.08	31108.06
590.24	31360.84
590.40	31344.45
590.56	31651.06
590.72	31580.85
590.88	30813.15
591.04	31271.90
591.20	31201.68
591.35	31770.43
591.51	31515.31
591.67	31648.72
