SpectraSuite Data File
++++++++++++++++++++++++++++++++++++
Date: Fri Oct 04 11:39:46 GMT-05:00 2013
User: price-jones
Dark Spectrum Present: No
Reference Spectrum Present: No
Number of Sampled Component Spectra: 1
Spectrometers: USB2+H05261
Integration Time (usec): 100000 (USB2+H05261)
Spectra Averaged: 1 (USB2+H05261)
Boxcar Smoothing: 0 (USB2+H05261)
Correct for Electrical Dark: No (USB2+H05261)
Strobe/Lamp Enabled: No (USB2+H05261)
Correct for Detector Non-linearity: No (USB2+H05261)
Correct for Stray Light: No (USB2+H05261)
Number of Pixels in Processed Spectrum: 2048
>>>>>Begin Processed Spectral Data<<<<<
365.73	58.51
365.92	58.51
366.12	58.51
366.32	0.00
366.52	0.00
366.72	0.00
366.91	0.00
367.11	4.68
367.31	0.00
367.51	0.00
367.70	0.00
367.90	0.00
368.10	0.00
368.30	0.00
368.49	0.00
368.69	0.00
368.89	0.00
369.09	0.00
369.28	0.00
369.48	39.79
369.68	11.70
369.87	0.00
370.07	16.38
370.27	88.94
370.47	203.63
370.66	435.34
370.86	470.45
371.06	589.82
371.25	505.56
371.45	526.62
371.65	608.54
371.84	582.79
372.04	589.82
372.24	526.62
372.44	578.11
372.63	636.63
372.83	683.44
373.03	622.58
373.22	545.34
373.42	662.37
373.62	751.31
373.81	699.82
374.01	669.39
374.21	643.65
374.40	744.29
374.60	751.31
374.79	617.90
374.99	727.91
375.19	725.57
375.38	812.17
375.58	755.99
375.78	751.31
375.97	716.20
376.17	800.46
376.37	779.40
376.56	795.78
376.76	800.46
376.95	727.91
377.15	777.06
377.35	861.32
377.54	821.53
377.74	711.52
377.93	849.61
378.13	812.17
378.33	847.27
378.52	798.12
378.72	849.61
378.91	929.19
379.11	903.45
379.31	905.79
379.50	896.43
379.70	891.74
379.89	912.81
380.09	823.87
380.28	1006.43
380.48	940.90
380.68	931.53
380.87	922.17
381.07	994.73
381.26	1022.81
381.46	959.62
381.65	1018.13
381.85	952.60
382.04	1078.99
382.24	1020.47
382.43	1095.37
382.63	957.28
382.83	954.94
383.02	1025.15
383.22	1027.50
383.41	1102.39
383.61	1064.94
383.80	1020.47
384.00	1146.86
384.19	1207.72
384.39	1062.60
384.58	1055.58
384.78	1142.18
384.97	1205.38
385.17	1163.25
385.36	1067.28
385.56	1090.69
385.75	1078.99
385.95	1160.91
386.14	1172.61
386.34	1193.67
386.53	1263.89
386.72	1217.08
386.92	1226.44
387.11	1228.78
387.31	1282.61
387.50	1196.01
387.70	1240.48
387.89	1226.44
388.09	1245.16
388.28	1240.48
388.48	1231.12
388.67	1329.42
388.86	1284.95
389.06	1322.40
389.25	1348.15
389.45	1362.19
389.64	1252.19
389.84	1345.81
390.03	1373.89
390.22	1401.98
390.42	1362.19
390.61	1376.24
390.81	1401.98
391.00	1523.69
391.19	1451.13
391.39	1467.52
391.58	1593.90
391.78	1465.18
391.97	1544.75
392.16	1416.02
392.36	1490.92
392.55	1472.20
392.75	1490.92
392.94	1589.22
393.13	1582.20
393.33	1556.46
393.52	1607.95
393.71	1638.38
393.91	1650.08
394.10	1621.99
394.29	1647.74
394.49	1636.03
394.68	1699.23
394.88	1668.80
395.07	1764.76
395.26	1645.40
395.46	1650.08
395.65	1832.64
395.84	1877.11
396.04	1809.23
396.23	1813.92
396.42	1823.28
396.62	1806.89
396.81	1839.66
397.00	1886.47
397.19	1914.56
397.39	1781.15
397.58	1830.30
397.77	1935.62
397.97	1940.30
398.16	1937.96
398.35	1902.86
398.55	1982.43
398.74	1916.90
398.93	2059.67
399.12	2012.86
399.32	1856.04
399.51	1884.13
399.70	2076.06
399.90	2076.06
400.09	2120.53
400.28	2256.28
400.47	2108.82
400.67	2172.02
400.86	2155.63
401.05	2244.57
401.24	2260.96
401.44	2275.00
401.63	2368.62
401.82	2256.28
402.01	2253.94
402.21	2204.78
402.40	2289.04
402.59	2284.36
402.78	2307.77
402.97	2389.69
403.17	2356.92
403.36	2490.33
403.55	2473.95
403.74	2497.35
403.93	2459.90
404.13	2612.04
404.32	2551.18
404.51	2590.97
404.70	2537.14
404.89	2511.39
405.09	2656.51
405.28	2715.02
405.47	2654.17
405.66	2682.25
405.85	2605.02
406.05	2719.70
406.24	2677.57
406.43	2885.88
406.62	2794.60
406.81	2881.20
407.00	2771.19
407.20	2738.43
407.39	2785.24
407.58	2930.35
407.77	3098.87
407.96	2897.58
408.15	3091.85
408.34	2867.16
408.54	3115.25
408.73	3052.06
408.92	3084.83
409.11	3021.63
409.30	3166.74
409.49	3042.70
409.68	3178.45
409.87	3152.70
410.07	3258.03
410.26	3152.70
410.45	3251.00
410.64	3220.58
410.83	3435.91
411.02	3346.97
411.21	3344.63
411.40	3487.40
411.59	3522.51
411.78	3456.97
411.98	3515.48
412.17	3597.40
412.36	3569.32
412.55	3641.87
412.74	3737.84
412.93	3737.84
413.12	3662.94
413.31	3810.39
413.50	3772.94
413.69	3784.65
413.88	3981.25
414.07	3946.14
414.26	4133.39
414.45	3960.19
414.64	4007.00
414.83	4154.45
415.02	4152.11
415.22	4100.62
415.41	4285.52
415.60	4241.05
415.79	4397.87
415.98	4423.61
416.17	4435.32
416.36	4454.04
416.55	4444.68
416.74	4540.64
416.93	4465.74
417.12	4547.66
417.31	4566.39
417.50	4608.51
417.69	4758.31
417.88	4807.46
418.07	4695.11
418.26	4748.95
418.45	4861.29
418.64	5060.24
418.83	4919.81
419.02	4950.23
419.21	5011.09
419.39	5022.79
419.58	4903.42
419.77	4898.74
419.96	5027.47
420.15	5203.01
420.34	5001.72
420.53	5163.22
420.72	5291.95
420.91	5341.10
421.10	5298.97
421.29	5472.17
421.48	5238.12
421.67	5294.29
421.86	5376.21
422.05	5376.21
422.24	5460.47
422.43	5343.44
422.61	5511.96
422.80	5383.23
422.99	5474.51
423.18	5476.85
423.37	5650.05
423.56	5647.71
423.75	5551.75
423.94	5458.13
424.13	5184.29
424.32	5287.27
424.50	5689.84
424.69	5666.44
424.88	5748.36
425.07	5558.77
425.26	5589.20
425.45	5481.53
425.64	5636.01
425.83	5696.86
426.01	5741.33
426.20	5636.01
426.39	5605.58
426.58	5633.67
426.77	5734.31
426.96	5797.51
427.15	5547.07
427.33	5907.51
427.52	5703.89
427.71	5860.70
427.90	5914.53
428.09	5928.58
428.28	6001.13
428.46	6031.56
428.65	6155.61
428.84	6284.34
429.03	6347.53
429.22	5909.85
429.40	6104.12
429.59	6253.91
429.78	5823.25
429.97	5942.62
430.16	6094.76
430.34	6298.38
430.53	6394.34
430.72	6321.79
430.91	6387.32
431.10	6359.24
431.28	6548.82
431.47	6623.72
431.66	6558.18
431.85	6612.01
432.03	6518.39
432.22	6757.13
432.41	6759.47
432.60	6722.02
432.79	6583.93
432.97	6827.34
433.16	6942.03
433.35	6745.42
433.54	6937.35
433.72	6881.18
433.91	6890.54
434.10	6916.28
434.28	6974.80
434.47	7138.63
434.66	7108.21
434.85	7084.80
435.03	7356.30
435.22	7339.92
435.41	7826.75
435.59	7669.94
435.78	7602.06
435.97	7473.33
436.16	7370.35
436.34	7349.28
436.53	7360.98
436.72	7676.96
436.90	7236.94
437.09	7590.36
437.28	7391.41
437.46	7573.97
437.65	7602.06
437.84	7705.04
438.02	7555.25
438.21	7819.73
438.40	7552.91
438.58	7695.68
438.77	8030.38
438.96	7882.92
439.14	8187.19
439.33	7976.55
439.52	8198.90
439.70	8152.09
439.89	8402.52
440.08	8386.14
440.26	8404.86
440.45	8580.40
440.63	8351.03
440.82	8589.77
441.01	8683.39
441.19	8723.18
441.38	8863.61
441.57	8957.23
441.75	8922.12
441.94	8894.04
442.12	8910.42
442.31	9198.31
442.50	9048.51
442.68	9144.47
442.87	9158.52
443.05	9163.20
443.24	9497.89
443.43	9198.31
443.61	9348.10
443.80	9699.18
443.98	9427.68
444.17	8990.00
444.35	9462.79
444.54	9638.33
444.73	9633.64
444.91	9355.12
445.10	9617.26
445.28	9556.41
445.47	9462.79
445.65	9647.69
445.84	9572.79
446.02	9490.87
446.21	9652.37
446.39	9689.82
446.58	9745.99
446.77	9825.57
446.95	9523.64
447.14	9699.18
447.32	9874.72
447.51	9657.05
447.69	9713.22
447.88	9823.23
448.06	9816.21
448.25	9624.28
448.43	9755.35
448.62	9863.02
448.80	9867.70
448.99	9963.66
449.17	9970.68
449.36	9755.35
449.54	10169.63
449.73	10211.76
449.91	10466.88
450.10	10305.38
450.28	10387.30
450.46	10410.70
450.65	10387.30
450.83	10251.55
451.02	10487.94
451.20	10473.90
451.39	10726.68
451.57	10478.58
451.76	10370.91
451.94	10609.65
452.13	10647.10
452.31	10682.20
452.49	10611.99
452.68	10691.57
452.86	10927.96
453.05	10864.77
453.23	10895.19
453.42	11026.26
453.60	10745.40
453.78	10885.83
453.97	10764.12
454.15	10862.43
454.34	10937.32
454.52	11042.65
454.70	11105.84
454.89	11211.17
455.07	11265.00
455.26	11201.80
455.44	11510.75
455.62	11559.91
455.81	11445.22
455.99	11445.22
456.17	11571.61
456.36	11562.25
456.54	11726.08
456.73	11796.30
456.91	12044.40
457.09	11838.43
457.28	12388.46
457.46	11625.44
457.64	12044.40
457.83	12175.47
458.01	12093.55
458.19	12196.53
458.38	12074.82
458.56	12212.92
458.74	12418.88
458.93	12250.36
459.11	12622.51
459.29	12442.29
459.48	12418.88
459.66	12428.24
459.84	12671.66
460.03	12924.44
460.21	12423.56
460.39	12807.41
460.57	12746.56
460.76	12727.83
460.94	13011.04
461.12	12800.39
461.31	12835.50
461.49	12847.20
461.67	12671.66
461.85	13448.72
462.04	13088.28
462.22	13806.82
462.40	13167.85
462.59	13434.68
462.77	13256.79
462.95	13390.20
463.13	13561.06
463.32	13413.61
463.50	13317.65
463.68	13483.83
463.86	13518.93
464.05	13350.42
464.23	13497.87
464.41	13748.31
464.59	13434.68
464.78	13827.88
464.96	13701.50
465.14	13631.28
465.32	14001.08
465.50	14230.46
465.69	14176.62
465.87	13874.70
466.05	14071.30
466.23	14111.09
466.41	14183.65
466.60	14424.72
466.78	14153.22
466.96	14324.08
467.14	13762.35
467.32	14516.00
467.51	14773.46
467.69	14024.49
467.87	14569.83
468.05	14710.27
468.23	14574.52
468.41	14415.36
468.60	14548.77
468.78	14841.34
468.96	14604.94
469.14	14787.50
469.32	14815.59
469.50	14705.59
469.69	15185.40
469.87	15250.93
470.05	15555.20
470.23	15274.34
470.41	15337.53
470.59	15262.63
470.77	15288.38
470.95	15489.67
471.14	15730.74
471.32	15410.09
471.50	16042.03
471.68	15662.86
471.86	15772.87
472.04	15960.11
472.22	16304.17
472.40	15506.05
472.58	15976.50
472.77	16229.27
472.95	16519.50
473.13	16886.97
473.31	16372.05
473.49	16397.79
473.67	16519.50
473.85	16578.01
474.03	17022.72
474.21	17039.10
474.39	17076.55
474.57	17111.66
474.75	17125.70
474.93	17336.35
475.12	17408.90
475.30	17209.96
475.48	17469.76
475.66	17561.04
475.84	17743.60
476.02	18026.81
476.20	18015.10
476.38	18178.94
476.56	18714.92
476.74	18197.67
476.92	18532.36
477.10	18527.68
477.28	18862.38
477.46	18518.32
477.64	18878.76
477.82	19407.72
478.00	19693.27
478.18	19461.55
478.36	19541.13
478.54	20077.12
478.72	20088.82
478.90	20460.96
479.08	20285.42
479.26	20610.76
479.44	20692.68
479.62	20755.87
479.80	20971.20
479.98	21188.87
480.16	21570.38
480.34	21387.82
480.52	21699.11
480.70	21912.10
480.88	21418.24
481.06	21823.16
481.24	21867.63
481.41	22501.91
481.59	22515.95
481.77	22649.36
481.95	22822.56
482.13	23019.17
482.31	23061.30
482.49	23573.88
482.67	23641.75
482.85	23562.17
483.03	24140.29
483.21	24266.67
483.39	24629.46
483.57	24311.14
483.74	24573.28
483.92	24936.07
484.10	24760.53
484.28	25427.58
484.46	25759.94
484.64	26295.92
484.82	25380.77
485.00	26031.44
485.18	26469.12
485.35	26972.33
485.53	26948.93
485.71	26649.34
485.89	27225.11
486.07	27594.92
486.25	27615.98
486.43	27363.20
486.61	27737.69
486.78	28376.66
486.96	28046.64
487.14	29092.86
487.32	28968.81
487.50	29282.44
487.68	29350.32
487.85	29837.15
488.03	29961.20
488.21	30630.59
488.39	30188.23
488.57	30747.62
488.75	30169.51
488.92	31119.76
489.10	31042.53
489.28	30918.48
489.46	31842.99
489.64	31765.75
489.81	32720.69
489.99	32385.99
490.17	32222.16
490.35	32957.08
490.53	32896.23
490.70	33198.16
490.88	33118.58
491.06	33684.99
491.24	33724.78
491.41	33722.44
491.59	34508.86
491.77	34150.76
491.95	34991.01
492.13	35208.68
492.30	34974.63
492.48	35063.57
492.66	35164.21
492.84	35695.51
493.01	36009.14
493.19	35943.61
493.37	36449.16
493.54	36374.27
493.72	36517.04
493.90	36774.50
494.08	36959.40
494.25	37310.48
494.43	37787.95
494.61	38213.93
494.79	38249.03
494.96	37869.87
495.14	38323.93
495.32	38401.17
495.49	38857.57
495.67	39028.43
495.85	39311.64
496.02	40032.52
496.20	39768.04
496.38	39686.12
496.55	39768.04
496.73	40395.31
496.91	40271.26
497.09	40472.54
497.26	40821.28
497.44	40428.07
497.62	41148.96
497.79	41205.13
497.97	40940.65
498.14	41684.94
498.32	42344.97
498.50	42335.61
498.67	42658.60
498.85	42398.80
499.03	42775.63
499.20	42604.77
499.38	42801.38
499.56	42932.45
499.73	43199.27
499.91	43786.74
500.08	43564.39
500.26	43480.13
500.44	43606.52
500.61	43899.09
500.79	44088.67
500.97	44140.16
501.14	45172.34
501.32	45092.76
501.49	45010.84
501.67	44912.54
501.84	44975.73
502.02	44994.46
502.20	45172.34
502.37	45610.02
502.55	45879.18
502.72	46160.05
502.90	45617.04
503.07	45549.17
503.25	46075.79
503.43	46101.53
503.60	46649.22
503.78	46480.70
503.95	46768.58
504.13	46642.20
504.30	46579.00
504.48	46499.42
504.65	47166.48
504.83	47545.64
505.01	47557.35
505.18	47824.17
505.36	47728.20
505.53	47870.98
505.71	47784.38
505.88	48067.58
506.06	47831.19
506.23	48437.39
506.41	48591.86
506.58	48601.22
506.76	48931.24
506.93	48795.49
507.11	48739.32
507.28	48655.06
507.46	48844.64
507.63	49298.70
507.81	49502.33
507.98	49247.21
508.16	49593.61
508.33	49516.37
508.50	49319.77
508.68	49991.50
508.85	50014.91
509.03	50145.98
509.20	50557.91
509.38	50534.51
509.55	50506.42
509.73	50803.67
509.90	50578.98
510.08	50742.81
510.25	50887.93
510.42	51185.18
510.60	50869.20
510.77	51323.27
510.95	51538.60
511.12	51026.02
511.30	51164.11
511.47	51625.20
511.64	51700.09
511.82	51777.33
511.99	52088.62
512.17	52051.17
512.34	51753.93
512.51	52069.90
512.69	51950.53
512.86	52257.14
513.04	52526.30
513.21	52481.83
513.38	52650.35
513.56	52425.66
513.73	52746.31
513.90	52633.97
514.08	52416.30
514.25	52755.68
514.43	52542.69
514.60	53368.90
514.77	53081.01
514.95	53354.85
515.12	53301.02
515.29	53499.97
515.47	53361.87
515.64	53712.95
515.81	53418.05
515.99	53949.35
516.16	54260.64
516.33	54078.08
516.51	53991.48
516.68	53841.68
516.85	54230.21
517.03	54174.04
517.20	54176.38
517.37	54375.33
517.54	54649.17
517.72	54401.07
517.89	54288.73
518.06	54300.43
518.24	54176.38
518.41	54562.57
518.58	54557.89
518.75	54635.13
518.93	55002.59
519.10	54700.66
519.27	55033.02
519.45	54906.63
519.62	54920.67
519.79	55180.47
519.96	55168.77
520.14	55363.03
520.31	55257.71
520.48	55639.22
520.65	55257.71
520.83	55487.08
521.00	55477.72
521.17	55480.06
521.34	55433.25
521.52	55924.76
521.69	55700.07
521.86	55966.89
522.03	55994.98
522.20	56198.60
522.38	56090.94
522.55	56104.98
522.72	55973.91
522.89	56095.62
523.07	56484.15
523.24	56537.98
523.41	56629.26
523.58	56640.96
523.75	56636.28
523.92	56514.58
524.10	56523.94
524.27	56683.09
524.44	56910.13
524.61	56987.36
524.78	56757.99
524.96	56872.68
525.13	57043.54
525.30	57036.51
525.47	57024.81
525.64	56973.32
525.81	57413.34
525.98	57471.85
526.16	57324.40
526.33	57406.32
526.50	57537.39
526.67	57322.06
526.84	57539.73
527.01	57387.60
527.18	57478.88
527.36	57808.89
527.53	57916.56
527.70	58157.63
527.87	58117.84
528.04	57762.08
528.21	57942.30
528.38	57715.27
528.55	57984.43
528.72	58035.92
528.89	58188.06
529.07	58138.91
529.24	58010.18
529.41	58293.38
529.58	58106.14
529.75	58223.17
529.92	58185.72
530.09	58328.49
530.26	58387.00
530.43	58440.84
530.60	58541.48
530.77	58543.82
530.94	58557.86
531.11	58379.98
531.28	58309.77
531.46	58473.60
531.63	58681.91
531.80	58749.79
531.97	58759.15
532.14	59140.66
532.31	58775.53
532.48	58911.28
532.65	59072.78
532.82	58815.32
532.99	59196.83
533.16	58955.75
533.33	59262.36
533.50	59456.63
533.67	59295.13
533.84	59299.81
534.01	59353.65
534.18	59107.89
534.35	59423.86
534.52	59313.86
534.69	59449.61
534.86	59566.63
535.03	59341.94
535.20	59723.45
535.37	59657.91
535.54	59695.36
535.71	59337.26
535.88	59798.35
536.05	59667.28
536.22	59756.22
536.38	59891.97
536.55	59664.94
536.72	59955.16
536.89	59863.88
537.06	59749.20
537.23	59901.33
537.40	59868.56
537.57	59943.46
537.74	59852.18
537.91	60130.70
538.08	60081.55
538.25	59994.95
538.42	60425.61
538.59	60207.94
538.75	60130.70
538.92	60191.56
539.09	60395.18
539.26	60526.25
539.43	60238.37
539.60	60594.13
539.77	60299.22
539.94	60580.09
540.11	60512.21
540.28	60596.47
540.44	60633.92
540.61	60540.30
540.78	60720.52
540.95	60788.39
541.12	60910.10
541.29	60781.37
541.46	60947.55
541.62	60748.60
541.79	60940.53
541.96	60456.04
542.13	60685.41
542.30	61085.64
542.47	61219.05
542.63	61141.81
542.80	61247.14
542.97	61359.48
543.14	61511.62
543.31	61268.20
543.48	61298.63
543.64	61565.45
543.81	61467.15
543.98	61546.73
544.15	61630.99
544.32	61755.03
544.48	61623.96
544.65	61460.13
544.82	61490.55
544.99	61591.20
545.16	61708.22
545.32	61621.62
545.49	61961.00
545.66	62045.26
545.83	62152.93
546.00	62162.29
546.16	62049.94
546.33	61813.55
546.50	61696.52
546.67	61743.33
546.83	61455.45
547.00	61843.98
547.17	61874.40
547.34	61881.42
547.50	61907.17
547.67	62136.54
547.84	61949.30
548.00	62113.14
548.17	62131.86
548.34	61984.41
548.51	62213.78
548.67	62312.08
548.84	62035.90
549.01	62075.69
549.18	62110.80
549.34	62190.37
549.51	62157.61
549.68	62260.59
549.84	62073.35
550.01	62302.72
550.18	62248.89
550.34	62372.94
550.51	62401.02
550.68	62548.48
550.84	62356.55
551.01	62489.96
551.18	62333.15
551.34	62237.19
551.51	62543.80
551.68	62482.94
551.84	62752.10
552.01	62396.34
552.18	62733.38
552.34	62604.65
552.51	62672.52
552.68	62452.51
552.84	62543.80
553.01	62838.70
553.18	62656.14
553.34	62869.13
553.51	62735.72
553.67	62913.60
553.84	63051.69
554.01	63096.16
554.17	63058.71
554.34	62981.48
554.51	62979.14
554.67	62929.98
554.84	63018.92
555.00	63011.90
555.17	62941.69
555.33	63032.97
555.50	63135.95
555.67	63082.12
555.83	63119.57
556.00	63016.58
556.16	63309.15
556.33	63039.99
556.50	63117.23
556.66	63377.03
556.83	62951.05
556.99	63444.90
557.16	63463.63
557.32	63379.37
557.49	63384.05
557.65	63009.56
557.82	63128.93
557.98	63011.90
558.15	63292.77
558.32	63522.14
558.48	63463.63
558.65	63683.64
558.81	63447.24
558.98	63489.37
559.14	63465.97
559.31	63384.05
559.47	63325.53
559.64	63423.84
559.80	63557.25
559.97	63636.83
560.13	63451.92
560.30	63702.36
560.46	63697.68
560.63	63578.31
560.79	63571.29
560.96	63664.91
561.12	63414.47
561.29	63571.29
561.45	63662.57
561.61	63737.47
561.78	63847.47
561.94	63772.58
562.11	63870.88
562.27	63711.72
562.44	63774.92
562.60	63859.18
562.77	63819.39
562.93	63671.93
563.10	63957.48
563.26	63751.51
563.42	64088.55
563.59	63905.99
563.75	63772.58
563.92	64058.12
564.08	63800.66
564.24	64053.44
564.41	63772.58
564.57	63861.52
564.74	63929.39
564.90	64041.74
565.07	64067.48
565.23	64184.51
565.39	64090.89
565.56	64023.01
565.72	64011.31
565.88	64142.38
566.05	63950.46
566.21	63838.11
566.38	64020.67
566.54	64074.51
566.70	63999.61
566.87	64472.40
567.03	64147.06
567.19	64121.32
567.36	64165.79
567.52	64147.06
567.68	64294.52
567.85	64006.63
568.01	64116.64
568.17	64161.11
568.34	64320.26
568.50	64273.45
568.66	64086.21
568.83	64329.62
568.99	64292.18
569.15	64184.51
569.32	64128.34
569.48	64161.11
569.64	64357.71
569.81	64273.45
569.97	64303.88
570.13	64331.96
570.30	64348.35
570.46	64292.18
570.62	64231.32
570.78	64165.79
570.95	64041.74
571.11	64348.35
571.27	63891.94
571.43	64207.92
571.60	64341.33
571.76	64399.84
571.92	64280.47
572.09	64514.53
572.25	64432.61
572.41	64514.53
572.57	64619.85
572.74	64563.68
572.90	64322.60
573.06	64591.76
573.22	64327.28
573.38	64488.78
573.55	64404.52
573.71	64837.52
573.87	64652.62
574.03	64381.12
574.20	64594.10
574.36	64446.65
574.52	64465.38
574.68	64441.97
574.84	64362.39
575.01	64659.64
575.17	64598.79
575.33	64594.10
575.49	64544.95
575.65	64692.41
575.82	64643.26
575.98	64289.84
576.14	64664.32
576.30	64666.66
576.46	64643.26
576.62	64491.12
576.79	64456.01
576.95	64568.36
577.11	64650.28
577.27	64547.29
577.43	64755.60
577.59	64484.10
577.75	64697.09
577.92	64589.42
578.08	64322.60
578.24	64654.96
578.40	64615.17
578.56	64547.29
578.72	64624.53
578.88	64788.37
579.04	64715.81
579.21	64666.66
579.37	64811.77
579.53	64814.12
579.69	64367.07
579.85	64647.94
580.01	64601.13
580.17	64516.87
580.33	64771.99
580.49	64797.73
580.65	64844.54
580.82	64877.31
580.98	64661.98
581.14	64694.75
581.30	64846.88
581.46	64776.67
581.62	64519.21
581.78	64647.94
581.94	64837.52
582.10	64626.87
582.26	64797.73
582.42	64849.22
582.58	64736.88
582.74	64769.64
582.90	64896.03
583.06	64872.63
583.22	64769.64
583.38	64863.27
583.54	64795.39
583.70	64657.30
583.86	64774.33
584.02	64645.60
584.18	64858.59
584.34	64830.50
584.50	64839.86
584.66	64769.64
584.82	64673.68
584.98	64982.63
585.14	65015.40
585.30	64652.62
585.46	64704.11
585.62	64757.94
585.78	64870.29
585.94	64825.82
586.10	64699.43
586.26	64889.01
586.42	65087.96
586.58	64935.82
586.74	64774.33
586.90	64809.43
587.06	64690.07
587.22	64987.31
587.38	64886.67
587.54	65123.07
587.70	64905.40
587.86	65064.55
588.02	65085.62
588.18	65036.47
588.34	65069.23
588.49	64954.55
