SpectraSuite Data File
++++++++++++++++++++++++++++++++++++
Date: Fri Oct 04 11:39:17 GMT-05:00 2013
User: price-jones
Dark Spectrum Present: No
Reference Spectrum Present: No
Number of Sampled Component Spectra: 1
Spectrometers: USB2+H05261
Integration Time (usec): 100000 (USB2+H05261)
Spectra Averaged: 1 (USB2+H05261)
Boxcar Smoothing: 0 (USB2+H05261)
Correct for Electrical Dark: No (USB2+H05261)
Strobe/Lamp Enabled: No (USB2+H05261)
Correct for Detector Non-linearity: No (USB2+H05261)
Correct for Stray Light: No (USB2+H05261)
Number of Pixels in Processed Spectrum: 2048
>>>>>Begin Processed Spectral Data<<<<<
365.73	44.47
365.92	44.47
366.12	44.47
366.32	0.00
366.52	0.00
366.72	0.00
366.91	0.00
367.11	0.00
367.31	0.00
367.51	0.00
367.70	0.00
367.90	0.00
368.10	0.00
368.30	0.00
368.49	0.00
368.69	0.00
368.89	0.00
369.09	0.00
369.28	56.17
369.48	25.75
369.68	0.00
369.87	0.00
370.07	0.00
370.27	28.09
370.47	119.37
370.66	177.88
370.86	290.23
371.06	292.57
371.25	313.63
371.45	236.39
371.65	313.63
371.84	285.55
372.04	318.31
372.24	292.57
372.44	327.68
372.63	264.48
372.83	304.27
373.03	341.72
373.22	325.33
373.42	358.10
373.62	304.27
373.81	299.59
374.01	334.70
374.21	351.08
374.40	421.30
374.60	458.74
374.79	360.44
374.99	369.80
375.19	390.87
375.38	383.85
375.58	376.83
375.78	402.57
375.97	416.62
376.17	461.09
376.37	428.32
376.56	367.46
376.76	362.78
376.95	344.06
377.15	470.45
377.35	430.66
377.54	423.64
377.74	381.51
377.93	465.77
378.13	447.04
378.33	442.36
378.52	411.93
378.72	428.32
378.91	428.32
379.11	339.38
379.31	421.30
379.50	374.49
379.70	517.26
379.89	512.58
380.09	365.12
380.28	362.78
380.48	421.30
380.68	435.34
380.87	449.38
381.07	433.00
381.26	468.11
381.46	540.66
381.65	472.79
381.85	552.37
382.04	444.70
382.24	484.49
382.43	533.64
382.63	442.36
382.83	503.22
383.02	461.09
383.22	498.53
383.41	416.62
383.61	479.81
383.80	500.87
384.00	491.51
384.19	496.19
384.39	528.96
384.58	472.79
384.78	608.54
384.97	489.17
385.17	617.90
385.36	571.09
385.56	564.07
385.75	531.30
385.95	547.69
386.14	512.58
386.34	498.53
386.53	538.32
386.72	472.79
386.92	557.05
387.11	552.37
387.31	533.64
387.50	601.52
387.70	615.56
387.89	615.56
388.09	575.77
388.28	606.20
388.48	557.05
388.67	620.24
388.86	589.82
389.06	669.39
389.25	664.71
389.45	608.54
389.64	624.92
389.84	638.97
390.03	603.86
390.22	692.80
390.42	608.54
390.61	716.20
390.81	643.65
391.00	613.22
391.19	758.33
391.39	702.16
391.58	770.04
391.78	772.38
391.97	638.97
392.16	629.60
392.36	723.23
392.55	723.23
392.75	753.65
392.94	702.16
393.13	723.23
393.33	704.50
393.52	741.95
393.71	812.17
393.91	702.16
394.10	631.94
394.29	713.86
394.49	809.83
394.68	819.19
394.88	786.42
395.07	791.10
395.26	786.42
395.46	779.40
395.65	854.30
395.84	816.85
396.04	891.74
396.23	861.32
396.42	868.34
396.62	807.48
396.81	849.61
397.00	880.04
397.19	842.59
397.39	912.81
397.58	910.47
397.77	926.85
397.97	851.96
398.16	905.79
398.35	978.34
398.55	987.71
398.74	983.02
398.93	940.90
399.12	987.71
399.32	947.92
399.51	910.47
399.70	933.87
399.90	976.00
400.09	1053.24
400.28	1050.90
400.47	985.37
400.67	1004.09
400.86	1095.37
401.05	1057.92
401.24	1090.69
401.44	1022.81
401.63	1055.58
401.82	1114.10
402.01	1015.79
402.21	1025.15
402.40	1156.22
402.59	1149.20
402.78	1086.01
402.97	1184.31
403.17	1261.55
403.36	1263.89
403.55	1210.06
403.74	1226.44
403.93	1303.68
404.13	1336.45
404.32	1191.33
404.51	1273.25
404.70	1289.64
404.89	1284.95
405.09	1352.83
405.28	1315.38
405.47	1341.13
405.66	1329.42
405.85	1409.00
406.05	1336.45
406.24	1329.42
406.43	1444.11
406.62	1401.98
406.81	1476.88
407.00	1352.83
407.20	1425.39
407.39	1427.73
407.58	1563.48
407.77	1397.30
407.96	1334.11
408.15	1486.24
408.34	1540.07
408.54	1570.50
408.73	1565.82
408.92	1542.41
409.11	1561.14
409.30	1631.35
409.49	1507.30
409.68	1591.56
409.87	1528.37
410.07	1760.08
410.26	1652.42
410.45	1659.44
410.64	1678.16
410.83	1743.70
411.02	1746.04
411.21	1804.55
411.40	1706.25
411.59	1790.51
411.78	1764.76
411.98	1788.17
412.17	1853.70
412.36	1884.13
412.55	1867.75
412.74	1966.05
412.93	1982.43
413.12	1994.14
413.31	1980.09
413.50	2043.29
413.69	1984.77
413.88	1991.80
414.07	2134.57
414.26	2155.63
414.45	1987.11
414.64	2200.10
414.83	2174.36
415.02	2162.66
415.22	2225.85
415.41	2256.28
415.60	2186.06
415.79	2368.62
415.98	2368.62
416.17	2324.15
416.36	2251.60
416.55	2354.58
416.74	2478.63
416.93	2413.09
417.12	2485.65
417.31	2497.35
417.50	2441.18
417.69	2490.33
417.88	2590.97
418.07	2586.29
418.26	2635.44
418.45	2609.70
418.64	2555.86
418.83	2635.44
419.02	2668.21
419.21	2544.16
419.39	2551.18
419.58	2675.23
419.77	2637.78
419.96	2712.68
420.15	2719.70
420.34	2663.53
420.53	2724.38
420.72	2848.43
420.91	2806.30
421.10	2883.54
421.29	2977.16
421.48	2782.90
421.67	2988.86
421.86	2892.90
422.05	2911.63
422.24	2871.84
422.43	2850.77
422.61	2986.52
422.80	2920.99
422.99	2925.67
423.18	3026.31
423.37	3119.93
423.56	3054.40
423.75	2939.71
423.94	3002.91
424.13	2855.45
424.32	2796.94
424.50	3087.17
424.69	3098.87
424.88	3052.06
425.07	2986.52
425.26	3091.85
425.45	2932.69
425.64	3122.27
425.83	3105.89
426.01	3112.91
426.20	3096.53
426.39	3166.74
426.58	3133.98
426.77	3080.14
426.96	3171.43
427.15	2949.08
427.33	3131.64
427.52	3061.42
427.71	3190.15
427.90	3199.51
428.09	3194.83
428.28	3302.50
428.46	3171.43
428.65	3335.26
428.84	3332.92
429.03	3398.46
429.22	3222.92
429.40	3274.41
429.59	3330.58
429.78	3293.13
429.97	3190.15
430.16	3311.86
430.34	3393.78
430.53	3337.60
430.72	3480.38
430.91	3335.26
431.10	3400.80
431.28	3522.51
431.47	3513.14
431.66	3550.59
431.85	3515.48
432.03	3735.50
432.22	3730.81
432.41	3611.45
432.60	3592.72
432.79	3634.85
432.97	3744.86
433.16	3676.98
433.35	3691.02
433.54	3693.37
433.72	3857.20
433.91	3737.84
434.10	3693.37
434.28	3712.09
434.47	3794.01
434.66	3782.31
434.85	3878.27
435.03	3992.95
435.22	4060.83
435.41	4250.41
435.59	4241.05
435.78	4311.27
435.97	4107.64
436.16	4042.11
436.34	3950.82
436.53	3953.16
436.72	4088.92
436.90	3978.91
437.09	4149.77
437.28	3969.55
437.46	3953.16
437.65	4114.66
437.84	4159.13
438.02	4280.84
438.21	4140.41
438.40	4023.38
438.58	4250.41
438.77	4212.96
438.96	4400.21
439.14	4318.29
439.33	4358.08
439.52	4402.55
439.70	4463.40
439.89	4535.96
440.08	4503.19
440.26	4510.21
440.45	4468.08
440.63	4578.09
440.82	4774.69
441.01	4559.36
441.19	4538.30
441.38	4800.44
441.57	4683.41
441.75	4910.44
441.94	4919.81
442.12	4966.62
442.31	4947.89
442.50	4983.00
442.68	4973.64
442.87	4971.30
443.05	4905.76
443.24	5032.15
443.43	5048.54
443.61	5027.47
443.80	5268.55
443.98	5090.67
444.17	4865.97
444.35	5102.37
444.54	5032.15
444.73	5097.69
444.91	5069.60
445.10	5210.03
445.28	5167.90
445.47	4961.94
445.65	5088.32
445.84	5128.11
446.02	5179.61
446.21	5149.18
446.39	5242.80
446.58	5228.76
446.77	5207.69
446.95	5130.45
447.14	5221.74
447.32	5298.97
447.51	5165.56
447.69	5174.92
447.88	5343.44
448.06	5102.37
448.25	5256.84
448.43	5181.95
448.62	5181.95
448.80	5296.63
448.99	5439.40
449.17	5324.72
449.36	5327.06
449.54	5404.30
449.73	5509.62
449.91	5502.60
450.10	5324.72
450.28	5636.01
450.46	5530.69
450.65	5547.07
450.83	5563.45
451.02	5593.88
451.20	5664.10
451.39	5685.16
451.57	5549.41
451.76	5469.83
451.94	5542.39
452.13	5762.40
452.31	5717.93
452.49	5654.73
452.68	5771.76
452.86	5701.54
453.05	5856.02
453.23	5717.93
453.42	5860.70
453.60	5682.82
453.78	5771.76
453.97	5771.76
454.15	5781.12
454.34	5905.17
454.52	6010.50
454.70	5844.32
454.89	5902.83
455.07	6059.65
455.26	6057.31
455.44	6052.63
455.62	6115.82
455.81	6029.22
455.99	6094.76
456.17	6186.04
456.36	6228.17
456.54	6263.27
456.73	6179.01
456.91	6221.14
457.09	6347.53
457.28	6483.28
457.46	6321.79
457.64	6487.96
457.83	6377.96
458.01	6396.68
458.19	6661.16
458.38	6352.21
458.56	6429.45
458.74	6422.43
458.93	6459.88
459.11	6668.19
459.29	6633.08
459.48	6572.22
459.66	6497.33
459.84	6754.79
460.03	6848.41
460.21	6602.65
460.39	6722.02
460.57	6654.14
460.76	6754.79
460.94	6843.73
461.12	6857.77
461.31	6738.40
461.49	6750.10
461.67	6810.96
461.85	7197.15
462.04	6745.42
462.22	7709.72
462.40	7169.06
462.59	7059.06
462.77	6970.12
462.95	7279.07
463.13	7061.40
463.32	7052.03
463.50	7122.25
463.68	7021.61
463.86	7166.72
464.05	7173.74
464.23	7218.21
464.41	7410.14
464.59	7260.34
464.78	7300.13
464.96	7346.94
465.14	7246.30
465.32	7332.90
465.50	7487.37
465.69	7368.01
465.87	7211.19
466.05	7353.96
466.23	7492.05
466.41	7400.77
466.60	7548.23
466.78	7379.71
466.96	7480.35
467.14	7599.72
467.32	7571.63
467.51	7548.23
467.69	7494.40
467.87	7623.12
468.05	7808.03
468.23	7660.57
468.41	7719.09
468.60	7824.41
468.78	7845.48
468.96	7730.79
469.14	7683.98
469.32	7894.63
469.50	7583.34
469.69	7948.46
469.87	8006.97
470.05	7939.10
470.23	7957.82
470.41	8177.83
470.59	8065.49
470.77	8049.10
470.95	8184.85
471.14	8285.50
471.32	8086.55
471.50	8549.98
471.68	8374.44
471.86	8393.16
472.04	8091.23
472.22	8631.90
472.40	8348.69
472.58	8463.38
472.77	8430.61
472.95	8692.75
473.13	8915.10
473.31	8678.71
473.49	8608.49
473.67	8819.14
473.85	8596.79
474.03	8795.73
474.21	8872.97
474.39	9041.49
474.57	9184.26
474.75	8959.57
474.93	9137.45
475.12	8978.30
475.30	9137.45
475.48	9132.77
475.66	9289.59
475.84	9280.22
476.02	9364.48
476.20	9458.10
476.38	9451.08
476.56	9937.91
476.74	9717.90
476.92	9804.50
477.10	9776.42
477.28	9893.44
477.46	9762.37
477.64	9891.10
477.82	10146.22
478.00	10298.36
478.18	10094.73
478.36	10391.98
478.54	10363.89
478.72	10200.05
478.90	10506.66
479.08	10663.48
479.26	10782.85
479.44	11037.97
479.62	10904.56
479.80	11009.88
479.98	11066.05
480.16	11286.06
480.34	11037.97
480.52	11358.62
480.70	11485.01
480.88	11129.25
481.06	11489.69
481.24	11272.02
481.41	11414.79
481.59	11627.78
481.77	11901.62
481.95	11896.94
482.13	11763.53
482.31	12086.53
482.49	12313.56
482.67	12170.79
482.85	12301.86
483.03	12535.91
483.21	12709.11
483.39	12816.77
483.57	12910.40
483.74	12908.05
483.92	12807.41
484.10	12643.57
484.28	13184.24
484.46	13472.12
484.64	13612.56
484.82	13158.49
485.00	13638.30
485.18	13790.44
485.35	13783.41
485.53	13839.59
485.71	13881.72
485.89	14434.08
486.07	14338.12
486.25	14181.31
486.43	14398.98
486.61	14272.59
486.78	14775.80
486.96	14782.82
487.14	14953.68
487.32	14850.70
487.50	15150.29
487.68	15272.00
487.85	15250.93
488.03	15342.21
488.21	15700.31
488.39	15391.36
488.57	15950.75
488.75	15932.03
488.92	16322.90
489.10	16060.76
489.28	16299.49
489.46	16442.26
489.64	16549.93
489.81	16606.10
489.99	16781.64
490.17	17146.76
490.35	17081.23
490.53	17034.42
490.70	17158.47
490.88	17355.07
491.06	17390.18
491.24	17446.35
491.41	17685.09
491.59	17617.21
491.77	17657.00
491.95	17940.21
492.13	17982.34
492.30	18244.48
492.48	18361.50
492.66	18370.86
492.84	18469.17
493.01	18721.95
493.19	18663.43
493.37	18916.21
493.54	19300.06
493.72	19147.92
493.90	19218.14
494.08	19023.87
494.25	19278.99
494.43	19620.71
494.61	19836.04
494.79	19901.58
494.96	19470.92
495.14	20056.05
495.32	20032.65
495.49	20102.86
495.67	20121.59
495.85	20350.96
496.02	20835.45
496.20	20498.41
496.38	20723.10
496.55	21144.40
496.73	21348.03
496.91	20856.51
497.09	21032.05
497.26	21420.58
497.44	21221.64
497.62	21259.09
497.79	21387.82
497.97	21233.34
498.14	21727.19
498.32	21661.66
498.50	22157.85
498.67	22188.28
498.85	22008.06
499.03	21947.20
499.20	22218.71
499.38	22455.10
499.56	22602.55
499.73	22518.29
499.91	22581.49
500.08	23365.57
500.26	22782.77
500.44	22967.68
500.61	23030.87
500.79	23115.13
500.97	23332.80
501.14	23271.95
501.32	23674.52
501.49	23433.44
501.67	23484.94
501.84	23391.31
502.02	23821.97
502.20	24060.71
502.37	23690.90
502.55	23896.87
502.72	24254.97
502.90	23995.17
503.07	24072.41
503.25	24102.84
503.43	24238.59
503.60	24350.93
503.78	24458.60
503.95	24699.67
504.13	24725.42
504.30	24865.85
504.48	24559.24
504.65	25193.53
504.83	25050.75
505.01	25191.19
505.18	25111.61
505.36	25490.77
505.53	25195.87
505.71	25493.12
505.88	25357.36
506.06	24973.52
506.23	25764.62
506.41	25626.53
506.58	25883.98
506.76	26288.90
506.93	25947.18
507.11	25715.47
507.28	25975.27
507.46	26003.35
507.63	26394.22
507.81	26324.01
507.98	26242.09
508.16	26548.70
508.33	26291.24
508.50	26368.48
508.68	26677.43
508.85	26941.91
509.03	26785.09
509.20	26801.47
509.38	27536.40
509.55	27395.97
509.73	27529.38
509.90	27307.03
510.08	27157.24
510.25	27337.46
510.42	27307.03
510.60	27835.99
510.77	27917.91
510.95	27742.37
511.12	27922.59
511.30	27597.26
511.47	28481.98
511.64	28006.85
511.82	28023.23
511.99	28357.93
512.17	28229.20
512.34	28587.30
512.51	28402.40
512.69	28542.83
512.86	28496.02
513.04	28631.77
513.21	28809.65
513.38	29053.07
513.56	29046.05
513.73	29003.92
513.90	28961.79
514.08	29043.71
514.25	29216.91
514.43	29460.32
514.60	29083.50
514.77	29207.55
514.95	29673.31
515.12	29486.07
515.29	29331.59
515.47	29537.56
515.64	29844.17
515.81	29898.00
515.99	29898.00
516.16	30073.54
516.33	30113.33
516.51	30082.91
516.68	30022.05
516.85	30267.81
517.03	30478.46
517.20	30125.04
517.37	30478.46
517.54	30642.29
517.72	30574.42
517.89	30314.62
518.06	30260.79
518.24	30574.42
518.41	31012.10
518.58	30855.28
518.75	30948.90
518.93	31058.91
519.10	31105.72
519.27	30916.14
519.45	31124.44
519.62	31505.95
519.79	31391.26
519.96	31206.36
520.14	31447.44
520.31	31316.37
520.48	32002.14
520.65	31538.72
520.83	31931.93
521.00	31913.20
521.17	31608.93
521.34	31576.17
521.52	31978.74
521.69	32430.46
521.86	31992.78
522.03	32301.73
522.20	32432.80
522.38	32730.05
522.55	32418.76
522.72	32137.90
522.89	32720.69
523.07	32959.42
523.24	32950.06
523.41	33022.62
523.58	32877.51
523.75	32919.63
523.92	32924.32
524.10	32692.60
524.27	32959.42
524.44	33078.79
524.61	33205.18
524.78	33752.87
524.96	33570.30
525.13	33392.42
525.30	33530.51
525.47	33565.62
525.64	33640.52
525.81	33986.92
525.98	34050.11
526.16	33830.10
526.33	34167.14
526.50	34253.74
526.67	33762.23
526.84	34183.52
527.01	33820.74
527.18	34579.07
527.36	34302.89
527.53	34398.85
527.70	34902.07
527.87	34941.86
528.04	34733.55
528.21	34618.86
528.38	34651.63
528.55	34712.49
528.72	34841.21
528.89	35070.59
529.07	35030.80
529.24	34651.63
529.41	35063.57
529.58	35133.78
529.75	35136.12
529.92	35211.02
530.09	34871.64
530.26	34918.45
530.43	35040.16
530.60	35204.00
530.77	34916.11
530.94	35512.95
531.11	35253.15
531.28	35264.85
531.46	35482.52
531.63	35594.87
531.80	35777.43
531.97	36086.38
532.14	35938.93
532.31	35618.27
532.48	35592.53
532.65	35974.03
532.82	35803.17
532.99	36278.30
533.16	35866.37
533.33	36458.52
533.50	36617.68
533.67	36299.37
533.84	35847.64
534.01	36266.60
534.18	36095.74
534.35	36535.76
534.52	36467.89
534.69	37113.87
534.86	36713.64
535.03	36825.99
535.20	36676.19
535.37	37003.87
535.54	36847.05
535.71	37027.28
535.88	37261.33
536.05	36336.82
536.22	36924.29
536.38	37387.72
536.55	37464.96
536.72	37357.29
536.89	37130.26
537.06	37280.05
537.23	37581.98
537.40	37177.07
537.57	37439.21
537.74	37291.76
537.91	37689.65
538.08	38092.22
538.25	37565.60
538.42	37640.50
538.59	38181.16
538.75	37305.80
538.92	37481.34
539.09	37904.98
539.26	38141.37
539.43	37816.04
539.60	38244.35
539.77	38380.10
539.94	38246.69
540.11	38082.86
540.28	38288.82
540.44	38148.39
540.61	38513.52
540.78	38707.78
540.95	38803.74
541.12	38888.00
541.29	38895.02
541.46	38745.23
541.62	38632.88
541.79	38726.50
541.96	38464.36
542.13	38749.91
542.30	38553.30
542.47	39042.48
542.63	39166.52
542.80	39108.01
542.97	39189.93
543.14	39868.69
543.31	39613.57
543.48	39016.73
543.64	39695.49
543.81	40233.81
543.98	39662.72
544.15	39784.43
544.32	40432.75
544.48	40053.59
544.65	39700.17
544.82	39171.21
544.99	39461.43
545.16	39484.84
545.32	39789.11
545.49	40598.93
545.66	40931.29
545.83	40744.05
546.00	41006.19
546.16	40531.06
546.33	40011.46
546.50	39445.05
546.67	40086.36
546.83	39566.76
547.00	39952.94
547.17	39756.34
547.34	40055.93
547.50	40236.15
547.67	40397.65
547.84	40215.08
548.00	40072.31
548.17	40449.14
548.34	40488.93
548.51	40933.63
548.67	40886.82
548.84	40203.38
549.01	40715.96
549.18	40945.33
549.34	40807.24
549.51	40830.65
549.68	40650.42
549.84	40481.91
550.01	40776.81
550.18	40907.88
550.34	40517.01
550.51	40921.93
550.68	40952.35
550.84	40334.45
551.01	41038.95
551.18	40870.43
551.34	40765.11
551.51	40959.38
551.68	40739.36
551.84	41160.66
552.01	40987.46
552.18	41343.22
552.34	41099.81
552.51	41457.91
552.68	40903.20
552.84	41048.32
553.01	41481.31
553.18	41305.77
553.34	41296.41
553.51	41322.16
553.67	41383.01
553.84	41968.15
554.01	41900.27
554.17	41645.15
554.34	41394.71
554.51	41443.87
554.67	41949.42
554.84	41628.77
555.00	41478.97
555.17	41743.45
555.33	41858.14
555.50	41588.98
555.67	42064.11
555.83	41654.51
556.00	41722.39
556.16	42014.96
556.33	41926.02
556.50	41963.46
556.66	42122.62
556.83	42110.92
556.99	42284.12
557.16	42344.97
557.32	42153.05
557.49	42284.12
557.65	41951.76
557.82	42010.28
557.98	41736.43
558.15	42007.94
558.32	41776.22
558.48	42279.44
558.65	42513.49
558.81	42454.98
558.98	42127.30
559.14	42476.04
559.31	42256.03
559.47	42316.89
559.64	42471.36
559.80	42703.07
559.97	42471.36
560.13	42628.18
560.30	42813.08
560.46	42817.76
560.63	42579.03
560.79	42728.82
560.96	42546.26
561.12	42450.30
561.29	42567.32
561.45	42387.10
561.61	42784.99
561.78	42822.44
561.94	42724.14
562.11	43030.75
562.27	43182.88
562.44	42770.95
562.60	42623.50
562.77	42609.45
562.93	42967.55
563.10	42710.10
563.26	42822.44
563.42	43339.70
563.59	43161.82
563.75	43189.91
563.92	42614.13
564.08	42878.61
564.24	43000.32
564.41	42590.73
564.57	42738.18
564.74	42604.77
564.90	43435.66
565.07	42784.99
565.23	43264.80
565.39	43126.71
565.56	42934.79
565.72	42761.59
565.88	43096.28
566.05	42574.34
566.21	42904.36
566.38	42850.53
566.54	42883.30
566.70	43150.12
566.87	43634.61
567.03	43058.84
567.19	43407.58
567.36	43028.41
567.52	43442.68
567.68	43164.16
567.85	43213.31
568.01	43328.00
568.17	43625.25
568.34	43323.32
568.50	43620.56
568.66	43391.19
568.83	43583.12
568.99	43297.57
569.15	43318.64
569.32	43313.95
569.48	43047.13
569.64	43388.85
569.81	42946.49
569.97	43021.39
570.13	43445.02
570.30	42883.30
570.46	43510.56
570.62	43550.35
570.78	43655.67
570.95	42997.98
571.11	43365.45
571.27	43412.26
571.43	42937.13
571.60	43604.18
571.76	43515.24
571.92	44088.67
572.09	44294.64
572.25	43676.74
572.41	43363.11
572.57	43161.82
572.74	43126.71
572.90	43042.45
573.06	43878.02
573.22	43887.39
573.38	43601.84
573.55	43784.40
573.71	44238.47
573.87	44381.24
574.03	43641.63
574.20	44011.43
574.36	43826.53
574.52	43835.89
574.68	43782.06
574.84	43573.75
575.01	43798.44
575.17	43903.77
575.33	43866.32
575.49	43723.55
575.65	43943.56
575.82	44013.77
575.98	43349.06
576.14	44376.56
576.30	43693.12
576.46	43838.23
576.62	43625.25
576.79	43604.18
576.95	43721.21
577.11	43943.56
577.27	43990.37
577.43	44261.87
577.59	43852.28
577.75	43938.88
577.92	43868.66
578.08	43725.89
578.24	43807.81
578.40	43751.63
578.56	43721.21
578.72	43875.68
578.88	44397.62
579.04	44680.83
579.21	44390.60
579.37	43943.56
579.53	44449.11
579.69	44158.89
579.85	43627.59
580.01	43819.51
580.17	43679.08
580.33	43686.10
580.49	44498.26
580.65	44250.17
580.82	44032.50
580.98	44037.18
581.14	44088.67
581.30	44231.44
581.46	43917.81
581.62	43849.94
581.78	44236.12
581.94	43878.02
582.10	44076.97
582.26	44247.83
582.42	44285.28
582.58	44107.40
582.74	44332.09
582.90	44137.82
583.06	44364.85
583.22	43885.04
583.38	44252.51
583.54	44093.35
583.70	44048.88
583.86	44165.91
584.02	43875.68
584.18	44516.99
584.34	44596.57
584.50	44304.00
584.66	44608.27
584.82	43995.05
584.98	43908.45
585.14	44182.29
585.30	44140.16
585.46	43873.34
585.62	44182.29
585.78	44240.81
585.94	43966.96
586.10	44217.40
586.26	44528.69
586.42	44575.50
586.58	44137.82
586.74	44229.10
586.90	44549.76
587.06	44109.74
587.22	44371.88
587.38	44041.86
587.54	44465.50
587.70	44809.56
587.86	44226.76
588.02	44563.80
588.18	44739.34
588.34	44147.18
588.49	44502.95
588.65	43871.00
588.81	44002.07
588.97	44594.23
589.13	44299.32
589.29	44425.71
589.45	44437.41
589.61	44509.97
589.77	44744.02
589.93	44369.54
590.08	44849.35
590.24	44598.91
590.40	44896.16
590.56	44662.10
590.72	44470.18
590.88	44060.58
591.04	44580.18
