SpectraSuite Data File
++++++++++++++++++++++++++++++++++++
Date: Fri Oct 04 11:39:17 GMT-05:00 2013
User: price-jones
Dark Spectrum Present: No
Reference Spectrum Present: No
Number of Sampled Component Spectra: 1
Spectrometers: USB2+H05261
Integration Time (usec): 100000 (USB2+H05261)
Spectra Averaged: 1 (USB2+H05261)
Boxcar Smoothing: 0 (USB2+H05261)
Correct for Electrical Dark: No (USB2+H05261)
Strobe/Lamp Enabled: No (USB2+H05261)
Correct for Detector Non-linearity: No (USB2+H05261)
Correct for Stray Light: No (USB2+H05261)
Number of Pixels in Processed Spectrum: 2048
>>>>>Begin Processed Spectral Data<<<<<
365.73	0.00
365.92	0.00
366.12	0.00
366.32	0.00
366.52	0.00
366.72	0.00
366.91	0.00
367.11	0.00
367.31	2.34
367.51	0.00
367.70	11.70
367.90	0.00
368.10	0.00
368.30	0.00
368.49	0.00
368.69	46.81
368.89	0.00
369.09	0.00
369.28	0.00
369.48	0.00
369.68	0.00
369.87	0.00
370.07	4.68
370.27	93.62
370.47	95.96
370.66	168.52
370.86	285.55
371.06	203.63
371.25	294.91
371.45	238.73
371.65	351.08
371.84	278.52
372.04	360.44
372.24	283.20
372.44	351.08
372.63	278.52
372.83	393.21
373.03	360.44
373.22	327.68
373.42	341.72
373.62	280.86
373.81	358.10
374.01	397.89
374.21	367.46
374.40	402.57
374.60	440.02
374.79	407.25
374.99	372.15
375.19	428.32
375.38	386.19
375.58	381.51
375.78	416.62
375.97	355.76
376.17	397.89
376.37	367.46
376.56	447.04
376.76	414.27
376.95	407.25
377.15	407.25
377.35	383.85
377.54	390.87
377.74	393.21
377.93	360.44
378.13	430.66
378.33	388.53
378.52	404.91
378.72	458.74
378.91	444.70
379.11	451.72
379.31	461.09
379.50	433.00
379.70	437.68
379.89	514.92
380.09	421.30
380.28	437.68
380.48	348.74
380.68	456.40
380.87	496.19
381.07	386.19
381.26	547.69
381.46	456.40
381.65	512.58
381.85	498.53
382.04	489.17
382.24	484.49
382.43	447.04
382.63	517.26
382.83	493.85
383.02	517.26
383.22	496.19
383.41	524.28
383.61	435.34
383.80	500.87
384.00	510.24
384.19	514.92
384.39	533.64
384.58	543.00
384.78	519.60
384.97	449.38
385.17	528.96
385.36	482.15
385.56	592.16
385.75	564.07
385.95	552.37
386.14	641.31
386.34	599.18
386.53	603.86
386.72	629.60
386.92	671.73
387.11	575.77
387.31	638.97
387.50	547.69
387.70	564.07
387.89	533.64
388.09	669.39
388.28	547.69
388.48	552.37
388.67	636.63
388.86	552.37
389.06	615.56
389.25	575.77
389.45	657.69
389.64	578.11
389.84	575.77
390.03	706.84
390.22	697.48
390.42	594.50
390.61	676.41
390.81	620.24
391.00	737.27
391.19	695.14
391.39	704.50
391.58	718.54
391.78	720.88
391.97	758.33
392.16	641.31
392.36	784.08
392.55	737.27
392.75	793.44
392.94	798.12
393.13	641.31
393.33	704.50
393.52	662.37
393.71	805.14
393.91	777.06
394.10	695.14
394.29	826.21
394.49	826.21
394.68	760.67
394.88	765.36
395.07	875.36
395.26	854.30
395.46	837.91
395.65	863.66
395.84	730.25
396.04	877.70
396.23	809.83
396.42	877.70
396.62	866.00
396.81	1041.54
397.00	847.27
397.19	947.92
397.39	985.37
397.58	931.53
397.77	971.32
397.97	903.45
398.16	954.94
398.35	985.37
398.55	945.58
398.74	1062.60
398.93	936.21
399.12	1025.15
399.32	1008.77
399.51	1004.09
399.70	1067.28
399.90	978.34
400.09	1090.69
400.28	1142.18
400.47	1088.35
400.67	1071.97
400.86	1116.44
401.05	1086.01
401.24	1109.41
401.44	1107.07
401.63	1121.12
401.82	1107.07
402.01	964.30
402.21	1158.57
402.40	1130.48
402.59	1179.63
402.78	1184.31
402.97	1121.12
403.17	1205.38
403.36	1191.33
403.55	1273.25
403.74	1327.08
403.93	1277.93
404.13	1371.55
404.32	1270.91
404.51	1294.32
404.70	1310.70
404.89	1277.93
405.09	1411.34
405.28	1399.64
405.47	1310.70
405.66	1427.73
405.85	1432.41
406.05	1369.21
406.24	1334.11
406.43	1500.28
406.62	1472.20
406.81	1514.33
407.00	1469.86
407.20	1476.88
407.39	1483.90
407.58	1509.65
407.77	1453.47
407.96	1554.12
408.15	1605.61
408.34	1519.01
408.54	1579.86
408.73	1603.27
408.92	1607.95
409.11	1643.06
409.30	1636.03
409.49	1673.48
409.68	1790.51
409.87	1650.08
410.07	1760.08
410.26	1605.61
410.45	1736.68
410.64	1755.40
410.83	1781.15
411.02	1724.97
411.21	1811.57
411.40	1750.72
411.59	1860.73
411.78	1804.55
411.98	1877.11
412.17	1863.07
412.36	1973.07
412.55	2050.31
412.74	1942.64
412.93	2038.61
413.12	1989.46
413.31	2078.40
413.50	2165.00
413.69	2120.53
413.88	2118.18
414.07	2139.25
414.26	2085.42
414.45	2223.51
414.64	2296.07
414.83	2319.47
415.02	2239.89
415.22	2265.64
415.41	2342.88
415.60	2305.43
415.79	2335.85
415.98	2492.67
416.17	2469.27
416.36	2420.11
416.55	2326.49
416.74	2485.65
416.93	2417.77
417.12	2555.86
417.31	2455.22
417.50	2541.82
417.69	2661.19
417.88	2567.57
418.07	2635.44
418.26	2649.49
418.45	2775.88
418.64	2733.75
418.83	2768.85
419.02	2703.32
419.21	2740.77
419.39	2878.86
419.58	2682.25
419.77	2827.37
419.96	2829.71
420.15	2888.22
420.34	2785.24
420.53	2998.23
420.72	2909.29
420.91	2916.31
421.10	3063.76
421.29	2956.10
421.48	2801.62
421.67	2986.52
421.86	2815.66
422.05	3061.42
422.24	3073.12
422.43	2956.10
422.61	3260.37
422.80	3056.74
422.99	3124.62
423.18	3103.55
423.37	3045.04
423.56	3145.68
423.75	3143.34
423.94	2944.39
424.13	2998.23
424.32	3129.30
424.50	3061.42
424.69	3265.05
424.88	3150.36
425.07	3054.40
425.26	3105.89
425.45	3164.40
425.64	3183.13
425.83	3190.15
426.01	3309.52
426.20	3225.26
426.39	3187.81
426.58	3133.98
426.77	3178.45
426.96	3300.16
427.15	3269.73
427.33	3295.47
427.52	3295.47
427.71	3293.13
427.90	3353.99
428.09	3321.22
428.28	3353.99
428.46	3365.69
428.65	3391.44
428.84	3445.27
429.03	3506.12
429.22	3356.33
429.40	3473.36
429.59	3545.91
429.78	3342.28
429.97	3442.93
430.16	3400.80
430.34	3599.74
430.53	3590.38
430.72	3606.77
430.91	3588.04
431.10	3630.17
431.28	3641.87
431.47	3604.42
431.66	3859.54
431.85	3698.05
432.03	3693.37
432.22	3873.59
432.41	3660.60
432.60	3817.41
432.79	3698.05
432.97	3749.54
433.16	3857.20
433.35	3826.78
433.54	3871.25
433.72	3824.44
433.91	3878.27
434.10	3857.20
434.28	3985.93
434.47	4093.60
434.66	4084.23
434.85	4018.70
435.03	4126.36
435.22	4070.19
435.41	4393.19
435.59	4365.10
435.78	4297.22
435.97	4138.07
436.16	4117.00
436.34	4250.41
436.53	4105.30
436.72	4290.20
436.90	4180.20
437.09	4100.62
437.28	4182.54
437.46	4156.79
437.65	4313.61
437.84	4198.92
438.02	4292.54
438.21	4264.46
438.40	4280.84
438.58	4447.02
438.77	4550.00
438.96	4498.51
439.14	4552.34
439.33	4550.00
439.52	4458.72
439.70	4753.63
439.89	4753.63
440.08	4655.33
440.26	4727.88
440.45	4709.16
440.63	4718.52
440.82	4802.78
441.01	4678.73
441.19	4861.29
441.38	4950.23
441.57	4870.65
441.75	5062.58
441.94	4978.32
442.12	5067.26
442.31	5109.39
442.50	5015.77
442.68	5100.03
442.87	5149.18
443.05	5088.32
443.24	5195.99
443.43	5053.22
443.61	5081.30
443.80	5273.23
443.98	5151.52
444.17	5078.96
444.35	5139.82
444.54	5275.57
444.73	5497.92
444.91	5357.49
445.10	5294.29
445.28	5322.38
445.47	5109.39
445.65	5334.08
445.84	5303.65
446.02	5523.66
446.21	5338.76
446.39	5296.63
446.58	5500.26
446.77	5636.01
446.95	5526.00
447.14	5364.51
447.32	5439.40
447.51	5373.87
447.69	5444.09
447.88	5380.89
448.06	5488.56
448.25	5406.64
448.43	5502.60
448.62	5369.19
448.80	5654.73
448.99	5666.44
449.17	5586.86
449.36	5497.92
449.54	5678.14
449.73	5603.24
449.91	5755.38
450.10	5764.74
450.28	5851.34
450.46	5715.59
450.65	5612.60
450.83	5687.50
451.02	5863.04
451.20	5774.10
451.39	6040.92
451.57	5860.70
451.76	5884.11
451.94	5853.68
452.13	5849.00
452.31	5888.79
452.49	5834.96
452.68	5921.56
452.86	5996.45
453.05	5951.98
453.23	6118.16
453.42	5923.90
453.60	5888.79
453.78	5907.51
453.97	5860.70
454.15	6064.33
454.34	6169.65
454.52	6195.40
454.70	6164.97
454.89	6326.47
455.07	6331.15
455.26	6370.94
455.44	6204.76
455.62	6471.58
455.81	6342.85
455.99	6368.60
456.17	6209.44
456.36	6272.64
456.54	6396.68
456.73	6396.68
456.91	6490.31
457.09	6698.61
457.28	6881.18
457.46	6670.53
457.64	6771.17
457.83	6839.05
458.01	6401.37
458.19	6843.73
458.38	6715.00
458.56	6916.28
458.74	6827.34
458.93	6825.00
459.11	6817.98
459.29	6862.45
459.48	6878.83
459.66	6918.62
459.84	7026.29
460.03	7173.74
460.21	7059.06
460.39	6848.41
460.57	6946.71
460.76	6993.52
460.94	7131.61
461.12	7082.46
461.31	7087.14
461.49	7157.36
461.67	7171.40
461.85	7386.73
462.04	7433.54
462.22	7681.64
462.40	7260.34
462.59	7286.09
462.77	7368.01
462.95	7433.54
463.13	7356.30
463.32	7279.07
463.50	7377.37
463.68	7407.80
463.86	7449.93
464.05	7386.73
464.23	7531.84
464.41	7536.52
464.59	7379.71
464.78	7478.01
464.96	7445.24
465.14	7342.26
465.32	7714.41
465.50	7707.38
465.69	7705.04
465.87	7866.54
466.05	7742.49
466.23	7782.28
466.41	7693.34
466.60	7943.78
466.78	7934.42
466.96	7803.35
467.14	7857.18
467.32	7793.98
467.51	8011.65
467.69	7768.24
467.87	7838.45
468.05	8191.88
468.23	7911.01
468.41	7859.52
468.60	7873.56
468.78	8203.58
468.96	7974.21
469.14	8154.43
469.32	8229.32
469.50	8196.56
469.69	8182.51
469.87	8318.26
470.05	8458.70
470.23	8283.16
470.41	8432.95
470.59	8493.80
470.77	8463.38
470.95	8411.89
471.14	8620.19
471.32	8332.31
471.50	8542.96
471.68	8652.96
471.86	8833.18
472.04	8657.64
472.22	8720.84
472.40	8751.26
472.58	8685.73
472.77	8716.16
472.95	8947.87
473.13	9207.67
473.31	8772.33
473.49	8917.44
473.67	9015.74
473.85	8898.72
474.03	9151.49
474.21	9259.16
474.39	9352.78
474.57	9357.46
474.75	9502.58
474.93	9408.95
475.12	9460.45
475.30	9565.77
475.48	9558.75
475.66	9631.30
475.84	9710.88
476.02	9853.66
476.20	9804.50
476.38	9994.09
476.56	10146.22
476.74	9994.09
476.92	10008.13
477.10	10120.48
477.28	10211.76
477.46	10108.77
477.64	10281.97
477.82	10633.05
478.00	10464.54
478.18	10558.16
478.36	10780.51
478.54	10752.42
478.72	10869.45
478.90	10916.26
479.08	10963.07
479.26	11068.39
479.44	11016.90
479.62	11365.64
479.80	11433.52
479.98	11515.44
480.16	11445.22
480.34	11573.95
480.52	11744.81
480.70	11789.28
480.88	11700.34
481.06	11887.58
481.24	11962.48
481.41	11948.43
481.59	12283.13
481.77	12512.50
481.95	12390.80
482.13	12367.39
482.31	12519.53
482.49	12414.20
482.67	12629.53
482.85	12833.16
483.03	13132.75
483.21	13118.70
483.39	13291.90
483.57	13128.06
483.74	13160.83
483.92	13511.91
484.10	13289.56
484.28	13589.15
484.46	14324.08
484.64	14143.86
484.82	13755.33
485.00	13921.51
485.18	14136.84
485.35	14368.55
485.53	14413.02
485.71	14349.82
485.89	14958.36
486.07	14754.74
486.25	14782.82
486.43	15012.20
486.61	15108.16
486.78	15215.82
486.96	15204.12
487.14	15641.80
487.32	15524.77
487.50	15892.24
487.68	15964.79
487.85	16198.85
488.03	16170.76
488.21	16301.83
488.39	16493.76
488.57	16666.95
488.75	16563.97
488.92	17081.23
489.10	17039.10
489.28	16912.71
489.46	17446.35
489.64	17275.49
489.81	17689.77
489.99	17504.87
490.17	17488.48
490.35	17734.24
490.53	18094.68
490.70	17879.35
490.88	17844.24
491.06	17884.03
491.24	18335.76
491.41	18160.22
491.59	18448.10
491.77	18546.40
491.95	18719.60
492.13	18696.20
492.30	18913.87
492.48	19042.60
492.66	18948.98
492.84	19328.14
493.01	19655.82
493.19	19491.98
493.37	19580.92
493.54	19688.59
493.72	20095.84
493.90	19969.45
494.08	20255.00
494.25	20063.07
494.43	20545.22
494.61	20898.64
494.79	20744.17
494.96	20383.73
495.14	20484.37
495.32	20517.14
495.49	20950.14
495.67	20842.47
495.85	20999.29
496.02	21434.63
496.20	21039.08
496.38	21228.66
496.55	21467.39
496.73	22174.24
496.91	21834.86
497.09	21825.50
497.26	21937.84
497.44	22120.40
497.62	22338.07
497.79	22347.44
497.97	22253.81
498.14	22747.67
498.32	22728.94
498.50	22998.10
498.67	23131.51
498.85	23211.09
499.03	23054.28
499.20	23220.45
499.38	23293.01
499.56	23236.84
499.73	23754.10
499.91	23651.11
500.08	24027.94
500.26	23342.16
500.44	23798.57
500.61	24182.42
500.79	23658.14
500.97	23922.62
501.14	24191.78
501.32	24463.28
501.49	24491.37
501.67	24381.36
501.84	24589.67
502.02	24477.32
502.20	24489.03
502.37	24636.48
502.55	24826.06
502.72	24690.31
502.90	24755.85
503.07	24872.87
503.25	25582.06
503.43	25226.29
503.60	25465.03
503.78	25462.69
503.95	25364.39
504.13	25324.60
504.30	25689.72
504.48	25596.10
504.65	25661.63
504.83	25893.35
505.01	26347.41
505.18	25926.11
505.36	26595.51
505.53	26052.50
505.71	26349.75
505.88	26314.64
506.06	26281.88
506.23	26845.94
506.41	26548.70
506.58	26918.50
506.76	26583.80
506.93	27133.83
507.11	26904.46
507.28	27171.28
507.46	26981.70
507.63	27634.71
507.81	27557.47
507.98	27655.77
508.16	27363.20
508.33	27302.35
508.50	27779.82
508.68	27494.27
508.85	28126.22
509.03	28149.62
509.20	28364.95
509.38	28098.13
509.55	28306.44
509.73	28229.20
509.90	28346.23
510.08	28390.70
510.25	28493.68
510.42	28580.28
510.60	28465.60
510.77	28903.28
510.95	29120.95
511.12	29015.62
511.30	28875.19
511.47	29092.86
511.64	29125.63
511.82	29434.58
511.99	29132.65
512.17	29748.21
512.34	29586.71
512.51	29436.92
512.69	29591.39
512.86	29694.38
513.04	30164.82
513.21	29869.92
513.38	30230.36
513.56	30059.50
513.73	30405.90
513.90	30228.02
514.08	30059.50
514.25	30213.98
514.43	30707.83
514.60	30670.38
514.77	30588.46
514.95	30682.08
515.12	30602.50
515.29	30459.73
515.47	30927.84
515.64	31068.27
515.81	31194.66
515.99	31419.35
516.16	31646.38
516.33	31124.44
516.51	31468.50
516.68	31166.57
516.85	31519.99
517.03	31421.69
517.20	31534.04
517.37	31934.27
517.54	31887.46
517.72	31803.20
517.89	31847.67
518.06	31845.33
518.24	32058.32
518.41	31915.54
518.58	32348.54
518.75	32308.76
518.93	32589.62
519.10	32329.82
519.27	32790.91
519.45	32463.23
519.62	32964.10
519.79	32629.41
519.96	32554.51
520.14	32748.78
520.31	32444.51
520.48	33092.83
520.65	32903.25
520.83	33268.37
521.00	33085.81
521.17	33207.52
521.34	33247.31
521.52	33277.74
521.69	33605.41
521.86	33656.90
522.03	33675.63
522.20	33802.02
522.38	33301.14
522.55	33762.23
522.72	33860.53
522.89	33617.11
523.07	34141.39
523.24	34260.76
523.41	34368.43
523.58	34129.69
523.75	34541.63
523.92	33919.04
524.10	34366.09
524.27	34733.55
524.44	34763.98
524.61	34761.64
524.78	34986.33
524.96	34677.38
525.13	34899.73
525.30	35077.61
525.47	35072.93
525.64	34714.83
525.81	35260.17
525.98	35454.44
526.16	35030.80
526.33	35461.46
526.50	35278.89
526.67	35175.91
526.84	35370.18
527.01	35353.79
527.18	35585.50
527.36	35578.48
527.53	36081.70
527.70	35955.31
527.87	35824.24
528.04	36006.80
528.21	35807.86
528.38	35779.77
528.55	36081.70
528.72	36149.57
528.89	36371.92
529.07	36294.69
529.24	36322.77
529.41	36357.88
529.58	36109.78
529.75	36013.82
529.92	36290.01
530.09	36107.44
530.26	36690.24
530.43	36591.94
530.60	36229.15
530.77	36339.16
530.94	36746.41
531.11	36713.64
531.28	36664.49
531.46	36786.20
531.63	37095.15
531.80	37158.34
531.97	37600.71
532.14	37219.20
532.31	37109.19
532.48	37404.10
532.65	37441.55
532.82	37500.06
532.99	37219.20
533.16	37610.07
533.33	37670.92
533.50	37949.45
533.67	37464.96
533.84	38122.65
534.01	37614.75
534.18	37570.28
534.35	37907.32
534.52	38232.65
534.69	38227.97
534.86	38204.56
535.03	38089.88
535.20	37989.24
535.37	38326.27
535.54	38424.57
535.71	37991.58
535.88	38455.00
536.05	38305.21
536.22	38431.60
536.38	38433.94
536.55	38593.09
536.72	38445.64
536.89	39014.39
537.06	38838.85
537.23	38841.19
537.40	38831.83
537.57	38880.98
537.74	38923.11
537.91	39058.86
538.08	38883.32
538.25	38998.01
538.42	39218.02
538.59	39042.48
538.75	38998.01
538.92	39580.80
539.09	39412.28
539.26	38888.00
539.43	39295.25
539.60	39651.02
539.77	39807.83
539.94	39655.70
540.11	39920.18
540.28	39629.95
540.44	39894.43
540.61	39686.12
540.78	39878.05
540.95	40119.12
541.12	40409.35
541.29	40067.63
541.46	40100.40
541.62	39856.98
541.79	40154.23
541.96	40175.30
542.13	40105.08
542.30	40339.13
542.47	40575.53
542.63	40521.69
542.80	40542.76
542.97	41273.01
543.14	40809.58
543.31	40711.28
543.48	41001.50
543.64	41130.23
543.81	41361.95
543.98	41170.02
544.15	41553.87
544.32	41167.68
544.48	41680.26
544.65	41347.90
544.82	41242.58
544.99	40673.83
545.16	41139.60
545.32	41104.49
545.49	41886.23
545.66	42323.91
545.83	42440.93
546.00	42775.63
546.16	41682.60
546.33	41532.81
546.50	41397.06
546.67	41457.91
546.83	41038.95
547.00	41610.04
547.17	41741.11
547.34	41951.76
547.50	41947.08
547.67	42419.87
547.84	42047.72
548.00	42197.52
548.17	42232.63
548.34	42106.24
548.51	42366.04
548.67	41979.85
548.84	42277.10
549.01	42333.27
549.18	42141.35
549.34	42131.98
549.51	42555.62
549.68	42279.44
549.84	42239.65
550.01	42560.30
550.18	41979.85
550.34	42321.57
550.51	42703.07
550.68	42185.82
550.84	42288.80
551.01	42204.54
551.18	42274.76
551.34	42361.36
551.51	42239.65
551.68	42424.55
551.84	42724.14
552.01	42227.95
552.18	42660.94
552.34	42520.51
552.51	42691.37
552.68	42611.79
552.84	42731.16
553.01	42801.38
553.18	42880.95
553.34	43452.05
553.51	42930.11
553.67	43007.34
553.84	42916.06
554.01	43676.74
554.17	42836.48
554.34	42813.08
554.51	42909.04
554.67	42939.47
554.84	43540.99
555.00	43171.18
555.17	43274.16
555.33	43393.53
555.50	43047.13
555.67	43489.49
555.83	43416.94
556.00	42965.21
556.16	43550.35
556.33	43400.55
556.50	43545.67
556.66	43236.72
556.83	43100.97
556.99	44135.48
557.16	43910.79
557.32	43571.41
557.49	44044.20
557.65	43536.30
557.82	43470.77
557.98	43332.68
558.15	43529.28
558.32	43988.03
558.48	44037.18
558.65	44105.06
558.81	43906.11
558.98	44112.08
559.14	44201.02
559.31	43466.09
559.47	43847.60
559.64	44273.57
559.80	43817.17
559.97	44236.12
560.13	44189.31
560.30	43906.11
560.46	44088.67
560.63	44095.69
560.79	44313.36
560.96	44505.29
561.12	44091.01
561.29	43889.73
561.45	44229.10
561.61	44147.18
561.78	44222.08
561.94	44343.79
562.11	44491.24
562.27	44355.49
562.44	44231.44
562.60	44205.70
562.77	44023.14
562.93	44346.13
563.10	44336.77
563.26	44109.74
563.42	44732.32
563.59	44428.05
563.75	44573.16
563.92	44767.43
564.08	44809.56
564.24	44037.18
564.41	44458.48
564.57	44486.56
564.74	44474.86
564.90	44299.32
565.07	44767.43
565.23	44713.59
565.39	44289.96
565.56	44512.31
565.72	44383.58
565.88	44355.49
566.05	44304.00
566.21	44945.31
566.38	44837.64
566.54	44547.42
566.70	45137.23
566.87	45092.76
567.03	44762.75
567.19	45132.55
567.36	44727.64
567.52	44432.73
567.68	44795.51
567.85	44467.84
568.01	45237.87
568.17	44568.48
568.34	44816.58
568.50	45071.70
568.66	45111.49
568.83	44865.73
568.99	44945.31
569.15	44987.44
569.32	44828.28
569.48	44631.68
569.64	44645.72
569.81	44905.52
569.97	44617.63
570.13	45184.04
570.30	44739.34
570.46	44935.95
570.62	45230.85
570.78	44619.97
570.95	44769.77
571.11	44961.69
571.27	44856.37
571.43	44622.31
571.60	45177.02
571.76	44921.90
571.92	45757.47
572.09	45467.25
572.25	44875.09
572.41	45308.09
572.57	45282.34
572.74	45301.07
572.90	44903.18
573.06	44554.44
573.22	45289.37
573.38	45162.98
573.55	45404.05
573.71	45830.03
573.87	45408.73
574.03	45633.42
574.20	45256.60
574.36	45263.62
574.52	44856.37
574.68	45158.30
574.84	45350.22
575.01	45151.27
575.17	45572.57
575.33	45244.90
575.49	45408.73
575.65	45874.50
575.82	45551.51
575.98	44961.69
576.14	45546.82
576.30	45373.63
576.46	45460.23
576.62	45591.30
576.79	45551.51
576.95	45340.86
577.11	45467.25
577.27	45045.95
577.43	45640.45
577.59	45443.84
577.75	45488.31
577.92	45315.11
578.08	45191.06
578.24	44870.41
578.40	45062.33
578.56	45624.06
578.72	45490.65
578.88	45603.00
579.04	45734.07
579.21	45570.23
579.37	45280.00
579.53	45523.42
579.69	45413.41
579.85	45294.05
580.01	45322.13
580.17	45371.28
580.33	45645.13
580.49	45556.19
580.65	46033.66
580.82	45881.52
580.98	45439.16
581.14	45399.37
581.30	45848.75
581.46	45731.73
581.62	45603.00
581.78	45347.88
581.94	45741.09
582.10	45787.90
582.26	45860.46
582.42	45853.44
582.58	45933.01
582.74	45834.71
582.90	45455.54
583.06	45895.56
583.22	45518.74
583.38	45794.92
583.54	45492.99
583.70	45947.06
583.86	45954.08
584.02	45827.69
584.18	45972.80
584.34	46195.15
584.50	46160.05
584.66	45893.22
584.82	45666.19
584.98	45895.56
585.14	46103.87
585.30	45635.77
585.46	45874.50
585.62	45113.83
585.78	45514.06
585.94	45577.25
586.10	45794.92
586.26	45404.05
586.42	45841.73
586.58	45844.07
586.74	46080.47
586.90	46012.59
587.06	45535.12
587.22	45647.47
587.38	45670.87
587.54	45989.19
587.70	45902.59
587.86	45675.55
588.02	46066.42
588.18	46403.46
588.34	45713.00
588.49	45851.09
588.65	45649.81
588.81	45766.84
588.97	45378.31
589.13	45865.14
589.29	46078.13
589.45	45851.09
589.61	45879.18
589.77	45834.71
589.93	46298.14
590.08	46143.66
590.24	46014.93
590.40	46483.04
590.56	46305.16
590.72	45631.08
590.88	45668.53
