SpectraSuite Data File
++++++++++++++++++++++++++++++++++++
Date: Fri Oct 04 11:39:25 GMT-05:00 2013
User: price-jones
Dark Spectrum Present: No
Reference Spectrum Present: No
Number of Sampled Component Spectra: 1
Spectrometers: USB2+H05261
Integration Time (usec): 100000 (USB2+H05261)
Spectra Averaged: 1 (USB2+H05261)
Boxcar Smoothing: 0 (USB2+H05261)
Correct for Electrical Dark: No (USB2+H05261)
Strobe/Lamp Enabled: No (USB2+H05261)
Correct for Detector Non-linearity: No (USB2+H05261)
Correct for Stray Light: No (USB2+H05261)
Number of Pixels in Processed Spectrum: 2048
>>>>>Begin Processed Spectral Data<<<<<
365.73	0.00
365.92	0.00
366.12	0.00
366.32	0.00
366.52	0.00
366.72	0.00
366.91	0.00
367.11	0.00
367.31	0.00
367.51	0.00
367.70	0.00
367.90	0.00
368.10	0.00
368.30	0.00
368.49	0.00
368.69	7.02
368.89	0.00
369.09	0.00
369.28	0.00
369.48	0.00
369.68	0.00
369.87	23.41
370.07	0.00
370.27	21.06
370.47	100.64
370.66	234.05
370.86	266.82
371.06	320.65
371.25	255.12
371.45	191.92
371.65	318.31
371.84	330.02
372.04	170.86
372.24	280.86
372.44	339.38
372.63	278.52
372.83	276.18
373.03	311.29
373.22	311.29
373.42	290.23
373.62	308.95
373.81	393.21
374.01	304.27
374.21	360.44
374.40	358.10
374.60	409.59
374.79	458.74
374.99	386.19
375.19	414.27
375.38	388.53
375.58	355.76
375.78	397.89
375.97	376.83
376.17	435.34
376.37	351.08
376.56	334.70
376.76	414.27
376.95	374.49
377.15	369.80
377.35	390.87
377.54	388.53
377.74	381.51
377.93	339.38
378.13	393.21
378.33	393.21
378.52	383.85
378.72	397.89
378.91	423.64
379.11	315.97
379.31	409.59
379.50	379.17
379.70	400.23
379.89	500.87
380.09	447.04
380.28	440.02
380.48	447.04
380.68	369.80
380.87	383.85
381.07	409.59
381.26	458.74
381.46	458.74
381.65	475.13
381.85	360.44
382.04	500.87
382.24	416.62
382.43	458.74
382.63	365.12
382.83	477.47
383.02	470.45
383.22	510.24
383.41	449.38
383.61	388.53
383.80	449.38
384.00	454.06
384.19	496.19
384.39	430.66
384.58	496.19
384.78	430.66
384.97	547.69
385.17	430.66
385.36	564.07
385.56	512.58
385.75	463.43
385.95	507.90
386.14	479.81
386.34	463.43
386.53	564.07
386.72	468.11
386.92	465.77
387.11	486.83
387.31	519.60
387.50	491.51
387.70	470.45
387.89	461.09
388.09	538.32
388.28	428.32
388.48	592.16
388.67	533.64
388.86	545.34
389.06	566.41
389.25	559.39
389.45	571.09
389.64	615.56
389.84	526.62
390.03	580.45
390.22	636.63
390.42	678.76
390.61	564.07
390.81	566.41
391.00	552.37
391.19	636.63
391.39	676.41
391.58	624.92
391.78	599.18
391.97	631.94
392.16	620.24
392.36	650.67
392.55	681.10
392.75	692.80
392.94	655.35
393.13	716.20
393.33	702.16
393.52	648.33
393.71	727.91
393.91	709.18
394.10	695.14
394.29	725.57
394.49	660.03
394.68	746.63
394.88	727.91
395.07	753.65
395.26	718.54
395.46	779.40
395.65	774.72
395.84	807.48
396.04	847.27
396.23	807.48
396.42	858.98
396.62	868.34
396.81	755.99
397.00	718.54
397.19	866.00
397.39	929.19
397.58	936.21
397.77	807.48
397.97	823.87
398.16	884.72
398.35	891.74
398.55	875.36
398.74	851.96
398.93	938.55
399.12	917.49
399.32	964.30
399.51	901.11
399.70	940.90
399.90	933.87
400.09	950.26
400.28	1011.11
400.47	938.55
400.67	903.45
400.86	870.68
401.05	1015.79
401.24	943.24
401.44	985.37
401.63	901.11
401.82	994.73
402.01	992.39
402.21	1090.69
402.40	1027.50
402.59	1102.39
402.78	1093.03
402.97	1160.91
403.17	1074.31
403.36	1219.42
403.55	1188.99
403.74	1233.46
403.93	1224.10
404.13	1226.44
404.32	1137.50
404.51	1282.61
404.70	1341.13
404.89	1296.66
405.09	1277.93
405.28	1184.31
405.47	1191.33
405.66	1331.76
405.85	1315.38
406.05	1289.64
406.24	1324.74
406.43	1390.28
406.62	1345.81
406.81	1439.43
407.00	1409.00
407.20	1343.47
407.39	1425.39
407.58	1406.66
407.77	1441.77
407.96	1526.03
408.15	1519.01
408.34	1502.62
408.54	1427.73
408.73	1509.65
408.92	1586.88
409.11	1495.60
409.30	1643.06
409.49	1593.90
409.68	1607.95
409.87	1645.40
410.07	1565.82
410.26	1652.42
410.45	1614.97
410.64	1783.49
410.83	1781.15
411.02	1734.34
411.21	1788.17
411.40	1753.06
411.59	1802.21
411.78	1797.53
411.98	1741.36
412.17	1944.99
412.36	1849.02
412.55	1877.11
412.74	2040.95
412.93	2017.54
413.12	1825.62
413.31	2062.01
413.50	2066.69
413.69	2045.63
413.88	2165.00
414.07	2038.61
414.26	2106.48
414.45	2073.71
414.64	2101.80
414.83	2249.25
415.02	2345.22
415.22	2310.11
415.41	2267.98
415.60	2319.47
415.79	2305.43
415.98	2293.72
416.17	2347.56
416.36	2335.85
416.55	2340.54
416.74	2466.92
416.93	2464.58
417.12	2382.67
417.31	2485.65
417.50	2483.31
417.69	2483.31
417.88	2532.46
418.07	2502.03
418.26	2504.37
418.45	2581.61
418.64	2607.36
418.83	2693.96
419.02	2684.59
419.21	2738.43
419.39	2754.81
419.58	2736.09
419.77	2595.65
419.96	2796.94
420.15	2792.26
420.34	2715.02
420.53	2789.92
420.72	2885.88
420.91	2864.82
421.10	2841.41
421.29	3089.51
421.48	2946.73
421.67	2942.05
421.86	2923.33
422.05	3005.25
422.24	2892.90
422.43	3045.04
422.61	2913.97
422.80	3035.67
422.99	2939.71
423.18	3035.67
423.37	3110.57
423.56	3084.83
423.75	2979.50
423.94	2988.86
424.13	2878.86
424.32	2895.24
424.50	3129.30
424.69	3126.96
424.88	3124.62
425.07	2953.76
425.26	2974.82
425.45	2977.16
425.64	3166.74
425.83	3096.53
426.01	3070.78
426.20	3129.30
426.39	3173.77
426.58	3054.40
426.77	3105.89
426.96	3138.66
427.15	3068.44
427.33	3171.43
427.52	3178.45
427.71	3253.34
427.90	3302.50
428.09	3398.46
428.28	3281.43
428.46	3332.92
428.65	3300.16
428.84	3548.25
429.03	3557.61
429.22	3417.18
429.40	3300.16
429.59	3426.54
429.78	3346.97
429.97	3330.58
430.16	3407.82
430.34	3445.27
430.53	3503.78
430.72	3492.08
430.91	3496.76
431.10	3459.31
431.28	3527.19
431.47	3562.30
431.66	3606.77
431.85	3517.83
432.03	3721.45
432.22	3770.60
432.41	3651.24
432.60	3658.26
432.79	3801.03
432.97	3789.33
433.16	3655.92
433.35	3733.15
433.54	3789.33
433.72	3754.22
433.91	3742.52
434.10	3812.73
434.28	3829.12
434.47	3843.16
434.66	3964.87
434.85	3983.59
435.03	3953.16
435.22	4147.43
435.41	4550.00
435.59	4304.25
435.78	4393.19
435.97	4156.79
436.16	4065.51
436.34	3997.64
436.53	4119.34
436.72	4072.53
436.90	4016.36
437.09	4227.01
437.28	4196.58
437.46	4058.49
437.65	4140.41
437.84	4271.48
438.02	4140.41
438.21	4320.63
438.40	4224.67
438.58	4388.50
438.77	4346.37
438.96	4301.90
439.14	4468.08
439.33	4559.36
439.52	4531.28
439.70	4578.09
439.89	4512.55
440.08	4594.47
440.26	4594.47
440.45	4746.61
440.63	4645.96
440.82	4720.86
441.01	4767.67
441.19	4842.57
441.38	4851.93
441.57	4896.40
441.75	4821.50
441.94	4943.21
442.12	5053.22
442.31	4887.04
442.50	4964.28
442.68	4990.02
442.87	4924.49
443.05	5034.49
443.24	5217.05
443.43	5287.27
443.61	5078.96
443.80	5331.74
443.98	5167.90
444.17	4971.30
444.35	5153.86
444.54	5195.99
444.73	5160.88
444.91	5247.48
445.10	5184.29
445.28	5242.80
445.47	5116.41
445.65	5291.95
445.84	5231.10
446.02	5338.76
446.21	5263.86
446.39	4985.34
446.58	5275.57
446.77	5444.09
446.95	5348.12
447.14	5334.08
447.32	5294.29
447.51	5282.59
447.69	5301.31
447.88	5317.70
448.06	5441.75
448.25	5291.95
448.43	5416.00
448.62	5467.49
448.80	5509.62
448.99	5434.72
449.17	5593.88
449.36	5401.96
449.54	5633.67
449.73	5518.98
449.91	5619.63
450.10	5692.18
450.28	5689.84
450.46	5689.84
450.65	5706.23
450.83	5734.31
451.02	5753.04
451.20	5731.97
451.39	5769.42
451.57	5788.14
451.76	5792.83
451.94	5823.25
452.13	5837.30
452.31	5762.40
452.49	5661.76
452.68	5748.36
452.86	5879.43
453.05	6010.50
453.23	5905.17
453.42	5881.77
453.60	5884.11
453.78	5764.74
453.97	5870.06
454.15	5881.77
454.34	6019.86
454.52	6073.69
454.70	6146.25
454.89	6162.63
455.07	5916.87
455.26	6108.80
455.44	6232.85
455.62	6134.54
455.81	6289.02
455.99	6300.72
456.17	6256.25
456.36	6324.13
456.54	6436.47
456.73	6485.62
456.91	6511.37
457.09	6490.31
457.28	6628.40
457.46	6441.15
457.64	6567.54
457.83	6448.18
458.01	6352.21
458.19	6595.63
458.38	6747.76
458.56	6668.19
458.74	6658.82
458.93	6583.93
459.11	6888.20
459.29	6785.21
459.48	7009.90
459.66	6848.41
459.84	6839.05
460.03	6885.86
460.21	6778.19
460.39	6768.83
460.57	6827.34
460.76	6977.14
460.94	6920.96
461.12	6899.90
461.31	6927.99
461.49	6927.99
461.67	6864.79
461.85	7101.19
462.04	7063.74
462.22	7126.93
462.40	7243.96
462.59	7136.29
462.77	7208.85
462.95	7272.04
463.13	7239.28
463.32	7337.58
463.50	7356.30
463.68	7414.82
463.86	7318.86
464.05	7356.30
464.23	7316.51
464.41	7295.45
464.59	7246.30
464.78	7506.10
464.96	7400.77
465.14	7438.22
465.32	7475.67
465.50	7655.89
465.69	7630.15
465.87	7440.56
466.05	7604.40
466.23	7480.35
466.41	7566.95
466.60	7749.51
466.78	7583.34
466.96	7613.76
467.14	7531.84
467.32	7646.53
467.51	7763.56
467.69	7592.70
467.87	7637.17
468.05	7707.38
468.23	7634.83
468.41	7971.86
468.60	7805.69
468.78	7892.29
468.96	7815.05
469.14	7911.01
469.32	7978.89
469.50	7779.94
469.69	8093.57
469.87	8126.34
470.05	8224.64
470.23	7948.46
470.41	8100.59
470.59	8325.29
470.77	8114.64
470.95	8341.67
471.14	8278.47
471.32	8278.47
471.50	8348.69
471.68	8521.89
471.86	8393.16
472.04	8407.20
472.22	8652.96
472.40	8329.97
472.58	8454.02
472.77	8500.83
472.95	8575.72
473.13	9034.47
473.31	8681.05
473.49	8961.91
473.67	8833.18
473.85	9095.32
474.03	8908.08
474.21	9104.68
474.39	8978.30
474.57	9202.99
474.75	9371.50
474.93	9387.89
475.12	9100.00
475.30	9270.86
475.48	9149.15
475.66	9280.22
475.84	9336.40
476.02	9598.54
476.20	9542.36
476.38	9767.06
476.56	9729.61
476.74	9923.87
476.92	9820.89
477.10	9790.46
477.28	10054.94
477.46	9832.59
477.64	9966.00
477.82	10284.31
478.00	10518.37
478.18	10380.28
478.36	10471.56
478.54	10663.48
478.72	10665.82
478.90	10562.84
479.08	10672.84
479.26	10757.10
479.44	10909.24
479.62	10927.96
479.80	11112.86
479.98	11133.93
480.16	11382.03
480.34	11419.47
480.52	11194.78
480.70	11468.62
480.88	11269.68
481.06	11728.42
481.24	11440.54
481.41	11604.38
481.59	11721.40
481.77	11918.01
481.95	12081.85
482.13	12301.86
482.31	12222.28
482.49	12372.07
482.67	12592.08
482.85	12575.70
483.03	12482.08
483.21	12919.76
483.39	12973.59
483.57	12868.27
483.74	12975.93
483.92	13029.76
484.10	13205.30
484.28	13359.78
484.46	13373.82
484.64	13736.60
484.82	13598.51
485.00	13640.64
485.18	13862.99
485.35	14122.79
485.53	14122.79
485.71	13951.93
485.89	14300.67
486.07	14473.87
486.25	14438.76
486.43	14595.58
486.61	14579.20
486.78	14707.93
486.96	14883.47
487.14	14932.62
487.32	15180.71
487.50	15307.10
487.68	15414.77
487.85	15517.75
488.03	15611.37
488.21	15822.02
488.39	15922.66
488.57	16095.86
488.75	16240.98
488.92	16397.79
489.10	16535.88
489.28	16219.91
489.46	16744.19
489.64	16212.89
489.81	16994.63
489.99	17193.58
490.17	17025.06
490.35	17235.70
490.53	17312.94
490.70	17301.24
490.88	17362.09
491.06	17928.50
491.24	17724.88
491.41	17521.25
491.59	17956.59
491.77	17951.91
491.95	18253.84
492.13	18394.27
492.30	18204.69
492.48	18525.34
492.66	18665.77
492.84	18647.05
493.01	18909.19
493.19	18714.92
493.37	19150.26
493.54	19087.07
493.72	18967.70
493.90	19433.47
494.08	19639.44
494.25	19573.90
494.43	19473.26
494.61	19653.48
494.79	19915.62
494.96	19962.43
495.14	20154.35
495.32	19882.85
495.49	20224.57
495.67	20400.11
495.85	20858.85
496.02	20659.91
496.20	20786.30
496.38	20758.21
496.55	20599.05
496.73	21305.90
496.91	21135.04
497.09	21259.09
497.26	21778.68
497.44	21240.36
497.62	21652.30
497.79	21834.86
497.97	21837.20
498.14	21919.12
498.32	22054.87
498.50	22171.89
498.67	22167.21
498.85	22576.81
499.03	22333.39
499.20	22607.23
499.38	22277.22
499.56	22757.03
499.73	23089.38
499.91	22850.65
500.08	23047.26
500.26	22904.48
500.44	23061.30
500.61	23094.07
500.79	23407.70
500.97	23199.39
501.14	23524.72
501.32	23761.12
501.49	23295.35
501.67	23655.79
501.84	24121.56
502.02	23943.68
502.20	24264.33
502.37	24276.04
502.55	24250.29
502.72	24240.93
502.90	24184.76
503.07	24350.93
503.25	24479.66
503.43	24208.16
503.60	24783.93
503.78	24678.61
503.95	24592.01
504.13	24940.75
504.30	25039.05
504.48	24624.78
504.65	25076.50
504.83	25287.15
505.01	25605.46
505.18	25432.26
505.36	25238.00
505.53	25528.22
505.71	25273.10
505.88	25701.42
506.06	25289.49
506.23	25841.85
506.41	26052.50
506.58	25813.77
506.76	25895.69
506.93	25865.26
507.11	26040.80
507.28	26157.83
507.46	26160.17
507.63	26295.92
507.81	26796.79
507.98	26410.60
508.16	26785.09
508.33	26466.78
508.50	26934.88
508.68	26792.11
508.85	27150.21
509.03	27101.06
509.20	27278.94
509.38	27351.50
509.55	27887.48
509.73	27211.07
509.90	27405.33
510.08	27101.06
510.25	27510.66
510.42	27447.46
510.60	28088.77
510.77	28128.56
510.95	27962.38
511.12	27857.06
511.30	27845.35
511.47	28168.35
511.64	28512.41
511.82	27931.95
511.99	28276.01
512.17	28641.14
512.34	28573.26
512.51	28416.44
512.69	28524.11
512.86	28673.90
513.04	29022.64
513.21	29193.50
513.38	29106.90
513.56	29022.64
513.73	29083.50
513.90	29315.21
514.08	29345.64
514.25	29493.09
514.43	29745.87
514.60	29647.57
514.77	29708.42
514.95	29865.24
515.12	29406.49
515.29	29535.22
515.47	29544.58
515.64	30010.35
515.81	30031.41
515.99	30183.55
516.16	30600.16
516.33	30398.88
516.51	30181.21
516.68	30277.17
516.85	30478.46
517.03	30799.11
517.20	30913.80
517.37	30775.70
517.54	30672.72
517.72	30883.37
517.89	30569.74
518.06	31166.57
518.24	30918.48
518.41	30848.26
518.58	30705.49
518.75	30665.70
518.93	31412.33
519.10	31335.09
519.27	31620.64
519.45	31405.31
519.62	31721.28
519.79	31288.28
519.96	31424.03
520.14	31868.73
520.31	31527.02
520.48	31709.58
520.65	31976.40
520.83	31985.76
521.00	31934.27
521.17	31931.93
521.34	32187.05
521.52	32151.94
521.69	32407.06
521.86	32439.82
522.03	32613.02
522.20	32664.52
522.38	32369.61
522.55	32411.74
522.72	32297.05
522.89	32926.66
523.07	32765.16
523.24	33022.62
523.41	32800.27
523.58	32898.57
523.75	33282.42
523.92	32978.15
524.10	33046.02
524.27	33085.81
524.44	33635.84
524.61	33638.18
524.78	33476.68
524.96	33785.63
525.13	33656.90
525.30	33579.67
525.47	33830.10
525.64	33626.48
525.81	34349.70
525.98	33844.15
526.16	34256.08
526.33	34139.05
526.50	34480.77
526.67	34024.37
526.84	33598.39
527.01	34321.62
527.18	34333.32
527.36	34422.26
527.53	34604.82
527.70	34815.47
527.87	34960.58
528.04	34565.03
528.21	34490.13
528.38	34335.66
528.55	34731.21
528.72	34967.60
528.89	35126.76
529.07	35091.65
529.24	34993.35
529.41	35150.17
529.58	35061.22
529.75	34775.68
529.92	34958.24
530.09	35105.70
530.26	35124.42
530.43	35147.82
530.60	34864.62
530.77	35206.34
530.94	35356.13
531.11	35517.63
531.28	35585.50
531.46	35599.55
531.63	35770.41
531.80	35941.27
531.97	35983.40
532.14	35910.84
532.31	35859.35
532.48	35658.06
532.65	36119.15
532.82	35983.40
532.99	35793.81
533.16	35793.81
533.33	36123.83
533.50	36648.11
533.67	36486.61
533.84	35992.76
534.01	35910.84
534.18	35859.35
534.35	36308.73
534.52	36144.89
534.69	36847.05
534.86	36959.40
535.03	36746.41
535.20	36671.51
535.37	36561.51
535.54	37085.79
535.71	36631.72
535.88	36781.52
536.05	37144.30
536.22	37024.93
536.38	37600.71
536.55	37434.53
536.72	37291.76
536.89	37041.32
537.06	37310.48
537.23	37144.30
537.40	37443.89
537.57	37174.73
537.74	37947.11
537.91	37354.95
538.08	37748.16
538.25	37605.39
538.42	37621.77
538.59	37984.55
538.75	37305.80
538.92	37392.40
539.09	38038.39
539.26	38043.07
539.43	38022.00
539.60	38330.95
539.77	38071.15
539.94	38302.87
540.11	38068.81
540.28	38314.57
540.44	38410.53
540.61	38103.92
540.78	38155.41
540.95	38590.75
541.12	38595.43
541.29	38581.39
541.46	38644.59
541.62	38625.86
541.79	39084.61
541.96	38337.98
542.13	38628.20
542.30	38944.17
542.47	39108.01
542.63	39175.89
542.80	39344.41
542.97	39182.91
543.14	39889.75
543.31	39159.50
543.48	39711.87
543.64	39381.85
543.81	39842.94
543.98	39941.24
544.15	39304.62
544.32	39936.56
544.48	39777.40
544.65	39793.79
544.82	39704.85
544.99	39236.74
545.16	39943.58
545.32	39515.26
545.49	39945.92
545.66	40964.06
545.83	40893.84
546.00	40931.29
546.16	40360.20
546.33	39791.45
546.50	39496.54
546.67	39791.45
546.83	39559.73
547.00	40128.48
547.17	40189.34
547.34	40240.83
547.50	40568.51
547.67	40362.54
547.84	40315.73
548.00	40509.99
548.17	40126.14
548.34	40371.90
548.51	40491.27
548.67	40624.68
548.84	40605.95
549.01	40547.44
549.18	40264.24
549.34	40407.01
549.51	40631.70
549.68	40755.75
549.84	40205.72
550.01	40559.14
550.18	40215.08
550.34	40751.07
550.51	41144.28
550.68	40730.00
550.84	40428.07
551.01	41057.68
551.18	40701.92
551.34	40608.29
551.51	41303.43
551.68	40882.14
551.84	41120.87
552.01	41001.50
552.18	41160.66
552.34	40467.86
552.51	41153.64
552.68	40753.41
552.84	41207.47
553.01	40786.18
553.18	41031.93
553.34	41097.47
553.51	41621.75
553.67	41708.35
553.84	41324.50
554.01	41500.04
554.17	41523.44
554.34	41067.04
554.51	41172.36
554.67	41794.95
554.84	41326.84
555.00	41710.69
555.17	41703.67
555.33	41628.77
555.50	41277.69
555.67	41373.65
555.83	41265.99
556.00	41495.36
556.16	41497.70
556.33	41158.32
556.50	41645.15
556.66	41626.43
556.83	41612.38
556.99	41940.06
557.16	41867.50
557.32	42223.26
557.49	41813.67
557.65	41659.20
557.82	41378.33
557.98	41862.82
558.15	41731.75
558.32	41808.99
558.48	41895.59
558.65	41696.64
558.81	41968.15
558.98	42148.37
559.14	41659.20
559.31	41642.81
559.47	41907.29
559.64	41771.54
559.80	42192.84
559.97	42012.62
560.13	41745.80
560.30	42438.59
560.46	42057.09
560.63	41794.95
560.79	42347.31
560.96	42396.46
561.12	42066.45
561.29	42129.64
561.45	42188.16
561.61	42225.60
561.78	42829.46
561.94	42817.76
562.11	42298.16
562.27	42436.25
562.44	42335.61
562.60	42581.37
562.77	42555.62
562.93	42579.03
563.10	42569.66
563.26	42337.95
563.42	42808.40
563.59	42534.56
563.75	42895.00
563.92	42719.46
564.08	42164.75
564.24	42454.98
564.41	42490.09
564.57	42422.21
564.74	42354.33
564.90	42602.43
565.07	42258.37
565.23	42852.87
565.39	43119.69
565.56	42930.11
565.72	42459.66
565.88	42595.41
566.05	42419.87
566.21	42059.43
566.38	42738.18
566.54	42403.49
566.70	42649.24
566.87	42871.59
567.03	42831.80
567.19	43049.47
567.36	43299.91
567.52	42787.33
567.68	42717.12
567.85	42511.15
568.01	42841.17
568.17	42677.33
568.34	42951.17
568.50	42691.37
568.66	42543.92
568.83	42707.76
568.99	42314.55
569.15	42651.58
569.32	42712.44
569.48	42600.09
569.64	42714.78
569.81	42780.31
569.97	43061.18
570.13	43180.54
570.30	42794.36
570.46	43206.29
570.62	42719.46
570.78	42934.79
570.95	43042.45
571.11	43126.71
571.27	42838.83
571.43	42763.93
571.60	42691.37
571.76	43459.07
571.92	42946.49
572.09	43035.43
572.25	42897.34
572.41	43028.41
572.57	43189.91
572.74	43012.02
572.90	42967.55
573.06	42813.08
573.22	42916.06
573.38	43171.18
573.55	43545.67
573.71	43803.13
573.87	42930.11
574.03	43571.41
574.20	43344.38
574.36	42703.07
574.52	43269.48
574.68	42930.11
574.84	42897.34
575.01	42892.66
575.17	42658.60
575.33	42937.13
575.49	43260.12
575.65	43264.80
575.82	43115.01
575.98	43248.42
576.14	42904.36
576.30	42955.85
576.46	43100.97
576.62	43107.99
576.79	42941.81
576.95	43229.69
577.11	43349.06
577.27	43152.46
577.43	42965.21
577.59	43519.92
577.75	42979.26
577.92	42384.76
578.08	42831.80
578.24	43196.93
578.40	42574.34
578.56	43339.70
578.72	43009.68
578.88	43269.48
579.04	43786.74
579.21	42918.40
579.37	43695.46
579.53	43360.76
579.69	42749.88
579.85	43136.07
580.01	43374.81
580.17	43295.23
580.33	43079.90
580.49	43508.22
580.65	43533.96
580.82	43353.74
580.98	43683.76
581.14	43323.32
581.30	43592.48
581.46	43182.88
581.62	43412.26
581.78	43288.21
581.94	43571.41
582.10	43208.63
582.26	43655.67
582.42	43419.28
582.58	43178.20
582.74	43627.59
582.90	43618.22
583.06	43337.36
583.22	43494.18
583.38	43531.62
583.54	43555.03
583.70	43515.24
583.86	43878.02
584.02	42941.81
584.18	43225.01
584.34	43997.39
584.50	43550.35
584.66	43243.74
584.82	43054.15
584.98	43400.55
585.14	43250.76
585.30	43037.77
585.46	43398.21
585.62	43175.86
585.78	43393.53
585.94	43236.72
586.10	43643.97
586.26	43363.11
586.42	43859.30
586.58	43728.23
586.74	43997.39
586.90	43545.67
587.06	43370.13
587.22	43929.51
587.38	43271.82
587.54	43548.01
587.70	43384.17
587.86	43318.64
588.02	43625.25
588.18	43737.59
588.34	43395.87
588.49	43721.21
588.65	43625.25
588.81	43786.74
588.97	43405.23
589.13	43854.62
589.29	43826.53
589.45	43702.48
589.61	43601.84
589.77	43999.73
589.93	43819.51
590.08	43805.47
590.24	43622.90
590.40	43950.58
590.56	44186.97
590.72	43681.42
590.88	43517.58
591.04	43707.16
