SpectraSuite Data File
++++++++++++++++++++++++++++++++++++
Date: Fri Oct 04 11:39:19 GMT-05:00 2013
User: price-jones
Dark Spectrum Present: No
Reference Spectrum Present: No
Number of Sampled Component Spectra: 1
Spectrometers: USB2+H05261
Integration Time (usec): 100000 (USB2+H05261)
Spectra Averaged: 1 (USB2+H05261)
Boxcar Smoothing: 0 (USB2+H05261)
Correct for Electrical Dark: No (USB2+H05261)
Strobe/Lamp Enabled: No (USB2+H05261)
Correct for Detector Non-linearity: No (USB2+H05261)
Correct for Stray Light: No (USB2+H05261)
Number of Pixels in Processed Spectrum: 2048
>>>>>Begin Processed Spectral Data<<<<<
365.73	72.56
365.92	72.56
366.12	72.56
366.32	0.00
366.52	0.00
366.72	0.00
366.91	0.00
367.11	0.00
367.31	42.13
367.51	0.00
367.70	0.00
367.90	0.00
368.10	0.00
368.30	0.00
368.49	0.00
368.69	0.00
368.89	0.00
369.09	2.34
369.28	28.09
369.48	0.00
369.68	0.00
369.87	0.00
370.07	0.00
370.27	28.09
370.47	65.54
370.66	187.24
370.86	248.10
371.06	294.91
371.25	351.08
371.45	208.31
371.65	245.76
371.84	248.10
372.04	299.59
372.24	330.02
372.44	238.73
372.63	297.25
372.83	290.23
373.03	313.63
373.22	301.93
373.42	322.99
373.62	327.68
373.81	294.91
374.01	341.72
374.21	404.91
374.40	344.06
374.60	337.04
374.79	334.70
374.99	327.68
375.19	351.08
375.38	440.02
375.58	374.49
375.78	381.51
375.97	376.83
376.17	437.68
376.37	433.00
376.56	437.68
376.76	374.49
376.95	318.31
377.15	451.72
377.35	414.27
377.54	372.15
377.74	320.65
377.93	381.51
378.13	402.57
378.33	425.98
378.52	376.83
378.72	407.25
378.91	423.64
379.11	411.93
379.31	376.83
379.50	454.06
379.70	430.66
379.89	428.32
380.09	440.02
380.28	451.72
380.48	397.89
380.68	388.53
380.87	400.23
381.07	456.40
381.26	423.64
381.46	458.74
381.65	498.53
381.85	365.12
382.04	477.47
382.24	444.70
382.43	447.04
382.63	425.98
382.83	477.47
383.02	538.32
383.22	479.81
383.41	437.68
383.61	423.64
383.80	358.10
384.00	463.43
384.19	528.96
384.39	540.66
384.58	433.00
384.78	440.02
384.97	465.77
385.17	524.28
385.36	507.90
385.56	535.98
385.75	517.26
385.95	465.77
386.14	512.58
386.34	435.34
386.53	622.58
386.72	456.40
386.92	552.37
387.11	528.96
387.31	505.56
387.50	526.62
387.70	505.56
387.89	585.13
388.09	500.87
388.28	561.73
388.48	526.62
388.67	582.79
388.86	543.00
389.06	535.98
389.25	585.13
389.45	585.13
389.64	594.50
389.84	641.31
390.03	535.98
390.22	622.58
390.42	585.13
390.61	615.56
390.81	638.97
391.00	636.63
391.19	699.82
391.39	620.24
391.58	685.78
391.78	662.37
391.97	641.31
392.16	617.90
392.36	706.84
392.55	594.50
392.75	737.27
392.94	674.07
393.13	660.03
393.33	645.99
393.52	690.46
393.71	711.52
393.91	763.01
394.10	685.78
394.29	725.57
394.49	744.29
394.68	791.10
394.88	711.52
395.07	765.36
395.26	781.74
395.46	833.23
395.65	760.67
395.84	727.91
396.04	863.66
396.23	786.42
396.42	765.36
396.62	809.83
396.81	866.00
397.00	741.95
397.19	791.10
397.39	873.02
397.58	786.42
397.77	828.55
397.97	823.87
398.16	837.91
398.35	910.47
398.55	823.87
398.74	809.83
398.93	880.04
399.12	898.77
399.32	987.71
399.51	931.53
399.70	938.55
399.90	905.79
400.09	938.55
400.28	1062.60
400.47	957.28
400.67	954.94
400.86	1041.54
401.05	1060.26
401.24	1046.22
401.44	1025.15
401.63	1046.22
401.82	1088.35
402.01	1006.43
402.21	1050.90
402.40	1121.12
402.59	1074.31
402.78	1034.52
402.97	1116.44
403.17	1078.99
403.36	1102.39
403.55	1100.05
403.74	1174.95
403.93	1177.29
404.13	1228.78
404.32	1186.65
404.51	1188.99
404.70	1252.19
404.89	1224.10
405.09	1167.93
405.28	1135.16
405.47	1310.70
405.66	1172.61
405.85	1214.74
406.05	1275.59
406.24	1261.55
406.43	1336.45
406.62	1465.18
406.81	1291.98
407.00	1263.89
407.20	1287.29
407.39	1329.42
407.58	1479.22
407.77	1371.55
407.96	1418.36
408.15	1366.87
408.34	1439.43
408.54	1418.36
408.73	1383.26
408.92	1493.26
409.11	1481.56
409.30	1495.60
409.49	1591.56
409.68	1472.20
409.87	1507.30
410.07	1490.92
410.26	1526.03
410.45	1659.44
410.64	1507.30
410.83	1614.97
411.02	1675.82
411.21	1633.69
411.40	1664.12
411.59	1678.16
411.78	1699.23
411.98	1729.66
412.17	1741.36
412.36	1710.93
412.55	1795.19
412.74	1825.62
412.93	1774.13
413.12	1785.83
413.31	1872.43
413.50	1839.66
413.69	1916.90
413.88	1966.05
414.07	1930.94
414.26	2012.86
414.45	1905.20
414.64	2008.18
414.83	2019.88
415.02	1937.96
415.22	2134.57
415.41	2045.63
415.60	2069.03
415.79	2176.70
415.98	2242.23
416.17	2167.34
416.36	2157.97
416.55	2197.76
416.74	2165.00
416.93	2200.10
417.12	2345.22
417.31	2298.41
417.50	2321.81
417.69	2392.03
417.88	2345.22
418.07	2310.11
418.26	2476.29
418.45	2455.22
418.64	2509.05
418.83	2459.90
419.02	2495.01
419.21	2506.71
419.39	2518.42
419.58	2413.09
419.77	2455.22
419.96	2495.01
420.15	2523.10
420.34	2672.89
420.53	2607.36
420.72	2614.38
420.91	2576.93
421.10	2722.04
421.29	2696.30
421.48	2551.18
421.67	2621.40
421.86	2672.89
422.05	2738.43
422.24	2745.45
422.43	2759.49
422.61	2785.24
422.80	2780.56
422.99	2813.32
423.18	2710.34
423.37	2722.04
423.56	2864.82
423.75	2752.47
423.94	2869.50
424.13	2656.51
424.32	2644.81
424.50	2747.79
424.69	2785.24
424.88	2932.69
425.07	2864.82
425.26	2733.75
425.45	2803.96
425.64	2848.43
425.83	2700.98
426.01	2860.13
426.20	2815.66
426.39	2881.20
426.58	2822.69
426.77	2918.65
426.96	2965.46
427.15	2918.65
427.33	2885.88
427.52	2888.22
427.71	2993.55
427.90	2902.26
428.09	3012.27
428.28	2946.73
428.46	3066.10
428.65	3040.36
428.84	3152.70
429.03	3126.96
429.22	3084.83
429.40	3117.59
429.59	3162.06
429.78	3152.70
429.97	3021.63
430.16	3068.44
430.34	3171.43
430.53	3042.70
430.72	3126.96
430.91	3368.03
431.10	3173.77
431.28	3316.54
431.47	3269.73
431.66	3368.03
431.85	3159.72
432.03	3323.56
432.22	3471.01
432.41	3426.54
432.60	3391.44
432.79	3258.03
432.97	3454.63
433.16	3501.44
433.35	3482.72
433.54	3449.95
433.72	3641.87
433.91	3499.10
434.10	3506.12
434.28	3599.74
434.47	3468.67
434.66	3618.47
434.85	3581.02
435.03	3651.24
435.22	3819.75
435.41	4002.32
435.59	4100.62
435.78	3831.46
435.97	3761.24
436.16	3747.20
436.34	3655.92
436.53	3595.06
436.72	3875.93
436.90	3702.73
437.09	3763.58
437.28	3672.30
437.46	3815.07
437.65	3875.93
437.84	3943.80
438.02	3826.78
438.21	3854.86
438.40	3915.72
438.58	3955.51
438.77	3988.27
438.96	3995.29
439.14	4079.55
439.33	4025.72
439.52	4070.19
439.70	4222.33
439.89	4245.73
440.08	4156.79
440.26	4264.46
440.45	4198.92
440.63	4273.82
440.82	4325.31
441.01	4395.53
441.19	4344.03
441.38	4332.33
441.57	4407.23
441.75	4435.32
441.94	4554.68
442.12	4503.19
442.31	4634.26
442.50	4351.06
442.68	4594.47
442.87	4641.28
443.05	4568.73
443.24	4692.77
443.43	4711.50
443.61	4645.96
443.80	4681.07
443.98	4645.96
444.17	4542.98
444.35	4695.11
444.54	4805.12
444.73	4847.25
444.91	4777.03
445.10	4765.33
445.28	4660.01
445.47	4828.53
445.65	4786.40
445.84	4929.17
446.02	4896.40
446.21	4777.03
446.39	4880.02
446.58	4734.90
446.77	4695.11
446.95	4697.46
447.14	4880.02
447.32	4865.97
447.51	4711.50
447.69	4760.65
447.88	4856.61
448.06	5055.56
448.25	4959.60
448.43	5043.85
448.62	4777.03
448.80	4896.40
448.99	4952.57
449.17	4849.59
449.36	4903.42
449.54	5193.65
449.73	5043.85
449.91	5146.84
450.10	5071.94
450.28	5308.34
450.46	5088.32
450.65	5245.14
450.83	5301.31
451.02	5093.01
451.20	5233.44
451.39	5301.31
451.57	5193.65
451.76	5167.90
451.94	5352.81
452.13	5282.59
452.31	5420.68
452.49	5282.59
452.68	5448.77
452.86	5392.59
453.05	5418.34
453.23	5579.84
453.42	5378.55
453.60	5446.43
453.78	5455.79
453.97	5259.18
454.15	5266.21
454.34	5334.08
454.52	5502.60
454.70	5617.29
454.89	5476.85
455.07	5547.07
455.26	5542.39
455.44	5593.88
455.62	5666.44
455.81	5591.54
455.99	5647.71
456.17	5762.40
456.36	5729.63
456.54	5694.52
456.73	5884.11
456.91	6045.60
457.09	5919.21
457.28	5987.09
457.46	5930.92
457.64	5898.15
457.83	6022.20
458.01	5853.68
458.19	6115.82
458.38	6008.16
458.56	6148.59
458.74	6087.73
458.93	6108.80
459.11	6104.12
459.29	6132.20
459.48	6104.12
459.66	6066.67
459.84	6293.70
460.03	6349.87
460.21	6356.90
460.39	6188.38
460.57	6195.40
460.76	6282.00
460.94	6307.74
461.12	6317.11
461.31	6429.45
461.49	6354.55
461.67	6363.92
461.85	6452.86
462.04	6464.56
462.22	7068.42
462.40	6539.46
462.59	6633.08
462.77	6548.82
462.95	6677.55
463.13	6431.79
463.32	6644.78
463.50	6775.85
463.68	6621.38
463.86	6745.42
464.05	6773.51
464.23	6679.89
464.41	6813.30
464.59	6581.59
464.78	6841.39
464.96	6757.13
465.14	6747.76
465.32	6846.07
465.50	7012.24
465.69	6888.20
465.87	6736.06
466.05	6981.82
466.23	6832.02
466.41	6754.79
466.60	7229.91
466.78	6977.14
466.96	6876.49
467.14	6785.21
467.32	6977.14
467.51	7192.47
467.69	6892.88
467.87	6963.09
468.05	7096.50
468.23	7159.70
468.41	7155.02
468.60	7157.36
468.78	7260.34
468.96	7171.40
469.14	7126.93
469.32	7515.46
469.50	7201.83
469.69	7492.05
469.87	7337.58
470.05	7414.82
470.23	7618.44
470.41	7426.52
470.59	7445.24
470.77	7475.67
470.95	7602.06
471.14	7499.08
471.32	7466.31
471.50	7648.87
471.68	7613.76
471.86	7667.60
472.04	7669.94
472.22	7974.21
472.40	7583.34
472.58	7705.04
472.77	8035.06
472.95	7854.84
473.13	8189.53
473.31	8023.36
473.49	8081.87
473.67	8032.72
473.85	8002.29
474.03	8173.15
474.21	8339.33
474.39	8250.39
474.57	8248.05
474.75	8468.06
474.93	8592.11
475.12	8528.91
475.30	8491.46
475.48	8542.96
475.66	8542.96
475.84	8521.89
476.02	8697.43
476.20	8812.12
476.38	8779.35
476.56	9214.69
476.74	8812.12
476.92	9029.79
477.10	8861.27
477.28	9097.66
477.46	9062.55
477.64	9228.73
477.82	9359.80
478.00	9418.32
478.18	9469.81
478.36	9596.20
478.54	9549.39
478.72	9633.64
478.90	9820.89
479.08	9701.52
479.26	9738.97
479.44	9881.74
479.62	10033.88
479.80	9970.68
479.98	10090.05
480.16	10225.80
480.34	10256.23
480.52	10249.21
480.70	10602.63
480.88	10511.35
481.06	10590.92
481.24	10597.95
481.41	10766.46
481.59	11028.60
481.77	10965.41
481.95	10923.28
482.13	11204.14
482.31	10984.13
482.49	10965.41
482.67	11159.67
482.85	11363.30
483.03	11630.12
483.21	11735.45
483.39	11695.66
483.57	11705.02
483.74	11803.32
483.92	11840.77
484.10	12013.97
484.28	12156.74
484.46	12297.17
484.64	12449.31
484.82	12191.85
485.00	12131.00
485.18	12510.16
485.35	12683.36
485.53	12915.08
485.71	12840.18
485.89	13116.36
486.07	13163.17
486.25	13376.16
486.43	13270.84
486.61	13474.46
486.78	13722.56
486.96	13453.40
487.14	13661.71
487.32	13905.12
487.50	13884.06
487.68	14106.41
487.85	14171.94
488.03	14338.12
488.21	14616.65
488.39	14420.04
488.57	14834.32
488.75	14885.81
488.92	15084.75
489.10	14787.50
489.28	15082.41
489.46	15466.26
489.64	15028.58
489.81	15454.56
489.99	15583.29
490.17	15688.61
490.35	15655.84
490.53	15843.09
490.70	15976.50
490.88	15899.26
491.06	16283.11
491.24	16088.84
491.41	16161.40
491.59	16470.35
491.77	16290.13
491.95	16617.80
492.13	16676.32
492.30	16755.90
492.48	16704.40
492.66	16947.82
492.84	16842.50
493.01	17270.81
493.19	17132.72
493.37	17319.96
493.54	17600.83
493.72	17525.93
493.90	17598.49
494.08	17582.10
494.25	17764.67
494.43	18265.54
494.61	18134.47
494.79	18190.64
494.96	18033.83
495.14	18211.71
495.32	18581.51
495.49	18408.31
495.67	18721.95
495.85	18843.65
496.02	18799.18
496.20	18939.62
496.38	19229.84
496.55	19023.87
496.73	19536.45
496.91	19527.09
497.09	19908.60
497.26	19822.00
497.44	19655.82
497.62	19468.58
497.79	19903.92
497.97	19627.73
498.14	20339.26
498.32	20308.83
498.50	20229.25
498.67	20259.68
498.85	20196.48
499.03	20479.69
499.20	20561.61
499.38	20725.44
499.56	20716.08
499.73	20767.57
499.91	21027.37
500.08	21301.22
500.26	21062.48
500.44	21223.98
500.61	21280.15
500.79	21226.32
500.97	21167.80
501.14	21277.81
501.32	21994.01
501.49	21317.60
501.67	21734.21
501.84	21729.53
502.02	21816.13
502.20	21619.53
502.37	22078.27
502.55	22139.13
502.72	22356.80
502.90	22443.40
503.07	22312.33
503.25	22490.21
503.43	22197.64
503.60	22476.16
503.78	22796.82
503.95	22419.99
504.13	22515.95
504.30	22892.78
504.48	22869.37
504.65	22506.59
504.83	23339.82
505.01	23344.50
505.18	22923.21
505.36	23601.96
505.53	23356.21
505.71	23410.04
505.88	23241.52
506.06	23433.44
506.23	23676.86
506.41	23623.03
506.58	23718.99
506.76	23821.97
506.93	23882.83
507.11	23583.24
507.28	24130.92
507.46	23828.99
507.63	24079.43
507.81	24552.22
507.98	24156.67
508.16	24210.50
508.33	24381.36
508.50	24276.04
508.68	24755.85
508.85	24259.65
509.03	24781.59
509.20	24781.59
509.38	25369.07
509.55	25132.67
509.73	24964.15
509.90	25336.30
510.08	25359.70
510.25	25336.30
510.42	25172.46
510.60	25336.30
510.77	25853.56
510.95	25755.26
511.12	25413.54
511.30	25455.67
511.47	25624.18
511.64	25900.37
511.82	26125.06
511.99	25989.31
512.17	26345.07
512.34	26204.64
512.51	26389.54
512.69	26637.64
512.86	26181.23
513.04	26602.53
513.21	26511.25
513.38	26611.89
513.56	26480.82
513.73	26572.10
513.90	26927.86
514.08	26473.80
514.25	27192.34
514.43	26974.67
514.60	26932.54
514.77	27042.55
514.95	27239.15
515.12	27592.58
515.29	27164.26
515.47	27552.79
515.64	27379.59
515.81	27187.66
515.99	27517.68
516.16	28158.99
516.33	28032.60
516.51	27868.76
516.68	27655.77
516.85	27761.09
517.03	27843.01
517.20	28018.55
517.37	28128.56
517.54	28081.75
517.72	27672.15
517.89	28201.11
518.06	28065.36
518.24	28357.93
518.41	28535.81
518.58	28486.66
518.75	28549.85
518.93	28634.11
519.10	28730.08
519.27	28917.32
519.45	28678.58
519.62	29106.90
519.79	28882.21
519.96	28964.13
520.14	29153.71
520.31	28919.66
520.48	29310.53
520.65	29034.35
520.83	29390.11
521.00	29139.67
521.17	29237.97
521.34	29340.96
521.52	29607.78
521.69	29806.72
521.86	29792.68
522.03	29685.01
522.20	29741.19
522.38	30073.54
522.55	30003.33
522.72	29788.00
522.89	29993.97
523.07	30632.93
523.24	30249.08
523.41	30532.29
523.58	30260.79
523.75	30249.08
523.92	30228.02
524.10	30293.55
524.27	30616.55
524.44	30745.28
524.61	31075.29
524.78	30721.87
524.96	30932.52
525.13	30838.90
525.30	30939.54
525.47	31271.90
525.64	30841.24
525.81	30902.09
525.98	31208.70
526.16	31112.74
526.33	31585.53
526.50	31580.85
526.67	31070.61
526.84	31159.55
527.01	31414.67
527.18	31627.66
527.36	31440.42
527.53	31735.32
527.70	32016.19
527.87	31585.53
528.04	31732.98
528.21	31908.52
528.38	31475.52
528.55	32250.24
528.72	31983.42
528.89	31875.76
529.07	32006.83
529.24	31779.79
529.41	32126.19
529.58	31681.49
529.75	31992.78
529.92	32205.77
530.09	32622.39
530.26	32407.06
530.43	32350.88
530.60	32219.81
530.77	32620.05
530.94	33251.99
531.11	32500.68
531.28	32615.37
531.46	32503.02
531.63	33097.52
531.80	32676.22
531.97	32842.40
532.14	33139.65
532.31	32996.87
532.48	33015.60
532.65	33165.39
532.82	33015.60
532.99	33397.10
533.16	32978.15
533.33	33362.00
533.50	33411.15
533.67	33415.83
533.84	32943.04
534.01	32755.80
534.18	32994.53
534.35	33694.35
534.52	33612.43
534.69	33736.48
534.86	33748.18
535.03	33605.41
535.20	33682.65
535.37	33846.49
535.54	34438.64
535.71	33951.81
535.88	34094.58
536.05	34078.20
536.22	33928.41
536.38	34562.69
536.55	34520.56
536.72	34415.24
536.89	34167.14
537.06	34408.22
537.23	34672.70
537.40	34281.83
537.57	34321.62
537.74	34768.66
537.91	34794.40
538.08	34705.46
538.25	34398.85
538.42	34693.76
538.59	35061.22
538.75	34707.80
538.92	34869.30
539.09	34892.71
539.26	34892.71
539.43	35302.30
539.60	34930.16
539.77	35129.10
539.94	35491.88
540.11	35159.53
540.28	35161.87
540.44	35297.62
540.61	35344.43
540.78	35133.78
540.95	35782.11
541.12	35557.42
541.29	35941.27
541.46	35868.71
541.62	35988.08
541.79	36231.49
541.96	35356.13
542.13	35569.12
542.30	35849.99
542.47	35686.15
542.63	35637.00
542.80	35894.46
542.97	36009.14
543.14	36500.65
543.31	36058.29
543.48	36257.24
543.64	36631.72
543.81	36662.15
543.98	36554.49
544.15	36680.88
544.32	37076.43
544.48	36835.35
544.65	36348.52
544.82	36889.18
544.99	36488.95
545.16	36458.52
545.32	36690.24
545.49	37537.51
545.66	38038.39
545.83	37886.25
546.00	37869.87
546.16	36952.38
546.33	37046.00
546.50	36594.28
546.67	36982.80
546.83	36573.21
547.00	37053.02
547.17	37247.29
547.34	36928.97
547.50	37158.34
547.67	37439.21
547.84	37249.63
548.00	37001.53
548.17	37289.42
548.34	37273.03
548.51	37528.15
548.67	37691.99
548.84	37415.80
549.01	37537.51
549.18	37127.92
549.34	37879.23
549.51	37563.26
549.68	37546.87
549.84	37596.03
550.01	37600.71
550.18	37764.54
550.34	37713.05
550.51	37682.62
550.68	37703.69
550.84	37577.30
551.01	37432.19
551.18	37291.76
551.34	37488.36
551.51	37628.79
551.68	37757.52
551.84	37818.38
552.01	37579.64
552.18	37926.04
552.34	37696.67
552.51	37881.57
552.68	37593.68
552.84	38068.81
553.01	38040.73
553.18	38396.49
553.34	38522.88
553.51	38160.09
553.67	38462.02
553.84	38653.95
554.01	38195.20
554.17	38169.46
554.34	38054.77
554.51	38335.63
554.67	38326.27
554.84	38630.54
555.00	38319.25
555.17	38272.44
555.33	38246.69
555.50	38389.47
555.67	38761.61
555.83	38518.20
556.00	38672.67
556.16	38625.86
556.33	38642.24
556.50	38653.95
556.66	38855.23
556.83	38675.01
556.99	38960.56
557.16	39007.37
557.32	39082.27
557.49	38403.51
557.65	38405.85
557.82	38728.84
557.98	38719.48
558.15	38667.99
558.32	38733.53
558.48	38590.75
558.65	39042.48
558.81	38934.81
558.98	38951.20
559.14	39136.10
559.31	38618.84
559.47	38850.55
559.64	38859.91
559.80	39187.59
559.97	39054.18
560.13	39026.09
560.30	39337.38
560.46	39192.27
560.63	39562.08
560.79	39452.07
560.96	39189.93
561.12	39196.95
561.29	39171.21
561.45	39140.78
561.61	39332.70
561.78	39391.22
561.94	39400.58
562.11	39241.42
562.27	39758.68
562.44	39667.40
562.60	39143.12
562.77	39866.34
562.93	39730.59
563.10	40142.53
563.26	39426.32
563.42	39707.19
563.59	39702.51
563.75	39445.05
563.92	39304.62
564.08	39433.35
564.24	39536.33
564.41	39367.81
564.57	39636.97
564.74	39665.06
564.90	39695.49
565.07	39112.69
565.23	39655.70
565.39	39538.67
565.56	39770.38
565.72	39615.91
565.88	39791.45
566.05	39276.53
566.21	39742.30
566.38	39629.95
566.54	39765.70
566.70	40009.12
566.87	40116.78
567.03	39922.52
567.19	40346.15
567.36	40158.91
567.52	39945.92
567.68	40016.14
567.85	39466.11
568.01	39761.02
568.17	40041.88
568.34	39849.96
568.50	39934.22
568.66	40091.04
568.83	40266.58
568.99	39962.31
569.15	40060.61
569.32	39892.09
569.48	39576.12
569.64	39920.18
569.81	40025.50
569.97	39796.13
570.13	40133.17
570.30	39669.74
570.46	40201.04
570.62	40065.29
570.78	39917.84
570.95	40147.21
571.11	40575.53
571.27	39856.98
571.43	39938.90
571.60	40044.23
571.76	39892.09
571.92	40383.60
572.09	40297.00
572.25	40453.82
572.41	40257.21
572.57	40273.60
572.74	40130.83
572.90	40219.77
573.06	40170.61
573.22	39990.39
573.38	39924.86
573.55	40346.15
573.71	40751.07
573.87	40409.35
574.03	40245.51
574.20	40205.72
574.36	40093.38
574.52	40130.83
574.68	40116.78
574.84	40645.74
575.01	40205.72
575.17	40582.55
575.33	40374.24
575.49	40533.40
575.65	40781.49
575.82	41006.19
575.98	40161.25
576.14	40575.53
576.30	40327.43
576.46	40086.36
576.62	40397.65
576.79	40308.71
576.95	40315.73
577.11	40524.04
577.27	40500.63
577.43	40561.48
577.59	40865.75
577.75	40598.93
577.92	40542.76
578.08	39826.56
578.24	40086.36
578.40	40383.60
578.56	40856.39
578.72	40392.97
578.88	41085.76
579.04	40701.92
579.21	40814.26
579.37	40774.47
579.53	40891.50
579.69	40194.02
579.85	40863.41
580.01	40868.09
580.17	40224.45
580.33	40297.00
580.49	40697.24
580.65	40662.13
580.82	40809.58
580.98	40708.94
581.14	40133.17
581.30	40870.43
581.46	40498.29
581.62	40470.20
581.78	40467.86
581.94	40680.85
582.10	40809.58
582.26	40685.53
582.42	40521.69
582.58	40910.22
582.74	40549.78
582.90	41174.70
583.06	40989.80
583.22	40362.54
583.38	40437.44
583.54	40725.32
583.70	40767.45
583.86	40472.54
584.02	41048.32
584.18	40800.22
584.34	40779.15
584.50	40769.79
584.66	40439.78
584.82	40341.47
584.98	40776.81
585.14	40493.61
585.30	40407.01
585.46	40456.16
585.62	40781.49
585.78	40655.11
585.94	40512.33
586.10	40680.85
586.26	41022.57
586.42	40947.67
586.58	40704.26
586.74	40634.04
586.90	40444.46
587.06	40556.80
587.22	40603.61
587.38	40882.14
587.54	40875.12
587.70	41273.01
587.86	41230.88
588.02	41081.08
588.18	41017.89
588.34	40657.45
588.49	40624.68
588.65	40669.15
588.81	40760.43
588.97	40917.25
589.13	41106.83
589.29	41181.73
589.45	41027.25
589.61	40835.33
589.77	40898.52
589.93	41172.36
590.08	41223.86
590.24	40821.28
590.40	41415.78
590.56	41703.67
590.72	41240.24
590.88	41045.97
591.04	40694.89
