SpectraSuite Data File
++++++++++++++++++++++++++++++++++++
Date: Fri Oct 04 11:39:52 GMT-05:00 2013
User: price-jones
Dark Spectrum Present: No
Reference Spectrum Present: No
Number of Sampled Component Spectra: 1
Spectrometers: USB2+H05261
Integration Time (usec): 100000 (USB2+H05261)
Spectra Averaged: 1 (USB2+H05261)
Boxcar Smoothing: 0 (USB2+H05261)
Correct for Electrical Dark: No (USB2+H05261)
Strobe/Lamp Enabled: No (USB2+H05261)
Correct for Detector Non-linearity: No (USB2+H05261)
Correct for Stray Light: No (USB2+H05261)
Number of Pixels in Processed Spectrum: 2048
>>>>>Begin Processed Spectral Data<<<<<
365.73	72.56
365.92	72.56
366.12	72.56
366.32	9.36
366.52	0.00
366.72	0.00
366.91	0.00
367.11	46.81
367.31	0.00
367.51	0.00
367.70	0.00
367.90	0.00
368.10	0.00
368.30	0.00
368.49	0.00
368.69	0.00
368.89	0.00
369.09	0.00
369.28	0.00
369.48	0.00
369.68	0.00
369.87	0.00
370.07	0.00
370.27	70.22
370.47	56.17
370.66	18.72
370.86	77.24
371.06	93.62
371.25	81.92
371.45	60.85
371.65	121.71
371.84	74.90
372.04	11.70
372.24	131.07
372.44	114.69
372.63	124.05
372.83	98.30
373.03	187.24
373.22	124.05
373.42	152.13
373.62	110.01
373.81	117.03
374.01	170.86
374.21	170.86
374.40	112.35
374.60	119.37
374.79	93.62
374.99	142.77
375.19	98.30
375.38	91.28
375.58	86.60
375.78	161.50
375.97	229.37
376.17	145.11
376.37	152.13
376.56	145.11
376.76	98.30
376.95	100.64
377.15	194.26
377.35	102.98
377.54	166.18
377.74	142.77
377.93	58.51
378.13	65.54
378.33	166.18
378.52	196.60
378.72	182.56
378.91	210.65
379.11	131.07
379.31	170.86
379.50	117.03
379.70	102.98
379.89	149.79
380.09	117.03
380.28	74.90
380.48	133.41
380.68	100.64
380.87	63.19
381.07	224.69
381.26	243.42
381.46	161.50
381.65	201.29
381.85	98.30
382.04	65.54
382.24	84.26
382.43	170.86
382.63	201.29
382.83	161.50
383.02	212.99
383.22	159.16
383.41	117.03
383.61	194.26
383.80	119.37
384.00	105.32
384.19	110.01
384.39	161.50
384.58	138.09
384.78	182.56
384.97	133.41
385.17	163.84
385.36	93.62
385.56	175.54
385.75	110.01
385.95	110.01
386.14	168.52
386.34	163.84
386.53	175.54
386.72	147.45
386.92	189.58
387.11	79.58
387.31	196.60
387.50	65.54
387.70	156.82
387.89	77.24
388.09	128.73
388.28	112.35
388.48	131.07
388.67	170.86
388.86	135.75
389.06	152.13
389.25	149.79
389.45	149.79
389.64	107.66
389.84	220.01
390.03	145.11
390.22	81.92
390.42	222.35
390.61	152.13
390.81	152.13
391.00	140.43
391.19	166.18
391.39	126.39
391.58	236.39
391.78	161.50
391.97	110.01
392.16	128.73
392.36	196.60
392.55	161.50
392.75	65.54
392.94	180.22
393.13	121.71
393.33	102.98
393.52	210.65
393.71	95.96
393.91	159.16
394.10	107.66
394.29	156.82
394.49	145.11
394.68	163.84
394.88	145.11
395.07	159.16
395.26	227.03
395.46	175.54
395.65	177.88
395.84	248.10
396.04	201.29
396.23	231.71
396.42	147.45
396.62	205.97
396.81	114.69
397.00	198.95
397.19	208.31
397.39	196.60
397.58	180.22
397.77	138.09
397.97	154.48
398.16	159.16
398.35	198.95
398.55	161.50
398.74	149.79
398.93	140.43
399.12	163.84
399.32	175.54
399.51	201.29
399.70	170.86
399.90	147.45
400.09	189.58
400.28	222.35
400.47	159.16
400.67	255.12
400.86	177.88
401.05	163.84
401.24	191.92
401.44	243.42
401.63	224.69
401.82	217.67
402.01	98.30
402.21	229.37
402.40	224.69
402.59	227.03
402.78	203.63
402.97	269.16
403.17	269.16
403.36	205.97
403.55	191.92
403.74	257.46
403.93	266.82
404.13	306.61
404.32	318.31
404.51	313.63
404.70	287.89
404.89	255.12
405.09	280.86
405.28	278.52
405.47	276.18
405.66	280.86
405.85	318.31
406.05	180.22
406.24	266.82
406.43	234.05
406.62	227.03
406.81	315.97
407.00	231.71
407.20	217.67
407.39	276.18
407.58	280.86
407.77	271.50
407.96	290.23
408.15	311.29
408.34	292.57
408.54	294.91
408.73	271.50
408.92	259.80
409.11	257.46
409.30	278.52
409.49	238.73
409.68	264.48
409.87	386.19
410.07	308.95
410.26	325.33
410.45	376.83
410.64	250.44
410.83	313.63
411.02	346.40
411.21	290.23
411.40	330.02
411.59	397.89
411.78	278.52
411.98	402.57
412.17	393.21
412.36	414.27
412.55	273.84
412.74	332.36
412.93	372.15
413.12	388.53
413.31	351.08
413.50	400.23
413.69	388.53
413.88	337.04
414.07	353.42
414.26	379.17
414.45	330.02
414.64	360.44
414.83	433.00
415.02	344.06
415.22	440.02
415.41	451.72
415.60	369.80
415.79	409.59
415.98	449.38
416.17	414.27
416.36	388.53
416.55	381.51
416.74	404.91
416.93	491.51
417.12	475.13
417.31	411.93
417.50	397.89
417.69	444.70
417.88	447.04
418.07	442.36
418.26	414.27
418.45	472.79
418.64	482.15
418.83	503.22
419.02	503.22
419.21	510.24
419.39	512.58
419.58	484.49
419.77	524.28
419.96	475.13
420.15	526.62
420.34	526.62
420.53	470.45
420.72	477.47
420.91	484.49
421.10	493.85
421.29	510.24
421.48	489.17
421.67	601.52
421.86	486.83
422.05	510.24
422.24	470.45
422.43	538.32
422.61	435.34
422.80	517.26
422.99	489.17
423.18	500.87
423.37	540.66
423.56	566.41
423.75	610.88
423.94	454.06
424.13	463.43
424.32	498.53
424.50	458.74
424.69	552.37
424.88	540.66
425.07	500.87
425.26	519.60
425.45	533.64
425.64	564.07
425.83	524.28
426.01	505.56
426.20	538.32
426.39	517.26
426.58	493.85
426.77	573.43
426.96	517.26
427.15	531.30
427.33	524.28
427.52	535.98
427.71	500.87
427.90	568.75
428.09	519.60
428.28	540.66
428.46	533.64
428.65	629.60
428.84	587.47
429.03	587.47
429.22	564.07
429.40	573.43
429.59	498.53
429.78	650.67
429.97	561.73
430.16	552.37
430.34	566.41
430.53	580.45
430.72	660.03
430.91	535.98
431.10	568.75
431.28	550.03
431.47	606.20
431.66	578.11
431.85	634.29
432.03	624.92
432.22	676.41
432.41	568.75
432.60	692.80
432.79	636.63
432.97	519.60
433.16	674.07
433.35	671.73
433.54	608.54
433.72	655.35
433.91	594.50
434.10	585.13
434.28	631.94
434.47	688.12
434.66	676.41
434.85	697.48
435.03	772.38
435.22	1022.81
435.41	1327.08
435.59	1245.16
435.78	1163.25
435.97	880.04
436.16	744.29
436.34	704.50
436.53	692.80
436.72	634.29
436.90	688.12
437.09	770.04
437.28	683.44
437.46	713.86
437.65	622.58
437.84	723.23
438.02	767.70
438.21	781.74
438.40	744.29
438.58	793.44
438.77	716.20
438.96	730.25
439.14	730.25
439.33	786.42
439.52	786.42
439.70	734.93
439.89	657.69
440.08	655.35
440.26	781.74
440.45	662.37
440.63	685.78
440.82	816.85
441.01	758.33
441.19	699.82
441.38	770.04
441.57	802.80
441.75	784.08
441.94	840.25
442.12	767.70
442.31	870.68
442.50	835.57
442.68	873.02
442.87	861.32
443.05	772.38
443.24	791.10
443.43	877.70
443.61	868.34
443.80	849.61
443.98	737.27
444.17	861.32
444.35	779.40
444.54	784.08
444.73	809.83
444.91	830.89
445.10	819.19
445.28	856.64
445.47	882.38
445.65	875.36
445.84	826.21
446.02	784.08
446.21	898.77
446.39	758.33
446.58	877.70
446.77	875.36
446.95	741.95
447.14	870.68
447.32	868.34
447.51	875.36
447.69	936.21
447.88	933.87
448.06	915.15
448.25	873.02
448.43	866.00
448.62	858.98
448.80	887.06
448.99	861.32
449.17	870.68
449.36	835.57
449.54	868.34
449.73	901.11
449.91	896.43
450.10	882.38
450.28	1001.75
450.46	884.72
450.65	851.96
450.83	863.66
451.02	971.32
451.20	945.58
451.39	952.60
451.57	812.17
451.76	901.11
451.94	966.64
452.13	964.30
452.31	917.49
452.49	1036.86
452.68	919.83
452.86	863.66
453.05	957.28
453.23	880.04
453.42	980.68
453.60	980.68
453.78	952.60
453.97	840.25
454.15	901.11
454.34	976.00
454.52	952.60
454.70	968.98
454.89	973.66
455.07	994.73
455.26	896.43
455.44	957.28
455.62	992.39
455.81	933.87
455.99	917.49
456.17	966.64
456.36	976.00
456.54	1086.01
456.73	1032.18
456.91	1036.86
457.09	992.39
457.28	1015.79
457.46	997.07
457.64	1027.50
457.83	1022.81
458.01	1041.54
458.19	1027.50
458.38	1029.84
458.56	1046.22
458.74	1027.50
458.93	1032.18
459.11	1029.84
459.29	1032.18
459.48	1053.24
459.66	1034.52
459.84	1039.20
460.03	1151.54
460.21	1060.26
460.39	1067.28
460.57	1167.93
460.76	1086.01
460.94	1039.20
461.12	1095.37
461.31	1137.50
461.49	1102.39
461.67	1191.33
461.85	1078.99
462.04	1144.52
462.22	1563.48
462.40	1139.84
462.59	1139.84
462.77	980.68
462.95	1067.28
463.13	1207.72
463.32	1015.79
463.50	1186.65
463.68	1170.27
463.86	1132.82
464.05	1069.62
464.23	1132.82
464.41	1184.31
464.59	1041.54
464.78	1142.18
464.96	1137.50
465.14	1217.08
465.32	1221.76
465.50	1090.69
465.69	1193.67
465.87	1144.52
466.05	1210.06
466.23	1097.71
466.41	1041.54
466.60	1259.21
466.78	1221.76
466.96	1125.80
467.14	1107.07
467.32	1165.59
467.51	1172.61
467.69	1086.01
467.87	1217.08
468.05	1238.14
468.23	1207.72
468.41	1116.44
468.60	1174.95
468.78	1268.57
468.96	1242.82
469.14	1198.35
469.32	1247.51
469.50	1165.59
469.69	1256.87
469.87	1233.46
470.05	1247.51
470.23	1200.69
470.41	1254.53
470.59	1242.82
470.77	1256.87
470.95	1217.08
471.14	1327.08
471.32	1210.06
471.50	1308.36
471.68	1284.95
471.86	1231.12
472.04	1301.34
472.22	1219.42
472.40	1179.63
472.58	1268.57
472.77	1303.68
472.95	1207.72
473.13	1387.94
473.31	1254.53
473.49	1336.45
473.67	1256.87
473.85	1270.91
474.03	1401.98
474.21	1383.26
474.39	1451.13
474.57	1418.36
474.75	1359.85
474.93	1249.85
475.12	1366.87
475.30	1394.96
475.48	1406.66
475.66	1458.15
475.84	1416.02
476.02	1535.39
476.20	1392.62
476.38	1289.64
476.56	1516.67
476.74	1439.43
476.92	1380.92
477.10	1542.41
477.28	1523.69
477.46	1453.47
477.64	1575.18
477.82	1565.82
478.00	1502.62
478.18	1441.77
478.36	1584.54
478.54	1486.24
478.72	1584.54
478.90	1540.07
479.08	1610.29
479.26	1572.84
479.44	1570.50
479.62	1610.29
479.80	1511.99
479.98	1600.93
480.16	1624.33
480.34	1631.35
480.52	1598.59
480.70	1692.21
480.88	1680.50
481.06	1776.47
481.24	1741.36
481.41	1664.12
481.59	1706.25
481.77	1689.87
481.95	1647.74
482.13	1844.34
482.31	1783.49
482.49	1785.83
482.67	1811.57
482.85	1914.56
483.03	1874.77
483.21	1881.79
483.39	1849.02
483.57	1881.79
483.74	2036.27
483.92	1977.75
484.10	1933.28
484.28	1966.05
484.46	1991.80
484.64	2097.12
484.82	1977.75
485.00	1909.88
485.18	1982.43
485.35	2120.53
485.53	2092.44
485.71	2097.12
485.89	2069.03
486.07	2237.55
486.25	2256.28
486.43	2155.63
486.61	2097.12
486.78	2162.66
486.96	2176.70
487.14	2232.87
487.32	2223.51
487.50	2153.29
487.68	2277.34
487.85	2333.51
488.03	2296.07
488.21	2310.11
488.39	2296.07
488.57	2188.40
488.75	2265.64
488.92	2647.15
489.10	2347.56
489.28	2466.92
489.46	2373.30
489.64	2417.77
489.81	2480.97
489.99	2518.42
490.17	2434.16
490.35	2574.59
490.53	2483.31
490.70	2602.68
490.88	2602.68
491.06	2684.59
491.24	2530.12
491.41	2450.54
491.59	2525.44
491.77	2396.71
491.95	2464.58
492.13	2567.57
492.30	2696.30
492.48	2541.82
492.66	2586.29
492.84	2602.68
493.01	2616.72
493.19	2675.23
493.37	2668.21
493.54	2619.06
493.72	2761.83
493.90	2588.63
494.08	2693.96
494.25	2717.36
494.43	2810.98
494.61	2864.82
494.79	2815.66
494.96	2803.96
495.14	2726.72
495.32	2841.41
495.49	2862.48
495.67	2782.90
495.85	2871.84
496.02	2885.88
496.20	2808.64
496.38	2923.33
496.55	2836.73
496.73	2988.86
496.91	2906.95
497.09	2956.10
497.26	3080.14
497.44	2944.39
497.62	3033.33
497.79	2920.99
497.97	2949.08
498.14	3089.51
498.32	3080.14
498.50	3141.00
498.67	3131.64
498.85	3138.66
499.03	3082.49
499.20	3082.49
499.38	3052.06
499.56	3138.66
499.73	3236.96
499.91	3274.41
500.08	3176.11
500.26	3084.83
500.44	3190.15
500.61	3124.62
500.79	3192.49
500.97	3262.71
501.14	3222.92
501.32	3136.32
501.49	3363.35
501.67	3220.58
501.84	3309.52
502.02	3290.79
502.20	3332.92
502.37	3234.62
502.55	3344.63
502.72	3262.71
502.90	3398.46
503.07	3243.98
503.25	3302.50
503.43	3300.16
503.60	3417.18
503.78	3239.30
503.95	3311.86
504.13	3414.84
504.30	3501.44
504.48	3393.78
504.65	3447.61
504.83	3599.74
505.01	3461.65
505.18	3393.78
505.36	3506.12
505.53	3463.99
505.71	3447.61
505.88	3531.87
506.06	3529.53
506.23	3562.30
506.41	3602.08
506.58	3534.21
506.76	3442.93
506.93	3531.87
507.11	3405.48
507.28	3538.89
507.46	3545.91
507.63	3552.93
507.81	3585.70
507.98	3541.23
508.16	3552.93
508.33	3644.21
508.50	3541.23
508.68	3676.98
508.85	3695.71
509.03	3712.09
509.20	3669.96
509.38	3705.07
509.55	3786.99
509.73	3808.05
509.90	3728.47
510.08	3815.07
510.25	3723.79
510.42	3637.19
510.60	3758.90
510.77	3786.99
510.95	3712.09
511.12	3620.81
511.30	3765.92
511.47	3709.75
511.64	3871.25
511.82	3875.93
511.99	3758.90
512.17	3751.88
512.34	3789.33
512.51	3927.42
512.69	3852.52
512.86	3969.55
513.04	3845.50
513.21	3871.25
513.38	3892.31
513.56	4002.32
513.73	3974.23
513.90	3896.99
514.08	3875.93
514.25	3934.44
514.43	3922.74
514.60	4060.83
514.77	3915.72
514.95	3997.64
515.12	3995.29
515.29	4011.68
515.47	3955.51
515.64	4067.85
515.81	4067.85
515.99	3896.99
516.16	4032.74
516.33	4081.89
516.51	4072.53
516.68	4042.11
516.85	4053.81
517.03	4070.19
517.20	4217.65
517.37	4175.52
517.54	4292.54
517.72	4105.30
517.89	4070.19
518.06	4114.66
518.24	4210.62
518.41	4070.19
518.58	4259.78
518.75	4149.77
518.93	4219.99
519.10	4236.37
519.27	4201.26
519.45	4173.18
519.62	4241.05
519.79	4278.50
519.96	4128.70
520.14	4294.88
520.31	4395.53
520.48	4255.09
520.65	4325.31
520.83	4245.73
521.00	4369.78
521.17	4271.48
521.34	4257.43
521.52	4325.31
521.69	4250.41
521.86	4264.46
522.03	4243.39
522.20	4456.38
522.38	4372.12
522.55	4456.38
522.72	4402.55
522.89	4402.55
523.07	4435.32
523.24	4491.49
523.41	4365.10
523.58	4442.34
523.75	4634.26
523.92	4472.76
524.10	4442.34
524.27	4535.96
524.44	4550.00
524.61	4498.51
524.78	4484.47
524.96	4587.45
525.13	4601.49
525.30	4540.64
525.47	4629.58
525.64	4568.73
525.81	4566.39
525.98	4521.92
526.16	4491.49
526.33	4489.15
526.50	4472.76
526.67	4440.00
526.84	4512.55
527.01	4451.70
527.18	4641.28
527.36	4528.94
527.53	4631.92
527.70	4561.70
527.87	4678.73
528.04	4730.22
528.21	4510.21
528.38	4585.11
528.55	4578.09
528.72	4660.01
528.89	4568.73
529.07	4779.37
529.24	4500.85
529.41	4624.90
529.58	4753.63
529.75	4758.31
529.92	4741.93
530.09	4734.90
530.26	4739.58
530.43	4777.03
530.60	4753.63
530.77	4664.69
530.94	4650.64
531.11	4894.06
531.28	4765.33
531.46	4770.01
531.63	4791.08
531.80	4711.50
531.97	4772.35
532.14	4887.04
532.31	4854.27
532.48	4819.16
532.65	4793.42
532.82	4615.54
532.99	4695.11
533.16	4908.10
533.33	4905.76
533.50	4793.42
533.67	4858.95
533.84	4690.43
534.01	4856.61
534.18	4849.59
534.35	4861.29
534.52	4840.23
534.69	4880.02
534.86	4952.57
535.03	4873.00
535.20	4877.68
535.37	4922.15
535.54	4957.25
535.71	4901.08
535.88	5076.62
536.05	4884.70
536.22	5060.24
536.38	5078.96
536.55	4772.35
536.72	5130.45
536.89	4704.48
537.06	5097.69
537.23	5128.11
537.40	5078.96
537.57	5109.39
537.74	4959.60
537.91	5132.79
538.08	5043.85
538.25	5104.71
538.42	5011.09
538.59	5097.69
538.75	5093.01
538.92	5067.26
539.09	5177.26
539.26	5259.18
539.43	5198.33
539.60	5350.46
539.77	5226.42
539.94	5184.29
540.11	5338.76
540.28	5472.17
540.44	5334.08
540.61	5341.10
540.78	5467.49
540.95	5488.56
541.12	5746.02
541.29	5666.44
541.46	5746.02
541.62	5668.78
541.79	5755.38
541.96	5673.46
542.13	5687.50
542.30	5734.31
542.47	5680.48
542.63	5610.26
542.80	5888.79
542.97	5762.40
543.14	5694.52
543.31	5907.51
543.48	5769.42
543.64	5659.42
543.81	5706.23
543.98	5781.12
544.15	5767.08
544.32	5722.61
544.48	5860.70
544.65	5788.14
544.82	5846.66
544.99	5636.01
545.16	5860.70
545.32	5783.46
545.49	6340.51
545.66	6745.42
545.83	6953.73
546.00	6949.05
546.16	6310.08
546.33	5933.26
546.50	5755.38
546.67	5673.46
546.83	5502.60
547.00	5502.60
547.17	5652.39
547.34	5547.07
547.50	5589.20
547.67	5570.48
547.84	5446.43
548.00	5638.35
548.17	5542.39
548.34	5521.32
548.51	5617.29
548.67	5535.37
548.84	5540.05
549.01	5696.86
549.18	5416.00
549.34	5444.09
549.51	5486.22
549.68	5533.03
549.84	5540.05
550.01	5423.02
550.18	5654.73
550.34	5636.01
550.51	5533.03
550.68	5504.94
550.84	5425.36
551.01	5481.53
551.18	5558.77
551.34	5310.68
551.51	5523.66
551.68	5259.18
551.84	5558.77
552.01	5390.25
552.18	5509.62
552.34	5556.43
552.51	5626.65
552.68	5467.49
552.84	5399.62
553.01	5465.15
553.18	5474.51
553.34	5504.94
553.51	5490.90
553.67	5504.94
553.84	5577.50
554.01	5540.05
554.17	5476.85
554.34	5282.59
554.51	5357.49
554.67	5528.35
554.84	5558.77
555.00	5589.20
555.17	5434.72
555.33	5547.07
555.50	5518.98
555.67	5495.58
555.83	5399.62
556.00	5366.85
556.16	5792.83
556.33	5369.19
556.50	5420.68
556.66	5551.75
556.83	5533.03
556.99	5631.33
557.16	5469.83
557.32	5495.58
557.49	5511.96
557.65	5219.39
557.82	5420.68
557.98	5469.83
558.15	5458.13
558.32	5296.63
558.48	5385.57
558.65	5703.89
558.81	5423.02
558.98	5387.91
559.14	5401.96
559.31	5437.06
559.47	5659.42
559.64	5488.56
559.80	5460.47
559.97	5493.24
560.13	5509.62
560.30	5479.19
560.46	5343.44
560.63	5551.75
560.79	5462.81
560.96	5518.98
561.12	5483.88
561.29	5444.09
561.45	5315.36
561.61	5518.98
561.78	5671.12
561.94	5483.88
562.11	5565.79
562.27	5521.32
562.44	5434.72
562.60	5430.04
562.77	5465.15
562.93	5600.90
563.10	5727.29
563.26	5490.90
563.42	5762.40
563.59	5607.92
563.75	5507.28
563.92	5685.16
564.08	5549.41
564.24	5556.43
564.41	5469.83
564.57	5474.51
564.74	5392.59
564.90	5380.89
565.07	5458.13
565.23	5462.81
565.39	5427.70
565.56	5593.88
565.72	5465.15
565.88	5706.23
566.05	5411.32
566.21	5467.49
566.38	5540.05
566.54	5479.19
566.70	5556.43
566.87	5544.73
567.03	5530.69
567.19	5554.09
567.36	5659.42
567.52	5638.35
567.68	5556.43
567.85	5530.69
568.01	5617.29
568.17	5504.94
568.34	5647.71
568.50	5593.88
568.66	5495.58
568.83	5743.67
568.99	5476.85
569.15	5582.18
569.32	5558.77
569.48	5584.52
569.64	5645.37
569.81	5516.64
569.97	5551.75
570.13	5507.28
570.30	5504.94
570.46	5589.20
570.62	5472.17
570.78	5593.88
570.95	5373.87
571.11	5544.73
571.27	5458.13
571.43	5521.32
571.60	5448.77
571.76	5554.09
571.92	5621.97
572.09	5563.45
572.25	5547.07
572.41	5619.63
572.57	5614.95
572.74	5657.07
572.90	5579.84
573.06	5584.52
573.22	5586.86
573.38	5542.39
573.55	5701.54
573.71	5708.57
573.87	5710.91
574.03	5526.00
574.20	5600.90
574.36	5661.76
574.52	5387.91
574.68	5355.15
574.84	5579.84
575.01	5518.98
575.17	5469.83
575.33	5516.64
575.49	5607.92
575.65	5554.09
575.82	5624.31
575.98	5584.52
576.14	5680.48
576.30	5659.42
576.46	5792.83
576.62	5734.31
576.79	5792.83
576.95	5713.25
577.11	5579.84
577.27	5633.67
577.43	5521.32
577.59	5727.29
577.75	5556.43
577.92	5661.76
578.08	5479.19
578.24	5547.07
578.40	5797.51
578.56	5710.91
578.72	6043.26
578.88	5902.83
579.04	5830.27
579.21	5797.51
579.37	5647.71
579.53	5668.78
579.69	5631.33
579.85	5762.40
580.01	5799.85
580.17	5589.20
580.33	5706.23
580.49	5673.46
580.65	5497.92
580.82	5839.64
580.98	5584.52
581.14	5619.63
581.30	5762.40
581.46	5774.10
581.62	5614.95
581.78	5568.13
581.94	5680.48
582.10	5577.50
582.26	5769.42
582.42	5687.50
582.58	5694.52
582.74	5715.59
582.90	5724.95
583.06	5703.89
583.22	5652.39
583.38	5713.25
583.54	5654.73
583.70	5809.21
583.86	5692.18
584.02	5612.60
584.18	5720.27
584.34	5687.50
584.50	5666.44
584.66	5748.36
584.82	5715.59
584.98	5643.03
585.14	5668.78
585.30	5579.84
585.46	5605.58
585.62	5746.02
585.78	5633.67
585.94	5666.44
586.10	5572.82
586.26	5647.71
586.42	5912.19
586.58	5736.65
586.74	5816.23
586.90	5753.04
587.06	5844.32
587.22	5729.63
587.38	5769.42
587.54	5795.17
587.70	5696.86
587.86	5720.27
588.02	5661.76
588.18	5657.07
588.34	5568.13
588.49	5631.33
588.65	5521.32
588.81	5603.24
588.97	5589.20
589.13	5647.71
589.29	5657.07
589.45	5509.62
589.61	5561.11
589.77	5692.18
589.93	5685.16
590.08	5806.87
590.24	5891.13
590.40	5661.76
590.56	5717.93
590.72	5713.25
590.88	5673.46
591.04	5612.60
591.20	5673.46
591.35	5816.23
591.51	5762.40
591.67	5661.76
591.83	5849.00
591.99	5628.99
592.15	5502.60
592.31	5734.31
592.46	5813.89
592.62	5827.93
592.78	5734.31
592.94	5856.02
593.10	5678.14
593.26	5664.10
593.41	5682.82
593.57	5767.08
593.73	5654.73
593.89	5806.87
594.05	5717.93
594.20	5650.05
594.36	5680.48
594.52	5591.54
594.68	5755.38
594.84	5610.26
594.99	5647.71
595.15	5673.46
595.31	5790.49
595.47	5703.89
595.62	5593.88
595.78	5731.97
595.94	5671.12
596.10	5657.07
596.25	5685.16
596.41	5671.12
596.57	5556.43
596.73	5589.20
596.88	5820.91
597.04	5549.41
597.20	5607.92
597.36	5614.95
597.51	5762.40
597.67	5748.36
597.83	5680.48
597.99	5738.99
598.14	5551.75
598.30	5804.53
598.46	5561.11
598.61	5563.45
598.77	5767.08
598.93	5633.67
599.09	5673.46
599.24	5640.69
599.40	5750.70
599.56	5734.31
599.71	5500.26
599.87	5556.43
600.03	5703.89
600.18	5448.77
600.34	5813.89
600.50	5689.84
600.65	5591.54
600.81	5614.95
600.97	5652.39
601.12	5687.50
601.28	5582.18
601.44	5638.35
