SpectraSuite Data File
++++++++++++++++++++++++++++++++++++
Date: Tue Oct 01 18:27:25 GMT-05:00 2013
User: stostad
Dark Spectrum Present: No
Reference Spectrum Present: No
Number of Sampled Component Spectra: 1
Spectrometers: USB2+H05261
Integration Time (usec): 100000 (USB2+H05261)
Spectra Averaged: 1 (USB2+H05261)
Boxcar Smoothing: 0 (USB2+H05261)
Correct for Electrical Dark: No (USB2+H05261)
Strobe/Lamp Enabled: No (USB2+H05261)
Correct for Detector Non-linearity: No (USB2+H05261)
Correct for Stray Light: No (USB2+H05261)
Number of Pixels in Processed Spectrum: 2048
>>>>>Begin Processed Spectral Data<<<<<
365.73	93.62
365.92	93.62
366.12	93.62
366.32	0.00
366.52	0.00
366.72	0.00
366.91	0.00
367.11	0.00
367.31	0.00
367.51	0.00
367.70	28.09
367.90	0.00
368.10	0.00
368.30	0.00
368.49	0.00
368.69	39.79
368.89	0.00
369.09	0.00
369.28	0.00
369.48	0.00
369.68	0.00
369.87	46.81
370.07	0.00
370.27	131.07
370.47	243.42
370.66	231.71
370.86	294.91
371.06	330.02
371.25	358.10
371.45	224.69
371.65	360.44
371.84	334.70
372.04	306.61
372.24	346.40
372.44	315.97
372.63	388.53
372.83	414.27
373.03	395.55
373.22	454.06
373.42	379.17
373.62	390.87
373.81	461.09
374.01	456.40
374.21	444.70
374.40	409.59
374.60	477.47
374.79	472.79
374.99	430.66
375.19	465.77
375.38	447.04
375.58	451.72
375.78	524.28
375.97	442.36
376.17	589.82
376.37	482.15
376.56	524.28
376.76	374.49
376.95	440.02
377.15	517.26
377.35	475.13
377.54	528.96
377.74	442.36
377.93	491.51
378.13	510.24
378.33	533.64
378.52	528.96
378.72	505.56
378.91	484.49
379.11	472.79
379.31	479.81
379.50	496.19
379.70	575.77
379.89	538.32
380.09	533.64
380.28	543.00
380.48	580.45
380.68	444.70
380.87	564.07
381.07	573.43
381.26	557.05
381.46	575.77
381.65	589.82
381.85	566.41
382.04	648.33
382.24	599.18
382.43	528.96
382.63	543.00
382.83	538.32
383.02	554.71
383.22	648.33
383.41	545.34
383.61	643.65
383.80	610.88
384.00	622.58
384.19	648.33
384.39	559.39
384.58	641.31
384.78	573.43
384.97	622.58
385.17	596.84
385.36	585.13
385.56	643.65
385.75	587.47
385.95	608.54
386.14	575.77
386.34	727.91
386.53	723.23
386.72	543.00
386.92	643.65
387.11	734.93
387.31	657.69
387.50	706.84
387.70	685.78
387.89	617.90
388.09	662.37
388.28	657.69
388.48	723.23
388.67	784.08
388.86	704.50
389.06	645.99
389.25	711.52
389.45	711.52
389.64	732.59
389.84	793.44
390.03	791.10
390.22	786.42
390.42	884.72
390.61	812.17
390.81	767.70
391.00	809.83
391.19	793.44
391.39	891.74
391.58	758.33
391.78	795.78
391.97	805.14
392.16	858.98
392.36	887.06
392.55	826.21
392.75	858.98
392.94	919.83
393.13	842.59
393.33	809.83
393.52	901.11
393.71	964.30
393.91	964.30
394.10	884.72
394.29	851.96
394.49	950.26
394.68	952.60
394.88	910.47
395.07	908.13
395.26	950.26
395.46	1041.54
395.65	1046.22
395.84	961.96
396.04	1025.15
396.23	1034.52
396.42	1011.11
396.62	1011.11
396.81	1153.88
397.00	1041.54
397.19	1074.31
397.39	1043.88
397.58	1107.07
397.77	1018.13
397.97	1039.20
398.16	1109.41
398.35	1081.33
398.55	1076.65
398.74	1104.73
398.93	1210.06
399.12	1256.87
399.32	1088.35
399.51	1135.16
399.70	1100.05
399.90	1109.41
400.09	1191.33
400.28	1263.89
400.47	1235.80
400.67	1233.46
400.86	1181.97
401.05	1181.97
401.24	1226.44
401.44	1284.95
401.63	1310.70
401.82	1310.70
402.01	1296.66
402.21	1338.79
402.40	1378.58
402.59	1327.08
402.78	1317.72
402.97	1371.55
403.17	1355.17
403.36	1341.13
403.55	1425.39
403.74	1497.94
403.93	1474.54
404.13	1533.05
404.32	1502.62
404.51	1490.92
404.70	1624.33
404.89	1551.78
405.09	1610.29
405.28	1626.67
405.47	1570.50
405.66	1563.48
405.85	1586.88
406.05	1488.58
406.24	1624.33
406.43	1657.10
406.62	1645.40
406.81	1643.06
407.00	1673.48
407.20	1643.06
407.39	1743.70
407.58	1757.74
407.77	1867.75
407.96	1823.28
408.15	1907.54
408.34	1710.93
408.54	1818.60
408.73	1811.57
408.92	1863.07
409.11	1912.22
409.30	1858.39
409.49	1867.75
409.68	1963.71
409.87	1959.03
410.07	2001.16
410.26	2047.97
410.45	2064.35
410.64	2047.97
410.83	2127.55
411.02	2122.87
411.21	2127.55
411.40	2122.87
411.59	2176.70
411.78	2214.15
411.98	2129.89
412.17	2253.94
412.36	2160.31
412.55	2284.36
412.74	2445.86
412.93	2244.57
413.12	2253.94
413.31	2607.36
413.50	2429.48
413.69	2448.20
413.88	2480.97
414.07	2509.05
414.26	2457.56
414.45	2506.71
414.64	2537.14
414.83	2663.53
415.02	2661.19
415.22	2740.77
415.41	2647.15
415.60	2719.70
415.79	2719.70
415.98	2808.64
416.17	2705.66
416.36	2761.83
416.55	2874.18
416.74	2785.24
416.93	2836.73
417.12	2808.64
417.31	2775.88
417.50	2904.60
417.69	2946.73
417.88	2937.37
418.07	2862.48
418.26	2970.14
418.45	2963.12
418.64	3136.32
418.83	3112.91
419.02	3171.43
419.21	3169.09
419.39	3304.84
419.58	3080.14
419.77	3035.67
419.96	3080.14
420.15	3300.16
420.34	3269.73
420.53	3281.43
420.72	3311.86
420.91	3349.31
421.10	3295.47
421.29	3396.12
421.48	3253.34
421.67	3407.82
421.86	3377.39
422.05	3445.27
422.24	3449.95
422.43	3344.63
422.61	3428.88
422.80	3475.70
422.99	3407.82
423.18	3562.30
423.37	3513.14
423.56	3510.80
423.75	3510.80
423.94	3562.30
424.13	3192.49
424.32	3330.58
424.50	3606.77
424.69	3604.42
424.88	3667.62
425.07	3578.68
425.26	3475.70
425.45	3494.42
425.64	3581.02
425.83	3494.42
426.01	3641.87
426.20	3655.92
426.39	3578.68
426.58	3712.09
426.77	3730.81
426.96	3723.79
427.15	3538.89
427.33	3815.07
427.52	3693.37
427.71	3744.86
427.90	3836.14
428.09	3707.41
428.28	3805.71
428.46	3845.50
428.65	3845.50
428.84	3955.51
429.03	4046.79
429.22	3843.16
429.40	3843.16
429.59	3939.12
429.78	3744.86
429.97	3899.33
430.16	3885.29
430.34	3992.95
430.53	4014.02
430.72	4042.11
430.91	4077.21
431.10	4039.76
431.28	4152.11
431.47	4058.49
431.66	4215.30
431.85	4107.64
432.03	4393.19
432.22	4358.08
432.41	4156.79
432.60	4142.75
432.79	4283.18
432.97	4322.97
433.16	4257.43
433.35	4304.25
433.54	4465.74
433.72	4271.48
433.91	4484.47
434.10	4479.79
434.28	4409.57
434.47	4421.27
434.66	4444.68
434.85	4615.54
435.03	4676.39
435.22	4575.75
435.41	4613.20
435.59	4547.66
435.78	4498.51
435.97	4557.02
436.16	4596.81
436.34	4582.77
436.53	4620.22
436.72	4795.76
436.90	4723.20
437.09	4603.83
437.28	4669.37
437.46	4739.58
437.65	4903.42
437.84	4807.46
438.02	4898.74
438.21	4842.57
438.40	4847.25
438.58	4833.21
438.77	5011.09
438.96	4837.89
439.14	5025.13
439.33	5198.33
439.52	5071.94
439.70	5132.79
439.89	5301.31
440.08	5364.51
440.26	5266.21
440.45	5357.49
440.63	5366.85
440.82	5514.30
441.01	5380.89
441.19	5455.79
441.38	5692.18
441.57	5696.86
441.75	5533.03
441.94	5703.89
442.12	5703.89
442.31	5696.86
442.50	5818.57
442.68	5687.50
442.87	5692.18
443.05	5851.34
443.24	5994.11
443.43	5743.67
443.61	5966.03
443.80	6139.23
443.98	6054.97
444.17	5713.25
444.35	6005.81
444.54	6118.16
444.73	5991.77
444.91	6015.18
445.10	6061.99
445.28	5926.24
445.47	5996.45
445.65	5961.34
445.84	6146.25
446.02	6139.23
446.21	6099.44
446.39	6038.58
446.58	6097.10
446.77	6122.84
446.95	5984.75
447.14	6188.38
447.32	6113.48
447.51	6078.37
447.69	6069.01
447.88	6260.93
448.06	6314.77
448.25	6225.82
448.43	6291.36
448.62	6134.54
448.80	6157.95
448.99	6162.63
449.17	6223.48
449.36	6204.76
449.54	6509.03
449.73	6403.71
449.91	6506.69
450.10	6637.76
450.28	6494.99
450.46	6480.94
450.65	6487.96
450.83	6569.88
451.02	6516.05
451.20	6684.57
451.39	6565.20
451.57	6640.10
451.76	6583.93
451.94	6569.88
452.13	6780.53
452.31	6759.47
452.49	6574.56
452.68	6771.17
452.86	6792.23
453.05	6923.30
453.23	6766.49
453.42	6782.87
453.60	6832.02
453.78	6850.75
453.97	6864.79
454.15	7091.82
454.34	6810.96
454.52	6965.43
454.70	6874.15
454.89	6984.16
455.07	7140.97
455.26	7108.21
455.44	7164.38
455.62	7279.07
455.81	7260.34
455.99	7052.03
456.17	7311.83
456.36	7300.13
456.54	7428.86
456.73	7316.51
456.91	7641.85
457.09	7576.31
457.28	7765.90
457.46	7550.57
457.64	7702.70
457.83	7672.28
458.01	7461.63
458.19	7819.73
458.38	7772.92
458.56	7786.96
458.74	7936.76
458.93	7810.37
459.11	7618.44
459.29	7779.94
459.48	7763.56
459.66	8091.23
459.84	7953.14
460.03	8058.46
460.21	7817.39
460.39	7857.18
460.57	7908.67
460.76	8030.38
460.94	8032.72
461.12	7981.23
461.31	8065.49
461.49	8037.40
461.67	8037.40
461.85	8383.80
462.04	8102.93
462.22	8777.01
462.40	8526.57
462.59	8346.35
462.77	8439.97
462.95	8236.35
463.13	8414.23
463.32	8482.10
463.50	8421.25
463.68	8435.29
463.86	8446.99
464.05	8498.49
464.23	8435.29
464.41	8542.96
464.59	8376.78
464.78	8711.47
464.96	8561.68
465.14	8580.40
465.32	8781.69
465.50	8823.82
465.69	8828.50
465.87	8594.45
466.05	8648.28
466.23	8659.98
466.41	8734.88
466.60	9018.08
466.78	8767.65
466.96	8725.52
467.14	8725.52
467.32	9027.45
467.51	9013.40
467.69	8922.12
467.87	9013.40
468.05	9032.13
468.23	9060.21
468.41	8964.25
468.60	9032.13
468.78	9240.44
468.96	9053.19
469.14	9303.63
469.32	9174.90
469.50	9088.30
469.69	9619.60
469.87	9638.33
470.05	9401.93
470.23	9369.16
470.41	9523.64
470.59	9628.96
470.77	9528.32
470.95	9781.10
471.14	9745.99
471.32	9743.65
471.50	10045.58
471.68	9736.63
471.86	9841.95
472.04	9666.41
472.22	10024.51
472.40	9970.68
472.58	10031.54
472.77	10094.73
472.95	10202.40
473.13	10579.22
473.31	10148.56
473.49	10347.51
473.67	10274.95
473.85	10214.10
474.03	10558.16
474.21	10450.49
474.39	10485.60
474.57	10736.04
474.75	10736.04
474.93	10740.72
475.12	10583.90
475.30	11070.73
475.48	10946.69
475.66	10984.13
475.84	10946.69
476.02	11391.39
476.20	11124.57
476.38	11428.84
476.56	11648.85
476.74	11555.22
476.92	11492.03
477.10	11351.60
477.28	11716.72
477.46	11550.54
477.64	11847.79
477.82	11805.66
478.00	12311.22
478.18	12018.65
478.36	12250.36
478.54	12311.22
478.72	12519.53
478.90	12542.93
479.08	12746.56
479.26	12669.32
479.44	12631.87
479.62	12769.96
479.80	12968.91
479.98	12961.89
480.16	13144.45
480.34	13352.76
480.52	13556.38
480.70	13369.14
480.88	13305.95
481.06	13563.40
481.24	13446.38
481.41	13797.46
481.59	14127.47
481.77	14134.50
481.95	14008.11
482.13	14277.27
482.31	14295.99
482.49	14588.56
482.67	14443.45
482.85	14841.34
483.03	15211.14
483.21	14984.11
483.39	15019.22
483.57	15330.51
483.74	15180.71
483.92	15646.48
484.10	15272.00
484.28	15864.15
484.46	15946.07
484.64	16236.30
484.82	16152.04
485.00	16079.48
485.18	16533.54
485.35	16615.46
485.53	16711.42
485.71	16617.80
485.89	17202.94
486.07	16823.77
486.25	17181.87
486.43	17268.47
486.61	17282.52
486.78	17537.63
486.96	17394.86
487.14	17579.76
487.32	17942.55
487.50	18200.01
487.68	18127.45
487.85	18326.39
488.03	18574.49
488.21	18499.59
488.39	18838.97
488.57	19051.96
488.75	18820.25
488.92	19180.69
489.10	19370.27
489.28	19550.49
489.46	19658.16
489.64	19522.41
489.81	20236.27
489.99	20259.68
490.17	20255.00
490.35	20400.11
490.53	20568.63
490.70	20751.19
490.88	20538.20
491.06	20950.14
491.24	20711.40
491.41	21074.18
491.59	21315.26
491.77	21319.94
491.95	21371.43
492.13	21743.58
492.30	21490.80
492.48	21846.56
492.66	21921.46
492.84	22036.14
493.01	22221.05
493.19	21984.65
493.37	22595.53
493.54	22682.13
493.72	23061.30
493.90	22930.23
494.08	23030.87
494.25	23515.36
494.43	22944.27
494.61	23332.80
494.79	23529.41
494.96	23611.32
495.14	23880.49
495.32	23896.87
495.49	24240.93
495.67	24325.19
495.85	24247.95
496.02	24652.86
496.20	24650.52
496.38	24641.16
496.55	24992.24
496.73	25240.34
496.91	25385.45
497.09	25352.68
497.26	25448.64
497.44	25387.79
497.62	25521.20
497.79	25837.17
497.97	26246.77
498.14	26171.87
498.32	26590.83
498.50	26422.31
498.67	26312.30
498.85	26115.70
499.03	26946.59
499.20	26635.30
499.38	26555.72
499.56	27009.78
499.73	26881.05
499.91	27185.32
500.08	27571.51
500.26	26855.31
500.44	27868.76
500.61	27793.86
500.79	27667.47
500.97	27946.00
501.14	28264.31
501.32	28212.82
501.49	27950.68
501.67	28254.95
501.84	28243.24
502.02	28414.10
502.20	28350.91
502.37	28814.34
502.55	28243.24
502.72	29179.46
502.90	28435.17
503.07	28961.79
503.25	28704.33
503.43	29053.07
503.60	29268.40
503.78	29308.19
503.95	28861.15
504.13	29488.41
504.30	29656.93
504.48	29511.81
504.65	30202.27
504.83	29907.37
505.01	30368.45
505.18	30103.97
505.36	30218.66
505.53	30096.95
505.71	30291.21
505.88	30923.16
506.06	30492.50
506.23	31047.21
506.41	30871.67
506.58	30831.88
506.76	31363.18
506.93	30918.48
507.11	30890.39
507.28	31122.10
507.46	30925.50
507.63	31470.84
507.81	31594.89
507.98	31103.38
508.16	31541.06
508.33	31838.31
508.50	31857.03
508.68	31833.63
508.85	32290.03
509.03	32268.97
509.20	32112.15
509.38	32442.17
509.55	32470.25
509.73	32697.28
509.90	32760.48
510.08	32669.20
510.25	32713.67
510.42	33013.26
510.60	32950.06
510.77	33160.71
510.95	33525.83
511.12	33074.11
511.30	33172.41
511.47	33207.52
511.64	33436.89
511.82	33820.74
511.99	33717.76
512.17	34003.30
512.34	34155.44
512.51	34197.57
512.69	34237.36
512.86	34415.24
513.04	34574.39
513.21	34457.37
513.38	34359.06
513.56	34555.67
513.73	34176.50
513.90	34827.17
514.08	34593.12
514.25	35297.62
514.43	34946.54
514.60	34986.33
514.77	34817.81
514.95	35168.89
515.12	35112.72
515.29	35168.89
515.47	35821.90
515.64	36100.42
515.81	35580.82
515.99	35927.22
516.16	36037.23
516.33	36177.66
516.51	35770.41
516.68	36123.83
516.85	36079.36
517.03	36418.74
517.20	36526.40
517.37	36275.96
517.54	36900.89
517.72	36596.62
517.89	36397.67
518.06	36505.34
518.24	36774.50
518.41	36699.60
518.58	36725.35
518.75	36545.12
518.93	37088.13
519.10	36931.31
519.27	37172.39
519.45	37385.38
519.62	37787.95
519.79	37750.50
519.96	37191.11
520.14	37701.35
520.31	37427.51
520.48	37897.95
520.65	38218.61
520.83	38124.99
521.00	37982.21
521.17	38073.49
521.34	38459.68
521.52	38377.76
521.69	38340.32
521.86	38574.37
522.03	38646.93
522.20	38864.60
522.38	38789.70
522.55	38972.26
522.72	39122.05
522.89	38972.26
523.07	39330.36
523.24	39349.09
523.41	38799.06
523.58	38820.13
523.75	39494.20
523.92	39505.90
524.10	39604.20
524.27	39442.71
524.44	39789.11
524.61	39871.03
524.78	40144.87
524.96	39763.36
525.13	39849.96
525.30	40645.74
525.47	40140.19
525.64	40378.92
525.81	40407.01
525.98	40187.00
526.16	40481.91
526.33	40584.89
526.50	40732.34
526.67	40222.11
526.84	40959.38
527.01	40753.41
527.18	40947.67
527.36	41074.06
527.53	40978.10
527.70	41085.76
527.87	40994.48
528.04	41191.09
528.21	41076.40
528.38	41415.78
528.55	41624.09
528.72	41088.10
528.89	41289.39
529.07	41069.38
529.24	41118.53
529.41	41469.61
529.58	41523.44
529.75	41951.76
529.92	41764.52
530.09	41759.84
530.26	41918.99
530.43	41942.40
530.60	41617.07
530.77	41883.89
530.94	42057.09
531.11	42454.98
531.28	42288.80
531.46	42131.98
531.63	42174.11
531.80	42548.60
531.97	42777.97
532.14	42784.99
532.31	42424.55
532.48	42768.61
532.65	42777.97
532.82	43077.56
532.99	43658.01
533.16	43295.23
533.33	42855.21
533.50	43466.09
533.67	42843.51
533.84	42972.24
534.01	42906.70
534.18	43421.62
534.35	44069.95
534.52	43807.81
534.69	43756.32
534.86	43814.83
535.03	43262.46
535.20	42960.53
535.37	42904.36
535.54	44116.76
535.71	43349.06
535.88	43871.00
536.05	43948.24
536.22	44189.31
536.38	44048.88
536.55	44327.41
536.72	44313.36
536.89	43885.04
537.06	43988.03
537.23	44463.16
537.40	44268.89
537.57	45022.54
537.74	43997.39
537.91	44739.34
538.08	44430.39
538.25	44552.10
538.42	44168.25
538.59	44851.69
538.75	44987.44
538.92	44715.93
539.09	45509.38
539.26	44739.34
539.43	44891.48
539.60	44722.96
539.77	44563.80
539.94	45031.91
540.11	45565.55
540.28	45432.14
540.44	45521.08
540.61	45394.69
540.78	45432.14
540.95	45631.08
541.12	45495.33
541.29	45439.16
541.46	45485.97
541.62	45572.57
541.79	45820.67
541.96	45287.03
542.13	46113.23
542.30	45448.52
542.47	45921.31
542.63	45858.12
542.80	45815.99
542.97	46321.54
543.14	46373.03
543.31	46363.67
543.48	46316.86
543.64	46674.96
543.81	46429.21
543.98	46487.72
544.15	46356.65
544.32	46597.73
544.48	46979.23
544.65	46824.76
544.82	46848.16
544.99	46309.84
545.16	46902.00
545.32	47002.64
545.49	47168.82
545.66	47334.99
545.83	46932.42
546.00	47159.45
546.16	46974.55
546.33	46745.18
546.50	46712.41
546.67	47285.84
546.83	46927.74
547.00	47026.04
547.17	47243.71
547.34	47058.81
547.50	47416.91
547.67	48002.05
547.84	47470.75
548.00	47325.63
548.17	47976.30
548.34	47714.16
548.51	47973.96
548.67	47938.85
548.84	47744.59
549.01	47646.29
549.18	47608.84
549.34	47601.82
549.51	47966.94
549.68	48072.26
549.84	48041.84
550.01	48264.19
550.18	47948.21
550.34	48016.09
550.51	47908.43
550.68	47948.21
550.84	47416.91
551.01	48289.93
551.18	47767.99
551.34	47899.06
551.51	48303.98
551.68	48172.91
551.84	48350.79
552.01	48149.50
552.18	48222.06
552.34	48156.52
552.51	48215.04
552.68	47978.64
552.84	48526.33
553.01	48421.00
553.18	48725.27
553.34	48715.91
553.51	48568.46
553.67	48303.98
553.84	48629.31
554.01	48896.13
554.17	48718.25
554.34	48940.60
554.51	48863.36
554.67	49202.74
554.84	49198.06
555.00	49209.76
555.17	49113.80
555.33	48659.74
555.50	49085.72
555.67	48685.48
555.83	49184.02
556.00	49069.33
556.16	48964.01
556.33	48980.39
556.50	48924.22
556.66	49600.63
556.83	48952.30
556.99	49368.92
557.16	49209.76
557.32	49078.69
557.49	49106.78
557.65	49720.00
557.82	49375.94
557.98	49490.63
558.15	49446.16
558.32	49705.96
558.48	49705.96
558.65	49602.97
558.81	49352.54
558.98	49769.15
559.14	49602.97
559.31	49825.32
559.47	49897.88
559.64	49855.75
559.80	49947.03
559.97	49654.47
560.13	49830.01
560.30	49544.46
560.46	49640.42
560.63	49940.01
560.79	49766.81
560.96	49970.44
561.12	50071.08
561.29	49888.52
561.45	49738.72
561.61	49827.66
561.78	49916.61
561.94	50028.95
562.11	49890.86
562.27	49593.61
562.44	50157.68
562.60	49743.41
562.77	49937.67
562.93	50321.52
563.10	50354.29
563.26	49853.41
563.42	50405.78
563.59	49773.83
563.75	49766.81
563.92	50258.32
564.08	50239.60
564.24	50057.04
564.41	50387.05
564.57	50148.32
564.74	50380.03
564.90	50410.46
565.07	50157.68
565.23	50131.93
565.39	50059.38
565.56	50134.28
565.72	50223.22
565.88	50382.37
566.05	50497.06
566.21	50600.04
566.38	50452.59
566.54	50384.71
566.70	50798.99
566.87	50548.55
567.03	50260.66
567.19	50373.01
567.36	50230.24
567.52	50422.16
567.68	50527.48
567.85	50728.77
568.01	50810.69
568.17	50466.63
568.34	50845.80
568.50	50581.32
568.66	50246.62
568.83	50604.72
568.99	50300.45
569.15	50576.64
569.32	50356.63
569.48	50468.97
569.64	50777.92
569.81	50464.29
569.97	50618.77
570.13	50450.25
570.30	50412.80
570.46	50667.92
570.62	50237.26
570.78	50319.18
570.95	50431.52
571.11	50681.96
571.27	50578.98
571.43	50674.94
571.60	50789.62
571.76	50504.08
571.92	50504.08
572.09	50724.09
572.25	50777.92
572.41	50597.70
572.57	50822.39
572.74	51002.61
572.90	50946.44
573.06	50593.02
573.22	50710.05
573.38	50593.02
573.55	50747.50
573.71	51157.09
573.87	50787.28
574.03	50541.53
574.20	50522.80
574.36	50478.33
574.52	50988.57
574.68	51047.08
574.84	51154.75
575.01	51117.30
575.17	51227.31
575.33	50857.50
575.49	50384.71
575.65	50946.44
575.82	51070.49
575.98	50775.58
576.14	50981.55
576.30	51304.54
576.46	51477.74
576.62	51393.48
576.79	50836.44
576.95	50780.26
577.11	50946.44
577.27	50878.57
577.43	51019.00
577.59	50780.26
577.75	51002.61
577.92	50445.57
578.08	50838.78
578.24	51007.29
578.40	51547.96
578.56	51381.78
578.72	50993.25
578.88	51419.23
579.04	50782.60
579.21	51084.53
579.37	51086.87
579.53	50838.78
579.69	50969.85
579.85	50932.40
580.01	51030.70
580.17	51353.69
580.33	51379.44
580.49	50852.82
580.65	51098.58
580.82	51035.38
580.98	50972.19
581.14	50834.10
581.30	51168.79
581.46	51437.95
581.62	51391.14
581.78	51391.14
581.94	51419.23
582.10	51075.17
582.26	50871.54
582.42	51054.11
582.58	50962.82
582.74	50773.24
582.90	51086.87
583.06	51440.29
583.22	51365.40
583.38	51304.54
583.54	51447.32
583.70	51058.79
583.86	51606.47
584.02	50850.48
584.18	51381.78
584.34	51313.90
584.50	51049.42
584.66	50995.59
584.82	50906.65
584.98	51285.82
585.14	51508.17
585.30	50969.85
585.46	51487.10
585.62	51255.39
585.78	51358.38
585.94	51131.34
586.10	51283.48
586.26	50960.48
586.42	50951.12
586.58	51374.76
586.74	51009.64
586.90	51002.61
587.06	51447.32
587.22	51803.08
587.38	51360.72
587.54	51618.17
587.70	51739.88
587.86	51407.53
588.02	51133.68
588.18	51428.59
588.34	51480.08
588.49	51480.08
588.65	51320.93
588.81	51456.68
588.97	51992.66
589.13	51690.73
589.29	51573.70
589.45	51498.81
589.61	51625.20
589.77	51313.90
589.93	51414.55
590.08	51566.68
590.24	51522.21
590.40	51901.38
