SpectraSuite Data File
++++++++++++++++++++++++++++++++++++
Date: Fri Oct 04 11:39:20 GMT-05:00 2013
User: price-jones
Dark Spectrum Present: No
Reference Spectrum Present: No
Number of Sampled Component Spectra: 1
Spectrometers: USB2+H05261
Integration Time (usec): 100000 (USB2+H05261)
Spectra Averaged: 1 (USB2+H05261)
Boxcar Smoothing: 0 (USB2+H05261)
Correct for Electrical Dark: No (USB2+H05261)
Strobe/Lamp Enabled: No (USB2+H05261)
Correct for Detector Non-linearity: No (USB2+H05261)
Correct for Stray Light: No (USB2+H05261)
Number of Pixels in Processed Spectrum: 2048
>>>>>Begin Processed Spectral Data<<<<<
365.73	51.49
365.92	51.49
366.12	51.49
366.32	18.72
366.52	0.00
366.72	35.11
366.91	0.00
367.11	0.00
367.31	0.00
367.51	11.70
367.70	0.00
367.90	9.36
368.10	0.00
368.30	0.00
368.49	0.00
368.69	0.00
368.89	0.00
369.09	0.00
369.28	21.06
369.48	0.00
369.68	63.19
369.87	0.00
370.07	0.00
370.27	18.72
370.47	168.52
370.66	208.31
370.86	248.10
371.06	346.40
371.25	372.15
371.45	243.42
371.65	409.59
371.84	351.08
372.04	362.78
372.24	346.40
372.44	264.48
372.63	376.83
372.83	383.85
373.03	477.47
373.22	379.17
373.42	402.57
373.62	383.85
373.81	393.21
374.01	374.49
374.21	351.08
374.40	372.15
374.60	468.11
374.79	402.57
374.99	315.97
375.19	411.93
375.38	475.13
375.58	454.06
375.78	433.00
375.97	491.51
376.17	470.45
376.37	416.62
376.56	491.51
376.76	454.06
376.95	362.78
377.15	444.70
377.35	470.45
377.54	433.00
377.74	400.23
377.93	451.72
378.13	461.09
378.33	514.92
378.52	468.11
378.72	512.58
378.91	454.06
379.11	486.83
379.31	531.30
379.50	465.77
379.70	545.34
379.89	550.03
380.09	545.34
380.28	547.69
380.48	479.81
380.68	507.90
380.87	540.66
381.07	507.90
381.26	566.41
381.46	477.47
381.65	486.83
381.85	573.43
382.04	496.19
382.24	503.22
382.43	540.66
382.63	505.56
382.83	547.69
383.02	624.92
383.22	592.16
383.41	573.43
383.61	528.96
383.80	620.24
384.00	695.14
384.19	545.34
384.39	617.90
384.58	620.24
384.78	615.56
384.97	582.79
385.17	596.84
385.36	596.84
385.56	624.92
385.75	669.39
385.95	615.56
386.14	669.39
386.34	683.44
386.53	723.23
386.72	645.99
386.92	798.12
387.11	660.03
387.31	678.76
387.50	580.45
387.70	674.07
387.89	655.35
388.09	662.37
388.28	631.94
388.48	631.94
388.67	821.53
388.86	676.41
389.06	702.16
389.25	748.97
389.45	727.91
389.64	730.25
389.84	770.04
390.03	784.08
390.22	760.67
390.42	734.93
390.61	683.44
390.81	791.10
391.00	894.08
391.19	861.32
391.39	774.72
391.58	734.93
391.78	763.01
391.97	727.91
392.16	793.44
392.36	828.55
392.55	915.15
392.75	917.49
392.94	954.94
393.13	870.68
393.33	795.78
393.52	763.01
393.71	833.23
393.91	908.13
394.10	882.38
394.29	807.48
394.49	842.59
394.68	809.83
394.88	922.17
395.07	929.19
395.26	961.96
395.46	1001.75
395.65	983.02
395.84	985.37
396.04	1184.31
396.23	1022.81
396.42	924.51
396.62	1074.31
396.81	950.26
397.00	945.58
397.19	1029.84
397.39	992.39
397.58	1086.01
397.77	1060.26
397.97	1004.09
398.16	1142.18
398.35	1151.54
398.55	1156.22
398.74	1102.39
398.93	1128.14
399.12	1137.50
399.32	1118.78
399.51	1151.54
399.70	1188.99
399.90	1203.04
400.09	1114.10
400.28	1245.16
400.47	1270.91
400.67	1357.51
400.86	1203.04
401.05	1287.29
401.24	1172.61
401.44	1303.68
401.63	1401.98
401.82	1413.68
402.01	1245.16
402.21	1299.00
402.40	1313.04
402.59	1320.06
402.78	1413.68
402.97	1350.49
403.17	1453.47
403.36	1378.58
403.55	1453.47
403.74	1418.36
403.93	1502.62
404.13	1621.99
404.32	1441.77
404.51	1579.86
404.70	1563.48
404.89	1350.49
405.09	1640.72
405.28	1493.26
405.47	1507.30
405.66	1624.33
405.85	1743.70
406.05	1568.16
406.24	1612.63
406.43	1621.99
406.62	1673.48
406.81	1668.80
407.00	1685.19
407.20	1703.91
407.39	1666.46
407.58	1724.97
407.77	1809.23
407.96	1790.51
408.15	1732.00
408.34	1694.55
408.54	1757.74
408.73	1809.23
408.92	1865.41
409.11	1783.49
409.30	1795.19
409.49	1853.70
409.68	1832.64
409.87	1937.96
410.07	1928.60
410.26	2012.86
410.45	1970.73
410.64	1930.94
410.83	1940.30
411.02	2010.52
411.21	2169.68
411.40	2129.89
411.59	2179.04
411.78	2073.71
411.98	2209.47
412.17	2204.78
412.36	2242.23
412.55	2270.32
412.74	2230.53
412.93	2282.02
413.12	2200.10
413.31	2406.07
413.50	2485.65
413.69	2406.07
413.88	2392.03
414.07	2448.20
414.26	2490.33
414.45	2495.01
414.64	2513.74
414.83	2518.42
415.02	2614.38
415.22	2773.53
415.41	2654.17
415.60	2787.58
415.79	2712.68
415.98	2778.22
416.17	2747.79
416.36	2782.90
416.55	2822.69
416.74	2808.64
416.93	2848.43
417.12	2857.79
417.31	2944.39
417.50	2834.39
417.69	3054.40
417.88	2892.90
418.07	2928.01
418.26	2956.10
418.45	3091.85
418.64	3124.62
418.83	3098.87
419.02	3152.70
419.21	3187.81
419.39	3035.67
419.58	3206.53
419.77	3176.11
419.96	3246.32
420.15	3260.37
420.34	3220.58
420.53	3339.94
420.72	3290.79
420.91	3304.84
421.10	3375.05
421.29	3405.48
421.48	3321.22
421.67	3368.03
421.86	3426.54
422.05	3384.41
422.24	3449.95
422.43	3419.52
422.61	3480.38
422.80	3604.42
422.99	3471.01
423.18	3538.89
423.37	3515.48
423.56	3485.06
423.75	3412.50
423.94	3463.99
424.13	3253.34
424.32	3421.86
424.50	3559.95
424.69	3651.24
424.88	3618.47
425.07	3557.61
425.26	3475.70
425.45	3538.89
425.64	3485.06
425.83	3566.98
426.01	3728.47
426.20	3726.13
426.39	3520.17
426.58	3569.32
426.77	3630.17
426.96	3756.56
427.15	3646.55
427.33	3758.90
427.52	3747.20
427.71	3686.34
427.90	3686.34
428.09	3789.33
428.28	3798.69
428.46	3866.56
428.65	3906.35
428.84	3871.25
429.03	4081.89
429.22	3925.08
429.40	3894.65
429.59	4007.00
429.78	3861.88
429.97	3740.18
430.16	3866.56
430.34	4142.75
430.53	4023.38
430.72	4021.04
430.91	3985.93
431.10	4016.36
431.28	4198.92
431.47	4236.37
431.66	4163.81
431.85	4091.26
432.03	4304.25
432.22	4358.08
432.41	4297.22
432.60	4304.25
432.79	4341.69
432.97	4381.48
433.16	4512.55
433.35	4362.76
433.54	4287.86
433.72	4468.08
433.91	4360.42
434.10	4461.06
434.28	4402.55
434.47	4601.49
434.66	4540.64
434.85	4465.74
435.03	4655.33
435.22	4760.65
435.41	4952.57
435.59	5123.43
435.78	5039.17
435.97	4599.15
436.16	4786.40
436.34	4772.35
436.53	4585.11
436.72	4739.58
436.90	4709.16
437.09	4865.97
437.28	4805.12
437.46	4903.42
437.65	4940.87
437.84	4954.91
438.02	4966.62
438.21	4964.28
438.40	4880.02
438.58	5027.47
438.77	4987.68
438.96	5081.30
439.14	5160.88
439.33	5067.26
439.52	5184.29
439.70	5313.02
439.89	5469.83
440.08	5479.19
440.26	5404.30
440.45	5270.89
440.63	5481.53
440.82	5474.51
441.01	5570.48
441.19	5638.35
441.38	5659.42
441.57	5790.49
441.75	5643.03
441.94	5708.57
442.12	5710.91
442.31	5818.57
442.50	5664.10
442.68	5849.00
442.87	5928.58
443.05	5839.64
443.24	6061.99
443.43	6008.16
443.61	5930.92
443.80	6054.97
443.98	6003.47
444.17	5755.38
444.35	6019.86
444.54	6209.44
444.73	5886.45
444.91	5937.94
445.10	5987.09
445.28	6078.37
445.47	6092.41
445.65	6043.26
445.84	6003.47
446.02	6108.80
446.21	6106.46
446.39	6101.78
446.58	6183.70
446.77	6221.14
446.95	6050.28
447.14	6174.33
447.32	6125.18
447.51	6171.99
447.69	6244.55
447.88	6221.14
448.06	6204.76
448.25	6228.17
448.43	6157.95
448.62	6150.93
448.80	6228.17
448.99	6392.00
449.17	6382.64
449.36	6225.82
449.54	6513.71
449.73	6609.67
449.91	6525.41
450.10	6480.94
450.28	6579.25
450.46	6441.15
450.65	6520.73
450.83	6593.29
451.02	6553.50
451.20	6771.17
451.39	6633.08
451.57	6544.14
451.76	6672.87
451.94	6705.63
452.13	6693.93
452.31	6883.52
452.49	6710.32
452.68	6869.47
452.86	6595.63
453.05	6794.58
453.23	6909.26
453.42	6843.73
453.60	6853.09
453.78	6923.30
453.97	6850.75
454.15	7023.95
454.34	6801.60
454.52	6993.52
454.70	6977.14
454.89	7201.83
455.07	6906.92
455.26	7279.07
455.44	7368.01
455.62	7300.13
455.81	7040.33
455.99	7400.77
456.17	7428.86
456.36	7407.80
456.54	7253.32
456.73	7227.57
456.91	7683.98
457.09	7447.58
457.28	7833.77
457.46	7590.36
457.64	7590.36
457.83	7714.41
458.01	7538.87
458.19	7557.59
458.38	7836.11
458.56	7831.43
458.74	7936.76
458.93	7510.78
459.11	7859.52
459.29	7798.66
459.48	7957.82
459.66	7882.92
459.84	8013.99
460.03	8079.53
460.21	7964.84
460.39	7906.33
460.57	7981.23
460.76	8079.53
460.94	7974.21
461.12	8013.99
461.31	7957.82
461.49	8051.44
461.67	8219.96
461.85	8498.49
462.04	8266.77
462.22	8718.50
462.40	8505.51
462.59	8226.98
462.77	8395.50
462.95	8458.70
463.13	8695.09
463.32	8592.11
463.50	8168.47
463.68	8704.45
463.86	8706.79
464.05	8458.70
464.23	8538.27
464.41	8552.32
464.59	8648.28
464.78	8601.47
464.96	8613.17
465.14	8491.46
465.32	8737.22
465.50	8727.86
465.69	8924.46
465.87	8664.66
466.05	8945.53
466.23	8664.66
466.41	8844.88
466.60	9088.30
466.78	8870.63
466.96	8784.03
467.14	8877.65
467.32	9200.65
467.51	9078.94
467.69	8901.06
467.87	9006.38
468.05	9078.94
468.23	8851.91
468.41	9085.96
468.60	9034.47
468.78	9132.77
468.96	9275.54
469.14	9334.06
469.32	9387.89
469.50	9210.01
469.69	9568.11
469.87	9640.67
470.05	9558.75
470.23	9549.39
470.41	9317.67
470.59	9586.83
470.77	9507.26
470.95	9540.02
471.14	9846.63
471.32	9533.00
471.50	10036.22
471.68	9816.21
471.86	10001.11
472.04	10040.90
472.22	9916.85
472.40	10005.79
472.58	9888.76
472.77	9991.75
472.95	9994.09
473.13	10424.75
473.31	10122.82
473.49	10279.63
473.67	10349.85
473.85	10230.48
474.03	10494.96
474.21	10595.61
474.39	10640.08
474.57	10787.53
474.75	10766.46
474.93	10834.34
475.12	10878.81
475.30	10822.64
475.48	10700.93
475.66	10918.60
475.84	10981.79
476.02	11211.17
476.20	11257.98
476.38	11595.01
476.56	11606.72
476.74	11492.03
476.92	11370.32
477.10	11281.38
477.28	11653.53
477.46	11789.28
477.64	11609.06
477.82	12098.23
478.00	12194.19
478.18	12070.14
478.36	12163.76
478.54	12358.03
478.72	12388.46
478.90	12540.59
479.08	12748.90
479.26	12627.19
479.44	12676.34
479.62	13053.17
479.80	13088.28
479.98	12966.57
480.16	13474.46
480.34	13238.07
480.52	13369.14
480.70	13378.50
480.88	13479.15
481.06	13654.69
481.24	13841.93
481.41	13664.05
481.59	13963.64
481.77	14111.09
481.95	14239.82
482.13	14115.77
482.31	14157.90
482.49	14700.90
482.67	14455.15
482.85	14860.06
483.03	14984.11
483.21	15131.56
483.39	15122.20
483.57	15218.16
483.74	15346.89
483.92	15445.20
484.10	15356.25
484.28	15763.51
484.46	15990.54
484.64	16212.89
484.82	15943.73
485.00	16107.57
485.18	16245.66
485.35	16683.34
485.53	16514.82
485.71	16746.53
485.89	17034.42
486.07	16896.33
486.25	16683.34
486.43	16999.31
486.61	17446.35
486.78	17352.73
486.96	17551.68
487.14	17923.82
487.32	17640.62
487.50	17816.16
487.68	18314.69
487.85	18340.44
488.03	18450.44
488.21	18686.84
488.39	18562.79
488.57	19112.81
488.75	19014.51
488.92	19367.93
489.10	19311.76
489.28	19543.47
489.46	19482.62
489.64	19695.61
489.81	20037.33
489.99	19910.94
490.17	20034.99
490.35	20339.26
490.53	20428.20
490.70	20519.48
490.88	20711.40
491.06	20865.88
491.24	20919.71
491.41	20971.20
491.59	20968.86
491.77	21223.98
491.95	21394.84
492.13	21724.85
492.30	21544.63
492.48	21694.43
492.66	21891.03
492.84	22122.74
493.01	22190.62
493.19	21926.14
493.37	22211.68
493.54	22827.24
493.72	22721.92
493.90	22635.32
494.08	22857.67
494.25	23208.75
494.43	23119.81
494.61	23620.69
494.79	23606.64
494.96	23330.46
495.14	23857.08
495.32	24100.50
495.49	24006.87
495.67	24173.05
495.85	24369.66
496.02	24215.18
496.20	24655.20
496.38	24451.58
496.55	24554.56
496.73	25195.87
496.91	24779.25
497.09	25221.61
497.26	25256.72
497.44	25097.56
497.62	25549.29
497.79	26022.08
497.97	25598.44
498.14	26380.18
498.32	26036.12
498.50	26249.11
498.67	26251.45
498.85	26375.50
499.03	26501.89
499.20	26724.24
499.38	26532.31
499.56	27056.59
499.73	27314.05
499.91	27246.18
500.08	27070.64
500.26	27054.25
500.44	26939.57
500.61	27592.58
500.79	27583.21
500.97	27524.70
501.14	28184.73
501.32	27960.04
501.49	27978.76
501.67	27889.82
501.84	27807.90
502.02	28210.48
502.20	28608.37
502.37	28212.82
502.55	28144.94
502.72	28594.32
502.90	28767.52
503.07	28376.66
503.25	28989.88
503.43	28966.47
503.60	29022.64
503.78	29598.41
503.95	29467.34
504.13	29404.15
504.30	29303.51
504.48	29575.01
504.65	29687.36
504.83	30288.87
505.01	30300.58
505.18	30125.04
505.36	30845.92
505.53	29921.41
505.71	30195.25
505.88	30616.55
506.06	29947.15
506.23	30583.78
506.41	30115.67
506.58	30597.82
506.76	30480.80
506.93	30904.43
507.11	30892.73
507.28	30855.28
507.46	30960.61
507.63	31204.02
507.81	31550.42
507.98	31159.55
508.16	31620.64
508.33	31587.87
508.50	31424.03
508.68	31604.25
508.85	31917.89
509.03	32048.96
509.20	32203.43
509.38	32212.79
509.55	32470.25
509.73	32336.84
509.90	32432.80
510.08	32470.25
510.25	32266.63
510.42	32947.72
510.60	33022.62
510.77	32975.81
510.95	33247.31
511.12	32961.76
511.30	33111.56
511.47	33383.06
511.64	33193.48
511.82	33315.19
511.99	33589.03
512.17	33802.02
512.34	33373.70
512.51	33720.10
512.69	34050.11
512.86	34047.77
513.04	34122.67
513.21	34382.47
513.38	34373.11
513.56	34492.47
513.73	34312.25
513.90	34630.57
514.08	34307.57
514.25	34899.73
514.43	35105.70
514.60	34845.90
514.77	34955.90
514.95	35145.48
515.12	34721.85
515.29	35152.51
515.47	35353.79
515.64	35192.30
515.81	35269.53
515.99	35810.20
516.16	36100.42
516.33	35754.02
516.51	35969.35
516.68	35304.64
516.85	35896.80
517.03	36130.85
517.20	36271.28
517.37	36306.39
517.54	35922.54
517.72	36781.52
517.89	36430.44
518.06	36414.05
518.24	36187.02
518.41	35889.77
518.58	36912.59
518.75	36802.58
518.93	37046.00
519.10	37132.60
519.27	37567.94
519.45	37113.87
519.62	36741.73
519.79	37371.33
519.96	37263.67
520.14	37364.31
520.31	37111.53
520.48	37455.59
520.65	37773.91
520.83	37816.04
521.00	37703.69
521.17	37579.64
521.34	37631.13
521.52	38160.09
521.69	37837.10
521.86	38071.15
522.03	38382.45
522.20	38747.57
522.38	38232.65
522.55	38595.43
522.72	38473.73
522.89	38632.88
523.07	39194.61
523.24	38953.54
523.41	39201.63
523.58	38714.80
523.75	39241.42
523.92	39023.75
524.10	38824.81
524.27	39030.77
524.44	39892.09
524.61	40154.23
524.78	39651.02
524.96	39821.87
525.13	39924.86
525.30	39833.58
525.47	40023.16
525.64	40107.42
525.81	40650.42
525.98	40435.10
526.16	39938.90
526.33	40416.37
526.50	40509.99
526.67	40151.89
526.84	39948.26
527.01	40100.40
527.18	40425.73
527.36	40556.80
527.53	40533.40
527.70	40865.75
527.87	40655.11
528.04	40931.29
528.21	41071.72
528.38	40500.63
528.55	41020.23
528.72	41055.34
528.89	41331.52
529.07	40968.74
529.24	40947.67
529.41	41354.93
529.58	40992.14
529.75	40950.01
529.92	41394.71
530.09	41727.07
530.26	41448.55
530.43	41666.22
530.60	41240.24
530.77	42078.15
530.94	42143.69
531.11	41596.00
531.28	41968.15
531.46	41841.76
531.63	42012.62
531.80	42115.60
531.97	42497.11
532.14	42490.09
532.31	42024.32
532.48	42202.20
532.65	42480.72
532.82	42260.71
532.99	42291.14
533.16	42440.93
533.33	42829.46
533.50	43051.81
533.67	42611.79
533.84	42506.47
534.01	42583.71
534.18	42401.14
534.35	42820.10
534.52	42993.30
534.69	43508.22
534.86	43447.36
535.03	43409.92
535.20	43124.37
535.37	43377.15
535.54	43805.47
535.71	43065.86
535.88	43463.75
536.05	43339.70
536.22	43611.20
536.38	44421.03
536.55	43936.54
536.72	43721.21
536.89	43803.13
537.06	43653.33
537.23	44266.55
537.40	43753.97
537.57	44250.17
537.74	43821.85
537.91	44222.08
538.08	44423.37
538.25	44009.09
538.42	45139.57
538.59	44594.23
538.75	43910.79
538.92	43796.10
539.09	44713.59
539.26	44676.15
539.43	44622.31
539.60	44685.51
539.77	44580.18
539.94	44872.75
540.11	44971.05
540.28	45146.59
540.44	44718.28
540.61	45083.40
540.78	44802.53
540.95	45539.80
541.12	45535.12
541.29	45598.32
541.46	45879.18
541.62	45631.08
541.79	45577.25
541.96	45064.67
542.13	45656.83
542.30	45762.15
542.47	45610.02
542.63	45645.13
542.80	45996.21
542.97	46209.20
543.14	46211.54
543.31	46281.75
543.48	46141.32
543.64	46604.75
543.81	46665.60
543.98	46410.48
544.15	46738.16
544.32	47100.94
544.48	47096.26
544.65	46342.61
544.82	46593.04
544.99	46454.95
545.16	46621.13
545.32	46515.81
545.49	47157.11
545.66	47880.34
545.83	47838.21
546.00	47697.78
546.16	47377.12
546.33	47318.61
546.50	46459.63
546.67	46775.61
546.83	46394.10
547.00	46918.38
547.17	46864.55
547.34	47449.68
547.50	47234.35
547.67	47271.80
547.84	47213.29
548.00	47267.12
548.17	47316.27
548.34	47199.24
548.51	47370.10
548.67	47690.76
548.84	47723.52
549.01	47344.36
549.18	47339.68
549.34	47136.05
549.51	47423.93
549.68	47555.00
549.84	47426.28
550.01	47690.76
550.18	47597.13
550.34	47496.49
550.51	47693.10
550.68	48041.84
550.84	47524.58
551.01	48399.94
551.18	47356.06
551.34	47859.27
551.51	48027.79
551.68	47716.50
551.84	47927.15
552.01	47849.91
552.18	47707.14
552.34	48175.25
552.51	48193.97
552.68	48100.35
552.84	48025.45
553.01	48488.88
553.18	48020.77
553.34	48453.77
553.51	48374.19
553.67	48421.00
553.84	48921.88
554.01	48582.50
554.17	48706.55
554.34	48418.66
554.51	48547.39
554.67	48325.04
554.84	48533.35
555.00	48374.19
555.17	48329.72
555.33	48577.82
555.50	48474.84
555.67	48266.53
555.83	48381.21
556.00	48645.69
556.16	49212.10
556.33	48554.41
556.50	48949.96
556.66	48919.54
556.83	48891.45
556.99	49123.16
557.16	49050.61
557.32	48868.05
557.49	48711.23
557.65	48762.72
557.82	48619.95
557.98	48835.28
558.15	49118.48
558.32	49378.28
558.48	48823.58
558.65	48996.77
558.81	49104.44
558.98	49230.83
559.14	49233.17
559.31	48633.99
559.47	48802.51
559.64	49305.73
559.80	49436.80
559.97	49408.71
560.13	49242.53
560.30	49638.08
560.46	49148.91
560.63	49579.57
560.79	49712.98
560.96	49635.74
561.12	49408.71
561.29	49195.72
561.45	49514.03
561.61	49710.64
561.78	49640.42
561.94	49364.24
562.11	49455.52
562.27	49296.36
562.44	49626.38
562.60	49169.97
562.77	49488.29
562.93	49626.38
563.10	49923.63
563.26	49415.73
563.42	50309.82
563.59	50113.21
563.75	49954.05
563.92	50057.04
564.08	49698.94
564.24	50162.36
564.41	50071.08
564.57	49656.81
564.74	49560.84
564.90	49778.51
565.07	49736.38
565.23	50059.38
565.39	49790.22
565.56	49876.82
565.72	50012.57
565.88	50014.91
566.05	49602.97
566.21	49844.05
566.38	49923.63
566.54	50045.33
566.70	50284.07
566.87	50131.93
567.03	49738.72
567.19	50255.98
567.36	50438.54
567.52	50057.04
567.68	50157.68
567.85	49879.16
568.01	50213.85
568.17	49736.38
568.34	49904.90
568.50	50431.52
568.66	50319.18
568.83	50396.42
568.99	50080.44
569.15	50092.15
569.32	50057.04
569.48	50153.00
569.64	50213.85
569.81	49921.29
569.97	50335.56
570.13	50426.84
570.30	49832.35
570.46	50122.57
570.62	50279.39
570.78	50403.44
570.95	49970.44
571.11	50216.19
571.27	50190.45
571.43	49813.62
571.60	50314.50
571.76	50422.16
571.92	50356.63
572.09	50445.57
572.25	50473.65
572.41	50380.03
572.57	50445.57
572.74	50588.34
572.90	49923.63
573.06	50122.57
573.22	49979.80
573.38	50511.10
573.55	50768.56
573.71	50829.41
573.87	50656.21
574.03	50506.42
574.20	50590.68
574.36	50370.67
574.52	49895.54
574.68	50103.85
574.84	50726.43
575.01	50480.67
575.17	50291.09
575.33	50522.80
575.49	50667.92
575.65	50623.45
575.82	50595.36
575.98	50679.62
576.14	50574.30
576.30	50522.80
576.46	50096.83
576.62	50595.36
576.79	50351.94
576.95	50272.37
577.11	50593.02
577.27	50845.80
577.43	50808.35
577.59	50527.48
577.75	50536.85
577.92	50663.24
578.08	50412.80
578.24	50501.74
578.40	50349.60
578.56	50382.37
578.72	50726.43
578.88	50880.91
579.04	50728.77
579.21	50597.70
579.37	50515.78
579.53	50979.21
579.69	50522.80
579.85	50686.64
580.01	50707.71
580.17	50307.47
580.33	50721.75
580.49	50801.33
580.65	50688.98
580.82	50899.63
580.98	50944.10
581.14	50562.59
581.30	50609.40
581.46	50396.42
581.62	50808.35
581.78	50167.04
581.94	50658.56
582.10	50602.38
582.26	51164.11
582.42	50787.28
582.58	51037.72
582.74	50892.61
582.90	50749.84
583.06	50997.93
583.22	50878.57
583.38	50644.51
583.54	50426.84
583.70	50766.22
583.86	50890.27
584.02	50347.26
584.18	51014.32
584.34	51000.27
584.50	51292.84
584.66	50920.70
584.82	50913.67
584.98	50752.18
585.14	51075.17
585.30	50710.05
585.46	50401.10
585.62	50487.70
585.78	50688.98
585.94	50864.52
586.10	50862.18
586.26	51009.64
586.42	50986.23
586.58	50990.91
586.74	50939.42
586.90	50667.92
587.06	50916.01
587.22	51114.96
587.38	51161.77
587.54	51105.60
587.70	51089.21
587.86	51117.30
588.02	51210.92
588.18	51657.96
588.34	51121.98
588.49	51154.75
588.65	50925.38
588.81	51000.27
588.97	51133.68
589.13	51255.39
589.29	51070.49
589.45	50923.04
589.61	51159.43
589.77	51416.89
589.93	51077.51
590.08	51182.84
590.24	51201.56
590.40	51213.26
