SpectraSuite Data File
++++++++++++++++++++++++++++++++++++
Date: Fri Oct 04 11:39:40 GMT-05:00 2013
User: price-jones
Dark Spectrum Present: No
Reference Spectrum Present: No
Number of Sampled Component Spectra: 1
Spectrometers: USB2+H05261
Integration Time (usec): 100000 (USB2+H05261)
Spectra Averaged: 1 (USB2+H05261)
Boxcar Smoothing: 0 (USB2+H05261)
Correct for Electrical Dark: No (USB2+H05261)
Strobe/Lamp Enabled: No (USB2+H05261)
Correct for Detector Non-linearity: No (USB2+H05261)
Correct for Stray Light: No (USB2+H05261)
Number of Pixels in Processed Spectrum: 2048
>>>>>Begin Processed Spectral Data<<<<<
365.73	0.00
365.92	0.00
366.12	0.00
366.32	0.00
366.52	0.00
366.72	2.34
366.91	0.00
367.11	0.00
367.31	0.00
367.51	0.00
367.70	0.00
367.90	0.00
368.10	0.00
368.30	0.00
368.49	0.00
368.69	4.68
368.89	0.00
369.09	0.00
369.28	0.00
369.48	0.00
369.68	0.00
369.87	0.00
370.07	18.72
370.27	49.15
370.47	107.66
370.66	191.92
370.86	372.15
371.06	369.80
371.25	486.83
371.45	327.68
371.65	372.15
371.84	423.64
372.04	367.46
372.24	409.59
372.44	386.19
372.63	416.62
372.83	428.32
373.03	465.77
373.22	393.21
373.42	407.25
373.62	468.11
373.81	416.62
374.01	498.53
374.21	458.74
374.40	451.72
374.60	498.53
374.79	458.74
374.99	407.25
375.19	423.64
375.38	468.11
375.58	479.81
375.78	456.40
375.97	440.02
376.17	484.49
376.37	465.77
376.56	524.28
376.76	461.09
376.95	442.36
377.15	454.06
377.35	566.41
377.54	505.56
377.74	573.43
377.93	470.45
378.13	578.11
378.33	580.45
378.52	589.82
378.72	517.26
378.91	599.18
379.11	599.18
379.31	606.20
379.50	503.22
379.70	636.63
379.89	606.20
380.09	545.34
380.28	547.69
380.48	493.85
380.68	442.36
380.87	575.77
381.07	493.85
381.26	601.52
381.46	601.52
381.65	543.00
381.85	674.07
382.04	505.56
382.24	594.50
382.43	582.79
382.63	660.03
382.83	587.47
383.02	528.96
383.22	669.39
383.41	578.11
383.61	660.03
383.80	627.26
384.00	660.03
384.19	615.56
384.39	657.69
384.58	711.52
384.78	638.97
384.97	645.99
385.17	650.67
385.36	596.84
385.56	657.69
385.75	674.07
385.95	748.97
386.14	669.39
386.34	645.99
386.53	777.06
386.72	674.07
386.92	816.85
387.11	751.31
387.31	711.52
387.50	704.50
387.70	681.10
387.89	763.01
388.09	725.57
388.28	739.61
388.48	676.41
388.67	788.76
388.86	725.57
389.06	734.93
389.25	807.48
389.45	784.08
389.64	774.72
389.84	828.55
390.03	833.23
390.22	884.72
390.42	770.04
390.61	798.12
390.81	870.68
391.00	809.83
391.19	908.13
391.39	861.32
391.58	898.77
391.78	849.61
391.97	847.27
392.16	844.93
392.36	847.27
392.55	933.87
392.75	858.98
392.94	896.43
393.13	854.30
393.33	849.61
393.52	917.49
393.71	940.90
393.91	943.24
394.10	994.73
394.29	952.60
394.49	1041.54
394.68	926.85
394.88	987.71
395.07	1053.24
395.26	1060.26
395.46	1034.52
395.65	954.94
395.84	1132.82
396.04	1165.59
396.23	1144.52
396.42	987.71
396.62	1025.15
396.81	1055.58
397.00	1130.48
397.19	1196.01
397.39	1135.16
397.58	1179.63
397.77	1212.40
397.97	1153.88
398.16	1135.16
398.35	1139.84
398.55	1095.37
398.74	1139.84
398.93	1205.38
399.12	1210.06
399.32	1219.42
399.51	1158.57
399.70	1296.66
399.90	1273.25
400.09	1343.47
400.28	1369.21
400.47	1310.70
400.67	1308.36
400.86	1324.74
401.05	1334.11
401.24	1270.91
401.44	1406.66
401.63	1383.26
401.82	1432.41
402.01	1383.26
402.21	1331.76
402.40	1378.58
402.59	1521.35
402.78	1352.83
402.97	1521.35
403.17	1441.77
403.36	1519.01
403.55	1547.09
403.74	1507.30
403.93	1570.50
404.13	1568.16
404.32	1605.61
404.51	1591.56
404.70	1645.40
404.89	1507.30
405.09	1661.78
405.28	1640.72
405.47	1722.63
405.66	1678.16
405.85	1668.80
406.05	1614.97
406.24	1757.74
406.43	1699.23
406.62	1739.02
406.81	1827.96
407.00	1776.47
407.20	1830.30
407.39	1736.68
407.58	1776.47
407.77	1933.28
407.96	1989.46
408.15	1905.20
408.34	1839.66
408.54	1874.77
408.73	1914.56
408.92	1975.41
409.11	1980.09
409.30	2115.84
409.49	1989.46
409.68	1966.05
409.87	2054.99
410.07	2127.55
410.26	2143.93
410.45	2160.31
410.64	2181.38
410.83	2125.21
411.02	2209.47
411.21	2108.82
411.40	2214.15
411.59	2244.57
411.78	2314.79
411.98	2275.00
412.17	2291.38
412.36	2368.62
412.55	2312.45
412.74	2377.98
412.93	2516.08
413.12	2490.33
413.31	2647.15
413.50	2443.52
413.69	2373.30
413.88	2518.42
414.07	2607.36
414.26	2614.38
414.45	2513.74
414.64	2715.02
414.83	2806.30
415.02	2609.70
415.22	2698.64
415.41	2848.43
415.60	2834.39
415.79	2829.71
415.98	2902.26
416.17	2846.09
416.36	2883.54
416.55	2855.45
416.74	3021.63
416.93	3112.91
417.12	3038.02
417.31	3101.21
417.50	3112.91
417.69	3176.11
417.88	3117.59
418.07	3126.96
418.26	3253.34
418.45	3241.64
418.64	3169.09
418.83	3246.32
419.02	3260.37
419.21	3295.47
419.39	3417.18
419.58	3185.47
419.77	3384.41
419.96	3323.56
420.15	3452.29
420.34	3407.82
420.53	3386.76
420.72	3454.63
420.91	3478.04
421.10	3494.42
421.29	3597.40
421.48	3562.30
421.67	3562.30
421.86	3541.23
422.05	3538.89
422.24	3606.77
422.43	3660.60
422.61	3667.62
422.80	3625.49
422.99	3625.49
423.18	3756.56
423.37	3726.13
423.56	3646.55
423.75	3698.05
423.94	3728.47
424.13	3492.08
424.32	3510.80
424.50	3756.56
424.69	3794.01
424.88	3702.73
425.07	3534.21
425.26	3651.24
425.45	3733.15
425.64	3684.00
425.83	3875.93
426.01	3669.96
426.20	3700.39
426.39	3812.73
426.58	3857.20
426.77	3845.50
426.96	3955.51
427.15	3873.59
427.33	3992.95
427.52	3751.88
427.71	3829.12
427.90	3932.10
428.09	3967.21
428.28	3997.64
428.46	4058.49
428.65	3918.06
428.84	4131.05
429.03	4142.75
429.22	3995.29
429.40	4217.65
429.59	4044.45
429.78	3976.57
429.97	3992.95
430.16	4138.07
430.34	4217.65
430.53	4189.56
430.72	4311.27
430.91	4140.41
431.10	4149.77
431.28	4379.14
431.47	4212.96
431.66	4397.87
431.85	4205.94
432.03	4414.25
432.22	4479.79
432.41	4304.25
432.60	4526.60
432.79	4376.80
432.97	4545.32
433.16	4468.08
433.35	4559.36
433.54	4568.73
433.72	4594.47
433.91	4566.39
434.10	4655.33
434.28	4758.31
434.47	4748.95
434.66	4688.09
434.85	4711.50
435.03	4805.12
435.22	4891.72
435.41	5184.29
435.59	5090.67
435.78	5032.15
435.97	4809.80
436.16	4840.23
436.34	4812.14
436.53	4863.63
436.72	4947.89
436.90	4954.91
437.09	5020.45
437.28	4854.27
437.46	4933.85
437.65	5013.43
437.84	5102.37
438.02	4968.96
438.21	5121.09
438.40	5074.28
438.58	5207.69
438.77	5210.03
438.96	5238.12
439.14	5355.15
439.33	5294.29
439.52	5359.83
439.70	5432.38
439.89	5568.13
440.08	5453.45
440.26	5584.52
440.45	5582.18
440.63	5624.31
440.82	5717.93
441.01	5605.58
441.19	5720.27
441.38	5853.68
441.57	5741.33
441.75	5949.64
441.94	5846.66
442.12	5879.43
442.31	5954.32
442.50	6047.94
442.68	6050.28
442.87	5973.05
443.05	6174.33
443.24	6148.59
443.43	6157.95
443.61	6106.46
443.80	6401.37
443.98	5940.28
444.17	5966.03
444.35	6230.51
444.54	6312.42
444.73	6340.51
444.91	6211.78
445.10	6097.10
445.28	6289.02
445.47	6160.29
445.65	6148.59
445.84	6148.59
446.02	6331.15
446.21	6204.76
446.39	6202.42
446.58	6328.81
446.77	6392.00
446.95	6235.19
447.14	6427.11
447.32	6347.53
447.51	6478.60
447.69	6340.51
447.88	6366.26
448.06	6373.28
448.25	6422.43
448.43	6516.05
448.62	6342.85
448.80	6373.28
448.99	6370.94
449.17	6389.66
449.36	6438.81
449.54	6480.94
449.73	6607.33
449.91	6726.70
450.10	6691.59
450.28	6604.99
450.46	6722.02
450.65	6679.89
450.83	6733.72
451.02	6693.93
451.20	6806.28
451.39	6794.58
451.57	6825.00
451.76	6677.55
451.94	6855.43
452.13	6958.41
452.31	6944.37
452.49	6684.57
452.68	7009.90
452.86	6930.33
453.05	6986.50
453.23	6967.77
453.42	6892.88
453.60	6923.30
453.78	7368.01
453.97	7035.65
454.15	6988.84
454.34	6958.41
454.52	7047.35
454.70	7112.89
454.89	7019.27
455.07	7232.26
455.26	7314.17
455.44	7370.35
455.62	7148.00
455.81	7155.02
455.99	7344.60
456.17	7452.27
456.36	7456.95
456.54	7496.74
456.73	7557.59
456.91	7716.75
457.09	7676.96
457.28	7871.22
457.46	7585.68
457.64	7763.56
457.83	7726.11
458.01	7730.79
458.19	7941.44
458.38	7676.96
458.56	7946.12
458.74	7939.10
458.93	7929.74
459.11	7906.33
459.29	7920.37
459.48	8051.44
459.66	7744.83
459.84	8109.96
460.03	8365.07
460.21	8119.32
460.39	8201.24
460.57	8135.70
460.76	8114.64
460.94	8454.02
461.12	8156.77
461.31	8208.26
461.49	8109.96
461.67	8248.05
461.85	8219.96
462.04	8180.17
462.22	8814.46
462.40	8624.87
462.59	8320.60
462.77	8521.89
462.95	8395.50
463.13	8662.32
463.32	8524.23
463.50	8589.77
463.68	8655.30
463.86	8491.46
464.05	8683.39
464.23	8566.36
464.41	8659.98
464.59	8578.06
464.78	8903.40
464.96	8603.81
465.14	8674.03
465.32	8849.57
465.50	9069.58
465.69	8868.29
465.87	8739.56
466.05	8971.27
466.23	8908.08
466.41	9053.19
466.60	9064.89
466.78	8971.27
466.96	9111.71
467.14	9008.72
467.32	8922.12
467.51	9268.52
467.69	8734.88
467.87	9020.42
468.05	9074.26
468.23	9111.71
468.41	9069.58
468.60	9188.94
468.78	9462.79
468.96	9275.54
469.14	9348.10
469.32	9369.16
469.50	9270.86
469.69	9392.57
469.87	9607.90
470.05	9568.11
470.23	9783.44
470.41	9675.77
470.59	9804.50
470.77	9603.22
470.95	9603.22
471.14	9762.37
471.32	9472.15
471.50	9987.07
471.68	9788.12
471.86	10087.71
472.04	9982.38
472.22	10008.13
472.40	9949.62
472.58	10033.88
472.77	10214.10
472.95	10305.38
473.13	10586.24
473.31	10171.97
473.49	10338.15
473.67	10289.00
473.85	10284.31
474.03	10602.63
474.21	10356.87
474.39	10595.61
474.57	10939.66
474.75	10916.26
474.93	10698.59
475.12	10731.36
475.30	10881.15
475.48	10824.98
475.66	11044.99
475.84	11098.82
476.02	11162.01
476.20	11087.12
476.38	11344.58
476.56	11503.73
476.74	11721.40
476.92	11403.09
477.10	11524.80
477.28	11779.92
477.46	11569.27
477.64	11665.23
477.82	11978.86
478.00	12273.77
478.18	12131.00
478.36	12297.17
478.54	12393.14
478.72	12526.55
478.90	12470.37
479.08	12812.09
479.26	12865.92
479.44	12669.32
479.62	12898.69
479.80	12812.09
479.98	12868.27
480.16	13490.85
480.34	13050.83
480.52	13399.57
480.70	13493.19
480.88	13359.78
481.06	13692.13
481.24	13242.75
481.41	13687.45
481.59	14080.66
481.77	13930.87
481.95	14167.26
482.13	14260.88
482.31	14256.20
482.49	14677.50
482.67	14434.08
482.85	14567.49
483.03	15066.03
483.21	14974.75
483.39	15068.37
483.57	15026.24
483.74	15190.08
483.92	15309.44
484.10	15358.60
484.28	15573.92
484.46	15882.88
484.64	15838.41
484.82	15538.82
485.00	16037.35
485.18	16339.28
485.35	16327.58
485.53	16381.41
485.71	16587.38
485.89	16765.26
486.07	16805.05
486.25	16699.72
486.43	16816.75
486.61	16891.65
486.78	17266.13
486.96	17523.59
487.14	17710.83
487.32	17736.58
487.50	17516.57
487.68	18008.08
487.85	17891.06
488.03	18197.67
488.21	18644.71
488.39	18597.90
488.57	18745.35
488.75	18911.53
488.92	19087.07
489.10	19403.04
489.28	19286.01
489.46	19447.51
489.64	19648.80
489.81	19777.53
489.99	19789.23
490.17	19796.25
490.35	20346.28
490.53	20311.17
490.70	20264.36
490.88	20463.30
491.06	20280.74
491.24	20313.51
491.41	20989.92
491.59	20842.47
491.77	21163.12
491.95	21446.33
492.13	21160.78
492.30	21315.26
492.48	21415.90
492.66	21502.50
492.84	21820.81
493.01	21832.52
493.19	21923.80
493.37	22223.39
493.54	22064.23
493.72	22401.27
493.90	22501.91
494.08	22588.51
494.25	22820.22
494.43	22955.97
494.61	23126.83
494.79	23080.02
494.96	23157.26
495.14	23342.16
495.32	23836.02
495.49	23749.42
495.67	23800.91
495.85	23939.00
496.02	24100.50
496.20	24093.47
496.38	24400.08
496.55	24449.24
496.73	25025.01
496.91	24453.92
497.09	25186.50
497.26	24872.87
497.44	24592.01
497.62	25022.67
497.79	25549.29
497.97	25418.22
498.14	25455.67
498.32	26043.14
498.50	25668.66
498.67	25771.64
498.85	25490.77
499.03	25970.58
499.20	26171.87
499.38	25797.38
499.56	26333.37
499.73	26602.53
499.91	27072.98
500.08	26663.38
500.26	26480.82
500.44	26977.01
500.61	26993.40
500.79	27072.98
500.97	27269.58
501.14	27550.45
501.32	27316.39
501.49	27372.57
501.67	27627.68
501.84	27873.44
502.02	27615.98
502.20	28151.96
502.37	28081.75
502.55	27786.84
502.72	27896.85
502.90	28074.73
503.07	28023.23
503.25	28276.01
503.43	28135.58
503.60	28584.96
503.78	28397.72
503.95	28568.58
504.13	28826.04
504.30	28493.68
504.48	28486.66
504.65	28849.44
504.83	29303.51
505.01	29336.27
505.18	29235.63
505.36	29839.49
505.53	29441.60
505.71	29685.01
505.88	29816.08
506.06	29113.92
506.23	29951.84
506.41	30204.61
506.58	30143.76
506.76	29937.79
506.93	30106.31
507.11	30019.71
507.28	30590.80
507.46	30286.53
507.63	30567.40
507.81	30794.43
507.98	30504.20
508.16	30735.92
508.33	30909.11
508.50	30881.03
508.68	30852.94
508.85	31484.89
509.03	31463.82
509.20	31173.60
509.38	31634.68
509.55	31599.57
509.73	31267.22
509.90	31433.39
510.08	31950.65
510.25	31737.66
510.42	31962.36
510.60	31786.82
510.77	32254.92
510.95	32348.54
511.12	31821.92
511.30	31819.58
511.47	32641.11
511.64	32425.78
511.82	32940.70
511.99	32788.56
512.17	33027.30
512.34	32631.75
512.51	32753.46
512.69	32985.17
512.86	33312.84
513.04	33186.46
513.21	33603.07
513.38	33394.76
513.56	33556.26
513.73	33539.88
513.90	33319.87
514.08	33343.27
514.25	33972.88
514.43	33944.79
514.60	34099.26
514.77	33919.04
514.95	34096.92
515.12	34029.05
515.29	33752.87
515.47	34129.69
515.64	34775.68
515.81	34347.36
515.99	34841.21
516.16	34597.80
516.33	34525.24
516.51	34682.06
516.68	34396.51
516.85	35140.80
517.03	35033.14
517.20	35438.05
517.37	35482.52
517.54	35274.21
517.72	35349.11
517.89	35105.70
518.06	35091.65
518.24	35178.25
518.41	35498.91
518.58	35739.98
518.75	35592.53
518.93	36175.32
519.10	35716.58
519.27	35910.84
519.45	35826.58
519.62	35985.74
519.79	35988.08
519.96	35681.47
520.14	36428.10
520.31	36343.84
520.48	36774.50
520.65	36608.32
520.83	36727.69
521.00	36833.01
521.17	36545.12
521.34	36456.18
521.52	36821.31
521.69	36744.07
521.86	37198.13
522.03	37221.54
522.20	37060.04
522.38	37439.21
522.55	36964.08
522.72	37268.35
522.89	37268.35
523.07	37881.57
523.24	37741.14
523.41	37689.65
523.58	37659.22
523.75	37930.72
523.92	37645.18
524.10	37947.11
524.27	37968.17
524.44	38043.07
524.61	38660.97
524.78	38394.15
524.96	38307.55
525.13	38333.29
525.30	38382.45
525.47	38663.31
525.64	38703.10
525.81	38799.06
525.98	38876.30
526.16	38635.22
526.33	38785.02
526.50	38955.88
526.67	38600.12
526.84	38698.42
527.01	38892.68
527.18	39082.27
527.36	39569.10
527.53	39491.86
527.70	39697.83
527.87	39342.06
528.04	39056.52
528.21	39620.59
528.38	39285.89
528.55	39732.93
528.72	39562.08
528.89	40041.88
529.07	39782.09
529.24	39669.74
529.41	39531.65
529.58	39519.95
529.75	39810.17
529.92	39950.60
530.09	39990.39
530.26	39964.65
530.43	40512.33
530.60	39625.27
530.77	40322.75
530.94	40304.02
531.11	40313.39
531.28	40304.02
531.46	40339.13
531.63	40882.14
531.80	40645.74
531.97	41130.23
532.14	40961.72
532.31	40919.59
532.48	40900.86
532.65	40851.71
532.82	40088.70
532.99	40971.08
533.16	40910.22
533.33	41036.61
533.50	41324.50
533.67	41464.93
533.84	40973.42
534.01	41350.24
534.18	40648.08
534.35	41453.23
534.52	41486.00
534.69	41572.60
534.86	41928.36
535.03	41462.59
535.20	41904.95
535.37	41874.52
535.54	41844.10
535.71	41710.69
535.88	41876.86
536.05	41689.62
536.22	41607.70
536.38	42103.90
536.55	42195.18
536.72	42188.16
536.89	41694.30
537.06	42466.68
537.23	42249.01
537.40	42033.68
537.57	42422.21
537.74	42040.70
537.91	42667.97
538.08	42557.96
538.25	42249.01
538.42	42618.81
538.59	42443.27
538.75	42333.27
538.92	42454.98
539.09	42878.61
539.26	42995.64
539.43	42986.28
539.60	43096.28
539.77	42869.25
539.94	42754.57
540.11	42911.38
540.28	42920.74
540.44	43117.35
540.61	43115.01
540.78	42808.40
540.95	43901.43
541.12	43225.01
541.29	43667.37
541.46	43051.81
541.62	43533.96
541.79	43756.32
541.96	42983.94
542.13	43335.02
542.30	43739.93
542.47	43697.80
542.63	43992.71
542.80	44657.42
542.97	44488.90
543.14	44271.23
543.31	43842.92
543.48	44280.60
543.64	44619.97
543.81	44528.69
543.98	44589.55
544.15	44404.64
544.32	44369.54
544.48	44926.58
544.65	44505.29
544.82	44411.67
544.99	44364.85
545.16	44346.13
545.32	44868.07
545.49	45462.57
545.66	45862.80
545.83	45605.34
546.00	45617.04
546.16	45111.49
546.33	44797.85
546.50	44741.68
546.67	44664.44
546.83	44392.94
547.00	44769.77
547.17	45092.76
547.34	44978.07
547.50	45275.32
547.67	45722.37
547.84	45446.18
548.00	45088.08
548.17	45441.50
548.34	45214.47
548.51	45214.47
548.67	45394.69
548.84	45263.62
549.01	45247.24
549.18	45261.28
549.34	45631.08
549.51	45645.13
549.68	45411.07
549.84	45146.59
550.01	45507.04
550.18	45392.35
550.34	45766.84
550.51	45551.51
550.68	45191.06
550.84	45263.62
551.01	45757.47
551.18	45537.46
551.34	45525.76
551.51	45698.96
551.68	45694.28
551.84	45574.91
552.01	45813.65
552.18	45663.85
552.34	45584.27
552.51	45918.97
552.68	45329.16
552.84	45773.86
553.01	45801.94
553.18	46319.20
553.34	46122.60
553.51	45804.28
553.67	46157.70
553.84	46068.76
554.01	46504.10
554.17	46614.11
554.34	46017.27
554.51	45935.35
554.67	46134.30
554.84	46373.03
555.00	46164.73
555.17	46167.07
555.33	46253.67
555.50	46302.82
555.67	46150.68
555.83	46234.94
556.00	46389.42
556.16	46464.32
556.33	46319.20
556.50	46705.39
556.66	46630.49
556.83	46312.18
556.99	46660.92
557.16	46646.88
557.32	46777.95
557.49	46597.73
557.65	46330.90
557.82	46473.68
557.98	46857.52
558.15	46522.83
558.32	46508.79
558.48	46855.18
558.65	46728.80
558.81	46712.41
558.98	46820.08
559.14	46817.74
559.31	46548.57
559.47	47103.28
559.64	46962.85
559.80	46890.29
559.97	46864.55
560.13	46834.12
560.30	47007.32
560.46	47196.90
560.63	46831.78
560.79	47065.83
560.96	47058.81
561.12	46944.12
561.29	47091.58
561.45	47405.21
561.61	47021.36
561.78	47342.02
561.94	47281.16
562.11	47243.71
562.27	47114.98
562.44	47021.36
562.60	47337.33
562.77	46883.27
562.93	47021.36
563.10	47501.17
563.26	46965.19
563.42	47618.20
563.59	47213.29
563.75	47168.82
563.92	47112.64
564.08	47243.71
564.24	47159.45
564.41	47306.91
564.57	47035.41
564.74	47002.64
564.90	47489.47
565.07	46768.58
565.23	47267.12
565.39	47409.89
565.56	47409.89
565.72	47257.76
565.88	47241.37
566.05	46932.42
566.21	47040.09
566.38	47346.70
566.54	47246.05
566.70	47433.30
566.87	47559.69
567.03	47625.22
567.19	47840.55
567.36	47442.66
567.52	47545.64
567.68	47374.78
567.85	47327.97
568.01	47772.67
568.17	47161.79
568.34	47995.03
568.50	47739.91
568.66	47529.26
568.83	47388.83
568.99	47325.63
569.15	47309.25
569.32	47435.64
569.48	47379.46
569.64	47423.93
569.81	47349.04
569.97	47695.44
570.13	47770.33
570.30	47524.58
570.46	47716.50
570.62	47494.15
570.78	47625.22
570.95	47323.29
571.11	47339.68
571.27	47023.70
571.43	47154.77
571.60	47466.06
571.76	47267.12
571.92	47648.63
572.09	47707.14
572.25	47522.24
572.41	47913.11
572.57	47709.48
572.74	47264.78
572.90	47423.93
573.06	47501.17
573.22	47618.20
573.38	47536.28
573.55	47526.92
573.71	47681.39
573.87	47971.62
574.03	47398.19
574.20	47728.20
574.36	47508.19
574.52	47536.28
574.68	47512.88
574.84	47524.58
575.01	47856.93
575.17	47810.12
575.33	48044.18
575.49	47557.35
575.65	47758.63
575.82	47789.06
575.98	47803.10
576.14	47892.04
576.30	47744.59
576.46	47641.60
576.62	47810.12
576.79	47793.74
576.95	47833.53
577.11	47765.65
577.27	47704.80
577.43	47693.10
577.59	47555.00
577.75	47826.51
577.92	47344.36
578.08	47730.54
578.24	47370.10
578.40	47672.03
578.56	47702.46
578.72	47782.04
578.88	48023.11
579.04	48210.35
579.21	47622.88
579.37	47597.13
579.53	47758.63
579.69	47421.59
579.85	47456.70
580.01	47945.87
580.17	47725.86
580.33	47643.94
580.49	47842.89
580.65	47990.34
580.82	47786.72
580.98	47744.59
581.14	47377.12
581.30	47995.03
581.46	47636.92
581.62	47667.35
581.78	47260.10
581.94	47957.58
582.10	47660.33
582.26	47824.17
582.42	48009.07
582.58	47510.53
582.74	47896.72
582.90	48229.08
583.06	47480.11
583.22	47409.89
583.38	47562.03
583.54	47791.40
583.70	47585.43
583.86	47941.19
584.02	47690.76
584.18	48065.24
584.34	48177.59
584.50	47796.08
584.66	48027.79
584.82	47501.17
584.98	47985.66
585.14	47950.56
585.30	47351.38
585.46	48105.03
585.62	47674.37
585.78	47833.53
585.94	47700.12
586.10	47908.43
586.26	47798.42
586.42	47983.32
586.58	47878.00
586.74	47814.80
586.90	47594.79
587.06	47767.99
587.22	47419.25
587.38	47786.72
587.54	47842.89
587.70	47988.00
587.86	48088.65
588.02	47519.90
588.18	48428.02
588.34	47828.85
588.49	47604.16
588.65	48041.84
588.81	47526.92
588.97	47870.98
589.13	48004.39
589.29	47742.25
589.45	47803.10
589.61	48210.35
589.77	48222.06
589.93	48086.31
590.08	47887.36
590.24	48041.84
590.40	48037.16
