SpectraSuite Data File
++++++++++++++++++++++++++++++++++++
Date: Tue Oct 01 18:27:28 GMT-05:00 2013
User: stostad
Dark Spectrum Present: No
Reference Spectrum Present: No
Number of Sampled Component Spectra: 1
Spectrometers: USB2+H05261
Integration Time (usec): 100000 (USB2+H05261)
Spectra Averaged: 1 (USB2+H05261)
Boxcar Smoothing: 0 (USB2+H05261)
Correct for Electrical Dark: No (USB2+H05261)
Strobe/Lamp Enabled: No (USB2+H05261)
Correct for Detector Non-linearity: No (USB2+H05261)
Correct for Stray Light: No (USB2+H05261)
Number of Pixels in Processed Spectrum: 2048
>>>>>Begin Processed Spectral Data<<<<<
365.73	53.83
365.92	53.83
366.12	53.83
366.32	0.00
366.52	0.00
366.72	16.38
366.91	30.43
367.11	0.00
367.31	0.00
367.51	0.00
367.70	0.00
367.90	23.41
368.10	0.00
368.30	0.00
368.49	0.00
368.69	81.92
368.89	46.81
369.09	0.00
369.28	28.09
369.48	0.00
369.68	23.41
369.87	46.81
370.07	9.36
370.27	0.00
370.47	100.64
370.66	348.74
370.86	292.57
371.06	355.76
371.25	367.46
371.45	369.80
371.65	379.17
371.84	330.02
372.04	362.78
372.24	339.38
372.44	365.12
372.63	393.21
372.83	409.59
373.03	418.96
373.22	369.80
373.42	425.98
373.62	404.91
373.81	418.96
374.01	397.89
374.21	390.87
374.40	444.70
374.60	400.23
374.79	437.68
374.99	465.77
375.19	423.64
375.38	547.69
375.58	498.53
375.78	416.62
375.97	433.00
376.17	500.87
376.37	428.32
376.56	517.26
376.76	510.24
376.95	437.68
377.15	507.90
377.35	402.57
377.54	479.81
377.74	442.36
377.93	496.19
378.13	482.15
378.33	461.09
378.52	477.47
378.72	463.43
378.91	533.64
379.11	449.38
379.31	547.69
379.50	458.74
379.70	526.62
379.89	463.43
380.09	486.83
380.28	514.92
380.48	500.87
380.68	510.24
380.87	578.11
381.07	528.96
381.26	566.41
381.46	547.69
381.65	585.13
381.85	566.41
382.04	573.43
382.24	575.77
382.43	538.32
382.63	547.69
382.83	566.41
383.02	606.20
383.22	552.37
383.41	664.71
383.61	578.11
383.80	674.07
384.00	521.94
384.19	573.43
384.39	519.60
384.58	688.12
384.78	585.13
384.97	653.01
385.17	655.35
385.36	664.71
385.56	543.00
385.75	535.98
385.95	575.77
386.14	725.57
386.34	629.60
386.53	645.99
386.72	641.31
386.92	655.35
387.11	624.92
387.31	657.69
387.50	741.95
387.70	692.80
387.89	681.10
388.09	660.03
388.28	676.41
388.48	655.35
388.67	706.84
388.86	716.20
389.06	713.86
389.25	795.78
389.45	636.63
389.64	643.65
389.84	716.20
390.03	709.18
390.22	695.14
390.42	739.61
390.61	758.33
390.81	690.46
391.00	828.55
391.19	842.59
391.39	704.50
391.58	821.53
391.78	800.46
391.97	772.38
392.16	767.70
392.36	856.64
392.55	737.27
392.75	866.00
392.94	748.97
393.13	814.51
393.33	816.85
393.52	868.34
393.71	889.40
393.91	847.27
394.10	866.00
394.29	877.70
394.49	866.00
394.68	816.85
394.88	828.55
395.07	931.53
395.26	812.17
395.46	870.68
395.65	1015.79
395.84	936.21
396.04	1001.75
396.23	1022.81
396.42	908.13
396.62	1036.86
396.81	1008.77
397.00	973.66
397.19	994.73
397.39	999.41
397.58	1069.62
397.77	1018.13
397.97	1041.54
398.16	1048.56
398.35	1100.05
398.55	1067.28
398.74	1118.78
398.93	1135.16
399.12	1111.75
399.32	1088.35
399.51	1062.60
399.70	1086.01
399.90	1088.35
400.09	1203.04
400.28	1170.27
400.47	1158.57
400.67	1200.69
400.86	1245.16
401.05	1139.84
401.24	1196.01
401.44	1144.52
401.63	1233.46
401.82	1266.23
402.01	1299.00
402.21	1261.55
402.40	1280.27
402.59	1306.02
402.78	1373.89
402.97	1252.19
403.17	1294.32
403.36	1399.64
403.55	1411.34
403.74	1352.83
403.93	1434.75
404.13	1488.58
404.32	1338.79
404.51	1444.11
404.70	1556.46
404.89	1425.39
405.09	1502.62
405.28	1561.14
405.47	1497.94
405.66	1624.33
405.85	1563.48
406.05	1493.26
406.24	1636.03
406.43	1547.09
406.62	1626.67
406.81	1624.33
407.00	1626.67
407.20	1638.38
407.39	1755.40
407.58	1673.48
407.77	1636.03
407.96	1757.74
408.15	1732.00
408.34	1830.30
408.54	1820.94
408.73	1820.94
408.92	1743.70
409.11	1818.60
409.30	1956.69
409.49	1886.47
409.68	1783.49
409.87	1987.11
410.07	2003.50
410.26	1980.09
410.45	2022.22
410.64	2005.84
410.83	2127.55
411.02	2071.37
411.21	2071.37
411.40	2113.50
411.59	2092.44
411.78	2087.76
411.98	2169.68
412.17	2167.34
412.36	2260.96
412.55	2303.09
412.74	2249.25
412.93	2237.55
413.12	2349.90
413.31	2462.24
413.50	2263.30
413.69	2328.83
413.88	2331.17
414.07	2356.92
414.26	2354.58
414.45	2471.61
414.64	2410.75
414.83	2480.97
415.02	2539.48
415.22	2548.84
415.41	2614.38
415.60	2597.99
415.79	2745.45
415.98	2712.68
416.17	2672.89
416.36	2560.55
416.55	2738.43
416.74	2794.60
416.93	2935.03
417.12	2801.62
417.31	2768.85
417.50	2839.07
417.69	2909.29
417.88	2979.50
418.07	2918.65
418.26	2998.23
418.45	2981.84
418.64	3124.62
418.83	3056.74
419.02	2993.55
419.21	3157.38
419.39	3187.81
419.58	3047.38
419.77	3080.14
419.96	3129.30
420.15	3148.02
420.34	3084.83
420.53	3192.49
420.72	3258.03
420.91	3314.20
421.10	3321.22
421.29	3468.67
421.48	3138.66
421.67	3351.65
421.86	3318.88
422.05	3309.52
422.24	3403.14
422.43	3318.88
422.61	3328.24
422.80	3358.67
422.99	3365.69
423.18	3398.46
423.37	3468.67
423.56	3473.36
423.75	3461.65
423.94	3405.48
424.13	3178.45
424.32	3220.58
424.50	3522.51
424.69	3417.18
424.88	3517.83
425.07	3478.04
425.26	3353.99
425.45	3557.61
425.64	3538.89
425.83	3513.14
426.01	3499.10
426.20	3632.51
426.39	3398.46
426.58	3609.11
426.77	3475.70
426.96	3698.05
427.15	3548.25
427.33	3613.79
427.52	3618.47
427.71	3646.55
427.90	3606.77
428.09	3700.39
428.28	3691.02
428.46	3772.94
428.65	3875.93
428.84	3871.25
429.03	3981.25
429.22	3784.65
429.40	3763.58
429.59	3803.37
429.78	3779.97
429.97	3730.81
430.16	3815.07
430.34	3922.74
430.53	4053.81
430.72	3948.48
430.91	3719.11
431.10	3892.31
431.28	4044.45
431.47	4072.53
431.66	4009.34
431.85	3999.98
432.03	3990.61
432.22	3992.95
432.41	4255.09
432.60	4102.96
432.79	4077.21
432.97	4180.20
433.16	4248.07
433.35	4177.86
433.54	4262.12
433.72	4355.74
433.91	4257.43
434.10	4329.99
434.28	4423.61
434.47	4346.37
434.66	4362.76
434.85	4400.21
435.03	4386.16
435.22	4479.79
435.41	4561.70
435.59	4535.96
435.78	4486.81
435.97	4634.26
436.16	4662.35
436.34	4550.00
436.53	4601.49
436.72	4739.58
436.90	4496.17
437.09	4491.49
437.28	4578.09
437.46	4699.80
437.65	4786.40
437.84	4730.22
438.02	4699.80
438.21	4830.87
438.40	4652.98
438.58	4938.53
438.77	4994.70
438.96	4805.12
439.14	4856.61
439.33	5001.72
439.52	5060.24
439.70	5053.22
439.89	5284.93
440.08	5163.22
440.26	5294.29
440.45	5242.80
440.63	5348.12
440.82	5324.72
441.01	5167.90
441.19	5362.17
441.38	5455.79
441.57	5516.64
441.75	5614.95
441.94	5462.81
442.12	5577.50
442.31	5678.14
442.50	5729.63
442.68	5617.29
442.87	5654.73
443.05	5771.76
443.24	5776.44
443.43	5650.05
443.61	5771.76
443.80	5994.11
443.98	5809.21
444.17	5727.29
444.35	5804.53
444.54	5963.68
444.73	5898.15
444.91	5870.06
445.10	5743.67
445.28	5844.32
445.47	5893.47
445.65	5907.51
445.84	5895.81
446.02	5963.68
446.21	5769.42
446.39	5832.62
446.58	5947.30
446.77	5996.45
446.95	5699.20
447.14	5928.58
447.32	6087.73
447.51	6087.73
447.69	6015.18
447.88	5961.34
448.06	6057.31
448.25	5984.75
448.43	6052.63
448.62	6181.35
448.80	6157.95
448.99	6125.18
449.17	6146.25
449.36	6104.12
449.54	6235.19
449.73	6434.13
449.91	6284.34
450.10	6195.40
450.28	6345.19
450.46	6331.15
450.65	6356.90
450.83	6387.32
451.02	6485.62
451.20	6406.05
451.39	6394.34
451.57	6403.71
451.76	6424.77
451.94	6335.83
452.13	6595.63
452.31	6455.20
452.49	6469.24
452.68	6693.93
452.86	6614.35
453.05	6801.60
453.23	6663.51
453.42	6637.76
453.60	6693.93
453.78	6787.55
453.97	6712.66
454.15	6745.42
454.34	6675.21
454.52	6927.99
454.70	6806.28
454.89	6965.43
455.07	6895.22
455.26	7052.03
455.44	7281.41
455.62	6899.90
455.81	7080.12
455.99	7040.33
456.17	7098.84
456.36	7073.10
456.54	7178.42
456.73	7054.37
456.91	7515.46
457.09	7330.56
457.28	7386.73
457.46	7281.41
457.64	7503.76
457.83	7459.29
458.01	7330.56
458.19	7445.24
458.38	7295.45
458.56	7538.87
458.74	7480.35
458.93	7541.21
459.11	7461.63
459.29	7655.89
459.48	7620.78
459.66	7613.76
459.84	7669.94
460.03	7868.88
460.21	7733.13
460.39	7803.35
460.57	7770.58
460.76	7744.83
460.94	7922.71
461.12	7929.74
461.31	7927.39
461.49	7971.86
461.67	7836.11
461.85	8266.77
462.04	8102.93
462.22	8512.53
462.40	8088.89
462.59	8067.83
462.77	8168.47
462.95	8170.81
463.13	8376.78
463.32	8255.07
463.50	8238.69
463.68	8393.16
463.86	8154.43
464.05	8290.18
464.23	8191.88
464.41	8138.04
464.59	8264.43
464.78	8285.50
464.96	8446.99
465.14	8592.11
465.32	8519.55
465.50	8493.80
465.69	8425.93
465.87	8439.97
466.05	8407.20
466.23	8599.13
466.41	8594.45
466.60	8912.76
466.78	8549.98
466.96	8755.94
467.14	8678.71
467.32	8676.37
467.51	8879.99
467.69	8720.84
467.87	8798.07
468.05	9015.74
468.23	8828.50
468.41	8833.18
468.60	8851.91
468.78	8809.78
468.96	8875.31
469.14	9130.43
469.32	9013.40
469.50	9011.06
469.69	9369.16
469.87	9195.96
470.05	9270.86
470.23	9315.33
470.41	9355.12
470.59	9210.01
470.77	9336.40
470.95	9675.77
471.14	9533.00
471.32	9348.10
471.50	9556.41
471.68	9584.49
471.86	9579.81
472.04	9762.37
472.22	9755.35
472.40	9575.13
472.58	9998.77
472.77	9856.00
472.95	10001.11
473.13	10284.31
473.31	9958.98
473.49	9942.60
473.67	9907.49
473.85	10031.54
474.03	10153.24
474.21	10246.87
474.39	10354.53
474.57	10560.50
474.75	10366.23
474.93	10387.30
475.12	10548.79
475.30	10602.63
475.48	10740.72
475.66	10668.16
475.84	10773.49
476.02	10803.91
476.20	10832.00
476.38	10792.21
476.56	11419.47
476.74	11342.24
476.92	11169.04
477.10	10904.56
477.28	11534.16
477.46	11265.00
477.64	11592.67
477.82	11550.54
478.00	11990.56
478.18	11882.90
478.36	11859.49
478.54	12006.95
478.72	12109.93
478.90	11985.88
479.08	12229.30
479.26	12493.78
479.44	12601.44
479.62	12603.78
479.80	12730.17
479.98	12695.07
480.16	12821.45
480.34	12936.14
480.52	13212.32
480.70	13111.68
480.88	13209.98
481.06	13139.77
481.24	13144.45
481.41	13556.38
481.59	13589.15
481.77	13853.63
481.95	13898.10
482.13	13834.91
482.31	14139.18
482.49	14153.22
482.67	14499.62
482.85	14595.58
483.03	14633.03
483.21	14654.09
483.39	14768.78
483.57	14537.07
483.74	15002.83
483.92	15005.17
484.10	15262.63
484.28	15468.60
484.46	15569.24
484.64	15761.17
484.82	15477.96
485.00	15742.44
485.18	16121.61
485.35	16535.88
485.53	16215.23
485.71	16180.12
485.89	16425.88
486.07	16301.83
486.25	16596.74
486.43	16709.08
486.61	17022.72
486.78	17296.56
486.96	17312.94
487.14	17277.83
487.32	17200.60
487.50	17633.60
487.68	17724.88
487.85	18097.02
488.03	18066.60
488.21	18054.89
488.39	18307.67
488.57	18270.22
488.75	18356.82
488.92	18541.72
489.10	19028.56
489.28	18967.70
489.46	19002.81
489.64	19044.94
489.81	19697.95
489.99	19569.22
490.17	19730.72
490.35	20065.41
490.53	19920.30
490.70	20264.36
490.88	19999.88
491.06	20294.79
491.24	20065.41
491.41	20355.64
491.59	20893.96
491.77	20973.54
491.95	20863.54
492.13	21448.67
492.30	21020.35
492.48	21383.13
492.66	21792.73
492.84	21422.92
493.01	21764.64
493.19	21439.31
493.37	21713.15
493.54	22141.47
493.72	22129.77
493.90	22501.91
494.08	22436.38
494.25	22852.99
494.43	22841.29
494.61	22955.97
494.79	23026.19
494.96	23168.96
495.14	23353.87
495.32	23356.21
495.49	23749.42
495.67	23751.76
495.85	23782.18
496.02	23711.97
496.20	23978.79
496.38	23885.17
496.55	24095.82
496.73	24584.99
496.91	24765.21
497.09	24201.14
497.26	25186.50
497.44	24531.15
497.62	25025.01
497.79	25060.12
497.97	25303.53
498.14	25949.52
498.32	25406.52
498.50	25640.57
498.67	25706.10
498.85	25247.36
499.03	26206.98
499.20	26349.75
499.38	26108.68
499.56	26342.73
499.73	26258.47
499.91	26305.28
500.08	26565.08
500.26	26445.71
500.44	26541.68
500.61	27332.78
500.79	26993.40
500.97	27014.46
501.14	27089.36
501.32	26864.67
501.49	27318.73
501.67	27346.82
501.84	27641.73
502.02	27737.69
502.20	27688.54
502.37	27573.85
502.55	27917.91
502.72	27868.76
502.90	27971.74
503.07	28114.52
503.25	28299.42
503.43	28177.71
503.60	28594.32
503.78	28397.72
503.95	28210.48
504.13	28858.81
504.30	29050.73
504.48	29127.97
504.65	29310.53
504.83	29312.87
505.01	29535.22
505.18	29202.86
505.36	29661.61
505.53	29495.43
505.71	29598.41
505.88	29935.45
506.06	29490.75
506.23	30197.59
506.41	29827.79
506.58	29797.36
506.76	29914.39
506.93	30485.48
507.11	30354.41
507.28	30754.64
507.46	30862.30
507.63	30637.61
507.81	30562.72
507.98	30464.41
508.16	30892.73
508.33	31194.66
508.50	31040.18
508.68	31016.78
508.85	31718.94
509.03	31477.86
509.20	31070.61
509.38	31742.35
509.55	31384.24
509.73	31775.11
509.90	32137.90
510.08	31854.69
510.25	31847.67
510.42	31732.98
510.60	32421.10
510.77	32287.69
510.95	32381.31
511.12	32694.94
511.30	32222.16
511.47	32872.82
511.64	32690.26
511.82	33127.94
511.99	32826.01
512.17	32889.21
512.34	32723.03
512.51	33247.31
512.69	33376.04
512.86	33436.89
513.04	33640.52
513.21	33528.17
513.38	33420.51
513.56	33944.79
513.73	33699.03
513.90	34281.83
514.08	34136.71
514.25	34033.73
514.43	34550.99
514.60	34422.26
514.77	34359.06
514.95	34756.96
515.12	34068.84
515.29	34328.64
515.47	34941.86
515.64	35026.12
515.81	35133.78
515.99	35112.72
516.16	35082.29
516.33	34773.34
516.51	35391.24
516.68	35208.68
516.85	35283.58
517.03	35215.70
517.20	35337.41
517.37	35419.33
517.54	35342.09
517.72	35604.23
517.89	35580.82
518.06	35531.67
518.24	35714.23
518.41	35992.76
518.58	35824.24
518.75	36016.16
518.93	36177.66
519.10	36046.59
519.27	36591.94
519.45	36371.92
519.62	36711.30
519.79	36933.65
519.96	36561.51
520.14	37202.82
520.31	36811.95
520.48	36753.43
520.65	37532.83
520.83	36926.63
521.00	36870.46
521.17	37048.34
521.34	37371.33
521.52	37298.78
521.69	37500.06
521.86	37542.19
522.03	37387.72
522.20	37722.41
522.38	38010.30
522.55	37958.81
522.72	38085.20
522.89	37591.34
523.07	38089.88
523.24	37785.61
523.41	38326.27
523.58	38007.96
523.75	38799.06
523.92	38679.69
524.10	38637.56
524.27	38637.56
524.44	38998.01
524.61	38848.21
524.78	38871.62
524.96	38965.24
525.13	39379.51
525.30	39164.18
525.47	39325.68
525.64	39414.62
525.81	39236.74
525.98	39398.24
526.16	39578.46
526.33	39494.20
526.50	39669.74
526.67	39379.51
526.84	39601.86
527.01	39838.26
527.18	40189.34
527.36	39632.29
527.53	40194.02
527.70	40126.14
527.87	39922.52
528.04	39915.50
528.21	40334.45
528.38	39966.99
528.55	40208.06
528.72	39882.73
528.89	40357.86
529.07	40385.94
529.24	39922.52
529.41	40528.72
529.58	40297.00
529.75	40814.26
529.92	41064.70
530.09	41104.49
530.26	41134.92
530.43	40823.62
530.60	40336.79
530.77	40755.75
530.94	41099.81
531.11	40877.46
531.28	41343.22
531.46	41418.12
531.63	41268.33
531.80	41198.11
531.97	41792.61
532.14	41612.38
532.31	41530.47
532.48	41418.12
532.65	41652.17
532.82	41961.12
532.99	42033.68
533.16	41731.75
533.33	42087.51
533.50	41801.97
533.67	42068.79
533.84	41418.12
534.01	41790.27
534.18	41961.12
534.35	42553.28
534.52	42466.68
534.69	42515.83
534.86	42941.81
535.03	42087.51
535.20	42181.13
535.37	42754.57
535.54	42630.52
535.71	42520.51
535.88	43028.41
536.05	42824.78
536.22	43613.54
536.38	42749.88
536.55	42782.65
536.72	42684.35
536.89	42974.58
537.06	43091.60
537.23	43091.60
537.40	43433.32
537.57	43281.19
537.74	43337.36
537.91	43732.91
538.08	43470.77
538.25	43363.11
538.42	43613.54
538.59	43718.87
538.75	43381.83
538.92	43892.07
539.09	43985.69
539.26	43681.42
539.43	44023.14
539.60	44032.50
539.77	43690.78
539.94	44114.42
540.11	44250.17
540.28	44289.96
540.44	44364.85
540.61	44346.13
540.78	43889.73
540.95	44004.41
541.12	44259.53
541.29	44175.27
541.46	44329.75
541.62	43866.32
541.79	44264.21
541.96	44643.38
542.13	44437.41
542.30	44837.64
542.47	44636.36
542.63	44573.16
542.80	44739.34
542.97	44959.35
543.14	45574.91
543.31	45242.56
543.48	45511.72
543.64	45977.48
543.81	46021.95
543.98	45979.82
544.15	45610.02
544.32	45659.17
544.48	46124.94
544.65	45280.00
544.82	45275.32
544.99	45560.87
545.16	45738.75
545.32	45970.46
545.49	46363.67
545.66	46424.53
545.83	45883.86
546.00	46171.75
546.16	46024.29
546.33	45574.91
546.50	45776.20
546.67	46342.61
546.83	45546.82
547.00	45745.77
547.17	45951.74
547.34	46267.71
547.50	45867.48
547.67	46518.15
547.84	46120.26
548.00	46721.77
548.17	46784.97
548.34	46714.75
548.51	46834.12
548.67	46740.50
548.84	46581.34
549.01	46124.94
549.18	45996.21
549.34	46546.23
549.51	46562.62
549.68	46775.61
549.84	46857.52
550.01	46944.12
550.18	46869.23
550.34	46983.91
550.51	47047.11
550.68	46906.68
550.84	46787.31
551.01	47236.69
551.18	46916.04
551.34	46909.02
551.51	47246.05
551.68	47503.51
551.84	47299.89
552.01	47248.39
552.18	47199.24
552.34	46810.71
552.51	47459.04
552.68	47178.18
552.84	47606.50
553.01	47796.08
553.18	47835.87
553.34	47847.57
553.51	47545.64
553.67	47538.62
553.84	47824.17
554.01	47510.53
554.17	47327.97
554.34	48217.38
554.51	47992.68
554.67	48163.54
554.84	48058.22
555.00	47835.87
555.17	47861.61
555.33	47859.27
555.50	47552.66
555.67	47908.43
555.83	48147.16
556.00	48037.16
556.16	48708.89
556.33	48226.74
556.50	48107.37
556.66	48610.59
556.83	48037.16
556.99	48257.17
557.16	48030.13
557.32	48105.03
557.49	48554.41
557.65	48126.10
557.82	48720.59
557.98	48619.95
558.15	48720.59
558.32	48697.19
558.48	48446.75
558.65	48491.22
558.81	48350.79
558.98	48226.74
559.14	48746.34
559.31	48687.82
559.47	48683.14
559.64	48931.24
559.80	48568.46
559.97	48715.91
560.13	48257.17
560.30	48528.67
560.46	48844.64
560.63	48526.33
560.79	48694.85
560.96	48903.15
561.12	49041.24
561.29	49099.76
561.45	49006.14
561.61	49132.53
561.78	49296.36
561.94	48643.35
562.11	48956.99
562.27	48643.35
562.44	48699.53
562.60	49174.66
562.77	48776.76
562.93	49127.84
563.10	49392.33
563.26	49277.64
563.42	49757.45
563.59	48861.02
563.75	49069.33
563.92	49291.68
564.08	49319.77
564.24	49530.42
564.41	49076.35
564.57	49207.42
564.74	49092.74
564.90	49200.40
565.07	49062.31
565.23	49453.18
565.39	49254.23
565.56	49272.96
565.72	49081.03
565.88	48933.58
566.05	49294.02
566.21	48964.01
566.38	49270.62
566.54	49497.65
566.70	49532.76
566.87	49389.98
567.03	49436.80
567.19	49560.84
567.36	49179.34
567.52	49081.03
567.68	49729.36
567.85	49146.57
568.01	49677.87
568.17	49492.97
568.34	49457.86
568.50	49455.52
568.66	48872.73
568.83	49523.40
568.99	49478.92
569.15	49832.35
569.32	49574.89
569.48	49411.05
569.64	49521.05
569.81	49804.26
569.97	49727.02
570.13	49610.00
570.30	49537.44
570.46	49532.76
570.62	49380.62
570.78	49659.15
570.95	49698.94
571.11	49364.24
571.27	49734.04
571.43	49441.48
571.60	49888.52
571.76	49893.20
571.92	49436.80
572.09	49813.62
572.25	49539.78
572.41	49504.67
572.57	49949.37
572.74	49996.18
572.90	49759.79
573.06	49808.94
573.22	49977.46
573.38	49874.48
573.55	49876.82
573.71	49834.69
573.87	49663.83
574.03	49516.37
574.20	50000.86
574.36	49523.40
574.52	49780.85
574.68	49783.19
574.84	50461.95
575.01	50518.12
575.17	50239.60
575.33	50000.86
575.49	50038.31
575.65	49813.62
575.82	50127.25
575.98	49792.56
576.14	50251.30
576.30	50115.55
576.46	50319.18
576.62	50281.73
576.79	50370.67
576.95	49846.39
577.11	50003.20
577.27	50129.59
577.43	49696.59
577.59	49998.52
577.75	49932.99
577.92	49666.17
578.08	49741.06
578.24	50078.10
578.40	50190.45
578.56	50192.79
578.72	50183.43
578.88	50124.91
579.04	50000.86
579.21	50120.23
579.37	49982.14
579.53	50075.76
579.69	50284.07
579.85	50031.29
580.01	50511.10
580.17	50440.89
580.33	50138.96
580.49	49666.17
580.65	49925.97
580.82	50131.93
580.98	49993.84
581.14	49673.19
581.30	50174.06
581.46	50471.31
581.62	50394.07
581.78	50356.63
581.94	50178.75
582.10	49942.35
582.26	50337.90
582.42	50387.05
582.58	50340.24
582.74	50246.62
582.90	50263.00
583.06	50040.65
583.22	50204.49
583.38	50445.57
583.54	50347.26
583.70	50337.90
583.86	50047.68
584.02	50094.49
584.18	50419.82
584.34	50157.68
584.50	50141.30
584.66	50422.16
584.82	49930.65
584.98	50520.46
585.14	50527.48
585.30	50117.89
585.46	50225.56
585.62	50291.09
585.78	50632.81
585.94	50190.45
586.10	49872.14
586.26	50230.24
586.42	50354.29
586.58	50557.91
586.74	50487.70
586.90	50396.42
587.06	50396.42
587.22	50604.72
587.38	50431.52
587.54	50593.02
587.70	50635.15
587.86	50483.01
588.02	50099.17
588.18	50532.17
588.34	50209.17
588.49	50630.47
588.65	50424.50
588.81	50735.79
588.97	50873.88
589.13	50869.20
589.29	50649.19
589.45	50663.24
589.61	50965.17
589.77	50604.72
589.93	50674.94
590.08	50539.19
590.24	50773.24
590.40	50972.19
590.56	50852.82
