SpectraSuite Data File
++++++++++++++++++++++++++++++++++++
Date: Tue Oct 01 18:27:27 GMT-05:00 2013
User: stostad
Dark Spectrum Present: No
Reference Spectrum Present: No
Number of Sampled Component Spectra: 1
Spectrometers: USB2+H05261
Integration Time (usec): 100000 (USB2+H05261)
Spectra Averaged: 1 (USB2+H05261)
Boxcar Smoothing: 0 (USB2+H05261)
Correct for Electrical Dark: No (USB2+H05261)
Strobe/Lamp Enabled: No (USB2+H05261)
Correct for Detector Non-linearity: No (USB2+H05261)
Correct for Stray Light: No (USB2+H05261)
Number of Pixels in Processed Spectrum: 2048
>>>>>Begin Processed Spectral Data<<<<<
365.73	100.64
365.92	100.64
366.12	100.64
366.32	9.36
366.52	0.00
366.72	0.00
366.91	0.00
367.11	0.00
367.31	0.00
367.51	23.41
367.70	0.00
367.90	0.00
368.10	0.00
368.30	0.00
368.49	0.00
368.69	0.00
368.89	21.06
369.09	0.00
369.28	0.00
369.48	0.00
369.68	28.09
369.87	51.49
370.07	72.56
370.27	145.11
370.47	189.58
370.66	234.05
370.86	241.08
371.06	358.10
371.25	327.68
371.45	280.86
371.65	330.02
371.84	283.20
372.04	283.20
372.24	360.44
372.44	376.83
372.63	355.76
372.83	395.55
373.03	402.57
373.22	374.49
373.42	337.04
373.62	461.09
373.81	421.30
374.01	503.22
374.21	463.43
374.40	514.92
374.60	477.47
374.79	402.57
374.99	500.87
375.19	386.19
375.38	456.40
375.58	447.04
375.78	519.60
375.97	538.32
376.17	561.73
376.37	470.45
376.56	458.74
376.76	500.87
376.95	428.32
377.15	500.87
377.35	425.98
377.54	531.30
377.74	463.43
377.93	484.49
378.13	575.77
378.33	498.53
378.52	463.43
378.72	610.88
378.91	463.43
379.11	526.62
379.31	535.98
379.50	425.98
379.70	543.00
379.89	472.79
380.09	498.53
380.28	463.43
380.48	601.52
380.68	486.83
380.87	568.75
381.07	566.41
381.26	599.18
381.46	589.82
381.65	641.31
381.85	585.13
382.04	547.69
382.24	571.09
382.43	543.00
382.63	500.87
382.83	620.24
383.02	662.37
383.22	674.07
383.41	578.11
383.61	638.97
383.80	589.82
384.00	599.18
384.19	608.54
384.39	589.82
384.58	629.60
384.78	629.60
384.97	676.41
385.17	514.92
385.36	697.48
385.56	676.41
385.75	613.22
385.95	603.86
386.14	634.29
386.34	655.35
386.53	699.82
386.72	718.54
386.92	697.48
387.11	753.65
387.31	615.56
387.50	592.16
387.70	631.94
387.89	674.07
388.09	648.33
388.28	674.07
388.48	645.99
388.67	739.61
388.86	655.35
389.06	732.59
389.25	741.95
389.45	725.57
389.64	709.18
389.84	737.27
390.03	744.29
390.22	751.31
390.42	812.17
390.61	772.38
390.81	812.17
391.00	779.40
391.19	777.06
391.39	774.72
391.58	873.02
391.78	779.40
391.97	767.70
392.16	849.61
392.36	1008.77
392.55	826.21
392.75	854.30
392.94	863.66
393.13	873.02
393.33	863.66
393.52	774.72
393.71	908.13
393.91	947.92
394.10	793.44
394.29	896.43
394.49	915.15
394.68	898.77
394.88	945.58
395.07	1001.75
395.26	1027.50
395.46	983.02
395.65	1029.84
395.84	978.34
396.04	1048.56
396.23	1053.24
396.42	1015.79
396.62	1081.33
396.81	1100.05
397.00	1027.50
397.19	1027.50
397.39	1060.26
397.58	1156.22
397.77	971.32
397.97	1074.31
398.16	1179.63
398.35	1177.29
398.55	1090.69
398.74	1135.16
398.93	1212.40
399.12	1060.26
399.32	1135.16
399.51	1144.52
399.70	1224.10
399.90	1207.72
400.09	1275.59
400.28	1214.74
400.47	1160.91
400.67	1238.14
400.86	1287.29
401.05	1320.06
401.24	1247.51
401.44	1249.85
401.63	1296.66
401.82	1313.04
402.01	1366.87
402.21	1299.00
402.40	1299.00
402.59	1397.30
402.78	1465.18
402.97	1359.85
403.17	1341.13
403.36	1357.51
403.55	1411.34
403.74	1387.94
403.93	1530.71
404.13	1488.58
404.32	1537.73
404.51	1514.33
404.70	1565.82
404.89	1516.67
405.09	1554.12
405.28	1563.48
405.47	1467.52
405.66	1631.35
405.85	1629.01
406.05	1687.53
406.24	1638.38
406.43	1647.74
406.62	1722.63
406.81	1732.00
407.00	1722.63
407.20	1650.08
407.39	1776.47
407.58	1736.68
407.77	1696.89
407.96	1781.15
408.15	1893.49
408.34	1860.73
408.54	1790.51
408.73	1881.79
408.92	1816.26
409.11	1851.36
409.30	1884.13
409.49	1907.54
409.68	1998.82
409.87	1923.92
410.07	1912.22
410.26	2069.03
410.45	2139.25
410.64	2033.93
410.83	2132.23
411.02	2033.93
411.21	2092.44
411.40	2146.27
411.59	2174.36
411.78	2279.68
411.98	2059.67
412.17	2099.46
412.36	2263.30
412.55	2275.00
412.74	2413.09
412.93	2291.38
413.12	2445.86
413.31	2471.61
413.50	2387.35
413.69	2459.90
413.88	2457.56
414.07	2560.55
414.26	2415.43
414.45	2377.98
414.64	2504.37
414.83	2710.34
415.02	2527.78
415.22	2747.79
415.41	2574.59
415.60	2743.11
415.79	2745.45
415.98	2810.98
416.17	2834.39
416.36	2747.79
416.55	2818.00
416.74	2857.79
416.93	2909.29
417.12	2951.42
417.31	2876.52
417.50	2876.52
417.69	3108.23
417.88	2965.46
418.07	2944.39
418.26	3021.63
418.45	3007.59
418.64	3176.11
418.83	3162.06
419.02	3187.81
419.21	3162.06
419.39	3148.02
419.58	3124.62
419.77	3152.70
419.96	3276.75
420.15	3265.05
420.34	3293.13
420.53	3346.97
420.72	3293.13
420.91	3339.94
421.10	3309.52
421.29	3330.58
421.48	3368.03
421.67	3613.79
421.86	3435.91
422.05	3318.88
422.24	3471.01
422.43	3337.60
422.61	3398.46
422.80	3445.27
422.99	3562.30
423.18	3602.08
423.37	3508.46
423.56	3499.10
423.75	3562.30
423.94	3473.36
424.13	3391.44
424.32	3370.37
424.50	3559.95
424.69	3660.60
424.88	3712.09
425.07	3559.95
425.26	3566.98
425.45	3466.33
425.64	3602.08
425.83	3634.85
426.01	3756.56
426.20	3702.73
426.39	3616.13
426.58	3599.74
426.77	3644.21
426.96	3602.08
427.15	3566.98
427.33	3723.79
427.52	3684.00
427.71	3728.47
427.90	3744.86
428.09	3805.71
428.28	3786.99
428.46	3761.24
428.65	3819.75
428.84	4035.08
429.03	4004.66
429.22	3906.35
429.40	4004.66
429.59	3932.10
429.78	3674.64
429.97	3899.33
430.16	3810.39
430.34	4007.00
430.53	4224.67
430.72	4002.32
430.91	3957.85
431.10	4074.87
431.28	4058.49
431.47	4152.11
431.66	4344.03
431.85	4119.34
432.03	4170.83
432.22	4278.50
432.41	4435.32
432.60	4355.74
432.79	4248.07
432.97	4322.97
433.16	4241.05
433.35	4299.56
433.54	4248.07
433.72	4440.00
433.91	4425.95
434.10	4358.08
434.28	4444.68
434.47	4449.36
434.66	4531.28
434.85	4510.21
435.03	4624.90
435.22	4706.82
435.41	4716.18
435.59	4748.95
435.78	4540.64
435.97	4629.58
436.16	4671.71
436.34	4634.26
436.53	4723.20
436.72	4704.48
436.90	4624.90
437.09	4770.01
437.28	4770.01
437.46	4720.86
437.65	4681.07
437.84	4915.12
438.02	4936.19
438.21	4798.10
438.40	4863.63
438.58	4990.02
438.77	5102.37
438.96	5004.07
439.14	5111.73
439.33	5046.20
439.52	5132.79
439.70	5233.44
439.89	5317.70
440.08	5376.21
440.26	5387.91
440.45	5448.77
440.63	5493.24
440.82	5603.24
441.01	5425.36
441.19	5617.29
441.38	5544.73
441.57	5645.37
441.75	5614.95
441.94	5741.33
442.12	5774.10
442.31	5729.63
442.50	5666.44
442.68	5916.87
442.87	5748.36
443.05	5703.89
443.24	5942.62
443.43	5996.45
443.61	5991.77
443.80	5867.72
443.98	5727.29
444.17	5703.89
444.35	6050.28
444.54	6111.14
444.73	5975.39
444.91	6115.82
445.10	6010.50
445.28	5998.79
445.47	6038.58
445.65	5907.51
445.84	6087.73
446.02	6125.18
446.21	6045.60
446.39	5991.77
446.58	6193.06
446.77	6225.82
446.95	5935.60
447.14	6019.86
447.32	6282.00
447.51	6207.10
447.69	6179.01
447.88	5970.71
448.06	6237.53
448.25	6289.02
448.43	6104.12
448.62	6361.58
448.80	6125.18
448.99	6342.85
449.17	6267.95
449.36	6333.49
449.54	6597.97
449.73	6401.37
449.91	6408.39
450.10	6555.84
450.28	6588.61
450.46	6462.22
450.65	6640.10
450.83	6677.55
451.02	6537.12
451.20	6602.65
451.39	6623.72
451.57	6546.48
451.76	6530.09
451.94	6560.52
452.13	6848.41
452.31	6691.59
452.49	6593.29
452.68	6745.42
452.86	6766.49
453.05	6820.32
453.23	6710.32
453.42	6857.77
453.60	6937.35
453.78	6972.46
453.97	6820.32
454.15	6935.01
454.34	6918.62
454.52	6965.43
454.70	6885.86
454.89	7066.08
455.07	7052.03
455.26	7068.42
455.44	7307.15
455.62	7112.89
455.81	7265.02
455.99	7290.77
456.17	7428.86
456.36	7360.98
456.54	7332.90
456.73	7595.04
456.91	7585.68
457.09	7536.52
457.28	7737.81
457.46	7494.40
457.64	7517.80
457.83	7588.02
458.01	7487.37
458.19	7763.56
458.38	7576.31
458.56	7681.64
458.74	7660.57
458.93	7779.94
459.11	7740.15
459.29	7723.77
459.48	7779.94
459.66	7864.20
459.84	7913.35
460.03	8135.70
460.21	7770.58
460.39	7920.37
460.57	7838.45
460.76	8035.06
460.94	8222.30
461.12	8030.38
461.31	8086.55
461.49	8152.09
461.67	8229.32
461.85	8262.09
462.04	8074.85
462.22	8676.37
462.40	8278.47
462.59	8135.70
462.77	8360.39
462.95	8353.37
463.13	8571.04
463.32	8299.54
463.50	8512.53
463.68	8531.25
463.86	8442.31
464.05	8290.18
464.23	8425.93
464.41	8671.68
464.59	8542.96
464.78	8692.75
464.96	8638.92
465.14	8507.85
465.32	8826.16
465.50	8774.67
465.69	8793.39
465.87	8695.09
466.05	8882.33
466.23	8807.44
466.41	8779.35
466.60	9219.37
466.78	8737.22
466.96	8718.50
467.14	8702.11
467.32	9050.85
467.51	9228.73
467.69	8727.86
467.87	8987.66
468.05	9156.18
468.23	9050.85
468.41	8975.95
468.60	9261.50
468.78	9348.10
468.96	9039.15
469.14	9132.77
469.32	9380.87
469.50	9149.15
469.69	9455.76
469.87	9359.80
470.05	9563.43
470.23	9528.32
470.41	9497.89
470.59	9631.30
470.77	9624.28
470.95	9561.09
471.14	9724.93
471.32	9706.20
471.50	9926.21
471.68	9753.01
471.86	10005.79
472.04	9893.44
472.22	9867.70
472.40	9881.74
472.58	9923.87
472.77	9914.51
472.95	10040.90
473.13	10516.03
473.31	10190.69
473.49	10340.49
473.67	10319.42
473.85	10359.21
474.03	10401.34
474.21	10604.97
474.39	10438.79
474.57	10546.45
474.75	10841.36
474.93	10839.02
475.12	10693.91
475.30	10803.91
475.48	10956.05
475.66	10967.75
475.84	11089.46
476.02	10986.47
476.20	11426.50
476.38	11360.96
476.56	11445.22
476.74	11459.26
476.92	11372.66
477.10	11527.14
477.28	11576.29
477.46	11768.21
477.64	11901.62
477.82	11920.35
478.00	12142.70
478.18	12212.92
478.36	12107.59
478.54	12264.41
478.72	12505.48
478.90	12905.71
479.08	12830.82
479.26	12791.03
479.44	12961.89
479.62	12877.63
479.80	13060.19
479.98	13184.24
480.16	13453.40
480.34	13200.62
480.52	13652.34
480.70	13357.44
480.88	13453.40
481.06	13701.50
481.24	13437.02
481.41	13598.51
481.59	14097.05
481.77	14047.90
481.95	14160.24
482.13	14373.23
482.31	14274.93
482.49	14452.81
482.67	14647.07
482.85	14970.07
483.03	15101.14
483.21	15302.42
483.39	15145.61
483.57	15302.42
483.74	15257.95
483.92	15484.98
484.10	15428.81
484.28	15618.39
484.46	15929.69
484.64	15962.45
484.82	15913.30
485.00	15997.56
485.18	16496.10
485.35	16327.58
485.53	16552.27
485.71	16585.04
485.89	17006.33
486.07	16812.07
486.25	17123.36
486.43	17207.62
486.61	17493.16
486.78	17582.10
486.96	17392.52
487.14	17736.58
487.32	18008.08
487.50	17820.84
487.68	18052.55
487.85	18602.58
488.03	18567.47
488.21	18951.32
488.39	18405.97
488.57	18808.54
488.75	19105.79
488.92	19304.74
489.10	19075.37
489.28	19342.19
489.46	19632.41
489.64	19524.75
489.81	19988.18
489.99	20198.82
490.17	20039.67
490.35	20320.53
490.53	20629.48
490.70	20596.71
490.88	20505.43
491.06	20840.13
491.24	20695.02
491.41	20961.84
491.59	21289.51
491.77	21338.66
491.95	21628.89
492.13	22068.91
492.30	21830.18
492.48	21942.52
492.66	22052.53
492.84	22052.53
493.01	22345.09
493.19	22349.78
493.37	22445.74
493.54	22272.54
493.72	22845.97
493.90	22801.50
494.08	23529.41
494.25	23503.66
494.43	23290.67
494.61	23363.23
494.79	23445.15
494.96	23744.73
495.14	23917.93
495.32	24034.96
495.49	24332.21
495.67	24233.91
495.85	24203.48
496.02	24840.11
496.20	24730.10
496.38	24741.80
496.55	25177.14
496.73	25605.46
496.91	25191.19
497.09	25252.04
497.26	25326.94
497.44	25078.84
497.62	25560.99
497.79	26066.55
497.97	26036.12
498.14	25991.65
498.32	26415.29
498.50	26258.47
498.67	26780.41
498.85	26836.58
499.03	26686.79
499.20	26649.34
499.38	27033.19
499.56	27115.11
499.73	26939.57
499.91	27197.02
500.08	27351.50
500.26	27035.53
500.44	27379.59
500.61	27597.26
500.79	27391.29
500.97	27803.22
501.14	27931.95
501.32	27967.06
501.49	28222.18
501.67	28287.71
501.84	28599.01
502.02	28556.88
502.20	28865.83
502.37	28184.73
502.55	28570.92
502.72	28882.21
502.90	29134.99
503.07	28540.49
503.25	28938.38
503.43	29214.57
503.60	29102.22
503.78	29160.73
503.95	29385.43
504.13	29652.25
504.30	29628.84
504.48	29905.02
504.65	30438.67
504.83	30602.50
505.01	30572.08
505.18	30274.83
505.36	30120.35
505.53	29806.72
505.71	30202.27
505.88	30796.77
506.06	30630.59
506.23	30927.84
506.41	30562.72
506.58	31145.51
506.76	30892.73
506.93	31096.36
507.11	31030.82
507.28	31400.63
507.46	31864.05
507.63	31381.90
507.81	31639.36
507.98	31445.10
508.16	31899.16
508.33	31646.38
508.50	31864.05
508.68	31955.33
508.85	32301.73
509.03	32158.96
509.20	32367.27
509.38	32503.02
509.55	32315.78
509.73	32439.82
509.90	32666.86
510.08	32931.34
510.25	32673.88
510.42	32748.78
510.60	33198.16
510.77	33352.63
510.95	33240.29
511.12	33198.16
511.30	33261.35
511.47	33256.67
511.64	33364.34
511.82	33872.23
511.99	33413.49
512.17	33881.60
512.34	34017.35
512.51	34176.50
512.69	34078.20
512.86	34321.62
513.04	34675.04
513.21	34202.25
513.38	34459.71
513.56	34703.12
513.73	34195.23
513.90	35175.91
514.08	35002.71
514.25	34974.63
514.43	35339.75
514.60	35079.95
514.77	35407.62
514.95	35431.03
515.12	35381.88
515.29	35204.00
515.47	35959.99
515.64	36084.04
515.81	35906.16
515.99	35857.01
516.16	36161.28
516.33	35550.40
516.51	36264.26
516.68	36067.66
516.85	36322.77
517.03	36531.08
517.20	36435.12
517.37	36641.09
517.54	36624.70
517.72	36692.58
517.89	36760.45
518.06	36500.65
518.24	36868.12
518.41	36765.14
518.58	37006.21
518.75	36631.72
518.93	37102.17
519.10	37120.90
519.27	37366.65
519.45	37347.93
519.62	37207.50
519.79	37289.42
519.96	37261.33
520.14	37755.18
520.31	37605.39
520.48	37741.14
520.65	37989.24
520.83	38368.40
521.00	38246.69
521.17	38834.17
521.34	38504.15
521.52	38824.81
521.69	38134.35
521.86	38405.85
522.03	38649.27
522.20	39105.67
522.38	39005.03
522.55	38635.22
522.72	39115.03
522.89	38815.44
523.07	39428.66
523.24	39019.07
523.41	38848.21
523.58	39035.45
523.75	39335.04
523.92	39503.56
524.10	39477.82
524.27	39688.46
524.44	39952.94
524.61	39981.03
524.78	39826.56
524.96	40137.85
525.13	39880.39
525.30	40126.14
525.47	40119.12
525.64	40673.83
525.81	40566.16
525.98	40278.28
526.16	40561.48
526.33	40439.78
526.50	41034.27
526.67	40243.17
526.84	41008.53
527.01	40507.65
527.18	41043.63
527.36	40676.17
527.53	41270.67
527.70	40935.97
527.87	41181.73
528.04	40940.65
528.21	40847.03
528.38	41462.59
528.55	41706.01
528.72	41486.00
528.89	41340.88
529.07	41235.56
529.24	41504.72
529.41	41539.83
529.58	41588.98
529.75	41598.34
529.92	41853.46
530.09	41581.96
530.26	41949.42
530.43	42663.28
530.60	41895.59
530.77	41935.38
530.94	42153.05
531.11	42017.30
531.28	42272.42
531.46	42459.66
531.63	42522.85
531.80	42667.97
531.97	42902.02
532.14	42445.62
532.31	42707.76
532.48	42555.62
532.65	42904.36
532.82	42728.82
532.99	43159.48
533.16	43147.78
533.33	43423.96
533.50	43344.38
533.67	43049.47
533.84	42895.00
534.01	43105.65
534.18	43335.02
534.35	43501.20
534.52	43426.30
534.69	43810.15
534.86	43510.56
535.03	42890.32
535.20	43445.02
535.37	44233.78
535.54	44011.43
535.71	43793.76
535.88	44046.54
536.05	43906.11
536.22	44266.55
536.38	44304.00
536.55	43915.47
536.72	44016.11
536.89	43978.67
537.06	44296.98
537.23	44273.57
537.40	44926.58
537.57	44399.96
537.74	43903.77
537.91	44594.23
538.08	44540.39
538.25	44189.31
538.42	44549.76
538.59	44971.05
538.75	44505.29
538.92	44767.43
539.09	45378.31
539.26	44708.91
539.43	44907.86
539.60	45628.74
539.77	45207.45
539.94	45280.00
540.11	45090.42
540.28	45577.25
540.44	45537.46
540.61	45071.70
540.78	45375.97
540.95	45860.46
541.12	45130.21
541.29	45031.91
541.46	45579.59
541.62	45394.69
541.79	45743.43
541.96	45366.60
542.13	45626.40
542.30	45371.28
542.47	46054.72
542.63	45860.46
542.80	45979.82
542.97	46689.01
543.14	46717.09
543.31	46277.07
543.48	46279.41
543.64	46473.68
543.81	46450.27
543.98	46469.00
544.15	46810.71
544.32	46670.28
544.48	46841.14
544.65	46899.65
544.82	47030.72
544.99	46637.51
545.16	46864.55
545.32	47054.13
545.49	47622.88
545.66	47047.11
545.83	46808.37
546.00	47281.16
546.16	46941.78
546.33	47075.19
546.50	46892.63
546.67	47491.81
546.83	47079.88
547.00	47187.54
547.17	47330.31
547.34	46918.38
547.50	47510.53
547.67	47407.55
547.84	47365.42
548.00	47592.45
548.17	47985.66
548.34	47782.04
548.51	47737.57
548.67	47861.61
548.84	47697.78
549.01	47243.71
549.18	47576.07
549.34	48032.47
549.51	48121.41
549.68	48004.39
549.84	48032.47
550.01	48179.93
550.18	47707.14
550.34	48034.81
550.51	48128.44
550.68	48205.67
550.84	47826.51
551.01	48505.26
551.18	47835.87
551.34	48334.40
551.51	48580.16
551.68	48479.52
551.84	48598.88
552.01	48062.90
552.18	48327.38
552.34	48252.48
552.51	48168.22
552.68	48491.22
552.84	48666.76
553.01	48926.56
553.18	48739.32
553.34	48622.29
553.51	48636.33
553.67	48692.50
553.84	48933.58
554.01	48821.23
554.17	48961.67
554.34	48666.76
554.51	48954.64
554.67	49382.96
554.84	48956.99
555.00	49169.97
555.17	49008.48
555.33	49078.69
555.50	49003.80
555.67	48790.81
555.83	48781.45
556.00	48945.28
556.16	49497.65
556.33	49343.17
556.50	48851.66
556.66	49453.18
556.83	49450.84
556.99	49277.64
557.16	49507.01
557.32	49492.97
557.49	49642.76
557.65	49165.29
557.82	49495.31
557.98	50003.20
558.15	49703.62
558.32	49525.74
558.48	49265.94
558.65	49595.95
558.81	49645.10
558.98	49497.65
559.14	49544.46
559.31	49411.05
559.47	49867.45
559.64	49727.02
559.80	49680.21
559.97	50000.86
560.13	49776.17
560.30	49457.86
560.46	49553.82
560.63	49752.77
560.79	49902.56
560.96	50064.06
561.12	50178.75
561.29	50244.28
561.45	50064.06
561.61	49680.21
561.78	50010.23
561.94	50080.44
562.11	50017.25
562.27	49652.12
562.44	49923.63
562.60	50045.33
562.77	50040.65
562.93	49982.14
563.10	50382.37
563.26	50138.96
563.42	50206.83
563.59	49982.14
563.75	49989.16
563.92	50206.83
564.08	49832.35
564.24	50017.25
564.41	50265.34
564.57	50316.84
564.74	50628.13
564.90	50450.25
565.07	50033.63
565.23	50141.30
565.39	50052.36
565.56	50164.70
565.72	50293.43
565.88	50637.49
566.05	50475.99
566.21	50398.76
566.38	50707.71
566.54	50543.87
566.70	50525.14
566.87	50665.58
567.03	49949.37
567.19	50492.38
567.36	50506.42
567.52	50518.12
567.68	50859.84
567.85	50639.83
568.01	50766.22
568.17	50302.79
568.34	50784.94
568.50	50604.72
568.66	50588.34
568.83	50941.76
568.99	50459.61
569.15	50351.94
569.32	50468.97
569.48	50373.01
569.64	50553.23
569.81	50726.43
569.97	50621.11
570.13	50696.00
570.30	50571.96
570.46	50436.20
570.62	50199.81
570.78	50483.01
570.95	50611.74
571.11	50677.28
571.27	50707.71
571.43	50890.27
571.60	50600.04
571.76	50747.50
571.92	50710.05
572.09	50681.96
572.25	50564.93
572.41	51110.28
572.57	50775.58
572.74	51227.31
572.90	50735.79
573.06	51173.47
573.22	50754.52
573.38	50920.70
573.55	51070.49
573.71	51026.02
573.87	50791.97
574.03	50887.93
574.20	50656.21
574.36	50845.80
574.52	50635.15
574.68	51164.11
574.84	51250.71
575.01	51292.84
575.17	51449.66
575.33	51089.21
575.49	50941.76
575.65	51192.20
575.82	50995.59
575.98	50838.78
576.14	51119.64
576.30	51381.78
576.46	51276.46
576.62	51072.83
576.79	51119.64
576.95	51246.03
577.11	50981.55
577.27	50803.67
577.43	51267.09
577.59	51157.09
577.75	51150.07
577.92	50419.82
578.08	51049.42
578.24	51290.50
578.40	51470.72
578.56	51023.68
578.72	51208.58
578.88	51566.68
579.04	50988.57
579.21	50845.80
579.37	50969.85
579.53	51299.86
579.69	51274.12
579.85	51304.54
580.01	51189.86
580.17	51126.66
580.33	51461.36
580.49	51391.14
580.65	51082.19
580.82	50869.20
580.98	51145.39
581.14	50843.46
581.30	51147.73
581.46	51089.21
581.62	51105.60
581.78	51016.66
581.94	51526.89
582.10	51119.64
582.26	51578.39
582.42	51047.08
582.58	51224.96
582.74	50810.69
582.90	51082.19
583.06	51079.85
583.22	51346.67
583.38	51327.95
583.54	51325.61
583.70	51540.94
583.86	51590.09
584.02	51344.33
584.18	51590.09
584.34	51098.58
584.50	51543.28
584.66	51267.09
584.82	51206.24
584.98	51241.35
585.14	51283.48
585.30	51047.08
585.46	51360.72
585.62	51636.90
585.78	51416.89
585.94	51304.54
586.10	50955.80
586.26	51058.79
586.42	51374.76
586.58	51089.21
586.74	51330.29
586.90	51302.20
587.06	51365.40
587.22	51770.31
587.38	51374.76
587.54	51475.40
587.70	51917.76
587.86	51426.25
588.02	51440.29
588.18	51772.65
588.34	51283.48
588.49	51503.49
588.65	51178.15
588.81	51700.09
588.97	51611.15
589.13	51903.72
589.29	52097.98
589.45	51681.37
589.61	51592.43
589.77	51728.18
589.93	51508.17
590.08	51571.36
590.24	51707.12
590.40	51903.72
