SpectraSuite Data File
++++++++++++++++++++++++++++++++++++
Date: Fri Oct 04 11:39:18 GMT-05:00 2013
User: price-jones
Dark Spectrum Present: No
Reference Spectrum Present: No
Number of Sampled Component Spectra: 1
Spectrometers: USB2+H05261
Integration Time (usec): 100000 (USB2+H05261)
Spectra Averaged: 1 (USB2+H05261)
Boxcar Smoothing: 0 (USB2+H05261)
Correct for Electrical Dark: No (USB2+H05261)
Strobe/Lamp Enabled: No (USB2+H05261)
Correct for Detector Non-linearity: No (USB2+H05261)
Correct for Stray Light: No (USB2+H05261)
Number of Pixels in Processed Spectrum: 2048
>>>>>Begin Processed Spectral Data<<<<<
365.73	9.36
365.92	9.36
366.12	9.36
366.32	28.09
366.52	0.00
366.72	0.00
366.91	0.00
367.11	0.00
367.31	0.00
367.51	0.00
367.70	0.00
367.90	0.00
368.10	0.00
368.30	0.00
368.49	0.00
368.69	0.00
368.89	11.70
369.09	0.00
369.28	65.54
369.48	0.00
369.68	0.00
369.87	42.13
370.07	11.70
370.27	30.43
370.47	44.47
370.66	135.75
370.86	264.48
371.06	290.23
371.25	285.55
371.45	280.86
371.65	280.86
371.84	234.05
372.04	351.08
372.24	301.93
372.44	320.65
372.63	325.33
372.83	407.25
373.03	278.52
373.22	320.65
373.42	278.52
373.62	318.31
373.81	390.87
374.01	362.78
374.21	369.80
374.40	367.46
374.60	468.11
374.79	362.78
374.99	376.83
375.19	334.70
375.38	400.23
375.58	400.23
375.78	360.44
375.97	444.70
376.17	470.45
376.37	461.09
376.56	341.72
376.76	362.78
376.95	414.27
377.15	372.15
377.35	458.74
377.54	365.12
377.74	397.89
377.93	407.25
378.13	433.00
378.33	479.81
378.52	447.04
378.72	440.02
378.91	496.19
379.11	472.79
379.31	351.08
379.50	437.68
379.70	526.62
379.89	550.03
380.09	397.89
380.28	512.58
380.48	479.81
380.68	447.04
380.87	472.79
381.07	507.90
381.26	517.26
381.46	402.57
381.65	491.51
381.85	475.13
382.04	538.32
382.24	505.56
382.43	528.96
382.63	435.34
382.83	477.47
383.02	468.11
383.22	519.60
383.41	594.50
383.61	514.92
383.80	578.11
384.00	594.50
384.19	535.98
384.39	568.75
384.58	566.41
384.78	617.90
384.97	568.75
385.17	592.16
385.36	550.03
385.56	517.26
385.75	519.60
385.95	552.37
386.14	585.13
386.34	482.15
386.53	545.34
386.72	594.50
386.92	690.46
387.11	634.29
387.31	582.79
387.50	606.20
387.70	561.73
387.89	622.58
388.09	578.11
388.28	557.05
388.48	704.50
388.67	648.33
388.86	657.69
389.06	671.73
389.25	582.79
389.45	615.56
389.64	641.31
389.84	634.29
390.03	704.50
390.22	697.48
390.42	603.86
390.61	636.63
390.81	664.71
391.00	723.23
391.19	704.50
391.39	681.10
391.58	788.76
391.78	802.80
391.97	718.54
392.16	706.84
392.36	826.21
392.55	720.88
392.75	720.88
392.94	770.04
393.13	784.08
393.33	779.40
393.52	770.04
393.71	791.10
393.91	755.99
394.10	821.53
394.29	812.17
394.49	758.33
394.68	774.72
394.88	734.93
395.07	805.14
395.26	770.04
395.46	828.55
395.65	821.53
395.84	802.80
396.04	873.02
396.23	910.47
396.42	812.17
396.62	980.68
396.81	889.40
397.00	889.40
397.19	929.19
397.39	952.60
397.58	919.83
397.77	894.08
397.97	987.71
398.16	1011.11
398.35	994.73
398.55	968.98
398.74	959.62
398.93	1006.43
399.12	973.66
399.32	1069.62
399.51	961.96
399.70	1076.65
399.90	1022.81
400.09	1086.01
400.28	1153.88
400.47	1050.90
400.67	1097.71
400.86	1116.44
401.05	1071.97
401.24	1071.97
401.44	1153.88
401.63	1130.48
401.82	1125.80
402.01	1158.57
402.21	1196.01
402.40	1203.04
402.59	1067.28
402.78	1254.53
402.97	1200.69
403.17	1273.25
403.36	1151.54
403.55	1282.61
403.74	1270.91
403.93	1221.76
404.13	1345.81
404.32	1334.11
404.51	1282.61
404.70	1416.02
404.89	1287.29
405.09	1355.17
405.28	1399.64
405.47	1423.05
405.66	1427.73
405.85	1404.32
406.05	1313.04
406.24	1369.21
406.43	1462.83
406.62	1409.00
406.81	1460.49
407.00	1465.18
407.20	1481.56
407.39	1441.77
407.58	1551.78
407.77	1486.24
407.96	1493.26
408.15	1540.07
408.34	1511.99
408.54	1610.29
408.73	1554.12
408.92	1715.61
409.11	1668.80
409.30	1593.90
409.49	1675.82
409.68	1710.93
409.87	1734.34
410.07	1675.82
410.26	1722.63
410.45	1783.49
410.64	1809.23
410.83	1776.47
411.02	1809.23
411.21	1804.55
411.40	1935.62
411.59	1895.83
411.78	1930.94
411.98	1818.60
412.17	1900.52
412.36	1888.81
412.55	1949.67
412.74	2036.27
412.93	2085.42
413.12	1982.43
413.31	2195.42
413.50	1980.09
413.69	2026.90
413.88	2239.89
414.07	2155.63
414.26	2305.43
414.45	2143.93
414.64	2195.42
414.83	2296.07
415.02	2235.21
415.22	2305.43
415.41	2319.47
415.60	2366.28
415.79	2417.77
415.98	2436.50
416.17	2567.57
416.36	2410.75
416.55	2485.65
416.74	2642.46
416.93	2605.02
417.12	2546.50
417.31	2541.82
417.50	2541.82
417.69	2766.51
417.88	2665.87
418.07	2754.81
418.26	2619.06
418.45	2656.51
418.64	2729.06
418.83	2682.25
419.02	2750.13
419.21	2848.43
419.39	2715.02
419.58	2803.96
419.77	2815.66
419.96	2773.53
420.15	2935.03
420.34	3007.59
420.53	3009.93
420.72	2871.84
420.91	3019.29
421.10	3059.08
421.29	3152.70
421.48	2923.33
421.67	3101.21
421.86	2939.71
422.05	3007.59
422.24	2960.78
422.43	3026.31
422.61	3150.36
422.80	3124.62
422.99	3089.51
423.18	3124.62
423.37	3115.25
423.56	2970.14
423.75	3077.80
423.94	2942.05
424.13	3005.25
424.32	3023.97
424.50	3157.38
424.69	3155.04
424.88	3087.17
425.07	3152.70
425.26	3082.49
425.45	3129.30
425.64	3211.22
425.83	3082.49
426.01	3321.22
426.20	3290.79
426.39	3047.38
426.58	3276.75
426.77	3346.97
426.96	3318.88
427.15	3155.04
427.33	3199.51
427.52	3194.83
427.71	3339.94
427.90	3426.54
428.09	3431.23
428.28	3442.93
428.46	3337.60
428.65	3487.40
428.84	3639.53
429.03	3595.06
429.22	3393.78
429.40	3562.30
429.59	3424.20
429.78	3435.91
429.97	3353.99
430.16	3304.84
430.34	3468.67
430.53	3655.92
430.72	3595.06
430.91	3550.59
431.10	3482.72
431.28	3604.42
431.47	3695.71
431.66	3782.31
431.85	3583.36
432.03	3836.14
432.22	3936.78
432.41	3709.75
432.60	4016.36
432.79	3882.95
432.97	3875.93
433.16	3934.44
433.35	3906.35
433.54	3786.99
433.72	3896.99
433.91	3918.06
434.10	3880.61
434.28	3978.91
434.47	4028.06
434.66	3927.42
434.85	3904.01
435.03	4098.28
435.22	4346.37
435.41	4533.62
435.59	4489.15
435.78	4332.33
435.97	4203.60
436.16	4124.02
436.34	4219.99
436.53	4119.34
436.72	4290.20
436.90	4100.62
437.09	4273.82
437.28	4035.08
437.46	4257.43
437.65	4320.63
437.84	4248.07
438.02	4353.40
438.21	4187.22
438.40	4311.27
438.58	4442.34
438.77	4575.75
438.96	4432.97
439.14	4409.57
439.33	4578.09
439.52	4751.29
439.70	4631.92
439.89	4587.45
440.08	4711.50
440.26	4840.23
440.45	4760.65
440.63	4720.86
440.82	4833.21
441.01	4844.91
441.19	4781.71
441.38	4952.57
441.57	5008.75
441.75	5135.14
441.94	5160.88
442.12	5025.13
442.31	5088.32
442.50	5200.67
442.68	5198.33
442.87	5261.52
443.05	5165.56
443.24	5247.48
443.43	5170.24
443.61	5324.72
443.80	5390.25
443.98	5151.52
444.17	5020.45
444.35	5364.51
444.54	5537.71
444.73	5336.42
444.91	5350.46
445.10	5469.83
445.28	5404.30
445.47	5280.25
445.65	5273.23
445.84	5446.43
446.02	5507.28
446.21	5446.43
446.39	5465.15
446.58	5614.95
446.77	5476.85
446.95	5416.00
447.14	5357.49
447.32	5495.58
447.51	5474.51
447.69	5624.31
447.88	5507.28
448.06	5493.24
448.25	5334.08
448.43	5404.30
448.62	5418.34
448.80	5584.52
448.99	5481.53
449.17	5617.29
449.36	5509.62
449.54	5687.50
449.73	5652.39
449.91	5685.16
450.10	5813.89
450.28	5860.70
450.46	5874.74
450.65	5879.43
450.83	5825.59
451.02	5746.02
451.20	5884.11
451.39	5968.37
451.57	5916.87
451.76	5881.77
451.94	6094.76
452.13	6228.17
452.31	6080.71
452.49	5834.96
452.68	5783.46
452.86	5860.70
453.05	6073.69
453.23	6122.84
453.42	5877.09
453.60	5923.90
453.78	5989.43
453.97	6111.14
454.15	6101.78
454.34	6256.25
454.52	6174.33
454.70	6356.90
454.89	6223.48
455.07	6193.06
455.26	6347.53
455.44	6314.77
455.62	6258.59
455.81	6340.51
455.99	6251.57
456.17	6363.92
456.36	6282.00
456.54	6546.48
456.73	6740.74
456.91	6579.25
457.09	6684.57
457.28	6829.68
457.46	6609.67
457.64	6913.94
457.83	6846.07
458.01	6719.68
458.19	6834.36
458.38	6836.70
458.56	6937.35
458.74	6801.60
458.93	6722.02
459.11	6916.28
459.29	6911.60
459.48	7019.27
459.66	7063.74
459.84	7045.01
460.03	7255.66
460.21	7269.70
460.39	7117.57
460.57	7012.24
460.76	7042.67
460.94	7250.98
461.12	7136.29
461.31	7215.87
461.49	7033.31
461.67	7197.15
461.85	7421.84
462.04	7248.64
462.22	7887.61
462.40	7353.96
462.59	7283.75
462.77	7419.50
462.95	7370.35
463.13	7286.09
463.32	7543.55
463.50	7466.31
463.68	7508.44
463.86	7702.70
464.05	7637.17
464.23	7508.44
464.41	7494.40
464.59	7576.31
464.78	7714.41
464.96	7674.62
465.14	7552.91
465.32	7791.64
465.50	7826.75
465.69	7824.41
465.87	7779.94
466.05	7761.22
466.23	7882.92
466.41	7817.39
466.60	7960.16
466.78	7686.32
466.96	7906.33
467.14	7852.50
467.32	7880.58
467.51	8245.71
467.69	7782.28
467.87	8107.62
468.05	7960.16
468.23	8021.02
468.41	8093.57
468.60	8124.00
468.78	8116.98
468.96	7978.89
469.14	8360.39
469.32	8475.08
469.50	7981.23
469.69	8461.04
469.87	8325.29
470.05	8198.90
470.23	8238.69
470.41	8411.89
470.59	8554.66
470.77	8496.14
470.95	8664.66
471.14	8681.05
471.32	8435.29
471.50	8667.00
471.68	8772.33
471.86	8767.65
472.04	8908.08
472.22	8861.27
472.40	8872.97
472.58	8875.31
472.77	8912.76
472.95	9057.87
473.13	9329.38
473.31	8982.98
473.49	8975.95
473.67	9153.84
473.85	9013.40
474.03	9263.84
474.21	9135.11
474.39	9514.28
474.57	9453.42
474.75	9535.34
474.93	9483.85
475.12	9575.13
475.30	9577.47
475.48	9565.77
475.66	9673.43
475.84	9750.67
476.02	9947.28
476.20	10078.35
476.38	9937.91
476.56	10256.23
476.74	10321.76
476.92	10352.19
477.10	10200.05
477.28	10307.72
477.46	10211.76
477.64	10401.34
477.82	10649.44
478.00	10593.26
478.18	10862.43
478.36	10827.32
478.54	10857.75
478.72	10967.75
478.90	11059.03
479.08	11204.14
479.26	11232.23
479.44	11321.17
479.62	11384.37
479.80	11480.33
479.98	11602.04
480.16	11765.87
480.34	11712.04
480.52	11854.81
480.70	11875.88
480.88	11831.41
481.06	11946.09
481.24	11908.65
481.41	12170.79
481.59	12327.60
481.77	12311.22
481.95	12636.55
482.13	12638.89
482.31	12280.79
482.49	13104.66
482.67	12655.28
482.85	12980.61
483.03	13078.91
483.21	13165.51
483.39	13280.20
483.57	13355.10
483.74	13743.63
483.92	13551.70
484.10	13614.90
484.28	13919.17
484.46	14078.32
484.64	14298.33
484.82	14115.77
485.00	14445.79
485.18	14611.96
485.35	14410.68
485.53	14642.39
485.71	14623.67
485.89	15101.14
486.07	14965.39
486.25	15073.05
486.43	14998.15
486.61	15166.67
486.78	15410.09
486.96	15609.03
487.14	15690.95
487.32	15861.81
487.50	16058.42
487.68	15751.81
487.85	16107.57
488.03	16362.69
488.21	16561.63
488.39	16662.27
488.57	16779.30
488.75	16727.81
488.92	17345.71
489.10	17160.81
489.28	17167.83
489.46	17467.42
489.64	17479.12
489.81	17479.12
489.99	17762.33
490.17	17809.14
490.35	18010.42
490.53	18188.30
490.70	18155.54
490.88	18066.60
491.06	18310.01
491.24	18483.21
491.41	18321.71
491.59	18647.05
491.77	18712.58
491.95	19023.87
492.13	19510.71
492.30	19276.65
492.48	18995.79
492.66	19199.41
492.84	19173.67
493.01	19562.20
493.19	19548.15
493.37	19861.79
493.54	19992.86
493.72	20053.71
493.90	19789.23
494.08	20357.98
494.25	20353.30
494.43	20409.47
494.61	20748.85
494.79	20758.21
494.96	20673.95
495.14	20697.36
495.32	20961.84
495.49	21092.91
495.67	21282.49
495.85	21451.01
496.02	21502.50
496.20	21383.13
496.38	21624.21
496.55	21909.75
496.73	22150.83
496.91	22178.92
497.09	22356.80
497.26	22455.10
497.44	22136.79
497.62	22576.81
497.79	22569.79
497.97	22759.37
498.14	22806.18
498.32	22934.91
498.50	22857.67
498.67	23470.89
498.85	23253.22
499.03	23503.66
499.20	23552.81
499.38	23419.40
499.56	23742.39
499.73	23852.40
499.91	24119.22
500.08	23910.91
500.26	23529.41
500.44	24102.84
500.61	24072.41
500.79	24194.12
500.97	24673.93
501.14	25060.12
501.32	24535.84
501.49	24893.94
501.67	24203.48
501.84	24470.30
502.02	24844.79
502.20	24706.70
502.37	25319.92
502.55	24999.26
502.72	25390.13
502.90	25490.77
503.07	25443.96
503.25	25317.57
503.43	25301.19
503.60	25645.25
503.78	25837.17
503.95	25591.42
504.13	25750.57
504.30	25766.96
504.48	25874.62
504.65	26183.57
504.83	26059.52
505.01	26546.36
505.18	26562.74
505.36	26932.54
505.53	26515.93
505.71	26569.76
505.88	26581.46
506.06	26579.12
506.23	27175.96
506.41	26953.61
506.58	27065.96
506.76	27037.87
506.93	27094.04
507.11	27300.01
507.28	27311.71
507.46	27440.44
507.63	27520.02
507.81	27770.46
507.98	27482.57
508.16	27819.61
508.33	27908.55
508.50	28299.42
508.68	27899.19
508.85	28137.92
509.03	28496.02
509.20	28428.15
509.38	28566.24
509.55	28833.06
509.73	28671.56
509.90	28751.14
510.08	28652.84
510.25	29095.20
510.42	28980.51
510.60	29336.27
510.77	28641.14
510.95	29376.06
511.12	29191.16
511.30	28858.81
511.47	29462.66
511.64	29450.96
511.82	29317.55
511.99	29937.79
512.17	29862.90
512.34	29654.59
512.51	29722.46
512.69	29965.88
512.86	30244.40
513.04	30403.56
513.21	30110.99
513.38	30820.17
513.56	30167.16
513.73	30204.61
513.90	30480.80
514.08	30682.08
514.25	30590.80
514.43	30881.03
514.60	30752.30
514.77	30927.84
514.95	30883.37
515.12	31215.72
515.29	30948.90
515.47	31541.06
515.64	31435.74
515.81	31349.14
515.99	31740.00
516.16	31599.57
516.33	31660.43
516.51	31789.16
516.68	31784.48
516.85	31512.97
517.03	31857.03
517.20	31737.66
517.37	32084.06
517.54	32734.73
517.72	32355.57
517.89	31505.95
518.06	32285.35
518.24	32348.54
518.41	32201.09
518.58	32315.78
518.75	32360.25
518.93	32622.39
519.10	32753.46
519.27	32751.12
519.45	33034.32
519.62	32870.48
519.79	33156.03
519.96	33083.47
520.14	33095.18
520.31	33319.87
520.48	33160.71
520.65	33263.69
520.83	33226.24
521.00	33134.96
521.17	33132.62
521.34	33263.69
521.52	33504.77
521.69	34052.45
521.86	33933.09
522.03	34220.97
522.20	33851.17
522.38	34157.78
522.55	34075.86
522.72	34066.50
522.89	34354.38
523.07	34583.76
523.24	34293.53
523.41	34895.05
523.58	34609.50
523.75	34600.14
523.92	34106.29
524.10	34930.16
524.27	35215.70
524.44	34967.60
524.61	35309.32
524.78	35339.75
524.96	35211.02
525.13	35344.43
525.30	35545.72
525.47	35510.61
525.64	35194.64
525.81	35323.36
525.98	35629.98
526.16	35297.62
526.33	35412.31
526.50	35833.60
526.67	35477.84
526.84	35791.47
527.01	35580.82
527.18	35765.73
527.36	36077.02
527.53	36247.88
527.70	36488.95
527.87	36088.72
528.04	36512.36
528.21	36011.48
528.38	36030.21
528.55	36474.91
528.72	36694.92
528.89	36538.10
529.07	36414.05
529.24	36734.71
529.41	36952.38
529.58	36694.92
529.75	36407.03
529.92	37198.13
530.09	36715.98
530.26	37064.72
530.43	36935.99
530.60	37228.56
530.77	37275.37
530.94	37319.84
531.11	37184.09
531.28	37270.69
531.46	37057.70
531.63	37067.06
531.80	37340.91
531.97	38026.68
532.14	37490.70
532.31	37471.98
532.48	37551.56
532.65	37736.46
532.82	37441.55
532.99	37656.88
533.16	37839.44
533.33	38405.85
533.50	38401.17
533.67	38101.58
533.84	37963.49
534.01	37876.89
534.18	37652.20
534.35	38209.25
534.52	37832.42
534.69	38471.39
534.86	38490.11
535.03	38279.46
535.20	38401.17
535.37	38466.70
535.54	38808.42
535.71	38309.89
535.88	38590.75
536.05	39079.92
536.22	38981.62
536.38	39316.32
536.55	39030.77
536.72	38789.70
536.89	39124.40
537.06	39091.63
537.23	38871.62
537.40	38998.01
537.57	39079.92
537.74	39482.50
537.91	39253.12
538.08	39220.36
538.25	39253.12
538.42	39466.11
538.59	39651.02
538.75	39115.03
538.92	39482.50
539.09	39643.99
539.26	39927.20
539.43	39810.17
539.60	39910.82
539.77	39737.62
539.94	39971.67
540.11	40481.91
540.28	39952.94
540.44	39906.13
540.61	39702.51
540.78	40575.53
540.95	40030.18
541.12	40051.25
541.29	40451.48
541.46	40837.67
541.62	40467.86
541.79	40502.97
541.96	40439.78
542.13	40360.20
542.30	40715.96
542.47	40774.47
542.63	41055.34
542.80	41186.41
542.97	41303.43
543.14	41628.77
543.31	41301.09
543.48	41106.83
543.64	41542.17
543.81	41600.68
543.98	41148.96
544.15	41839.42
544.32	42141.35
544.48	41785.58
544.65	42127.30
544.82	41427.48
544.99	41443.87
545.16	41844.10
545.32	41701.32
545.49	42630.52
545.66	42939.47
545.83	42586.05
546.00	42761.59
546.16	42124.96
546.33	42101.56
546.50	41790.27
546.67	41993.89
546.83	41415.78
547.00	42099.22
547.17	42106.24
547.34	41839.42
547.50	42351.99
547.67	42529.87
547.84	42539.24
548.00	42752.23
548.17	42532.22
548.34	42347.31
548.51	42682.01
548.67	43021.39
548.84	42260.71
549.01	42494.77
549.18	42469.02
549.34	42674.99
549.51	42698.39
549.68	42932.45
549.84	42363.70
550.01	42323.91
550.18	42574.34
550.34	42328.59
550.51	42829.46
550.68	42426.89
550.84	41942.40
551.01	43000.32
551.18	42398.80
551.34	42333.27
551.51	42857.55
551.68	42597.75
551.84	43098.62
552.01	43058.84
552.18	42738.18
552.34	43033.09
552.51	43072.88
552.68	42541.58
552.84	43313.95
553.01	43248.42
553.18	43164.16
553.34	43372.47
553.51	43040.11
553.67	43428.64
553.84	43473.11
554.01	43571.41
554.17	43117.35
554.34	43234.38
554.51	43175.86
554.67	43454.39
554.84	43447.36
555.00	43653.33
555.17	43290.55
555.33	43976.33
555.50	43896.75
555.67	43777.38
555.83	43594.82
556.00	43526.94
556.16	44254.85
556.33	43358.42
556.50	44018.46
556.66	44168.25
556.83	43658.01
556.99	44308.68
557.16	44357.83
557.32	43929.51
557.49	44189.31
557.65	43973.98
557.82	44018.46
557.98	43831.21
558.15	44112.08
558.32	44577.84
558.48	44264.21
558.65	44116.76
558.81	44451.45
558.98	43931.86
559.14	43973.98
559.31	44390.60
559.47	44191.65
559.64	44446.77
559.80	44406.98
559.97	44617.63
560.13	44203.36
560.30	44570.82
560.46	45013.18
560.63	44065.27
560.79	44797.85
560.96	44741.68
561.12	44521.67
561.29	44521.67
561.45	44470.18
561.61	45038.93
561.78	44683.17
561.94	44505.29
562.11	44893.82
562.27	44863.39
562.44	45031.91
562.60	44795.51
562.77	44758.06
562.93	44409.32
563.10	44966.37
563.26	45013.18
563.42	45029.57
563.59	45141.91
563.75	44603.59
563.92	45474.27
564.08	45045.95
564.24	44931.26
564.41	44601.25
564.57	44779.13
564.74	45024.89
564.90	45118.51
565.07	45404.05
565.23	45067.02
565.39	44734.66
565.56	44926.58
565.72	45067.02
565.88	44985.10
566.05	44872.75
566.21	44980.42
566.38	44683.17
566.54	45123.19
566.70	45322.13
566.87	45319.79
567.03	44957.01
567.19	45603.00
567.36	45099.78
567.52	45081.06
567.68	45305.75
567.85	44985.10
568.01	44980.42
568.17	44942.97
568.34	45038.93
568.50	45132.55
568.66	45132.55
568.83	45268.30
568.99	45378.31
569.15	45350.22
569.32	45378.31
569.48	44814.24
569.64	44971.05
569.81	45382.99
569.97	45219.15
570.13	45666.19
570.30	45401.71
570.46	45022.54
570.62	45104.46
570.78	45471.93
570.95	45132.55
571.11	45528.10
571.27	44978.07
571.43	45076.38
571.60	45219.15
571.76	45429.80
571.92	45191.06
572.09	45476.61
572.25	45621.72
572.41	45893.22
572.57	45776.20
572.74	45343.20
572.90	45366.60
573.06	45579.59
573.22	45432.14
573.38	45755.13
573.55	45331.50
573.71	45837.05
573.87	46202.18
574.03	45691.94
574.20	45542.14
574.36	45661.51
574.52	45523.42
574.68	45429.80
574.84	45696.62
575.01	45511.72
575.17	45507.04
575.33	45708.32
575.49	45500.01
575.65	45865.14
575.82	45998.55
575.98	45937.69
576.14	45979.82
576.30	46000.89
576.46	45308.09
576.62	45525.76
576.79	45464.91
576.95	45839.39
577.11	45977.48
577.27	45668.53
577.43	46293.46
577.59	45610.02
577.75	45603.00
577.92	45537.46
578.08	45017.86
578.24	45560.87
578.40	45649.81
578.56	45638.11
578.72	45975.14
578.88	46419.84
579.04	45783.22
579.21	45986.85
579.37	45862.80
579.53	46000.89
579.69	45808.96
579.85	45673.21
580.01	45745.77
580.17	45815.99
580.33	45979.82
580.49	45846.41
580.65	46244.30
580.82	46136.64
580.98	45832.37
581.14	46213.88
581.30	46138.98
581.46	45918.97
581.62	45874.50
581.78	45701.30
581.94	45944.72
582.10	45773.86
582.26	46066.42
582.42	45773.86
582.58	46199.83
582.74	46174.09
582.90	46312.18
583.06	46230.26
583.22	45935.35
583.38	46101.53
583.54	46129.62
583.70	46340.27
583.86	46108.55
584.02	45956.42
584.18	46431.55
584.34	46630.49
584.50	46122.60
584.66	45986.85
584.82	46073.45
584.98	46288.77
585.14	45619.38
585.30	45621.72
585.46	46178.77
585.62	45808.96
585.78	46024.29
585.94	45764.49
586.10	46298.14
586.26	45958.76
586.42	46220.90
586.58	46330.90
586.74	46216.22
586.90	46110.89
587.06	46309.84
587.22	46391.76
587.38	45811.31
587.54	46539.21
587.70	46571.98
587.86	46256.01
588.02	46403.46
588.18	46768.58
588.34	46188.13
588.49	46387.08
588.65	46237.28
588.81	45811.31
588.97	45860.46
589.13	46155.36
589.29	46775.61
589.45	46244.30
589.61	46241.96
589.77	46532.19
589.93	46536.87
590.08	46990.94
590.24	46253.67
590.40	46389.42
590.56	46469.00
590.72	46274.73
590.88	46227.92
