SpectraSuite Data File
++++++++++++++++++++++++++++++++++++
Date: Fri Oct 04 11:39:46 GMT-05:00 2013
User: price-jones
Dark Spectrum Present: No
Reference Spectrum Present: No
Number of Sampled Component Spectra: 1
Spectrometers: USB2+H05261
Integration Time (usec): 100000 (USB2+H05261)
Spectra Averaged: 1 (USB2+H05261)
Boxcar Smoothing: 0 (USB2+H05261)
Correct for Electrical Dark: No (USB2+H05261)
Strobe/Lamp Enabled: No (USB2+H05261)
Correct for Detector Non-linearity: No (USB2+H05261)
Correct for Stray Light: No (USB2+H05261)
Number of Pixels in Processed Spectrum: 2048
>>>>>Begin Processed Spectral Data<<<<<
365.73	37.45
365.92	37.45
366.12	37.45
366.32	0.00
366.52	0.00
366.72	0.00
366.91	0.00
367.11	0.00
367.31	0.00
367.51	0.00
367.70	0.00
367.90	0.00
368.10	0.00
368.30	0.00
368.49	0.00
368.69	0.00
368.89	0.00
369.09	32.77
369.28	0.00
369.48	0.00
369.68	74.90
369.87	0.00
370.07	0.00
370.27	2.34
370.47	201.29
370.66	435.34
370.86	505.56
371.06	535.98
371.25	482.15
371.45	440.02
371.65	543.00
371.84	486.83
372.04	486.83
372.24	552.37
372.44	638.97
372.63	571.09
372.83	744.29
373.03	655.35
373.22	671.73
373.42	650.67
373.62	660.03
373.81	603.86
374.01	641.31
374.21	706.84
374.40	699.82
374.60	723.23
374.79	667.05
374.99	734.93
375.19	774.72
375.38	737.27
375.58	784.08
375.78	692.80
375.97	772.38
376.17	840.25
376.37	774.72
376.56	755.99
376.76	849.61
376.95	842.59
377.15	863.66
377.35	755.99
377.54	739.61
377.74	800.46
377.93	791.10
378.13	777.06
378.33	875.36
378.52	910.47
378.72	854.30
378.91	891.74
379.11	910.47
379.31	718.54
379.50	828.55
379.70	858.98
379.89	870.68
380.09	926.85
380.28	880.04
380.48	870.68
380.68	903.45
380.87	887.06
381.07	896.43
381.26	990.05
381.46	968.98
381.65	809.83
381.85	1011.11
382.04	922.17
382.24	980.68
382.43	959.62
382.63	959.62
382.83	887.06
383.02	1022.81
383.22	1067.28
383.41	959.62
383.61	1029.84
383.80	940.90
384.00	1008.77
384.19	1118.78
384.39	1078.99
384.58	1090.69
384.78	1146.86
384.97	1050.90
385.17	1123.46
385.36	1100.05
385.56	1081.33
385.75	1177.29
385.95	1093.03
386.14	1203.04
386.34	1167.93
386.53	1062.60
386.72	1184.31
386.92	1172.61
387.11	1174.95
387.31	1219.42
387.50	1214.74
387.70	1174.95
387.89	1203.04
388.09	1282.61
388.28	1249.85
388.48	1217.08
388.67	1315.38
388.86	1306.02
389.06	1317.72
389.25	1313.04
389.45	1266.23
389.64	1273.25
389.84	1409.00
390.03	1268.57
390.22	1320.06
390.42	1411.34
390.61	1291.98
390.81	1270.91
391.00	1437.09
391.19	1411.34
391.39	1437.09
391.58	1448.79
391.78	1432.41
391.97	1502.62
392.16	1453.47
392.36	1549.43
392.55	1460.49
392.75	1481.56
392.94	1507.30
393.13	1556.46
393.33	1530.71
393.52	1554.12
393.71	1668.80
393.91	1675.82
394.10	1572.84
394.29	1596.25
394.49	1596.25
394.68	1596.25
394.88	1551.78
395.07	1589.22
395.26	1647.74
395.46	1650.08
395.65	1757.74
395.84	1696.89
396.04	1795.19
396.23	1717.95
396.42	1717.95
396.62	1860.73
396.81	1706.25
397.00	1764.76
397.19	1816.26
397.39	1785.83
397.58	1837.32
397.77	1834.98
397.97	1858.39
398.16	1870.09
398.35	1994.14
398.55	1919.24
398.74	1989.46
398.93	1987.11
399.12	2010.52
399.32	1926.26
399.51	1865.41
399.70	2001.16
399.90	2085.42
400.09	1991.80
400.28	2036.27
400.47	2062.01
400.67	2239.89
400.86	2143.93
401.05	2202.44
401.24	2090.10
401.44	2193.08
401.63	2277.34
401.82	2211.81
402.01	2326.49
402.21	2188.40
402.40	2279.68
402.59	2317.13
402.78	2275.00
402.97	2312.45
403.17	2335.85
403.36	2314.79
403.55	2326.49
403.74	2401.39
403.93	2434.16
404.13	2485.65
404.32	2455.22
404.51	2410.75
404.70	2553.52
404.89	2448.20
405.09	2651.83
405.28	2537.14
405.47	2544.16
405.66	2689.28
405.85	2675.23
406.05	2696.30
406.24	2607.36
406.43	2595.65
406.62	2764.17
406.81	2822.69
407.00	2668.21
407.20	2724.38
407.39	2775.88
407.58	2738.43
407.77	2864.82
407.96	3030.99
408.15	2913.97
408.34	3005.25
408.54	2942.05
408.73	2951.42
408.92	2850.77
409.11	3068.44
409.30	3084.83
409.49	3052.06
409.68	3016.95
409.87	3038.02
410.07	3260.37
410.26	3129.30
410.45	3192.49
410.64	3159.72
410.83	3229.94
411.02	3171.43
411.21	3478.04
411.40	3461.65
411.59	3330.58
411.78	3478.04
411.98	3468.67
412.17	3428.88
412.36	3433.57
412.55	3651.24
412.74	3653.58
412.93	3623.15
413.12	3688.68
413.31	3845.50
413.50	3688.68
413.69	3871.25
413.88	3822.09
414.07	3960.19
414.26	3932.10
414.45	3922.74
414.64	3999.98
414.83	3875.93
415.02	4044.45
415.22	4109.98
415.41	4124.02
415.60	4208.28
415.79	4273.82
415.98	4250.41
416.17	4187.22
416.36	4306.59
416.55	4475.10
416.74	4273.82
416.93	4397.87
417.12	4479.79
417.31	4655.33
417.50	4449.36
417.69	4540.64
417.88	4737.24
418.07	4730.22
418.26	4540.64
418.45	4610.86
418.64	4943.21
418.83	4809.80
419.02	4718.52
419.21	4861.29
419.39	4975.98
419.58	4844.91
419.77	4751.29
419.96	5025.13
420.15	5011.09
420.34	4947.89
420.53	5001.72
420.72	5198.33
420.91	5102.37
421.10	5036.83
421.29	5357.49
421.48	5205.35
421.67	5170.24
421.86	5102.37
422.05	5460.47
422.24	5280.25
422.43	5411.32
422.61	5481.53
422.80	5441.75
422.99	5425.36
423.18	5252.16
423.37	5427.70
423.56	5441.75
423.75	5200.67
423.94	5242.80
424.13	5104.71
424.32	4994.70
424.50	5547.07
424.69	5495.58
424.88	5474.51
425.07	5476.85
425.26	5479.19
425.45	5526.00
425.64	5511.96
425.83	5493.24
426.01	5589.20
426.20	5397.28
426.39	5584.52
426.58	5617.29
426.77	5418.34
426.96	5624.31
427.15	5575.16
427.33	5603.24
427.52	5668.78
427.71	5715.59
427.90	5788.14
428.09	5940.28
428.28	5858.36
428.46	6045.60
428.65	5928.58
428.84	5919.21
429.03	6181.35
429.22	6040.92
429.40	6040.92
429.59	6155.61
429.78	5746.02
429.97	5872.40
430.16	6059.65
430.34	6293.70
430.53	6286.68
430.72	6167.31
430.91	6239.87
431.10	6127.52
431.28	6174.33
431.47	6473.92
431.66	6473.92
431.85	6396.68
432.03	6590.95
432.22	6490.31
432.41	6581.59
432.60	6656.48
432.79	6464.56
432.97	6628.40
433.16	6647.12
433.35	6619.04
433.54	6853.09
433.72	6920.96
433.91	6740.74
434.10	6750.10
434.28	6719.68
434.47	6878.83
434.66	6927.99
434.85	7002.88
435.03	7075.44
435.22	7262.68
435.41	7538.87
435.59	7454.61
435.78	7459.29
435.97	7246.30
436.16	7150.34
436.34	7248.64
436.53	7178.42
436.72	7222.89
436.90	7187.79
437.09	7265.02
437.28	7250.98
437.46	7456.95
437.65	7309.49
437.84	7611.42
438.02	7405.46
438.21	7494.40
438.40	7456.95
438.58	7716.75
438.77	7894.63
438.96	7754.19
439.14	8072.51
439.33	8046.76
439.52	8030.38
439.70	7805.69
439.89	8135.70
440.08	8236.35
440.26	8248.05
440.45	8219.96
440.63	8222.30
440.82	8402.52
441.01	8358.05
441.19	8514.87
441.38	8613.17
441.57	8552.32
441.75	8662.32
441.94	8755.94
442.12	8791.05
442.31	9062.55
442.50	9050.85
442.68	9036.81
442.87	8896.38
443.05	8863.61
443.24	9289.59
443.43	9111.71
443.61	9130.43
443.80	9411.29
443.98	9247.46
444.17	8812.12
444.35	9387.89
444.54	9282.56
444.73	9343.42
444.91	9373.85
445.10	9217.03
445.28	9348.10
445.47	9357.46
445.65	9238.09
445.84	9399.59
446.02	9657.05
446.21	9231.07
446.39	9329.38
446.58	9764.72
446.77	9460.45
446.95	9366.82
447.14	9481.51
447.32	9486.19
447.51	9591.52
447.69	9345.76
447.88	9678.12
448.06	9437.04
448.25	9523.64
448.43	9633.64
448.62	9476.83
448.80	9689.82
448.99	9748.33
449.17	9776.42
449.36	9486.19
449.54	9912.17
449.73	10134.52
449.91	10010.47
450.10	10052.60
450.28	10026.86
450.46	9942.60
450.65	10471.56
450.83	10183.67
451.02	10132.18
451.20	10464.54
451.39	10445.81
451.57	10087.71
451.76	10366.23
451.94	10389.64
452.13	10387.30
452.31	10597.95
452.49	10225.80
452.68	10431.77
452.86	10483.26
453.05	10665.82
453.23	10457.51
453.42	10764.12
453.60	10509.01
453.78	10616.67
453.97	10483.26
454.15	10565.18
454.34	10647.10
454.52	11063.71
454.70	10885.83
454.89	10970.09
455.07	10930.30
455.26	11047.33
455.44	11176.06
455.62	11016.90
455.81	11199.46
455.99	10864.77
456.17	11597.35
456.36	11234.57
456.54	11400.75
456.73	11393.73
456.91	11730.76
457.09	11840.77
457.28	11941.41
457.46	11660.55
457.64	11910.99
457.83	11960.14
458.01	11669.91
458.19	11817.36
458.38	11803.32
458.56	12205.89
458.74	12013.97
458.93	12013.97
459.11	12255.04
459.29	11852.47
459.48	12037.38
459.66	12009.29
459.84	12318.24
460.03	12491.44
460.21	12147.38
460.39	12428.24
460.57	12189.51
460.76	12559.31
460.94	12659.96
461.12	12510.16
461.31	12624.85
461.49	12482.08
461.67	12519.53
461.85	13046.15
462.04	12631.87
462.22	13624.26
462.40	13083.59
462.59	13036.78
462.77	13085.94
462.95	13209.98
463.13	13205.30
463.32	13015.72
463.50	13284.88
463.68	13448.72
463.86	13142.11
464.05	13114.02
464.23	13331.69
464.41	13256.79
464.59	13181.90
464.78	13551.70
464.96	13565.74
465.14	13200.62
465.32	13671.07
465.50	13518.93
465.69	13582.13
465.87	13418.29
466.05	13294.24
466.23	13846.61
466.41	13968.32
466.60	13989.38
466.78	13509.57
466.96	13853.63
467.14	13408.93
467.32	14001.08
467.51	14246.84
467.69	13991.72
467.87	14319.40
468.05	14085.34
468.23	13984.70
468.41	14134.50
468.60	14239.82
468.78	14490.26
468.96	14115.77
469.14	14534.73
469.32	14537.07
469.50	14197.69
469.69	14665.80
469.87	14480.89
470.05	14696.22
470.23	14726.65
470.41	14642.39
470.59	14897.51
470.77	14743.03
470.95	14995.81
471.14	15059.01
471.32	15220.50
471.50	15325.83
471.68	15494.35
471.86	15227.53
472.04	15527.11
472.22	15932.03
472.40	15592.65
472.58	15913.30
472.77	15882.88
472.95	15929.69
473.13	16507.80
473.31	16032.67
473.49	16177.78
473.67	16102.89
473.85	16030.33
474.03	16491.41
474.21	16486.73
474.39	16762.92
474.57	17090.59
474.75	17156.13
474.93	17202.94
475.12	16901.01
475.30	17102.29
475.48	16966.54
475.66	17216.98
475.84	17350.39
476.02	17427.63
476.20	17249.75
476.38	17731.90
476.56	17916.80
476.74	17984.68
476.92	18075.96
477.10	18155.54
477.28	18251.50
477.46	18340.44
477.64	18523.00
477.82	18696.20
478.00	19194.73
478.18	19286.01
478.36	18937.27
478.54	19358.57
478.72	19632.41
478.90	19583.26
479.08	19978.81
479.26	20009.24
479.44	19786.89
479.62	20198.82
479.80	20545.22
479.98	20620.12
480.16	21027.37
480.34	20545.22
480.52	21305.90
480.70	21376.11
480.88	21081.21
481.06	21277.81
481.24	21245.04
481.41	21500.16
481.59	22136.79
481.77	22478.50
481.95	22244.45
482.13	22228.07
482.31	22258.49
482.49	22759.37
482.67	22483.19
482.85	22979.38
483.03	23211.09
483.21	23393.65
483.39	23536.43
483.57	23821.97
483.74	23882.83
483.92	24259.65
484.10	23960.06
484.28	24709.04
484.46	25125.65
484.64	25352.68
484.82	25275.45
485.00	25591.42
485.18	25933.14
485.35	26293.58
485.53	26218.68
485.71	25874.62
485.89	26927.86
486.07	26895.10
486.25	26693.81
486.43	27105.74
486.61	27379.59
486.78	27328.10
486.96	27704.92
487.14	27864.08
487.32	28130.90
487.50	28009.19
487.68	28680.92
487.85	28922.00
488.03	29305.85
488.21	29434.58
488.39	29465.00
488.57	30024.39
488.75	29469.69
488.92	30218.66
489.10	30150.78
489.28	30845.92
489.46	31206.36
489.64	31182.96
489.81	31761.07
489.99	31271.90
490.17	31690.85
490.35	32231.52
490.53	31899.16
490.70	32364.93
490.88	32505.36
491.06	32634.09
491.24	32634.09
491.41	33095.18
491.59	33048.36
491.77	33670.95
491.95	34263.10
492.13	34302.89
492.30	33928.41
492.48	33919.04
492.66	34469.07
492.84	34398.85
493.01	34768.66
493.19	35009.73
493.37	35510.61
493.54	35735.30
493.72	35517.63
493.90	36039.57
494.08	36128.51
494.25	36678.54
494.43	36699.60
494.61	37422.83
494.79	37357.29
494.96	37471.98
495.14	37694.33
495.32	37551.56
495.49	37380.70
495.67	37720.07
495.85	38164.78
496.02	38337.98
496.20	38899.70
496.38	38738.21
496.55	39253.12
496.73	39608.89
496.91	39517.60
497.09	39948.26
497.26	39913.16
497.44	39735.27
497.62	40222.11
497.79	40549.78
497.97	40601.27
498.14	40999.16
498.32	40800.22
498.50	40999.16
498.67	41553.87
498.85	41237.90
499.03	41455.57
499.20	41972.83
499.38	41970.49
499.56	42389.44
499.73	42337.95
499.91	42646.90
500.08	42696.05
500.26	42380.08
500.44	42923.08
500.61	42955.85
500.79	43068.20
500.97	43826.53
501.14	43784.40
501.32	43899.09
501.49	44128.46
501.67	44074.63
501.84	43845.26
502.02	44212.72
502.20	44189.31
502.37	44554.44
502.55	44842.32
502.72	45059.99
502.90	44685.51
503.07	44367.20
503.25	44971.05
503.43	45078.72
503.60	45516.40
503.78	45425.12
503.95	45450.86
504.13	45897.91
504.30	45223.83
504.48	45392.35
504.65	46052.38
504.83	46436.23
505.01	46431.55
505.18	46733.48
505.36	46710.07
505.53	46913.70
505.71	46960.51
505.88	46953.49
506.06	47049.45
506.23	47402.87
506.41	47683.73
506.58	47924.81
506.76	47604.16
506.93	47938.85
507.11	47882.68
507.28	47756.29
507.46	48081.63
507.63	48264.19
507.81	48542.71
507.98	48385.89
508.16	48215.04
508.33	48350.79
508.50	48603.56
508.68	48896.13
508.85	49429.77
509.03	48741.66
509.20	48931.24
509.38	49691.91
509.55	49647.44
509.73	49481.27
509.90	49806.60
510.08	49766.81
510.25	49972.78
510.42	49717.66
510.60	50438.54
510.77	50714.73
510.95	50808.35
511.12	50099.17
511.30	50068.74
511.47	50323.86
511.64	50616.43
511.82	51119.64
511.99	51075.17
512.17	51178.15
512.34	51019.00
512.51	51306.88
512.69	51363.06
512.86	51620.52
513.04	51730.52
513.21	51657.96
513.38	51887.34
513.56	51910.74
513.73	51704.77
513.90	51899.04
514.08	51812.44
514.25	52266.50
514.43	52140.11
514.60	52325.02
514.77	52175.22
514.95	52650.35
515.12	52088.62
515.29	52301.61
515.47	52802.49
515.64	52708.86
515.81	52844.62
515.99	52891.43
516.16	52954.62
516.33	52963.98
516.51	53104.41
516.68	53027.18
516.85	53418.05
517.03	53378.26
517.20	53305.70
517.37	53446.13
517.54	53865.09
517.72	53497.62
517.89	53783.17
518.06	53797.21
518.24	53689.55
518.41	53694.23
518.58	54220.85
518.75	53881.47
518.93	54227.87
519.10	54120.21
519.27	54415.11
519.45	54169.36
519.62	54085.10
519.79	54607.04
519.96	54576.61
520.14	54803.64
520.31	54302.77
520.48	54550.87
520.65	55054.08
520.83	54887.90
521.00	54817.69
521.17	54721.72
521.34	54759.17
521.52	55058.76
521.69	55327.92
521.86	55393.46
522.03	55571.34
522.20	55358.35
522.38	55304.52
522.55	55238.98
522.72	55260.05
522.89	55475.38
523.07	55606.45
523.24	55941.14
523.41	55842.84
523.58	55711.77
523.75	56093.28
523.92	55852.20
524.10	55800.71
524.27	55973.91
524.44	56126.05
524.61	56317.97
524.78	56313.29
524.96	56341.38
525.13	56299.25
525.30	56535.64
525.47	56608.20
525.64	56341.38
525.81	56535.64
525.98	56570.75
526.16	56727.56
526.33	56704.16
526.50	57256.53
526.67	56343.72
526.84	56842.25
527.01	56996.73
527.18	56900.76
527.36	56877.36
527.53	57116.09
527.70	57256.53
527.87	57352.49
528.04	57357.17
528.21	57338.44
528.38	57244.82
528.55	57272.91
528.72	57188.65
528.89	57485.90
529.07	57542.07
529.24	57371.21
529.41	57429.72
529.58	57209.71
529.75	57631.01
529.92	57462.49
530.09	57703.57
530.26	57647.39
530.43	57546.75
530.60	57652.08
530.77	57801.87
530.94	57902.51
531.11	57642.71
531.28	57808.89
531.46	57916.56
531.63	58042.95
531.80	58115.50
531.97	58356.58
532.14	58363.60
532.31	58174.02
532.48	58305.09
532.65	58405.73
532.82	58108.48
532.99	58466.58
533.16	58295.72
533.33	58541.48
533.50	58798.94
533.67	58630.42
533.84	58410.41
534.01	58681.91
534.18	58478.28
534.35	58812.98
534.52	58691.27
534.69	58834.05
534.86	58859.79
535.03	58717.02
535.20	58841.07
535.37	58969.80
535.54	59056.40
535.71	58777.87
535.88	59035.33
536.05	59009.59
536.22	59269.39
536.38	59194.49
536.55	59164.06
536.72	59330.24
536.89	59037.67
537.06	59341.94
537.23	59250.66
537.40	59154.70
537.57	59388.75
537.74	59238.96
537.91	59538.55
538.08	59641.53
538.25	59430.88
538.42	59772.60
538.59	59536.21
538.75	59344.28
538.92	59561.95
539.09	59545.57
539.26	59891.97
539.43	59922.40
539.60	59793.67
539.77	59840.48
539.94	60060.49
540.11	59824.09
540.28	59973.89
540.44	59943.46
540.61	59976.23
540.78	59976.23
540.95	60048.78
541.12	60320.29
541.29	60224.32
541.46	60144.75
541.62	60163.47
541.79	60385.82
541.96	60032.40
542.13	60067.51
542.30	60296.88
542.47	60608.17
542.63	60425.61
542.80	60643.28
542.97	60657.32
543.14	60905.42
543.31	60549.66
543.48	60729.88
543.64	60924.14
543.81	60919.46
543.98	60968.61
544.15	60942.87
544.32	60968.61
544.48	61087.98
544.65	61024.79
544.82	61008.40
544.99	60903.08
545.16	60935.85
545.32	60947.55
545.49	61247.14
545.66	61537.36
545.83	61450.77
546.00	61804.19
546.16	61357.14
546.33	61132.45
546.50	60926.49
546.67	61193.31
546.83	60898.40
547.00	61165.22
547.17	61249.48
547.34	61305.65
547.50	61392.25
547.67	61535.02
547.84	61483.53
548.00	61558.43
548.17	61666.09
548.34	61436.72
548.51	61556.09
548.67	61652.05
548.84	61520.98
549.01	61673.12
549.18	61504.60
549.34	61675.46
549.51	61570.13
549.68	61743.33
549.84	61579.49
550.01	61745.67
550.18	61476.51
550.34	61581.84
550.51	61860.36
550.68	61872.06
550.84	61755.03
551.01	61946.96
551.18	61736.31
551.34	61439.06
551.51	61879.08
551.68	62063.99
551.84	62021.86
552.01	62031.22
552.18	62075.69
552.34	62021.86
552.51	62178.67
552.68	61872.06
552.84	62035.90
553.01	62085.05
553.18	62120.16
553.34	62321.44
553.51	62185.69
553.67	62265.27
553.84	62386.98
554.01	62211.44
554.17	62459.54
554.34	62319.10
554.51	62157.61
554.67	62443.15
554.84	62279.31
555.00	62300.38
555.17	62340.17
555.33	62480.60
555.50	62386.98
555.67	62550.82
555.83	62356.55
556.00	62433.79
556.16	62611.67
556.33	62489.96
556.50	62438.47
556.66	62454.86
556.83	62513.37
556.99	62663.16
557.16	62709.97
557.32	62768.49
557.49	62651.46
557.65	62550.82
557.82	62801.25
557.98	62756.78
558.15	62700.61
558.32	62789.55
558.48	62883.17
558.65	62937.01
558.81	62770.83
558.98	62894.88
559.14	62677.21
559.31	62714.65
559.47	62911.26
559.64	62798.91
559.80	62857.43
559.97	62927.64
560.13	63004.88
560.30	63030.63
560.46	62934.66
560.63	63030.63
560.79	63054.03
560.96	63032.97
561.12	62988.50
561.29	62948.71
561.45	62990.84
561.61	63173.40
561.78	63054.03
561.94	63236.59
562.11	63051.69
562.27	63145.31
562.44	63180.42
562.60	63037.65
562.77	63194.46
562.93	63117.23
563.10	63388.73
563.26	63145.31
563.42	63358.30
563.59	63405.11
563.75	63295.11
563.92	63573.63
564.08	63267.02
564.24	63206.17
564.41	63302.13
564.57	63257.66
564.74	63224.89
564.90	63388.73
565.07	63526.82
565.23	63531.50
565.39	63348.94
565.56	63362.98
565.72	63281.06
565.88	63451.92
566.05	63370.00
566.21	63332.56
566.38	63224.89
566.54	63264.68
566.70	63510.44
566.87	63639.17
567.03	63641.51
567.19	63744.49
567.36	63552.57
567.52	63393.41
567.68	63566.61
567.85	63267.02
568.01	63341.92
568.17	63430.86
568.34	63575.97
568.50	63524.48
568.66	63643.85
568.83	63723.43
568.99	63564.27
569.15	63606.40
569.32	63377.03
569.48	63760.87
569.64	63538.52
569.81	63545.54
569.97	63599.38
570.13	63693.00
570.30	63620.44
570.46	63791.30
570.62	63590.01
570.78	63608.74
570.95	63480.01
571.11	63693.00
571.27	63416.82
571.43	63669.59
571.60	63643.85
571.76	63643.85
571.92	63833.43
572.09	63779.60
572.25	63856.84
572.41	63709.38
572.57	63861.52
572.74	63941.10
572.90	63905.99
573.06	63807.68
573.22	63838.11
573.38	63807.68
573.55	63870.88
573.71	64095.57
573.87	63845.13
574.03	63749.17
574.20	63978.54
574.36	63767.90
574.52	63522.14
574.68	63772.58
574.84	63870.88
575.01	63800.66
575.17	63959.82
575.33	63931.73
575.49	63826.41
575.65	64093.23
575.82	63997.27
575.98	63770.24
576.14	63992.59
576.30	63983.22
576.46	63955.14
576.62	63910.67
576.79	64013.65
576.95	63795.98
577.11	64100.25
577.27	64102.59
577.43	64165.79
577.59	63959.82
577.75	64027.70
577.92	64023.01
578.08	63856.84
578.24	63774.92
578.40	64090.89
578.56	64130.68
578.72	64032.38
578.88	64348.35
579.04	64336.65
579.21	64140.04
579.37	64130.68
579.53	64111.95
579.69	63838.11
579.85	63943.44
580.01	64231.32
580.17	63959.82
580.33	64100.25
580.49	63973.86
580.65	64044.08
580.82	64111.95
580.98	64189.19
581.14	64090.89
581.30	64317.92
581.46	63788.96
581.62	63959.82
581.78	63861.52
581.94	64041.74
582.10	64062.80
582.26	64165.79
582.42	64177.49
582.58	64140.04
582.74	64172.81
582.90	64250.05
583.06	64350.69
583.22	64074.51
583.38	64123.66
583.54	63957.48
583.70	64088.55
583.86	63957.48
584.02	63976.20
584.18	64331.96
584.34	64341.33
584.50	64271.11
584.66	64147.06
584.82	63950.46
584.98	64130.68
585.14	64142.38
585.30	64015.99
585.46	64214.94
585.62	64107.27
585.78	64240.68
585.94	64006.63
586.10	64264.09
586.26	64175.15
586.42	64587.08
586.58	64362.39
586.74	64170.47
586.90	64102.59
587.06	64046.42
587.22	64275.79
587.38	64189.19
587.54	64243.02
587.70	64498.14
587.86	64521.55
588.02	64310.90
588.18	64535.59
588.34	64350.69
588.49	64448.99
588.65	64219.62
