SpectraSuite Data File
++++++++++++++++++++++++++++++++++++
Date: Fri Oct 04 11:39:57 GMT-05:00 2013
User: price-jones
Dark Spectrum Present: No
Reference Spectrum Present: No
Number of Sampled Component Spectra: 1
Spectrometers: USB2+H05261
Integration Time (usec): 100000 (USB2+H05261)
Spectra Averaged: 1 (USB2+H05261)
Boxcar Smoothing: 0 (USB2+H05261)
Correct for Electrical Dark: No (USB2+H05261)
Strobe/Lamp Enabled: No (USB2+H05261)
Correct for Detector Non-linearity: No (USB2+H05261)
Correct for Stray Light: No (USB2+H05261)
Number of Pixels in Processed Spectrum: 2048
>>>>>Begin Processed Spectral Data<<<<<
365.73	60.85
365.92	60.85
366.12	60.85
366.32	0.00
366.52	0.00
366.72	7.02
366.91	0.00
367.11	0.00
367.31	0.00
367.51	0.00
367.70	0.00
367.90	0.00
368.10	0.00
368.30	0.00
368.49	0.00
368.69	0.00
368.89	0.00
369.09	0.00
369.28	0.00
369.48	0.00
369.68	0.00
369.87	65.54
370.07	0.00
370.27	77.24
370.47	37.45
370.66	42.13
370.86	107.66
371.06	84.26
371.25	131.07
371.45	88.94
371.65	58.51
371.84	84.26
372.04	84.26
372.24	105.32
372.44	126.39
372.63	173.20
372.83	124.05
373.03	131.07
373.22	138.09
373.42	196.60
373.62	184.90
373.81	227.03
374.01	187.24
374.21	145.11
374.40	175.54
374.60	105.32
374.79	149.79
374.99	128.73
375.19	154.48
375.38	170.86
375.58	159.16
375.78	187.24
375.97	159.16
376.17	203.63
376.37	180.22
376.56	196.60
376.76	107.66
376.95	168.52
377.15	205.97
377.35	194.26
377.54	140.43
377.74	177.88
377.93	119.37
378.13	234.05
378.33	215.33
378.52	163.84
378.72	245.76
378.91	156.82
379.11	149.79
379.31	241.08
379.50	145.11
379.70	161.50
379.89	201.29
380.09	170.86
380.28	100.64
380.48	135.75
380.68	156.82
380.87	231.71
381.07	138.09
381.26	173.20
381.46	198.95
381.65	168.52
381.85	175.54
382.04	138.09
382.24	119.37
382.43	177.88
382.63	133.41
382.83	124.05
383.02	184.90
383.22	161.50
383.41	180.22
383.61	177.88
383.80	135.75
384.00	173.20
384.19	191.92
384.39	196.60
384.58	264.48
384.78	255.12
384.97	142.77
385.17	187.24
385.36	142.77
385.56	241.08
385.75	201.29
385.95	187.24
386.14	208.31
386.34	194.26
386.53	201.29
386.72	154.48
386.92	255.12
387.11	243.42
387.31	184.90
387.50	212.99
387.70	208.31
387.89	259.80
388.09	154.48
388.28	145.11
388.48	234.05
388.67	234.05
388.86	231.71
389.06	205.97
389.25	203.63
389.45	217.67
389.64	208.31
389.84	222.35
390.03	308.95
390.22	224.69
390.42	276.18
390.61	238.73
390.81	180.22
391.00	231.71
391.19	229.37
391.39	220.01
391.58	227.03
391.78	208.31
391.97	276.18
392.16	156.82
392.36	205.97
392.55	234.05
392.75	285.55
392.94	229.37
393.13	294.91
393.33	227.03
393.52	250.44
393.71	311.29
393.91	262.14
394.10	231.71
394.29	177.88
394.49	304.27
394.68	280.86
394.88	262.14
395.07	252.78
395.26	236.39
395.46	301.93
395.65	322.99
395.84	257.46
396.04	280.86
396.23	325.33
396.42	203.63
396.62	311.29
396.81	320.65
397.00	318.31
397.19	299.59
397.39	383.85
397.58	344.06
397.77	264.48
397.97	278.52
398.16	337.04
398.35	304.27
398.55	327.68
398.74	358.10
398.93	273.84
399.12	325.33
399.32	395.55
399.51	339.38
399.70	358.10
399.90	318.31
400.09	369.80
400.28	388.53
400.47	351.08
400.67	390.87
400.86	404.91
401.05	397.89
401.24	454.06
401.44	468.11
401.63	402.57
401.82	477.47
402.01	397.89
402.21	411.93
402.40	435.34
402.59	383.85
402.78	379.17
402.97	458.74
403.17	493.85
403.36	489.17
403.55	386.19
403.74	440.02
403.93	512.58
404.13	561.73
404.32	594.50
404.51	521.94
404.70	521.94
404.89	442.36
405.09	468.11
405.28	524.28
405.47	447.04
405.66	582.79
405.85	540.66
406.05	543.00
406.24	517.26
406.43	543.00
406.62	564.07
406.81	571.09
407.00	615.56
407.20	559.39
407.39	615.56
407.58	653.01
407.77	603.86
407.96	653.01
408.15	610.88
408.34	671.73
408.54	648.33
408.73	678.76
408.92	667.05
409.11	774.72
409.30	737.27
409.49	650.67
409.68	725.57
409.87	704.50
410.07	660.03
410.26	697.48
410.45	730.25
410.64	779.40
410.83	664.71
411.02	753.65
411.21	837.91
411.40	805.14
411.59	828.55
411.78	807.48
411.98	784.08
412.17	767.70
412.36	833.23
412.55	849.61
412.74	844.93
412.93	894.08
413.12	821.53
413.31	866.00
413.50	943.24
413.69	903.45
413.88	1027.50
414.07	976.00
414.26	924.51
414.45	896.43
414.64	940.90
414.83	992.39
415.02	1032.18
415.22	1029.84
415.41	1034.52
415.60	1041.54
415.79	1011.11
415.98	1100.05
416.17	1025.15
416.36	1097.71
416.55	1064.94
416.74	1050.90
416.93	1074.31
417.12	1181.97
417.31	1095.37
417.50	1188.99
417.69	1210.06
417.88	1151.54
418.07	1193.67
418.26	1144.52
418.45	1160.91
418.64	1270.91
418.83	1146.86
419.02	1226.44
419.21	1327.08
419.39	1301.34
419.58	1170.27
419.77	1334.11
419.96	1331.76
420.15	1277.93
420.34	1188.99
420.53	1259.21
420.72	1380.92
420.91	1153.88
421.10	1282.61
421.29	1345.81
421.48	1275.59
421.67	1268.57
421.86	1329.42
422.05	1432.41
422.24	1357.51
422.43	1430.07
422.61	1371.55
422.80	1383.26
422.99	1263.89
423.18	1444.11
423.37	1390.28
423.56	1430.07
423.75	1399.64
423.94	1291.98
424.13	1322.40
424.32	1329.42
424.50	1376.24
424.69	1416.02
424.88	1430.07
425.07	1390.28
425.26	1406.66
425.45	1432.41
425.64	1530.71
425.83	1453.47
426.01	1423.05
426.20	1519.01
426.39	1528.37
426.58	1469.86
426.77	1479.22
426.96	1483.90
427.15	1451.13
427.33	1528.37
427.52	1476.88
427.71	1432.41
427.90	1575.18
428.09	1600.93
428.28	1523.69
428.46	1444.11
428.65	1495.60
428.84	1671.14
429.03	1593.90
429.22	1460.49
429.40	1638.38
429.59	1568.16
429.78	1458.15
429.97	1582.20
430.16	1479.22
430.34	1584.54
430.53	1598.59
430.72	1638.38
430.91	1631.35
431.10	1671.14
431.28	1685.19
431.47	1706.25
431.66	1706.25
431.85	1750.72
432.03	1645.40
432.22	1732.00
432.41	1739.02
432.60	1806.89
432.79	1661.78
432.97	1664.12
433.16	1717.95
433.35	1727.32
433.54	1767.10
433.72	1825.62
433.91	1689.87
434.10	1757.74
434.28	1797.53
434.47	1813.92
434.66	1781.15
434.85	1849.02
435.03	1947.33
435.22	2050.31
435.41	2375.64
435.59	2319.47
435.78	2321.81
435.97	1973.07
436.16	1916.90
436.34	1877.11
436.53	1872.43
436.72	1863.07
436.90	1888.81
437.09	1959.03
437.28	1825.62
437.46	1802.21
437.65	2045.63
437.84	2026.90
438.02	1994.14
438.21	2033.93
438.40	1891.15
438.58	1933.28
438.77	1949.67
438.96	2022.22
439.14	2153.29
439.33	2069.03
439.52	2066.69
439.70	2092.44
439.89	2050.31
440.08	2120.53
440.26	2153.29
440.45	2115.84
440.63	2148.61
440.82	2146.27
441.01	2188.40
441.19	2232.87
441.38	2279.68
441.57	2270.32
441.75	2244.57
441.94	2251.60
442.12	2279.68
442.31	2387.35
442.50	2312.45
442.68	2225.85
442.87	2230.53
443.05	2356.92
443.24	2422.45
443.43	2375.64
443.61	2396.71
443.80	2347.56
443.98	2321.81
444.17	2406.07
444.35	2408.41
444.54	2429.48
444.73	2349.90
444.91	2356.92
445.10	2438.84
445.28	2497.35
445.47	2324.15
445.65	2509.05
445.84	2331.17
446.02	2392.03
446.21	2328.83
446.39	2420.11
446.58	2466.92
446.77	2380.32
446.95	2305.43
447.14	2495.01
447.32	2527.78
447.51	2310.11
447.69	2424.80
447.88	2471.61
448.06	2438.84
448.25	2422.45
448.43	2415.43
448.62	2450.54
448.80	2551.18
448.99	2375.64
449.17	2551.18
449.36	2326.49
449.54	2518.42
449.73	2499.69
449.91	2480.97
450.10	2574.59
450.28	2586.29
450.46	2637.78
450.65	2609.70
450.83	2583.95
451.02	2640.12
451.20	2654.17
451.39	2574.59
451.57	2605.02
451.76	2612.04
451.94	2658.85
452.13	2595.65
452.31	2792.26
452.49	2572.25
452.68	2691.62
452.86	2560.55
453.05	2710.34
453.23	2782.90
453.42	2668.21
453.60	2675.23
453.78	2834.39
453.97	2719.70
454.15	2696.30
454.34	2750.13
454.52	2801.62
454.70	2822.69
454.89	2782.90
455.07	2778.22
455.26	2822.69
455.44	2850.77
455.62	2768.85
455.81	2789.92
455.99	2846.09
456.17	2857.79
456.36	2890.56
456.54	2918.65
456.73	2956.10
456.91	2951.42
457.09	2998.23
457.28	3248.66
457.46	3094.19
457.64	2995.89
457.83	2918.65
458.01	2913.97
458.19	3023.97
458.38	3124.62
458.56	3019.29
458.74	3026.31
458.93	2979.50
459.11	2972.48
459.29	3019.29
459.48	3087.17
459.66	3066.10
459.84	3199.51
460.03	3091.85
460.21	3122.27
460.39	3145.68
460.57	3110.57
460.76	3258.03
460.94	3239.30
461.12	3187.81
461.31	3192.49
461.49	3185.47
461.67	3138.66
461.85	3115.25
462.04	3194.83
462.22	3688.68
462.40	3370.37
462.59	3405.48
462.77	3187.81
462.95	3236.96
463.13	3145.68
463.32	3335.26
463.50	3447.61
463.68	3269.73
463.86	3346.97
464.05	3173.77
464.23	3218.24
464.41	3328.24
464.59	3222.92
464.78	3501.44
464.96	3356.33
465.14	3269.73
465.32	3379.73
465.50	3426.54
465.69	3492.08
465.87	3482.72
466.05	3442.93
466.23	3314.20
466.41	3414.84
466.60	3475.70
466.78	3337.60
466.96	3482.72
467.14	3426.54
467.32	3419.52
467.51	3485.06
467.69	3421.86
467.87	3482.72
468.05	3602.08
468.23	3597.40
468.41	3590.38
468.60	3545.91
468.78	3454.63
468.96	3562.30
469.14	3667.62
469.32	3637.19
469.50	3562.30
469.69	3723.79
469.87	3583.36
470.05	3691.02
470.23	3674.64
470.41	3758.90
470.59	3707.41
470.77	3698.05
470.95	3646.55
471.14	3751.88
471.32	3854.86
471.50	3796.35
471.68	3894.65
471.86	3815.07
472.04	3714.43
472.22	3840.82
472.40	3892.31
472.58	3950.82
472.77	3763.58
472.95	3946.14
473.13	4060.83
473.31	3871.25
473.49	3967.21
473.67	3946.14
473.85	4016.36
474.03	4140.41
474.21	4086.58
474.39	4091.26
474.57	4145.09
474.75	4154.45
474.93	4072.53
475.12	4198.92
475.30	4173.18
475.48	4224.67
475.66	4259.78
475.84	4313.61
476.02	4229.35
476.20	4292.54
476.38	4353.40
476.56	4465.74
476.74	4440.00
476.92	4358.08
477.10	4493.83
477.28	4592.13
477.46	4400.21
477.64	4629.58
477.82	4503.19
478.00	4685.75
478.18	4723.20
478.36	4699.80
478.54	4697.46
478.72	4737.24
478.90	4711.50
479.08	4678.73
479.26	4844.91
479.44	4830.87
479.62	4877.68
479.80	4830.87
479.98	5093.01
480.16	5046.20
480.34	5062.58
480.52	5095.35
480.70	5203.01
480.88	5142.16
481.06	5095.35
481.24	5111.73
481.41	5259.18
481.59	5298.97
481.77	5348.12
481.95	5397.28
482.13	5303.65
482.31	5401.96
482.49	5610.26
482.67	5643.03
482.85	5605.58
483.03	5806.87
483.21	5746.02
483.39	5954.32
483.57	5666.44
483.74	5944.96
483.92	5834.96
484.10	5839.64
484.28	5954.32
484.46	6129.86
484.64	6073.69
484.82	6026.88
485.00	6005.81
485.18	6202.42
485.35	6256.25
485.53	6300.72
485.71	6394.34
485.89	6478.60
486.07	6424.77
486.25	6422.43
486.43	6527.75
486.61	6576.91
486.78	6626.06
486.96	6715.00
487.14	6839.05
487.32	6820.32
487.50	6743.08
487.68	6738.40
487.85	7052.03
488.03	7103.53
488.21	7176.08
488.39	7204.17
488.57	7232.26
488.75	7222.89
488.92	7538.87
489.10	7265.02
489.28	7360.98
489.46	7541.21
489.64	7321.20
489.81	7520.14
489.99	7527.16
490.17	7557.59
490.35	7683.98
490.53	7616.10
490.70	7817.39
490.88	7695.68
491.06	7894.63
491.24	7665.25
491.41	7838.45
491.59	7941.44
491.77	8098.25
491.95	7960.16
492.13	8107.62
492.30	8173.15
492.48	8035.06
492.66	7967.18
492.84	8163.79
493.01	8294.86
493.19	8252.73
493.37	8341.67
493.54	8362.73
493.72	8667.00
493.90	8685.73
494.08	8566.36
494.25	8748.92
494.43	8840.20
494.61	9004.04
494.79	8648.28
494.96	8894.04
495.14	8645.94
495.32	9144.47
495.49	8903.40
495.67	8954.89
495.85	9067.24
496.02	9078.94
496.20	9207.67
496.38	8894.04
496.55	9336.40
496.73	9362.14
496.91	9369.16
497.09	9380.87
497.26	9650.03
497.44	9221.71
497.62	9568.11
497.79	9645.35
497.97	9411.29
498.14	9729.61
498.32	9738.97
498.50	9762.37
498.67	9753.01
498.85	9769.40
499.03	9692.16
499.20	9767.06
499.38	9884.08
499.56	9797.48
499.73	10146.22
499.91	9909.83
500.08	10153.24
500.26	10218.78
500.44	10092.39
500.61	10204.74
500.79	9970.68
500.97	10307.72
501.14	10347.51
501.32	10497.30
501.49	10359.21
501.67	10476.24
501.84	10352.19
502.02	10209.42
502.20	10630.71
502.37	10829.66
502.55	10686.89
502.72	10551.14
502.90	10422.41
503.07	10464.54
503.25	10724.33
503.43	10602.63
503.60	10874.13
503.78	10890.51
503.95	10717.31
504.13	11000.52
504.30	10665.82
504.48	11105.84
504.65	11021.58
504.83	10986.47
505.01	11159.67
505.18	11026.26
505.36	11250.96
505.53	10836.68
505.71	11190.10
505.88	11295.43
506.06	11002.86
506.23	11290.74
506.41	11309.47
506.58	11370.32
506.76	11346.92
506.93	11288.40
507.11	11265.00
507.28	11403.09
507.46	11693.32
507.63	11590.33
507.81	11665.23
507.98	11492.03
508.16	11595.01
508.33	11838.43
508.50	11899.28
508.68	11737.79
508.85	11861.84
509.03	11906.31
509.20	11960.14
509.38	11854.81
509.55	11927.37
509.73	12138.02
509.90	12500.80
510.08	12077.16
510.25	12088.87
510.42	12145.04
510.60	12156.74
510.77	12156.74
510.95	12510.16
511.12	12339.30
511.30	12224.62
511.47	12123.98
511.64	12322.92
511.82	12437.61
511.99	12428.24
512.17	12589.74
512.34	12554.63
512.51	12545.27
512.69	12582.72
512.86	12601.44
513.04	12671.66
513.21	12774.64
513.38	12716.13
513.56	12936.14
513.73	12786.35
513.90	12491.44
514.08	12730.17
514.25	12896.35
514.43	12762.94
514.60	12929.12
514.77	12996.99
514.95	13081.25
515.12	12788.69
515.29	13074.23
515.47	13301.26
515.64	13128.06
515.81	13373.82
515.99	13053.17
516.16	13453.40
516.33	13193.60
516.51	13589.15
516.68	13195.94
516.85	13523.62
517.03	13357.44
517.20	13408.93
517.37	13540.00
517.54	13462.76
517.72	13568.09
517.89	13514.25
518.06	13579.79
518.24	13530.64
518.41	13549.36
518.58	13469.78
518.75	13584.47
518.93	13818.52
519.10	13511.91
519.27	13743.63
519.45	13834.91
519.62	13664.05
519.79	14008.11
519.96	13996.40
520.14	13853.63
520.31	13563.40
520.48	13731.92
520.65	14153.22
520.83	14148.54
521.00	14073.64
521.17	14111.09
521.34	14132.15
521.52	14005.77
521.69	14188.33
521.86	14120.45
522.03	14476.21
522.20	14506.64
522.38	14183.65
522.55	14640.05
522.72	14384.93
522.89	14279.61
523.07	14782.82
523.24	14279.61
523.41	14635.37
523.58	14530.05
523.75	14621.33
523.92	14555.79
524.10	14497.28
524.27	14595.58
524.44	14721.97
524.61	14813.25
524.78	14670.48
524.96	14698.56
525.13	14871.76
525.30	14918.57
525.47	15110.50
525.64	14789.85
525.81	15066.03
525.98	14696.22
526.16	14867.08
526.33	15037.94
526.50	15009.86
526.67	15016.88
526.84	15037.94
527.01	14869.42
527.18	15082.41
527.36	14979.43
527.53	15183.06
527.70	15274.34
527.87	15419.45
528.04	15365.62
528.21	15358.60
528.38	15264.97
528.55	15178.37
528.72	15309.44
528.89	15473.28
529.07	15484.98
529.24	15372.64
529.41	15456.90
529.58	15190.08
529.75	15253.27
529.92	15328.17
530.09	15527.11
530.26	15531.80
530.43	15578.61
530.60	15267.31
530.77	15419.45
530.94	15613.71
531.11	15522.43
531.28	15704.99
531.46	15630.10
531.63	15712.02
531.80	15747.12
531.97	15683.93
532.14	15826.70
532.31	15630.10
532.48	15606.69
532.65	15798.62
532.82	15873.51
532.99	15791.59
533.16	15803.30
533.33	15995.22
533.50	16100.55
533.67	15782.23
533.84	15747.12
534.01	15974.16
534.18	15887.56
534.35	15824.36
534.52	15925.00
534.69	16290.13
534.86	16035.01
535.03	16219.91
535.20	16388.43
535.37	16273.74
535.54	16084.16
535.71	16194.17
535.88	16336.94
536.05	16051.39
536.22	16381.41
536.38	16428.22
536.55	16456.31
536.72	16587.38
536.89	16453.97
537.06	16224.59
537.23	16350.98
537.40	16587.38
537.57	16180.12
537.74	16306.51
537.91	16681.00
538.08	16594.40
538.25	16336.94
538.42	16624.83
538.59	16556.95
538.75	16327.58
538.92	16311.19
539.09	16875.26
539.26	16741.85
539.43	16732.49
539.60	16851.86
539.77	16835.47
539.94	16896.33
540.11	17011.01
540.28	17287.20
540.44	16919.73
540.61	17048.46
540.78	16896.33
540.95	17205.28
541.12	17270.81
541.29	17420.61
541.46	17561.04
541.62	17401.88
541.79	17469.76
541.96	17303.58
542.13	17453.37
542.30	17511.89
542.47	17617.21
542.63	17345.71
542.80	17708.49
542.97	17661.68
543.14	17661.68
543.31	17429.97
543.48	17593.81
543.64	17811.48
543.81	17703.81
543.98	17659.34
544.15	17664.02
544.32	17619.55
544.48	17888.71
544.65	17642.96
544.82	17348.05
544.99	17518.91
545.16	17811.48
545.32	17713.17
545.49	18115.75
545.66	18775.78
545.83	18871.74
546.00	18860.04
546.16	18204.69
546.33	18368.52
546.50	17778.71
546.67	17947.23
546.83	17860.63
547.00	17647.64
547.17	17769.35
547.34	17603.17
547.50	18043.19
547.67	17853.61
547.84	17841.90
548.00	17862.97
548.17	17781.05
548.34	17649.98
548.51	17954.25
548.67	17790.41
548.84	18040.85
549.01	17841.90
549.18	17888.71
549.34	18003.40
549.51	17565.72
549.68	17891.06
549.84	17867.65
550.01	17713.17
550.18	17561.04
550.34	18010.42
550.51	18033.83
550.68	18082.98
550.84	17596.15
551.01	17862.97
551.18	17947.23
551.34	17764.67
551.51	17720.20
551.68	18242.14
551.84	18075.96
552.01	18146.17
552.18	17841.90
552.34	18090.00
552.51	17900.42
552.68	18207.03
552.84	18085.32
553.01	17972.97
553.18	18216.39
553.34	18225.75
553.51	18106.38
553.67	18211.71
553.84	18630.66
554.01	18338.10
554.17	18335.76
554.34	18019.78
554.51	18185.96
554.67	18054.89
554.84	18277.24
555.00	18221.07
555.17	17926.16
555.33	18190.64
555.50	18279.58
555.67	18031.49
555.83	18331.08
556.00	18340.44
556.16	18434.06
556.33	18099.36
556.50	18153.20
556.66	18398.95
556.83	18375.55
556.99	18394.27
557.16	18347.46
557.32	18696.20
557.49	18448.10
557.65	18129.79
557.82	18038.51
557.98	18263.20
558.15	18319.37
558.32	18090.00
558.48	18345.12
558.65	18207.03
558.81	18382.57
558.98	18195.32
559.14	18279.58
559.31	17987.02
559.47	18211.71
559.64	18321.71
559.80	18321.71
559.97	18448.10
560.13	18405.97
560.30	18532.36
560.46	18644.71
560.63	18457.46
560.79	18560.45
560.96	18293.63
561.12	18363.84
561.29	18363.84
561.45	18356.82
561.61	18558.11
561.78	18635.35
561.94	18735.99
562.11	18731.31
562.27	18462.15
562.44	18162.56
562.60	18544.06
562.77	18368.52
562.93	18427.04
563.10	18370.86
563.26	18513.64
563.42	18654.07
563.59	18745.35
563.75	18478.53
563.92	18801.52
564.08	18291.29
564.24	18588.53
564.41	18464.49
564.57	18586.19
564.74	18576.83
564.90	18595.56
565.07	18602.58
565.23	18551.09
565.39	18405.97
565.56	18857.70
565.72	18373.21
565.88	18567.47
566.05	18712.58
566.21	18532.36
566.38	18420.02
566.54	18427.04
566.70	18480.87
566.87	18735.99
567.03	18845.99
567.19	18775.78
567.36	18492.57
567.52	18462.15
567.68	18483.21
567.85	18583.85
568.01	18597.90
568.17	18609.60
568.34	18618.96
568.50	18569.81
568.66	18593.22
568.83	18766.42
568.99	18494.91
569.15	18792.16
569.32	18787.48
569.48	18628.32
569.64	18590.88
569.81	18450.44
569.97	18845.99
570.13	19009.83
570.30	18810.89
570.46	18738.33
570.62	18686.84
570.78	18548.75
570.95	18693.86
571.11	18677.48
571.27	18471.51
571.43	18649.39
571.60	18761.73
571.76	18768.76
571.92	18719.60
572.09	18485.55
572.25	18714.92
572.41	18778.12
572.57	18614.28
572.74	18717.26
572.90	18834.29
573.06	18981.74
573.22	18794.50
573.38	18710.24
573.55	18604.92
573.71	19108.13
573.87	18885.78
574.03	18649.39
574.20	19105.79
574.36	19019.19
574.52	18796.84
574.68	18895.14
574.84	18705.56
575.01	18670.45
575.17	18735.99
575.33	18813.23
575.49	18633.00
575.65	18883.44
575.82	19082.39
575.98	18881.10
576.14	19068.34
576.30	18890.46
576.46	18785.14
576.62	18775.78
576.79	19044.94
576.95	19023.87
577.11	19082.39
577.27	18771.10
577.43	18845.99
577.59	19012.17
577.75	18668.11
577.92	18424.70
578.08	18649.39
578.24	18909.19
578.40	18890.46
578.56	18757.05
578.72	19058.98
578.88	19108.13
579.04	18838.97
579.21	18862.38
579.37	18829.61
579.53	19080.05
579.69	18834.29
579.85	18633.00
580.01	18963.02
580.17	18806.20
580.33	18876.42
580.49	18745.35
580.65	18925.57
580.82	18750.03
580.98	19147.92
581.14	18738.33
581.30	19012.17
581.46	18874.08
581.62	18927.91
581.78	18595.56
581.94	18726.63
582.10	18670.45
582.26	18836.63
582.42	18761.73
582.58	18944.30
582.74	18745.35
582.90	18764.07
583.06	19082.39
583.22	18904.51
583.38	18838.97
583.54	18820.25
583.70	18902.17
583.86	18764.07
584.02	18640.03
584.18	19016.85
584.34	19077.71
584.50	19016.85
584.66	18925.57
584.82	18633.00
584.98	18948.98
585.14	18679.82
585.30	18757.05
585.46	18904.51
585.62	18693.86
585.78	18911.53
585.94	18757.05
586.10	19119.84
586.26	19110.47
586.42	19049.62
586.58	19091.75
586.74	19082.39
586.90	18813.23
587.06	19124.52
587.22	19140.90
587.38	18733.65
587.54	19201.76
587.70	19019.19
587.86	19407.72
588.02	19077.71
588.18	19138.56
588.34	19033.24
588.49	18843.65
588.65	18572.15
588.81	19044.94
588.97	18937.27
589.13	18874.08
589.29	19089.41
589.45	19417.08
589.61	18820.25
589.77	19288.35
589.93	19054.30
590.08	18986.43
590.24	19269.63
590.40	18806.20
590.56	18787.48
590.72	19201.76
590.88	19157.28
591.04	18750.03
591.20	19168.99
591.35	19173.67
591.51	18995.79
591.67	19056.64
591.83	19204.10
591.99	19009.83
592.15	19211.12
592.31	19108.13
592.46	19157.28
592.62	18752.37
592.78	19470.92
592.94	19133.88
593.10	19173.67
