SpectraSuite Data File
++++++++++++++++++++++++++++++++++++
Date: Fri Oct 04 11:39:18 GMT-05:00 2013
User: price-jones
Dark Spectrum Present: No
Reference Spectrum Present: No
Number of Sampled Component Spectra: 1
Spectrometers: USB2+H05261
Integration Time (usec): 100000 (USB2+H05261)
Spectra Averaged: 1 (USB2+H05261)
Boxcar Smoothing: 0 (USB2+H05261)
Correct for Electrical Dark: No (USB2+H05261)
Strobe/Lamp Enabled: No (USB2+H05261)
Correct for Detector Non-linearity: No (USB2+H05261)
Correct for Stray Light: No (USB2+H05261)
Number of Pixels in Processed Spectrum: 2048
>>>>>Begin Processed Spectral Data<<<<<
365.73	86.60
365.92	86.60
366.12	86.60
366.32	4.68
366.52	4.68
366.72	0.00
366.91	0.00
367.11	16.38
367.31	0.00
367.51	0.00
367.70	0.00
367.90	0.00
368.10	0.00
368.30	0.00
368.49	0.00
368.69	0.00
368.89	0.00
369.09	0.00
369.28	0.00
369.48	0.00
369.68	0.00
369.87	42.13
370.07	0.00
370.27	100.64
370.47	65.54
370.66	222.35
370.86	259.80
371.06	208.31
371.25	285.55
371.45	301.93
371.65	294.91
371.84	283.20
372.04	255.12
372.24	383.85
372.44	290.23
372.63	344.06
372.83	362.78
373.03	320.65
373.22	266.82
373.42	330.02
373.62	325.33
373.81	355.76
374.01	339.38
374.21	313.63
374.40	421.30
374.60	444.70
374.79	367.46
374.99	440.02
375.19	388.53
375.38	400.23
375.58	395.55
375.78	376.83
375.97	365.12
376.17	372.15
376.37	395.55
376.56	411.93
376.76	362.78
376.95	376.83
377.15	409.59
377.35	404.91
377.54	463.43
377.74	421.30
377.93	376.83
378.13	407.25
378.33	458.74
378.52	454.06
378.72	451.72
378.91	423.64
379.11	358.10
379.31	468.11
379.50	358.10
379.70	449.38
379.89	435.34
380.09	472.79
380.28	423.64
380.48	479.81
380.68	496.19
380.87	491.51
381.07	498.53
381.26	540.66
381.46	388.53
381.65	507.90
381.85	442.36
382.04	498.53
382.24	519.60
382.43	564.07
382.63	531.30
382.83	519.60
383.02	475.13
383.22	606.20
383.41	526.62
383.61	479.81
383.80	491.51
384.00	587.47
384.19	491.51
384.39	411.93
384.58	547.69
384.78	519.60
384.97	564.07
385.17	547.69
385.36	531.30
385.56	557.05
385.75	484.49
385.95	547.69
386.14	519.60
386.34	561.73
386.53	440.02
386.72	580.45
386.92	550.03
387.11	557.05
387.31	657.69
387.50	528.96
387.70	505.56
387.89	608.54
388.09	557.05
388.28	667.05
388.48	678.76
388.67	643.65
388.86	697.48
389.06	636.63
389.25	596.84
389.45	571.09
389.64	578.11
389.84	636.63
390.03	627.26
390.22	660.03
390.42	641.31
390.61	676.41
390.81	671.73
391.00	648.33
391.19	681.10
391.39	727.91
391.58	650.67
391.78	744.29
391.97	711.52
392.16	779.40
392.36	784.08
392.55	713.86
392.75	763.01
392.94	798.12
393.13	765.36
393.33	725.57
393.52	737.27
393.71	800.46
393.91	784.08
394.10	681.10
394.29	751.31
394.49	807.48
394.68	896.43
394.88	788.76
395.07	854.30
395.26	875.36
395.46	847.27
395.65	866.00
395.84	821.53
396.04	861.32
396.23	816.85
396.42	922.17
396.62	908.13
396.81	891.74
397.00	919.83
397.19	849.61
397.39	912.81
397.58	968.98
397.77	835.57
397.97	1025.15
398.16	898.77
398.35	910.47
398.55	898.77
398.74	1008.77
398.93	1041.54
399.12	950.26
399.32	929.19
399.51	990.05
399.70	1015.79
399.90	999.41
400.09	1004.09
400.28	1076.65
400.47	1029.84
400.67	1053.24
400.86	1048.56
401.05	1118.78
401.24	1153.88
401.44	1163.25
401.63	1146.86
401.82	1090.69
402.01	1088.35
402.21	1107.07
402.40	1184.31
402.59	1181.97
402.78	1163.25
402.97	1191.33
403.17	1249.85
403.36	1109.41
403.55	1233.46
403.74	1217.08
403.93	1324.74
404.13	1282.61
404.32	1188.99
404.51	1284.95
404.70	1357.51
404.89	1317.72
405.09	1308.36
405.28	1322.40
405.47	1322.40
405.66	1369.21
405.85	1357.51
406.05	1371.55
406.24	1451.13
406.43	1399.64
406.62	1502.62
406.81	1490.92
407.00	1493.26
407.20	1439.43
407.39	1329.42
407.58	1427.73
407.77	1425.39
407.96	1507.30
408.15	1659.44
408.34	1565.82
408.54	1528.37
408.73	1582.20
408.92	1434.75
409.11	1629.01
409.30	1619.65
409.49	1629.01
409.68	1661.78
409.87	1617.31
410.07	1668.80
410.26	1715.61
410.45	1631.35
410.64	1659.44
410.83	1689.87
411.02	1785.83
411.21	1872.43
411.40	1743.70
411.59	1912.22
411.78	1764.76
411.98	1881.79
412.17	1923.92
412.36	1790.51
412.55	1912.22
412.74	1968.39
412.93	2071.37
413.12	1970.73
413.31	2101.80
413.50	2003.50
413.69	1991.80
413.88	2064.35
414.07	2132.23
414.26	2209.47
414.45	2160.31
414.64	2139.25
414.83	2143.93
415.02	2345.22
415.22	2284.36
415.41	2272.66
415.60	2253.94
415.79	2331.17
415.98	2380.32
416.17	2310.11
416.36	2333.51
416.55	2502.03
416.74	2469.27
416.93	2499.69
417.12	2462.24
417.31	2551.18
417.50	2583.95
417.69	2642.46
417.88	2654.17
418.07	2602.68
418.26	2635.44
418.45	2576.93
418.64	2630.76
418.83	2569.91
419.02	2670.55
419.21	2761.83
419.39	2750.13
419.58	2644.81
419.77	2731.41
419.96	2818.00
420.15	2832.05
420.34	2663.53
420.53	2785.24
420.72	2808.64
420.91	2801.62
421.10	2932.69
421.29	2909.29
421.48	2892.90
421.67	2984.18
421.86	2935.03
422.05	2923.33
422.24	2925.67
422.43	2930.35
422.61	3063.76
422.80	2942.05
422.99	2930.35
423.18	3115.25
423.37	3098.87
423.56	3014.61
423.75	2946.73
423.94	2977.16
424.13	2848.43
424.32	2988.86
424.50	3054.40
424.69	3066.10
424.88	3087.17
425.07	3021.63
425.26	3110.57
425.45	3073.12
425.64	3056.74
425.83	3061.42
426.01	3136.32
426.20	3052.06
426.39	3152.70
426.58	3042.70
426.77	3157.38
426.96	3342.28
427.15	3066.10
427.33	3187.81
427.52	3314.20
427.71	3218.24
427.90	3286.11
428.09	3225.26
428.28	3339.94
428.46	3293.13
428.65	3267.39
428.84	3386.76
429.03	3447.61
429.22	3379.73
429.40	3410.16
429.59	3468.67
429.78	3370.37
429.97	3258.03
430.16	3431.23
430.34	3438.25
430.53	3550.59
430.72	3478.04
430.91	3667.62
431.10	3386.76
431.28	3648.90
431.47	3566.98
431.66	3658.26
431.85	3513.14
432.03	3592.72
432.22	3721.45
432.41	3684.00
432.60	3756.56
432.79	3742.52
432.97	3836.14
433.16	3688.68
433.35	3674.64
433.54	3808.05
433.72	3742.52
433.91	3742.52
434.10	3705.07
434.28	3838.48
434.47	3889.97
434.66	3932.10
434.85	3929.76
435.03	4124.02
435.22	4102.96
435.41	4395.53
435.59	4388.50
435.78	4210.62
435.97	4159.13
436.16	4102.96
436.34	4156.79
436.53	4112.32
436.72	4243.39
436.90	3999.98
437.09	4161.47
437.28	4070.19
437.46	4168.49
437.65	4170.83
437.84	4327.65
438.02	4114.66
438.21	4287.86
438.40	4102.96
438.58	4315.95
438.77	4367.44
438.96	4465.74
439.14	4297.22
439.33	4393.19
439.52	4430.63
439.70	4493.83
439.89	4468.08
440.08	4493.83
440.26	4681.07
440.45	4629.58
440.63	4652.98
440.82	4758.31
441.01	4657.67
441.19	4688.09
441.38	4873.00
441.57	4910.44
441.75	4877.68
441.94	4931.51
442.12	4805.12
442.31	4975.98
442.50	4858.95
442.68	4999.38
442.87	4990.02
443.05	4938.53
443.24	5167.90
443.43	5116.41
443.61	5160.88
443.80	5224.08
443.98	5036.83
444.17	5001.72
444.35	5144.50
444.54	5294.29
444.73	5296.63
444.91	5095.35
445.10	5219.39
445.28	5214.71
445.47	5273.23
445.65	5416.00
445.84	5280.25
446.02	5324.72
446.21	5270.89
446.39	4999.38
446.58	5287.27
446.77	5322.38
446.95	5149.18
447.14	5310.68
447.32	5259.18
447.51	5448.77
447.69	5270.89
447.88	5228.76
448.06	5418.34
448.25	5289.61
448.43	5338.76
448.62	5231.10
448.80	5516.64
448.99	5327.06
449.17	5507.28
449.36	5430.04
449.54	5460.47
449.73	5408.98
449.91	5540.05
450.10	5514.30
450.28	5722.61
450.46	5584.52
450.65	5596.22
450.83	5760.06
451.02	5760.06
451.20	5626.65
451.39	5727.29
451.57	5806.87
451.76	5713.25
451.94	5636.01
452.13	5956.66
452.31	5944.96
452.49	5750.70
452.68	5837.30
452.86	5853.68
453.05	5949.64
453.23	5989.43
453.42	5907.51
453.60	5795.17
453.78	6066.67
453.97	5865.38
454.15	6061.99
454.34	5921.56
454.52	5989.43
454.70	6085.39
454.89	6127.52
455.07	6061.99
455.26	6171.99
455.44	6328.81
455.62	6221.14
455.81	6260.93
455.99	6183.70
456.17	6445.84
456.36	6359.24
456.54	6368.60
456.73	6265.61
456.91	6689.25
457.09	6368.60
457.28	6595.63
457.46	6359.24
457.64	6768.83
457.83	6595.63
458.01	6537.12
458.19	6677.55
458.38	6593.29
458.56	6750.10
458.74	6682.23
458.93	6759.47
459.11	6623.72
459.29	6719.68
459.48	6691.59
459.66	6796.92
459.84	6864.79
460.03	7023.95
460.21	6825.00
460.39	6857.77
460.57	6850.75
460.76	6927.99
460.94	7054.37
461.12	6949.05
461.31	6930.33
461.49	6846.07
461.67	6932.67
461.85	7180.76
462.04	7012.24
462.22	7660.57
462.40	7124.59
462.59	7227.57
462.77	7136.29
462.95	7164.38
463.13	7103.53
463.32	7274.38
463.50	7360.98
463.68	7234.60
463.86	7346.94
464.05	7424.18
464.23	7405.46
464.41	7478.01
464.59	7241.62
464.78	7466.31
464.96	7342.26
465.14	7339.92
465.32	7396.09
465.50	7513.12
465.69	7550.57
465.87	7510.78
466.05	7316.51
466.23	7688.66
466.41	7592.70
466.60	8098.25
466.78	7496.74
466.96	7506.10
467.14	7478.01
467.32	7786.96
467.51	7838.45
467.69	7651.21
467.87	7709.72
468.05	7737.81
468.23	7726.11
468.41	7714.41
468.60	7892.29
468.78	8004.63
468.96	7882.92
469.14	7873.56
469.32	8154.43
469.50	7903.99
469.69	7990.59
469.87	8170.81
470.05	8170.81
470.23	8215.28
470.41	8067.83
470.59	8248.05
470.77	8044.42
470.95	8257.41
471.14	8423.59
471.32	8266.77
471.50	8444.65
471.68	8456.36
471.86	8573.38
472.04	8393.16
472.22	8585.08
472.40	8566.36
472.58	8697.43
472.77	8610.83
472.95	8620.19
473.13	8896.38
473.31	8786.37
473.49	8973.61
473.67	8774.67
473.85	8755.94
474.03	9053.19
474.21	8982.98
474.39	9109.36
474.57	9252.14
474.75	9231.07
474.93	9198.31
475.12	9217.03
475.30	9172.56
475.48	9273.20
475.66	9507.26
475.84	9495.55
476.02	9776.42
476.20	9525.98
476.38	9713.22
476.56	10029.20
476.74	9928.55
476.92	9865.36
477.10	9778.76
477.28	10068.98
477.46	9987.07
477.64	10078.35
477.82	10029.20
478.00	10609.65
478.18	10485.60
478.36	10611.99
478.54	10665.82
478.72	10684.55
478.90	10595.61
479.08	10604.97
479.26	10981.79
479.44	10991.16
479.62	11094.14
479.80	11119.89
479.98	11105.84
480.16	11442.88
480.34	11485.01
480.52	11452.24
480.70	11597.35
480.88	11466.28
481.06	11604.38
481.24	11618.42
481.41	11698.00
481.59	11812.68
481.77	11910.99
481.95	12056.10
482.13	12264.41
482.31	12425.90
482.49	12383.77
482.67	12617.83
482.85	12828.48
483.03	12896.35
483.21	12826.14
483.39	12961.89
483.57	12884.65
483.74	13008.70
483.92	12903.37
484.10	13207.64
484.28	13352.76
484.46	13675.75
484.64	13870.01
484.82	13322.33
485.00	13886.40
485.18	13795.12
485.35	14209.39
485.53	14436.42
485.71	14106.41
485.89	14626.01
486.07	14391.95
486.25	14448.13
486.43	14527.71
486.61	14583.88
486.78	15054.33
486.96	15035.60
487.14	15452.22
487.32	15255.61
487.50	15398.38
487.68	15246.25
487.85	15513.07
488.03	15803.30
488.21	15936.71
488.39	16100.55
488.57	16098.20
488.75	16168.42
488.92	16610.78
489.10	16355.66
489.28	16650.57
489.46	16554.61
489.64	16744.19
489.81	17135.06
489.99	16945.48
490.17	16959.52
490.35	17252.09
490.53	17411.25
490.70	17788.07
490.88	17380.82
491.06	18015.10
491.24	17811.48
491.41	17921.48
491.59	18211.71
491.77	18338.10
491.95	18181.28
492.13	18593.22
492.30	18436.40
492.48	18693.86
492.66	18794.50
492.84	18593.22
493.01	18965.36
493.19	18970.04
493.37	19316.44
493.54	19421.77
493.72	19447.51
493.90	19321.12
494.08	19707.31
494.25	19733.06
494.43	19922.64
494.61	20053.71
494.79	20416.49
494.96	20077.12
495.14	20362.66
495.32	20051.37
495.49	20748.85
495.67	20580.33
495.85	20908.01
496.02	20795.66
496.20	21090.57
496.38	20706.72
496.55	20730.12
496.73	21394.84
496.91	21455.69
497.09	21394.84
497.26	21216.96
497.44	21348.03
497.62	21455.69
497.79	22068.91
497.97	21961.25
498.14	22099.34
498.32	22141.47
498.50	22167.21
498.67	22787.46
498.85	22171.89
499.03	22607.23
499.20	22750.01
499.38	23030.87
499.56	23152.58
499.73	23288.33
499.91	23229.82
500.08	23194.71
500.26	23241.52
500.44	23194.71
500.61	23346.84
500.79	23506.00
500.97	23524.72
501.14	23838.36
501.32	23814.95
501.49	23873.46
501.67	23896.87
501.84	23854.74
502.02	23772.82
502.20	24308.80
502.37	24397.74
502.55	24608.39
502.72	24451.58
502.90	24372.00
503.07	24395.40
503.25	24683.29
503.43	24587.33
503.60	24917.34
503.78	24950.11
503.95	24732.44
504.13	24971.18
504.30	25123.31
504.48	25163.10
504.65	25366.73
504.83	25490.77
505.01	25743.55
505.18	25792.70
505.36	25888.67
505.53	25673.34
505.71	26022.08
505.88	25678.02
506.06	26089.95
506.23	26340.39
506.41	26096.97
506.58	26480.82
506.76	26403.58
506.93	26111.02
507.11	26300.60
507.28	26366.13
507.46	26775.73
507.63	26700.83
507.81	26932.54
507.98	26705.51
508.16	26815.52
508.33	26745.30
508.50	27037.87
508.68	26930.20
508.85	27009.78
509.03	27332.78
509.20	27690.88
509.38	27524.70
509.55	27702.58
509.73	27833.65
509.90	28203.46
510.08	27772.80
510.25	27852.38
510.42	27969.40
510.60	28180.05
510.77	28102.81
510.95	28217.50
511.12	27990.47
511.30	27913.23
511.47	28690.29
511.64	28430.49
511.82	28474.96
511.99	28510.07
512.17	28912.64
512.34	29223.93
512.51	28931.36
512.69	29174.78
512.86	28971.15
513.04	29216.91
513.21	29380.74
513.38	29752.89
513.56	29563.31
513.73	29521.18
513.90	29446.28
514.08	29776.30
514.25	29762.25
514.43	29635.86
514.60	29741.19
514.77	29876.94
514.95	30099.29
515.12	29872.26
515.29	30099.29
515.47	29961.20
515.64	30319.30
515.81	30089.93
515.99	30602.50
516.16	30941.88
516.33	30396.54
516.51	30721.87
516.68	30625.91
516.85	30464.41
517.03	30731.23
517.20	30572.08
517.37	30831.88
517.54	31182.96
517.72	31307.01
517.89	31353.82
518.06	31351.48
518.24	30644.63
518.41	31227.43
518.58	31447.44
518.75	31262.54
518.93	32098.11
519.10	31452.12
519.27	31798.52
519.45	31159.55
519.62	31665.11
519.79	31842.99
519.96	31655.75
520.14	32292.37
520.31	32102.79
520.48	32041.93
520.65	31763.41
520.83	32219.81
521.00	32524.08
521.17	32533.45
521.34	32732.39
521.52	32734.73
521.69	32837.72
521.86	32858.78
522.03	33088.15
522.20	33181.77
522.38	32959.42
522.55	33102.20
522.72	32802.61
522.89	33406.47
523.07	33474.34
523.24	33415.83
523.41	33731.80
523.58	33331.57
523.75	33507.11
523.92	33589.03
524.10	33684.99
524.27	33724.78
524.44	34082.88
524.61	33848.83
524.78	34235.02
524.96	33694.35
525.13	34155.44
525.30	34258.42
525.47	33886.28
525.64	34066.50
525.81	34246.72
525.98	34408.22
526.16	34487.79
526.33	34476.09
526.50	34742.91
526.67	34026.71
526.84	34696.10
527.01	34412.90
527.18	34609.50
527.36	34749.93
527.53	34960.58
527.70	35103.35
527.87	34958.24
528.04	34855.26
528.21	35484.86
528.38	35150.17
528.55	35299.96
528.72	35402.94
528.89	35676.79
529.07	35133.78
529.24	35655.72
529.41	35646.36
529.58	35674.45
529.75	35220.38
529.92	35543.38
530.09	35515.29
530.26	35627.63
530.43	36088.72
530.60	35578.48
530.77	36163.62
530.94	36151.91
531.11	36016.16
531.28	36212.77
531.46	36088.72
531.63	36055.95
531.80	36247.88
531.97	36128.51
532.14	36311.07
532.31	36495.97
532.48	36414.05
532.65	36573.21
532.82	36009.14
532.99	36449.16
533.16	36552.15
533.33	36715.98
533.50	37076.43
533.67	36830.67
533.84	36697.26
534.01	36748.75
534.18	36556.83
534.35	36849.39
534.52	37113.87
534.69	37268.35
534.86	37081.11
535.03	37249.63
535.20	37013.23
535.37	37872.21
535.54	37406.44
535.71	37064.72
535.88	37462.61
536.05	37338.57
536.22	37385.38
536.38	38146.05
536.55	37862.85
536.72	37886.25
536.89	37944.76
537.06	37975.19
537.23	37949.45
537.40	38036.05
537.57	37518.79
537.74	38323.93
537.91	38043.07
538.08	38335.63
538.25	38614.16
538.42	38230.31
538.59	38623.52
538.75	38005.62
538.92	38471.39
539.09	38389.47
539.26	38485.43
539.43	38431.60
539.60	38192.86
539.77	38553.30
539.94	38614.16
540.11	38859.91
540.28	38792.04
540.44	39255.46
540.61	38972.26
540.78	38529.90
540.95	38993.32
541.12	39480.16
541.29	39562.08
541.46	39358.45
541.62	39316.32
541.79	39601.86
541.96	39267.17
542.13	39093.97
542.30	39194.61
542.47	39613.57
542.63	39856.98
542.80	39819.53
542.97	39922.52
543.14	39981.03
543.31	39976.35
543.48	39941.24
543.64	40339.13
543.81	40266.58
543.98	40289.98
544.15	40512.33
544.32	40641.06
544.48	40938.31
544.65	39927.20
544.82	40140.19
544.99	39985.71
545.16	40392.97
545.32	40313.39
545.49	40898.52
545.66	41787.92
545.83	41911.97
546.00	41429.82
546.16	40720.64
546.33	40568.51
546.50	40158.91
546.67	40332.11
546.83	40149.55
547.00	40444.46
547.17	41120.87
547.34	40720.64
547.50	40928.95
547.67	40802.56
547.84	40849.37
548.00	41303.43
548.17	41008.53
548.34	41081.08
548.51	41532.81
548.67	41619.41
548.84	41184.07
549.01	41338.54
549.18	41581.96
549.34	41273.01
549.51	40718.30
549.68	41153.64
549.84	41237.90
550.01	41509.40
550.18	40924.27
550.34	41642.81
550.51	41366.63
550.68	41439.18
550.84	41474.29
551.01	41808.99
551.18	41198.11
551.34	41373.65
551.51	41701.32
551.68	41469.61
551.84	41682.60
552.01	41633.45
552.18	41549.19
552.34	41511.74
552.51	42031.34
552.68	41750.48
552.84	41818.35
553.01	42120.28
553.18	41219.17
553.34	41785.58
553.51	41862.82
553.67	42487.74
553.84	42014.96
554.01	42384.76
554.17	42113.26
554.34	42148.37
554.51	41666.22
554.67	42564.98
554.84	42026.66
555.00	42361.36
555.17	42550.94
555.33	42162.41
555.50	42635.20
555.67	42614.13
555.83	42384.76
556.00	42382.42
556.16	42630.52
556.33	42122.62
556.50	42218.58
556.66	42878.61
556.83	42314.55
556.99	42810.74
557.16	43199.27
557.32	42630.52
557.49	42946.49
557.65	42555.62
557.82	42829.46
557.98	42777.97
558.15	42707.76
558.32	42962.87
558.48	42787.33
558.65	42735.84
558.81	43086.92
558.98	43145.44
559.14	42904.36
559.31	42724.14
559.47	42827.12
559.64	42953.51
559.80	43086.92
559.97	43072.88
560.13	42677.33
560.30	42911.38
560.46	43126.71
560.63	43239.06
560.79	43409.92
560.96	43136.07
561.12	43070.54
561.29	43077.56
561.45	43093.94
561.61	43192.25
561.78	43264.80
561.94	43227.35
562.11	43519.92
562.27	43145.44
562.44	43330.34
562.60	43012.02
562.77	43107.99
562.93	43405.23
563.10	43796.10
563.26	43409.92
563.42	43887.39
563.59	43742.27
563.75	43456.73
563.92	43749.29
564.08	43430.98
564.24	43681.42
564.41	43428.64
564.57	43330.34
564.74	43316.29
564.90	43847.60
565.07	43545.67
565.23	43770.36
565.39	43475.45
565.56	43325.66
565.72	43613.54
565.88	43718.87
566.05	43704.82
566.21	43519.92
566.38	43304.59
566.54	43842.92
566.70	43924.83
566.87	44126.12
567.03	44250.17
567.19	44266.55
567.36	43606.52
567.52	43892.07
567.68	43973.98
567.85	43840.57
568.01	44154.21
568.17	43756.32
568.34	44051.22
568.50	43800.79
568.66	43971.64
568.83	44299.32
568.99	43873.34
569.15	43973.98
569.32	43662.69
569.48	43576.09
569.64	43906.11
569.81	43538.65
569.97	43629.93
570.13	44292.30
570.30	44062.93
570.46	44044.20
570.62	43847.60
570.78	43765.68
570.95	44247.83
571.11	44226.76
571.27	43868.66
571.43	43871.00
571.60	44020.80
571.76	44250.17
571.92	44587.21
572.09	44514.65
572.25	44158.89
572.41	44570.82
572.57	44154.21
572.74	44404.64
572.90	43533.96
573.06	44437.41
573.22	44044.20
573.38	44201.02
573.55	44156.55
573.71	44594.23
573.87	44725.30
574.03	44526.35
574.20	44210.38
574.36	44179.95
574.52	44453.79
574.68	44652.74
574.84	44346.13
575.01	44343.79
575.17	44332.09
575.33	43983.35
575.49	44170.59
575.65	45078.72
575.82	44465.50
575.98	44203.36
576.14	44851.69
576.30	44341.45
576.46	44165.91
576.62	44367.20
576.79	44650.40
576.95	44243.15
577.11	44376.56
577.27	44800.19
577.43	44732.32
577.59	44666.78
577.75	44690.19
577.92	44357.83
578.08	44179.95
578.24	44128.46
578.40	44744.02
578.56	44397.62
578.72	44432.73
578.88	45088.08
579.04	44954.67
579.21	44582.52
579.37	45109.14
579.53	45202.77
579.69	44423.37
579.85	44360.17
580.01	44554.44
580.17	44554.44
580.33	44472.52
580.49	44439.75
580.65	44931.26
580.82	44992.12
580.98	44945.31
581.14	44655.08
581.30	44825.94
581.46	44402.30
581.62	44320.38
581.78	44547.42
581.94	44498.26
582.10	44460.82
582.26	44694.87
582.42	44992.12
582.58	44648.06
582.74	45507.04
582.90	44910.20
583.06	44533.37
583.22	44713.59
583.38	45050.63
583.54	45048.29
583.70	44940.63
583.86	44664.44
584.02	44535.71
584.18	45207.45
584.34	44870.41
584.50	44914.88
584.66	45123.19
584.82	45134.89
584.98	44830.62
585.14	45141.91
585.30	44577.84
585.46	44533.37
585.62	44776.79
585.78	44942.97
585.94	44870.41
586.10	44725.30
586.26	45076.38
586.42	45074.04
586.58	44821.26
586.74	45193.40
586.90	44903.18
587.06	44671.46
587.22	45008.50
587.38	44495.92
587.54	45120.85
587.70	45237.87
587.86	45509.38
588.02	45265.96
588.18	44952.33
588.34	45528.10
588.49	45024.89
588.65	44577.84
588.81	45130.21
588.97	44999.14
589.13	44924.24
589.29	44694.87
589.45	45003.82
589.61	45366.60
589.77	45361.92
589.93	45429.80
590.08	45497.67
590.24	45785.56
590.40	45572.57
590.56	45347.88
590.72	45511.72
590.88	44839.98
