SpectraSuite Data File
++++++++++++++++++++++++++++++++++++
Date: Fri Oct 04 11:39:44 GMT-05:00 2013
User: price-jones
Dark Spectrum Present: No
Reference Spectrum Present: No
Number of Sampled Component Spectra: 1
Spectrometers: USB2+H05261
Integration Time (usec): 100000 (USB2+H05261)
Spectra Averaged: 1 (USB2+H05261)
Boxcar Smoothing: 0 (USB2+H05261)
Correct for Electrical Dark: No (USB2+H05261)
Strobe/Lamp Enabled: No (USB2+H05261)
Correct for Detector Non-linearity: No (USB2+H05261)
Correct for Stray Light: No (USB2+H05261)
Number of Pixels in Processed Spectrum: 2048
>>>>>Begin Processed Spectral Data<<<<<
365.73	14.04
365.92	14.04
366.12	14.04
366.32	0.00
366.52	0.00
366.72	0.00
366.91	0.00
367.11	0.00
367.31	0.00
367.51	0.00
367.70	0.00
367.90	0.00
368.10	0.00
368.30	35.11
368.49	0.00
368.69	0.00
368.89	0.00
369.09	21.06
369.28	0.00
369.48	7.02
369.68	0.00
369.87	0.00
370.07	16.38
370.27	65.54
370.47	201.29
370.66	383.85
370.86	468.11
371.06	475.13
371.25	531.30
371.45	425.98
371.65	428.32
371.84	430.66
372.04	519.60
372.24	505.56
372.44	482.15
372.63	578.11
372.83	578.11
373.03	589.82
373.22	531.30
373.42	589.82
373.62	622.58
373.81	622.58
374.01	706.84
374.21	636.63
374.40	589.82
374.60	669.39
374.79	615.56
374.99	603.86
375.19	681.10
375.38	664.71
375.58	648.33
375.78	624.92
375.97	641.31
376.17	737.27
376.37	631.94
376.56	627.26
376.76	690.46
376.95	734.93
377.15	695.14
377.35	746.63
377.54	718.54
377.74	758.33
377.93	765.36
378.13	807.48
378.33	763.01
378.52	798.12
378.72	734.93
378.91	758.33
379.11	772.38
379.31	788.76
379.50	788.76
379.70	774.72
379.89	793.44
380.09	814.51
380.28	781.74
380.48	765.36
380.68	767.70
380.87	763.01
381.07	851.96
381.26	819.19
381.46	837.91
381.65	833.23
381.85	847.27
382.04	863.66
382.24	917.49
382.43	777.06
382.63	884.72
382.83	816.85
383.02	924.51
383.22	959.62
383.41	788.76
383.61	847.27
383.80	889.40
384.00	837.91
384.19	933.87
384.39	976.00
384.58	933.87
384.78	931.53
384.97	966.64
385.17	976.00
385.36	961.96
385.56	961.96
385.75	1015.79
385.95	915.15
386.14	1013.45
386.34	957.28
386.53	1039.20
386.72	1050.90
386.92	1008.77
387.11	1025.15
387.31	1004.09
387.50	1027.50
387.70	1060.26
387.89	1046.22
388.09	1064.94
388.28	1132.82
388.48	1011.11
388.67	1219.42
388.86	1088.35
389.06	1135.16
389.25	1135.16
389.45	1137.50
389.64	1137.50
389.84	1149.20
390.03	1203.04
390.22	1144.52
390.42	1219.42
390.61	1231.12
390.81	1240.48
391.00	1139.84
391.19	1331.76
391.39	1240.48
391.58	1334.11
391.78	1291.98
391.97	1303.68
392.16	1238.14
392.36	1387.94
392.55	1376.24
392.75	1270.91
392.94	1387.94
393.13	1303.68
393.33	1336.45
393.52	1338.79
393.71	1392.62
393.91	1427.73
394.10	1254.53
394.29	1479.22
394.49	1420.71
394.68	1493.26
394.88	1526.03
395.07	1582.20
395.26	1514.33
395.46	1516.67
395.65	1483.90
395.84	1530.71
396.04	1692.21
396.23	1596.25
396.42	1504.96
396.62	1652.42
396.81	1727.32
397.00	1699.23
397.19	1544.75
397.39	1636.03
397.58	1666.46
397.77	1612.63
397.97	1734.34
398.16	1680.50
398.35	1760.08
398.55	1617.31
398.74	1729.66
398.93	1816.26
399.12	1799.87
399.32	1652.42
399.51	1722.63
399.70	1879.45
399.90	1802.21
400.09	1881.79
400.28	1888.81
400.47	1783.49
400.67	1928.60
400.86	1900.52
401.05	1865.41
401.24	1996.48
401.44	1839.66
401.63	1954.35
401.82	1926.26
402.01	1968.39
402.21	2062.01
402.40	2008.18
402.59	1984.77
402.78	2015.20
402.97	2083.08
403.17	2017.54
403.36	2160.31
403.55	2115.84
403.74	2216.49
403.93	2253.94
404.13	2317.13
404.32	2127.55
404.51	2200.10
404.70	2485.65
404.89	2256.28
405.09	2427.14
405.28	2380.32
405.47	2361.60
405.66	2429.48
405.85	2314.79
406.05	2340.54
406.24	2480.97
406.43	2417.77
406.62	2534.80
406.81	2654.17
407.00	2476.29
407.20	2466.92
407.39	2445.86
407.58	2534.80
407.77	2682.25
407.96	2583.95
408.15	2719.70
408.34	2560.55
408.54	2635.44
408.73	2771.19
408.92	2654.17
409.11	2679.91
409.30	2775.88
409.49	2733.75
409.68	2780.56
409.87	2759.49
410.07	2820.35
410.26	2867.16
410.45	2986.52
410.64	2860.13
410.83	2904.60
411.02	3023.97
411.21	3068.44
411.40	2965.46
411.59	3014.61
411.78	3232.28
411.98	3143.34
412.17	3190.15
412.36	3103.55
412.55	3405.48
412.74	3349.31
412.93	3349.31
413.12	3295.47
413.31	3492.08
413.50	3274.41
413.69	3623.15
413.88	3449.95
414.07	3510.80
414.26	3478.04
414.45	3604.42
414.64	3733.15
414.83	3740.18
415.02	3646.55
415.22	3669.96
415.41	3908.69
415.60	3838.48
415.79	3859.54
415.98	4072.53
416.17	3932.10
416.36	3955.51
416.55	4004.66
416.74	3962.53
416.93	4056.15
417.12	3941.46
417.31	4189.56
417.50	4222.33
417.69	4320.63
417.88	4250.41
418.07	4196.58
418.26	4280.84
418.45	4285.52
418.64	4542.98
418.83	4507.87
419.02	4369.78
419.21	4362.76
419.39	4503.19
419.58	4407.23
419.77	4447.02
419.96	4582.77
420.15	4638.94
420.34	4629.58
420.53	4596.81
420.72	4816.82
420.91	4706.82
421.10	4814.48
421.29	4779.37
421.48	4842.57
421.67	4929.17
421.86	4702.14
422.05	4847.25
422.24	4737.24
422.43	4952.57
422.61	4828.53
422.80	4865.97
422.99	4961.94
423.18	4990.02
423.37	5118.75
423.56	4980.66
423.75	4933.85
423.94	4929.17
424.13	4634.26
424.32	4690.43
424.50	4940.87
424.69	5291.95
424.88	5132.79
425.07	5121.09
425.26	4917.47
425.45	4973.64
425.64	5050.88
425.83	5083.64
426.01	5191.31
426.20	5060.24
426.39	5067.26
426.58	5203.01
426.77	5088.32
426.96	4901.08
427.15	5177.26
427.33	5411.32
427.52	5406.64
427.71	5469.83
427.90	5193.65
428.09	5455.79
428.28	5542.39
428.46	5315.36
428.65	5486.22
428.84	5680.48
429.03	5617.29
429.22	5514.30
429.40	5661.76
429.59	5628.99
429.78	5348.12
429.97	5352.81
430.16	5575.16
430.34	5809.21
430.53	5893.47
430.72	5792.83
430.91	5724.95
431.10	5727.29
431.28	5872.40
431.47	5970.71
431.66	5982.41
431.85	5940.28
432.03	6073.69
432.22	5959.00
432.41	6239.87
432.60	6024.54
432.79	5907.51
432.97	6064.33
433.16	6069.01
433.35	6267.95
433.54	6319.45
433.72	6413.07
433.91	6256.25
434.10	6258.59
434.28	6195.40
434.47	6347.53
434.66	6384.98
434.85	6471.58
435.03	6443.49
435.22	6494.99
435.41	6897.56
435.59	6979.48
435.78	6766.49
435.97	6668.19
436.16	6839.05
436.34	6511.37
436.53	6616.69
436.72	6836.70
436.90	6656.48
437.09	6768.83
437.28	6609.67
437.46	6850.75
437.65	6874.15
437.84	6935.01
438.02	6951.39
438.21	6984.16
438.40	6988.84
438.58	7171.40
438.77	7197.15
438.96	7173.74
439.14	7309.49
439.33	7377.37
439.52	7744.83
439.70	7557.59
439.89	7501.42
440.08	7548.23
440.26	7508.44
440.45	7676.96
440.63	7810.37
440.82	7812.71
441.01	7735.47
441.19	7791.64
441.38	8128.68
441.57	7999.95
441.75	8114.64
441.94	8241.03
442.12	8271.45
442.31	8299.54
442.50	8241.03
442.68	8285.50
442.87	8393.16
443.05	8056.12
443.24	8409.54
443.43	8409.54
443.61	8498.49
443.80	8814.46
443.98	8339.33
444.17	8102.93
444.35	8454.02
444.54	8540.61
444.73	8521.89
444.91	8564.02
445.10	8547.64
445.28	8575.72
445.47	8468.06
445.65	8519.55
445.84	8814.46
446.02	8697.43
446.21	8617.85
446.39	8582.74
446.58	8966.59
446.77	8657.64
446.95	8634.24
447.14	8772.33
447.32	8645.94
447.51	8531.25
447.69	8751.26
447.88	8856.59
448.06	8868.29
448.25	8727.86
448.43	8952.55
448.62	8816.80
448.80	8730.20
448.99	8877.65
449.17	9198.31
449.36	9015.74
449.54	9153.84
449.73	9399.59
449.91	9359.80
450.10	9312.99
450.28	9408.95
450.46	9291.93
450.65	9404.27
450.83	9638.33
451.02	9476.83
451.20	9500.23
451.39	9628.96
451.57	9415.98
451.76	9411.29
451.94	9509.60
452.13	9568.11
452.31	9785.78
452.49	9600.88
452.68	9764.72
452.86	9781.10
453.05	9645.35
453.23	9589.17
453.42	9685.14
453.60	9769.40
453.78	9888.76
453.97	9846.63
454.15	10085.37
454.34	9837.27
454.52	10125.16
454.70	10029.20
454.89	10066.64
455.07	10054.94
455.26	10200.05
455.44	10427.09
455.62	9942.60
455.81	10050.26
455.99	10424.75
456.17	10420.06
456.36	10211.76
456.54	10714.97
456.73	10565.18
456.91	10637.73
457.09	10820.30
457.28	11035.63
457.46	10614.33
457.64	11002.86
457.83	11126.91
458.01	10729.02
458.19	11091.80
458.38	10888.17
458.56	11157.33
458.74	11295.43
458.93	10794.55
459.11	11211.17
459.29	11044.99
459.48	11438.20
459.66	11234.57
459.84	11440.54
460.03	11637.14
460.21	11363.30
460.39	11325.85
460.57	11353.94
460.76	11637.14
460.94	11648.85
461.12	11424.15
461.31	11660.55
461.49	11543.52
461.67	11454.58
461.85	11761.19
462.04	11674.59
462.22	12379.09
462.40	11997.59
462.59	12095.89
462.77	11775.24
462.95	11857.15
463.13	12290.15
463.32	11988.22
463.50	12133.34
463.68	12163.76
463.86	12308.88
464.05	12020.99
464.23	12128.66
464.41	12306.54
464.59	12112.27
464.78	12592.08
464.96	12226.96
465.14	12233.98
465.32	12603.78
465.50	12437.61
465.69	12634.21
465.87	12620.17
466.05	12664.64
466.23	12545.27
466.41	12641.23
466.60	13153.81
466.78	12727.83
466.96	12549.95
467.14	12861.24
467.32	12826.14
467.51	13109.34
467.69	12662.30
467.87	12929.12
468.05	13004.02
468.23	12957.21
468.41	13034.44
468.60	13055.51
468.78	13296.58
468.96	12823.80
469.14	13322.33
469.32	13415.95
469.50	13350.42
469.69	13642.98
469.87	13678.09
470.05	13715.54
470.23	13603.19
470.41	13610.22
470.59	14160.24
470.77	13610.22
470.95	13781.07
471.14	14193.01
471.32	13486.17
471.50	14153.22
471.68	14045.55
471.86	14361.53
472.04	14223.44
472.22	14586.22
472.40	14157.90
472.58	14682.18
472.77	14272.59
472.95	14579.20
473.13	15016.88
473.31	14586.22
473.49	14448.13
473.67	14817.93
473.85	14834.32
474.03	15063.69
474.21	14902.19
474.39	15314.13
474.57	15499.03
474.75	15697.97
474.93	15625.42
475.12	15800.96
475.30	15634.78
475.48	15597.33
475.66	15831.38
475.84	15915.64
476.02	16184.80
476.20	16035.01
476.38	16615.46
476.56	16659.93
476.74	16779.30
476.92	16414.18
477.10	16519.50
477.28	16945.48
477.46	16767.60
477.64	17195.92
477.82	17125.70
478.00	17429.97
478.18	17467.42
478.36	17806.80
478.54	18001.06
478.72	17923.82
478.90	18047.87
479.08	18286.61
479.26	18333.42
479.44	18740.67
479.62	18789.82
479.80	18930.25
479.98	18799.18
480.16	19433.47
480.34	19096.43
480.52	19328.14
480.70	19730.72
480.88	19508.37
481.06	19573.90
481.24	19475.60
481.41	19777.53
481.59	20016.26
481.77	20472.67
481.95	20608.42
482.13	20570.97
482.31	20716.08
482.49	21198.23
482.67	20989.92
482.85	21521.23
483.03	21935.50
483.21	21818.47
483.39	21696.77
483.57	22277.22
483.74	22160.19
483.92	22473.82
484.10	22157.85
484.28	22576.81
484.46	23360.89
484.64	23328.12
484.82	23262.58
485.00	23218.11
485.18	23718.99
485.35	24102.84
485.53	24018.58
485.71	24283.06
485.89	24797.98
486.07	24584.99
486.25	24851.81
486.43	24943.09
486.61	24910.32
486.78	25266.08
486.96	25324.60
487.14	25607.80
487.32	26171.87
487.50	26181.23
487.68	26239.75
487.85	26602.53
488.03	26733.60
488.21	27187.66
488.39	26883.39
488.57	27253.20
488.75	27377.25
488.92	28123.88
489.10	27873.44
489.28	28250.27
489.46	28594.32
489.64	28229.20
489.81	29156.05
489.99	28879.87
490.17	29186.48
490.35	29364.36
490.53	29717.78
490.70	29860.55
490.88	29883.96
491.06	30024.39
491.24	30181.21
491.41	30473.78
491.59	30391.86
491.77	30869.33
491.95	31740.00
492.13	31227.43
492.30	31222.75
492.48	31501.27
492.66	31438.08
492.84	31765.75
493.01	32308.76
493.19	32135.56
493.37	32617.71
493.54	32526.42
493.72	33294.12
493.90	32673.88
494.08	32950.06
494.25	33373.70
494.43	33642.86
494.61	34096.92
494.79	34459.71
494.96	34197.57
495.14	34864.62
495.32	34237.36
495.49	34759.30
495.67	34909.09
495.85	35178.25
496.02	35709.55
496.20	35477.84
496.38	35613.59
496.55	35672.10
496.73	36598.96
496.91	36409.37
497.09	36250.22
497.26	37160.69
497.44	36486.61
497.62	36851.73
497.79	37376.01
497.97	36687.90
498.14	37736.46
498.32	37998.60
498.50	38017.32
498.67	38536.92
498.85	38117.96
499.03	38572.03
499.20	38337.98
499.38	38469.04
499.56	39175.89
499.73	38976.94
499.91	39646.33
500.08	39103.33
500.26	39152.48
500.44	39721.23
500.61	40067.63
500.79	39613.57
500.97	40381.26
501.14	40240.83
501.32	40582.55
501.49	40451.48
501.67	40411.69
501.84	40669.15
502.02	41057.68
502.20	40942.99
502.37	41041.29
502.55	41053.00
502.72	41434.50
502.90	41427.48
503.07	41106.83
503.25	41551.53
503.43	41455.57
503.60	42419.87
503.78	42108.58
503.95	42033.68
504.13	42263.05
504.30	42883.30
504.48	41956.44
504.65	43058.84
504.83	43063.52
505.01	43480.13
505.18	43016.71
505.36	43739.93
505.53	43384.17
505.71	43587.80
505.88	43679.08
506.06	43302.25
506.23	44378.90
506.41	44240.81
506.58	44224.42
506.76	44329.75
506.93	43739.93
507.11	44065.27
507.28	44369.54
507.46	44884.45
507.63	45155.96
507.81	45574.91
507.98	45170.00
508.16	45345.54
508.33	44903.18
508.50	44849.35
508.68	45521.08
508.85	46052.38
509.03	45757.47
509.20	46019.61
509.38	46557.94
509.55	46534.53
509.73	46328.56
509.90	46632.83
510.08	46653.90
510.25	46323.88
510.42	46841.14
510.60	47100.94
510.77	47220.31
510.95	47363.08
511.12	46960.51
511.30	47061.15
511.47	47435.64
511.64	47580.75
511.82	48009.07
511.99	47749.27
512.17	48034.81
512.34	47980.98
512.51	48030.13
512.69	48402.28
512.86	48147.16
513.04	48907.83
513.21	48561.44
513.38	48502.92
513.56	48872.73
513.73	48678.46
513.90	49031.88
514.08	48804.85
514.25	48875.07
514.43	49099.76
514.60	49514.03
514.77	49275.30
514.95	49544.46
515.12	49633.40
515.29	49397.01
515.47	49610.00
515.64	49956.39
515.81	49525.74
515.99	50045.33
516.16	50349.60
516.33	50277.05
516.51	50581.32
516.68	50263.00
516.85	50019.59
517.03	50876.22
517.20	50543.87
517.37	50838.78
517.54	50880.91
517.72	50614.08
517.89	50803.67
518.06	51065.81
518.24	51042.40
518.41	50925.38
518.58	51194.54
518.75	51119.64
518.93	51512.85
519.10	51189.86
519.27	51686.05
519.45	51407.53
519.62	51400.50
519.79	51639.24
519.96	52177.56
520.14	52051.17
520.31	52002.02
520.48	52095.64
520.65	52006.70
520.83	52158.84
521.00	52236.08
521.17	52402.25
521.34	52109.69
521.52	52355.44
521.69	52383.53
521.86	52935.90
522.03	52769.72
522.20	52767.38
522.38	52711.20
522.55	53027.18
522.72	52912.49
522.89	53127.82
523.07	53200.38
523.24	53073.99
523.41	53186.33
523.58	53258.89
523.75	53602.95
523.92	53319.74
524.10	53413.37
524.27	53560.82
524.44	53925.94
524.61	53874.45
524.78	53984.46
524.96	53675.51
525.13	53703.59
525.30	53998.50
525.47	54124.89
525.64	54220.85
525.81	54281.70
525.98	54068.72
526.16	54122.55
526.33	54246.60
526.50	54532.14
526.67	54223.19
526.84	54286.39
527.01	54457.24
527.18	54541.50
527.36	54609.38
527.53	54763.85
527.70	55063.44
527.87	54864.50
528.04	54667.89
528.21	54749.81
528.38	54794.28
528.55	54831.73
528.72	54869.18
528.89	55229.62
529.07	55042.38
529.24	55042.38
529.41	55297.50
529.58	55114.94
529.75	54960.46
529.92	55063.44
530.09	55295.16
530.26	55140.68
530.43	55309.20
530.60	55398.14
530.77	55592.40
530.94	55590.06
531.11	55398.14
531.28	55496.44
531.46	55627.51
531.63	55732.84
531.80	55643.90
531.97	56149.45
532.14	55899.01
532.31	55721.13
532.48	55765.60
532.65	56332.01
532.82	55908.38
532.99	55983.27
533.16	55962.21
533.33	56310.95
533.50	56392.87
533.67	56362.44
533.84	56161.15
534.01	56299.25
534.18	56104.98
534.35	56507.55
534.52	56313.29
534.69	56378.82
534.86	56757.99
535.03	56669.05
535.20	56694.80
535.37	56584.79
535.54	56736.93
535.71	56324.99
535.88	56547.34
536.05	56727.56
536.22	56718.20
536.38	56921.83
536.55	56790.76
536.72	57172.27
536.89	56970.98
537.06	56886.72
537.23	56942.89
537.40	56846.93
537.57	56910.13
537.74	57153.54
537.91	57469.51
538.08	57373.55
538.25	57228.44
538.42	57392.28
538.59	57366.53
538.75	57169.93
538.92	57275.25
539.09	57532.71
539.26	57549.09
539.43	57551.43
539.60	57804.21
539.77	57708.25
539.94	57769.10
540.11	57827.62
540.28	57733.99
540.44	57839.32
540.61	57944.64
540.78	57764.42
540.95	57970.39
541.12	57930.60
541.29	58071.03
541.46	58286.36
541.62	57923.58
541.79	57996.13
541.96	57844.00
542.13	58089.76
542.30	58237.21
542.47	58281.68
542.63	58309.77
542.80	58370.62
542.97	58583.61
543.14	58710.00
543.31	58529.78
543.48	58504.03
543.64	58883.20
543.81	58611.70
543.98	58829.37
544.15	59035.33
544.32	58798.94
544.48	58937.03
544.65	58815.32
544.82	58906.60
544.99	58707.66
545.16	58831.71
545.32	58557.86
545.49	59285.77
545.66	59367.69
545.83	59470.67
546.00	59451.95
546.16	59302.15
546.33	58607.01
546.50	58979.16
546.67	58986.18
546.83	58904.26
547.00	59018.95
547.17	59021.29
547.34	59112.57
547.50	59503.44
547.67	59423.86
547.84	59157.04
548.00	59365.35
548.17	59573.66
548.34	59276.41
548.51	59465.99
548.67	59393.43
548.84	59568.97
549.01	59419.18
549.18	59463.65
549.34	59428.54
549.51	59540.89
549.68	59571.32
549.84	59262.36
550.01	59526.84
550.18	59412.16
550.34	59341.94
550.51	59746.86
550.68	59891.97
550.84	59742.17
551.01	59601.74
551.18	59653.23
551.34	59540.89
551.51	59683.66
551.68	59814.73
551.84	59887.29
552.01	59765.58
552.18	60011.34
552.34	59908.35
552.51	59807.71
552.68	59898.99
552.84	59863.88
553.01	59990.27
553.18	59849.84
553.34	60102.62
553.51	59973.89
553.67	60060.49
553.84	60350.71
554.01	60289.86
554.17	60151.77
554.34	60170.49
554.51	60090.91
554.67	60367.10
554.84	60252.41
555.00	60177.51
555.17	60285.18
555.33	60374.12
555.50	60140.07
555.67	60210.28
555.83	60193.90
556.00	60163.47
556.16	60699.45
556.33	60327.31
556.50	60266.45
556.66	60460.72
556.83	60474.76
556.99	60643.28
557.16	60392.84
557.32	60638.60
557.49	60570.72
557.65	60423.27
557.82	60425.61
557.98	60484.12
558.15	60594.13
558.32	60882.02
558.48	60711.16
558.65	60774.35
558.81	60633.92
558.98	60662.00
559.14	60666.69
559.31	60704.13
559.47	60500.51
559.64	60823.50
559.80	60664.35
559.97	60811.80
560.13	60797.76
560.30	60818.82
560.46	60783.71
560.63	60680.73
560.79	60970.96
560.96	60914.78
561.12	60849.25
561.29	60844.57
561.45	60804.78
561.61	61066.92
561.78	60921.80
561.94	61073.94
562.11	61230.75
562.27	61102.03
562.44	61022.45
562.60	60996.70
562.77	60963.93
562.93	61045.85
563.10	61254.16
563.26	60952.23
563.42	61392.25
563.59	61226.07
563.75	61052.87
563.92	61179.26
564.08	60973.30
564.24	61123.09
564.41	60992.02
564.57	61275.22
564.74	61165.22
564.90	61020.11
565.07	61226.07
565.23	61162.88
565.39	61127.77
565.56	61174.58
565.72	61132.45
565.88	61333.74
566.05	61237.78
566.21	61073.94
566.38	61167.56
566.54	61331.40
566.70	61462.47
566.87	61378.21
567.03	61403.95
567.19	61626.31
567.36	61558.43
567.52	61478.85
567.68	61305.65
567.85	61322.04
568.01	61307.99
568.17	61272.88
568.34	61528.00
568.50	61506.94
568.66	61558.43
568.83	61614.60
568.99	61464.81
569.15	61481.19
569.32	61415.66
569.48	61268.20
569.64	61450.77
569.81	61371.19
569.97	61352.46
570.13	61415.66
570.30	61371.19
570.46	61722.27
570.62	61329.06
570.78	61488.21
570.95	61329.06
571.11	61652.05
571.27	61249.48
571.43	61364.17
571.60	61357.14
571.76	61621.62
571.92	61574.81
572.09	61663.75
572.25	61776.10
572.41	61556.09
572.57	61387.57
572.74	61771.42
572.90	61502.26
573.06	61577.15
573.22	61467.15
573.38	61595.88
573.55	61642.69
573.71	61949.30
573.87	61804.19
574.03	61848.66
574.20	61642.69
574.36	61551.41
574.52	61726.95
574.68	61834.61
574.84	61661.41
575.01	61815.89
575.17	61703.54
575.33	61785.46
575.49	61710.56
575.65	61799.50
575.82	62078.03
575.98	61722.27
576.14	61979.73
576.30	61949.30
576.46	61846.32
576.62	61865.04
576.79	61675.46
576.95	61792.48
577.11	61825.25
577.27	61998.45
577.43	61846.32
577.59	61975.05
577.75	61827.59
577.92	61769.08
578.08	61619.28
578.24	61815.89
578.40	61759.72
578.56	61748.01
578.72	61953.98
578.88	62094.41
579.04	62103.77
579.21	61813.55
579.37	62122.50
579.53	62052.28
579.69	61785.46
579.85	61883.76
580.01	61902.49
580.17	61895.47
580.33	61839.29
580.49	61755.03
580.65	62115.48
580.82	62068.67
580.98	61956.32
581.14	61841.63
581.30	61907.17
581.46	61975.05
581.62	61755.03
581.78	61572.47
581.94	62087.39
582.10	61914.19
582.26	61928.23
582.42	62124.84
582.58	62049.94
582.74	62127.18
582.90	62033.56
583.06	62089.73
583.22	61946.96
583.38	61923.55
583.54	62019.52
583.70	61881.42
583.86	62054.62
584.02	62054.62
584.18	62162.29
584.34	62063.99
584.50	62028.88
584.66	62063.99
584.82	61979.73
584.98	62291.02
585.14	62021.86
585.30	61890.79
585.46	62089.73
585.62	61846.32
585.78	62045.26
585.94	61848.66
586.10	62152.93
586.26	61867.38
586.42	62115.48
586.58	62227.82
586.74	62143.56
586.90	62012.49
587.06	62063.99
587.22	62078.03
587.38	62003.13
587.54	62260.59
587.70	62412.73
587.86	62246.55
588.02	62171.65
588.18	62569.54
588.34	62272.29
588.49	62106.12
588.65	61968.02
588.81	62021.86
588.97	62181.01
