SpectraSuite Data File
++++++++++++++++++++++++++++++++++++
Date: Fri Oct 04 11:39:30 GMT-05:00 2013
User: price-jones
Dark Spectrum Present: No
Reference Spectrum Present: No
Number of Sampled Component Spectra: 1
Spectrometers: USB2+H05261
Integration Time (usec): 100000 (USB2+H05261)
Spectra Averaged: 1 (USB2+H05261)
Boxcar Smoothing: 0 (USB2+H05261)
Correct for Electrical Dark: No (USB2+H05261)
Strobe/Lamp Enabled: No (USB2+H05261)
Correct for Detector Non-linearity: No (USB2+H05261)
Correct for Stray Light: No (USB2+H05261)
Number of Pixels in Processed Spectrum: 2048
>>>>>Begin Processed Spectral Data<<<<<
365.73	86.60
365.92	86.60
366.12	86.60
366.32	0.00
366.52	0.00
366.72	0.00
366.91	0.00
367.11	0.00
367.31	0.00
367.51	0.00
367.70	0.00
367.90	0.00
368.10	0.00
368.30	0.00
368.49	0.00
368.69	0.00
368.89	0.00
369.09	0.00
369.28	0.00
369.48	0.00
369.68	0.00
369.87	2.34
370.07	0.00
370.27	51.49
370.47	53.83
370.66	74.90
370.86	110.01
371.06	107.66
371.25	67.88
371.45	102.98
371.65	81.92
371.84	128.73
372.04	133.41
372.24	182.56
372.44	114.69
372.63	131.07
372.83	175.54
373.03	222.35
373.22	175.54
373.42	95.96
373.62	184.90
373.81	145.11
374.01	149.79
374.21	229.37
374.40	238.73
374.60	156.82
374.79	210.65
374.99	208.31
375.19	145.11
375.38	203.63
375.58	266.82
375.78	222.35
375.97	177.88
376.17	231.71
376.37	243.42
376.56	191.92
376.76	177.88
376.95	203.63
377.15	243.42
377.35	182.56
377.54	203.63
377.74	152.13
377.93	224.69
378.13	201.29
378.33	229.37
378.52	194.26
378.72	198.95
378.91	234.05
379.11	191.92
379.31	234.05
379.50	276.18
379.70	194.26
379.89	156.82
380.09	145.11
380.28	198.95
380.48	156.82
380.68	142.77
380.87	205.97
381.07	161.50
381.26	234.05
381.46	168.52
381.65	175.54
381.85	177.88
382.04	224.69
382.24	159.16
382.43	220.01
382.63	182.56
382.83	126.39
383.02	231.71
383.22	243.42
383.41	60.85
383.61	231.71
383.80	196.60
384.00	273.84
384.19	238.73
384.39	262.14
384.58	170.86
384.78	255.12
384.97	168.52
385.17	248.10
385.36	229.37
385.56	201.29
385.75	201.29
385.95	222.35
386.14	217.67
386.34	241.08
386.53	215.33
386.72	198.95
386.92	294.91
387.11	238.73
387.31	163.84
387.50	191.92
387.70	196.60
387.89	273.84
388.09	304.27
388.28	222.35
388.48	243.42
388.67	290.23
388.86	248.10
389.06	243.42
389.25	224.69
389.45	294.91
389.64	283.20
389.84	278.52
390.03	234.05
390.22	222.35
390.42	297.25
390.61	252.78
390.81	231.71
391.00	241.08
391.19	212.99
391.39	231.71
391.58	269.16
391.78	351.08
391.97	276.18
392.16	262.14
392.36	320.65
392.55	322.99
392.75	360.44
392.94	234.05
393.13	376.83
393.33	301.93
393.52	252.78
393.71	379.17
393.91	330.02
394.10	360.44
394.29	278.52
394.49	276.18
394.68	341.72
394.88	351.08
395.07	348.74
395.26	318.31
395.46	360.44
395.65	341.72
395.84	308.95
396.04	355.76
396.23	292.57
396.42	383.85
396.62	372.15
396.81	414.27
397.00	315.97
397.19	344.06
397.39	365.12
397.58	388.53
397.77	290.23
397.97	458.74
398.16	348.74
398.35	353.42
398.55	353.42
398.74	365.12
398.93	468.11
399.12	369.80
399.32	374.49
399.51	372.15
399.70	463.43
399.90	489.17
400.09	477.47
400.28	379.17
400.47	409.59
400.67	358.10
400.86	418.96
401.05	449.38
401.24	498.53
401.44	442.36
401.63	540.66
401.82	458.74
402.01	458.74
402.21	517.26
402.40	531.30
402.59	418.96
402.78	585.13
402.97	514.92
403.17	545.34
403.36	552.37
403.55	512.58
403.74	498.53
403.93	531.30
404.13	575.77
404.32	613.22
404.51	608.54
404.70	631.94
404.89	603.86
405.09	772.38
405.28	582.79
405.47	631.94
405.66	674.07
405.85	685.78
406.05	730.25
406.24	653.01
406.43	702.16
406.62	648.33
406.81	748.97
407.00	678.76
407.20	697.48
407.39	711.52
407.58	760.67
407.77	706.84
407.96	784.08
408.15	821.53
408.34	784.08
408.54	770.04
408.73	753.65
408.92	849.61
409.11	873.02
409.30	821.53
409.49	826.21
409.68	847.27
409.87	826.21
410.07	901.11
410.26	861.32
410.45	891.74
410.64	971.32
410.83	959.62
411.02	837.91
411.21	1060.26
411.40	1057.92
411.59	987.71
411.78	971.32
411.98	1048.56
412.17	990.05
412.36	1015.79
412.55	1029.84
412.74	1078.99
412.93	1128.14
413.12	1109.41
413.31	1125.80
413.50	1116.44
413.69	1078.99
413.88	1188.99
414.07	1273.25
414.26	1212.40
414.45	1156.22
414.64	1172.61
414.83	1226.44
415.02	1348.15
415.22	1219.42
415.41	1254.53
415.60	1259.21
415.79	1359.85
415.98	1392.62
416.17	1376.24
416.36	1385.60
416.55	1352.83
416.74	1362.19
416.93	1430.07
417.12	1549.43
417.31	1432.41
417.50	1472.20
417.69	1577.52
417.88	1481.56
418.07	1469.86
418.26	1432.41
418.45	1416.02
418.64	1556.46
418.83	1530.71
419.02	1490.92
419.21	1673.48
419.39	1586.88
419.58	1549.43
419.77	1528.37
419.96	1607.95
420.15	1706.25
420.34	1640.72
420.53	1643.06
420.72	1671.14
420.91	1694.55
421.10	1867.75
421.29	1827.96
421.48	1645.40
421.67	1687.53
421.86	1696.89
422.05	1696.89
422.24	1804.55
422.43	1715.61
422.61	1750.72
422.80	1706.25
422.99	1785.83
423.18	1813.92
423.37	1739.02
423.56	1865.41
423.75	1865.41
423.94	1783.49
424.13	1685.19
424.32	1739.02
424.50	1764.76
424.69	1874.77
424.88	1877.11
425.07	1816.26
425.26	1905.20
425.45	1818.60
425.64	1804.55
425.83	1968.39
426.01	1963.71
426.20	1907.54
426.39	1872.43
426.58	1919.24
426.77	1928.60
426.96	1839.66
427.15	1926.26
427.33	1900.52
427.52	1874.77
427.71	1884.13
427.90	1895.83
428.09	1886.47
428.28	1928.60
428.46	2019.88
428.65	1989.46
428.84	1928.60
429.03	2054.99
429.22	2010.52
429.40	2054.99
429.59	2031.58
429.78	2008.18
429.97	1954.35
430.16	2092.44
430.34	2057.33
430.53	2057.33
430.72	2094.78
430.91	2113.50
431.10	2076.06
431.28	2157.97
431.47	2045.63
431.66	2162.66
431.85	2134.57
432.03	2253.94
432.22	2275.00
432.41	2211.81
432.60	2174.36
432.79	2221.17
432.97	2275.00
433.16	2279.68
433.35	2097.12
433.54	2253.94
433.72	2312.45
433.91	2256.28
434.10	2237.55
434.28	2296.07
434.47	2242.23
434.66	2218.83
434.85	2253.94
435.03	2464.58
435.22	2473.95
435.41	2799.28
435.59	2754.81
435.78	2541.82
435.97	2569.91
436.16	2457.56
436.34	2396.71
436.53	2473.95
436.72	2569.91
436.90	2399.05
437.09	2462.24
437.28	2373.30
437.46	2509.05
437.65	2452.88
437.84	2471.61
438.02	2558.21
438.21	2480.97
438.40	2487.99
438.58	2614.38
438.77	2717.36
438.96	2485.65
439.14	2551.18
439.33	2729.06
439.52	2602.68
439.70	2679.91
439.89	2754.81
440.08	2766.51
440.26	2670.55
440.45	2717.36
440.63	2717.36
440.82	2764.17
441.01	2857.79
441.19	2810.98
441.38	2902.26
441.57	2754.81
441.75	2818.00
441.94	2902.26
442.12	2977.16
442.31	2972.48
442.50	3019.29
442.68	2932.69
442.87	3014.61
443.05	3101.21
443.24	3155.04
443.43	3159.72
443.61	2981.84
443.80	3112.91
443.98	2963.12
444.17	3005.25
444.35	3005.25
444.54	3178.45
444.73	2981.84
444.91	3082.49
445.10	3028.65
445.28	3054.40
445.47	3084.83
445.65	3077.80
445.84	3138.66
446.02	3159.72
446.21	2951.42
446.39	3185.47
446.58	3164.40
446.77	3122.27
446.95	3002.91
447.14	3176.11
447.32	3243.98
447.51	3101.21
447.69	3208.87
447.88	3164.40
448.06	3164.40
448.25	3150.36
448.43	3187.81
448.62	3173.77
448.80	3293.13
448.99	3222.92
449.17	3269.73
449.36	3276.75
449.54	3386.76
449.73	3391.44
449.91	3283.77
450.10	3309.52
450.28	3349.31
450.46	3454.63
450.65	3396.12
450.83	3435.91
451.02	3400.80
451.20	3372.71
451.39	3487.40
451.57	3557.61
451.76	3363.35
451.94	3468.67
452.13	3543.57
452.31	3478.04
452.49	3456.97
452.68	3405.48
452.86	3609.11
453.05	3421.86
453.23	3510.80
453.42	3419.52
453.60	3468.67
453.78	3581.02
453.97	3571.66
454.15	3545.91
454.34	3578.68
454.52	3623.15
454.70	3588.04
454.89	3574.00
455.07	3702.73
455.26	3648.90
455.44	3646.55
455.62	3665.28
455.81	3658.26
455.99	3639.53
456.17	3721.45
456.36	3691.02
456.54	3712.09
456.73	3868.91
456.91	3927.42
457.09	3861.88
457.28	3953.16
457.46	3887.63
457.64	3981.25
457.83	3819.75
458.01	3936.78
458.19	4004.66
458.38	3948.48
458.56	3878.27
458.74	3960.19
458.93	3859.54
459.11	4023.38
459.29	4030.40
459.48	4004.66
459.66	3997.64
459.84	4070.19
460.03	4191.90
460.21	4117.00
460.39	4018.70
460.57	3964.87
460.76	4294.88
460.94	4227.01
461.12	4039.76
461.31	4095.94
461.49	4074.87
461.67	4135.73
461.85	4201.26
462.04	4215.30
462.22	4311.27
462.40	4374.46
462.59	4337.01
462.77	4259.78
462.95	4149.77
463.13	4222.33
463.32	4283.18
463.50	4290.20
463.68	4348.72
463.86	4383.82
464.05	4201.26
464.23	4266.80
464.41	4234.03
464.59	4297.22
464.78	4360.42
464.96	4475.10
465.14	4337.01
465.32	4442.34
465.50	4320.63
465.69	4505.53
465.87	4430.63
466.05	4461.06
466.23	4456.38
466.41	4627.24
466.60	4470.42
466.78	4470.42
466.96	4367.44
467.14	4400.21
467.32	4505.53
467.51	4657.67
467.69	4411.91
467.87	4428.29
468.05	4409.57
468.23	4573.41
468.41	4461.06
468.60	4629.58
468.78	4599.15
468.96	4440.00
469.14	4624.90
469.32	4791.08
469.50	4582.77
469.69	4720.86
469.87	4788.74
470.05	4917.47
470.23	4739.58
470.41	4807.46
470.59	4903.42
470.77	4795.76
470.95	4933.85
471.14	4919.81
471.32	4798.10
471.50	5060.24
471.68	4868.31
471.86	4894.06
472.04	4947.89
472.22	5102.37
472.40	4957.25
472.58	5172.58
472.77	4999.38
472.95	5135.14
473.13	5394.93
473.31	5076.62
473.49	5181.95
473.67	5238.12
473.85	5254.50
474.03	5266.21
474.21	5336.42
474.39	5336.42
474.57	5366.85
474.75	5373.87
474.93	5366.85
475.12	5317.70
475.30	5458.13
475.48	5420.68
475.66	5509.62
475.84	5432.38
476.02	5558.77
476.20	5645.37
476.38	5837.30
476.56	5930.92
476.74	5671.12
476.92	5685.16
477.10	5708.57
477.28	5923.90
477.46	5900.49
477.64	5926.24
477.82	6012.84
478.00	6120.50
478.18	6092.41
478.36	6157.95
478.54	6113.48
478.72	6045.60
478.90	6363.92
479.08	6246.89
479.26	6361.58
479.44	6188.38
479.62	6370.94
479.80	6455.20
479.98	6609.67
480.16	6773.51
480.34	6719.68
480.52	6555.84
480.70	6747.76
480.88	6623.72
481.06	6834.36
481.24	6808.62
481.41	6860.11
481.59	6963.09
481.77	7047.35
481.95	6902.24
482.13	7101.19
482.31	7075.44
482.49	7318.86
482.67	7269.70
482.85	7360.98
483.03	7407.80
483.21	7485.03
483.39	7501.42
483.57	7761.22
483.74	7709.72
483.92	7426.52
484.10	7583.34
484.28	7754.19
484.46	7922.71
484.64	7707.38
484.82	7929.74
485.00	7927.39
485.18	7833.77
485.35	8067.83
485.53	8348.69
485.71	8379.12
485.89	8404.86
486.07	8285.50
486.25	8456.36
486.43	8496.14
486.61	8645.94
486.78	8615.51
486.96	8791.05
487.14	8772.33
487.32	8514.87
487.50	8713.81
487.68	8772.33
487.85	8957.23
488.03	9184.26
488.21	9547.05
488.39	9071.92
488.57	9193.62
488.75	9275.54
488.92	9682.80
489.10	9479.17
489.28	9439.38
489.46	9378.53
489.64	9598.54
489.81	9813.87
489.99	9586.83
490.17	9949.62
490.35	9947.28
490.53	9984.73
490.70	10270.27
490.88	10251.55
491.06	10274.95
491.24	10134.52
491.41	9961.32
491.59	10473.90
491.77	10366.23
491.95	10527.73
492.13	10387.30
492.30	10448.15
492.48	10647.10
492.66	10721.99
492.84	10633.05
493.01	10813.28
493.19	10876.47
493.37	11068.39
493.54	10981.79
493.72	11009.88
493.90	11028.60
494.08	11297.77
494.25	11227.55
494.43	11360.96
494.61	11445.22
494.79	11508.41
494.96	11379.68
495.14	11686.29
495.32	11662.89
495.49	11623.10
495.67	11599.70
495.85	11847.79
496.02	11866.52
496.20	12128.66
496.38	12126.32
496.55	12044.40
496.73	12407.18
496.91	12102.91
497.09	12152.06
497.26	12453.99
497.44	12191.85
497.62	12533.57
497.79	12681.02
497.97	12610.81
498.14	12819.11
498.32	12690.38
498.50	12695.07
498.67	12886.99
498.85	12758.26
499.03	13041.46
499.20	12954.87
499.38	12954.87
499.56	12954.87
499.73	13200.62
499.91	13359.78
500.08	13186.58
500.26	13128.06
500.44	13160.83
500.61	13224.03
500.79	13315.31
500.97	13401.91
501.14	13596.17
501.32	13570.43
501.49	13589.15
501.67	13593.83
501.84	13729.58
502.02	13657.03
502.20	13664.05
502.37	13877.04
502.55	14017.47
502.72	13893.42
502.90	13970.66
503.07	13809.16
503.25	13935.55
503.43	13881.72
503.60	14029.17
503.78	14211.73
503.95	14031.51
504.13	14164.92
504.30	14401.32
504.48	14307.69
504.65	14389.61
504.83	14410.68
505.01	14780.48
505.18	14710.27
505.36	14944.32
505.53	14710.27
505.71	14661.12
505.88	14665.80
506.06	14780.48
506.23	14981.77
506.41	14890.49
506.58	15047.30
506.76	14806.23
506.93	14881.13
507.11	14726.65
507.28	15169.01
507.46	15180.71
507.63	15272.00
507.81	15316.47
507.98	15180.71
508.16	15253.27
508.33	15351.57
508.50	14998.15
508.68	15410.09
508.85	15618.39
509.03	15506.05
509.20	15700.31
509.38	15819.68
509.55	15999.90
509.73	15885.22
509.90	15719.04
510.08	15545.84
510.25	15815.00
510.42	15967.13
510.60	16152.04
510.77	16142.67
510.95	16170.76
511.12	16189.49
511.30	16077.14
511.47	16198.85
511.64	16093.52
511.82	16692.70
511.99	16301.83
512.17	16479.71
512.34	16451.63
512.51	16507.80
512.69	16814.41
512.86	16692.70
513.04	16978.25
513.21	16868.24
513.38	16826.11
513.56	16821.43
513.73	16706.74
513.90	16601.42
514.08	16676.32
514.25	17062.51
514.43	16725.47
514.60	17048.46
514.77	17071.87
514.95	17326.99
515.12	17053.14
515.29	17160.81
515.47	17329.33
515.64	17331.67
515.81	17186.55
515.99	17404.22
516.16	17558.70
516.33	17268.47
516.51	17703.81
516.68	17502.53
516.85	17666.36
517.03	17724.88
517.20	17640.62
517.37	17748.28
517.54	17949.57
517.72	17891.06
517.89	17614.87
518.06	17680.41
518.24	17802.11
518.41	17844.24
518.58	17914.46
518.75	18078.30
518.93	17902.76
519.10	18143.83
519.27	18228.09
519.45	18075.96
519.62	18101.70
519.79	18258.52
519.96	18387.25
520.14	18420.02
520.31	18295.97
520.48	18504.28
520.65	18527.68
520.83	18597.90
521.00	18621.30
521.17	18377.89
521.34	18494.91
521.52	18513.64
521.69	18923.23
521.86	18490.23
522.03	19073.03
522.20	18794.50
522.38	18850.67
522.55	18679.82
522.72	18895.14
522.89	18843.65
523.07	19398.36
523.24	19166.65
523.41	19117.50
523.58	18934.93
523.75	19012.17
523.92	19131.54
524.10	19171.33
524.27	19335.17
524.44	19302.40
524.61	19372.61
524.78	19583.26
524.96	19428.79
525.13	19463.90
525.30	19686.25
525.47	19840.72
525.64	19454.53
525.81	19658.16
525.98	19803.27
526.16	19679.22
526.33	19538.79
526.50	20063.07
526.67	19653.48
526.84	19627.73
527.01	19700.29
527.18	19875.83
527.36	20046.69
527.53	20044.35
527.70	19878.17
527.87	20255.00
528.04	19955.41
528.21	20006.90
528.38	20051.37
528.55	20231.59
528.72	19859.45
528.89	19960.09
529.07	20208.19
529.24	20238.61
529.41	20442.24
529.58	20102.86
529.75	20009.24
529.92	20587.35
530.09	20152.01
530.26	20608.42
530.43	20620.12
530.60	20535.86
530.77	20587.35
530.94	20746.51
531.11	20386.07
531.28	20442.24
531.46	20613.10
531.63	20690.34
531.80	20615.44
531.97	20554.58
532.14	20847.15
532.31	20531.18
532.48	20893.96
532.65	21067.16
532.82	20842.47
532.99	20879.92
533.16	21078.86
533.33	21219.30
533.50	21130.36
533.67	21167.80
533.84	21041.42
534.01	20877.58
534.18	20938.43
534.35	21261.43
534.52	20992.26
534.69	21376.11
534.86	21160.78
535.03	21144.40
535.20	21294.19
535.37	21434.63
535.54	21319.94
535.71	21177.17
535.88	21722.51
536.05	21268.45
536.22	21673.36
536.38	21614.85
536.55	21621.87
536.72	21738.90
536.89	21277.81
537.06	21303.56
537.23	21511.86
537.40	21593.78
537.57	21736.56
537.74	21757.62
537.91	21776.34
538.08	21902.73
538.25	21788.05
538.42	21525.91
538.59	21738.90
538.75	21837.20
538.92	21830.18
539.09	21975.29
539.26	22008.06
539.43	22052.53
539.60	22031.46
539.77	21933.16
539.94	22331.05
540.11	22387.22
540.28	22066.57
540.44	22204.66
540.61	22162.53
540.78	22043.17
540.95	22567.45
541.12	22380.20
541.29	22799.16
541.46	22658.73
541.62	22359.14
541.79	22803.84
541.96	22228.07
542.13	22733.62
542.30	22483.19
542.47	22885.76
542.63	22663.41
542.80	22794.48
542.97	22939.59
543.14	22728.94
543.31	22838.95
543.48	23026.19
543.64	23075.34
543.81	22955.97
543.98	23302.37
544.15	23201.73
544.32	23414.72
544.48	23243.86
544.65	23264.92
544.82	22705.54
544.99	23000.44
545.16	22803.84
545.32	22981.72
545.49	23590.26
545.66	24320.51
545.83	24130.92
546.00	24130.92
546.16	23662.82
546.33	23337.48
546.50	23241.52
546.67	23449.83
546.83	22623.62
547.00	23592.60
547.17	23353.87
547.34	23295.35
547.50	23440.47
547.67	23545.79
547.84	23222.80
548.00	23751.76
548.17	23552.81
548.34	23344.50
548.51	23658.14
548.67	23632.39
548.84	23421.74
549.01	23484.94
549.18	23623.03
549.34	23344.50
549.51	23798.57
549.68	23379.61
549.84	23171.30
550.01	23358.55
550.18	23548.13
550.34	23814.95
550.51	23817.29
550.68	23426.42
550.84	23468.55
551.01	23325.78
551.18	23847.72
551.34	23510.68
551.51	23957.72
551.68	23721.33
551.84	23630.05
552.01	23587.92
552.18	23751.76
552.34	24088.79
552.51	23861.76
552.68	23587.92
552.84	23814.95
553.01	24018.58
553.18	24011.56
553.34	23847.72
553.51	23981.13
553.67	24067.73
553.84	24151.99
554.01	24177.73
554.17	23917.93
554.34	23754.10
554.51	24074.75
554.67	23723.67
554.84	24084.11
555.00	23901.55
555.17	24002.19
555.33	24058.37
555.50	23681.54
555.67	24049.00
555.83	23578.56
556.00	24079.43
556.16	24109.86
556.33	23885.17
556.50	24072.41
556.66	23913.25
556.83	24018.58
556.99	24524.13
557.16	24215.18
557.32	24376.68
557.49	24154.33
557.65	23754.10
557.82	24046.66
557.98	23669.84
558.15	23857.08
558.32	24332.21
558.48	23981.13
558.65	24580.31
558.81	24238.59
558.98	24491.37
559.14	24180.07
559.31	23992.83
559.47	24360.30
559.64	24065.39
559.80	24428.17
559.97	24592.01
560.13	24149.65
560.30	24898.62
560.46	24587.33
560.63	24622.44
560.79	24311.14
560.96	24465.62
561.12	24147.31
561.29	24477.32
561.45	24308.80
561.61	24563.92
561.78	24666.91
561.94	24596.69
562.11	24325.19
562.27	24456.26
562.44	24472.64
562.60	24168.37
562.77	24135.60
562.93	24500.73
563.10	24500.73
563.26	24350.93
563.42	24774.57
563.59	24477.32
563.75	24549.88
563.92	24690.31
564.08	24222.20
564.24	24638.82
564.41	24521.79
564.57	24411.79
564.74	24304.12
564.90	24643.50
565.07	24437.53
565.23	24915.00
565.39	24592.01
565.56	24584.99
565.72	24470.30
565.88	24535.84
566.05	24547.54
566.21	24334.55
566.38	24339.23
566.54	24482.00
566.70	24453.92
566.87	24552.22
567.03	24732.44
567.19	24786.27
567.36	24554.56
567.52	24774.57
567.68	24678.61
567.85	24606.05
568.01	24561.58
568.17	24671.59
568.34	24886.92
568.50	24819.04
568.66	24472.64
568.83	24732.44
568.99	24411.79
569.15	24566.26
569.32	24582.65
569.48	24500.73
569.64	24716.06
569.81	24718.40
569.97	24641.16
570.13	24610.73
570.30	24641.16
570.46	24760.53
570.62	24802.66
570.78	25013.31
570.95	24482.00
571.11	24746.48
571.27	24577.97
571.43	24802.66
571.60	24875.21
571.76	24613.07
571.92	24627.12
572.09	24886.92
572.25	24875.21
572.41	24786.27
572.57	24765.21
572.74	24837.76
572.90	24374.34
573.06	24573.28
573.22	24856.49
573.38	24900.96
573.55	25015.65
573.71	25184.16
573.87	25043.73
574.03	24706.70
574.20	24975.86
574.36	24423.49
574.52	24833.08
574.68	24526.47
574.84	24924.36
575.01	24769.89
575.17	25022.67
575.33	24882.24
575.49	24964.15
575.65	25130.33
575.82	24924.36
575.98	24870.53
576.14	25245.02
576.30	24702.01
576.46	24753.51
576.62	24863.51
576.79	25216.93
576.95	24671.59
577.11	25032.03
577.27	25230.98
577.43	24900.96
577.59	25191.19
577.75	24790.95
577.92	24376.68
578.08	24477.32
578.24	24753.51
578.40	24790.95
578.56	24727.76
578.72	25025.01
578.88	25106.93
579.04	24971.18
579.21	25221.61
579.37	24947.77
579.53	24954.79
579.69	24706.70
579.85	25071.82
580.01	24807.34
580.17	24842.45
580.33	24915.00
580.49	25202.89
580.65	24891.60
580.82	24830.74
580.98	25027.35
581.14	24631.80
581.30	25046.07
581.46	24669.25
581.62	25102.25
581.78	24680.95
581.94	24636.48
582.10	24381.36
582.26	25127.99
582.42	25369.07
582.58	25252.04
582.74	24945.43
582.90	25315.23
583.06	25104.59
583.22	24659.88
583.38	24854.15
583.54	24643.50
583.70	24666.91
583.86	24790.95
584.02	25010.96
584.18	25198.21
584.34	25039.05
584.50	25172.46
584.66	24994.58
584.82	25055.43
584.98	25013.31
585.14	25149.06
585.30	24573.28
585.46	24905.64
585.62	24765.21
585.78	24727.76
585.94	25015.65
586.10	25188.85
586.26	24989.90
586.42	24907.98
586.58	25383.11
586.74	24854.15
586.90	25034.37
587.06	24844.79
587.22	25326.94
587.38	24758.19
587.54	25017.99
587.70	25151.40
587.86	25427.58
588.02	24966.49
588.18	24989.90
588.34	25188.85
588.49	24877.55
588.65	24730.10
588.81	25095.22
588.97	25186.50
589.13	25022.67
589.29	25055.43
589.45	25296.51
589.61	25383.11
589.77	25083.52
589.93	25434.60
590.08	25560.99
590.24	25078.84
590.40	25366.73
590.56	25415.88
590.72	25132.67
590.88	25013.31
591.04	25209.91
591.20	25256.72
591.35	25163.10
591.51	25254.38
591.67	25568.01
591.83	25280.13
591.99	25397.15
592.15	25371.41
592.31	25427.58
