SpectraSuite Data File
++++++++++++++++++++++++++++++++++++
Date: Fri Oct 04 11:39:26 GMT-05:00 2013
User: price-jones
Dark Spectrum Present: No
Reference Spectrum Present: No
Number of Sampled Component Spectra: 1
Spectrometers: USB2+H05261
Integration Time (usec): 100000 (USB2+H05261)
Spectra Averaged: 1 (USB2+H05261)
Boxcar Smoothing: 0 (USB2+H05261)
Correct for Electrical Dark: No (USB2+H05261)
Strobe/Lamp Enabled: No (USB2+H05261)
Correct for Detector Non-linearity: No (USB2+H05261)
Correct for Stray Light: No (USB2+H05261)
Number of Pixels in Processed Spectrum: 2048
>>>>>Begin Processed Spectral Data<<<<<
365.73	72.56
365.92	72.56
366.12	72.56
366.32	0.00
366.52	0.00
366.72	4.68
366.91	0.00
367.11	25.75
367.31	28.09
367.51	0.00
367.70	0.00
367.90	16.38
368.10	0.00
368.30	0.00
368.49	0.00
368.69	18.72
368.89	9.36
369.09	0.00
369.28	14.04
369.48	14.04
369.68	0.00
369.87	0.00
370.07	0.00
370.27	25.75
370.47	70.22
370.66	168.52
370.86	189.58
371.06	149.79
371.25	210.65
371.45	156.82
371.65	299.59
371.84	173.20
372.04	222.35
372.24	245.76
372.44	231.71
372.63	271.50
372.83	224.69
373.03	290.23
373.22	290.23
373.42	280.86
373.62	287.89
373.81	287.89
374.01	330.02
374.21	266.82
374.40	262.14
374.60	355.76
374.79	325.33
374.99	241.08
375.19	227.03
375.38	301.93
375.58	294.91
375.78	334.70
375.97	287.89
376.17	353.42
376.37	259.80
376.56	283.20
376.76	334.70
376.95	220.01
377.15	318.31
377.35	308.95
377.54	320.65
377.74	332.36
377.93	285.55
378.13	351.08
378.33	332.36
378.52	294.91
378.72	330.02
378.91	304.27
379.11	231.71
379.31	283.20
379.50	337.04
379.70	346.40
379.89	351.08
380.09	266.82
380.28	313.63
380.48	376.83
380.68	294.91
380.87	358.10
381.07	430.66
381.26	395.55
381.46	327.68
381.65	320.65
381.85	297.25
382.04	285.55
382.24	320.65
382.43	322.99
382.63	353.42
382.83	348.74
383.02	325.33
383.22	423.64
383.41	301.93
383.61	369.80
383.80	344.06
384.00	327.68
384.19	334.70
384.39	430.66
384.58	365.12
384.78	367.46
384.97	351.08
385.17	435.34
385.36	386.19
385.56	451.72
385.75	344.06
385.95	421.30
386.14	386.19
386.34	351.08
386.53	395.55
386.72	409.59
386.92	402.57
387.11	433.00
387.31	381.51
387.50	414.27
387.70	362.78
387.89	521.94
388.09	470.45
388.28	386.19
388.48	440.02
388.67	433.00
388.86	418.96
389.06	521.94
389.25	479.81
389.45	388.53
389.64	468.11
389.84	430.66
390.03	491.51
390.22	493.85
390.42	550.03
390.61	491.51
390.81	437.68
391.00	463.43
391.19	505.56
391.39	418.96
391.58	641.31
391.78	482.15
391.97	447.04
392.16	472.79
392.36	512.58
392.55	554.71
392.75	596.84
392.94	519.60
393.13	561.73
393.33	369.80
393.52	512.58
393.71	514.92
393.91	503.22
394.10	538.32
394.29	538.32
394.49	535.98
394.68	587.47
394.88	629.60
395.07	575.77
395.26	589.82
395.46	566.41
395.65	629.60
395.84	645.99
396.04	704.50
396.23	627.26
396.42	620.24
396.62	662.37
396.81	627.26
397.00	617.90
397.19	725.57
397.39	716.20
397.58	699.82
397.77	645.99
397.97	702.16
398.16	706.84
398.35	751.31
398.55	655.35
398.74	676.41
398.93	697.48
399.12	741.95
399.32	660.03
399.51	657.69
399.70	821.53
399.90	713.86
400.09	695.14
400.28	727.91
400.47	833.23
400.67	723.23
400.86	734.93
401.05	798.12
401.24	800.46
401.44	856.64
401.63	851.96
401.82	840.25
402.01	837.91
402.21	851.96
402.40	781.74
402.59	873.02
402.78	854.30
402.97	903.45
403.17	854.30
403.36	889.40
403.55	917.49
403.74	976.00
403.93	997.07
404.13	987.71
404.32	1018.13
404.51	1020.47
404.70	992.39
404.89	973.66
405.09	1060.26
405.28	1032.18
405.47	931.53
405.66	1057.92
405.85	1022.81
406.05	1083.67
406.24	1090.69
406.43	1093.03
406.62	1109.41
406.81	1095.37
407.00	1086.01
407.20	1048.56
407.39	1167.93
407.58	1214.74
407.77	1219.42
407.96	1191.33
408.15	1263.89
408.34	1214.74
408.54	1212.40
408.73	1315.38
408.92	1324.74
409.11	1341.13
409.30	1366.87
409.49	1315.38
409.68	1291.98
409.87	1320.06
410.07	1263.89
410.26	1376.24
410.45	1409.00
410.64	1383.26
410.83	1432.41
411.02	1432.41
411.21	1537.73
411.40	1504.96
411.59	1558.80
411.78	1554.12
411.98	1465.18
412.17	1490.92
412.36	1577.52
412.55	1575.18
412.74	1659.44
412.93	1643.06
413.12	1607.95
413.31	1710.93
413.50	1645.40
413.69	1722.63
413.88	1771.79
414.07	1739.02
414.26	1919.24
414.45	1823.28
414.64	1905.20
414.83	1750.72
415.02	1827.96
415.22	1928.60
415.41	1837.32
415.60	1947.33
415.79	1886.47
415.98	2015.20
416.17	1998.82
416.36	1926.26
416.55	1966.05
416.74	2047.97
416.93	2146.27
417.12	2139.25
417.31	2073.71
417.50	2134.57
417.69	2125.21
417.88	2181.38
418.07	2150.95
418.26	2256.28
418.45	2256.28
418.64	2298.41
418.83	2293.72
419.02	2270.32
419.21	2300.75
419.39	2417.77
419.58	2186.06
419.77	2232.87
419.96	2392.03
420.15	2335.85
420.34	2349.90
420.53	2532.46
420.72	2422.45
420.91	2518.42
421.10	2485.65
421.29	2576.93
421.48	2422.45
421.67	2506.71
421.86	2520.76
422.05	2466.92
422.24	2476.29
422.43	2495.01
422.61	2565.23
422.80	2612.04
422.99	2637.78
423.18	2715.02
423.37	2686.94
423.56	2605.02
423.75	2569.91
423.94	2490.33
424.13	2487.99
424.32	2656.51
424.50	2583.95
424.69	2619.06
424.88	2712.68
425.07	2630.76
425.26	2548.84
425.45	2640.12
425.64	2668.21
425.83	2569.91
426.01	2757.15
426.20	2778.22
426.39	2691.62
426.58	2841.41
426.77	2602.68
426.96	2754.81
427.15	2747.79
427.33	2743.11
427.52	2803.96
427.71	2825.03
427.90	2822.69
428.09	2775.88
428.28	2715.02
428.46	2878.86
428.65	2736.09
428.84	2935.03
429.03	2967.80
429.22	2885.88
429.40	2869.50
429.59	2986.52
429.78	2822.69
429.97	2808.64
430.16	2843.75
430.34	2993.55
430.53	2958.44
430.72	2984.18
430.91	2956.10
431.10	2916.31
431.28	2935.03
431.47	3007.59
431.66	3141.00
431.85	3126.96
432.03	3049.72
432.22	3302.50
432.41	3129.30
432.60	3255.69
432.79	3159.72
432.97	3141.00
433.16	3309.52
433.35	3246.32
433.54	3253.34
433.72	3351.65
433.91	3269.73
434.10	3314.20
434.28	3286.11
434.47	3288.45
434.66	3368.03
434.85	3365.69
435.03	3552.93
435.22	3592.72
435.41	3918.06
435.59	3859.54
435.78	3595.06
435.97	3478.04
436.16	3676.98
436.34	3370.37
436.53	3585.70
436.72	3651.24
436.90	3384.41
437.09	3618.47
437.28	3417.18
437.46	3480.38
437.65	3555.27
437.84	3618.47
438.02	3723.79
438.21	3632.51
438.40	3489.74
438.58	3777.62
438.77	3688.68
438.96	3590.38
439.14	3751.88
439.33	3698.05
439.52	3815.07
439.70	3747.20
439.89	3826.78
440.08	4011.68
440.26	3896.99
440.45	3950.82
440.63	4014.02
440.82	4053.81
441.01	4044.45
441.19	4112.32
441.38	4353.40
441.57	4219.99
441.75	4182.54
441.94	4360.42
442.12	4208.28
442.31	4322.97
442.50	4386.16
442.68	4252.75
442.87	4362.76
443.05	4234.03
443.24	4381.48
443.43	4451.70
443.61	4283.18
443.80	4458.72
443.98	4318.29
444.17	4243.39
444.35	4575.75
444.54	4449.36
444.73	4496.17
444.91	4491.49
445.10	4505.53
445.28	4437.66
445.47	4437.66
445.65	4348.72
445.84	4376.80
446.02	4638.94
446.21	4404.89
446.39	4521.92
446.58	4575.75
446.77	4613.20
446.95	4432.97
447.14	4500.85
447.32	4559.36
447.51	4519.57
447.69	4528.94
447.88	4421.27
448.06	4592.13
448.25	4418.93
448.43	4552.34
448.62	4566.39
448.80	4468.08
448.99	4606.17
449.17	4697.46
449.36	4528.94
449.54	4858.95
449.73	4762.99
449.91	4774.69
450.10	4863.63
450.28	4919.81
450.46	4903.42
450.65	4964.28
450.83	4898.74
451.02	4854.27
451.20	4997.04
451.39	5067.26
451.57	4889.38
451.76	4835.55
451.94	4896.40
452.13	5142.16
452.31	4889.38
452.49	4954.91
452.68	4964.28
452.86	4983.00
453.05	5135.14
453.23	5188.97
453.42	4929.17
453.60	4990.02
453.78	5104.71
453.97	5041.51
454.15	5137.48
454.34	5121.09
454.52	5008.75
454.70	5071.94
454.89	5268.55
455.07	5095.35
455.26	5259.18
455.44	5331.74
455.62	5291.95
455.81	5317.70
455.99	5516.64
456.17	5462.81
456.36	5280.25
456.54	5516.64
456.73	5535.37
456.91	5547.07
457.09	5469.83
457.28	5666.44
457.46	5523.66
457.64	5647.71
457.83	5626.65
458.01	5514.30
458.19	5715.59
458.38	5776.44
458.56	5544.73
458.74	5703.89
458.93	5685.16
459.11	5652.39
459.29	5631.33
459.48	5795.17
459.66	5563.45
459.84	5844.32
460.03	5851.34
460.21	5837.30
460.39	5771.76
460.57	5722.61
460.76	5664.10
460.94	5998.79
461.12	5839.64
461.31	5867.72
461.49	5879.43
461.67	6010.50
461.85	6012.84
462.04	6069.01
462.22	6202.42
462.40	6071.35
462.59	5968.37
462.77	6148.59
462.95	6052.63
463.13	6111.14
463.32	5998.79
463.50	6202.42
463.68	6207.10
463.86	6272.64
464.05	6120.50
464.23	6296.04
464.41	6246.89
464.59	6033.90
464.78	6272.64
464.96	6399.02
465.14	6338.17
465.32	6485.62
465.50	6427.11
465.69	6480.94
465.87	6363.92
466.05	6441.15
466.23	6459.88
466.41	6553.50
466.60	6490.31
466.78	6431.79
466.96	6492.65
467.14	6483.28
467.32	6511.37
467.51	6642.44
467.69	6352.21
467.87	6647.12
468.05	6511.37
468.23	6614.35
468.41	6670.53
468.60	6553.50
468.78	6871.81
468.96	6541.80
469.14	6747.76
469.32	6813.30
469.50	6684.57
469.69	6768.83
469.87	7012.24
470.05	6750.10
470.23	6974.80
470.41	6864.79
470.59	6796.92
470.77	6888.20
470.95	6836.70
471.14	7026.29
471.32	6773.51
471.50	7145.66
471.68	7192.47
471.86	7108.21
472.04	7321.20
472.22	7215.87
472.40	7239.28
472.58	7293.11
472.77	7258.00
472.95	7503.76
473.13	7620.78
473.31	7475.67
473.49	7419.50
473.67	7466.31
473.85	7590.36
474.03	7550.57
474.21	7613.76
474.39	7779.94
474.57	7667.60
474.75	7824.41
474.93	7861.86
475.12	7812.71
475.30	7978.89
475.48	7782.28
475.66	7999.95
475.84	8006.97
476.02	8023.36
476.20	7985.91
476.38	8283.16
476.56	8306.56
476.74	8336.99
476.92	8231.66
477.10	8154.43
477.28	8348.69
477.46	8414.23
477.64	8512.53
477.82	8580.40
478.00	8840.20
478.18	8760.63
478.36	8842.54
478.54	8854.25
478.72	8898.72
478.90	9041.49
479.08	9167.88
479.26	9228.73
479.44	9294.27
479.62	9327.03
479.80	9336.40
479.98	9483.85
480.16	9497.89
480.34	9495.55
480.52	9664.07
480.70	9603.22
480.88	9694.50
481.06	9891.10
481.24	9806.84
481.41	9973.02
481.59	9870.04
481.77	10122.82
481.95	9977.70
482.13	10169.63
482.31	10291.34
482.49	10289.00
482.67	10307.72
482.85	10595.61
483.03	10766.46
483.21	10848.38
483.39	10918.60
483.57	10796.89
483.74	10761.78
483.92	10892.85
484.10	11026.26
484.28	11206.48
484.46	11726.08
484.64	11625.44
484.82	11197.12
485.00	11414.79
485.18	11616.08
485.35	11761.19
485.53	11913.33
485.71	11981.20
485.89	12208.23
486.07	12095.89
486.25	12163.76
486.43	12142.70
486.61	12353.35
486.78	12329.94
486.96	12624.85
487.14	12634.21
487.32	12826.14
487.50	13071.89
487.68	12987.63
487.85	13067.21
488.03	13233.39
488.21	13195.94
488.39	13369.14
488.57	13544.68
488.75	13380.84
488.92	13874.70
489.10	13654.69
489.28	13673.41
489.46	13926.19
489.64	13762.35
489.81	14029.17
489.99	14218.75
490.17	14359.19
490.35	14303.01
490.53	14518.34
490.70	14579.20
490.88	14679.84
491.06	14944.32
491.24	14640.05
491.41	14902.19
491.59	15297.74
491.77	14813.25
491.95	15059.01
492.13	15360.94
492.30	15410.09
492.48	15286.04
492.66	15304.76
492.84	15651.16
493.01	15620.74
493.19	15992.88
493.37	15960.11
493.54	16081.82
493.72	16161.40
493.90	16088.84
494.08	16226.93
494.25	16676.32
494.43	16657.59
494.61	16603.76
494.79	16563.97
494.96	16566.31
495.14	16980.59
495.32	17224.00
495.49	17039.10
495.67	17174.85
495.85	17149.11
496.02	17359.75
496.20	17551.68
496.38	17378.48
496.55	17486.14
496.73	18003.40
496.91	17509.55
497.09	17916.80
497.26	17940.21
497.44	18010.42
497.62	18052.55
497.79	18143.83
497.97	18143.83
498.14	18427.04
498.32	18607.26
498.50	18609.60
498.67	18803.86
498.85	18541.72
499.03	18686.84
499.20	18672.79
499.38	18572.15
499.56	19190.05
499.73	19143.24
499.91	19433.47
500.08	19096.43
500.26	19356.23
500.44	19208.78
500.61	19246.23
500.79	19552.84
500.97	19679.22
501.14	19714.33
501.32	19604.33
501.49	19716.67
501.67	19716.67
501.84	20002.22
502.02	19674.54
502.20	20121.59
502.37	20334.57
502.55	20231.59
502.72	20453.94
502.90	20023.28
503.07	20437.56
503.25	20168.40
503.43	20554.58
503.60	20531.18
503.78	20900.98
503.95	20608.42
504.13	20718.42
504.30	20917.37
504.48	20709.06
504.65	20936.09
504.83	20936.09
505.01	20989.92
505.18	20985.24
505.36	21511.86
505.53	21341.00
505.71	21329.30
505.88	21568.04
506.06	21291.85
506.23	21776.34
506.41	21399.52
506.58	21652.30
506.76	21537.61
506.93	21724.85
507.11	21563.36
507.28	21858.26
507.46	21851.24
507.63	22068.91
507.81	22087.64
507.98	21888.69
508.16	22221.05
508.33	22061.89
508.50	22525.32
508.68	22377.86
508.85	22902.14
509.03	22370.84
509.20	22878.74
509.38	23035.55
509.55	23014.49
509.73	23016.83
509.90	23058.96
510.08	22897.46
510.25	23012.15
510.42	23101.09
510.60	23276.63
510.77	23447.49
510.95	23496.64
511.12	23342.16
511.30	23410.04
511.47	23356.21
511.64	23611.32
511.82	23957.72
511.99	23669.84
512.17	23953.04
512.34	23737.71
512.51	23992.83
512.69	23632.39
512.86	23939.00
513.04	24521.79
513.21	24362.64
513.38	24456.26
513.56	24704.35
513.73	24259.65
513.90	24484.34
514.08	24615.41
514.25	24329.87
514.43	24430.51
514.60	24592.01
514.77	24793.29
514.95	24856.49
515.12	24587.33
515.29	24596.69
515.47	25123.31
515.64	24676.27
515.81	24840.11
515.99	25212.25
516.16	25184.16
516.33	25357.36
516.51	25502.48
516.68	25392.47
516.85	25467.37
517.03	25429.92
517.20	25853.56
517.37	25741.21
517.54	25783.34
517.72	25743.55
517.89	25706.10
518.06	25628.87
518.24	25703.76
518.41	25689.72
518.58	25993.99
518.75	25612.48
518.93	26031.44
519.10	25783.34
519.27	26417.63
519.45	25956.54
519.62	26127.40
519.79	26649.34
519.96	26506.57
520.14	26270.17
520.31	26347.41
520.48	26644.66
520.65	26934.88
520.83	26600.19
521.00	26764.03
521.17	26602.53
521.34	26789.77
521.52	26768.71
521.69	26850.63
521.86	27087.02
522.03	27201.71
522.20	27042.55
522.38	27569.17
522.55	27171.28
522.72	27337.46
522.89	27410.01
523.07	27267.24
523.24	27604.28
523.41	27435.76
523.58	27637.05
523.75	27623.00
523.92	27424.06
524.10	27613.64
524.27	27704.92
524.44	27985.79
524.61	28184.73
524.78	28215.16
524.96	28196.43
525.13	27967.06
525.30	27920.25
525.47	28137.92
525.64	28318.14
525.81	28144.94
525.98	28538.15
526.16	28407.08
526.33	28315.80
526.50	28723.05
526.67	28283.03
526.84	28182.39
527.01	28514.75
527.18	28556.88
527.36	28706.67
527.53	28737.10
527.70	29048.39
527.87	28950.09
528.04	28737.10
528.21	28907.96
528.38	28732.42
528.55	29247.33
528.72	29064.77
528.89	28992.22
529.07	28952.43
529.24	29041.37
529.41	29324.57
529.58	29195.84
529.75	29226.27
529.92	29303.51
530.09	29221.59
530.26	29371.38
530.43	29570.33
530.60	29455.64
530.77	29350.32
530.94	29670.97
531.11	29621.82
531.28	29823.11
531.46	29640.54
531.63	29968.22
531.80	30026.73
531.97	30242.06
532.14	30052.48
532.31	29965.88
532.48	29855.87
532.65	29916.73
532.82	29876.94
532.99	30015.03
533.16	30216.32
533.33	30078.22
533.50	30649.32
533.67	30417.60
533.84	30256.11
534.01	30490.16
534.18	30122.69
534.35	30607.19
534.52	30506.54
534.69	30635.27
534.86	30754.64
535.03	30686.76
535.20	31096.36
535.37	30850.60
535.54	30668.04
535.71	30848.26
535.88	30717.19
536.05	30562.72
536.22	31009.76
536.38	30881.03
536.55	31108.06
536.72	31070.61
536.89	30639.95
537.06	30785.07
537.23	31365.52
537.40	31117.42
537.57	31456.80
537.74	30892.73
537.91	31377.22
538.08	30782.73
538.25	30822.51
538.42	31257.85
538.59	31466.16
538.75	31234.45
538.92	31328.07
539.09	31676.81
539.26	31854.69
539.43	31864.05
539.60	31622.98
539.77	31821.92
539.94	32416.42
540.11	32046.62
540.28	31934.27
540.44	31805.54
540.61	31758.73
540.78	32027.89
540.95	31999.80
541.12	32308.76
541.29	32465.57
541.46	32418.76
541.62	32510.04
541.79	32442.17
541.96	32343.86
542.13	32407.06
542.30	32371.95
542.47	32587.28
542.63	32727.71
542.80	32350.88
542.97	32959.42
543.14	32446.85
543.31	32449.19
543.48	32912.61
543.64	33006.23
543.81	33298.80
543.98	33170.07
544.15	33387.74
544.32	33467.32
544.48	33174.75
544.65	32921.98
544.82	33170.07
544.99	32985.17
545.16	33085.81
545.32	33345.61
545.49	33778.61
545.66	34511.20
545.83	34426.94
546.00	34099.26
546.16	33965.85
546.33	32933.68
546.50	33282.42
546.67	33347.95
546.83	33006.23
547.00	33373.70
547.17	33340.93
547.34	33277.74
547.50	33532.86
547.67	33633.50
547.84	33521.15
548.00	33689.67
548.17	33563.28
548.34	33869.89
548.51	33542.22
548.67	33493.07
548.84	33556.26
549.01	33340.93
549.18	33432.21
549.34	33860.53
549.51	34113.31
549.68	33488.38
549.84	33443.91
550.01	33919.04
550.18	33619.46
550.34	34059.48
550.51	33703.71
550.68	34157.78
550.84	33813.72
551.01	34213.95
551.18	33521.15
551.34	33345.61
551.51	34110.97
551.68	33872.23
551.84	34174.16
552.01	34167.14
552.18	34185.86
552.34	34258.42
552.51	34377.79
552.68	34115.65
552.84	34012.66
553.01	34230.33
553.18	34274.80
553.34	34759.30
553.51	34026.71
553.67	34663.33
553.84	34660.99
554.01	34569.71
554.17	34710.14
554.34	34576.73
554.51	34213.95
554.67	34476.09
554.84	34553.33
555.00	34384.81
555.17	34429.28
555.33	34604.82
555.50	34579.07
555.67	34424.60
555.83	34230.33
556.00	34321.62
556.16	34909.09
556.33	34298.21
556.50	34567.37
556.66	35033.14
556.83	34450.35
556.99	34815.47
557.16	35143.14
557.32	34787.38
557.49	34827.17
557.65	34345.02
557.82	34478.43
557.98	34361.40
558.15	34649.29
558.32	34731.21
558.48	34497.16
558.65	34651.63
558.81	34815.47
558.98	34733.55
559.14	34780.36
559.31	34525.24
559.47	35019.10
559.64	35208.68
559.80	35267.19
559.97	35026.12
560.13	34848.24
560.30	34527.58
560.46	34962.92
560.63	34747.59
560.79	35103.35
560.96	35138.46
561.12	35014.41
561.29	35040.16
561.45	34808.45
561.61	34962.92
561.78	35108.04
561.94	34986.33
562.11	35285.92
562.27	35147.82
562.44	35005.05
562.60	35023.78
562.77	35463.80
562.93	35379.54
563.10	35690.83
563.26	35208.68
563.42	35487.20
563.59	35278.89
563.75	35056.54
563.92	35213.36
564.08	35173.57
564.24	35365.49
564.41	35161.87
564.57	35246.13
564.74	35211.02
564.90	35508.27
565.07	35833.60
565.23	35541.03
565.39	35395.92
565.56	35681.47
565.72	35515.29
565.88	35566.78
566.05	35321.02
566.21	35335.07
566.38	35002.71
566.54	35440.39
566.70	35651.04
566.87	35866.37
567.03	35260.17
567.19	36020.84
567.36	35370.18
567.52	35093.99
567.68	35536.35
567.85	35538.69
568.01	35276.55
568.17	35346.77
568.34	35416.99
568.50	35395.92
568.66	35285.92
568.83	35419.33
568.99	35608.91
569.15	35559.76
569.32	35536.35
569.48	35412.31
569.64	35641.68
569.81	35590.19
569.97	35147.82
570.13	35749.34
570.30	35566.78
570.46	35882.75
570.62	35505.93
570.78	35356.13
570.95	35702.53
571.11	35615.93
571.27	35159.53
571.43	35246.13
571.60	35538.69
571.76	35503.59
571.92	35592.53
572.09	35637.00
572.25	35840.62
572.41	35887.43
572.57	35728.28
572.74	35730.62
572.90	35941.27
573.06	35742.32
573.22	35576.14
573.38	35655.72
573.55	35655.72
573.71	35831.26
573.87	35611.25
574.03	35915.52
574.20	35491.88
574.36	35644.02
574.52	35665.08
574.68	35332.73
574.84	35842.96
575.01	35908.50
575.17	35878.07
575.33	35487.20
575.49	35438.05
575.65	36121.49
575.82	35824.24
575.98	35763.39
576.14	35660.40
576.30	35505.93
576.46	35901.48
576.62	35950.63
576.79	35852.33
576.95	35714.23
577.11	35480.18
577.27	36034.89
577.43	35938.93
577.59	35461.46
577.75	35627.63
577.92	35407.62
578.08	35388.90
578.24	36121.49
578.40	35777.43
578.56	35615.93
578.72	35903.82
578.88	36287.67
579.04	36194.04
579.21	35747.00
579.37	35770.41
579.53	36072.34
579.69	35379.54
579.85	35857.01
580.01	35686.15
580.17	35871.05
580.33	35775.09
580.49	35761.05
580.65	35826.58
580.82	35524.65
580.98	35885.09
581.14	35384.22
581.30	35936.59
581.46	35812.54
581.62	35779.77
581.78	35400.60
581.94	36238.51
582.10	35747.00
582.26	35885.09
582.42	35812.54
582.58	35873.39
582.74	36098.08
582.90	35732.96
583.06	35468.48
583.22	35948.29
583.38	35749.34
583.54	35571.46
583.70	35885.09
583.86	35585.50
584.02	35629.98
584.18	36140.21
584.34	35992.76
584.50	36013.82
584.66	36191.70
584.82	35967.01
584.98	35775.09
585.14	36203.41
585.30	35573.80
585.46	36161.28
585.62	35409.96
585.78	35838.28
585.94	35723.60
586.10	36135.53
586.26	35878.07
586.42	35629.98
586.58	36414.05
586.74	35983.40
586.90	35498.91
587.06	35847.64
587.22	36114.47
587.38	35562.10
587.54	36189.36
587.70	35775.09
587.86	35995.10
588.02	36364.90
588.18	36407.03
588.34	36201.07
588.49	36037.23
588.65	35328.05
588.81	35952.97
588.97	35655.72
589.13	35901.48
589.29	35941.27
589.45	35938.93
589.61	36231.49
589.77	36107.44
589.93	36070.00
590.08	36402.35
590.24	36322.77
590.40	36540.44
590.56	35798.49
590.72	36170.64
590.88	36023.19
591.04	35882.75
591.20	36088.72
591.35	36589.59
