SpectraSuite Data File
++++++++++++++++++++++++++++++++++++
Date: Fri Oct 04 11:39:30 GMT-05:00 2013
User: price-jones
Dark Spectrum Present: No
Reference Spectrum Present: No
Number of Sampled Component Spectra: 1
Spectrometers: USB2+H05261
Integration Time (usec): 100000 (USB2+H05261)
Spectra Averaged: 1 (USB2+H05261)
Boxcar Smoothing: 0 (USB2+H05261)
Correct for Electrical Dark: No (USB2+H05261)
Strobe/Lamp Enabled: No (USB2+H05261)
Correct for Detector Non-linearity: No (USB2+H05261)
Correct for Stray Light: No (USB2+H05261)
Number of Pixels in Processed Spectrum: 2048
>>>>>Begin Processed Spectral Data<<<<<
365.73	0.00
365.92	0.00
366.12	0.00
366.32	0.00
366.52	0.00
366.72	0.00
366.91	25.75
367.11	0.00
367.31	0.00
367.51	0.00
367.70	0.00
367.90	0.00
368.10	0.00
368.30	0.00
368.49	0.00
368.69	0.00
368.89	0.00
369.09	0.00
369.28	11.70
369.48	0.00
369.68	0.00
369.87	25.75
370.07	0.00
370.27	74.90
370.47	0.00
370.66	135.75
370.86	56.17
371.06	121.71
371.25	121.71
371.45	95.96
371.65	102.98
371.84	182.56
372.04	95.96
372.24	163.84
372.44	156.82
372.63	161.50
372.83	189.58
373.03	236.39
373.22	163.84
373.42	187.24
373.62	147.45
373.81	208.31
374.01	196.60
374.21	180.22
374.40	229.37
374.60	276.18
374.79	264.48
374.99	252.78
375.19	177.88
375.38	234.05
375.58	187.24
375.78	208.31
375.97	173.20
376.17	205.97
376.37	231.71
376.56	262.14
376.76	215.33
376.95	110.01
377.15	182.56
377.35	170.86
377.54	217.67
377.74	145.11
377.93	222.35
378.13	170.86
378.33	241.08
378.52	142.77
378.72	180.22
378.91	224.69
379.11	168.52
379.31	220.01
379.50	212.99
379.70	243.42
379.89	259.80
380.09	152.13
380.28	138.09
380.48	163.84
380.68	145.11
380.87	189.58
381.07	168.52
381.26	212.99
381.46	205.97
381.65	189.58
381.85	238.73
382.04	224.69
382.24	236.39
382.43	161.50
382.63	182.56
382.83	117.03
383.02	170.86
383.22	231.71
383.41	250.44
383.61	86.60
383.80	248.10
384.00	170.86
384.19	259.80
384.39	229.37
384.58	208.31
384.78	215.33
384.97	201.29
385.17	234.05
385.36	250.44
385.56	198.95
385.75	217.67
385.95	189.58
386.14	222.35
386.34	217.67
386.53	194.26
386.72	264.48
386.92	280.86
387.11	224.69
387.31	334.70
387.50	177.88
387.70	238.73
387.89	248.10
388.09	229.37
388.28	217.67
388.48	266.82
388.67	220.01
388.86	255.12
389.06	255.12
389.25	297.25
389.45	257.46
389.64	243.42
389.84	318.31
390.03	255.12
390.22	217.67
390.42	395.55
390.61	285.55
390.81	205.97
391.00	238.73
391.19	252.78
391.39	315.97
391.58	241.08
391.78	280.86
391.97	330.02
392.16	273.84
392.36	238.73
392.55	297.25
392.75	243.42
392.94	346.40
393.13	276.18
393.33	262.14
393.52	306.61
393.71	276.18
393.91	313.63
394.10	266.82
394.29	308.95
394.49	327.68
394.68	351.08
394.88	297.25
395.07	299.59
395.26	313.63
395.46	330.02
395.65	372.15
395.84	355.76
396.04	388.53
396.23	304.27
396.42	407.25
396.62	353.42
396.81	362.78
397.00	339.38
397.19	362.78
397.39	437.68
397.58	449.38
397.77	428.32
397.97	425.98
398.16	346.40
398.35	519.60
398.55	395.55
398.74	407.25
398.93	498.53
399.12	381.51
399.32	423.64
399.51	330.02
399.70	416.62
399.90	407.25
400.09	411.93
400.28	402.57
400.47	458.74
400.67	503.22
400.86	514.92
401.05	479.81
401.24	519.60
401.44	458.74
401.63	444.70
401.82	524.28
402.01	517.26
402.21	514.92
402.40	557.05
402.59	479.81
402.78	552.37
402.97	500.87
403.17	500.87
403.36	503.22
403.55	620.24
403.74	521.94
403.93	573.43
404.13	678.76
404.32	643.65
404.51	674.07
404.70	664.71
404.89	662.37
405.09	524.28
405.28	631.94
405.47	624.92
405.66	713.86
405.85	664.71
406.05	638.97
406.24	662.37
406.43	662.37
406.62	596.84
406.81	748.97
407.00	725.57
407.20	669.39
407.39	720.88
407.58	760.67
407.77	809.83
407.96	833.23
408.15	816.85
408.34	823.87
408.54	933.87
408.73	821.53
408.92	772.38
409.11	915.15
409.30	875.36
409.49	851.96
409.68	847.27
409.87	980.68
410.07	875.36
410.26	908.13
410.45	889.40
410.64	950.26
410.83	896.43
411.02	945.58
411.21	990.05
411.40	1001.75
411.59	1057.92
411.78	947.92
411.98	1006.43
412.17	1032.18
412.36	1027.50
412.55	1090.69
412.74	1109.41
412.93	1158.57
413.12	1081.33
413.31	1104.73
413.50	1118.78
413.69	1146.86
413.88	1123.46
414.07	1228.78
414.26	1245.16
414.45	1219.42
414.64	1320.06
414.83	1329.42
415.02	1228.78
415.22	1256.87
415.41	1359.85
415.60	1306.02
415.79	1355.17
415.98	1355.17
416.17	1434.75
416.36	1387.94
416.55	1348.15
416.74	1451.13
416.93	1437.09
417.12	1336.45
417.31	1366.87
417.50	1416.02
417.69	1582.20
417.88	1619.65
418.07	1493.26
418.26	1600.93
418.45	1561.14
418.64	1643.06
418.83	1643.06
419.02	1579.86
419.21	1603.27
419.39	1533.05
419.58	1640.72
419.77	1621.99
419.96	1603.27
420.15	1762.42
420.34	1530.71
420.53	1596.25
420.72	1689.87
420.91	1760.08
421.10	1802.21
421.29	1715.61
421.48	1732.00
421.67	1750.72
421.86	1746.04
422.05	1783.49
422.24	1729.66
422.43	1858.39
422.61	1785.83
422.80	1806.89
422.99	1877.11
423.18	1750.72
423.37	1870.09
423.56	1811.57
423.75	1795.19
423.94	1757.74
424.13	1624.33
424.32	1771.79
424.50	1905.20
424.69	1984.77
424.88	1879.45
425.07	1881.79
425.26	1778.81
425.45	1820.94
425.64	1860.73
425.83	1870.09
426.01	1870.09
426.20	1827.96
426.39	1888.81
426.58	1844.34
426.77	1867.75
426.96	1961.37
427.15	1849.02
427.33	2036.27
427.52	1961.37
427.71	1982.43
427.90	1851.36
428.09	1884.13
428.28	1982.43
428.46	2076.06
428.65	1952.01
428.84	2026.90
429.03	2120.53
429.22	1973.07
429.40	2045.63
429.59	2045.63
429.78	1963.71
429.97	1984.77
430.16	1933.28
430.34	2031.58
430.53	2162.66
430.72	2141.59
430.91	2092.44
431.10	2146.27
431.28	2157.97
431.47	2195.42
431.66	2221.17
431.85	2031.58
432.03	2129.89
432.22	2225.85
432.41	2310.11
432.60	2207.13
432.79	2237.55
432.97	2326.49
433.16	2230.53
433.35	2204.78
433.54	2246.91
433.72	2298.41
433.91	2312.45
434.10	2291.38
434.28	2293.72
434.47	2392.03
434.66	2417.77
434.85	2415.43
435.03	2485.65
435.22	2614.38
435.41	2913.97
435.59	2810.98
435.78	2640.12
435.97	2649.49
436.16	2523.10
436.34	2469.27
436.53	2478.63
436.72	2583.95
436.90	2448.20
437.09	2499.69
437.28	2480.97
437.46	2539.48
437.65	2511.39
437.84	2551.18
438.02	2651.83
438.21	2654.17
438.40	2438.84
438.58	2637.78
438.77	2803.96
438.96	2579.27
439.14	2654.17
439.33	2633.10
439.52	2738.43
439.70	2796.94
439.89	2768.85
440.08	2773.53
440.26	2841.41
440.45	2801.62
440.63	2892.90
440.82	2920.99
441.01	2878.86
441.19	2815.66
441.38	2923.33
441.57	2916.31
441.75	2925.67
441.94	3023.97
442.12	3077.80
442.31	3080.14
442.50	2944.39
442.68	2932.69
442.87	3019.29
443.05	3110.57
443.24	3103.55
443.43	3049.72
443.61	2981.84
443.80	3211.22
443.98	3150.36
444.17	3066.10
444.35	3126.96
444.54	3138.66
444.73	3126.96
444.91	3070.78
445.10	3183.13
445.28	3169.09
445.47	3103.55
445.65	3112.91
445.84	3173.77
446.02	3251.00
446.21	3197.17
446.39	3325.90
446.58	3225.26
446.77	3208.87
446.95	3101.21
447.14	3363.35
447.32	3342.28
447.51	3108.23
447.69	3084.83
447.88	3126.96
448.06	3150.36
448.25	3281.43
448.43	3300.16
448.62	3300.16
448.80	3382.07
448.99	3304.84
449.17	3281.43
449.36	3201.85
449.54	3386.76
449.73	3276.75
449.91	3438.25
450.10	3323.56
450.28	3487.40
450.46	3407.82
450.65	3372.71
450.83	3478.04
451.02	3426.54
451.20	3442.93
451.39	3391.44
451.57	3339.94
451.76	3419.52
451.94	3442.93
452.13	3630.17
452.31	3501.44
452.49	3358.67
452.68	3471.01
452.86	3541.23
453.05	3461.65
453.23	3449.95
453.42	3662.94
453.60	3653.58
453.78	3559.95
453.97	3623.15
454.15	3536.55
454.34	3646.55
454.52	3693.37
454.70	3684.00
454.89	3616.13
455.07	3634.85
455.26	3777.62
455.44	3777.62
455.62	3686.34
455.81	3831.46
455.99	3850.18
456.17	3875.93
456.36	3779.97
456.54	3852.52
456.73	3838.48
456.91	4065.51
457.09	3857.20
457.28	3999.98
457.46	3950.82
457.64	4044.45
457.83	3967.21
458.01	3831.46
458.19	4009.34
458.38	3885.29
458.56	4100.62
458.74	3981.25
458.93	3946.14
459.11	4035.08
459.29	4152.11
459.48	4002.32
459.66	3999.98
459.84	4074.87
460.03	4124.02
460.21	4138.07
460.39	4149.77
460.57	4102.96
460.76	4238.71
460.94	4222.33
461.12	4140.41
461.31	4065.51
461.49	4161.47
461.67	4189.56
461.85	4297.22
462.04	4358.08
462.22	4435.32
462.40	4308.93
462.59	4255.09
462.77	4325.31
462.95	4517.23
463.13	4224.67
463.32	4311.27
463.50	4416.59
463.68	4311.27
463.86	4451.70
464.05	4348.72
464.23	4358.08
464.41	4313.61
464.59	4360.42
464.78	4638.94
464.96	4545.32
465.14	4332.33
465.32	4507.87
465.50	4442.34
465.69	4592.13
465.87	4472.76
466.05	4538.30
466.23	4477.44
466.41	4528.94
466.60	4601.49
466.78	4360.42
466.96	4531.28
467.14	4594.47
467.32	4559.36
467.51	4648.30
467.69	4571.07
467.87	4652.98
468.05	4617.88
468.23	4542.98
468.41	4550.00
468.60	4629.58
468.78	4716.18
468.96	4716.18
469.14	4638.94
469.32	4624.90
469.50	4645.96
469.69	4762.99
469.87	4959.60
470.05	4891.72
470.23	4887.04
470.41	4842.57
470.59	4891.72
470.77	4767.67
470.95	5027.47
471.14	4957.25
471.32	4840.23
471.50	4997.04
471.68	4919.81
471.86	5034.49
472.04	5172.58
472.22	5116.41
472.40	5071.94
472.58	5055.56
472.77	5195.99
472.95	5207.69
473.13	5348.12
473.31	5181.95
473.49	5121.09
473.67	5268.55
473.85	5380.89
474.03	5455.79
474.21	5418.34
474.39	5540.05
474.57	5584.52
474.75	5575.16
474.93	5544.73
475.12	5472.17
475.30	5598.56
475.48	5659.42
475.66	5551.75
475.84	5743.67
476.02	5748.36
476.20	5764.74
476.38	5694.52
476.56	6071.35
476.74	5746.02
476.92	5921.56
477.10	6054.97
477.28	5923.90
477.46	5937.94
477.64	6223.48
477.82	6052.63
478.00	6125.18
478.18	6335.83
478.36	6387.32
478.54	6256.25
478.72	6195.40
478.90	6331.15
479.08	6368.60
479.26	6370.94
479.44	6490.31
479.62	6487.96
479.80	6623.72
479.98	6656.48
480.16	6630.74
480.34	6635.42
480.52	6787.55
480.70	6853.09
480.88	6607.33
481.06	6827.34
481.24	6780.53
481.41	7194.81
481.59	7061.40
481.77	7094.16
481.95	7136.29
482.13	7145.66
482.31	6953.73
482.49	7302.47
482.67	7351.62
482.85	7339.92
483.03	7524.82
483.21	7866.54
483.39	7681.64
483.57	7674.62
483.74	7838.45
483.92	7709.72
484.10	7810.37
484.28	8032.72
484.46	7859.52
484.64	8271.45
484.82	8021.02
485.00	7971.86
485.18	8304.22
485.35	8468.06
485.53	8358.05
485.71	8351.03
485.89	8538.27
486.07	8500.83
486.25	8547.64
486.43	8615.51
486.61	8641.26
486.78	8915.10
486.96	8732.54
487.14	8926.80
487.32	8971.27
487.50	8959.57
487.68	9207.67
487.85	9165.54
488.03	9390.23
488.21	9404.27
488.39	9198.31
488.57	9453.42
488.75	9561.09
488.92	9884.08
489.10	9858.34
489.28	9750.67
489.46	9846.63
489.64	9785.78
489.81	9954.30
489.99	9998.77
490.17	9947.28
490.35	10253.89
490.53	10118.14
490.70	10286.65
490.88	10342.83
491.06	10391.98
491.24	10429.43
491.41	10518.37
491.59	10310.06
491.77	10616.67
491.95	10719.65
492.13	10750.08
492.30	10824.98
492.48	10663.48
492.66	10558.16
492.84	10766.46
493.01	11115.20
493.19	10927.96
493.37	11211.17
493.54	11056.69
493.72	11477.99
493.90	11442.88
494.08	11414.79
494.25	11489.69
494.43	11571.61
494.61	11555.22
494.79	11700.34
494.96	11552.88
495.14	11606.72
495.32	11698.00
495.49	11819.71
495.67	12112.27
495.85	12182.49
496.02	12259.73
496.20	12278.45
496.38	12135.68
496.55	12468.03
496.73	12341.64
496.91	12720.81
497.09	12636.55
497.26	12531.23
497.44	12664.64
497.62	12830.82
497.79	12868.27
497.97	12765.28
498.14	12753.58
498.32	13001.68
498.50	13132.75
498.67	13179.56
498.85	13284.88
499.03	13123.38
499.20	13011.04
499.38	13366.80
499.56	13245.09
499.73	13221.69
499.91	13413.61
500.08	13383.18
500.26	13322.33
500.44	13465.10
500.61	13635.96
500.79	13645.32
500.97	13745.97
501.14	13898.10
501.32	13912.14
501.49	13818.52
501.67	13708.52
501.84	14061.94
502.02	13909.80
502.20	14120.45
502.37	14106.41
502.55	14258.54
502.72	14087.68
502.90	14059.60
503.07	14111.09
503.25	14167.26
503.43	14265.57
503.60	14406.00
503.78	14457.49
503.95	14473.87
504.13	14583.88
504.30	14640.05
504.48	14494.94
504.65	14733.67
504.83	14799.21
505.01	14806.23
505.18	14640.05
505.36	14934.96
505.53	14925.60
505.71	14881.13
505.88	15180.71
506.06	15096.46
506.23	14918.57
506.41	15227.53
506.58	15091.77
506.76	15295.40
506.93	15349.23
507.11	15124.54
507.28	15171.35
507.46	15400.72
507.63	15440.51
507.81	15653.50
507.98	15510.73
508.16	15660.52
508.33	15372.64
508.50	15922.66
508.68	15815.00
508.85	15955.43
509.03	15927.35
509.20	16063.10
509.38	16067.78
509.55	16161.40
509.73	16194.17
509.90	16060.76
510.08	16252.68
510.25	16018.63
510.42	16617.80
510.60	16243.32
510.77	16475.03
510.95	16709.08
511.12	16077.14
511.30	16493.76
511.47	16599.08
511.64	16622.48
511.82	16744.19
511.99	16580.36
512.17	16858.88
512.34	16938.46
512.51	17015.69
512.69	16805.05
512.86	17156.13
513.04	16915.05
513.21	17193.58
513.38	17041.44
513.56	17282.52
513.73	17088.25
513.90	16903.35
514.08	16912.71
514.25	17514.23
514.43	17504.87
514.60	17216.98
514.77	17406.56
514.95	17441.67
515.12	17530.61
515.29	17233.36
515.47	17504.87
515.64	17586.79
515.81	17521.25
515.99	17827.86
516.16	17947.23
516.33	18101.70
516.51	17699.13
516.68	17862.97
516.85	18045.53
517.03	17832.54
517.20	18113.41
517.37	18204.69
517.54	17972.97
517.72	18118.09
517.89	18022.12
518.06	18082.98
518.24	17912.12
518.41	18277.24
518.58	18342.78
518.75	18586.19
518.93	18302.99
519.10	18258.52
519.27	18597.90
519.45	18501.93
519.62	18469.17
519.79	18295.97
519.96	18410.65
520.14	18815.57
520.31	18703.22
520.48	18717.26
520.65	18960.68
520.83	18766.42
521.00	18937.27
521.17	18991.11
521.34	18923.23
521.52	18796.84
521.69	18958.34
521.86	19016.85
522.03	19176.01
522.20	19206.44
522.38	19278.99
522.55	19201.76
522.72	19147.92
522.89	19239.20
523.07	19679.22
523.24	19276.65
523.41	19524.75
523.58	19271.97
523.75	19543.47
523.92	19606.67
524.10	19548.15
524.27	19571.56
524.44	19611.35
524.61	19641.78
524.78	20044.35
524.96	19606.67
525.13	19791.57
525.30	19758.80
525.47	20100.52
525.64	19651.14
525.81	20212.87
525.98	20027.96
526.16	20016.26
526.33	20318.19
526.50	20496.07
526.67	19971.79
526.84	20004.56
527.01	20262.02
527.18	20236.27
527.36	20243.29
527.53	20430.54
527.70	20596.71
527.87	20519.48
528.04	20648.21
528.21	20407.13
528.38	20400.11
528.55	20552.24
528.72	20683.31
528.89	20755.87
529.07	20758.21
529.24	20599.05
529.41	20854.17
529.58	20781.62
529.75	20549.90
529.92	20673.95
530.09	20985.24
530.26	20919.71
530.43	20908.01
530.60	20821.41
530.77	20854.17
530.94	20718.42
531.11	20847.15
531.28	20802.68
531.46	20798.00
531.63	21226.32
531.80	21130.36
531.97	21111.63
532.14	21076.52
532.31	21001.63
532.48	21006.31
532.65	21130.36
532.82	20938.43
532.99	21266.11
533.16	21142.06
533.33	21500.16
533.50	21399.52
533.67	21240.36
533.84	21380.79
534.01	21284.83
534.18	21364.41
534.35	21544.63
534.52	21521.23
534.69	21682.72
534.86	21900.39
535.03	21626.55
535.20	22054.87
535.37	21610.17
535.54	21774.00
535.71	21757.62
535.88	21748.26
536.05	21776.34
536.22	22003.38
536.38	21916.78
536.55	21879.33
536.72	22202.32
536.89	21661.66
537.06	21642.93
537.23	21729.53
537.40	22094.66
537.57	22216.36
537.74	21919.12
537.91	22209.34
538.08	22155.51
538.25	22157.85
538.42	22040.82
538.59	22326.37
538.75	22073.59
538.92	21841.88
539.09	22808.52
539.26	22724.26
539.43	22520.63
539.60	22485.53
539.77	22637.66
539.94	22497.23
540.11	22614.26
540.28	22677.45
540.44	22773.41
540.61	22368.50
540.78	22780.43
540.95	22967.68
541.12	22534.68
541.29	23208.75
541.46	23089.38
541.62	23227.48
541.79	23094.07
541.96	23030.87
542.13	23005.13
542.30	23084.70
542.47	23288.33
542.63	23016.83
542.80	23290.67
542.97	23676.86
543.14	23377.27
543.31	23440.47
543.48	23470.89
543.64	23630.05
543.81	23644.09
543.98	23693.24
544.15	23763.46
544.32	23634.73
544.48	23962.40
544.65	23590.26
544.82	23655.79
544.99	23300.03
545.16	23194.71
545.32	23585.58
545.49	24233.91
545.66	24847.13
545.83	24676.27
546.00	24833.08
546.16	24421.15
546.33	24140.29
546.50	23304.71
546.67	23721.33
546.83	23608.98
547.00	23765.80
547.17	23999.85
547.34	23826.65
547.50	23697.92
547.67	24210.50
547.84	23873.46
548.00	23789.20
548.17	23847.72
548.34	24065.39
548.51	23917.93
548.67	24011.56
548.84	24072.41
549.01	24009.22
549.18	23821.97
549.34	23957.72
549.51	23962.40
549.68	24542.86
549.84	23908.57
550.01	24053.69
550.18	23929.64
550.34	24238.59
550.51	24280.72
550.68	24194.12
550.84	24053.69
551.01	23962.40
551.18	23983.47
551.34	23669.84
551.51	24107.52
551.68	24510.09
551.84	24231.57
552.01	24404.77
552.18	24116.88
552.34	23868.78
552.51	24247.95
552.68	23803.25
552.84	24175.39
553.01	24203.48
553.18	24252.63
553.34	24346.25
553.51	24278.38
553.67	24278.38
553.84	24456.26
554.01	24542.86
554.17	24411.79
554.34	24615.41
554.51	24332.21
554.67	24519.45
554.84	24402.43
555.00	24418.81
555.17	24470.30
555.33	24533.50
555.50	24386.04
555.67	24329.87
555.83	24280.72
556.00	24201.14
556.16	24524.13
556.33	24278.38
556.50	24414.13
556.66	24610.73
556.83	24758.19
556.99	24655.20
557.16	24680.95
557.32	24622.44
557.49	24556.90
557.65	24355.61
557.82	24489.03
557.98	24744.14
558.15	24369.66
558.32	24608.39
558.48	24807.34
558.65	24617.75
558.81	24690.31
558.98	24554.56
559.14	24449.24
559.31	24606.05
559.47	24594.35
559.64	24610.73
559.80	24861.17
559.97	24917.34
560.13	24615.41
560.30	24837.76
560.46	24776.91
560.63	24610.73
560.79	24844.79
560.96	24755.85
561.12	24552.22
561.29	24638.82
561.45	24922.02
561.61	24882.24
561.78	24814.36
561.94	24807.34
562.11	24821.38
562.27	24774.57
562.44	24643.50
562.60	24915.00
562.77	24891.60
562.93	24840.11
563.10	24905.64
563.26	24828.40
563.42	25373.75
563.59	25015.65
563.75	25001.60
563.92	24905.64
564.08	25113.95
564.24	24924.36
564.41	24929.05
564.57	24505.41
564.74	24891.60
564.90	24987.56
565.07	24971.18
565.23	24994.58
565.39	24779.25
565.56	24966.49
565.72	24783.93
565.88	24882.24
566.05	24596.69
566.21	25043.73
566.38	25041.39
566.54	24802.66
566.70	25046.07
566.87	25397.15
567.03	24950.11
567.19	25429.92
567.36	25376.09
567.52	25287.15
567.68	25184.16
567.85	24978.20
568.01	25376.09
568.17	24769.89
568.34	25345.66
568.50	25275.45
568.66	25385.45
568.83	25160.76
568.99	24933.73
569.15	25003.94
569.32	25081.18
569.48	24952.45
569.64	25352.68
569.81	24973.52
569.97	25322.26
570.13	25336.30
570.30	25497.80
570.46	25039.05
570.62	25001.60
570.78	25057.78
570.95	25151.40
571.11	25125.65
571.27	24924.36
571.43	25092.88
571.60	25240.34
571.76	25230.98
571.92	25476.73
572.09	25017.99
572.25	25120.97
572.41	25305.87
572.57	25029.69
572.74	25399.49
572.90	25111.61
573.06	25062.46
573.22	25247.36
573.38	25310.55
573.55	25273.10
573.71	25385.45
573.87	25439.28
574.03	25350.34
574.20	25034.37
574.36	25135.01
574.52	25310.55
574.68	25319.92
574.84	25067.14
575.01	25378.43
575.17	25296.51
575.33	25067.14
575.49	25263.74
575.65	25172.46
575.82	25256.72
575.98	25212.25
576.14	25355.02
576.30	25319.92
576.46	25151.40
576.62	25312.89
576.79	25530.56
576.95	25743.55
577.11	25434.60
577.27	25462.69
577.43	25142.03
577.59	25193.53
577.75	25348.00
577.92	25378.43
578.08	25209.91
578.24	25333.96
578.40	25465.03
578.56	25907.39
578.72	25397.15
578.88	25867.60
579.04	25687.38
579.21	25811.43
579.37	25589.08
579.53	25294.17
579.69	25310.55
579.85	24844.79
580.01	25266.08
580.17	25453.33
580.33	25235.66
580.49	25303.53
580.65	25376.09
580.82	25425.24
580.98	25315.23
581.14	25025.01
581.30	25614.82
581.46	25343.32
581.62	25277.79
581.78	25532.90
581.94	25071.82
582.10	25172.46
582.26	25771.64
582.42	25242.68
582.58	25425.24
582.74	25474.39
582.90	25523.54
583.06	25123.31
583.22	25418.22
583.38	25195.87
583.54	25256.72
583.70	25362.04
583.86	25607.80
584.02	25291.83
584.18	25504.82
584.34	25631.21
584.50	25340.98
584.66	25193.53
584.82	25647.59
584.98	25387.79
585.14	25497.80
585.30	25343.32
585.46	25139.69
585.62	25518.86
585.78	25415.88
585.94	25226.29
586.10	25481.41
586.26	25214.59
586.42	25476.73
586.58	25701.42
586.74	25610.14
586.90	25633.55
587.06	25467.37
587.22	25748.23
587.38	25441.62
587.54	25385.45
587.70	25912.07
587.86	25238.00
588.02	25376.09
588.18	25865.26
588.34	25694.40
588.49	25420.56
588.65	25144.38
588.81	25355.02
588.97	25483.75
589.13	25434.60
589.29	25582.06
589.45	25596.10
589.61	25680.36
589.77	25600.78
589.93	26012.71
590.08	25589.08
590.24	25752.91
590.40	25640.57
590.56	25902.71
590.72	25560.99
590.88	25399.49
591.04	25441.62
591.20	25869.94
591.35	25631.21
591.51	25685.04
591.67	25867.60
591.83	25696.74
591.99	25263.74
592.15	25542.27
592.31	25666.31
