SpectraSuite Data File
++++++++++++++++++++++++++++++++++++
Date: Fri Oct 04 11:39:16 GMT-05:00 2013
User: price-jones
Dark Spectrum Present: No
Reference Spectrum Present: No
Number of Sampled Component Spectra: 1
Spectrometers: USB2+H05261
Integration Time (usec): 100000 (USB2+H05261)
Spectra Averaged: 1 (USB2+H05261)
Boxcar Smoothing: 0 (USB2+H05261)
Correct for Electrical Dark: No (USB2+H05261)
Strobe/Lamp Enabled: No (USB2+H05261)
Correct for Detector Non-linearity: No (USB2+H05261)
Correct for Stray Light: No (USB2+H05261)
Number of Pixels in Processed Spectrum: 2048
>>>>>Begin Processed Spectral Data<<<<<
365.73	77.24
365.92	77.24
366.12	77.24
366.32	0.00
366.52	0.00
366.72	4.68
366.91	0.00
367.11	0.00
367.31	0.00
367.51	0.00
367.70	0.00
367.90	0.00
368.10	44.47
368.30	14.04
368.49	0.00
368.69	35.11
368.89	0.00
369.09	42.13
369.28	0.00
369.48	0.00
369.68	0.00
369.87	0.00
370.07	42.13
370.27	0.00
370.47	63.19
370.66	278.52
370.86	236.39
371.06	257.46
371.25	287.89
371.45	285.55
371.65	325.33
371.84	243.42
372.04	257.46
372.24	266.82
372.44	278.52
372.63	313.63
372.83	334.70
373.03	250.44
373.22	290.23
373.42	320.65
373.62	334.70
373.81	318.31
374.01	437.68
374.21	402.57
374.40	388.53
374.60	397.89
374.79	362.78
374.99	388.53
375.19	372.15
375.38	409.59
375.58	355.76
375.78	425.98
375.97	285.55
376.17	440.02
376.37	379.17
376.56	360.44
376.76	332.36
376.95	470.45
377.15	379.17
377.35	409.59
377.54	339.38
377.74	369.80
377.93	360.44
378.13	418.96
378.33	507.90
378.52	355.76
378.72	428.32
378.91	428.32
379.11	315.97
379.31	332.36
379.50	444.70
379.70	369.80
379.89	395.55
380.09	414.27
380.28	381.51
380.48	388.53
380.68	388.53
380.87	362.78
381.07	404.91
381.26	407.25
381.46	517.26
381.65	393.21
381.85	425.98
382.04	440.02
382.24	402.57
382.43	461.09
382.63	386.19
382.83	456.40
383.02	554.71
383.22	449.38
383.41	470.45
383.61	447.04
383.80	444.70
384.00	482.15
384.19	472.79
384.39	463.43
384.58	421.30
384.78	468.11
384.97	468.11
385.17	507.90
385.36	484.49
385.56	566.41
385.75	458.74
385.95	484.49
386.14	606.20
386.34	458.74
386.53	493.85
386.72	538.32
386.92	514.92
387.11	514.92
387.31	638.97
387.50	557.05
387.70	538.32
387.89	482.15
388.09	662.37
388.28	538.32
388.48	566.41
388.67	599.18
388.86	554.71
389.06	585.13
389.25	655.35
389.45	599.18
389.64	526.62
389.84	559.39
390.03	599.18
390.22	564.07
390.42	540.66
390.61	592.16
390.81	615.56
391.00	653.01
391.19	629.60
391.39	554.71
391.58	608.54
391.78	603.86
391.97	655.35
392.16	667.05
392.36	788.76
392.55	655.35
392.75	748.97
392.94	629.60
393.13	606.20
393.33	648.33
393.52	620.24
393.71	660.03
393.91	688.12
394.10	741.95
394.29	713.86
394.49	657.69
394.68	741.95
394.88	711.52
395.07	688.12
395.26	702.16
395.46	725.57
395.65	763.01
395.84	777.06
396.04	755.99
396.23	753.65
396.42	784.08
396.62	786.42
396.81	812.17
397.00	887.06
397.19	868.34
397.39	816.85
397.58	763.01
397.77	781.74
397.97	842.59
398.16	866.00
398.35	844.93
398.55	814.51
398.74	851.96
398.93	957.28
399.12	880.04
399.32	931.53
399.51	903.45
399.70	919.83
399.90	905.79
400.09	854.30
400.28	1008.77
400.47	983.02
400.67	1004.09
400.86	905.79
401.05	1022.81
401.24	1067.28
401.44	945.58
401.63	992.39
401.82	1020.47
402.01	961.96
402.21	1100.05
402.40	1090.69
402.59	1071.97
402.78	1069.62
402.97	1186.65
403.17	1081.33
403.36	1078.99
403.55	1020.47
403.74	1088.35
403.93	1053.24
404.13	1153.88
404.32	1291.98
404.51	1123.46
404.70	1256.87
404.89	1130.48
405.09	1144.52
405.28	1137.50
405.47	1186.65
405.66	1233.46
405.85	1228.78
406.05	1224.10
406.24	1207.72
406.43	1256.87
406.62	1345.81
406.81	1355.17
407.00	1338.79
407.20	1273.25
407.39	1242.82
407.58	1270.91
407.77	1270.91
407.96	1416.02
408.15	1380.92
408.34	1373.89
408.54	1331.76
408.73	1385.60
408.92	1334.11
409.11	1453.47
409.30	1338.79
409.49	1387.94
409.68	1502.62
409.87	1444.11
410.07	1526.03
410.26	1643.06
410.45	1497.94
410.64	1596.25
410.83	1640.72
411.02	1593.90
411.21	1547.09
411.40	1586.88
411.59	1727.32
411.78	1645.40
411.98	1621.99
412.17	1680.50
412.36	1680.50
412.55	1643.06
412.74	1713.27
412.93	1689.87
413.12	1799.87
413.31	1813.92
413.50	1858.39
413.69	1877.11
413.88	1923.92
414.07	1842.00
414.26	1977.75
414.45	1916.90
414.64	1961.37
414.83	2022.22
415.02	1975.41
415.22	2080.74
415.41	2078.40
415.60	1968.39
415.79	2073.71
415.98	2115.84
416.17	2038.61
416.36	2160.31
416.55	2214.15
416.74	2195.42
416.93	2207.13
417.12	2286.70
417.31	2157.97
417.50	2216.49
417.69	2314.79
417.88	2300.75
418.07	2218.83
418.26	2279.68
418.45	2366.28
418.64	2452.88
418.83	2399.05
419.02	2267.98
419.21	2328.83
419.39	2354.58
419.58	2382.67
419.77	2361.60
419.96	2399.05
420.15	2595.65
420.34	2424.80
420.53	2518.42
420.72	2567.57
420.91	2544.16
421.10	2495.01
421.29	2661.19
421.48	2466.92
421.67	2588.63
421.86	2539.48
422.05	2672.89
422.24	2642.46
422.43	2546.50
422.61	2696.30
422.80	2775.88
422.99	2691.62
423.18	2626.08
423.37	2740.77
423.56	2712.68
423.75	2569.91
423.94	2654.17
424.13	2518.42
424.32	2630.76
424.50	2834.39
424.69	2715.02
424.88	2810.98
425.07	2623.74
425.26	2651.83
425.45	2733.75
425.64	2759.49
425.83	2764.17
426.01	2939.71
426.20	2764.17
426.39	2815.66
426.58	2698.64
426.77	2825.03
426.96	2827.37
427.15	2792.26
427.33	2871.84
427.52	2815.66
427.71	2792.26
427.90	2906.95
428.09	2895.24
428.28	2787.58
428.46	2897.58
428.65	2953.76
428.84	2979.50
429.03	3033.33
429.22	2848.43
429.40	2916.31
429.59	3138.66
429.78	2888.22
429.97	2862.48
430.16	2988.86
430.34	2890.56
430.53	3033.33
430.72	3117.59
430.91	3110.57
431.10	3077.80
431.28	3091.85
431.47	3148.02
431.66	3379.73
431.85	3155.04
432.03	3171.43
432.22	3318.88
432.41	3234.62
432.60	3316.54
432.79	3286.11
432.97	3403.14
433.16	3321.22
433.35	3358.67
433.54	3461.65
433.72	3368.03
433.91	3255.69
434.10	3384.41
434.28	3311.86
434.47	3431.23
434.66	3459.31
434.85	3396.12
435.03	3435.91
435.22	3672.30
435.41	3882.95
435.59	3751.88
435.78	3871.25
435.97	3805.71
436.16	3742.52
436.34	3571.66
436.53	3555.27
436.72	3632.51
436.90	3585.70
437.09	3700.39
437.28	3660.60
437.46	3733.15
437.65	3700.39
437.84	3648.90
438.02	3665.28
438.21	3763.58
438.40	3676.98
438.58	3892.31
438.77	3960.19
438.96	3798.69
439.14	3857.20
439.33	3932.10
439.52	4018.70
439.70	4060.83
439.89	4161.47
440.08	3960.19
440.26	4021.04
440.45	3985.93
440.63	4142.75
440.82	4168.49
441.01	4196.58
441.19	4126.36
441.38	4341.69
441.57	4149.77
441.75	4297.22
441.94	4432.97
442.12	4327.65
442.31	4484.47
442.50	4346.37
442.68	4348.72
442.87	4542.98
443.05	4475.10
443.24	4564.04
443.43	4585.11
443.61	4514.89
443.80	4514.89
443.98	4456.38
444.17	4416.59
444.35	4592.13
444.54	4500.85
444.73	4587.45
444.91	4592.13
445.10	4578.09
445.28	4557.02
445.47	4470.42
445.65	4528.94
445.84	4821.50
446.02	4683.41
446.21	4620.22
446.39	4624.90
446.58	4702.14
446.77	4606.17
446.95	4688.09
447.14	4720.86
447.32	4624.90
447.51	4608.51
447.69	4573.41
447.88	4828.53
448.06	4713.84
448.25	4571.07
448.43	4699.80
448.62	4662.35
448.80	4758.31
448.99	4947.89
449.17	4819.16
449.36	4800.44
449.54	5090.67
449.73	4961.94
449.91	4873.00
450.10	4880.02
450.28	4858.95
450.46	4910.44
450.65	5034.49
450.83	5116.41
451.02	5064.92
451.20	4947.89
451.39	5125.77
451.57	5266.21
451.76	5034.49
451.94	5095.35
452.13	5165.56
452.31	5186.63
452.49	5001.72
452.68	5118.75
452.86	5114.07
453.05	5200.67
453.23	5320.04
453.42	5109.39
453.60	5252.16
453.78	5338.76
453.97	5203.01
454.15	5266.21
454.34	5060.24
454.52	5324.72
454.70	5327.06
454.89	5533.03
455.07	5399.62
455.26	5280.25
455.44	5479.19
455.62	5401.96
455.81	5387.91
455.99	5474.51
456.17	5596.22
456.36	5528.35
456.54	5544.73
456.73	5530.69
456.91	5851.34
457.09	5713.25
457.28	5841.98
457.46	5523.66
457.64	5731.97
457.83	5841.98
458.01	5682.82
458.19	5802.19
458.38	5778.78
458.56	5970.71
458.74	5928.58
458.93	5839.64
459.11	5769.42
459.29	5781.12
459.48	5900.49
459.66	6010.50
459.84	5949.64
460.03	6246.89
460.21	6083.05
460.39	6200.08
460.57	6078.37
460.76	6167.31
460.94	6118.16
461.12	6118.16
461.31	6331.15
461.49	6127.52
461.67	6153.27
461.85	6471.58
462.04	6169.65
462.22	6712.66
462.40	6331.15
462.59	6267.95
462.77	6485.62
462.95	6567.54
463.13	6380.30
463.32	6539.46
463.50	6413.07
463.68	6555.84
463.86	6480.94
464.05	6408.39
464.23	6534.78
464.41	6537.12
464.59	6370.94
464.78	6644.78
464.96	6637.76
465.14	6548.82
465.32	6572.22
465.50	6668.19
465.69	6597.97
465.87	6579.25
466.05	6726.70
466.23	6635.42
466.41	6789.89
466.60	6988.84
466.78	6567.54
466.96	6773.51
467.14	6750.10
467.32	6736.06
467.51	6956.07
467.69	6649.46
467.87	6916.28
468.05	6932.67
468.23	6855.43
468.41	6806.28
468.60	6918.62
468.78	7087.14
468.96	6871.81
469.14	7133.95
469.32	7173.74
469.50	6981.82
469.69	7337.58
469.87	6960.75
470.05	7356.30
470.23	7215.87
470.41	7103.53
470.59	7281.41
470.77	7094.16
470.95	7059.06
471.14	7499.08
471.32	7386.73
471.50	7445.24
471.68	7323.54
471.86	7417.16
472.04	7520.14
472.22	7758.88
472.40	7578.65
472.58	7536.52
472.77	7421.84
472.95	7941.44
473.13	7880.58
473.31	7634.83
473.49	7833.77
473.67	7948.46
473.85	7880.58
474.03	7934.42
474.21	8056.12
474.39	8042.08
474.57	8098.25
474.75	8255.07
474.93	8234.00
475.12	8191.88
475.30	8128.68
475.48	8294.86
475.66	8325.29
475.84	8255.07
476.02	8379.12
476.20	8610.83
476.38	8634.24
476.56	8552.32
476.74	8603.81
476.92	8727.86
477.10	8718.50
477.28	8788.71
477.46	8777.01
477.64	8877.65
477.82	8809.78
478.00	9193.62
478.18	9165.54
478.36	9186.60
478.54	9474.49
478.72	9467.47
478.90	9525.98
479.08	9467.47
479.26	9607.90
479.44	9631.30
479.62	9596.20
479.80	9727.27
479.98	9631.30
480.16	9851.31
480.34	10139.20
480.52	9968.34
480.70	10054.94
480.88	10115.80
481.06	10195.37
481.24	10279.63
481.41	10157.92
481.59	10799.23
481.77	10644.76
481.95	10747.74
482.13	10829.66
482.31	10839.02
482.49	10876.47
482.67	10995.84
482.85	11105.84
483.03	11410.11
483.21	11199.46
483.39	11480.33
483.57	11410.11
483.74	11494.37
483.92	11630.12
484.10	11536.50
484.28	11852.47
484.46	11889.92
484.64	12088.87
484.82	11939.07
485.00	12077.16
485.18	12360.37
485.35	12444.63
485.53	12348.67
485.71	12418.88
485.89	12723.15
486.07	12643.57
486.25	12851.88
486.43	12870.61
486.61	13172.54
486.78	13322.33
486.96	13348.08
487.14	13455.74
487.32	13378.50
487.50	13371.48
487.68	13448.72
487.85	13713.20
488.03	13912.14
488.21	14050.24
488.39	14075.98
488.57	14391.95
488.75	14246.84
488.92	14469.19
489.10	14607.28
489.28	14628.35
489.46	14930.28
489.64	14820.27
489.81	15091.77
489.99	14946.66
490.17	14984.11
490.35	15492.01
490.53	15499.03
490.70	15365.62
490.88	15786.91
491.06	15845.43
491.24	15908.62
491.41	15871.17
491.59	16027.99
491.77	15880.53
491.95	16255.02
492.13	16273.74
492.30	16243.32
492.48	16570.99
492.66	16189.49
492.84	16470.35
493.01	17060.16
493.19	16617.80
493.37	16957.18
493.54	17095.27
493.72	17055.48
493.90	17301.24
494.08	17212.30
494.25	17488.48
494.43	17661.68
494.61	17607.85
494.79	17804.46
494.96	17525.93
495.14	18003.40
495.32	17919.14
495.49	17982.34
495.67	17888.71
495.85	18469.17
496.02	18691.52
496.20	18691.52
496.38	18490.23
496.55	18558.11
496.73	18773.44
496.91	18698.54
497.09	19087.07
497.26	19082.39
497.44	18754.71
497.62	18902.17
497.79	19108.13
497.97	19309.42
498.14	19091.75
498.32	19960.09
498.50	19800.93
498.67	19913.28
498.85	19803.27
499.03	19810.29
499.20	20039.67
499.38	20262.02
499.56	20065.41
499.73	20201.16
499.91	20367.34
500.08	20498.41
500.26	20299.47
500.44	20702.04
500.61	20704.38
500.79	20519.48
500.97	20688.00
501.14	20603.74
501.32	20964.18
501.49	21053.12
501.67	20886.94
501.84	21200.57
502.02	21076.52
502.20	21242.70
502.37	21551.65
502.55	21287.17
502.72	21722.51
502.90	21734.21
503.07	21685.06
503.25	21652.30
503.43	21516.54
503.60	22003.38
503.78	22111.04
503.95	21937.84
504.13	22328.71
504.30	22307.65
504.48	22352.12
504.65	22586.17
504.83	22443.40
505.01	22434.03
505.18	22656.39
505.36	22490.21
505.53	22787.46
505.71	22565.10
505.88	22815.54
506.06	22401.27
506.23	22967.68
506.41	22860.01
506.58	23126.83
506.76	23250.88
506.93	23419.40
507.11	23080.02
507.28	23098.75
507.46	23213.43
507.63	23541.11
507.81	23768.14
507.98	23625.37
508.16	23576.22
508.33	23510.68
508.50	23709.63
508.68	23697.92
508.85	24299.44
509.03	23840.70
509.20	24243.27
509.38	24266.67
509.55	24453.92
509.73	24264.33
509.90	24739.46
510.08	24189.44
510.25	24484.34
510.42	24737.12
510.60	24833.08
510.77	25001.60
510.95	25076.50
511.12	24863.51
511.30	25120.97
511.47	25343.32
511.64	24943.09
511.82	25458.01
511.99	25352.68
512.17	25514.18
512.34	25261.40
512.51	25469.71
512.69	25144.38
512.86	25429.92
513.04	25961.22
513.21	25584.40
513.38	25968.24
513.56	26029.10
513.73	25851.22
513.90	26103.99
514.08	26045.48
514.25	26394.22
514.43	26223.36
514.60	26167.19
514.77	26471.46
514.95	26469.12
515.12	26148.46
515.29	26272.51
515.47	26738.28
515.64	26728.92
515.81	26426.99
515.99	26604.87
516.16	27133.83
516.33	26787.43
516.51	27068.30
516.68	26934.88
516.85	26661.04
517.03	27161.92
517.20	27379.59
517.37	27145.53
517.54	27517.68
517.72	27517.68
517.89	27470.87
518.06	27646.41
518.24	27208.73
518.41	27524.70
518.58	27477.89
518.75	27480.23
518.93	27791.52
519.10	27716.62
519.27	28114.52
519.45	27931.95
519.62	28144.94
519.79	28226.86
519.96	28397.72
520.14	28252.61
520.31	28205.80
520.48	28559.22
520.65	28393.04
520.83	28753.48
521.00	28599.01
521.17	28725.39
521.34	28631.77
521.52	28744.12
521.69	28795.61
521.86	29291.80
522.03	29092.86
522.20	28870.51
522.38	29181.80
522.55	29221.59
522.72	29181.80
522.89	29259.04
523.07	29699.06
523.24	29500.11
523.41	29902.68
523.58	29390.11
523.75	29586.71
523.92	29294.14
524.10	29855.87
524.27	29860.55
524.44	29722.46
524.61	30160.14
524.78	30139.08
524.96	30155.46
525.13	29846.51
525.30	30017.37
525.47	29961.20
525.64	30052.48
525.81	30403.56
525.98	30242.06
526.16	30307.60
526.33	30326.32
526.50	30576.76
526.67	30649.32
526.84	30679.74
527.01	30295.89
527.18	30604.84
527.36	31028.48
527.53	30899.75
527.70	30859.96
527.87	31063.59
528.04	31028.48
528.21	31065.93
528.38	30948.90
528.55	30859.96
528.72	30953.58
528.89	30972.31
529.07	30838.90
529.24	31435.74
529.41	31208.70
529.58	31267.22
529.75	31229.77
529.92	31377.22
530.09	31515.31
530.26	31461.48
530.43	31679.15
530.60	31576.17
530.77	31831.29
530.94	31793.84
531.11	31732.98
531.28	31246.15
531.46	31620.64
531.63	31833.63
531.80	32147.26
531.97	32315.78
532.14	32168.32
532.31	31868.73
532.48	32507.70
532.65	32163.64
532.82	32088.74
532.99	32481.95
533.16	32165.98
533.33	32718.35
533.50	32591.96
533.67	32624.73
533.84	32650.47
534.01	32474.93
534.18	32559.19
534.35	33057.73
534.52	32704.31
534.69	33109.22
534.86	33001.55
535.03	33298.80
535.20	32849.42
535.37	33090.49
535.54	32985.17
535.71	32914.95
535.88	33151.35
536.05	32793.25
536.22	33167.73
536.38	33383.06
536.55	33186.46
536.72	33642.86
536.89	33574.98
537.06	33610.09
537.23	33490.73
537.40	33680.31
537.57	33717.76
537.74	33703.71
537.91	33965.85
538.08	33734.14
538.25	33804.36
538.42	33853.51
538.59	33914.36
538.75	33310.50
538.92	33895.64
539.09	33848.83
539.26	33968.19
539.43	34110.97
539.60	34298.21
539.77	34244.38
539.94	34298.21
540.11	34106.29
540.28	33975.22
540.44	34572.05
540.61	34089.90
540.78	34225.65
540.95	34490.13
541.12	34888.03
541.29	34632.91
541.46	34740.57
541.62	34747.59
541.79	34857.60
541.96	34532.26
542.13	34813.13
542.30	35262.51
542.47	35044.84
542.63	35405.28
542.80	35012.07
542.97	35323.36
543.14	35503.59
543.31	35644.02
543.48	35639.34
543.64	35339.75
543.81	35559.76
543.98	36077.02
544.15	35936.59
544.32	35693.17
544.48	35983.40
544.65	35496.56
544.82	35564.44
544.99	35285.92
545.16	35438.05
545.32	35583.16
545.49	36503.00
545.66	36444.48
545.83	37111.53
546.00	36589.59
546.16	36041.91
546.33	36149.57
546.50	35786.79
546.67	35931.90
546.83	35864.03
547.00	36313.41
547.17	36119.15
547.34	35950.63
547.50	36215.11
547.67	35842.96
547.84	35957.65
548.00	36306.39
548.17	36598.96
548.34	36098.08
548.51	36236.17
548.67	36552.15
548.84	37027.28
549.01	36322.77
549.18	36701.94
549.34	36584.91
549.51	36552.15
549.68	36495.97
549.84	36055.95
550.01	36589.59
550.18	36533.42
550.34	36760.45
550.51	37228.56
550.68	36985.15
550.84	36245.54
551.01	36835.35
551.18	36339.16
551.34	36856.42
551.51	36797.90
551.68	36940.68
551.84	36891.52
552.01	36725.35
552.18	36830.67
552.34	37078.77
552.51	37191.11
552.68	36339.16
552.84	37305.80
553.01	36615.34
553.18	37226.22
553.34	36898.55
553.51	36982.80
553.67	37551.56
553.84	37982.21
554.01	37645.18
554.17	37329.20
554.34	37652.20
554.51	37156.00
554.67	37507.08
554.84	37116.22
555.00	37368.99
555.17	37425.17
555.33	37305.80
555.50	37706.03
555.67	38087.54
555.83	37635.81
556.00	38237.33
556.16	38249.03
556.33	37806.67
556.50	37591.34
556.66	37668.58
556.83	37624.11
556.99	38164.78
557.16	38298.19
557.32	38153.07
557.49	38213.93
557.65	37305.80
557.82	37745.82
557.98	38031.36
558.15	37596.03
558.32	37799.65
558.48	38192.86
558.65	38108.60
558.81	38244.35
558.98	38031.36
559.14	38197.54
559.31	37666.24
559.47	38209.25
559.64	38223.29
559.80	38602.46
559.97	38714.80
560.13	38043.07
560.30	38387.13
560.46	38576.71
560.63	38433.94
560.79	38455.00
560.96	38553.30
561.12	38469.04
561.29	37909.66
561.45	38061.79
561.61	38167.12
561.78	38747.57
561.94	38169.46
562.11	38590.75
562.27	38174.14
562.44	38534.58
562.60	38597.77
562.77	38763.95
562.93	38476.07
563.10	38527.56
563.26	38473.73
563.42	39178.23
563.59	39019.07
563.75	38574.37
563.92	38621.18
564.08	38689.06
564.24	38560.33
564.41	38600.12
564.57	38749.91
564.74	38646.93
564.90	38712.46
565.07	38930.13
565.23	38761.61
565.39	38735.87
565.56	38920.77
565.72	39306.96
565.88	38607.14
566.05	38803.74
566.21	38485.43
566.38	38279.46
566.54	38600.12
566.70	39311.64
566.87	39187.59
567.03	39065.88
567.19	39297.59
567.36	39255.46
567.52	38230.31
567.68	39246.10
567.85	38642.24
568.01	38785.02
568.17	38965.24
568.34	39194.61
568.50	39068.22
568.66	39182.91
568.83	39555.05
568.99	39009.71
569.15	39129.08
569.32	38747.57
569.48	39206.31
569.64	39192.27
569.81	39269.51
569.97	39304.62
570.13	39442.71
570.30	39192.27
570.46	39178.23
570.62	39250.78
570.78	39086.95
570.95	38810.76
571.11	38909.07
571.27	39079.92
571.43	39290.57
571.60	39150.14
571.76	39005.03
571.92	39922.52
572.09	40107.42
572.25	39812.51
572.41	39541.01
572.57	39203.97
572.74	39344.41
572.90	39054.18
573.06	39229.72
573.22	39775.06
573.38	39421.64
573.55	39562.08
573.71	39814.85
573.87	39606.55
574.03	39449.73
574.20	39658.04
574.36	39639.31
574.52	39271.85
574.68	39192.27
574.84	39882.73
575.01	39756.34
575.17	39274.19
575.33	39566.76
575.49	39620.59
575.65	39580.80
575.82	39866.34
575.98	39278.87
576.14	40313.39
576.30	39756.34
576.46	39655.70
576.62	39531.65
576.79	39805.49
576.95	39910.82
577.11	39800.81
577.27	39737.62
577.43	39828.90
577.59	39578.46
577.75	39873.37
577.92	39791.45
578.08	39756.34
578.24	39281.21
578.40	39761.02
578.56	39957.63
578.72	39828.90
578.88	40011.46
579.04	39969.33
579.21	39641.65
579.37	40011.46
579.53	40016.14
579.69	39756.34
579.85	39473.13
580.01	39695.49
580.17	39442.71
580.33	39875.71
580.49	39833.58
580.65	40229.13
580.82	39817.19
580.98	39775.06
581.14	39779.74
581.30	39878.05
581.46	39700.17
581.62	39241.42
581.78	39821.87
581.94	39821.87
582.10	39838.26
582.26	40280.62
582.42	40165.93
582.58	39838.26
582.74	39440.37
582.90	39718.89
583.06	39852.30
583.22	39807.83
583.38	39704.85
583.54	39739.96
583.70	39845.28
583.86	40158.91
584.02	39718.89
584.18	40339.13
584.34	40322.75
584.50	40084.01
584.66	39775.06
584.82	39976.35
584.98	39852.30
585.14	39976.35
585.30	39594.84
585.46	39655.70
585.62	39592.50
585.78	40105.08
585.94	39810.17
586.10	40140.19
586.26	40208.06
586.42	40126.14
586.58	40128.48
586.74	40081.67
586.90	40114.44
587.06	39416.96
587.22	39927.20
587.38	39639.31
587.54	39955.29
587.70	40325.09
587.86	40407.01
588.02	39915.50
588.18	39948.26
588.34	40285.30
588.49	39768.04
588.65	39974.01
588.81	39672.08
588.97	39997.41
589.13	40044.23
589.29	40051.25
589.45	40041.88
589.61	40367.22
589.77	40292.32
589.93	40505.31
590.08	40423.39
590.24	40364.88
590.40	40952.35
590.56	40666.81
590.72	40187.00
590.88	39922.52
591.04	40161.25
591.20	40568.51
