SpectraSuite Data File
++++++++++++++++++++++++++++++++++++
Date: Fri Oct 04 11:39:12 GMT-05:00 2013
User: price-jones
Dark Spectrum Present: No
Reference Spectrum Present: No
Number of Sampled Component Spectra: 1
Spectrometers: USB2+H05261
Integration Time (usec): 100000 (USB2+H05261)
Spectra Averaged: 1 (USB2+H05261)
Boxcar Smoothing: 0 (USB2+H05261)
Correct for Electrical Dark: No (USB2+H05261)
Strobe/Lamp Enabled: No (USB2+H05261)
Correct for Detector Non-linearity: No (USB2+H05261)
Correct for Stray Light: No (USB2+H05261)
Number of Pixels in Processed Spectrum: 2048
>>>>>Begin Processed Spectral Data<<<<<
365.73	0.00
365.92	0.00
366.12	0.00
366.32	0.00
366.52	0.00
366.72	0.00
366.91	0.00
367.11	0.00
367.31	0.00
367.51	0.00
367.70	0.00
367.90	74.90
368.10	0.00
368.30	0.00
368.49	0.00
368.69	4.68
368.89	0.00
369.09	0.00
369.28	14.04
369.48	0.00
369.68	0.00
369.87	0.00
370.07	0.00
370.27	35.11
370.47	4.68
370.66	23.41
370.86	138.09
371.06	210.65
371.25	196.60
371.45	67.88
371.65	187.24
371.84	161.50
372.04	110.01
372.24	166.18
372.44	112.35
372.63	191.92
372.83	315.97
373.03	217.67
373.22	180.22
373.42	175.54
373.62	238.73
373.81	205.97
374.01	180.22
374.21	198.95
374.40	191.92
374.60	210.65
374.79	238.73
374.99	175.54
375.19	276.18
375.38	271.50
375.58	271.50
375.78	271.50
375.97	262.14
376.17	245.76
376.37	227.03
376.56	196.60
376.76	177.88
376.95	196.60
377.15	259.80
377.35	266.82
377.54	145.11
377.74	191.92
377.93	227.03
378.13	208.31
378.33	264.48
378.52	301.93
378.72	287.89
378.91	234.05
379.11	227.03
379.31	175.54
379.50	173.20
379.70	220.01
379.89	208.31
380.09	278.52
380.28	196.60
380.48	299.59
380.68	166.18
380.87	259.80
381.07	250.44
381.26	292.57
381.46	320.65
381.65	287.89
381.85	266.82
382.04	264.48
382.24	220.01
382.43	217.67
382.63	222.35
382.83	287.89
383.02	290.23
383.22	238.73
383.41	210.65
383.61	231.71
383.80	184.90
384.00	353.42
384.19	182.56
384.39	231.71
384.58	346.40
384.78	248.10
384.97	252.78
385.17	301.93
385.36	259.80
385.56	238.73
385.75	280.86
385.95	264.48
386.14	278.52
386.34	257.46
386.53	255.12
386.72	203.63
386.92	287.89
387.11	259.80
387.31	322.99
387.50	238.73
387.70	315.97
387.89	301.93
388.09	227.03
388.28	322.99
388.48	245.76
388.67	311.29
388.86	313.63
389.06	262.14
389.25	315.97
389.45	285.55
389.64	278.52
389.84	322.99
390.03	346.40
390.22	308.95
390.42	245.76
390.61	383.85
390.81	294.91
391.00	355.76
391.19	325.33
391.39	322.99
391.58	301.93
391.78	306.61
391.97	241.08
392.16	285.55
392.36	327.68
392.55	341.72
392.75	322.99
392.94	325.33
393.13	266.82
393.33	273.84
393.52	339.38
393.71	351.08
393.91	362.78
394.10	369.80
394.29	395.55
394.49	304.27
394.68	344.06
394.88	414.27
395.07	351.08
395.26	390.87
395.46	353.42
395.65	360.44
395.84	322.99
396.04	407.25
396.23	444.70
396.42	341.72
396.62	381.51
396.81	374.49
397.00	416.62
397.19	379.17
397.39	416.62
397.58	447.04
397.77	425.98
397.97	402.57
398.16	407.25
398.35	428.32
398.55	372.15
398.74	374.49
398.93	388.53
399.12	383.85
399.32	369.80
399.51	423.64
399.70	414.27
399.90	397.89
400.09	475.13
400.28	461.09
400.47	433.00
400.67	526.62
400.86	477.47
401.05	524.28
401.24	475.13
401.44	470.45
401.63	416.62
401.82	514.92
402.01	482.15
402.21	470.45
402.40	477.47
402.59	447.04
402.78	500.87
402.97	367.46
403.17	552.37
403.36	550.03
403.55	465.77
403.74	505.56
403.93	521.94
404.13	594.50
404.32	519.60
404.51	498.53
404.70	491.51
404.89	601.52
405.09	587.47
405.28	535.98
405.47	585.13
405.66	526.62
405.85	660.03
406.05	568.75
406.24	543.00
406.43	592.16
406.62	571.09
406.81	620.24
407.00	627.26
407.20	554.71
407.39	547.69
407.58	573.43
407.77	667.05
407.96	554.71
408.15	613.22
408.34	660.03
408.54	669.39
408.73	683.44
408.92	613.22
409.11	667.05
409.30	603.86
409.49	603.86
409.68	580.45
409.87	603.86
410.07	601.52
410.26	660.03
410.45	674.07
410.64	725.57
410.83	723.23
411.02	667.05
411.21	767.70
411.40	716.20
411.59	709.18
411.78	753.65
411.98	653.01
412.17	690.46
412.36	737.27
412.55	753.65
412.74	847.27
412.93	760.67
413.12	702.16
413.31	748.97
413.50	823.87
413.69	732.59
413.88	793.44
414.07	758.33
414.26	901.11
414.45	763.01
414.64	830.89
414.83	898.77
415.02	830.89
415.22	866.00
415.41	870.68
415.60	873.02
415.79	884.72
415.98	901.11
416.17	915.15
416.36	873.02
416.55	891.74
416.74	821.53
416.93	950.26
417.12	905.79
417.31	931.53
417.50	917.49
417.69	1039.20
417.88	1015.79
418.07	990.05
418.26	968.98
418.45	964.30
418.64	1071.97
418.83	973.66
419.02	1020.47
419.21	1050.90
419.39	1008.77
419.58	873.02
419.77	971.32
419.96	1093.03
420.15	1067.28
420.34	985.37
420.53	1032.18
420.72	1064.94
420.91	1081.33
421.10	1053.24
421.29	1053.24
421.48	1027.50
421.67	1130.48
421.86	1008.77
422.05	1057.92
422.24	1123.46
422.43	1142.18
422.61	1076.65
422.80	1100.05
422.99	1130.48
423.18	1142.18
423.37	1142.18
423.56	1139.84
423.75	1048.56
423.94	992.39
424.13	997.07
424.32	1034.52
424.50	1167.93
424.69	1144.52
424.88	1128.14
425.07	1008.77
425.26	1151.54
425.45	1116.44
425.64	1060.26
425.83	1088.35
426.01	1121.12
426.20	1158.57
426.39	1144.52
426.58	1135.16
426.77	1160.91
426.96	1210.06
427.15	1200.69
427.33	1153.88
427.52	1132.82
427.71	1146.86
427.90	1156.22
428.09	1156.22
428.28	1174.95
428.46	1179.63
428.65	1114.10
428.84	1167.93
429.03	1240.48
429.22	1247.51
429.40	1130.48
429.59	1294.32
429.78	1203.04
429.97	1217.08
430.16	1179.63
430.34	1235.80
430.53	1284.95
430.72	1287.29
430.91	1280.27
431.10	1240.48
431.28	1425.39
431.47	1385.60
431.66	1254.53
431.85	1315.38
432.03	1352.83
432.22	1434.75
432.41	1254.53
432.60	1371.55
432.79	1366.87
432.97	1387.94
433.16	1460.49
433.35	1313.04
433.54	1390.28
433.72	1315.38
433.91	1411.34
434.10	1476.88
434.28	1387.94
434.47	1324.74
434.66	1455.81
434.85	1418.36
435.03	1500.28
435.22	1572.84
435.41	1811.57
435.59	1689.87
435.78	1624.33
435.97	1493.26
436.16	1535.39
436.34	1465.18
436.53	1469.86
436.72	1432.41
436.90	1575.18
437.09	1383.26
437.28	1378.58
437.46	1460.49
437.65	1444.11
437.84	1514.33
438.02	1502.62
438.21	1542.41
438.40	1430.07
438.58	1572.84
438.77	1577.52
438.96	1591.56
439.14	1488.58
439.33	1533.05
439.52	1645.40
439.70	1582.20
439.89	1621.99
440.08	1682.85
440.26	1607.95
440.45	1699.23
440.63	1624.33
440.82	1689.87
441.01	1544.75
441.19	1657.10
441.38	1739.02
441.57	1708.59
441.75	1722.63
441.94	1809.23
442.12	1762.42
442.31	1729.66
442.50	1678.16
442.68	1739.02
442.87	1715.61
443.05	1799.87
443.24	1865.41
443.43	1762.42
443.61	1818.60
443.80	1846.68
443.98	1802.21
444.17	1750.72
444.35	1837.32
444.54	1839.66
444.73	1874.77
444.91	1856.04
445.10	1755.40
445.28	1813.92
445.47	1830.30
445.65	1792.85
445.84	1806.89
446.02	1776.47
446.21	1813.92
446.39	1724.97
446.58	1853.70
446.77	1853.70
446.95	1769.44
447.14	1720.29
447.32	1806.89
447.51	1837.32
447.69	1919.24
447.88	1867.75
448.06	1895.83
448.25	1823.28
448.43	1919.24
448.62	1849.02
448.80	1797.53
448.99	1942.64
449.17	2001.16
449.36	1820.94
449.54	1977.75
449.73	1926.26
449.91	1961.37
450.10	1846.68
450.28	2085.42
450.46	1940.30
450.65	1975.41
450.83	1944.99
451.02	2026.90
451.20	1984.77
451.39	1940.30
451.57	2012.86
451.76	2031.58
451.94	2017.54
452.13	2012.86
452.31	2057.33
452.49	1937.96
452.68	1966.05
452.86	2097.12
453.05	2012.86
453.23	2136.91
453.42	1970.73
453.60	1982.43
453.78	2012.86
453.97	1961.37
454.15	2122.87
454.34	2024.56
454.52	2087.76
454.70	2094.78
454.89	2115.84
455.07	2136.91
455.26	2183.72
455.44	2155.63
455.62	2040.95
455.81	2165.00
455.99	2162.66
456.17	2125.21
456.36	2183.72
456.54	2141.59
456.73	2186.06
456.91	2239.89
457.09	2200.10
457.28	2324.15
457.46	2223.51
457.64	2293.72
457.83	2230.53
458.01	2143.93
458.19	2310.11
458.38	2317.13
458.56	2209.47
458.74	2251.60
458.93	2298.41
459.11	2312.45
459.29	2258.62
459.48	2354.58
459.66	2307.77
459.84	2305.43
460.03	2513.74
460.21	2399.05
460.39	2422.45
460.57	2375.64
460.76	2349.90
460.94	2321.81
461.12	2406.07
461.31	2422.45
461.49	2246.91
461.67	2352.24
461.85	2546.50
462.04	2385.01
462.22	2452.88
462.40	2382.67
462.59	2345.22
462.77	2436.50
462.95	2581.61
463.13	2385.01
463.32	2553.52
463.50	2511.39
463.68	2553.52
463.86	2485.65
464.05	2422.45
464.23	2476.29
464.41	2565.23
464.59	2429.48
464.78	2466.92
464.96	2485.65
465.14	2452.88
465.32	2523.10
465.50	2511.39
465.69	2581.61
465.87	2509.05
466.05	2429.48
466.23	2532.46
466.41	2567.57
466.60	2649.49
466.78	2626.08
466.96	2574.59
467.14	2555.86
467.32	2693.96
467.51	2675.23
467.69	2609.70
467.87	2607.36
468.05	2677.57
468.23	2743.11
468.41	2628.42
468.60	2551.18
468.78	2710.34
468.96	2548.84
469.14	2647.15
469.32	2642.46
469.50	2675.23
469.69	2731.41
469.87	2593.31
470.05	2771.19
470.23	2693.96
470.41	2820.35
470.59	2834.39
470.77	2815.66
470.95	2801.62
471.14	2792.26
471.32	2712.68
471.50	2813.32
471.68	2874.18
471.86	2918.65
472.04	2888.22
472.22	2963.12
472.40	2792.26
472.58	2895.24
472.77	2834.39
472.95	2899.92
473.13	3030.99
473.31	2949.08
473.49	2925.67
473.67	2881.20
473.85	2984.18
474.03	3080.14
474.21	3007.59
474.39	3115.25
474.57	3112.91
474.75	3124.62
474.93	3052.06
475.12	3047.38
475.30	3180.79
475.48	3075.46
475.66	3218.24
475.84	3150.36
476.02	3229.94
476.20	3351.65
476.38	3227.60
476.56	3335.26
476.74	3316.54
476.92	3332.92
477.10	3370.37
477.28	3382.07
477.46	3368.03
477.64	3382.07
477.82	3424.20
478.00	3300.16
478.18	3456.97
478.36	3588.04
478.54	3438.25
478.72	3590.38
478.90	3620.81
479.08	3644.21
479.26	3665.28
479.44	3728.47
479.62	3723.79
479.80	3681.66
479.98	3679.32
480.16	3667.62
480.34	3765.92
480.52	3836.14
480.70	3794.01
480.88	3798.69
481.06	3840.82
481.24	3908.69
481.41	3934.44
481.59	4105.30
481.77	3936.78
481.95	3838.48
482.13	4056.15
482.31	3969.55
482.49	4124.02
482.67	4252.75
482.85	4098.28
483.03	4184.88
483.21	4315.95
483.39	4252.75
483.57	4173.18
483.74	4461.06
483.92	4248.07
484.10	4524.26
484.28	4409.57
484.46	4599.15
484.64	4369.78
484.82	4362.76
485.00	4477.44
485.18	4606.17
485.35	4615.54
485.53	4540.64
485.71	4636.60
485.89	4622.56
486.07	4751.29
486.25	4816.82
486.43	4758.31
486.61	4744.27
486.78	4901.08
486.96	4823.84
487.14	5114.07
487.32	5001.72
487.50	5085.98
487.68	5163.22
487.85	5107.05
488.03	5191.31
488.21	5188.97
488.39	5275.57
488.57	5301.31
488.75	5378.55
488.92	5598.56
489.10	5259.18
489.28	5516.64
489.46	5404.30
489.64	5385.57
489.81	5528.35
489.99	5570.48
490.17	5596.22
490.35	5563.45
490.53	5636.01
490.70	5743.67
490.88	5830.27
491.06	5792.83
491.24	5640.69
491.41	5743.67
491.59	5816.23
491.77	5764.74
491.95	5930.92
492.13	5919.21
492.30	6059.65
492.48	5886.45
492.66	6160.29
492.84	6129.86
493.01	6242.21
493.19	6033.90
493.37	6115.82
493.54	6183.70
493.72	6101.78
493.90	6169.65
494.08	6237.53
494.25	6356.90
494.43	6516.05
494.61	6513.71
494.79	6429.45
494.96	6333.49
495.14	6502.01
495.32	6541.80
495.49	6504.35
495.67	6752.45
495.85	6546.48
496.02	6920.96
496.20	6995.86
496.38	6635.42
496.55	6530.09
496.73	6761.81
496.91	6832.02
497.09	6825.00
497.26	6932.67
497.44	7016.93
497.62	7117.57
497.79	7136.29
497.97	7007.56
498.14	7021.61
498.32	7157.36
498.50	7229.91
498.67	7131.61
498.85	7080.12
499.03	7229.91
499.20	7351.62
499.38	7344.60
499.56	7297.79
499.73	7414.82
499.91	7489.71
500.08	7562.27
500.26	7470.99
500.44	7440.56
500.61	7480.35
500.79	7487.37
500.97	7485.03
501.14	7552.91
501.32	7606.74
501.49	7595.04
501.67	7506.10
501.84	7676.96
502.02	7595.04
502.20	7899.31
502.37	7681.64
502.55	7569.29
502.72	7538.87
502.90	7744.83
503.07	7803.35
503.25	7648.87
503.43	7620.78
503.60	7915.69
503.78	7861.86
503.95	7859.52
504.13	8013.99
504.30	7932.08
504.48	7981.23
504.65	8077.19
504.83	8191.88
505.01	8180.17
505.18	8147.40
505.36	8116.98
505.53	8250.39
505.71	8049.10
505.88	8329.97
506.06	8170.81
506.23	8255.07
506.41	8266.77
506.58	8032.72
506.76	8416.57
506.93	8231.66
507.11	8257.41
507.28	8245.71
507.46	8505.51
507.63	8475.08
507.81	8374.44
507.98	8622.53
508.16	8402.52
508.33	8578.06
508.50	8535.93
508.68	8454.02
508.85	8493.80
509.03	8608.49
509.20	8650.62
509.38	8704.45
509.55	8552.32
509.73	8692.75
509.90	8676.37
510.08	8711.47
510.25	8877.65
510.42	8765.31
510.60	9025.11
510.77	8863.61
510.95	8990.00
511.12	8842.54
511.30	8910.42
511.47	8987.66
511.64	8868.29
511.82	8954.89
511.99	9179.58
512.17	9174.90
512.34	8973.61
512.51	9116.39
512.69	8875.31
512.86	8992.34
513.04	9280.22
513.21	9226.39
513.38	9460.45
513.56	9291.93
513.73	9121.07
513.90	9247.46
514.08	9217.03
514.25	9301.29
514.43	9343.42
514.60	9399.59
514.77	9554.07
514.95	9469.81
515.12	9266.18
515.29	9570.45
515.47	9572.79
515.64	9359.80
515.81	9635.99
515.99	9809.19
516.16	9675.77
516.33	9605.56
516.51	9685.14
516.68	9483.85
516.85	9511.94
517.03	9591.52
517.20	9528.32
517.37	9727.27
517.54	9745.99
517.72	9788.12
517.89	9741.31
518.06	9724.93
518.24	9799.82
518.41	9781.10
518.58	9715.56
518.75	9603.22
518.93	10071.33
519.10	9942.60
519.27	9956.64
519.45	9909.83
519.62	9916.85
519.79	9996.43
519.96	10139.20
520.14	10047.92
520.31	10090.05
520.48	10193.03
520.65	10167.29
520.83	10068.98
521.00	10286.65
521.17	10092.39
521.34	10146.22
521.52	10237.50
521.69	10223.46
521.86	10279.63
522.03	10310.06
522.20	10382.62
522.38	10377.94
522.55	10363.89
522.72	10246.87
522.89	10693.91
523.07	10682.20
523.24	10328.78
523.41	10300.70
523.58	10202.40
523.75	10501.98
523.92	10291.34
524.10	10506.66
524.27	10408.36
524.44	10487.94
524.61	10658.80
524.78	10602.63
524.96	10609.65
525.13	10576.88
525.30	10544.11
525.47	10602.63
525.64	10670.50
525.81	10733.70
525.98	10874.13
526.16	10555.82
526.33	10747.74
526.50	10869.45
526.67	10619.01
526.84	10839.02
527.01	10651.78
527.18	10853.06
527.36	10850.72
527.53	10916.26
527.70	11002.86
527.87	10946.69
528.04	10923.28
528.21	10888.17
528.38	10960.73
528.55	11323.51
528.72	10925.62
528.89	10974.77
529.07	11162.01
529.24	11016.90
529.41	11255.64
529.58	11363.30
529.75	11094.14
529.92	10988.82
530.09	11201.80
530.26	11096.48
530.43	11426.50
530.60	11199.46
530.77	10991.16
530.94	11073.07
531.11	11220.53
531.28	11185.42
531.46	11108.18
531.63	11136.27
531.80	11410.11
531.97	11318.83
532.14	11335.21
532.31	10977.11
532.48	11150.31
532.65	11276.70
532.82	11367.98
532.99	11569.27
533.16	11208.83
533.33	11442.88
533.50	11623.10
533.67	11393.73
533.84	11721.40
534.01	11410.11
534.18	11375.00
534.35	11496.71
534.52	11548.20
534.69	11639.48
534.86	11719.06
535.03	11538.84
535.20	11712.04
535.37	11651.19
535.54	11723.74
535.71	11698.00
535.88	11786.94
536.05	11585.65
536.22	11779.92
536.38	11716.72
536.55	11639.48
536.72	11822.05
536.89	11620.76
537.06	11784.60
537.23	11784.60
537.40	11782.26
537.57	11826.73
537.74	11566.93
537.91	12035.03
538.08	11997.59
538.25	11772.89
538.42	11887.58
538.59	12088.87
538.75	11824.39
538.92	11943.75
539.09	11974.18
539.26	12004.61
539.43	12020.99
539.60	12049.08
539.77	12035.03
539.94	12285.47
540.11	12159.08
540.28	12140.36
540.44	12393.14
540.61	12107.59
540.78	12170.79
540.95	12322.92
541.12	12290.15
541.29	12425.90
541.46	12496.12
541.62	12461.01
541.79	12531.23
541.96	12320.58
542.13	12470.37
542.30	12479.74
542.47	12285.47
542.63	12578.04
542.80	12425.90
542.97	12367.39
543.14	12594.42
543.31	12627.19
543.48	12472.71
543.64	12662.30
543.81	12688.04
543.98	12659.96
544.15	12964.23
544.32	12821.45
544.48	12886.99
544.65	12718.47
544.82	12816.77
544.99	12573.36
545.16	12779.32
545.32	12638.89
545.49	13139.77
545.66	13158.49
545.83	13420.63
546.00	13247.43
546.16	12936.14
546.33	12901.03
546.50	12741.88
546.67	12519.53
546.83	12643.57
547.00	12725.49
547.17	12716.13
547.34	12837.84
547.50	12723.15
547.67	12624.85
547.84	12795.71
548.00	12786.35
548.17	12685.70
548.34	12828.48
548.51	12856.56
548.67	12898.69
548.84	12814.43
549.01	12641.23
549.18	12755.92
549.34	12940.82
549.51	12723.15
549.68	12802.73
549.84	12772.30
550.01	12856.56
550.18	12996.99
550.34	12950.18
550.51	12889.33
550.68	13085.94
550.84	12842.52
551.01	13034.44
551.18	12968.91
551.34	12823.80
551.51	13158.49
551.68	12826.14
551.84	13032.10
552.01	13039.12
552.18	12788.69
552.34	12929.12
552.51	12674.00
552.68	12971.25
552.84	12657.62
553.01	13071.89
553.18	13081.25
553.34	13121.04
553.51	13298.92
553.67	12950.18
553.84	13085.94
554.01	13214.66
554.17	13399.57
554.34	13092.96
554.51	13149.13
554.67	12769.96
554.84	13083.59
555.00	13156.15
555.17	13050.83
555.33	13188.92
555.50	13046.15
555.67	13099.98
555.83	12975.93
556.00	12910.40
556.16	13458.08
556.33	13217.01
556.50	13128.06
556.66	13217.01
556.83	12957.21
556.99	13214.66
557.16	13472.12
557.32	13378.50
557.49	13219.35
557.65	13247.43
557.82	13130.41
557.98	13231.05
558.15	13289.56
558.32	13268.50
558.48	13317.65
558.65	13149.13
558.81	13088.28
558.98	13273.18
559.14	13422.97
559.31	13261.48
559.47	13252.11
559.64	13584.47
559.80	13429.99
559.97	13221.69
560.13	13422.97
560.30	13142.11
560.46	13341.05
560.63	13200.62
560.79	13493.19
560.96	13359.78
561.12	13174.88
561.29	13523.62
561.45	13118.70
561.61	13549.36
561.78	13661.71
561.94	13448.72
562.11	13603.19
562.27	13486.17
562.44	13362.12
562.60	13242.75
562.77	13415.95
562.93	13338.71
563.10	13359.78
563.26	13247.43
563.42	13458.08
563.59	13441.70
563.75	13504.89
563.92	13657.03
564.08	13486.17
564.24	13322.33
564.41	13479.15
564.57	13355.10
564.74	13327.01
564.90	13439.36
565.07	13614.90
565.23	13633.62
565.39	13324.67
565.56	13476.80
565.72	13493.19
565.88	13650.00
566.05	13429.99
566.21	13247.43
566.38	13275.52
566.54	13270.84
566.70	13614.90
566.87	13722.56
567.03	13635.96
567.19	13654.69
567.36	13720.22
567.52	13462.76
567.68	13486.17
567.85	13502.55
568.01	13249.77
568.17	13521.27
568.34	13465.10
568.50	13441.70
568.66	13537.66
568.83	13429.99
568.99	13481.49
569.15	13308.29
569.32	13610.22
569.48	13369.14
569.64	13678.09
569.81	13579.79
569.97	13785.76
570.13	13682.77
570.30	13610.22
570.46	13788.10
570.62	13666.39
570.78	13357.44
570.95	13500.21
571.11	13694.47
571.27	13362.12
571.43	13521.27
571.60	13535.32
571.76	13570.43
571.92	13614.90
572.09	13453.40
572.25	14057.26
572.41	13657.03
572.57	13654.69
572.74	13540.00
572.90	13682.77
573.06	13771.71
573.22	13614.90
573.38	13790.44
573.55	13841.93
573.71	13720.22
573.87	13621.92
574.03	13462.76
574.20	13619.58
574.36	13507.23
574.52	13654.69
574.68	13781.07
574.84	13942.57
575.01	13909.80
575.17	13820.86
575.33	13535.32
575.49	13940.23
575.65	13891.08
575.82	13708.52
575.98	13572.77
576.14	13790.44
576.30	13671.07
576.46	13767.03
576.62	13928.53
576.79	13736.60
576.95	13900.44
577.11	13720.22
577.27	13837.25
577.43	13862.99
577.59	13797.46
577.75	13708.52
577.92	13783.41
578.08	13666.39
578.24	13453.40
578.40	13851.29
578.56	13647.66
578.72	13989.38
578.88	13813.84
579.04	13877.04
579.21	13741.29
579.37	13722.56
579.53	13743.63
579.69	13937.89
579.85	13685.11
580.01	13493.19
580.17	13687.45
580.33	13654.69
580.49	13745.97
580.65	13652.34
580.82	13855.97
580.98	13678.09
581.14	13706.18
581.30	13516.59
581.46	13811.50
581.62	13696.82
581.78	13806.82
581.94	13607.87
582.10	13612.56
582.26	13514.25
582.42	13764.69
582.58	13877.04
582.74	13855.97
582.90	13799.80
583.06	13949.59
583.22	13867.67
583.38	13806.82
583.54	13750.65
583.70	13855.97
583.86	13778.73
584.02	13696.82
584.18	14054.92
584.34	14031.51
584.50	14019.81
584.66	13841.93
584.82	13902.78
584.98	13921.51
585.14	13806.82
585.30	14001.08
585.46	13722.56
585.62	13701.50
585.78	13893.42
585.94	13813.84
586.10	13898.10
586.26	13795.12
586.42	13736.60
586.58	13846.61
586.74	14066.62
586.90	13767.03
587.06	13909.80
587.22	14092.37
587.38	13832.57
587.54	13963.64
587.70	13888.74
587.86	13652.34
588.02	13867.67
588.18	13673.41
588.34	13701.50
588.49	14017.47
588.65	13692.13
588.81	13846.61
588.97	13994.06
589.13	13895.76
589.29	13898.10
589.45	13802.14
589.61	13640.64
589.77	13750.65
589.93	13872.36
590.08	13720.22
590.24	14043.21
590.40	13724.90
590.56	14029.17
590.72	13973.00
590.88	13900.44
591.04	13832.57
591.20	14061.94
591.35	14057.26
591.51	13846.61
591.67	14092.37
591.83	13984.70
591.99	14111.09
592.15	14050.24
592.31	14092.37
592.46	13886.40
592.62	14099.39
592.78	13834.91
592.94	13977.68
593.10	14256.20
593.26	14010.45
593.41	14038.53
593.57	14101.73
593.73	14188.33
593.89	13846.61
594.05	13790.44
594.20	13774.05
594.36	13923.85
