SpectraSuite Data File
++++++++++++++++++++++++++++++++++++
Date: Fri Oct 04 11:39:32 GMT-05:00 2013
User: price-jones
Dark Spectrum Present: No
Reference Spectrum Present: No
Number of Sampled Component Spectra: 1
Spectrometers: USB2+H05261
Integration Time (usec): 100000 (USB2+H05261)
Spectra Averaged: 1 (USB2+H05261)
Boxcar Smoothing: 0 (USB2+H05261)
Correct for Electrical Dark: No (USB2+H05261)
Strobe/Lamp Enabled: No (USB2+H05261)
Correct for Detector Non-linearity: No (USB2+H05261)
Correct for Stray Light: No (USB2+H05261)
Number of Pixels in Processed Spectrum: 2048
>>>>>Begin Processed Spectral Data<<<<<
365.73	79.58
365.92	79.58
366.12	79.58
366.32	0.00
366.52	0.00
366.72	0.00
366.91	0.00
367.11	0.00
367.31	0.00
367.51	0.00
367.70	0.00
367.90	0.00
368.10	0.00
368.30	0.00
368.49	0.00
368.69	0.00
368.89	0.00
369.09	0.00
369.28	0.00
369.48	0.00
369.68	0.00
369.87	0.00
370.07	0.00
370.27	30.43
370.47	81.92
370.66	212.99
370.86	191.92
371.06	330.02
371.25	334.70
371.45	285.55
371.65	287.89
371.84	238.73
372.04	210.65
372.24	315.97
372.44	330.02
372.63	297.25
372.83	276.18
373.03	351.08
373.22	280.86
373.42	264.48
373.62	313.63
373.81	273.84
374.01	390.87
374.21	407.25
374.40	318.31
374.60	386.19
374.79	362.78
374.99	339.38
375.19	388.53
375.38	386.19
375.58	362.78
375.78	372.15
375.97	351.08
376.17	416.62
376.37	437.68
376.56	320.65
376.76	362.78
376.95	320.65
377.15	409.59
377.35	376.83
377.54	362.78
377.74	414.27
377.93	393.21
378.13	376.83
378.33	493.85
378.52	404.91
378.72	482.15
378.91	472.79
379.11	425.98
379.31	367.46
379.50	299.59
379.70	482.15
379.89	428.32
380.09	418.96
380.28	351.08
380.48	400.23
380.68	386.19
380.87	433.00
381.07	404.91
381.26	456.40
381.46	444.70
381.65	374.49
381.85	472.79
382.04	430.66
382.24	411.93
382.43	442.36
382.63	503.22
382.83	470.45
383.02	454.06
383.22	505.56
383.41	458.74
383.61	454.06
383.80	454.06
384.00	519.60
384.19	461.09
384.39	475.13
384.58	486.83
384.78	500.87
384.97	538.32
385.17	486.83
385.36	540.66
385.56	507.90
385.75	437.68
385.95	543.00
386.14	610.88
386.34	564.07
386.53	547.69
386.72	489.17
386.92	594.50
387.11	521.94
387.31	617.90
387.50	428.32
387.70	514.92
387.89	550.03
388.09	559.39
388.28	505.56
388.48	505.56
388.67	599.18
388.86	589.82
389.06	559.39
389.25	573.43
389.45	587.47
389.64	631.94
389.84	500.87
390.03	585.13
390.22	580.45
390.42	526.62
390.61	610.88
390.81	585.13
391.00	596.84
391.19	664.71
391.39	596.84
391.58	662.37
391.78	634.29
391.97	589.82
392.16	631.94
392.36	704.50
392.55	697.48
392.75	681.10
392.94	655.35
393.13	711.52
393.33	702.16
393.52	638.97
393.71	699.82
393.91	638.97
394.10	650.67
394.29	699.82
394.49	645.99
394.68	657.69
394.88	847.27
395.07	744.29
395.26	774.72
395.46	688.12
395.65	718.54
395.84	784.08
396.04	898.77
396.23	821.53
396.42	844.93
396.62	800.46
396.81	842.59
397.00	716.20
397.19	849.61
397.39	894.08
397.58	784.08
397.77	924.51
397.97	833.23
398.16	961.96
398.35	931.53
398.55	819.19
398.74	938.55
398.93	954.94
399.12	877.70
399.32	854.30
399.51	910.47
399.70	880.04
399.90	950.26
400.09	947.92
400.28	1074.31
400.47	873.02
400.67	961.96
400.86	1011.11
401.05	1062.60
401.24	1055.58
401.44	1123.46
401.63	1076.65
401.82	1071.97
402.01	1111.75
402.21	1011.11
402.40	1144.52
402.59	1146.86
402.78	1104.73
402.97	1067.28
403.17	1076.65
403.36	1203.04
403.55	1207.72
403.74	1167.93
403.93	1177.29
404.13	1226.44
404.32	1247.51
404.51	1233.46
404.70	1306.02
404.89	1196.01
405.09	1277.93
405.28	1287.29
405.47	1350.49
405.66	1315.38
405.85	1310.70
406.05	1401.98
406.24	1362.19
406.43	1406.66
406.62	1537.73
406.81	1507.30
407.00	1439.43
407.20	1549.43
407.39	1500.28
407.58	1570.50
407.77	1460.49
407.96	1544.75
408.15	1619.65
408.34	1416.02
408.54	1521.35
408.73	1600.93
408.92	1631.35
409.11	1673.48
409.30	1710.93
409.49	1561.14
409.68	1682.85
409.87	1638.38
410.07	1675.82
410.26	1689.87
410.45	1739.02
410.64	1792.85
410.83	1795.19
411.02	1937.96
411.21	1930.94
411.40	1947.33
411.59	1944.99
411.78	1881.79
411.98	1926.26
412.17	1930.94
412.36	2045.63
412.55	1954.35
412.74	2047.97
412.93	2050.31
413.12	2148.61
413.31	2120.53
413.50	2012.86
413.69	1977.75
413.88	2120.53
414.07	2113.50
414.26	2300.75
414.45	2193.08
414.64	2265.64
414.83	2401.39
415.02	2319.47
415.22	2473.95
415.41	2516.08
415.60	2359.26
415.79	2586.29
415.98	2518.42
416.17	2520.76
416.36	2565.23
416.55	2600.34
416.74	2581.61
416.93	2614.38
417.12	2579.27
417.31	2682.25
417.50	2614.38
417.69	2832.05
417.88	2736.09
418.07	2710.34
418.26	2780.56
418.45	2745.45
418.64	2970.14
418.83	2787.58
419.02	2942.05
419.21	2928.01
419.39	2808.64
419.58	2771.19
419.77	2958.44
419.96	2991.20
420.15	2951.42
420.34	2867.16
420.53	3007.59
420.72	3021.63
420.91	3117.59
421.10	3026.31
421.29	3164.40
421.48	3180.79
421.67	3183.13
421.86	3052.06
422.05	3267.39
422.24	3213.56
422.43	3166.74
422.61	3253.34
422.80	3290.79
422.99	3316.54
423.18	3213.56
423.37	3316.54
423.56	3260.37
423.75	3185.47
423.94	3173.77
424.13	3070.78
424.32	3087.17
424.50	3405.48
424.69	3274.41
424.88	3379.73
425.07	3178.45
425.26	3197.17
425.45	3225.26
425.64	3215.90
425.83	3251.00
426.01	3335.26
426.20	3279.09
426.39	3265.05
426.58	3445.27
426.77	3454.63
426.96	3459.31
427.15	3569.32
427.33	3445.27
427.52	3342.28
427.71	3447.61
427.90	3578.68
428.09	3564.64
428.28	3543.57
428.46	3574.00
428.65	3585.70
428.84	3627.83
429.03	3644.21
429.22	3574.00
429.40	3613.79
429.59	3620.81
429.78	3499.10
429.97	3534.21
430.16	3646.55
430.34	3756.56
430.53	3908.69
430.72	3845.50
430.91	3763.58
431.10	3566.98
431.28	3852.52
431.47	3885.29
431.66	4016.36
431.85	3845.50
432.03	3896.99
432.22	4018.70
432.41	3981.25
432.60	3995.29
432.79	4023.38
432.97	4060.83
433.16	4056.15
433.35	4056.15
433.54	4004.66
433.72	4070.19
433.91	3964.87
434.10	4051.47
434.28	4063.17
434.47	4039.76
434.66	4264.46
434.85	4161.47
435.03	4329.99
435.22	4465.74
435.41	4681.07
435.59	4465.74
435.78	4594.47
435.97	4587.45
436.16	4304.25
436.34	4409.57
436.53	4236.37
436.72	4510.21
436.90	4421.27
437.09	4477.44
437.28	4367.44
437.46	4603.83
437.65	4498.51
437.84	4533.62
438.02	4582.77
438.21	4503.19
438.40	4594.47
438.58	4521.92
438.77	4702.14
438.96	4711.50
439.14	4681.07
439.33	4737.24
439.52	4828.53
439.70	4737.24
439.89	4784.06
440.08	4915.12
440.26	4985.34
440.45	4884.70
440.63	4940.87
440.82	5060.24
441.01	5130.45
441.19	5071.94
441.38	5242.80
441.57	5310.68
441.75	5160.88
441.94	5383.23
442.12	5193.65
442.31	5296.63
442.50	5458.13
442.68	5341.10
442.87	5320.04
443.05	5467.49
443.24	5427.70
443.43	5507.28
443.61	5493.24
443.80	5605.58
443.98	5357.49
444.17	5336.42
444.35	5659.42
444.54	5577.50
444.73	5549.41
444.91	5703.89
445.10	5621.97
445.28	5638.35
445.47	5413.66
445.65	5654.73
445.84	5762.40
446.02	5579.84
446.21	5614.95
446.39	5537.71
446.58	5657.07
446.77	5650.05
446.95	5446.43
447.14	5689.84
447.32	5582.18
447.51	5692.18
447.69	5554.09
447.88	5806.87
448.06	5905.17
448.25	5724.95
448.43	5645.37
448.62	5774.10
448.80	5621.97
448.99	5804.53
449.17	5977.73
449.36	5797.51
449.54	5916.87
449.73	5954.32
449.91	6031.56
450.10	6059.65
450.28	6003.47
450.46	6029.22
450.65	6155.61
450.83	6010.50
451.02	5994.11
451.20	6129.86
451.39	6296.04
451.57	5977.73
451.76	6244.55
451.94	6186.04
452.13	6359.24
452.31	6181.35
452.49	5996.45
452.68	6293.70
452.86	6249.23
453.05	6345.19
453.23	6424.77
453.42	6120.50
453.60	6242.21
453.78	6270.30
453.97	6183.70
454.15	6146.25
454.34	6291.36
454.52	6424.77
454.70	6420.09
454.89	6359.24
455.07	6630.74
455.26	6684.57
455.44	6637.76
455.62	6670.53
455.81	6537.12
455.99	6459.88
456.17	6600.31
456.36	6766.49
456.54	6733.72
456.73	6822.66
456.91	6789.89
457.09	6930.33
457.28	7047.35
457.46	6796.92
457.64	7101.19
457.83	6925.65
458.01	6986.50
458.19	7136.29
458.38	6991.18
458.56	7131.61
458.74	7098.84
458.93	7021.61
459.11	7178.42
459.29	7126.93
459.48	7293.11
459.66	7232.26
459.84	7478.01
460.03	7421.84
460.21	7253.32
460.39	7286.09
460.57	7258.00
460.76	7276.73
460.94	7318.86
461.12	7351.62
461.31	7445.24
461.49	7384.39
461.67	7435.88
461.85	7733.13
462.04	7414.82
462.22	7494.40
462.40	7548.23
462.59	7602.06
462.77	7630.15
462.95	7613.76
463.13	7674.62
463.32	7550.57
463.50	7770.58
463.68	7700.36
463.86	7602.06
464.05	7623.12
464.23	7698.02
464.41	7957.82
464.59	7676.96
464.78	7885.26
464.96	7740.15
465.14	7875.90
465.32	7892.29
465.50	7936.76
465.69	8046.76
465.87	8039.74
466.05	7845.48
466.23	7749.51
466.41	8159.11
466.60	8315.92
466.78	7990.59
466.96	8152.09
467.14	8074.85
467.32	8107.62
467.51	8219.96
467.69	8009.31
467.87	8128.68
468.05	8283.16
468.23	8046.76
468.41	8053.78
468.60	8184.85
468.78	8149.75
468.96	8131.02
469.14	8159.11
469.32	8571.04
469.50	8198.90
469.69	8538.27
469.87	8608.49
470.05	8627.21
470.23	8814.46
470.41	8524.23
470.59	8741.90
470.77	8622.53
470.95	8819.14
471.14	8664.66
471.32	8535.93
471.50	9104.68
471.68	8786.37
471.86	8809.78
472.04	8915.10
472.22	9355.12
472.40	8898.72
472.58	9191.28
472.77	9188.94
472.95	9523.64
473.13	9439.38
473.31	9327.03
473.49	9221.71
473.67	9221.71
473.85	9345.76
474.03	9413.63
474.21	9579.81
474.39	9516.62
474.57	9589.17
474.75	9774.08
474.93	9619.60
475.12	9767.06
475.30	9715.56
475.48	9870.04
475.66	9867.70
475.84	9785.78
476.02	10160.27
476.20	9998.77
476.38	10209.42
476.56	10434.11
476.74	10207.08
476.92	10338.15
477.10	10193.03
477.28	10394.32
477.46	10473.90
477.64	10487.94
477.82	10967.75
478.00	10876.47
478.18	10918.60
478.36	11080.10
478.54	11009.88
478.72	11117.54
478.90	11316.49
479.08	11257.98
479.26	11421.81
479.44	11538.84
479.62	11550.54
479.80	11660.55
479.98	11609.06
480.16	11880.56
480.34	11906.31
480.52	12255.04
480.70	11976.52
480.88	12018.65
481.06	12072.48
481.24	12126.32
481.41	12280.79
481.59	12636.55
481.77	12587.40
481.95	12470.37
482.13	13001.68
482.31	12631.87
482.49	12961.89
482.67	13055.51
482.85	13193.60
483.03	13366.80
483.21	13345.73
483.39	13694.47
483.57	13406.59
483.74	13731.92
483.92	13874.70
484.10	13650.00
484.28	14015.13
484.46	14312.38
484.64	14616.65
484.82	14052.58
485.00	14403.66
485.18	14609.62
485.35	14986.45
485.53	14827.29
485.71	15145.61
485.89	15260.29
486.07	15087.09
486.25	15180.71
486.43	15318.81
486.61	15372.64
486.78	15482.64
486.96	15620.74
487.14	15850.11
487.32	15810.32
487.50	16049.05
487.68	15929.69
487.85	16563.97
488.03	16472.69
488.21	16596.74
488.39	16971.22
488.57	16917.39
488.75	17226.34
488.92	17130.38
489.10	17067.19
489.28	17345.71
489.46	17455.72
489.64	17439.33
489.81	17502.53
489.99	17727.22
490.17	17970.63
490.35	18043.19
490.53	17916.80
490.70	18707.90
490.88	18326.39
491.06	18574.49
491.24	18714.92
491.41	18677.48
491.59	18665.77
491.77	19199.41
491.95	18993.45
492.13	18951.32
492.30	19344.53
492.48	19325.80
492.66	19103.45
492.84	19389.00
493.01	19714.33
493.19	19826.68
493.37	19784.55
493.54	20278.40
493.72	20161.37
493.90	20402.45
494.08	20442.24
494.25	20547.56
494.43	20664.59
494.61	20781.62
494.79	20973.54
494.96	20987.58
495.14	21064.82
495.32	21413.56
495.49	21231.00
495.67	21645.27
495.85	21441.65
496.02	22010.40
496.20	21790.39
496.38	21907.41
496.55	22008.06
496.73	22417.65
496.91	22415.31
497.09	22530.00
497.26	22586.17
497.44	22527.66
497.62	22621.28
497.79	22836.61
497.97	23019.17
498.14	22895.12
498.32	23257.90
498.50	23248.54
498.67	23590.26
498.85	23290.67
499.03	23623.03
499.20	23468.55
499.38	23491.96
499.56	23836.02
499.73	23740.05
499.91	24191.78
500.08	24105.18
500.26	24006.87
500.44	23831.33
500.61	24294.76
500.79	24107.52
500.97	24444.56
501.14	24460.94
501.32	24694.99
501.49	24872.87
501.67	24884.58
501.84	24907.98
502.02	24856.49
502.20	25088.20
502.37	25490.77
502.55	25177.14
502.72	25249.70
502.90	25301.19
503.07	25151.40
503.25	25289.49
503.43	25340.98
503.60	25626.53
503.78	25921.43
503.95	25783.34
504.13	25582.06
504.30	25656.95
504.48	25895.69
504.65	25972.92
504.83	26644.66
505.01	26436.35
505.18	26321.66
505.36	26717.22
505.53	26625.93
505.71	27023.83
505.88	26909.14
506.06	26497.20
506.23	27080.00
506.41	27000.42
506.58	27133.83
506.76	27407.67
506.93	27342.14
507.11	27009.78
507.28	27410.01
507.46	27882.80
507.63	27412.35
507.81	27852.38
507.98	27211.07
508.16	27747.05
508.33	27393.63
508.50	27903.87
508.68	27828.97
508.85	28180.05
509.03	28182.39
509.20	28350.91
509.38	28449.21
509.55	28435.17
509.73	28680.92
509.90	28938.38
510.08	28566.24
510.25	28479.64
510.42	28861.15
510.60	28978.17
510.77	29205.20
510.95	28840.08
511.12	29170.10
511.30	29003.92
511.47	29413.51
511.64	29383.09
511.82	29624.16
511.99	29315.21
512.17	29965.88
512.34	30052.48
512.51	29965.88
512.69	30096.95
512.86	29668.63
513.04	30331.00
513.21	30265.47
513.38	30015.03
513.56	30574.42
513.73	30232.70
513.90	30221.00
514.08	30377.81
514.25	30649.32
514.43	30590.80
514.60	30536.97
514.77	30764.00
514.95	30778.04
515.12	31019.12
515.29	30984.01
515.47	31374.88
515.64	31431.05
515.81	30855.28
515.99	31269.56
516.16	31761.07
516.33	31519.99
516.51	31402.97
516.68	31728.30
516.85	31503.61
517.03	31737.66
517.20	31456.80
517.37	31630.00
517.54	31847.67
517.72	31976.40
517.89	31730.64
518.06	32039.59
518.24	31878.10
518.41	32135.56
518.58	32222.16
518.75	32212.79
518.93	32566.21
519.10	32259.60
519.27	32390.67
519.45	32645.79
519.62	32641.11
519.79	32882.19
519.96	32809.63
520.14	33099.86
520.31	32711.33
520.48	32762.82
520.65	32802.61
520.83	33404.13
521.00	32896.23
521.17	32711.33
521.34	33266.03
521.52	33766.91
521.69	33177.09
521.86	33647.54
522.03	33624.14
522.20	33944.79
522.38	33600.73
522.55	33668.61
522.72	34216.29
522.89	34387.15
523.07	34263.10
523.24	34424.60
523.41	34553.33
523.58	34469.07
523.75	34384.81
523.92	34150.76
524.10	34497.16
524.27	34768.66
524.44	34550.99
524.61	34944.20
524.78	34866.96
524.96	34939.52
525.13	34740.57
525.30	34794.40
525.47	34857.60
525.64	34773.34
525.81	35435.71
525.98	35112.72
526.16	35302.30
526.33	35150.17
526.50	35669.76
526.67	35297.62
526.84	35737.64
527.01	35227.40
527.18	35335.07
527.36	35587.85
527.53	35613.59
527.70	35688.49
527.87	35819.56
528.04	35716.58
528.21	36020.84
528.38	35665.08
528.55	35763.39
528.72	36051.27
528.89	35924.88
529.07	36105.10
529.24	36051.27
529.41	35941.27
529.58	36133.19
529.75	35999.78
529.92	35955.31
530.09	36648.11
530.26	36507.68
530.43	36732.37
530.60	36465.55
530.77	36732.37
530.94	36928.97
531.11	36835.35
531.28	36676.19
531.46	36411.71
531.63	36463.21
531.80	37193.45
531.97	37268.35
532.14	37361.97
532.31	37038.98
532.48	37151.32
532.65	37214.52
532.82	37146.64
532.99	37434.53
533.16	36783.86
533.33	37549.21
533.50	37895.61
533.67	37865.19
533.84	37593.68
534.01	37230.90
534.18	37350.27
534.35	37979.87
534.52	37649.86
534.69	38059.45
534.86	37979.87
535.03	37794.97
535.20	38129.67
535.37	38347.34
535.54	38202.22
535.71	37848.80
535.88	38150.73
536.05	37947.11
536.22	38586.07
536.38	38260.74
536.55	38234.99
536.72	38108.60
536.89	38424.57
537.06	38803.74
537.23	38185.84
537.40	38377.76
537.57	38408.19
537.74	38443.30
537.91	38843.53
538.08	38494.79
538.25	38923.11
538.42	38721.82
538.59	38740.55
538.75	38789.70
538.92	38621.18
539.09	39133.76
539.26	39147.80
539.43	39014.39
539.60	38998.01
539.77	39042.48
539.94	39255.46
540.11	39227.38
540.28	39636.97
540.44	39452.07
540.61	39248.44
540.78	39351.43
540.95	39735.27
541.12	39695.49
541.29	40219.77
541.46	39629.95
541.62	40275.94
541.79	39793.79
541.96	39522.29
542.13	39856.98
542.30	40147.21
542.47	40264.24
542.63	40250.19
542.80	40390.62
542.97	40453.82
543.14	40521.69
543.31	40259.55
543.48	40271.26
543.64	40439.78
543.81	40910.22
543.98	40900.86
544.15	40589.57
544.32	41294.07
544.48	40886.82
544.65	40849.37
544.82	40790.86
544.99	40371.90
545.16	40617.66
545.32	40584.89
545.49	41684.94
545.66	41904.95
545.83	42014.96
546.00	41841.76
546.16	41291.73
546.33	40893.84
546.50	40399.99
546.67	40940.65
546.83	40690.21
547.00	40985.12
547.17	41134.92
547.34	40973.42
547.50	41221.52
547.67	41769.20
547.84	41069.38
548.00	41177.04
548.17	41404.08
548.34	41614.72
548.51	41486.00
548.67	41787.92
548.84	41642.81
549.01	41879.21
549.18	41890.91
549.34	41315.14
549.51	41474.29
549.68	41841.76
549.84	41518.76
550.01	41633.45
550.18	41453.23
550.34	41729.41
550.51	42197.52
550.68	41696.64
550.84	41441.53
551.01	41909.63
551.18	41916.65
551.34	41523.44
551.51	41876.86
551.68	41949.42
551.84	42014.96
552.01	41682.60
552.18	41942.40
552.34	41794.95
552.51	42375.40
552.68	41874.52
552.84	41979.85
553.01	42394.12
553.18	41869.84
553.34	42677.33
553.51	42408.17
553.67	42347.31
553.84	42476.04
554.01	42447.96
554.17	42146.03
554.34	42117.94
554.51	42323.91
554.67	42937.13
554.84	42426.89
555.00	42286.46
555.17	42529.87
555.33	42368.38
555.50	42532.22
555.67	42213.90
555.83	42092.19
556.00	42241.99
556.16	42834.14
556.33	42246.67
556.50	42792.01
556.66	42974.58
556.83	42487.74
556.99	42684.35
557.16	42696.05
557.32	42850.53
557.49	42965.21
557.65	42476.04
557.82	42763.93
557.98	42639.88
558.15	42813.08
558.32	42981.60
558.48	42731.16
558.65	42576.69
558.81	42682.01
558.98	42784.99
559.14	43241.40
559.31	42462.00
559.47	43110.33
559.64	43225.01
559.80	43070.54
559.97	42878.61
560.13	43161.82
560.30	43042.45
560.46	43445.02
560.63	43000.32
560.79	42953.51
560.96	43122.03
561.12	42920.74
561.29	43253.10
561.45	43201.61
561.61	42937.13
561.78	43683.76
561.94	43093.94
562.11	43349.06
562.27	43592.48
562.44	43384.17
562.60	42780.31
562.77	42883.30
562.93	42927.77
563.10	43335.02
563.26	43070.54
563.42	43732.91
563.59	43344.38
563.75	43213.31
563.92	43271.82
564.08	43302.25
564.24	43489.49
564.41	42997.98
564.57	43182.88
564.74	43533.96
564.90	43620.56
565.07	43606.52
565.23	43423.96
565.39	43398.21
565.56	43248.42
565.72	43140.75
565.88	43395.87
566.05	43519.92
566.21	43409.92
566.38	43564.39
566.54	43297.57
566.70	43866.32
566.87	44074.63
567.03	43306.93
567.19	44088.67
567.36	43847.60
567.52	43641.63
567.68	43711.84
567.85	43447.36
568.01	43297.57
568.17	43608.86
568.34	43498.86
568.50	43573.75
568.66	43746.95
568.83	43629.93
568.99	43812.49
569.15	43529.28
569.32	43395.87
569.48	43559.71
569.64	43632.27
569.81	44088.67
569.97	43800.79
570.13	43847.60
570.30	43646.31
570.46	43686.10
570.62	43438.00
570.78	43250.76
570.95	43367.79
571.11	43393.53
571.27	43356.08
571.43	43540.99
571.60	43732.91
571.76	43796.10
571.92	44023.14
572.09	43688.44
572.25	44006.75
572.41	43615.88
572.57	43758.66
572.74	44034.84
572.90	43749.29
573.06	43587.80
573.22	43758.66
573.38	43992.71
573.55	43707.16
573.71	43945.90
573.87	43901.43
574.03	43407.58
574.20	43653.33
574.36	43250.76
574.52	43648.65
574.68	43756.32
574.84	44219.74
575.01	43969.30
575.17	43992.71
575.33	43995.05
575.49	43992.71
575.65	44098.03
575.82	44233.78
575.98	43725.89
576.14	44179.95
576.30	43742.27
576.46	43681.42
576.62	43674.40
576.79	43882.70
576.95	43948.24
577.11	44271.23
577.27	43332.68
577.43	43711.84
577.59	43943.56
577.75	43580.78
577.92	43538.65
578.08	43716.53
578.24	43604.18
578.40	43927.17
578.56	44268.89
578.72	44086.33
578.88	44442.09
579.04	44456.14
579.21	44006.75
579.37	44048.88
579.53	43580.78
579.69	43704.82
579.85	43878.02
580.01	44044.20
580.17	43674.40
580.33	43952.92
580.49	44348.47
580.65	43786.74
580.82	43887.39
580.98	43814.83
581.14	44009.09
581.30	44357.83
581.46	43786.74
581.62	44109.74
581.78	43618.22
581.94	44020.80
582.10	43695.46
582.26	44128.46
582.42	44002.07
582.58	44002.07
582.74	43889.73
582.90	43868.66
583.06	44210.38
583.22	43716.53
583.38	43583.12
583.54	44163.57
583.70	43592.48
583.86	44243.15
584.02	44215.06
584.18	43761.00
584.34	43922.49
584.50	44135.48
584.66	44025.48
584.82	43948.24
584.98	43952.92
585.14	43693.12
585.30	43517.58
585.46	44184.63
585.62	43697.80
585.78	44100.37
585.94	43938.88
586.10	44023.14
586.26	44039.52
586.42	44116.76
586.58	43959.94
586.74	44032.50
586.90	44236.12
587.06	43812.49
587.22	44287.62
587.38	43917.81
587.54	44484.22
587.70	44133.14
587.86	44306.34
588.02	44250.17
588.18	43959.94
588.34	44032.50
588.49	44126.12
588.65	43622.90
588.81	43894.41
588.97	44116.76
589.13	43943.56
589.29	43992.71
589.45	44348.47
589.61	44406.98
589.77	44226.76
589.93	44060.58
590.08	44119.10
590.24	44334.43
590.40	44348.47
590.56	44624.65
590.72	43945.90
590.88	43906.11
