SpectraSuite Data File
++++++++++++++++++++++++++++++++++++
Date: Fri Oct 04 11:39:22 GMT-05:00 2013
User: price-jones
Dark Spectrum Present: No
Reference Spectrum Present: No
Number of Sampled Component Spectra: 1
Spectrometers: USB2+H05261
Integration Time (usec): 100000 (USB2+H05261)
Spectra Averaged: 1 (USB2+H05261)
Boxcar Smoothing: 0 (USB2+H05261)
Correct for Electrical Dark: No (USB2+H05261)
Strobe/Lamp Enabled: No (USB2+H05261)
Correct for Detector Non-linearity: No (USB2+H05261)
Correct for Stray Light: No (USB2+H05261)
Number of Pixels in Processed Spectrum: 2048
>>>>>Begin Processed Spectral Data<<<<<
365.73	72.56
365.92	72.56
366.12	72.56
366.32	0.00
366.52	0.00
366.72	0.00
366.91	0.00
367.11	0.00
367.31	0.00
367.51	0.00
367.70	0.00
367.90	14.04
368.10	0.00
368.30	0.00
368.49	0.00
368.69	0.00
368.89	0.00
369.09	0.00
369.28	0.00
369.48	0.00
369.68	0.00
369.87	0.00
370.07	53.83
370.27	72.56
370.47	37.45
370.66	278.52
370.86	358.10
371.06	353.42
371.25	313.63
371.45	269.16
371.65	266.82
371.84	245.76
372.04	271.50
372.24	337.04
372.44	348.74
372.63	348.74
372.83	351.08
373.03	383.85
373.22	304.27
373.42	325.33
373.62	388.53
373.81	393.21
374.01	313.63
374.21	381.51
374.40	367.46
374.60	461.09
374.79	362.78
374.99	386.19
375.19	393.21
375.38	376.83
375.58	348.74
375.78	428.32
375.97	435.34
376.17	428.32
376.37	381.51
376.56	411.93
376.76	437.68
376.95	320.65
377.15	463.43
377.35	374.49
377.54	447.04
377.74	465.77
377.93	407.25
378.13	402.57
378.33	423.64
378.52	320.65
378.72	451.72
378.91	458.74
379.11	470.45
379.31	404.91
379.50	496.19
379.70	547.69
379.89	461.09
380.09	367.46
380.28	458.74
380.48	418.96
380.68	528.96
380.87	468.11
381.07	470.45
381.26	489.17
381.46	461.09
381.65	477.47
381.85	470.45
382.04	465.77
382.24	498.53
382.43	531.30
382.63	465.77
382.83	528.96
383.02	524.28
383.22	514.92
383.41	472.79
383.61	503.22
383.80	503.22
384.00	540.66
384.19	496.19
384.39	550.03
384.58	496.19
384.78	545.34
384.97	444.70
385.17	538.32
385.36	568.75
385.56	573.43
385.75	545.34
385.95	500.87
386.14	589.82
386.34	594.50
386.53	589.82
386.72	578.11
386.92	587.47
387.11	552.37
387.31	606.20
387.50	519.60
387.70	564.07
387.89	566.41
388.09	606.20
388.28	528.96
388.48	575.77
388.67	631.94
388.86	608.54
389.06	566.41
389.25	669.39
389.45	645.99
389.64	622.58
389.84	725.57
390.03	681.10
390.22	631.94
390.42	669.39
390.61	660.03
390.81	718.54
391.00	716.20
391.19	723.23
391.39	746.63
391.58	734.93
391.78	685.78
391.97	795.78
392.16	678.76
392.36	779.40
392.55	823.87
392.75	734.93
392.94	751.31
393.13	800.46
393.33	676.41
393.52	781.74
393.71	779.40
393.91	821.53
394.10	770.04
394.29	739.61
394.49	758.33
394.68	901.11
394.88	908.13
395.07	877.70
395.26	842.59
395.46	856.64
395.65	873.02
395.84	922.17
396.04	901.11
396.23	877.70
396.42	856.64
396.62	957.28
396.81	957.28
397.00	964.30
397.19	922.17
397.39	931.53
397.58	926.85
397.77	950.26
397.97	922.17
398.16	983.02
398.35	896.43
398.55	903.45
398.74	990.05
398.93	1076.65
399.12	1020.47
399.32	1071.97
399.51	1055.58
399.70	1130.48
399.90	1069.62
400.09	1116.44
400.28	1116.44
400.47	1102.39
400.67	1102.39
400.86	1029.84
401.05	1116.44
401.24	1188.99
401.44	1156.22
401.63	1135.16
401.82	1174.95
402.01	1104.73
402.21	1144.52
402.40	1158.57
402.59	1242.82
402.78	1102.39
402.97	1277.93
403.17	1268.57
403.36	1299.00
403.55	1240.48
403.74	1240.48
403.93	1425.39
404.13	1355.17
404.32	1352.83
404.51	1355.17
404.70	1380.92
404.89	1343.47
405.09	1366.87
405.28	1352.83
405.47	1420.71
405.66	1469.86
405.85	1511.99
406.05	1516.67
406.24	1526.03
406.43	1514.33
406.62	1572.84
406.81	1617.31
407.00	1533.05
407.20	1547.09
407.39	1509.65
407.58	1549.43
407.77	1528.37
407.96	1603.27
408.15	1626.67
408.34	1647.74
408.54	1575.18
408.73	1640.72
408.92	1781.15
409.11	1743.70
409.30	1837.32
409.49	1781.15
409.68	1706.25
409.87	1699.23
410.07	1717.95
410.26	1863.07
410.45	1804.55
410.64	1769.44
410.83	1809.23
411.02	1912.22
411.21	1926.26
411.40	1987.11
411.59	1874.77
411.78	1961.37
411.98	2064.35
412.17	2122.87
412.36	1991.80
412.55	2054.99
412.74	2083.08
412.93	2146.27
413.12	2150.95
413.31	2157.97
413.50	2113.50
413.69	2214.15
413.88	2314.79
414.07	2263.30
414.26	2394.37
414.45	2249.25
414.64	2427.14
414.83	2408.41
415.02	2296.07
415.22	2518.42
415.41	2466.92
415.60	2495.01
415.79	2497.35
415.98	2480.97
416.17	2459.90
416.36	2642.46
416.55	2637.78
416.74	2612.04
416.93	2581.61
417.12	2679.91
417.31	2738.43
417.50	2661.19
417.69	2876.52
417.88	2818.00
418.07	2780.56
418.26	2829.71
418.45	2918.65
418.64	3007.59
418.83	2820.35
419.02	2923.33
419.21	3002.91
419.39	2984.18
419.58	2991.20
419.77	2988.86
419.96	2963.12
420.15	3103.55
420.34	2939.71
420.53	2899.92
420.72	3070.78
420.91	3138.66
421.10	3089.51
421.29	3176.11
421.48	3028.65
421.67	3122.27
421.86	3201.85
422.05	3262.71
422.24	3171.43
422.43	3225.26
422.61	3131.64
422.80	3346.97
422.99	3330.58
423.18	3283.77
423.37	3297.81
423.56	3227.60
423.75	3302.50
423.94	3311.86
424.13	3141.00
424.32	3096.53
424.50	3267.39
424.69	3295.47
424.88	3302.50
425.07	3332.92
425.26	3201.85
425.45	3480.38
425.64	3297.81
425.83	3393.78
426.01	3499.10
426.20	3442.93
426.39	3489.74
426.58	3356.33
426.77	3452.29
426.96	3480.38
427.15	3419.52
427.33	3478.04
427.52	3520.17
427.71	3435.91
427.90	3489.74
428.09	3417.18
428.28	3613.79
428.46	3730.81
428.65	3574.00
428.84	3817.41
429.03	3786.99
429.22	3623.15
429.40	3712.09
429.59	3733.15
429.78	3693.37
429.97	3492.08
430.16	3478.04
430.34	3648.90
430.53	3772.94
430.72	3854.86
430.91	3768.26
431.10	3796.35
431.28	3819.75
431.47	3962.53
431.66	3997.64
431.85	3801.03
432.03	3957.85
432.22	4042.11
432.41	3988.27
432.60	3838.48
432.79	3999.98
432.97	4093.60
433.16	4070.19
433.35	3948.48
433.54	4098.28
433.72	4065.51
433.91	4159.13
434.10	4264.46
434.28	4077.21
434.47	4205.94
434.66	4231.69
434.85	4187.22
435.03	4440.00
435.22	4360.42
435.41	4655.33
435.59	4723.20
435.78	4578.09
435.97	4449.36
436.16	4482.13
436.34	4519.57
436.53	4402.55
436.72	4571.07
436.90	4393.19
437.09	4554.68
437.28	4493.83
437.46	4496.17
437.65	4315.95
437.84	4535.96
438.02	4589.79
438.21	4704.48
438.40	4587.45
438.58	4589.79
438.77	4711.50
438.96	4753.63
439.14	4896.40
439.33	4755.97
439.52	4954.91
439.70	4809.80
439.89	5034.49
440.08	4823.84
440.26	4861.29
440.45	4901.08
440.63	5100.03
440.82	5067.26
441.01	5053.22
441.19	5188.97
441.38	5247.48
441.57	5210.03
441.75	5432.38
441.94	5516.64
442.12	5441.75
442.31	5481.53
442.50	5486.22
442.68	5425.36
442.87	5544.73
443.05	5486.22
443.24	5575.16
443.43	5465.15
443.61	5579.84
443.80	5675.80
443.98	5504.94
444.17	5341.10
444.35	5497.92
444.54	5579.84
444.73	5657.07
444.91	5661.76
445.10	5598.56
445.28	5589.20
445.47	5607.92
445.65	5416.00
445.84	5774.10
446.02	5830.27
446.21	5666.44
446.39	5802.19
446.58	5696.86
446.77	5916.87
446.95	5731.97
447.14	5804.53
447.32	5870.06
447.51	5792.83
447.69	5753.04
447.88	5689.84
448.06	5914.53
448.25	5720.27
448.43	5708.57
448.62	5678.14
448.80	5806.87
448.99	5982.41
449.17	5879.43
449.36	5832.62
449.54	6043.26
449.73	5930.92
449.91	6050.28
450.10	6111.14
450.28	6066.67
450.46	6092.41
450.65	6216.46
450.83	6143.91
451.02	6059.65
451.20	6270.30
451.39	6293.70
451.57	6286.68
451.76	6186.04
451.94	6260.93
452.13	6342.85
452.31	6310.08
452.49	6050.28
452.68	6373.28
452.86	6375.62
453.05	6392.00
453.23	6509.03
453.42	6200.08
453.60	6218.80
453.78	6483.28
453.97	6518.39
454.15	6511.37
454.34	6429.45
454.52	6506.69
454.70	6602.65
454.89	6649.46
455.07	6553.50
455.26	6780.53
455.44	6764.15
455.62	6555.84
455.81	6565.20
455.99	6843.73
456.17	6869.47
456.36	6836.70
456.54	6815.64
456.73	6977.14
456.91	7014.59
457.09	7000.54
457.28	7096.50
457.46	7110.55
457.64	7098.84
457.83	6984.16
458.01	7049.69
458.19	7246.30
458.38	7157.36
458.56	7349.28
458.74	7103.53
458.93	7192.47
459.11	7176.08
459.29	7204.17
459.48	7456.95
459.66	7449.93
459.84	7407.80
460.03	7716.75
460.21	7431.20
460.39	7459.29
460.57	7492.05
460.76	7616.10
460.94	7393.75
461.12	7599.72
461.31	7552.91
461.49	7564.61
461.67	7496.74
461.85	7772.92
462.04	7646.53
462.22	7978.89
462.40	7810.37
462.59	7765.90
462.77	7686.32
462.95	7953.14
463.13	7798.66
463.32	7836.11
463.50	7864.20
463.68	8025.70
463.86	7885.26
464.05	7815.05
464.23	7873.56
464.41	8084.21
464.59	7723.77
464.78	8170.81
464.96	8023.36
465.14	7999.95
465.32	8102.93
465.50	8367.42
465.69	8140.38
465.87	8219.96
466.05	8290.18
466.23	8025.70
466.41	8250.39
466.60	8549.98
466.78	8166.13
466.96	8222.30
467.14	8201.24
467.32	8461.04
467.51	8650.62
467.69	8168.47
467.87	8381.46
468.05	8526.57
468.23	8428.27
468.41	8355.71
468.60	8540.61
468.78	8442.31
468.96	8524.23
469.14	8674.03
469.32	8814.46
469.50	8482.10
469.69	8741.90
469.87	8919.78
470.05	8929.14
470.23	8894.04
470.41	8788.71
470.59	8868.29
470.77	8992.34
470.95	9085.96
471.14	9231.07
471.32	8992.34
471.50	9111.71
471.68	9163.20
471.86	9083.62
472.04	9289.59
472.22	9497.89
472.40	9121.07
472.58	9392.57
472.77	9128.09
472.95	9320.01
473.13	9820.89
473.31	9320.01
473.49	9593.86
473.67	9430.02
473.85	9598.54
474.03	9764.72
474.21	9853.66
474.39	10026.86
474.57	9839.61
474.75	9888.76
474.93	9919.19
475.12	10012.81
475.30	10335.81
475.48	9923.87
475.66	10305.38
475.84	10466.88
476.02	10415.38
476.20	10207.08
476.38	10532.41
476.56	10649.44
476.74	10824.98
476.92	10607.31
477.10	10764.12
477.28	10923.28
477.46	10808.59
477.64	10841.36
477.82	11063.71
478.00	11384.37
478.18	11239.25
478.36	11330.53
478.54	11707.36
478.72	11761.19
478.90	11524.80
479.08	11716.72
479.26	11798.64
479.44	11927.37
479.62	11871.20
479.80	12004.61
479.98	12063.12
480.16	12290.15
480.34	12395.48
480.52	12547.61
480.70	12285.47
480.88	12470.37
481.06	12493.78
481.24	12489.10
481.41	12774.64
481.59	13085.94
481.77	13132.75
481.95	13088.28
482.13	13195.94
482.31	13249.77
482.49	13406.59
482.67	13469.78
482.85	13572.77
483.03	13968.32
483.21	14005.77
483.39	14047.90
483.57	14111.09
483.74	14150.88
483.92	14171.94
484.10	14621.33
484.28	14719.63
484.46	14857.72
484.64	15037.94
484.82	14600.26
485.00	15119.86
485.18	15014.54
485.35	15367.96
485.53	15190.08
485.71	15419.45
485.89	15770.53
486.07	15878.19
486.25	15697.97
486.43	15812.66
486.61	15861.81
486.78	16393.11
486.96	16304.17
487.14	16662.27
487.32	16379.07
487.50	16599.08
487.68	16905.69
487.85	16737.17
488.03	17043.78
488.21	17125.70
488.39	17469.76
488.57	17565.72
488.75	17652.32
488.92	18111.07
489.10	17914.46
489.28	18132.13
489.46	18211.71
489.64	18272.56
489.81	18644.71
489.99	18569.81
490.17	18476.19
490.35	19019.19
490.53	18934.93
490.70	19073.03
490.88	19190.05
491.06	19269.63
491.24	19176.01
491.41	19571.56
491.59	19499.00
491.77	19632.41
491.95	19920.30
492.13	19915.62
492.30	20086.48
492.48	20500.75
492.66	19992.86
492.84	20243.29
493.01	20594.37
493.19	20458.62
493.37	20840.13
493.54	20671.61
493.72	20929.07
493.90	20896.30
494.08	21200.57
494.25	21638.25
494.43	21834.86
494.61	22024.44
494.79	21853.58
494.96	21797.41
495.14	21879.33
495.32	22207.00
495.49	21806.77
495.67	22352.12
495.85	22389.56
496.02	22675.11
496.20	22848.31
496.38	22553.40
496.55	22855.33
496.73	23477.91
496.91	22658.73
497.09	23531.75
497.26	23714.31
497.44	23005.13
497.62	23543.45
497.79	23751.76
497.97	23667.50
498.14	24393.06
498.32	24173.05
498.50	24084.11
498.67	24528.81
498.85	24201.14
499.03	24187.10
499.20	24374.34
499.38	24940.75
499.56	25149.06
499.73	25158.42
499.91	24926.71
500.08	25443.96
500.26	25193.53
500.44	25238.00
500.61	25675.68
500.79	25441.62
500.97	25329.28
501.14	25867.60
501.32	25837.17
501.49	25879.30
501.67	25715.47
501.84	25605.46
502.02	26206.98
502.20	25940.16
502.37	26630.62
502.55	26061.87
502.72	26171.87
502.90	26387.20
503.07	26291.24
503.25	26742.96
503.43	26719.56
503.60	27075.32
503.78	26995.74
503.95	26977.01
504.13	27218.09
504.30	27248.52
504.48	27248.52
504.65	27356.18
504.83	27466.19
505.01	27854.72
505.18	27927.27
505.36	27868.76
505.53	27491.93
505.71	27871.10
505.88	27943.66
506.06	27871.10
506.23	28334.53
506.41	28236.22
506.58	28371.97
506.76	28697.31
506.93	28465.60
507.11	28386.02
507.28	28692.63
507.46	28816.68
507.63	28844.76
507.81	28968.81
507.98	29074.13
508.16	29170.10
508.33	28793.27
508.50	29429.90
508.68	29502.45
508.85	29663.95
509.03	29436.92
509.20	29577.35
509.38	30113.33
509.55	30087.59
509.73	29764.59
509.90	29928.43
510.08	29797.36
510.25	30031.41
510.42	30576.76
510.60	30707.83
510.77	30682.08
510.95	30576.76
511.12	30712.51
511.30	30572.08
511.47	30529.95
511.64	31012.10
511.82	30876.35
511.99	31098.70
512.17	30813.15
512.34	30984.01
512.51	31541.06
512.69	31503.61
512.86	31168.91
513.04	31555.10
513.21	31721.28
513.38	31700.22
513.56	31915.54
513.73	31924.91
513.90	31613.62
514.08	31622.98
514.25	32098.11
514.43	32449.19
514.60	32041.93
514.77	32606.00
514.95	32257.26
515.12	31894.48
515.29	32528.77
515.47	32814.31
515.64	32582.60
515.81	32676.22
515.99	33001.55
516.16	33141.99
516.33	33193.48
516.51	32781.54
516.68	32840.06
516.85	33057.73
517.03	33514.13
517.20	33670.95
517.37	33450.94
517.54	33858.19
517.72	33897.98
517.89	33521.15
518.06	33427.53
518.24	33556.26
518.41	33574.98
518.58	34005.64
518.75	33944.79
518.93	34663.33
519.10	34286.51
519.27	34593.12
519.45	33949.47
519.62	34330.98
519.79	34398.85
519.96	34567.37
520.14	34792.06
520.31	34581.42
520.48	34974.63
520.65	34778.02
520.83	35145.48
521.00	35267.19
521.17	35047.18
521.34	34614.18
521.52	35131.44
521.69	35468.48
521.86	35716.58
522.03	35442.73
522.20	35761.05
522.38	35534.01
522.55	35438.05
522.72	35770.41
522.89	35669.76
523.07	36065.31
523.24	35901.48
523.41	36280.64
523.58	35913.18
523.75	36158.94
523.92	35824.24
524.10	36428.10
524.27	36341.50
524.44	36620.02
524.61	36624.70
524.78	36938.33
524.96	36596.62
525.13	36666.83
525.30	36767.48
525.47	36638.75
525.64	36931.31
525.81	37139.62
525.98	37324.52
526.16	37446.23
526.33	37446.23
526.50	37455.59
526.67	37024.93
526.84	37366.65
527.01	37029.62
527.18	37455.59
527.36	37897.95
527.53	37656.88
527.70	38022.00
527.87	38202.22
528.04	37263.67
528.21	37783.27
528.38	37963.49
528.55	38026.68
528.72	37713.05
528.89	38122.65
529.07	38211.59
529.24	38209.25
529.41	38534.58
529.58	38216.27
529.75	38139.03
529.92	38630.54
530.09	38801.40
530.26	38326.27
530.43	38733.53
530.60	38426.92
530.77	38314.57
530.94	38707.78
531.11	38525.22
531.28	38092.22
531.46	39189.93
531.63	39173.55
531.80	38883.32
531.97	39461.43
532.14	39342.06
532.31	38976.94
532.48	39243.76
532.65	39236.74
532.82	39152.48
532.99	39154.82
533.16	39744.64
533.33	40013.80
533.50	39693.15
533.67	39978.69
533.84	39665.06
534.01	39337.38
534.18	39634.63
534.35	39517.60
534.52	39468.45
534.69	39864.00
534.86	40509.99
535.03	40112.10
535.20	40507.65
535.37	40154.23
535.54	40348.50
535.71	39917.84
535.88	40327.43
536.05	40219.77
536.22	40399.99
536.38	40587.23
536.55	40678.51
536.72	40973.42
536.89	40697.24
537.06	40306.37
537.23	41104.49
537.40	40615.32
537.57	40800.22
537.74	41006.19
537.91	41195.77
538.08	41401.74
538.25	40877.46
538.42	40957.03
538.59	41251.94
538.75	40657.45
538.92	41074.06
539.09	41481.31
539.26	41907.29
539.43	41345.56
539.60	41490.68
539.77	41647.49
539.94	41228.54
540.11	41813.67
540.28	41619.41
540.44	41780.90
540.61	41715.37
540.78	41780.90
540.95	41890.91
541.12	42199.86
541.29	42368.38
541.46	42277.10
541.62	42127.30
541.79	42431.57
541.96	42342.63
542.13	41935.38
542.30	42373.06
542.47	42653.92
542.63	42513.49
542.80	42916.06
542.97	42611.79
543.14	43330.34
543.31	42548.60
543.48	42501.79
543.64	43292.89
543.81	43372.47
543.98	43351.40
544.15	43285.87
544.32	43250.76
544.48	43842.92
544.65	43548.01
544.82	43217.99
544.99	42763.93
545.16	42941.81
545.32	43182.88
545.49	43964.62
545.66	44744.02
545.83	44641.04
546.00	44566.14
546.16	44247.83
546.33	43880.36
546.50	43316.29
546.67	43475.45
546.83	43302.25
547.00	43613.54
547.17	43688.44
547.34	43489.49
547.50	43810.15
547.67	44126.12
547.84	43779.72
548.00	43863.98
548.17	44060.58
548.34	43917.81
548.51	44505.29
548.67	44018.46
548.84	43969.30
549.01	44245.49
549.18	44016.11
549.34	44170.59
549.51	44418.69
549.68	44088.67
549.84	43861.64
550.01	43885.04
550.18	44107.40
550.34	44322.72
550.51	44584.86
550.68	44559.12
550.84	44341.45
551.01	44208.04
551.18	44156.55
551.34	44142.50
551.51	44072.29
551.68	44318.04
551.84	44823.60
552.01	44177.61
552.18	44608.27
552.34	44334.43
552.51	45038.93
552.68	44755.72
552.84	45270.64
553.01	44685.51
553.18	44858.71
553.34	44839.98
553.51	45067.02
553.67	45106.80
553.84	45003.82
554.01	45198.09
554.17	45120.85
554.34	45399.37
554.51	45067.02
554.67	45041.27
554.84	45291.71
555.00	44980.42
555.17	45698.96
555.33	45055.31
555.50	45340.86
555.67	44755.72
555.83	45120.85
556.00	45207.45
556.16	45792.58
556.33	45265.96
556.50	45298.73
556.66	45626.40
556.83	45490.65
556.99	45815.99
557.16	45673.21
557.32	45703.64
557.49	46028.98
557.65	45230.85
557.82	45741.09
557.98	45684.92
558.15	45549.17
558.32	46263.03
558.48	45750.45
558.65	45673.21
558.81	45677.90
558.98	45762.15
559.14	45947.06
559.31	45790.24
559.47	45862.80
559.64	45455.54
559.80	46078.13
559.97	46223.24
560.13	45858.12
560.30	45918.97
560.46	45776.20
560.63	45951.74
560.79	46363.67
560.96	46422.19
561.12	46120.26
561.29	45965.78
561.45	46382.40
561.61	46518.15
561.78	46307.50
561.94	46251.33
562.11	46272.39
562.27	45830.03
562.44	46490.06
562.60	46281.75
562.77	46291.12
562.93	46192.81
563.10	46593.04
563.26	46115.58
563.42	46862.21
563.59	46146.00
563.75	46043.02
563.92	46621.13
564.08	46225.58
564.24	46440.91
564.41	46534.53
564.57	46415.16
564.74	46366.01
564.90	46550.91
565.07	46579.00
565.23	46981.57
565.39	46349.63
565.56	46527.51
565.72	46216.22
565.88	46887.95
566.05	46153.02
566.21	46712.41
566.38	46387.08
566.54	46618.79
566.70	46637.51
566.87	46871.57
567.03	46916.04
567.19	46820.08
567.36	46955.83
567.52	46696.03
567.68	46499.42
567.85	46298.14
568.01	46674.96
568.17	46508.79
568.34	46660.92
568.50	46567.30
568.66	46878.59
568.83	47056.47
568.99	46759.22
569.15	47058.81
569.32	46820.08
569.48	46632.83
569.64	47049.45
569.81	46845.82
569.97	46703.05
570.13	47367.76
570.30	46841.14
570.46	47372.44
570.62	47089.24
570.78	46738.16
570.95	46595.38
571.11	46569.64
571.27	46749.86
571.43	46841.14
571.60	46796.67
571.76	46878.59
571.92	46822.42
572.09	47299.89
572.25	47295.21
572.41	47075.19
572.57	47063.49
572.74	47262.44
572.90	47042.43
573.06	46878.59
573.22	47002.64
573.38	47054.13
573.55	46979.23
573.71	47578.41
573.87	47459.04
574.03	47292.86
574.20	47393.51
574.36	47257.76
574.52	47075.19
574.68	47000.30
574.84	47213.29
575.01	47276.48
575.17	47234.35
575.33	47061.15
575.49	46761.56
575.65	47365.42
575.82	47159.45
575.98	47175.84
576.14	47159.45
576.30	47058.81
576.46	47058.81
576.62	47255.42
576.79	47164.14
576.95	46880.93
577.11	47367.76
577.27	47433.30
577.43	47248.39
577.59	47412.23
577.75	47129.03
577.92	46965.19
578.08	46983.91
578.24	46988.60
578.40	47180.52
578.56	47873.32
578.72	47402.87
578.88	47739.91
579.04	47227.33
579.21	47201.58
579.37	47559.69
579.53	47325.63
579.69	47224.99
579.85	47320.95
580.01	46808.37
580.17	47199.24
580.33	47152.43
580.49	47718.84
580.65	47700.12
580.82	47276.48
580.98	47452.02
581.14	47089.24
581.30	47402.87
581.46	47327.97
581.62	47421.59
581.78	47292.86
581.94	47517.56
582.10	47068.17
582.26	47564.37
582.42	47414.57
582.58	47674.37
582.74	47243.71
582.90	47372.44
583.06	47377.12
583.22	47466.06
583.38	47634.58
583.54	47042.43
583.70	47419.25
583.86	47419.25
584.02	47484.79
584.18	47618.20
584.34	47798.42
584.50	47618.20
584.66	47522.24
584.82	47257.76
584.98	47353.72
585.14	47398.19
585.30	47246.05
585.46	47409.89
585.62	47255.42
585.78	47367.76
585.94	47423.93
586.10	47894.38
586.26	47856.93
586.42	48102.69
586.58	47866.30
586.74	47112.64
586.90	47496.49
587.06	47290.52
587.22	47875.66
587.38	47569.05
587.54	47337.33
587.70	48069.92
587.86	47695.44
588.02	47594.79
588.18	48121.41
588.34	47711.82
588.49	47646.29
588.65	47339.68
588.81	48034.81
588.97	47210.95
589.13	47597.13
589.29	47814.80
589.45	47852.25
589.61	47501.17
589.77	47863.96
589.93	48353.13
590.08	48004.39
590.24	47810.12
590.40	47894.38
590.56	47700.12
590.72	47363.08
