SpectraSuite Data File
++++++++++++++++++++++++++++++++++++
Date: Fri Oct 04 11:39:31 GMT-05:00 2013
User: price-jones
Dark Spectrum Present: No
Reference Spectrum Present: No
Number of Sampled Component Spectra: 1
Spectrometers: USB2+H05261
Integration Time (usec): 100000 (USB2+H05261)
Spectra Averaged: 1 (USB2+H05261)
Boxcar Smoothing: 0 (USB2+H05261)
Correct for Electrical Dark: No (USB2+H05261)
Strobe/Lamp Enabled: No (USB2+H05261)
Correct for Detector Non-linearity: No (USB2+H05261)
Correct for Stray Light: No (USB2+H05261)
Number of Pixels in Processed Spectrum: 2048
>>>>>Begin Processed Spectral Data<<<<<
365.73	18.72
365.92	18.72
366.12	18.72
366.32	0.00
366.52	0.00
366.72	46.81
366.91	0.00
367.11	0.00
367.31	0.00
367.51	0.00
367.70	0.00
367.90	0.00
368.10	0.00
368.30	0.00
368.49	0.00
368.69	0.00
368.89	21.06
369.09	0.00
369.28	0.00
369.48	0.00
369.68	18.72
369.87	0.00
370.07	0.00
370.27	0.00
370.47	77.24
370.66	266.82
370.86	271.50
371.06	355.76
371.25	325.33
371.45	255.12
371.65	337.04
371.84	304.27
372.04	278.52
372.24	332.36
372.44	290.23
372.63	362.78
372.83	367.46
373.03	318.31
373.22	379.17
373.42	353.42
373.62	362.78
373.81	400.23
374.01	472.79
374.21	430.66
374.40	411.93
374.60	416.62
374.79	414.27
374.99	442.36
375.19	411.93
375.38	414.27
375.58	395.55
375.78	482.15
375.97	486.83
376.17	472.79
376.37	400.23
376.56	395.55
376.76	404.91
376.95	456.40
377.15	468.11
377.35	449.38
377.54	425.98
377.74	376.83
377.93	500.87
378.13	444.70
378.33	477.47
378.52	496.19
378.72	444.70
378.91	493.85
379.11	362.78
379.31	416.62
379.50	543.00
379.70	451.72
379.89	458.74
380.09	402.57
380.28	465.77
380.48	486.83
380.68	465.77
380.87	482.15
381.07	468.11
381.26	540.66
381.46	512.58
381.65	463.43
381.85	430.66
382.04	500.87
382.24	535.98
382.43	477.47
382.63	411.93
382.83	540.66
383.02	620.24
383.22	503.22
383.41	496.19
383.61	557.05
383.80	531.30
384.00	557.05
384.19	543.00
384.39	489.17
384.58	526.62
384.78	585.13
384.97	514.92
385.17	559.39
385.36	540.66
385.56	573.43
385.75	634.29
385.95	552.37
386.14	608.54
386.34	573.43
386.53	627.26
386.72	479.81
386.92	650.67
387.11	624.92
387.31	535.98
387.50	573.43
387.70	641.31
387.89	671.73
388.09	751.31
388.28	575.77
388.48	641.31
388.67	727.91
388.86	594.50
389.06	667.05
389.25	636.63
389.45	704.50
389.64	622.58
389.84	704.50
390.03	711.52
390.22	723.23
390.42	592.16
390.61	674.07
390.81	662.37
391.00	685.78
391.19	650.67
391.39	718.54
391.58	697.48
391.78	695.14
391.97	744.29
392.16	681.10
392.36	671.73
392.55	683.44
392.75	760.67
392.94	793.44
393.13	784.08
393.33	744.29
393.52	837.91
393.71	734.93
393.91	760.67
394.10	765.36
394.29	748.97
394.49	763.01
394.68	901.11
394.88	868.34
395.07	851.96
395.26	943.24
395.46	877.70
395.65	922.17
395.84	903.45
396.04	933.87
396.23	901.11
396.42	882.38
396.62	952.60
396.81	938.55
397.00	945.58
397.19	826.21
397.39	875.36
397.58	1006.43
397.77	924.51
397.97	1004.09
398.16	903.45
398.35	1018.13
398.55	966.64
398.74	947.92
398.93	1034.52
399.12	1032.18
399.32	1034.52
399.51	1004.09
399.70	1086.01
399.90	1004.09
400.09	1022.81
400.28	1196.01
400.47	1074.31
400.67	1181.97
400.86	1081.33
401.05	1088.35
401.24	1123.46
401.44	1156.22
401.63	1146.86
401.82	1235.80
402.01	1158.57
402.21	1203.04
402.40	1324.74
402.59	1210.06
402.78	1315.38
402.97	1336.45
403.17	1259.21
403.36	1306.02
403.55	1228.78
403.74	1371.55
403.93	1423.05
404.13	1416.02
404.32	1345.81
404.51	1366.87
404.70	1376.24
404.89	1355.17
405.09	1467.52
405.28	1434.75
405.47	1455.81
405.66	1423.05
405.85	1455.81
406.05	1488.58
406.24	1544.75
406.43	1528.37
406.62	1497.94
406.81	1675.82
407.00	1619.65
407.20	1589.22
407.39	1579.86
407.58	1570.50
407.77	1554.12
407.96	1743.70
408.15	1694.55
408.34	1575.18
408.54	1636.03
408.73	1816.26
408.92	1724.97
409.11	1870.09
409.30	1788.17
409.49	1753.06
409.68	1746.04
409.87	1872.43
410.07	1921.58
410.26	1872.43
410.45	1935.62
410.64	1895.83
410.83	1926.26
411.02	1926.26
411.21	2001.16
411.40	2017.54
411.59	2071.37
411.78	2064.35
411.98	2064.35
412.17	2101.80
412.36	2108.82
412.55	2193.08
412.74	2256.28
412.93	2258.62
413.12	2183.72
413.31	2284.36
413.50	2335.85
413.69	2368.62
413.88	2347.56
414.07	2401.39
414.26	2293.72
414.45	2406.07
414.64	2368.62
414.83	2431.82
415.02	2445.86
415.22	2431.82
415.41	2621.40
415.60	2539.48
415.79	2656.51
415.98	2759.49
416.17	2623.74
416.36	2672.89
416.55	2651.83
416.74	2771.19
416.93	2724.38
417.12	2867.16
417.31	2747.79
417.50	2808.64
417.69	2832.05
417.88	2895.24
418.07	2869.50
418.26	3063.76
418.45	2977.16
418.64	3061.42
418.83	3009.93
419.02	3103.55
419.21	3080.14
419.39	3124.62
419.58	3194.83
419.77	3101.21
419.96	3054.40
420.15	3246.32
420.34	3225.26
420.53	3288.45
420.72	3206.53
420.91	3201.85
421.10	3236.96
421.29	3405.48
421.48	3241.64
421.67	3463.99
421.86	3234.62
422.05	3241.64
422.24	3239.30
422.43	3267.39
422.61	3506.12
422.80	3391.44
422.99	3456.97
423.18	3407.82
423.37	3550.59
423.56	3485.06
423.75	3428.88
423.94	3478.04
424.13	3241.64
424.32	3440.59
424.50	3480.38
424.69	3531.87
424.88	3637.19
425.07	3456.97
425.26	3459.31
425.45	3564.64
425.64	3466.33
425.83	3562.30
426.01	3531.87
426.20	3520.17
426.39	3482.72
426.58	3559.95
426.77	3630.17
426.96	3588.04
427.15	3623.15
427.33	3609.11
427.52	3651.24
427.71	3747.20
427.90	3676.98
428.09	3845.50
428.28	3639.53
428.46	3749.54
428.65	3803.37
428.84	3868.91
429.03	3882.95
429.22	3705.07
429.40	3747.20
429.59	3861.88
429.78	3749.54
429.97	3679.32
430.16	3749.54
430.34	3929.76
430.53	4030.40
430.72	4030.40
430.91	4065.51
431.10	4058.49
431.28	3978.91
431.47	4070.19
431.66	4086.58
431.85	3934.44
432.03	4187.22
432.22	4329.99
432.41	4269.14
432.60	4177.86
432.79	3929.76
432.97	4203.60
433.16	4388.50
433.35	4243.39
433.54	4205.94
433.72	4325.31
433.91	4283.18
434.10	4257.43
434.28	4372.12
434.47	4402.55
434.66	4451.70
434.85	4524.26
435.03	4596.81
435.22	4678.73
435.41	4959.60
435.59	4858.95
435.78	4709.16
435.97	4629.58
436.16	4587.45
436.34	4456.38
436.53	4615.54
436.72	4795.76
436.90	4524.26
437.09	4758.31
437.28	4571.07
437.46	4762.99
437.65	4732.56
437.84	4744.27
438.02	4692.77
438.21	4704.48
438.40	4692.77
438.58	4964.28
438.77	4980.66
438.96	4723.20
439.14	4945.55
439.33	5057.90
439.52	4985.34
439.70	5093.01
439.89	5249.82
440.08	5149.18
440.26	5139.82
440.45	5179.61
440.63	5327.06
440.82	5366.85
441.01	5200.67
441.19	5371.53
441.38	5547.07
441.57	5294.29
441.75	5544.73
441.94	5638.35
442.12	5549.41
442.31	5624.31
442.50	5818.57
442.68	5720.27
442.87	5788.14
443.05	5762.40
443.24	5863.04
443.43	5797.51
443.61	5893.47
443.80	5940.28
443.98	5750.70
444.17	5596.22
444.35	5984.75
444.54	5996.45
444.73	5961.34
444.91	6015.18
445.10	5923.90
445.28	5863.04
445.47	5813.89
445.65	5989.43
445.84	6012.84
446.02	6193.06
446.21	5949.64
446.39	5820.91
446.58	5916.87
446.77	5942.62
446.95	5858.36
447.14	5834.96
447.32	6094.76
447.51	5919.21
447.69	5916.87
447.88	6001.13
448.06	5996.45
448.25	6043.26
448.43	6157.95
448.62	6057.31
448.80	6047.94
448.99	6076.03
449.17	6078.37
449.36	6120.50
449.54	6202.42
449.73	6218.80
449.91	6265.61
450.10	6354.55
450.28	6382.64
450.46	6363.92
450.65	6424.77
450.83	6438.81
451.02	6502.01
451.20	6532.44
451.39	6415.41
451.57	6473.92
451.76	6375.62
451.94	6464.56
452.13	6546.48
452.31	6541.80
452.49	6448.18
452.68	6469.24
452.86	6499.67
453.05	6604.99
453.23	6752.45
453.42	6494.99
453.60	6590.95
453.78	6616.69
453.97	6747.76
454.15	6754.79
454.34	6623.72
454.52	6607.33
454.70	6576.91
454.89	6656.48
455.07	6927.99
455.26	7033.31
455.44	7012.24
455.62	6874.15
455.81	7080.12
455.99	6995.86
456.17	7047.35
456.36	6927.99
456.54	7194.81
456.73	7061.40
456.91	7148.00
457.09	7389.07
457.28	7283.75
457.46	7283.75
457.64	7384.39
457.83	7384.39
458.01	7176.08
458.19	7417.16
458.38	7349.28
458.56	7417.16
458.74	7470.99
458.93	7440.56
459.11	7475.67
459.29	7461.63
459.48	7641.85
459.66	7550.57
459.84	7655.89
460.03	7777.60
460.21	7847.82
460.39	7693.34
460.57	7555.25
460.76	7793.98
460.94	7754.19
461.12	7735.47
461.31	7712.07
461.49	7784.62
461.67	7805.69
461.85	8184.85
462.04	7793.98
462.22	8182.51
462.40	8079.53
462.59	7943.78
462.77	8013.99
462.95	8002.29
463.13	7932.08
463.32	8028.04
463.50	7953.14
463.68	8124.00
463.86	8145.06
464.05	8175.49
464.23	8159.11
464.41	8236.35
464.59	8109.96
464.78	8414.23
464.96	8367.42
465.14	8329.97
465.32	8393.16
465.50	8411.89
465.69	8421.25
465.87	8407.20
466.05	8449.33
466.23	8320.60
466.41	8498.49
466.60	8725.52
466.78	8486.78
466.96	8454.02
467.14	8369.76
467.32	8510.19
467.51	8657.64
467.69	8308.90
467.87	8617.85
468.05	8622.53
468.23	8669.34
468.41	8716.16
468.60	8629.56
468.78	8943.19
468.96	8713.81
469.14	8929.14
469.32	9069.58
469.50	8753.60
469.69	9146.81
469.87	9118.73
470.05	9043.83
470.23	9109.36
470.41	8959.57
470.59	9233.41
470.77	9004.04
470.95	9212.35
471.14	9226.39
471.32	9205.33
471.50	9549.39
471.68	9589.17
471.86	9514.28
472.04	9518.96
472.22	9593.86
472.40	9448.74
472.58	9638.33
472.77	9537.68
472.95	9579.81
473.13	10153.24
473.31	9624.28
473.49	9710.88
473.67	9643.01
473.85	9881.74
474.03	10148.56
474.21	10061.96
474.39	10349.85
474.57	10253.89
474.75	9933.23
474.93	10345.17
475.12	10349.85
475.30	10281.97
475.48	10459.85
475.66	10607.31
475.84	10399.00
476.02	10492.62
476.20	10509.01
476.38	10768.80
476.56	10953.71
476.74	10850.72
476.92	10801.57
477.10	10789.87
477.28	11101.16
477.46	11101.16
477.64	11030.94
477.82	11449.90
478.00	11571.61
478.18	11569.27
478.36	11838.43
478.54	11775.24
478.72	11791.62
478.90	11992.90
479.08	11974.18
479.26	12250.36
479.44	12191.85
479.62	12339.30
479.80	12222.28
479.98	12299.52
480.16	12718.47
480.34	12404.84
480.52	12732.51
480.70	12802.73
480.88	12507.82
481.06	12849.54
481.24	12884.65
481.41	13046.15
481.59	13167.85
481.77	13165.51
481.95	13521.27
482.13	13804.48
482.31	13294.24
482.49	13809.16
482.67	13823.20
482.85	13975.34
483.03	14066.62
483.21	14127.47
483.39	14448.13
483.57	14080.66
483.74	14555.79
483.92	14520.68
484.10	14434.08
484.28	14967.73
484.46	15304.76
484.64	15250.93
484.82	15108.16
485.00	15236.89
485.18	15461.58
485.35	15889.90
485.53	15604.35
485.71	15655.84
485.89	15747.12
486.07	16070.12
486.25	15988.20
486.43	15936.71
486.61	16341.62
486.78	16215.23
486.96	16400.13
487.14	16695.04
487.32	16730.15
487.50	16901.01
487.68	16950.16
487.85	17165.49
488.03	17390.18
488.21	17642.96
488.39	17624.23
488.57	17481.46
488.75	17907.44
488.92	18200.01
489.10	18270.22
489.28	18211.71
489.46	18574.49
489.64	18427.04
489.81	18684.50
489.99	18965.36
490.17	18710.24
490.35	18979.40
490.53	19012.17
490.70	19527.09
490.88	19407.72
491.06	19470.92
491.24	19594.96
491.41	19669.86
491.59	19946.05
491.77	19857.10
491.95	20142.65
492.13	20554.58
492.30	20088.82
492.48	20336.91
492.66	20673.95
492.84	20629.48
493.01	20868.22
493.19	21032.05
493.37	21078.86
493.54	21378.45
493.72	21504.84
493.90	21235.68
494.08	21699.11
494.25	21923.80
494.43	21944.86
494.61	22155.51
494.79	22118.06
494.96	21994.01
495.14	22291.26
495.32	22539.36
495.49	22431.69
495.67	22511.27
495.85	22530.00
496.02	22782.77
496.20	22726.60
496.38	22808.52
496.55	23213.43
496.73	23709.63
496.91	23424.08
497.09	23669.84
497.26	23751.76
497.44	23531.75
497.62	23625.37
497.79	23957.72
497.97	23674.52
498.14	24381.36
498.32	24414.13
498.50	24535.84
498.67	24961.81
498.85	24596.69
499.03	24982.88
499.20	24790.95
499.38	24922.02
499.56	24959.47
499.73	25191.19
499.91	25406.52
500.08	25736.53
500.26	25261.40
500.44	25685.04
500.61	25565.67
500.79	25745.89
500.97	25790.36
501.14	26256.13
501.32	26118.04
501.49	26221.02
501.67	26157.83
501.84	26082.93
502.02	26216.34
502.20	26408.26
502.37	26389.54
502.55	26555.72
502.72	26721.90
502.90	26890.41
503.07	26890.41
503.25	27098.72
503.43	26682.11
503.60	27192.34
503.78	27325.75
503.95	27213.41
504.13	27447.46
504.30	27417.04
504.48	27274.26
504.65	27868.76
504.83	28100.47
505.01	27910.89
505.18	28088.77
505.36	28301.76
505.53	28261.97
505.71	28299.42
505.88	28095.79
506.06	28121.54
506.23	28556.88
506.41	28563.90
506.58	28828.38
506.76	28657.52
506.93	28863.49
507.11	28175.37
507.28	29064.77
507.46	28985.19
507.63	28907.96
507.81	29598.41
507.98	29390.11
508.16	29078.82
508.33	29319.89
508.50	29237.97
508.68	29537.56
508.85	29708.42
509.03	29685.01
509.20	29755.23
509.38	30188.23
509.55	30157.80
509.73	30270.15
509.90	30239.72
510.08	30122.69
510.25	30658.68
510.42	30366.11
510.60	30485.48
510.77	30553.35
510.95	31285.94
511.12	30862.30
511.30	30705.49
511.47	30614.21
511.64	30962.95
511.82	30993.37
511.99	31365.52
512.17	31002.74
512.34	31498.93
512.51	31838.31
512.69	31267.22
512.86	31812.56
513.04	31997.46
513.21	32128.53
513.38	31892.14
513.56	31737.66
513.73	31697.88
513.90	32048.96
514.08	31945.97
514.25	32009.17
514.43	32442.17
514.60	32130.87
514.77	32114.49
514.95	32914.95
515.12	32940.70
515.29	32191.73
515.47	32589.62
515.64	33116.24
515.81	32758.14
515.99	33088.15
516.16	33357.32
516.33	33338.59
516.51	33242.63
516.68	33097.52
516.85	33516.47
517.03	33516.47
517.20	33762.23
517.37	33565.62
517.54	33701.37
517.72	34120.33
517.89	33457.96
518.06	33989.26
518.24	33539.88
518.41	34333.32
518.58	33937.77
518.75	34220.97
518.93	34506.52
519.10	34113.31
519.27	34218.63
519.45	34146.08
519.62	34630.57
519.79	34174.16
519.96	34892.71
520.14	34440.98
520.31	34462.05
520.48	34988.67
520.65	34553.33
520.83	35302.30
521.00	35288.26
521.17	35367.84
521.34	34998.03
521.52	35477.84
521.69	35339.75
521.86	35662.74
522.03	35171.23
522.20	35536.35
522.38	36273.62
522.55	35538.69
522.72	35929.56
522.89	35730.62
523.07	35896.80
523.24	36079.36
523.41	36231.49
523.58	36009.14
523.75	36322.77
523.92	36060.63
524.10	35950.63
524.27	36121.49
524.44	36549.81
524.61	36851.73
524.78	36849.39
524.96	36701.94
525.13	36734.71
525.30	36692.58
525.47	36840.03
525.64	36577.89
525.81	37071.75
525.98	37062.38
526.16	37240.26
526.33	37177.07
526.50	37640.50
526.67	37212.18
526.84	37226.22
527.01	37350.27
527.18	37481.34
527.36	37631.13
527.53	37703.69
527.70	37717.73
527.87	38073.49
528.04	37701.35
528.21	37996.26
528.38	37647.52
528.55	37612.41
528.72	37940.08
528.89	38267.76
529.07	38258.40
529.24	37764.54
529.41	38192.86
529.58	38071.15
529.75	38178.82
529.92	38693.74
530.09	37816.04
530.26	38473.73
530.43	38141.37
530.60	38557.99
530.77	38478.41
530.94	38628.20
531.11	38735.87
531.28	38438.62
531.46	38527.56
531.63	38632.88
531.80	39077.58
531.97	39246.10
532.14	38953.54
532.31	38913.75
532.48	38738.21
532.65	39669.74
532.82	39049.50
532.99	39248.44
533.16	39051.84
533.33	39524.63
533.50	39730.59
533.67	39585.48
533.84	39133.76
534.01	39505.90
534.18	39316.32
534.35	39849.96
534.52	39164.18
534.69	39976.35
534.86	39639.31
535.03	40037.20
535.20	40247.85
535.37	39838.26
535.54	40144.87
535.71	39934.22
535.88	39835.92
536.05	40025.50
536.22	40399.99
536.38	40428.07
536.55	40533.40
536.72	40243.17
536.89	40322.75
537.06	40271.26
537.23	40587.23
537.40	40765.11
537.57	40966.40
537.74	40484.25
537.91	40760.43
538.08	40699.58
538.25	40783.83
538.42	40730.00
538.59	40882.14
538.75	40479.57
538.92	40730.00
539.09	41076.40
539.26	41006.19
539.43	41095.13
539.60	41134.92
539.77	41137.26
539.94	41460.25
540.11	41092.79
540.28	41923.68
540.44	41600.68
540.61	41287.05
540.78	41759.84
540.95	41319.82
541.12	41408.76
541.29	41567.91
541.46	41951.76
541.62	41916.65
541.79	42532.22
541.96	41490.68
542.13	41804.31
542.30	42436.25
542.47	42738.18
542.63	42375.40
542.80	42103.90
542.97	42726.48
543.14	42616.47
543.31	42787.33
543.48	42445.62
543.64	43213.31
543.81	42674.99
543.98	42726.48
544.15	42911.38
544.32	42923.08
544.48	43203.95
544.65	43000.32
544.82	42651.58
544.99	42450.30
545.16	42693.71
545.32	43152.46
545.49	44135.48
545.66	44116.76
545.83	44208.04
546.00	44222.08
546.16	43388.85
546.33	43086.92
546.50	42801.38
546.67	42930.11
546.83	43129.05
547.00	43295.23
547.17	43112.67
547.34	43711.84
547.50	43842.92
547.67	43812.49
547.84	43398.21
548.00	43384.17
548.17	43665.03
548.34	43407.58
548.51	43597.16
548.67	43531.62
548.84	44093.35
549.01	43615.88
549.18	43971.64
549.34	43529.28
549.51	43873.34
549.68	43894.41
549.84	43548.01
550.01	44004.41
550.18	43983.35
550.34	43903.77
550.51	43716.53
550.68	44137.82
550.84	43494.18
551.01	43814.83
551.18	43721.21
551.34	43613.54
551.51	43882.70
551.68	44060.58
551.84	43969.30
552.01	43917.81
552.18	44112.08
552.34	43842.92
552.51	44371.88
552.68	44112.08
552.84	43973.98
553.01	44341.45
553.18	44266.55
553.34	44451.45
553.51	44406.98
553.67	44226.76
553.84	44889.13
554.01	44411.67
554.17	44245.49
554.34	44442.09
554.51	44322.72
554.67	44161.23
554.84	44725.30
555.00	44802.53
555.17	44219.74
555.33	45350.22
555.50	44800.19
555.67	44814.24
555.83	44535.71
556.00	44479.54
556.16	45050.63
556.33	44631.68
556.50	44657.42
556.66	44863.39
556.83	44760.40
556.99	44900.84
557.16	45340.86
557.32	45322.13
557.49	45167.66
557.65	44690.19
557.82	45010.84
557.98	44545.08
558.15	44851.69
558.32	45022.54
558.48	44924.24
558.65	44926.58
558.81	45216.81
558.98	45186.38
559.14	45071.70
559.31	44542.74
559.47	44933.60
559.64	45427.46
559.80	45298.73
559.97	45368.94
560.13	44790.83
560.30	45485.97
560.46	45546.82
560.63	45303.41
560.79	45476.61
560.96	45626.40
561.12	45319.79
561.29	45343.20
561.45	45614.70
561.61	45387.67
561.78	45715.34
561.94	45848.75
562.11	45467.25
562.27	45434.48
562.44	45638.11
562.60	45294.05
562.77	45521.08
562.93	45055.31
563.10	45539.80
563.26	45308.09
563.42	46129.62
563.59	45474.27
563.75	45790.24
563.92	45504.70
564.08	45441.50
564.24	45083.40
564.41	45780.88
564.57	45771.52
564.74	45673.21
564.90	45462.57
565.07	45544.48
565.23	46199.83
565.39	45928.33
565.56	45588.95
565.72	45560.87
565.88	45745.77
566.05	45872.16
566.21	45584.27
566.38	45839.39
566.54	45911.95
566.70	46050.04
566.87	45869.82
567.03	45902.59
567.19	46272.39
567.36	45748.11
567.52	45975.14
567.68	45811.31
567.85	45516.40
568.01	45605.34
568.17	45942.38
568.34	45823.01
568.50	46171.75
568.66	45689.60
568.83	46064.08
568.99	45865.14
569.15	46019.61
569.32	45888.54
569.48	45209.79
569.64	45720.02
569.81	45663.85
569.97	45535.12
570.13	46146.00
570.30	45947.06
570.46	46260.69
570.62	45947.06
570.78	46064.08
570.95	45682.58
571.11	46094.51
571.27	45703.64
571.43	45626.40
571.60	45839.39
571.76	45820.67
571.92	46223.24
572.09	46265.37
572.25	45776.20
572.41	45624.06
572.57	46082.81
572.74	46527.51
572.90	46078.13
573.06	46129.62
573.22	46206.86
573.38	46230.26
573.55	46082.81
573.71	46571.98
573.87	46646.88
574.03	46028.98
574.20	45682.58
574.36	45916.63
574.52	45766.84
574.68	45865.14
574.84	46564.96
575.01	46000.89
575.17	46096.85
575.33	46005.57
575.49	46202.18
575.65	46396.44
575.82	46064.08
575.98	46248.99
576.14	46525.17
576.30	46328.56
576.46	46141.32
576.62	46078.13
576.79	46202.18
576.95	45846.41
577.11	45930.67
577.27	46436.23
577.43	45876.84
577.59	46342.61
577.75	46171.75
577.92	45656.83
578.08	45869.82
578.24	46061.74
578.40	46127.28
578.56	46651.56
578.72	46349.63
578.88	46639.86
579.04	46347.29
579.21	45862.80
579.37	46101.53
579.53	46375.37
579.69	45771.52
579.85	45951.74
580.01	46176.43
580.17	46099.19
580.33	45748.11
580.49	46108.55
580.65	46529.85
580.82	46375.37
580.98	46124.94
581.14	46218.56
581.30	46204.52
581.46	45677.90
581.62	45886.20
581.78	46131.96
581.94	46117.92
582.10	45783.22
582.26	46405.80
582.42	46256.01
582.58	46234.94
582.74	46398.78
582.90	46763.90
583.06	46433.89
583.22	46239.62
583.38	45951.74
583.54	46036.00
583.70	46071.10
583.86	46307.50
584.02	45993.87
584.18	46520.49
584.34	46597.73
584.50	46382.40
584.66	46281.75
584.82	46059.40
584.98	46469.00
585.14	46588.36
585.30	45923.65
585.46	46092.17
585.62	45769.18
585.78	46698.37
585.94	46047.70
586.10	46417.50
586.26	46160.05
586.42	46724.11
586.58	46366.01
586.74	46094.51
586.90	46038.34
587.06	46220.90
587.22	46335.59
587.38	45825.35
587.54	46148.34
587.70	46403.46
587.86	46450.27
588.02	46497.08
588.18	46749.86
588.34	46314.52
588.49	46209.20
588.65	46010.25
588.81	46185.79
588.97	46071.10
589.13	46096.85
589.29	46204.52
589.45	46387.08
589.61	46377.72
589.77	46864.55
589.93	46316.86
590.08	46686.67
590.24	46560.28
590.40	45968.12
590.56	46569.64
590.72	46506.44
