SpectraSuite Data File
++++++++++++++++++++++++++++++++++++
Date: Fri Oct 04 11:39:43 GMT-05:00 2013
User: price-jones
Dark Spectrum Present: No
Reference Spectrum Present: No
Number of Sampled Component Spectra: 1
Spectrometers: USB2+H05261
Integration Time (usec): 100000 (USB2+H05261)
Spectra Averaged: 1 (USB2+H05261)
Boxcar Smoothing: 0 (USB2+H05261)
Correct for Electrical Dark: No (USB2+H05261)
Strobe/Lamp Enabled: No (USB2+H05261)
Correct for Detector Non-linearity: No (USB2+H05261)
Correct for Stray Light: No (USB2+H05261)
Number of Pixels in Processed Spectrum: 2048
>>>>>Begin Processed Spectral Data<<<<<
365.73	0.00
365.92	0.00
366.12	0.00
366.32	0.00
366.52	0.00
366.72	28.09
366.91	0.00
367.11	0.00
367.31	0.00
367.51	0.00
367.70	0.00
367.90	0.00
368.10	0.00
368.30	0.00
368.49	0.00
368.69	0.00
368.89	0.00
369.09	0.00
369.28	0.00
369.48	0.00
369.68	0.00
369.87	0.00
370.07	30.43
370.27	0.00
370.47	105.32
370.66	290.23
370.86	358.10
371.06	393.21
371.25	491.51
371.45	454.06
371.65	456.40
371.84	409.59
372.04	475.13
372.24	470.45
372.44	440.02
372.63	440.02
372.83	519.60
373.03	510.24
373.22	440.02
373.42	486.83
373.62	465.77
373.81	517.26
374.01	500.87
374.21	554.71
374.40	503.22
374.60	535.98
374.79	491.51
374.99	482.15
375.19	533.64
375.38	580.45
375.58	578.11
375.78	596.84
375.97	610.88
376.17	587.47
376.37	674.07
376.56	676.41
376.76	592.16
376.95	557.05
377.15	592.16
377.35	645.99
377.54	648.33
377.74	589.82
377.93	678.76
378.13	650.67
378.33	653.01
378.52	709.18
378.72	596.84
378.91	650.67
379.11	624.92
379.31	664.71
379.50	669.39
379.70	688.12
379.89	748.97
380.09	737.27
380.28	660.03
380.48	788.76
380.68	718.54
380.87	664.71
381.07	641.31
381.26	720.88
381.46	723.23
381.65	688.12
381.85	674.07
382.04	758.33
382.24	760.67
382.43	720.88
382.63	744.29
382.83	767.70
383.02	755.99
383.22	844.93
383.41	819.19
383.61	819.19
383.80	793.44
384.00	868.34
384.19	765.36
384.39	835.57
384.58	774.72
384.78	802.80
384.97	814.51
385.17	868.34
385.36	882.38
385.56	950.26
385.75	800.46
385.95	854.30
386.14	842.59
386.34	912.81
386.53	870.68
386.72	866.00
386.92	805.14
387.11	882.38
387.31	971.32
387.50	952.60
387.70	961.96
387.89	905.79
388.09	1004.09
388.28	919.83
388.48	1004.09
388.67	1025.15
388.86	985.37
389.06	889.40
389.25	945.58
389.45	1011.11
389.64	1008.77
389.84	964.30
390.03	1050.90
390.22	1046.22
390.42	931.53
390.61	1029.84
390.81	985.37
391.00	1071.97
391.19	1074.31
391.39	1053.24
391.58	1107.07
391.78	1013.45
391.97	1057.92
392.16	1116.44
392.36	1142.18
392.55	1177.29
392.75	1130.48
392.94	1121.12
393.13	1207.72
393.33	1139.84
393.52	1076.65
393.71	1231.12
393.91	1207.72
394.10	1245.16
394.29	1329.42
394.49	1144.52
394.68	1233.46
394.88	1235.80
395.07	1334.11
395.26	1235.80
395.46	1240.48
395.65	1383.26
395.84	1329.42
396.04	1437.09
396.23	1240.48
396.42	1313.04
396.62	1373.89
396.81	1324.74
397.00	1348.15
397.19	1437.09
397.39	1406.66
397.58	1406.66
397.77	1416.02
397.97	1371.55
398.16	1423.05
398.35	1500.28
398.55	1535.39
398.74	1465.18
398.93	1603.27
399.12	1455.81
399.32	1558.80
399.51	1462.83
399.70	1495.60
399.90	1535.39
400.09	1563.48
400.28	1631.35
400.47	1591.56
400.67	1565.82
400.86	1593.90
401.05	1764.76
401.24	1629.01
401.44	1776.47
401.63	1710.93
401.82	1619.65
402.01	1755.40
402.21	1823.28
402.40	1762.42
402.59	1687.53
402.78	1788.17
402.97	1804.55
403.17	1797.53
403.36	1827.96
403.55	1921.58
403.74	1905.20
403.93	1919.24
404.13	2015.20
404.32	2094.78
404.51	2003.50
404.70	2062.01
404.89	1912.22
405.09	1942.64
405.28	1975.41
405.47	2172.02
405.66	2153.29
405.85	2033.93
406.05	2038.61
406.24	2139.25
406.43	2113.50
406.62	2108.82
406.81	2153.29
407.00	2218.83
407.20	2090.10
407.39	2108.82
407.58	2230.53
407.77	2244.57
407.96	2193.08
408.15	2188.40
408.34	2286.70
408.54	2286.70
408.73	2356.92
408.92	2361.60
409.11	2399.05
409.30	2368.62
409.49	2277.34
409.68	2403.73
409.87	2464.58
410.07	2438.84
410.26	2466.92
410.45	2623.74
410.64	2572.25
410.83	2572.25
411.02	2593.31
411.21	2633.10
411.40	2693.96
411.59	2808.64
411.78	2717.36
411.98	2736.09
412.17	2874.18
412.36	2813.32
412.55	2953.76
412.74	3042.70
412.93	2928.01
413.12	2862.48
413.31	3005.25
413.50	3000.57
413.69	3075.46
413.88	3138.66
414.07	3019.29
414.26	3162.06
414.45	3157.38
414.64	3155.04
414.83	3213.56
415.02	3236.96
415.22	3393.78
415.41	3370.37
415.60	3382.07
415.79	3403.14
415.98	3520.17
416.17	3473.36
416.36	3531.87
416.55	3599.74
416.74	3569.32
416.93	3571.66
417.12	3620.81
417.31	3672.30
417.50	3632.51
417.69	3904.01
417.88	3829.12
418.07	3880.61
418.26	3702.73
418.45	3740.18
418.64	3999.98
418.83	3990.61
419.02	3913.38
419.21	3967.21
419.39	3962.53
419.58	3929.76
419.77	3957.85
419.96	4016.36
420.15	4109.98
420.34	4002.32
420.53	4044.45
420.72	4131.05
420.91	4170.83
421.10	4266.80
421.29	4184.88
421.48	4219.99
421.67	4175.52
421.86	4283.18
422.05	4344.03
422.24	4435.32
422.43	4269.14
422.61	4404.89
422.80	4379.14
422.99	4475.10
423.18	4425.95
423.37	4491.49
423.56	4332.33
423.75	4299.56
423.94	4379.14
424.13	4154.45
424.32	4292.54
424.50	4547.66
424.69	4519.57
424.88	4554.68
425.07	4332.33
425.26	4360.42
425.45	4500.85
425.64	4454.04
425.83	4486.81
426.01	4498.51
426.20	4545.32
426.39	4578.09
426.58	4491.49
426.77	4648.30
426.96	4587.45
427.15	4594.47
427.33	4557.02
427.52	4765.33
427.71	4833.21
427.90	4702.14
428.09	4716.18
428.28	4720.86
428.46	4765.33
428.65	4793.42
428.84	5029.81
429.03	4917.47
429.22	4821.50
429.40	4882.36
429.59	5144.50
429.78	4723.20
429.97	4739.58
430.16	4905.76
430.34	5076.62
430.53	5048.54
430.72	4980.66
430.91	5083.64
431.10	5013.43
431.28	5090.67
431.47	5193.65
431.66	5331.74
431.85	5364.51
432.03	5362.17
432.22	5526.00
432.41	5303.65
432.60	5331.74
432.79	5343.44
432.97	5451.11
433.16	5507.28
433.35	5275.57
433.54	5420.68
433.72	5565.79
433.91	5533.03
434.10	5448.77
434.28	5432.38
434.47	5577.50
434.66	5767.08
434.85	5778.78
435.03	5720.27
435.22	5951.98
435.41	6314.77
435.59	6286.68
435.78	6101.78
435.97	5851.34
436.16	5816.23
436.34	5923.90
436.53	5949.64
436.72	5947.30
436.90	5916.87
437.09	5947.30
437.28	5832.62
437.46	5933.26
437.65	6078.37
437.84	6223.48
438.02	6230.51
438.21	6340.51
438.40	6134.54
438.58	6326.47
438.77	6555.84
438.96	6438.81
439.14	6394.34
439.33	6377.96
439.52	6530.09
439.70	6595.63
439.89	6661.16
440.08	6689.25
440.26	6623.72
440.45	6710.32
440.63	6836.70
440.82	6759.47
441.01	6731.38
441.19	6993.52
441.38	7059.06
441.57	7007.56
441.75	7056.72
441.94	7213.53
442.12	7286.09
442.31	7494.40
442.50	7379.71
442.68	7342.26
442.87	7360.98
443.05	7211.19
443.24	7480.35
443.43	7389.07
443.61	7372.69
443.80	7646.53
443.98	7447.58
444.17	7328.22
444.35	7463.97
444.54	7625.47
444.73	7559.93
444.91	7581.00
445.10	7637.17
445.28	7597.38
445.47	7595.04
445.65	7667.60
445.84	7534.18
446.02	7754.19
446.21	7822.07
446.39	7749.51
446.58	7524.82
446.77	7669.94
446.95	7632.49
447.14	7665.25
447.32	7873.56
447.51	7857.18
447.69	7822.07
447.88	7618.44
448.06	7751.85
448.25	7510.78
448.43	7859.52
448.62	7854.84
448.80	7838.45
448.99	8035.06
449.17	8121.66
449.36	7943.78
449.54	8175.49
449.73	8060.80
449.91	8194.22
450.10	8250.39
450.28	8358.05
450.46	8210.60
450.65	8205.92
450.83	8409.54
451.02	8266.77
451.20	8161.45
451.39	8463.38
451.57	8542.96
451.76	8400.18
451.94	8360.39
452.13	8573.38
452.31	8503.17
452.49	8608.49
452.68	8290.18
452.86	8351.03
453.05	8519.55
453.23	8592.11
453.42	8540.61
453.60	8561.68
453.78	8779.35
453.97	8631.90
454.15	8573.38
454.34	8585.08
454.52	8821.48
454.70	9043.83
454.89	8821.48
455.07	8870.63
455.26	8929.14
455.44	9057.87
455.62	8992.34
455.81	8891.70
455.99	8999.36
456.17	9085.96
456.36	9142.13
456.54	9174.90
456.73	9266.18
456.91	9404.27
457.09	9455.76
457.28	9582.15
457.46	9345.76
457.64	9664.07
457.83	9671.09
458.01	9561.09
458.19	9540.02
458.38	9511.94
458.56	9872.38
458.74	9762.37
458.93	9708.54
459.11	9713.22
459.29	9898.13
459.48	9802.16
459.66	9809.19
459.84	10050.26
460.03	10078.35
460.21	9968.34
460.39	9998.77
460.57	9848.97
460.76	9825.57
460.94	10328.78
461.12	10167.29
461.31	10218.78
461.49	10190.69
461.67	10073.67
461.85	10485.60
462.04	10466.88
462.22	10958.39
462.40	10382.62
462.59	10588.58
462.77	10251.55
462.95	10604.97
463.13	10665.82
463.32	10567.52
463.50	10731.36
463.68	10651.78
463.86	10656.46
464.05	10363.89
464.23	10562.84
464.41	10916.26
464.59	10679.86
464.78	11014.56
464.96	10953.71
465.14	10820.30
465.32	10768.80
465.50	11206.48
465.69	10747.74
465.87	10710.29
466.05	10747.74
466.23	11016.90
466.41	11122.23
466.60	11307.13
466.78	11115.20
466.96	11119.89
467.14	11052.01
467.32	11365.64
467.51	11585.65
467.69	11042.65
467.87	11274.36
468.05	11269.68
468.23	11173.72
468.41	11239.25
468.60	11599.70
468.78	11683.95
468.96	11555.22
469.14	11529.48
469.32	11719.06
469.50	11620.76
469.69	11871.20
469.87	11812.68
470.05	12159.08
470.23	12004.61
470.41	12156.74
470.59	12098.23
470.77	11936.73
470.95	12004.61
471.14	12362.71
471.32	11929.71
471.50	12423.56
471.68	12297.17
471.86	12212.92
472.04	12657.62
472.22	12657.62
472.40	12435.27
472.58	12821.45
472.77	12807.41
472.95	12762.94
473.13	13193.60
473.31	12699.75
473.49	12910.40
473.67	12758.26
473.85	12894.01
474.03	13289.56
474.21	13282.54
474.39	13514.25
474.57	13415.95
474.75	13760.01
474.93	13635.96
475.12	13369.14
475.30	13685.11
475.48	13748.31
475.66	13804.48
475.84	13930.87
476.02	13977.68
476.20	13996.40
476.38	14658.78
476.56	14562.81
476.74	14403.66
476.92	14422.38
477.10	14195.35
477.28	14574.52
477.46	14640.05
477.64	15096.46
477.82	15021.56
478.00	15510.73
478.18	15398.38
478.36	15613.71
478.54	15854.79
478.72	15538.82
478.90	15716.70
479.08	15847.77
479.26	15946.07
479.44	16152.04
479.62	16297.15
479.80	16554.61
479.98	16517.16
480.16	16992.29
480.34	16608.44
480.52	16947.82
480.70	16978.25
480.88	17130.38
481.06	17121.02
481.24	17041.44
481.41	17422.95
481.59	17544.66
481.77	17816.16
481.95	17818.50
482.13	17762.33
482.31	17834.88
482.49	18532.36
482.67	18363.84
482.85	18513.64
483.03	18944.30
483.21	19173.67
483.39	19068.34
483.57	19183.03
483.74	19131.54
483.92	19583.26
484.10	19192.39
484.28	19990.52
484.46	20039.67
484.64	20262.02
484.82	19711.99
485.00	20273.72
485.18	20308.83
485.35	20648.21
485.53	20919.71
485.71	21261.43
485.89	21652.30
486.07	21532.93
486.25	21427.60
486.43	21841.88
486.61	22071.25
486.78	22073.59
486.96	22361.48
487.14	22394.25
487.32	22164.87
487.50	22750.01
487.68	22668.09
487.85	23220.45
488.03	23438.12
488.21	23627.71
488.39	23637.07
488.57	23648.77
488.75	24030.28
488.92	24278.38
489.10	24528.81
489.28	24341.57
489.46	24500.73
489.64	24903.30
489.81	25294.17
489.99	25467.37
490.17	25376.09
490.35	25853.56
490.53	25788.02
490.70	25846.54
490.88	26005.69
491.06	26471.46
491.24	26153.15
491.41	26331.03
491.59	26785.09
491.77	26602.53
491.95	27285.97
492.13	27225.11
492.30	27456.82
492.48	27529.38
492.66	27393.63
492.84	27838.33
493.01	28292.40
493.19	27733.01
493.37	28283.03
493.54	28657.52
493.72	28734.76
493.90	28929.02
494.08	29390.11
494.25	29221.59
494.43	29649.91
494.61	29708.42
494.79	29956.52
494.96	30000.99
495.14	29820.77
495.32	30106.31
495.49	30515.90
495.67	30560.37
495.85	30581.44
496.02	31058.91
496.20	31047.21
496.38	30939.54
496.55	31049.55
496.73	31962.36
496.91	31562.12
497.09	31637.02
497.26	31922.57
497.44	32182.37
497.62	32215.13
497.79	32566.21
497.97	32453.87
498.14	32603.66
498.32	33116.24
498.50	33165.39
498.67	33530.51
498.85	32744.09
499.03	33411.15
499.20	33567.96
499.38	33834.78
499.56	33649.88
499.73	34010.32
499.91	34185.86
500.08	34363.75
500.26	34000.96
500.44	34455.03
500.61	34726.53
500.79	34646.95
500.97	35358.47
501.14	35281.24
501.32	35323.36
501.49	35374.86
501.67	34923.13
501.84	35466.14
502.02	35737.64
502.20	35838.28
502.37	35812.54
502.55	36119.15
502.72	35835.94
502.90	35754.02
503.07	35882.75
503.25	36701.94
503.43	36055.95
503.60	36573.21
503.78	36811.95
503.95	36795.56
504.13	36524.06
504.30	37160.69
504.48	36776.84
504.65	37214.52
504.83	37572.62
505.01	38022.00
505.18	37406.44
505.36	37975.19
505.53	37518.79
505.71	38384.79
505.88	38316.91
506.06	37855.82
506.23	38443.30
506.41	38263.08
506.58	38394.15
506.76	38618.84
506.93	38855.23
507.11	38665.65
507.28	39030.77
507.46	39246.10
507.63	39384.19
507.81	39335.04
507.98	38871.62
508.16	39641.65
508.33	39339.72
508.50	39735.27
508.68	39999.76
508.85	40144.87
509.03	40053.59
509.20	40514.67
509.38	40437.44
509.55	40697.24
509.73	40818.94
509.90	40975.76
510.08	41113.85
510.25	40968.74
510.42	41134.92
510.60	41170.02
510.77	41677.92
510.95	41820.69
511.12	40842.35
511.30	41525.78
511.47	41565.57
511.64	42026.66
511.82	42075.81
511.99	42218.58
512.17	42340.29
512.34	42401.14
512.51	42560.30
512.69	42225.60
512.86	42370.72
513.04	42848.19
513.21	43040.11
513.38	43068.20
513.56	43257.78
513.73	43093.94
513.90	43487.15
514.08	43147.78
514.25	43395.87
514.43	43597.16
514.60	44289.96
514.77	43910.79
514.95	44294.64
515.12	43634.61
515.29	43533.96
515.47	44236.12
515.64	44032.50
515.81	44137.82
515.99	44093.35
516.16	44814.24
516.33	44992.12
516.51	44856.37
516.68	44418.69
516.85	44732.32
517.03	45242.56
517.20	45088.08
517.37	45162.98
517.54	45361.92
517.72	45876.84
517.89	45174.68
518.06	45626.40
518.24	45071.70
518.41	45284.68
518.58	45275.32
518.75	45497.67
518.93	46082.81
519.10	45827.69
519.27	46527.51
519.45	45881.52
519.62	46232.60
519.79	46277.07
519.96	46307.50
520.14	46574.32
520.31	46555.60
520.48	46794.33
520.65	46667.94
520.83	46894.97
521.00	46850.50
521.17	46869.23
521.34	46923.06
521.52	47140.73
521.69	47365.42
521.86	47440.32
522.03	47159.45
522.20	47674.37
522.38	47868.64
522.55	47360.74
522.72	47505.85
522.89	47770.33
523.07	48303.98
523.24	47962.26
523.41	47777.36
523.58	47964.60
523.75	48411.64
523.92	48289.93
524.10	48329.72
524.27	48959.33
524.44	48648.03
524.61	48772.08
524.78	48942.94
524.96	48748.68
525.13	48767.40
525.30	49015.50
525.47	48793.15
525.64	49118.48
525.81	49254.23
525.98	49464.88
526.16	49146.57
526.33	49200.40
526.50	49776.17
526.67	48931.24
526.84	49352.54
527.01	49359.56
527.18	49586.59
527.36	49876.82
527.53	49794.90
527.70	50007.89
527.87	50068.74
528.04	49944.69
528.21	50220.87
528.38	49972.78
528.55	49954.05
528.72	50258.32
528.89	50131.93
529.07	50377.69
529.24	50433.86
529.41	50850.48
529.58	50068.74
529.75	50382.37
529.92	50684.30
530.09	50475.99
530.26	50838.78
530.43	50820.05
530.60	50581.32
530.77	50892.61
530.94	50986.23
531.11	50927.72
531.28	50899.63
531.46	50862.18
531.63	51213.26
531.80	50934.74
531.97	51402.85
532.14	51496.47
532.31	51374.76
532.48	51590.09
532.65	51491.79
532.82	51351.35
532.99	51430.93
533.16	51325.61
533.33	51669.67
533.50	51973.94
533.67	51826.48
533.84	51646.26
534.01	51613.49
534.18	51367.74
534.35	51840.53
534.52	51847.55
534.69	52177.56
534.86	52402.25
535.03	51819.46
535.20	52130.75
535.37	52486.51
535.54	52460.77
535.71	51969.26
535.88	52191.61
536.05	51927.13
536.22	52807.17
536.38	52678.44
536.55	52428.00
536.72	52636.31
536.89	52484.17
537.06	52509.92
537.23	52795.46
537.40	52523.96
537.57	52729.93
537.74	52753.33
537.91	53022.50
538.08	53141.86
538.25	52940.58
538.42	53085.69
538.59	53090.37
538.75	52795.46
538.92	53151.23
539.09	53483.58
539.26	53399.32
539.43	53071.65
539.60	53488.26
539.77	53474.22
539.94	53305.70
540.11	53303.36
540.28	53352.51
540.44	53544.44
540.61	53373.58
540.78	53427.41
540.95	53628.69
541.12	53703.59
541.29	53736.36
541.46	53954.03
541.62	54026.59
541.79	53832.32
541.96	53483.58
542.13	53649.76
542.30	54094.46
542.47	54293.41
542.63	54358.94
542.80	54300.43
542.97	54461.93
543.14	54124.89
543.31	54361.28
543.48	54473.63
543.64	54248.94
543.81	54747.47
543.98	54686.62
544.15	54513.42
544.32	54710.02
544.48	54688.96
544.65	54691.30
544.82	54742.79
544.99	54513.42
545.16	54632.78
545.32	54688.96
545.49	54918.33
545.66	55220.26
545.83	55585.38
546.00	55482.40
546.16	55136.00
546.33	55014.29
546.50	54710.02
546.67	54901.95
546.83	54703.00
547.00	54995.57
547.17	54787.26
547.34	55070.46
547.50	55203.88
547.67	55192.17
547.84	55180.47
548.00	55248.35
548.17	55365.37
548.34	55143.02
548.51	55201.53
548.67	55454.31
548.84	55330.26
549.01	55246.00
549.18	55138.34
549.34	55423.89
549.51	55400.48
549.68	55501.12
549.84	55302.18
550.01	55545.59
550.18	55501.12
550.34	55543.25
550.51	55531.55
550.68	55810.07
550.84	55538.57
551.01	55615.81
551.18	55400.48
551.34	55306.86
551.51	55550.27
551.68	55863.91
551.84	55503.46
552.01	55716.45
552.18	56065.19
552.34	55725.81
552.51	55819.44
552.68	55632.19
552.84	55770.28
553.01	56030.08
553.18	55959.87
553.34	56144.77
553.51	56154.13
553.67	55936.46
553.84	56196.26
554.01	56313.29
554.17	55945.83
554.34	56055.83
554.51	55910.72
554.67	56130.73
554.84	56069.87
555.00	55992.64
555.17	56149.45
555.33	56294.56
555.50	56238.39
555.67	56303.93
555.83	56198.60
556.00	56257.12
556.16	56411.59
556.33	56324.99
556.50	56324.99
556.66	56470.11
556.83	56310.95
556.99	56519.26
557.16	56584.79
557.32	56612.88
557.49	56603.52
557.65	56308.61
557.82	56465.42
557.98	56313.29
558.15	56261.80
558.32	56907.79
558.48	56718.20
558.65	56786.08
558.81	56671.39
558.98	56626.92
559.14	56479.47
559.31	56615.22
559.47	56537.98
559.64	56734.59
559.80	56725.22
559.97	56882.04
560.13	56790.76
560.30	56818.84
560.46	56973.32
560.63	56903.10
560.79	56860.97
560.96	56989.70
561.12	56893.74
561.29	56849.27
561.45	56903.10
561.61	56856.29
561.78	57055.24
561.94	56903.10
562.11	57148.86
562.27	56961.62
562.44	56891.40
562.60	56956.94
562.77	56992.04
562.93	56891.40
563.10	57219.08
563.26	56966.30
563.42	57279.93
563.59	56989.70
563.75	56900.76
563.92	57167.58
564.08	56952.26
564.24	57001.41
564.41	56992.04
564.57	56919.49
564.74	56975.66
564.90	57230.78
565.07	57195.67
565.23	57153.54
565.39	56980.34
565.56	57345.47
565.72	57057.58
565.88	57289.29
566.05	57441.43
566.21	57120.77
566.38	57127.80
566.54	57394.62
566.70	57331.42
566.87	57387.60
567.03	57104.39
567.19	57560.79
567.36	57158.22
567.52	57324.40
567.68	57432.07
567.85	57148.86
568.01	57551.43
568.17	57296.31
568.34	57403.98
568.50	57577.18
568.66	57675.48
568.83	57638.03
568.99	57509.30
569.15	57467.17
569.32	57340.78
569.48	57329.08
569.64	57549.09
569.81	57448.45
569.97	57436.75
570.13	57460.15
570.30	57212.06
570.46	57457.81
570.62	57427.38
570.78	57506.96
570.95	57368.87
571.11	57593.56
571.27	57549.09
571.43	57364.19
571.60	57511.64
571.76	57811.23
571.92	57652.08
572.09	57619.31
572.25	57659.10
572.41	57661.44
572.57	57579.52
572.74	57766.76
572.90	57619.31
573.06	57748.04
573.22	57642.71
573.38	57642.71
573.55	57930.60
573.71	58080.39
573.87	57876.77
574.03	57565.48
574.20	57638.03
574.36	57389.94
574.52	57719.95
574.68	57682.50
574.84	57698.89
575.01	57834.64
575.17	57776.12
575.33	57703.57
575.49	57595.90
575.65	57811.23
575.82	57790.17
575.98	57708.25
576.14	57808.89
576.30	57752.72
576.46	57783.15
576.62	57684.84
576.79	57708.25
576.95	57621.65
577.11	57851.02
577.27	57645.05
577.43	57977.41
577.59	57766.76
577.75	57862.72
577.92	57869.75
578.08	57605.26
578.24	57780.81
578.40	57614.63
578.56	57961.03
578.72	58010.18
578.88	58024.22
579.04	58157.63
579.21	57841.66
579.37	57712.93
579.53	58035.92
579.69	57705.91
579.85	57932.94
580.01	57965.71
580.17	57535.05
580.33	57825.28
580.49	57825.28
580.65	58033.58
580.82	58003.16
580.98	57975.07
581.14	57806.55
581.30	57993.79
581.46	57687.18
581.62	57862.72
581.78	57570.16
581.94	57932.94
582.10	57696.55
582.26	57874.43
582.42	57963.37
582.58	57991.45
582.74	57942.30
582.90	58262.96
583.06	57900.17
583.22	57970.39
583.38	57916.56
583.54	58054.65
583.70	57663.78
583.86	58045.29
584.02	57787.83
584.18	58085.07
584.34	58082.73
584.50	58024.22
584.66	58017.20
584.82	57909.53
584.98	57684.84
585.14	58061.67
585.30	57797.19
585.46	57984.43
585.62	57930.60
585.78	58028.90
585.94	57839.32
586.10	58010.18
586.26	58066.35
586.42	58328.49
586.58	58087.42
586.74	57755.06
586.90	57998.48
587.06	57778.46
587.22	58244.23
587.38	57904.85
587.54	58134.23
587.70	58190.40
587.86	57996.13
588.02	58143.59
588.18	58305.09
588.34	58223.17
588.49	58054.65
588.65	57949.32
588.81	58026.56
588.97	58101.46
589.13	57946.98
589.29	58136.57
589.45	58138.91
