SpectraSuite Data File
++++++++++++++++++++++++++++++++++++
Date: Fri Oct 04 11:39:58 GMT-05:00 2013
User: price-jones
Dark Spectrum Present: No
Reference Spectrum Present: No
Number of Sampled Component Spectra: 1
Spectrometers: USB2+H05261
Integration Time (usec): 100000 (USB2+H05261)
Spectra Averaged: 1 (USB2+H05261)
Boxcar Smoothing: 0 (USB2+H05261)
Correct for Electrical Dark: No (USB2+H05261)
Strobe/Lamp Enabled: No (USB2+H05261)
Correct for Detector Non-linearity: No (USB2+H05261)
Correct for Stray Light: No (USB2+H05261)
Number of Pixels in Processed Spectrum: 2048
>>>>>Begin Processed Spectral Data<<<<<
365.73	74.90
365.92	74.90
366.12	74.90
366.32	0.00
366.52	0.00
366.72	0.00
366.91	0.00
367.11	0.00
367.31	0.00
367.51	0.00
367.70	0.00
367.90	0.00
368.10	0.00
368.30	0.00
368.49	0.00
368.69	0.00
368.89	0.00
369.09	0.00
369.28	0.00
369.48	0.00
369.68	0.00
369.87	0.00
370.07	0.00
370.27	42.13
370.47	7.02
370.66	42.13
370.86	81.92
371.06	91.28
371.25	126.39
371.45	70.22
371.65	177.88
371.84	102.98
372.04	112.35
372.24	149.79
372.44	84.26
372.63	112.35
372.83	67.88
373.03	70.22
373.22	72.56
373.42	126.39
373.62	196.60
373.81	124.05
374.01	25.75
374.21	173.20
374.40	110.01
374.60	79.58
374.79	84.26
374.99	65.54
375.19	93.62
375.38	161.50
375.58	86.60
375.78	95.96
375.97	107.66
376.17	147.45
376.37	105.32
376.56	145.11
376.76	84.26
376.95	168.52
377.15	166.18
377.35	126.39
377.54	145.11
377.74	84.26
377.93	135.75
378.13	147.45
378.33	154.48
378.52	117.03
378.72	131.07
378.91	161.50
379.11	126.39
379.31	156.82
379.50	86.60
379.70	126.39
379.89	140.43
380.09	131.07
380.28	131.07
380.48	63.19
380.68	124.05
380.87	135.75
381.07	149.79
381.26	86.60
381.46	138.09
381.65	107.66
381.85	124.05
382.04	117.03
382.24	215.33
382.43	170.86
382.63	140.43
382.83	131.07
383.02	140.43
383.22	152.13
383.41	86.60
383.61	182.56
383.80	128.73
384.00	107.66
384.19	124.05
384.39	201.29
384.58	149.79
384.78	112.35
384.97	44.47
385.17	18.72
385.36	119.37
385.56	100.64
385.75	0.00
385.95	184.90
386.14	156.82
386.34	121.71
386.53	159.16
386.72	110.01
386.92	110.01
387.11	187.24
387.31	159.16
387.50	121.71
387.70	107.66
387.89	145.11
388.09	128.73
388.28	86.60
388.48	145.11
388.67	102.98
388.86	86.60
389.06	81.92
389.25	84.26
389.45	65.54
389.64	131.07
389.84	95.96
390.03	166.18
390.22	114.69
390.42	77.24
390.61	105.32
390.81	88.94
391.00	91.28
391.19	138.09
391.39	131.07
391.58	156.82
391.78	138.09
391.97	119.37
392.16	119.37
392.36	175.54
392.55	131.07
392.75	161.50
392.94	117.03
393.13	140.43
393.33	117.03
393.52	140.43
393.71	112.35
393.91	138.09
394.10	93.62
394.29	110.01
394.49	121.71
394.68	182.56
394.88	100.64
395.07	110.01
395.26	112.35
395.46	161.50
395.65	184.90
395.84	107.66
396.04	170.86
396.23	124.05
396.42	119.37
396.62	145.11
396.81	147.45
397.00	74.90
397.19	60.85
397.39	58.51
397.58	196.60
397.77	49.15
397.97	159.16
398.16	159.16
398.35	161.50
398.55	86.60
398.74	140.43
398.93	191.92
399.12	63.19
399.32	95.96
399.51	140.43
399.70	159.16
399.90	170.86
400.09	126.39
400.28	156.82
400.47	102.98
400.67	177.88
400.86	133.41
401.05	133.41
401.24	184.90
401.44	191.92
401.63	152.13
401.82	184.90
402.01	124.05
402.21	170.86
402.40	189.58
402.59	224.69
402.78	182.56
402.97	86.60
403.17	189.58
403.36	217.67
403.55	102.98
403.74	196.60
403.93	245.76
404.13	280.86
404.32	257.46
404.51	299.59
404.70	290.23
404.89	128.73
405.09	241.08
405.28	194.26
405.47	196.60
405.66	257.46
405.85	208.31
406.05	224.69
406.24	180.22
406.43	135.75
406.62	145.11
406.81	236.39
407.00	191.92
407.20	159.16
407.39	210.65
407.58	205.97
407.77	161.50
407.96	273.84
408.15	203.63
408.34	131.07
408.54	184.90
408.73	198.95
408.92	149.79
409.11	191.92
409.30	93.62
409.49	205.97
409.68	227.03
409.87	147.45
410.07	152.13
410.26	271.50
410.45	189.58
410.64	191.92
410.83	182.56
411.02	147.45
411.21	278.52
411.40	187.24
411.59	191.92
411.78	175.54
411.98	229.37
412.17	124.05
412.36	173.20
412.55	273.84
412.74	135.75
412.93	243.42
413.12	257.46
413.31	241.08
413.50	198.95
413.69	152.13
413.88	198.95
414.07	212.99
414.26	152.13
414.45	166.18
414.64	212.99
414.83	255.12
415.02	196.60
415.22	271.50
415.41	220.01
415.60	208.31
415.79	128.73
415.98	264.48
416.17	248.10
416.36	170.86
416.55	313.63
416.74	191.92
416.93	189.58
417.12	234.05
417.31	271.50
417.50	224.69
417.69	278.52
417.88	203.63
418.07	177.88
418.26	201.29
418.45	238.73
418.64	252.78
418.83	229.37
419.02	222.35
419.21	231.71
419.39	189.58
419.58	259.80
419.77	180.22
419.96	252.78
420.15	404.91
420.34	292.57
420.53	290.23
420.72	292.57
420.91	191.92
421.10	222.35
421.29	290.23
421.48	182.56
421.67	231.71
421.86	294.91
422.05	215.33
422.24	224.69
422.43	224.69
422.61	203.63
422.80	208.31
422.99	217.67
423.18	315.97
423.37	248.10
423.56	273.84
423.75	273.84
423.94	280.86
424.13	252.78
424.32	250.44
424.50	259.80
424.69	360.44
424.88	266.82
425.07	278.52
425.26	374.49
425.45	255.12
425.64	222.35
425.83	231.71
426.01	287.89
426.20	250.44
426.39	224.69
426.58	177.88
426.77	269.16
426.96	252.78
427.15	278.52
427.33	315.97
427.52	231.71
427.71	210.65
427.90	217.67
428.09	297.25
428.28	262.14
428.46	243.42
428.65	234.05
428.84	304.27
429.03	318.31
429.22	255.12
429.40	271.50
429.59	217.67
429.78	250.44
429.97	224.69
430.16	248.10
430.34	250.44
430.53	257.46
430.72	255.12
430.91	262.14
431.10	285.55
431.28	259.80
431.47	322.99
431.66	348.74
431.85	259.80
432.03	271.50
432.22	358.10
432.41	234.05
432.60	330.02
432.79	325.33
432.97	278.52
433.16	250.44
433.35	248.10
433.54	262.14
433.72	245.76
433.91	351.08
434.10	318.31
434.28	358.10
434.47	299.59
434.66	290.23
434.85	344.06
435.03	416.62
435.22	688.12
435.41	1006.43
435.59	1039.20
435.78	816.85
435.97	613.22
436.16	313.63
436.34	348.74
436.53	243.42
436.72	276.18
436.90	344.06
437.09	334.70
437.28	273.84
437.46	322.99
437.65	337.04
437.84	313.63
438.02	280.86
438.21	341.72
438.40	217.67
438.58	224.69
438.77	294.91
438.96	320.65
439.14	360.44
439.33	351.08
439.52	315.97
439.70	355.76
439.89	330.02
440.08	259.80
440.26	220.01
440.45	414.27
440.63	341.72
440.82	351.08
441.01	337.04
441.19	330.02
441.38	327.68
441.57	280.86
441.75	416.62
441.94	397.89
442.12	276.18
442.31	388.53
442.50	332.36
442.68	308.95
442.87	372.15
443.05	348.74
443.24	362.78
443.43	383.85
443.61	383.85
443.80	271.50
443.98	353.42
444.17	348.74
444.35	372.15
444.54	367.46
444.73	355.76
444.91	407.25
445.10	351.08
445.28	332.36
445.47	379.17
445.65	358.10
445.84	372.15
446.02	381.51
446.21	322.99
446.39	308.95
446.58	344.06
446.77	276.18
446.95	365.12
447.14	465.77
447.32	388.53
447.51	315.97
447.69	341.72
447.88	383.85
448.06	367.46
448.25	264.48
448.43	339.38
448.62	299.59
448.80	386.19
448.99	372.15
449.17	334.70
449.36	397.89
449.54	402.57
449.73	383.85
449.91	346.40
450.10	320.65
450.28	461.09
450.46	386.19
450.65	351.08
450.83	315.97
451.02	383.85
451.20	390.87
451.39	411.93
451.57	330.02
451.76	358.10
451.94	351.08
452.13	332.36
452.31	372.15
452.49	346.40
452.68	386.19
452.86	383.85
453.05	407.25
453.23	362.78
453.42	250.44
453.60	351.08
453.78	397.89
453.97	390.87
454.15	437.68
454.34	416.62
454.52	369.80
454.70	339.38
454.89	348.74
455.07	304.27
455.26	337.04
455.44	433.00
455.62	322.99
455.81	386.19
455.99	372.15
456.17	411.93
456.36	411.93
456.54	318.31
456.73	400.23
456.91	362.78
457.09	348.74
457.28	451.72
457.46	365.12
457.64	477.47
457.83	390.87
458.01	367.46
458.19	341.72
458.38	428.32
458.56	454.06
458.74	365.12
458.93	435.34
459.11	388.53
459.29	397.89
459.48	475.13
459.66	465.77
459.84	475.13
460.03	524.28
460.21	449.38
460.39	355.76
460.57	451.72
460.76	486.83
460.94	416.62
461.12	400.23
461.31	423.64
461.49	449.38
461.67	449.38
461.85	472.79
462.04	369.80
462.22	837.91
462.40	409.59
462.59	519.60
462.77	358.10
462.95	404.91
463.13	425.98
463.32	477.47
463.50	496.19
463.68	404.91
463.86	444.70
464.05	376.83
464.23	433.00
464.41	397.89
464.59	379.17
464.78	425.98
464.96	355.76
465.14	411.93
465.32	337.04
465.50	348.74
465.69	440.02
465.87	313.63
466.05	400.23
466.23	400.23
466.41	404.91
466.60	421.30
466.78	379.17
466.96	435.34
467.14	372.15
467.32	500.87
467.51	400.23
467.69	416.62
467.87	416.62
468.05	404.91
468.23	461.09
468.41	454.06
468.60	547.69
468.78	484.49
468.96	425.98
469.14	528.96
469.32	458.74
469.50	477.47
469.69	447.04
469.87	416.62
470.05	505.56
470.23	463.43
470.41	418.96
470.59	395.55
470.77	425.98
470.95	503.22
471.14	451.72
471.32	524.28
471.50	463.43
471.68	489.17
471.86	470.45
472.04	479.81
472.22	486.83
472.40	454.06
472.58	428.32
472.77	456.40
472.95	465.77
473.13	524.28
473.31	433.00
473.49	512.58
473.67	461.09
473.85	514.92
474.03	421.30
474.21	435.34
474.39	498.53
474.57	491.51
474.75	517.26
474.93	550.03
475.12	388.53
475.30	440.02
475.48	451.72
475.66	524.28
475.84	472.79
476.02	524.28
476.20	517.26
476.38	489.17
476.56	596.84
476.74	571.09
476.92	463.43
477.10	540.66
477.28	540.66
477.46	505.56
477.64	491.51
477.82	547.69
478.00	493.85
478.18	505.56
478.36	603.86
478.54	514.92
478.72	564.07
478.90	573.43
479.08	521.94
479.26	557.05
479.44	585.13
479.62	521.94
479.80	517.26
479.98	554.71
480.16	526.62
480.34	603.86
480.52	615.56
480.70	622.58
480.88	601.52
481.06	519.60
481.24	580.45
481.41	566.41
481.59	634.29
481.77	711.52
481.95	695.14
482.13	610.88
482.31	580.45
482.49	606.20
482.67	636.63
482.85	645.99
483.03	662.37
483.21	608.54
483.39	552.37
483.57	648.33
483.74	702.16
483.92	608.54
484.10	610.88
484.28	662.37
484.46	737.27
484.64	678.76
484.82	683.44
485.00	692.80
485.18	662.37
485.35	676.41
485.53	636.63
485.71	788.76
485.89	727.91
486.07	683.44
486.25	791.10
486.43	767.70
486.61	823.87
486.78	695.14
486.96	795.78
487.14	716.20
487.32	688.12
487.50	873.02
487.68	765.36
487.85	770.04
488.03	713.86
488.21	889.40
488.39	781.74
488.57	795.78
488.75	791.10
488.92	1039.20
489.10	833.23
489.28	784.08
489.46	723.23
489.64	800.46
489.81	807.48
489.99	814.51
490.17	795.78
490.35	875.36
490.53	854.30
490.70	807.48
490.88	880.04
491.06	863.66
491.24	891.74
491.41	945.58
491.59	884.72
491.77	851.96
491.95	868.34
492.13	863.66
492.30	844.93
492.48	945.58
492.66	851.96
492.84	936.21
493.01	894.08
493.19	849.61
493.37	861.32
493.54	880.04
493.72	936.21
493.90	767.70
494.08	819.19
494.25	924.51
494.43	903.45
494.61	875.36
494.79	903.45
494.96	940.90
495.14	898.77
495.32	917.49
495.49	858.98
495.67	828.55
495.85	1020.47
496.02	908.13
496.20	903.45
496.38	891.74
496.55	943.24
496.73	926.85
496.91	961.96
497.09	931.53
497.26	1020.47
497.44	922.17
497.62	999.41
497.79	924.51
497.97	943.24
498.14	959.62
498.32	997.07
498.50	1032.18
498.67	976.00
498.85	964.30
499.03	964.30
499.20	875.36
499.38	1008.77
499.56	952.60
499.73	961.96
499.91	1022.81
500.08	959.62
500.26	985.37
500.44	950.26
500.61	973.66
500.79	1004.09
500.97	997.07
501.14	1102.39
501.32	990.05
501.49	875.36
501.67	931.53
501.84	976.00
502.02	980.68
502.20	1062.60
502.37	1109.41
502.55	959.62
502.72	1001.75
502.90	990.05
503.07	1011.11
503.25	952.60
503.43	933.87
503.60	978.34
503.78	990.05
503.95	1132.82
504.13	992.39
504.30	924.51
504.48	1053.24
504.65	1172.61
504.83	1055.58
505.01	1064.94
505.18	1104.73
505.36	1060.26
505.53	945.58
505.71	1027.50
505.88	1076.65
506.06	1025.15
506.23	1043.88
506.41	1053.24
506.58	1027.50
506.76	1036.86
506.93	1008.77
507.11	1055.58
507.28	1006.43
507.46	1018.13
507.63	1074.31
507.81	1090.69
507.98	1142.18
508.16	1104.73
508.33	1088.35
508.50	1062.60
508.68	1029.84
508.85	1118.78
509.03	1111.75
509.20	1153.88
509.38	1074.31
509.55	1123.46
509.73	1078.99
509.90	1193.67
510.08	1135.16
510.25	1128.14
510.42	1107.07
510.60	1137.50
510.77	1163.25
510.95	1135.16
511.12	1011.11
511.30	1224.10
511.47	1177.29
511.64	1050.90
511.82	1203.04
511.99	1135.16
512.17	1114.10
512.34	1109.41
512.51	1086.01
512.69	1205.38
512.86	1151.54
513.04	1128.14
513.21	1137.50
513.38	1153.88
513.56	1196.01
513.73	1153.88
513.90	1146.86
514.08	1139.84
514.25	1062.60
514.43	1277.93
514.60	1057.92
514.77	1121.12
514.95	1191.33
515.12	1167.93
515.29	1137.50
515.47	1174.95
515.64	1205.38
515.81	1249.85
515.99	1186.65
516.16	1240.48
516.33	1210.06
516.51	1041.54
516.68	1083.67
516.85	1254.53
517.03	1144.52
517.20	1137.50
517.37	1235.80
517.54	1235.80
517.72	1165.59
517.89	1179.63
518.06	1167.93
518.24	1219.42
518.41	1254.53
518.58	1308.36
518.75	1245.16
518.93	1277.93
519.10	1203.04
519.27	1158.57
519.45	1238.14
519.62	1210.06
519.79	1196.01
519.96	1153.88
520.14	1228.78
520.31	1207.72
520.48	1245.16
520.65	1249.85
520.83	1177.29
521.00	1233.46
521.17	1249.85
521.34	1275.59
521.52	1224.10
521.69	1320.06
521.86	1186.65
522.03	1294.32
522.20	1306.02
522.38	1343.47
522.55	1228.78
522.72	1263.89
522.89	1268.57
523.07	1338.79
523.24	1350.49
523.41	1207.72
523.58	1303.68
523.75	1231.12
523.92	1369.21
524.10	1179.63
524.27	1315.38
524.44	1317.72
524.61	1387.94
524.78	1320.06
524.96	1296.66
525.13	1263.89
525.30	1364.53
525.47	1277.93
525.64	1317.72
525.81	1275.59
525.98	1294.32
526.16	1273.25
526.33	1282.61
526.50	1371.55
526.67	1303.68
526.84	1235.80
527.01	1263.89
527.18	1310.70
527.36	1289.64
527.53	1322.40
527.70	1324.74
527.87	1296.66
528.04	1306.02
528.21	1383.26
528.38	1411.34
528.55	1289.64
528.72	1329.42
528.89	1341.13
529.07	1282.61
529.24	1394.96
529.41	1425.39
529.58	1327.08
529.75	1350.49
529.92	1460.49
530.09	1350.49
530.26	1481.56
530.43	1383.26
530.60	1345.81
530.77	1341.13
530.94	1315.38
531.11	1334.11
531.28	1348.15
531.46	1327.08
531.63	1310.70
531.80	1350.49
531.97	1322.40
532.14	1418.36
532.31	1434.75
532.48	1418.36
532.65	1437.09
532.82	1280.27
532.99	1409.00
533.16	1371.55
533.33	1416.02
533.50	1378.58
533.67	1437.09
533.84	1338.79
534.01	1254.53
534.18	1313.04
534.35	1371.55
534.52	1413.68
534.69	1509.65
534.86	1448.79
535.03	1416.02
535.20	1366.87
535.37	1390.28
535.54	1423.05
535.71	1448.79
535.88	1469.86
536.05	1495.60
536.22	1509.65
536.38	1467.52
536.55	1460.49
536.72	1519.01
536.89	1469.86
537.06	1420.71
537.23	1401.98
537.40	1448.79
537.57	1523.69
537.74	1509.65
537.91	1469.86
538.08	1544.75
538.25	1584.54
538.42	1528.37
538.59	1511.99
538.75	1504.96
538.92	1514.33
539.09	1607.95
539.26	1610.29
539.43	1514.33
539.60	1617.31
539.77	1598.59
539.94	1626.67
540.11	1753.06
540.28	1776.47
540.44	1830.30
540.61	1856.04
540.78	1870.09
540.95	1933.28
541.12	2031.58
541.29	2047.97
541.46	2258.62
541.62	2249.25
541.79	2111.16
541.96	2045.63
542.13	2122.87
542.30	1935.62
542.47	2003.50
542.63	1900.52
542.80	2092.44
542.97	2045.63
543.14	1942.64
543.31	2036.27
543.48	2003.50
543.64	2047.97
543.81	1996.48
543.98	2024.56
544.15	1952.01
544.32	1989.46
544.48	1942.64
544.65	2062.01
544.82	2064.35
544.99	1888.81
545.16	1935.62
545.32	1966.05
545.49	2523.10
545.66	3119.93
545.83	3269.73
546.00	2946.73
546.16	2457.56
546.33	2249.25
546.50	1952.01
546.67	2057.33
546.83	2003.50
547.00	1863.07
547.17	1870.09
547.34	1816.26
547.50	1856.04
547.67	1771.79
547.84	1743.70
548.00	1762.42
548.17	1832.64
548.34	1820.94
548.51	1757.74
548.67	1621.99
548.84	1680.50
549.01	1792.85
549.18	1668.80
549.34	1624.33
549.51	1652.42
549.68	1654.76
549.84	1636.03
550.01	1582.20
550.18	1790.51
550.34	1818.60
550.51	1659.44
550.68	1755.40
550.84	1633.69
551.01	1689.87
551.18	1661.78
551.34	1675.82
551.51	1600.93
551.68	1561.14
551.84	1568.16
552.01	1554.12
552.18	1570.50
552.34	1577.52
552.51	1631.35
552.68	1586.88
552.84	1500.28
553.01	1593.90
553.18	1732.00
553.34	1708.59
553.51	1636.03
553.67	1542.41
553.84	1654.76
554.01	1472.20
554.17	1511.99
554.34	1469.86
554.51	1556.46
554.67	1526.03
554.84	1511.99
555.00	1612.63
555.17	1584.54
555.33	1474.54
555.50	1614.97
555.67	1540.07
555.83	1462.83
556.00	1521.35
556.16	1708.59
556.33	1427.73
556.50	1547.09
556.66	1507.30
556.83	1474.54
556.99	1504.96
557.16	1633.69
557.32	1671.14
557.49	1493.26
557.65	1540.07
557.82	1493.26
557.98	1516.67
558.15	1533.05
558.32	1500.28
558.48	1476.88
558.65	1619.65
558.81	1516.67
558.98	1481.56
559.14	1511.99
559.31	1563.48
559.47	1540.07
559.64	1462.83
559.80	1577.52
559.97	1458.15
560.13	1458.15
560.30	1465.18
560.46	1535.39
560.63	1563.48
560.79	1586.88
560.96	1519.01
561.12	1624.33
561.29	1516.67
561.45	1530.71
561.61	1558.80
561.78	1612.63
561.94	1495.60
562.11	1411.34
562.27	1488.58
562.44	1528.37
562.60	1556.46
562.77	1502.62
562.93	1495.60
563.10	1547.09
563.26	1535.39
563.42	1558.80
563.59	1465.18
563.75	1533.05
563.92	1605.61
564.08	1460.49
564.24	1516.67
564.41	1509.65
564.57	1493.26
564.74	1514.33
564.90	1423.05
565.07	1495.60
565.23	1610.29
565.39	1511.99
565.56	1476.88
565.72	1568.16
565.88	1472.20
566.05	1401.98
566.21	1504.96
566.38	1448.79
566.54	1516.67
566.70	1549.43
566.87	1497.94
567.03	1535.39
567.19	1465.18
567.36	1565.82
567.52	1544.75
567.68	1493.26
567.85	1481.56
568.01	1537.73
568.17	1416.02
568.34	1420.71
568.50	1519.01
568.66	1565.82
568.83	1584.54
568.99	1511.99
569.15	1530.71
569.32	1423.05
569.48	1472.20
569.64	1528.37
569.81	1610.29
569.97	1537.73
570.13	1526.03
570.30	1521.35
570.46	1497.94
570.62	1465.18
570.78	1423.05
570.95	1551.78
571.11	1453.47
571.27	1556.46
571.43	1533.05
571.60	1549.43
571.76	1495.60
571.92	1432.41
572.09	1486.24
572.25	1502.62
572.41	1509.65
572.57	1537.73
572.74	1544.75
572.90	1455.81
573.06	1509.65
573.22	1432.41
573.38	1577.52
573.55	1582.20
573.71	1535.39
573.87	1647.74
574.03	1437.09
574.20	1565.82
574.36	1519.01
574.52	1458.15
574.68	1483.90
574.84	1542.41
575.01	1584.54
575.17	1645.40
575.33	1547.09
575.49	1514.33
575.65	1589.22
575.82	1603.27
575.98	1558.80
576.14	1547.09
576.30	1617.31
576.46	1734.34
576.62	1872.43
576.79	1746.04
576.95	1699.23
577.11	1685.19
577.27	1547.09
577.43	1661.78
577.59	1514.33
577.75	1507.30
577.92	1507.30
578.08	1521.35
578.24	1511.99
578.40	1645.40
578.56	1802.21
578.72	1755.40
578.88	1717.95
579.04	1727.32
579.21	1654.76
579.37	1689.87
579.53	1643.06
579.69	1689.87
579.85	1617.31
580.01	1696.89
580.17	1675.82
580.33	1544.75
580.49	1652.42
580.65	1617.31
580.82	1593.90
580.98	1589.22
581.14	1540.07
581.30	1575.18
581.46	1657.10
581.62	1640.72
581.78	1533.05
581.94	1607.95
582.10	1631.35
582.26	1596.25
582.42	1612.63
582.58	1523.69
582.74	1614.97
582.90	1621.99
583.06	1638.38
583.22	1568.16
583.38	1619.65
583.54	1666.46
583.70	1739.02
583.86	1652.42
584.02	1652.42
584.18	1699.23
584.34	1610.29
584.50	1610.29
584.66	1610.29
584.82	1554.12
584.98	1591.56
585.14	1598.59
585.30	1549.43
585.46	1549.43
585.62	1586.88
585.78	1631.35
585.94	1619.65
586.10	1659.44
586.26	1689.87
586.42	1596.25
586.58	1657.10
586.74	1654.76
586.90	1724.97
587.06	1703.91
587.22	1685.19
587.38	1762.42
587.54	1701.57
587.70	1701.57
587.86	1631.35
588.02	1537.73
588.18	1701.57
588.34	1502.62
588.49	1556.46
588.65	1523.69
588.81	1570.50
588.97	1472.20
589.13	1427.73
589.29	1612.63
589.45	1556.46
589.61	1535.39
589.77	1638.38
589.93	1537.73
590.08	1572.84
590.24	1568.16
590.40	1666.46
590.56	1596.25
590.72	1542.41
590.88	1406.66
591.04	1586.88
591.20	1568.16
591.35	1596.25
591.51	1605.61
591.67	1572.84
591.83	1514.33
591.99	1699.23
592.15	1561.14
592.31	1593.90
592.46	1664.12
592.62	1713.27
592.78	1696.89
592.94	1708.59
593.10	1671.14
593.26	1570.50
593.41	1671.14
593.57	1629.01
593.73	1645.40
593.89	1523.69
594.05	1572.84
594.20	1523.69
594.36	1589.22
594.52	1586.88
594.68	1542.41
594.84	1607.95
594.99	1575.18
595.15	1629.01
595.31	1584.54
595.47	1629.01
595.62	1596.25
595.78	1516.67
595.94	1570.50
596.10	1530.71
596.25	1533.05
596.41	1509.65
596.57	1516.67
596.73	1535.39
596.88	1516.67
597.04	1537.73
597.20	1624.33
597.36	1554.12
597.51	1568.16
597.67	1579.86
597.83	1497.94
597.99	1558.80
598.14	1502.62
598.30	1579.86
598.46	1514.33
598.61	1631.35
598.77	1565.82
598.93	1579.86
599.09	1572.84
599.24	1750.72
599.40	1612.63
599.56	1565.82
599.71	1593.90
599.87	1533.05
600.03	1572.84
600.18	1528.37
600.34	1584.54
600.50	1488.58
600.65	1568.16
600.81	1603.27
600.97	1483.90
601.12	1504.96
601.28	1593.90
601.44	1575.18
601.59	1554.12
601.75	1577.52
601.91	1497.94
602.06	1554.12
602.22	1614.97
602.37	1535.39
602.53	1533.05
602.69	1430.07
602.84	1504.96
603.00	1558.80
603.16	1523.69
603.31	1467.52
603.47	1715.61
603.62	1455.81
603.78	1551.78
603.94	1565.82
604.09	1561.14
604.25	1589.22
