SpectraSuite Data File
++++++++++++++++++++++++++++++++++++
Date: Fri Oct 04 11:39:59 GMT-05:00 2013
User: price-jones
Dark Spectrum Present: No
Reference Spectrum Present: No
Number of Sampled Component Spectra: 1
Spectrometers: USB2+H05261
Integration Time (usec): 100000 (USB2+H05261)
Spectra Averaged: 1 (USB2+H05261)
Boxcar Smoothing: 0 (USB2+H05261)
Correct for Electrical Dark: No (USB2+H05261)
Strobe/Lamp Enabled: No (USB2+H05261)
Correct for Detector Non-linearity: No (USB2+H05261)
Correct for Stray Light: No (USB2+H05261)
Number of Pixels in Processed Spectrum: 2048
>>>>>Begin Processed Spectral Data<<<<<
365.73	72.56
365.92	72.56
366.12	72.56
366.32	0.00
366.52	0.00
366.72	0.00
366.91	0.00
367.11	0.00
367.31	0.00
367.51	0.00
367.70	0.00
367.90	0.00
368.10	0.00
368.30	0.00
368.49	0.00
368.69	0.00
368.89	0.00
369.09	0.00
369.28	0.00
369.48	0.00
369.68	4.68
369.87	0.00
370.07	0.00
370.27	18.72
370.47	0.00
370.66	67.88
370.86	91.28
371.06	126.39
371.25	98.30
371.45	100.64
371.65	128.73
371.84	93.62
372.04	74.90
372.24	98.30
372.44	79.58
372.63	138.09
372.83	142.77
373.03	100.64
373.22	182.56
373.42	98.30
373.62	100.64
373.81	166.18
374.01	166.18
374.21	133.41
374.40	91.28
374.60	175.54
374.79	198.95
374.99	142.77
375.19	177.88
375.38	173.20
375.58	154.48
375.78	126.39
375.97	152.13
376.17	145.11
376.37	149.79
376.56	124.05
376.76	107.66
376.95	119.37
377.15	168.52
377.35	117.03
377.54	133.41
377.74	126.39
377.93	88.94
378.13	168.52
378.33	140.43
378.52	135.75
378.72	224.69
378.91	107.66
379.11	79.58
379.31	163.84
379.50	88.94
379.70	205.97
379.89	121.71
380.09	175.54
380.28	88.94
380.48	154.48
380.68	210.65
380.87	91.28
381.07	147.45
381.26	147.45
381.46	177.88
381.65	142.77
381.85	149.79
382.04	166.18
382.24	156.82
382.43	126.39
382.63	187.24
382.83	88.94
383.02	156.82
383.22	161.50
383.41	117.03
383.61	152.13
383.80	124.05
384.00	208.31
384.19	100.64
384.39	93.62
384.58	138.09
384.78	140.43
384.97	131.07
385.17	140.43
385.36	107.66
385.56	154.48
385.75	114.69
385.95	152.13
386.14	145.11
386.34	105.32
386.53	149.79
386.72	163.84
386.92	196.60
387.11	133.41
387.31	105.32
387.50	156.82
387.70	100.64
387.89	163.84
388.09	133.41
388.28	154.48
388.48	201.29
388.67	184.90
388.86	173.20
389.06	154.48
389.25	180.22
389.45	161.50
389.64	100.64
389.84	177.88
390.03	182.56
390.22	135.75
390.42	124.05
390.61	112.35
390.81	154.48
391.00	189.58
391.19	140.43
391.39	166.18
391.58	142.77
391.78	147.45
391.97	112.35
392.16	215.33
392.36	173.20
392.55	245.76
392.75	121.71
392.94	156.82
393.13	191.92
393.33	133.41
393.52	117.03
393.71	198.95
393.91	166.18
394.10	168.52
394.29	220.01
394.49	154.48
394.68	175.54
394.88	215.33
395.07	236.39
395.26	110.01
395.46	121.71
395.65	208.31
395.84	135.75
396.04	227.03
396.23	203.63
396.42	145.11
396.62	280.86
396.81	191.92
397.00	91.28
397.19	156.82
397.39	154.48
397.58	243.42
397.77	238.73
397.97	205.97
398.16	184.90
398.35	248.10
398.55	194.26
398.74	161.50
398.93	273.84
399.12	177.88
399.32	201.29
399.51	210.65
399.70	220.01
399.90	208.31
400.09	236.39
400.28	175.54
400.47	138.09
400.67	283.20
400.86	212.99
401.05	194.26
401.24	262.14
401.44	177.88
401.63	322.99
401.82	250.44
402.01	182.56
402.21	250.44
402.40	266.82
402.59	229.37
402.78	217.67
402.97	264.48
403.17	245.76
403.36	285.55
403.55	269.16
403.74	297.25
403.93	262.14
404.13	339.38
404.32	339.38
404.51	390.87
404.70	358.10
404.89	252.78
405.09	313.63
405.28	269.16
405.47	306.61
405.66	222.35
405.85	313.63
406.05	271.50
406.24	320.65
406.43	299.59
406.62	365.12
406.81	271.50
407.00	311.29
407.20	365.12
407.39	330.02
407.58	325.33
407.77	304.27
407.96	369.80
408.15	381.51
408.34	381.51
408.54	381.51
408.73	327.68
408.92	320.65
409.11	386.19
409.30	430.66
409.49	400.23
409.68	386.19
409.87	292.57
410.07	379.17
410.26	416.62
410.45	404.91
410.64	337.04
410.83	367.46
411.02	477.47
411.21	386.19
411.40	395.55
411.59	360.44
411.78	442.36
411.98	435.34
412.17	395.55
412.36	386.19
412.55	456.40
412.74	428.32
412.93	470.45
413.12	425.98
413.31	489.17
413.50	425.98
413.69	433.00
413.88	468.11
414.07	456.40
414.26	451.72
414.45	430.66
414.64	454.06
414.83	528.96
415.02	440.02
415.22	559.39
415.41	498.53
415.60	528.96
415.79	573.43
415.98	557.05
416.17	528.96
416.36	603.86
416.55	512.58
416.74	496.19
416.93	547.69
417.12	510.24
417.31	573.43
417.50	585.13
417.69	582.79
417.88	521.94
418.07	498.53
418.26	580.45
418.45	521.94
418.64	641.31
418.83	653.01
419.02	610.88
419.21	599.18
419.39	552.37
419.58	629.60
419.77	545.34
419.96	669.39
420.15	671.73
420.34	660.03
420.53	636.63
420.72	653.01
420.91	596.84
421.10	615.56
421.29	704.50
421.48	730.25
421.67	695.14
421.86	638.97
422.05	594.50
422.24	617.90
422.43	550.03
422.61	587.47
422.80	603.86
422.99	683.44
423.18	561.73
423.37	758.33
423.56	650.67
423.75	692.80
423.94	653.01
424.13	676.41
424.32	645.99
424.50	671.73
424.69	674.07
424.88	681.10
425.07	627.26
425.26	720.88
425.45	718.54
425.64	720.88
425.83	683.44
426.01	655.35
426.20	669.39
426.39	690.46
426.58	601.52
426.77	746.63
426.96	664.71
427.15	720.88
427.33	608.54
427.52	716.20
427.71	702.16
427.90	711.52
428.09	744.29
428.28	718.54
428.46	727.91
428.65	777.06
428.84	748.97
429.03	823.87
429.22	727.91
429.40	788.76
429.59	772.38
429.78	746.63
429.97	772.38
430.16	739.61
430.34	784.08
430.53	830.89
430.72	765.36
430.91	681.10
431.10	697.48
431.28	751.31
431.47	788.76
431.66	784.08
431.85	655.35
432.03	734.93
432.22	901.11
432.41	816.85
432.60	713.86
432.79	851.96
432.97	828.55
433.16	875.36
433.35	866.00
433.54	844.93
433.72	781.74
433.91	802.80
434.10	889.40
434.28	847.27
434.47	917.49
434.66	938.55
434.85	875.36
435.03	945.58
435.22	1170.27
435.41	1397.30
435.59	1430.07
435.78	1193.67
435.97	994.73
436.16	954.94
436.34	924.51
436.53	926.85
436.72	983.02
436.90	931.53
437.09	842.59
437.28	912.81
437.46	863.66
437.65	844.93
437.84	917.49
438.02	947.92
438.21	908.13
438.40	887.06
438.58	1018.13
438.77	1018.13
438.96	903.45
439.14	905.79
439.33	912.81
439.52	978.34
439.70	929.19
439.89	980.68
440.08	954.94
440.26	926.85
440.45	971.32
440.63	1011.11
440.82	1090.69
441.01	1064.94
441.19	992.39
441.38	1036.86
441.57	1111.75
441.75	1076.65
441.94	1158.57
442.12	1039.20
442.31	1048.56
442.50	1043.88
442.68	1057.92
442.87	997.07
443.05	1053.24
443.24	1067.28
443.43	1050.90
443.61	1093.03
443.80	1174.95
443.98	1083.67
444.17	1057.92
444.35	1116.44
444.54	1132.82
444.73	1146.86
444.91	1163.25
445.10	1083.67
445.28	990.05
445.47	1107.07
445.65	1149.20
445.84	1062.60
446.02	1142.18
446.21	1146.86
446.39	1039.20
446.58	1032.18
446.77	1123.46
446.95	1123.46
447.14	1158.57
447.32	1156.22
447.51	1095.37
447.69	1114.10
447.88	1128.14
448.06	1142.18
448.25	1191.33
448.43	1125.80
448.62	1104.73
448.80	1130.48
448.99	1146.86
449.17	1146.86
449.36	1128.14
449.54	1174.95
449.73	1144.52
449.91	1172.61
450.10	1165.59
450.28	1235.80
450.46	1345.81
450.65	1270.91
450.83	1172.61
451.02	1198.35
451.20	1123.46
451.39	1301.34
451.57	1193.67
451.76	1193.67
451.94	1184.31
452.13	1277.93
452.31	1310.70
452.49	1186.65
452.68	1207.72
452.86	1291.98
453.05	1280.27
453.23	1317.72
453.42	1139.84
453.60	1158.57
453.78	1224.10
453.97	1188.99
454.15	1219.42
454.34	1249.85
454.52	1284.95
454.70	1165.59
454.89	1268.57
455.07	1254.53
455.26	1282.61
455.44	1341.13
455.62	1348.15
455.81	1313.04
455.99	1336.45
456.17	1357.51
456.36	1308.36
456.54	1275.59
456.73	1308.36
456.91	1350.49
457.09	1331.76
457.28	1348.15
457.46	1380.92
457.64	1413.68
457.83	1371.55
458.01	1451.13
458.19	1310.70
458.38	1334.11
458.56	1390.28
458.74	1362.19
458.93	1420.71
459.11	1306.02
459.29	1359.85
459.48	1462.83
459.66	1425.39
459.84	1479.22
460.03	1540.07
460.21	1521.35
460.39	1509.65
460.57	1455.81
460.76	1504.96
460.94	1469.86
461.12	1474.54
461.31	1458.15
461.49	1469.86
461.67	1509.65
461.85	1521.35
462.04	1432.41
462.22	1930.94
462.40	1537.73
462.59	1584.54
462.77	1537.73
462.95	1542.41
463.13	1577.52
463.32	1514.33
463.50	1511.99
463.68	1535.39
463.86	1570.50
464.05	1500.28
464.23	1544.75
464.41	1614.97
464.59	1490.92
464.78	1511.99
464.96	1591.56
465.14	1451.13
465.32	1413.68
465.50	1540.07
465.69	1687.53
465.87	1535.39
466.05	1535.39
466.23	1600.93
466.41	1523.69
466.60	1603.27
466.78	1554.12
466.96	1619.65
467.14	1565.82
467.32	1600.93
467.51	1652.42
467.69	1589.22
467.87	1563.48
468.05	1612.63
468.23	1666.46
468.41	1572.84
468.60	1619.65
468.78	1790.51
468.96	1629.01
469.14	1643.06
469.32	1584.54
469.50	1610.29
469.69	1675.82
469.87	1657.10
470.05	1664.12
470.23	1661.78
470.41	1586.88
470.59	1596.25
470.77	1692.21
470.95	1689.87
471.14	1760.08
471.32	1708.59
471.50	1816.26
471.68	1713.27
471.86	1762.42
472.04	1732.00
472.22	1839.66
472.40	1722.63
472.58	1870.09
472.77	1839.66
472.95	1764.76
473.13	1900.52
473.31	1823.28
473.49	1746.04
473.67	1722.63
473.85	1870.09
474.03	1816.26
474.21	1853.70
474.39	1753.06
474.57	1856.04
474.75	1877.11
474.93	1921.58
475.12	1739.02
475.30	1816.26
475.48	1944.99
475.66	1977.75
475.84	1980.09
476.02	1942.64
476.20	1961.37
476.38	2050.31
476.56	1980.09
476.74	1968.39
476.92	2022.22
477.10	1935.62
477.28	2005.84
477.46	2038.61
477.64	2097.12
477.82	2076.06
478.00	2169.68
478.18	2115.84
478.36	2073.71
478.54	2134.57
478.72	2216.49
478.90	2246.91
479.08	2195.42
479.26	2160.31
479.44	2202.44
479.62	2195.42
479.80	2155.63
479.98	2174.36
480.16	2289.04
480.34	2298.41
480.52	2368.62
480.70	2307.77
480.88	2289.04
481.06	2345.22
481.24	2284.36
481.41	2361.60
481.59	2415.43
481.77	2408.41
481.95	2502.03
482.13	2363.94
482.31	2452.88
482.49	2441.18
482.67	2520.76
482.85	2413.09
483.03	2499.69
483.21	2670.55
483.39	2534.80
483.57	2607.36
483.74	2600.34
483.92	2523.10
484.10	2532.46
484.28	2700.98
484.46	2750.13
484.64	2803.96
484.82	2612.04
485.00	2810.98
485.18	2764.17
485.35	2867.16
485.53	2813.32
485.71	2876.52
485.89	2925.67
486.07	2918.65
486.25	2780.56
486.43	2890.56
486.61	2993.55
486.78	2913.97
486.96	3007.59
487.14	3136.32
487.32	3019.29
487.50	3047.38
487.68	3035.67
487.85	3204.19
488.03	3187.81
488.21	3243.98
488.39	3126.96
488.57	3302.50
488.75	3162.06
488.92	3405.48
489.10	3290.79
489.28	3304.84
489.46	3297.81
489.64	3456.97
489.81	3316.54
489.99	3372.71
490.17	3555.27
490.35	3433.57
490.53	3529.53
490.70	3529.53
490.88	3337.60
491.06	3503.78
491.24	3534.21
491.41	3538.89
491.59	3529.53
491.77	3534.21
491.95	3583.36
492.13	3571.66
492.30	3566.98
492.48	3702.73
492.66	3616.13
492.84	3625.49
493.01	3613.79
493.19	3684.00
493.37	3695.71
493.54	3688.68
493.72	3719.11
493.90	3726.13
494.08	3784.65
494.25	3761.24
494.43	3906.35
494.61	4032.74
494.79	3960.19
494.96	3819.75
495.14	3983.59
495.32	3948.48
495.49	3868.91
495.67	4044.45
495.85	3929.76
496.02	3978.91
496.20	4030.40
496.38	4229.35
496.55	4056.15
496.73	4093.60
496.91	3978.91
497.09	4208.28
497.26	4210.62
497.44	4222.33
497.62	4191.90
497.79	4269.14
497.97	4411.91
498.14	4278.50
498.32	4252.75
498.50	4259.78
498.67	4327.65
498.85	4346.37
499.03	4292.54
499.20	4285.52
499.38	4257.43
499.56	4400.21
499.73	4463.40
499.91	4376.80
500.08	4489.15
500.26	4348.72
500.44	4561.70
500.61	4437.66
500.79	4383.82
500.97	4418.93
501.14	4608.51
501.32	4421.27
501.49	4589.79
501.67	4603.83
501.84	4596.81
502.02	4777.03
502.20	4622.56
502.37	4592.13
502.55	4599.15
502.72	4744.27
502.90	4678.73
503.07	4589.79
503.25	4650.64
503.43	4681.07
503.60	4709.16
503.78	4667.03
503.95	4660.01
504.13	4638.94
504.30	4706.82
504.48	4704.48
504.65	4830.87
504.83	4887.04
505.01	4926.83
505.18	4880.02
505.36	4931.51
505.53	4945.55
505.71	4819.16
505.88	4910.44
506.06	4835.55
506.23	4931.51
506.41	4947.89
506.58	4968.96
506.76	4992.36
506.93	5060.24
507.11	5034.49
507.28	5207.69
507.46	4894.06
507.63	5177.26
507.81	5069.60
507.98	5060.24
508.16	5081.30
508.33	5231.10
508.50	5233.44
508.68	5226.42
508.85	5144.50
509.03	5231.10
509.20	5294.29
509.38	5254.50
509.55	5329.40
509.73	5252.16
509.90	5273.23
510.08	5198.33
510.25	5130.45
510.42	5380.89
510.60	5507.28
510.77	5284.93
510.95	5334.08
511.12	5317.70
511.30	5322.38
511.47	5425.36
511.64	5390.25
511.82	5518.98
511.99	5621.97
512.17	5526.00
512.34	5420.68
512.51	5345.78
512.69	5547.07
512.86	5533.03
513.04	5617.29
513.21	5682.82
513.38	5643.03
513.56	5582.18
513.73	5600.90
513.90	5621.97
514.08	5673.46
514.25	5645.37
514.43	5734.31
514.60	5771.76
514.77	5626.65
514.95	5790.49
515.12	5678.14
515.29	5713.25
515.47	5626.65
515.64	5839.64
515.81	5837.30
515.99	5813.89
516.16	5729.63
516.33	5851.34
516.51	5715.59
516.68	5844.32
516.85	5748.36
517.03	5891.13
517.20	5872.40
517.37	6001.13
517.54	6078.37
517.72	6003.47
517.89	5717.93
518.06	5788.14
518.24	5994.11
518.41	5870.06
518.58	5968.37
518.75	5893.47
518.93	5935.60
519.10	5881.77
519.27	6033.90
519.45	5987.09
519.62	6176.67
519.79	6155.61
519.96	6148.59
520.14	6164.97
520.31	6090.07
520.48	6024.54
520.65	5956.66
520.83	6230.51
521.00	6181.35
521.17	6080.71
521.34	6225.82
521.52	6235.19
521.69	6094.76
521.86	6314.77
522.03	6263.27
522.20	6223.48
522.38	6246.89
522.55	6445.84
522.72	6228.17
522.89	6396.68
523.07	6438.81
523.24	6300.72
523.41	6459.88
523.58	6338.17
523.75	6211.78
523.92	6279.66
524.10	6223.48
524.27	6310.08
524.44	6455.20
524.61	6431.79
524.78	6523.07
524.96	6623.72
525.13	6586.27
525.30	6326.47
525.47	6450.52
525.64	6413.07
525.81	6567.54
525.98	6530.09
526.16	6403.71
526.33	6457.54
526.50	6464.56
526.67	6534.78
526.84	6637.76
527.01	6544.14
527.18	6581.59
527.36	6518.39
527.53	6595.63
527.70	6717.34
527.87	6684.57
528.04	6628.40
528.21	6567.54
528.38	6609.67
528.55	6637.76
528.72	6752.45
528.89	6930.33
529.07	6881.18
529.24	6553.50
529.41	6740.74
529.58	6904.58
529.75	6785.21
529.92	6590.95
530.09	6832.02
530.26	6829.68
530.43	6682.23
530.60	6710.32
530.77	6775.85
530.94	6843.73
531.11	6717.34
531.28	6808.62
531.46	6850.75
531.63	6883.52
531.80	6979.48
531.97	6876.49
532.14	6911.60
532.31	6885.86
532.48	7021.61
532.65	6855.43
532.82	6923.30
532.99	6965.43
533.16	7126.93
533.33	7094.16
533.50	6846.07
533.67	7007.56
533.84	6972.46
534.01	6956.07
534.18	6939.69
534.35	6995.86
534.52	7119.91
534.69	7084.80
534.86	7115.23
535.03	7045.01
535.20	7026.29
535.37	7089.48
535.54	7000.54
535.71	6967.77
535.88	7232.26
536.05	7066.08
536.22	7112.89
536.38	6981.82
536.55	7180.76
536.72	7185.44
536.89	7007.56
537.06	6918.62
537.23	7222.89
537.40	7201.83
537.57	7192.47
537.74	7171.40
537.91	7456.95
538.08	7478.01
538.25	7222.89
538.42	7330.56
538.59	7368.01
538.75	7281.41
538.92	7480.35
539.09	7162.04
539.26	7431.20
539.43	7405.46
539.60	7403.11
539.77	7428.86
539.94	7658.23
540.11	7426.52
540.28	7576.31
540.44	7627.81
540.61	7648.87
540.78	7796.32
540.95	7763.56
541.12	8053.78
541.29	7955.48
541.46	7733.13
541.62	7775.26
541.79	7999.95
541.96	8065.49
542.13	7850.16
542.30	8039.74
542.47	7981.23
542.63	7988.25
542.80	7978.89
542.97	8105.28
543.14	8147.40
543.31	7920.37
543.48	7936.76
543.64	7971.86
543.81	8098.25
543.98	8154.43
544.15	8116.98
544.32	8177.83
544.48	8196.56
544.65	8032.72
544.82	8175.49
544.99	8131.02
545.16	7953.14
545.32	8070.17
545.49	8442.31
545.66	9132.77
545.83	9252.14
546.00	9296.61
546.16	8542.96
546.33	8306.56
546.50	8126.34
546.67	7981.23
546.83	7868.88
547.00	8079.53
547.17	8042.08
547.34	7824.41
547.50	7985.91
547.67	7946.12
547.84	7946.12
548.00	7779.94
548.17	8077.19
548.34	7920.37
548.51	7878.24
548.67	8028.04
548.84	7803.35
549.01	7948.46
549.18	7845.48
549.34	7967.18
549.51	7889.95
549.68	7878.24
549.84	7885.26
550.01	7878.24
550.18	8121.66
550.34	8091.23
550.51	7896.97
550.68	8138.04
550.84	7908.67
551.01	7824.41
551.18	7894.63
551.34	7850.16
551.51	7960.16
551.68	7782.28
551.84	8030.38
552.01	8016.33
552.18	7955.48
552.34	7772.92
552.51	7798.66
552.68	7850.16
552.84	7946.12
553.01	7887.61
553.18	7971.86
553.34	8032.72
553.51	7974.21
553.67	8011.65
553.84	8060.80
554.01	7819.73
554.17	7925.05
554.34	8060.80
554.51	7854.84
554.67	8016.33
554.84	8035.06
555.00	7967.18
555.17	7887.61
555.33	8016.33
555.50	8119.32
555.67	7889.95
555.83	7950.80
556.00	7960.16
556.16	8028.04
556.33	8077.19
556.50	7875.90
556.66	7971.86
556.83	7885.26
556.99	8070.17
557.16	7889.95
557.32	7974.21
557.49	8058.46
557.65	7992.93
557.82	8032.72
557.98	7894.63
558.15	7922.71
558.32	7911.01
558.48	8028.04
558.65	7943.78
558.81	8060.80
558.98	7985.91
559.14	8135.70
559.31	8056.12
559.47	7927.39
559.64	8002.29
559.80	7786.96
559.97	8011.65
560.13	8018.68
560.30	8051.44
560.46	8131.02
560.63	8056.12
560.79	8081.87
560.96	8093.57
561.12	8128.68
561.29	8109.96
561.45	8135.70
561.61	8093.57
561.78	8217.62
561.94	8109.96
562.11	7859.52
562.27	8095.91
562.44	8046.76
562.60	8145.06
562.77	8060.80
562.93	8077.19
563.10	8248.05
563.26	8006.97
563.42	8093.57
563.59	8023.36
563.75	8203.58
563.92	8006.97
564.08	8173.15
564.24	8177.83
564.41	8142.72
564.57	8138.04
564.74	8166.13
564.90	8269.11
565.07	8077.19
565.23	8140.38
565.39	8133.36
565.56	8070.17
565.72	7819.73
565.88	8102.93
566.05	8107.62
566.21	8004.63
566.38	8168.47
566.54	8210.60
566.70	8217.62
566.87	8116.98
567.03	8161.45
567.19	8360.39
567.36	8278.47
567.52	8102.93
567.68	8189.53
567.85	8269.11
568.01	8086.55
568.17	7981.23
568.34	8140.38
568.50	8044.42
568.66	8088.89
568.83	8332.31
568.99	8231.66
569.15	8133.36
569.32	8070.17
569.48	8138.04
569.64	7929.74
569.81	8060.80
569.97	8156.77
570.13	8119.32
570.30	8194.22
570.46	8060.80
570.62	8229.32
570.78	8011.65
570.95	8077.19
571.11	8081.87
571.27	8264.43
571.43	8013.99
571.60	8201.24
571.76	8191.88
571.92	8166.13
572.09	8252.73
572.25	8067.83
572.41	8238.69
572.57	8124.00
572.74	8430.61
572.90	8163.79
573.06	8241.03
573.22	8011.65
573.38	8159.11
573.55	8053.78
573.71	8215.28
573.87	8259.75
574.03	8182.51
574.20	8339.33
574.36	8243.37
574.52	8201.24
574.68	8351.03
574.84	8105.28
575.01	8067.83
575.17	8161.45
575.33	8313.58
575.49	8322.94
575.65	8180.17
575.82	8395.50
575.98	8421.25
576.14	8411.89
576.30	8304.22
576.46	8194.22
576.62	8465.72
576.79	8500.83
576.95	8355.71
577.11	8348.69
577.27	8461.04
577.43	8236.35
577.59	8439.97
577.75	8229.32
577.92	7974.21
578.08	8269.11
578.24	8039.74
578.40	8259.75
578.56	8517.21
578.72	8369.76
578.88	8554.66
579.04	8507.85
579.21	8269.11
579.37	8472.74
579.53	8243.37
579.69	8421.25
579.85	8184.85
580.01	8383.80
580.17	8191.88
580.33	8241.03
580.49	8383.80
580.65	8346.35
580.82	8531.25
580.98	8226.98
581.14	8315.92
581.30	8341.67
581.46	8095.91
581.62	8336.99
581.78	8276.13
581.94	8344.01
582.10	8266.77
582.26	8290.18
582.42	8390.82
582.58	8245.71
582.74	8280.82
582.90	8465.72
583.06	8348.69
583.22	8383.80
583.38	8526.57
583.54	8374.44
583.70	8472.74
583.86	8369.76
584.02	8344.01
584.18	8367.42
584.34	8409.54
584.50	8421.25
584.66	8372.10
584.82	8435.29
584.98	8362.73
585.14	8346.35
585.30	8205.92
585.46	8308.90
585.62	8210.60
585.78	8360.39
585.94	8299.54
586.10	8304.22
586.26	8315.92
586.42	8472.74
586.58	8442.31
586.74	8528.91
586.90	8414.23
587.06	8624.87
587.22	8510.19
587.38	8542.96
587.54	8465.72
587.70	8341.67
587.86	8554.66
588.02	8498.49
588.18	8344.01
588.34	8465.72
588.49	8362.73
588.65	8191.88
588.81	8395.50
588.97	8224.64
589.13	8297.20
589.29	8327.63
589.45	8400.18
589.61	8173.15
589.77	8505.51
589.93	8327.63
590.08	8170.81
590.24	8472.74
590.40	8580.40
590.56	8344.01
590.72	8601.47
590.88	8322.94
591.04	8271.45
591.20	8266.77
591.35	8320.60
591.51	8465.72
591.67	8203.58
591.83	8482.10
591.99	8557.00
592.15	8454.02
592.31	8339.33
592.46	8641.26
592.62	8404.86
592.78	8650.62
592.94	8713.81
593.10	8599.13
593.26	8608.49
593.41	8461.04
593.57	8531.25
593.73	8451.67
593.89	8479.76
594.05	8512.53
594.20	8250.39
594.36	8510.19
594.52	8278.47
594.68	8243.37
594.84	8344.01
594.99	8580.40
595.15	8496.14
595.31	8320.60
595.47	8524.23
595.62	8461.04
595.78	8388.48
595.94	8301.88
596.10	8390.82
596.25	8325.29
596.41	8280.82
596.57	8390.82
596.73	8238.69
596.88	8393.16
597.04	8468.06
597.20	8255.07
597.36	8524.23
597.51	8489.12
597.67	8545.30
597.83	8318.26
597.99	8456.36
598.14	8388.48
598.30	8346.35
598.46	8404.86
598.61	8688.07
598.77	8381.46
598.93	8615.51
599.09	8393.16
599.24	8510.19
599.40	8418.91
599.56	8280.82
599.71	8505.51
599.87	8285.50
600.03	8299.54
600.18	8409.54
600.34	8196.56
600.50	8486.78
