SpectraSuite Data File
++++++++++++++++++++++++++++++++++++
Date: Fri Oct 04 11:39:35 GMT-05:00 2013
User: price-jones
Dark Spectrum Present: No
Reference Spectrum Present: No
Number of Sampled Component Spectra: 1
Spectrometers: USB2+H05261
Integration Time (usec): 100000 (USB2+H05261)
Spectra Averaged: 1 (USB2+H05261)
Boxcar Smoothing: 0 (USB2+H05261)
Correct for Electrical Dark: No (USB2+H05261)
Strobe/Lamp Enabled: No (USB2+H05261)
Correct for Detector Non-linearity: No (USB2+H05261)
Correct for Stray Light: No (USB2+H05261)
Number of Pixels in Processed Spectrum: 2048
>>>>>Begin Processed Spectral Data<<<<<
365.73	28.09
365.92	28.09
366.12	28.09
366.32	0.00
366.52	0.00
366.72	0.00
366.91	0.00
367.11	0.00
367.31	0.00
367.51	0.00
367.70	0.00
367.90	0.00
368.10	0.00
368.30	25.75
368.49	0.00
368.69	0.00
368.89	0.00
369.09	0.00
369.28	0.00
369.48	23.41
369.68	28.09
369.87	28.09
370.07	25.75
370.27	39.79
370.47	140.43
370.66	227.03
370.86	236.39
371.06	341.72
371.25	346.40
371.45	133.41
371.65	252.78
371.84	241.08
372.04	269.16
372.24	255.12
372.44	313.63
372.63	334.70
372.83	355.76
373.03	332.36
373.22	411.93
373.42	306.61
373.62	306.61
373.81	313.63
374.01	353.42
374.21	273.84
374.40	269.16
374.60	418.96
374.79	341.72
374.99	421.30
375.19	449.38
375.38	351.08
375.58	418.96
375.78	425.98
375.97	372.15
376.17	463.43
376.37	320.65
376.56	418.96
376.76	381.51
376.95	315.97
377.15	372.15
377.35	358.10
377.54	444.70
377.74	353.42
377.93	358.10
378.13	358.10
378.33	498.53
378.52	390.87
378.72	402.57
378.91	411.93
379.11	482.15
379.31	374.49
379.50	332.36
379.70	388.53
379.89	397.89
380.09	465.77
380.28	339.38
380.48	407.25
380.68	421.30
380.87	388.53
381.07	393.21
381.26	437.68
381.46	479.81
381.65	397.89
381.85	435.34
382.04	463.43
382.24	409.59
382.43	447.04
382.63	468.11
382.83	437.68
383.02	547.69
383.22	491.51
383.41	465.77
383.61	456.40
383.80	484.49
384.00	416.62
384.19	461.09
384.39	519.60
384.58	425.98
384.78	461.09
384.97	524.28
385.17	489.17
385.36	463.43
385.56	531.30
385.75	472.79
385.95	468.11
386.14	550.03
386.34	435.34
386.53	543.00
386.72	514.92
386.92	596.84
387.11	496.19
387.31	444.70
387.50	554.71
387.70	517.26
387.89	442.36
388.09	491.51
388.28	545.34
388.48	599.18
388.67	585.13
388.86	496.19
389.06	575.77
389.25	550.03
389.45	594.50
389.64	526.62
389.84	606.20
390.03	610.88
390.22	697.48
390.42	594.50
390.61	627.26
390.81	543.00
391.00	634.29
391.19	599.18
391.39	641.31
391.58	718.54
391.78	664.71
391.97	610.88
392.16	596.84
392.36	732.59
392.55	669.39
392.75	664.71
392.94	634.29
393.13	624.92
393.33	533.64
393.52	685.78
393.71	655.35
393.91	699.82
394.10	669.39
394.29	671.73
394.49	692.80
394.68	760.67
394.88	753.65
395.07	706.84
395.26	812.17
395.46	690.46
395.65	828.55
395.84	779.40
396.04	781.74
396.23	828.55
396.42	755.99
396.62	793.44
396.81	798.12
397.00	915.15
397.19	884.72
397.39	905.79
397.58	828.55
397.77	851.96
397.97	926.85
398.16	901.11
398.35	950.26
398.55	849.61
398.74	875.36
398.93	870.68
399.12	917.49
399.32	915.15
399.51	1006.43
399.70	1064.94
399.90	896.43
400.09	915.15
400.28	931.53
400.47	983.02
400.67	1015.79
400.86	940.90
401.05	985.37
401.24	1050.90
401.44	1090.69
401.63	1090.69
401.82	1170.27
402.01	1018.13
402.21	968.98
402.40	1076.65
402.59	1093.03
402.78	1095.37
402.97	1177.29
403.17	1163.25
403.36	1151.54
403.55	1160.91
403.74	1219.42
403.93	1191.33
404.13	1277.93
404.32	1224.10
404.51	1273.25
404.70	1245.16
404.89	1245.16
405.09	1341.13
405.28	1165.59
405.47	1348.15
405.66	1334.11
405.85	1329.42
406.05	1338.79
406.24	1369.21
406.43	1413.68
406.62	1404.32
406.81	1516.67
407.00	1497.94
407.20	1455.81
407.39	1486.24
407.58	1497.94
407.77	1603.27
407.96	1577.52
408.15	1659.44
408.34	1563.48
408.54	1577.52
408.73	1694.55
408.92	1542.41
409.11	1727.32
409.30	1647.74
409.49	1680.50
409.68	1703.91
409.87	1682.85
410.07	1710.93
410.26	1757.74
410.45	1762.42
410.64	1703.91
410.83	1769.44
411.02	1820.94
411.21	1795.19
411.40	1877.11
411.59	1837.32
411.78	1975.41
411.98	1839.66
412.17	1963.71
412.36	2012.86
412.55	2026.90
412.74	2094.78
412.93	2165.00
413.12	2090.10
413.31	2160.31
413.50	2115.84
413.69	2258.62
413.88	2286.70
414.07	2195.42
414.26	2267.98
414.45	2256.28
414.64	2291.38
414.83	2363.94
415.02	2366.28
415.22	2434.16
415.41	2473.95
415.60	2420.11
415.79	2579.27
415.98	2520.76
416.17	2443.52
416.36	2614.38
416.55	2495.01
416.74	2567.57
416.93	2628.42
417.12	2586.29
417.31	2719.70
417.50	2602.68
417.69	2806.30
417.88	2717.36
418.07	2754.81
418.26	2703.32
418.45	2883.54
418.64	2839.07
418.83	2937.37
419.02	2822.69
419.21	2946.73
419.39	2935.03
419.58	2871.84
419.77	2862.48
419.96	3040.36
420.15	3026.31
420.34	3159.72
420.53	2883.54
420.72	2986.52
420.91	3049.72
421.10	3143.34
421.29	3227.60
421.48	3084.83
421.67	3112.91
421.86	3141.00
422.05	3138.66
422.24	3260.37
422.43	3199.51
422.61	3194.83
422.80	3145.68
422.99	3185.47
423.18	3220.58
423.37	3225.26
423.56	3225.26
423.75	3302.50
423.94	3150.36
424.13	3117.59
424.32	3243.98
424.50	3241.64
424.69	3372.71
424.88	3368.03
425.07	3442.93
425.26	3353.99
425.45	3332.92
425.64	3269.73
425.83	3328.24
426.01	3412.50
426.20	3370.37
426.39	3412.50
426.58	3433.57
426.77	3372.71
426.96	3496.76
427.15	3473.36
427.33	3447.61
427.52	3407.82
427.71	3501.44
427.90	3471.01
428.09	3522.51
428.28	3428.88
428.46	3548.25
428.65	3611.45
428.84	3606.77
429.03	3756.56
429.22	3571.66
429.40	3714.43
429.59	3590.38
429.78	3531.87
429.97	3585.70
430.16	3595.06
430.34	3925.08
430.53	3768.26
430.72	3934.44
430.91	3702.73
431.10	3913.38
431.28	3817.41
431.47	3934.44
431.66	3889.97
431.85	3852.52
432.03	4037.42
432.22	4100.62
432.41	3801.03
432.60	4028.06
432.79	3824.44
432.97	3932.10
433.16	4175.52
433.35	4021.04
433.54	4079.55
433.72	3992.95
433.91	4042.11
434.10	4140.41
434.28	4070.19
434.47	4044.45
434.66	4276.16
434.85	4257.43
435.03	4355.74
435.22	4489.15
435.41	4650.64
435.59	4629.58
435.78	4648.30
435.97	4470.42
436.16	4550.00
436.34	4500.85
436.53	4503.19
436.72	4503.19
436.90	4379.14
437.09	4496.17
437.28	4397.87
437.46	4463.40
437.65	4547.66
437.84	4697.46
438.02	4622.56
438.21	4706.82
438.40	4425.95
438.58	4777.03
438.77	4601.49
438.96	4767.67
439.14	4877.68
439.33	4798.10
439.52	4830.87
439.70	4968.96
439.89	4882.36
440.08	4863.63
440.26	4926.83
440.45	5137.48
440.63	5266.21
440.82	5100.03
441.01	5104.71
441.19	5198.33
441.38	5254.50
441.57	5261.52
441.75	5352.81
441.94	5324.72
442.12	5380.89
442.31	5467.49
442.50	5439.40
442.68	5268.55
442.87	5497.92
443.05	5350.46
443.24	5556.43
443.43	5526.00
443.61	5568.13
443.80	5678.14
443.98	5451.11
444.17	5291.95
444.35	5626.65
444.54	5589.20
444.73	5547.07
444.91	5596.22
445.10	5621.97
445.28	5790.49
445.47	5636.01
445.65	5769.42
445.84	5783.46
446.02	5650.05
446.21	5561.11
446.39	5699.20
446.58	5837.30
446.77	5624.31
446.95	5334.08
447.14	5757.72
447.32	5584.52
447.51	5694.52
447.69	5736.65
447.88	5734.31
448.06	5710.91
448.25	5722.61
448.43	5783.46
448.62	5799.85
448.80	5753.04
448.99	6001.13
449.17	5893.47
449.36	5708.57
449.54	5959.00
449.73	6069.01
449.91	6157.95
450.10	5944.96
450.28	6099.44
450.46	6134.54
450.65	6008.16
450.83	6286.68
451.02	6134.54
451.20	6097.10
451.39	6141.57
451.57	6106.46
451.76	6174.33
451.94	6214.12
452.13	6286.68
452.31	6392.00
452.49	6417.75
452.68	6221.14
452.86	6296.04
453.05	6190.72
453.23	6251.57
453.42	6305.40
453.60	6525.41
453.78	6459.88
453.97	6153.27
454.15	6459.88
454.34	6216.46
454.52	6541.80
454.70	6537.12
454.89	6656.48
455.07	6490.31
455.26	6663.51
455.44	6637.76
455.62	6689.25
455.81	6724.36
455.99	6675.21
456.17	6661.16
456.36	6719.68
456.54	6789.89
456.73	6675.21
456.91	6815.64
457.09	7056.72
457.28	7098.84
457.46	6881.18
457.64	7073.10
457.83	7061.40
458.01	6850.75
458.19	7054.37
458.38	6956.07
458.56	7002.88
458.74	7258.00
458.93	7281.41
459.11	7087.14
459.29	7140.97
459.48	7356.30
459.66	7229.91
459.84	7393.75
460.03	7372.69
460.21	7321.20
460.39	7295.45
460.57	7339.92
460.76	7363.33
460.94	7459.29
461.12	7400.77
461.31	7520.14
461.49	7473.33
461.67	7426.52
461.85	7700.36
462.04	7578.65
462.22	7777.60
462.40	7482.69
462.59	7758.88
462.77	7585.68
462.95	7803.35
463.13	7763.56
463.32	7779.94
463.50	7997.61
463.68	7946.12
463.86	7868.88
464.05	7716.75
464.23	7775.26
464.41	7815.05
464.59	7721.43
464.78	7929.74
464.96	7878.24
465.14	7843.14
465.32	8030.38
465.50	8116.98
465.69	8243.37
465.87	7934.42
466.05	8053.78
466.23	8039.74
466.41	8086.55
466.60	8540.61
466.78	8011.65
466.96	8124.00
467.14	8147.40
467.32	8224.64
467.51	8196.56
467.69	8109.96
467.87	8383.80
468.05	8376.78
468.23	8217.62
468.41	8212.94
468.60	8308.90
468.78	8430.61
468.96	8505.51
469.14	8500.83
469.32	8652.96
469.50	8372.10
469.69	8638.92
469.87	8671.68
470.05	8582.74
470.23	8662.32
470.41	8676.37
470.59	8786.37
470.77	8674.03
470.95	8739.56
471.14	8734.88
471.32	8589.77
471.50	9039.15
471.68	9048.51
471.86	9053.19
472.04	8950.21
472.22	9334.06
472.40	9125.75
472.58	9151.49
472.77	9301.29
472.95	9394.91
473.13	9771.74
473.31	9291.93
473.49	9322.35
473.67	9369.16
473.85	9317.67
474.03	9568.11
474.21	9390.23
474.39	9701.52
474.57	9687.48
474.75	9774.08
474.93	10003.45
475.12	9776.42
475.30	9771.74
475.48	9933.23
475.66	10076.01
475.84	10183.67
476.02	10291.34
476.20	10150.90
476.38	10090.05
476.56	10478.58
476.74	10443.47
476.92	10338.15
477.10	10459.85
477.28	10754.76
477.46	10668.16
477.64	10841.36
477.82	11108.18
478.00	11342.24
478.18	10951.37
478.36	11190.10
478.54	11375.00
478.72	11321.17
478.90	11316.49
479.08	11489.69
479.26	11431.18
479.44	11585.65
479.62	11702.68
479.80	11728.42
479.98	11962.48
480.16	11995.25
480.34	12074.82
480.52	12285.47
480.70	12180.15
480.88	12039.72
481.06	12215.26
481.24	12042.06
481.41	12610.81
481.59	12666.98
481.77	12828.48
481.95	13001.68
482.13	12755.92
482.31	12919.76
482.49	13064.87
482.67	13305.95
482.85	13336.37
483.03	13685.11
483.21	13556.38
483.39	13813.84
483.57	13731.92
483.74	13935.55
483.92	13954.27
484.10	13984.70
484.28	14204.71
484.46	14523.02
484.64	14923.26
484.82	14349.82
485.00	14485.58
485.18	15138.58
485.35	14824.95
485.53	14965.39
485.71	15351.57
485.89	15466.26
486.07	15253.27
486.25	15424.13
486.43	15445.20
486.61	15704.99
486.78	15836.06
486.96	15969.48
487.14	16226.93
487.32	16027.99
487.50	16236.30
487.68	16400.13
487.85	16589.72
488.03	16830.79
488.21	16912.71
488.39	16926.75
488.57	16875.26
488.75	17081.23
488.92	17242.73
489.10	17699.13
489.28	17376.14
489.46	17729.56
489.64	17488.48
489.81	18396.61
489.99	17874.67
490.17	18001.06
490.35	18162.56
490.53	18312.35
490.70	18618.96
490.88	18726.63
491.06	18740.67
491.24	18436.40
491.41	18986.43
491.59	19112.81
491.77	18972.38
491.95	19447.51
492.13	19435.81
492.30	19522.41
492.48	19655.82
492.66	19353.89
492.84	19812.63
493.01	19990.52
493.19	20170.74
493.37	20526.50
493.54	20301.81
493.72	20479.69
493.90	20086.48
494.08	20671.61
494.25	20751.19
494.43	20802.68
494.61	21144.40
494.79	20886.94
494.96	20966.52
495.14	20994.61
495.32	21598.46
495.49	21324.62
495.67	21703.79
495.85	22197.64
496.02	21867.63
496.20	22457.44
496.38	22108.70
496.55	22274.88
496.73	22373.18
496.91	22356.80
497.09	22597.87
497.26	22852.99
497.44	22492.55
497.62	22572.13
497.79	23119.81
497.97	22939.59
498.14	23157.26
498.32	23241.52
498.50	23616.01
498.67	23660.48
498.85	23658.14
499.03	23583.24
499.20	23758.78
499.38	24137.94
499.56	24121.56
499.73	24041.98
499.91	24112.20
500.08	24259.65
500.26	23990.49
500.44	24687.97
500.61	24790.95
500.79	24606.05
500.97	24456.26
501.14	25048.41
501.32	24746.48
501.49	24945.43
501.67	25078.84
501.84	25465.03
502.02	25109.27
502.20	25350.34
502.37	25717.81
502.55	25659.29
502.72	25179.48
502.90	25455.67
503.07	25277.79
503.25	25972.92
503.43	25488.43
503.60	25804.41
503.78	26106.34
503.95	25979.95
504.13	26188.25
504.30	26080.59
504.48	26345.07
504.65	26373.16
504.83	26780.41
505.01	27047.23
505.18	26719.56
505.36	26972.33
505.53	26691.47
505.71	26845.94
505.88	26785.09
506.06	26815.52
506.23	27110.43
506.41	27243.84
506.58	27405.33
506.76	27190.00
506.93	27676.83
507.11	27527.04
507.28	27831.31
507.46	27625.34
507.63	27618.32
507.81	28215.16
507.98	27653.43
508.16	28100.47
508.33	28496.02
508.50	27873.44
508.68	28360.27
508.85	28851.78
509.03	28561.56
509.20	28575.60
509.38	28580.28
509.55	28755.82
509.73	28947.75
509.90	28769.86
510.08	28835.40
510.25	29294.14
510.42	29202.86
510.60	29350.32
510.77	29654.59
510.95	29837.15
511.12	29090.52
511.30	29291.80
511.47	29500.11
511.64	29668.63
511.82	29909.71
511.99	29954.18
512.17	30110.99
512.34	30136.74
512.51	30045.46
512.69	30108.65
512.86	30515.90
513.04	30728.89
513.21	30319.30
513.38	30698.47
513.56	30764.00
513.73	30675.06
513.90	30752.30
514.08	30710.17
514.25	30801.45
514.43	31438.08
514.60	31445.10
514.77	30827.20
514.95	31124.44
515.12	31119.76
515.29	31168.91
515.47	31398.29
515.64	31608.93
515.81	31730.64
515.99	31353.82
516.16	31899.16
516.33	32187.05
516.51	32308.76
516.68	31845.33
516.85	31669.79
517.03	32112.15
517.20	32390.67
517.37	31910.86
517.54	32580.26
517.72	32339.18
517.89	32173.00
518.06	32456.21
518.24	32496.00
518.41	32301.73
518.58	32467.91
518.75	32584.94
518.93	32767.50
519.10	32795.59
519.27	33102.20
519.45	33013.26
519.62	33638.18
519.79	33118.58
519.96	33205.18
520.14	33172.41
520.31	33455.62
520.48	33507.11
520.65	33434.55
520.83	33472.00
521.00	33909.68
521.17	33734.14
521.34	33773.93
521.52	34033.73
521.69	33619.46
521.86	34192.89
522.03	34469.07
522.20	34223.31
522.38	34043.09
522.55	33940.11
522.72	34195.23
522.89	34616.52
523.07	34487.79
523.24	34342.68
523.41	34579.07
523.58	34515.88
523.75	34635.25
523.92	34630.57
524.10	35175.91
524.27	35007.39
524.44	35358.47
524.61	35311.66
524.78	35040.16
524.96	35161.87
525.13	35370.18
525.30	35051.86
525.47	35686.15
525.64	35000.37
525.81	35690.83
525.98	36086.38
526.16	35407.62
526.33	35304.64
526.50	35945.95
526.67	35306.98
526.84	35859.35
527.01	35695.51
527.18	36016.16
527.36	35901.48
527.53	35875.73
527.70	36442.14
527.87	36676.19
528.04	36177.66
528.21	36219.79
528.38	36715.98
528.55	36135.53
528.72	36268.94
528.89	36568.53
529.07	36495.97
529.24	36446.82
529.41	36580.23
529.58	36526.40
529.75	36699.60
529.92	36783.86
530.09	36978.12
530.26	36797.90
530.43	37216.86
530.60	36921.95
530.77	36802.58
530.94	37202.82
531.11	37249.63
531.28	37235.58
531.46	37055.36
531.63	37537.51
531.80	37067.06
531.97	37542.19
532.14	37158.34
532.31	37516.45
532.48	37294.10
532.65	37689.65
532.82	37769.22
532.99	37949.45
533.16	37315.16
533.33	38026.68
533.50	38352.02
533.67	37745.82
533.84	37867.53
534.01	38019.66
534.18	37720.07
534.35	38529.90
534.52	38387.13
534.69	38213.93
534.86	38501.81
535.03	38204.56
535.20	38469.04
535.37	38487.77
535.54	38925.45
535.71	38499.47
535.88	38363.72
536.05	38230.31
536.22	38672.67
536.38	39075.24
536.55	38911.41
536.72	38689.06
536.89	38487.77
537.06	38890.34
537.23	38822.47
537.40	38953.54
537.57	38988.64
537.74	39271.85
537.91	39173.55
538.08	39194.61
538.25	39189.93
538.42	39206.31
538.59	39468.45
538.75	39086.95
538.92	39157.16
539.09	39543.35
539.26	39384.19
539.43	39786.77
539.60	39847.62
539.77	39674.42
539.94	40065.29
540.11	39887.41
540.28	39789.11
540.44	40184.66
540.61	40130.83
540.78	40208.06
540.95	40004.44
541.12	40620.00
541.29	40294.66
541.46	40437.44
541.62	40271.26
541.79	40161.25
541.96	40123.80
542.13	40484.25
542.30	40388.28
542.47	40776.81
542.63	40739.36
542.80	40645.74
542.97	41144.28
543.14	41434.50
543.31	40994.48
543.48	40713.62
543.64	41354.93
543.81	41120.87
543.98	41198.11
544.15	41343.22
544.32	41415.78
544.48	41794.95
544.65	41247.26
544.82	40861.07
544.99	40905.54
545.16	41263.64
545.32	41230.88
545.49	41956.44
545.66	42459.66
545.83	42799.04
546.00	42480.72
546.16	41701.32
546.33	41446.21
546.50	41036.61
546.67	41422.80
546.83	41624.09
547.00	41055.34
547.17	41902.61
547.34	41853.46
547.50	42141.35
547.67	42171.77
547.84	41670.90
548.00	41769.20
548.17	41713.03
548.34	41572.60
548.51	42312.20
548.67	42148.37
548.84	42150.71
549.01	41846.44
549.18	42052.41
549.34	41698.98
549.51	42019.64
549.68	42120.28
549.84	41823.03
550.01	42384.76
550.18	41956.44
550.34	42412.85
550.51	42284.12
550.68	42529.87
550.84	42139.00
551.01	42174.11
551.18	41883.89
551.34	41888.57
551.51	42101.56
551.68	42588.39
551.84	42110.92
552.01	42396.46
552.18	42445.62
552.34	42199.86
552.51	42625.84
552.68	42525.19
552.84	42394.12
553.01	42916.06
553.18	42653.92
553.34	42284.12
553.51	42389.44
553.67	42745.20
553.84	42871.59
554.01	43536.30
554.17	42703.07
554.34	42979.26
554.51	42759.25
554.67	42597.75
554.84	42707.76
555.00	42581.37
555.17	42700.73
555.33	43068.20
555.50	42810.74
555.67	43227.35
555.83	42862.23
556.00	42635.20
556.16	43611.20
556.33	42890.32
556.50	43276.51
556.66	42726.48
556.83	42892.66
556.99	43309.27
557.16	43063.52
557.32	43035.43
557.49	43056.50
557.65	42864.57
557.82	42965.21
557.98	43068.20
558.15	43482.47
558.32	43423.96
558.48	43058.84
558.65	43543.33
558.81	43419.28
558.98	43194.59
559.14	43166.50
559.31	43386.51
559.47	43107.99
559.64	42927.77
559.80	43459.07
559.97	43466.09
560.13	42883.30
560.30	43704.82
560.46	43604.18
560.63	43414.60
560.79	43482.47
560.96	43545.67
561.12	43533.96
561.29	43510.56
561.45	43491.83
561.61	43800.79
561.78	43735.25
561.94	43466.09
562.11	43868.66
562.27	43641.63
562.44	43515.24
562.60	43662.69
562.77	43571.41
562.93	43770.36
563.10	44266.55
563.26	44238.47
563.42	44259.53
563.59	43838.23
563.75	43971.64
563.92	43882.70
564.08	43999.73
564.24	43466.09
564.41	43496.52
564.57	43711.84
564.74	43732.91
564.90	43852.28
565.07	43746.95
565.23	44350.81
565.39	43655.67
565.56	44151.87
565.72	43658.01
565.88	43920.15
566.05	43655.67
566.21	43786.74
566.38	44018.46
566.54	44266.55
566.70	43903.77
566.87	44102.71
567.03	43929.51
567.19	44100.37
567.36	43922.49
567.52	43938.88
567.68	43650.99
567.85	43789.08
568.01	43833.55
568.17	44224.42
568.34	44210.38
568.50	44046.54
568.66	44048.88
568.83	44072.29
568.99	43709.50
569.15	44898.50
569.32	43887.39
569.48	43833.55
569.64	44133.14
569.81	44315.70
569.97	44217.40
570.13	44055.90
570.30	43962.28
570.46	44287.62
570.62	44280.60
570.78	44041.86
570.95	43997.39
571.11	44318.04
571.27	43655.67
571.43	43744.61
571.60	44306.34
571.76	44114.42
571.92	44414.01
572.09	44406.98
572.25	44275.91
572.41	44479.54
572.57	43964.62
572.74	44311.02
572.90	43913.13
573.06	44114.42
573.22	44467.84
573.38	44561.46
573.55	44189.31
573.71	44793.17
573.87	44556.78
574.03	44369.54
574.20	44194.00
574.36	44039.52
574.52	44201.02
574.68	44402.30
574.84	44144.84
575.01	44023.14
575.17	44128.46
575.33	44306.34
575.49	44320.38
575.65	44451.45
575.82	44315.70
575.98	44039.52
576.14	44091.01
576.30	44226.76
576.46	44151.87
576.62	44397.62
576.79	44191.65
576.95	44069.95
577.11	44273.57
577.27	44453.79
577.43	44545.08
577.59	44212.72
577.75	44294.64
577.92	44027.82
578.08	43812.49
578.24	44175.27
578.40	44072.29
578.56	44465.50
578.72	44470.18
578.88	44807.22
579.04	44673.81
579.21	44294.64
579.37	44254.85
579.53	44196.34
579.69	43957.60
579.85	44076.97
580.01	43856.96
580.17	44327.41
580.33	44304.00
580.49	44357.83
580.65	44535.71
580.82	44385.92
580.98	44121.44
581.14	44521.67
581.30	44722.96
581.46	43856.96
581.62	44369.54
581.78	44479.54
581.94	44463.16
582.10	43969.30
582.26	44692.53
582.42	44636.36
582.58	44378.90
582.74	44472.52
582.90	44844.66
583.06	44748.70
583.22	44399.96
583.38	44343.79
583.54	44306.34
583.70	44053.56
583.86	44296.98
584.02	44128.46
584.18	44900.84
584.34	44657.42
584.50	44774.45
584.66	44767.43
584.82	44114.42
584.98	44046.54
585.14	44130.80
585.30	44154.21
585.46	44364.85
585.62	44376.56
585.78	44807.22
585.94	44172.93
586.10	44444.43
586.26	44313.36
586.42	44781.47
586.58	44411.67
586.74	44603.59
586.90	44280.60
587.06	44374.22
587.22	44404.64
587.38	44250.17
587.54	44479.54
587.70	44610.61
587.86	44872.75
588.02	44603.59
588.18	44821.26
588.34	44636.36
588.49	44568.48
588.65	44470.18
588.81	44423.37
588.97	44692.53
589.13	44776.79
589.29	44364.85
589.45	44355.49
589.61	44603.59
589.77	44907.86
589.93	44769.77
590.08	44713.59
590.24	44678.49
590.40	44615.29
590.56	44526.35
590.72	44837.64
590.88	44481.88
