SpectraSuite Data File
++++++++++++++++++++++++++++++++++++
Date: Tue Oct 01 18:27:29 GMT-05:00 2013
User: stostad
Dark Spectrum Present: No
Reference Spectrum Present: No
Number of Sampled Component Spectra: 1
Spectrometers: USB2+H05261
Integration Time (usec): 100000 (USB2+H05261)
Spectra Averaged: 1 (USB2+H05261)
Boxcar Smoothing: 0 (USB2+H05261)
Correct for Electrical Dark: No (USB2+H05261)
Strobe/Lamp Enabled: No (USB2+H05261)
Correct for Detector Non-linearity: No (USB2+H05261)
Correct for Stray Light: No (USB2+H05261)
Number of Pixels in Processed Spectrum: 2048
>>>>>Begin Processed Spectral Data<<<<<
365.73	35.11
365.92	35.11
366.12	35.11
366.32	0.00
366.52	0.00
366.72	11.70
366.91	0.00
367.11	25.75
367.31	0.00
367.51	2.34
367.70	0.00
367.90	0.00
368.10	0.00
368.30	9.36
368.49	0.00
368.69	0.00
368.89	0.00
369.09	0.00
369.28	0.00
369.48	0.00
369.68	23.41
369.87	11.70
370.07	72.56
370.27	60.85
370.47	152.13
370.66	252.78
370.86	351.08
371.06	325.33
371.25	376.83
371.45	334.70
371.65	365.12
371.84	374.49
372.04	294.91
372.24	344.06
372.44	414.27
372.63	360.44
372.83	404.91
373.03	402.57
373.22	374.49
373.42	425.98
373.62	421.30
373.81	395.55
374.01	472.79
374.21	496.19
374.40	421.30
374.60	454.06
374.79	519.60
374.99	386.19
375.19	409.59
375.38	470.45
375.58	479.81
375.78	512.58
375.97	468.11
376.17	458.74
376.37	472.79
376.56	489.17
376.76	482.15
376.95	510.24
377.15	468.11
377.35	463.43
377.54	507.90
377.74	486.83
377.93	482.15
378.13	526.62
378.33	575.77
378.52	493.85
378.72	510.24
378.91	496.19
379.11	521.94
379.31	475.13
379.50	524.28
379.70	561.73
379.89	564.07
380.09	528.96
380.28	617.90
380.48	585.13
380.68	543.00
380.87	510.24
381.07	634.29
381.26	578.11
381.46	524.28
381.65	547.69
381.85	547.69
382.04	507.90
382.24	594.50
382.43	660.03
382.63	507.90
382.83	554.71
383.02	554.71
383.22	699.82
383.41	561.73
383.61	615.56
383.80	650.67
384.00	617.90
384.19	566.41
384.39	543.00
384.58	655.35
384.78	610.88
384.97	622.58
385.17	793.44
385.36	636.63
385.56	730.25
385.75	664.71
385.95	683.44
386.14	711.52
386.34	704.50
386.53	594.50
386.72	638.97
386.92	655.35
387.11	706.84
387.31	760.67
387.50	688.12
387.70	617.90
387.89	744.29
388.09	830.89
388.28	739.61
388.48	755.99
388.67	751.31
388.86	730.25
389.06	753.65
389.25	795.78
389.45	746.63
389.64	720.88
389.84	807.48
390.03	833.23
390.22	758.33
390.42	732.59
390.61	781.74
390.81	807.48
391.00	800.46
391.19	739.61
391.39	889.40
391.58	856.64
391.78	861.32
391.97	903.45
392.16	894.08
392.36	863.66
392.55	842.59
392.75	830.89
392.94	875.36
393.13	868.34
393.33	849.61
393.52	821.53
393.71	945.58
393.91	943.24
394.10	873.02
394.29	901.11
394.49	809.83
394.68	896.43
394.88	992.39
395.07	980.68
395.26	1020.47
395.46	1032.18
395.65	1022.81
395.84	985.37
396.04	1107.07
396.23	1018.13
396.42	1088.35
396.62	1025.15
396.81	1142.18
397.00	1071.97
397.19	1130.48
397.39	1090.69
397.58	1020.47
397.77	1095.37
397.97	1114.10
398.16	1146.86
398.35	1184.31
398.55	1153.88
398.74	1186.65
398.93	1170.27
399.12	1123.46
399.32	1144.52
399.51	1261.55
399.70	1247.51
399.90	1100.05
400.09	1203.04
400.28	1263.89
400.47	1289.64
400.67	1376.24
400.86	1149.20
401.05	1224.10
401.24	1317.72
401.44	1409.00
401.63	1401.98
401.82	1371.55
402.01	1329.42
402.21	1453.47
402.40	1364.53
402.59	1373.89
402.78	1497.94
402.97	1481.56
403.17	1486.24
403.36	1399.64
403.55	1446.45
403.74	1490.92
403.93	1493.26
404.13	1502.62
404.32	1603.27
404.51	1561.14
404.70	1584.54
404.89	1577.52
405.09	1629.01
405.28	1579.86
405.47	1551.78
405.66	1638.38
405.85	1713.27
406.05	1568.16
406.24	1659.44
406.43	1732.00
406.62	1839.66
406.81	1687.53
407.00	1701.57
407.20	1748.38
407.39	1783.49
407.58	1825.62
407.77	1909.88
407.96	1900.52
408.15	1926.26
408.34	1994.14
408.54	1914.56
408.73	1816.26
408.92	1830.30
409.11	2054.99
409.30	2057.33
409.49	2012.86
409.68	2052.65
409.87	2003.50
410.07	2036.27
410.26	2005.84
410.45	2172.02
410.64	1961.37
410.83	2160.31
411.02	2183.72
411.21	2176.70
411.40	2064.35
411.59	2312.45
411.78	2265.64
411.98	2279.68
412.17	2340.54
412.36	2251.60
412.55	2396.71
412.74	2450.54
412.93	2317.13
413.12	2270.32
413.31	2495.01
413.50	2434.16
413.69	2497.35
413.88	2619.06
414.07	2583.95
414.26	2562.89
414.45	2633.10
414.64	2605.02
414.83	2612.04
415.02	2689.28
415.22	2754.81
415.41	2782.90
415.60	2806.30
415.79	2834.39
415.98	2801.62
416.17	2792.26
416.36	2956.10
416.55	2857.79
416.74	2942.05
416.93	2951.42
417.12	2928.01
417.31	2949.08
417.50	3157.38
417.69	3236.96
417.88	3038.02
418.07	3089.51
418.26	3080.14
418.45	3166.74
418.64	3265.05
418.83	3178.45
419.02	3211.22
419.21	3304.84
419.39	3187.81
419.58	3075.46
419.77	3269.73
419.96	3248.66
420.15	3419.52
420.34	3361.01
420.53	3494.42
420.72	3461.65
420.91	3363.35
421.10	3473.36
421.29	3471.01
421.48	3386.76
421.67	3524.85
421.86	3550.59
422.05	3487.40
422.24	3555.27
422.43	3487.40
422.61	3508.46
422.80	3599.74
422.99	3517.83
423.18	3623.15
423.37	3637.19
423.56	3449.95
423.75	3658.26
423.94	3592.72
424.13	3316.54
424.32	3590.38
424.50	3634.85
424.69	3646.55
424.88	3761.24
425.07	3604.42
425.26	3641.87
425.45	3674.64
425.64	3737.84
425.83	3644.21
426.01	3630.17
426.20	3646.55
426.39	3688.68
426.58	3756.56
426.77	3831.46
426.96	3749.54
427.15	3735.50
427.33	3702.73
427.52	3707.41
427.71	3887.63
427.90	3894.65
428.09	3852.52
428.28	3892.31
428.46	3913.38
428.65	3887.63
428.84	4053.81
429.03	3997.64
429.22	4004.66
429.40	3969.55
429.59	4084.23
429.78	3866.56
429.97	3922.74
430.16	3967.21
430.34	4163.81
430.53	4168.49
430.72	4149.77
430.91	4163.81
431.10	4042.11
431.28	4189.56
431.47	4271.48
431.66	4318.29
431.85	4074.87
432.03	4517.23
432.22	4278.50
432.41	4337.01
432.60	4402.55
432.79	4273.82
432.97	4491.49
433.16	4355.74
433.35	4367.44
433.54	4421.27
433.72	4449.36
433.91	4533.62
434.10	4404.89
434.28	4505.53
434.47	4458.72
434.66	4615.54
434.85	4704.48
435.03	4603.83
435.22	4650.64
435.41	4751.29
435.59	4552.34
435.78	4723.20
435.97	4622.56
436.16	4734.90
436.34	4781.71
436.53	4624.90
436.72	5001.72
436.90	4765.33
437.09	4945.55
437.28	4730.22
437.46	4877.68
437.65	4858.95
437.84	5102.37
438.02	4917.47
438.21	4945.55
438.40	4985.34
438.58	5088.32
438.77	5153.86
438.96	5062.58
439.14	5242.80
439.33	5383.23
439.52	5296.63
439.70	5359.83
439.89	5383.23
440.08	5336.42
440.26	5420.68
440.45	5603.24
440.63	5579.84
440.82	5589.20
441.01	5530.69
441.19	5722.61
441.38	5743.67
441.57	5717.93
441.75	5762.40
441.94	5909.85
442.12	5926.24
442.31	6029.22
442.50	5975.39
442.68	5757.72
442.87	5820.91
443.05	6015.18
443.24	6207.10
443.43	6143.91
443.61	6111.14
443.80	6256.25
443.98	5963.68
444.17	5753.04
444.35	6181.35
444.54	6267.95
444.73	6164.97
444.91	6076.03
445.10	6235.19
445.28	6122.84
445.47	6164.97
445.65	6090.07
445.84	6057.31
446.02	6230.51
446.21	6216.46
446.39	6335.83
446.58	6204.76
446.77	6218.80
446.95	6141.57
447.14	6289.02
447.32	6392.00
447.51	6286.68
447.69	6298.38
447.88	6410.73
448.06	6324.13
448.25	6305.40
448.43	6246.89
448.62	6298.38
448.80	6354.55
448.99	6352.21
449.17	6513.71
449.36	6452.86
449.54	6534.78
449.73	6560.52
449.91	6644.78
450.10	6686.91
450.28	6663.51
450.46	6626.06
450.65	6825.00
450.83	6949.05
451.02	6764.15
451.20	6778.19
451.39	6864.79
451.57	6782.87
451.76	6796.92
451.94	6677.55
452.13	6991.18
452.31	6995.86
452.49	6817.98
452.68	6874.15
452.86	6932.67
453.05	7073.10
453.23	7089.48
453.42	6977.14
453.60	7014.59
453.78	7019.27
453.97	7037.99
454.15	6979.48
454.34	6972.46
454.52	7410.14
454.70	7283.75
454.89	7267.36
455.07	7297.79
455.26	7344.60
455.44	7496.74
455.62	7316.51
455.81	7311.83
455.99	7417.16
456.17	7470.99
456.36	7482.69
456.54	7599.72
456.73	7637.17
456.91	7604.40
457.09	7777.60
457.28	7810.37
457.46	7761.22
457.64	7822.07
457.83	8002.29
458.01	7712.07
458.19	8009.31
458.38	7936.76
458.56	8112.30
458.74	7955.48
458.93	7922.71
459.11	7981.23
459.29	7955.48
459.48	8067.83
459.66	8138.04
459.84	7971.86
460.03	8128.68
460.21	8060.80
460.39	8229.32
460.57	8245.71
460.76	8231.66
460.94	8189.53
461.12	8304.22
461.31	8257.41
461.49	8395.50
461.67	8126.34
461.85	8491.46
462.04	8557.00
462.22	8826.16
462.40	8404.86
462.59	8587.43
462.77	8592.11
462.95	8514.87
463.13	8716.16
463.32	8528.91
463.50	8404.86
463.68	8645.94
463.86	8856.59
464.05	8671.68
464.23	8800.41
464.41	8821.48
464.59	8617.85
464.78	8905.74
464.96	8947.87
465.14	8769.99
465.32	8961.91
465.50	8957.23
465.69	9095.32
465.87	8793.39
466.05	8840.20
466.23	8898.72
466.41	9341.08
466.60	9324.69
466.78	9039.15
466.96	9043.83
467.14	9144.47
467.32	9458.10
467.51	9502.58
467.69	9043.83
467.87	9242.78
468.05	9369.16
468.23	9217.03
468.41	9174.90
468.60	9509.60
468.78	9472.15
468.96	9167.88
469.14	9362.14
469.32	9490.87
469.50	9406.61
469.69	9720.24
469.87	9790.46
470.05	9713.22
470.23	9626.62
470.41	9792.80
470.59	9673.43
470.77	9767.06
470.95	9865.36
471.14	10237.50
471.32	9628.96
471.50	10120.48
471.68	10012.81
471.86	10024.51
472.04	10164.95
472.22	10420.06
472.40	10366.23
472.58	10249.21
472.77	10097.07
472.95	10544.11
473.13	10817.96
473.31	10506.66
473.49	10532.41
473.67	10565.18
473.85	10553.48
474.03	10817.96
474.21	10623.69
474.39	10951.37
474.57	10953.71
474.75	11068.39
474.93	11279.04
475.12	10967.75
475.30	11087.12
475.48	11337.56
475.66	11283.72
475.84	11276.70
476.02	11269.68
476.20	11412.45
476.38	11583.31
476.56	11962.48
476.74	11805.66
476.92	11749.49
477.10	11714.38
477.28	11992.90
477.46	12042.06
477.64	11967.16
477.82	12475.06
478.00	12578.04
478.18	12479.74
478.36	12622.51
478.54	12760.60
478.72	12924.44
478.90	12910.40
479.08	13036.78
479.26	12896.35
479.44	13434.68
479.62	13238.07
479.80	13186.58
479.98	13462.76
480.16	13858.31
480.34	13488.51
480.52	13926.19
480.70	13717.88
480.88	13760.01
481.06	13884.06
481.24	13886.40
481.41	14310.04
481.59	14420.04
481.77	14494.94
481.95	14527.71
482.13	14593.24
482.31	14757.08
482.49	14820.27
482.67	14995.81
482.85	15274.34
483.03	15456.90
483.21	15559.88
483.39	15587.97
483.57	15510.73
483.74	15887.56
483.92	16018.63
484.10	15697.97
484.28	16091.18
484.46	16334.60
484.64	16510.14
484.82	16374.39
485.00	16603.76
485.18	16704.40
485.35	16905.69
485.53	17036.76
485.71	17039.10
485.89	17376.14
486.07	17432.31
486.25	17593.81
486.43	17855.95
486.61	17811.48
486.78	17984.68
486.96	18111.07
487.14	18066.60
487.32	18249.16
487.50	18614.28
487.68	18663.43
487.85	18988.77
488.03	19084.73
488.21	19213.46
488.39	19023.87
488.57	19384.32
488.75	19447.51
488.92	19688.59
489.10	20030.30
489.28	19822.00
489.46	20233.93
489.64	20231.59
489.81	20439.90
489.99	20568.63
490.17	20570.97
490.35	20973.54
490.53	21074.18
490.70	21130.36
490.88	21205.25
491.06	21294.19
491.24	21432.29
491.41	21647.61
491.59	22040.82
491.77	21933.16
491.95	22045.51
492.13	22246.79
492.30	21851.24
492.48	22534.68
492.66	22721.92
492.84	22431.69
493.01	23283.65
493.19	22810.86
493.37	23044.91
493.54	23087.04
493.72	23435.78
493.90	23278.97
494.08	23826.65
494.25	23910.91
494.43	23756.44
494.61	24222.20
494.79	24215.18
494.96	24156.67
495.14	24423.49
495.32	24884.58
495.49	24802.66
495.67	24861.17
495.85	25205.23
496.02	25132.67
496.20	25200.55
496.38	25144.38
496.55	25460.35
496.73	25811.43
496.91	25631.21
497.09	25984.63
497.26	25949.52
497.44	26099.31
497.62	26251.45
497.79	26670.40
497.97	26370.82
498.14	26867.01
498.32	27225.11
498.50	26850.63
498.67	27372.57
498.85	27168.94
499.03	27527.04
499.20	27520.02
499.38	27721.30
499.56	27669.81
499.73	27763.43
499.91	27840.67
500.08	28121.54
500.26	28034.94
500.44	28215.16
500.61	28603.69
500.79	28219.84
500.97	28493.68
501.14	29116.26
501.32	28776.89
501.49	28800.29
501.67	29249.67
501.84	29273.08
502.02	28985.19
502.20	29539.90
502.37	29666.29
502.55	29317.55
502.72	29593.73
502.90	29954.18
503.07	29355.00
503.25	29902.68
503.43	29656.93
503.60	30202.27
503.78	29998.65
503.95	30061.84
504.13	30368.45
504.30	30237.38
504.48	30850.60
504.65	30492.50
504.83	30808.47
505.01	30988.69
505.18	30731.23
505.36	31157.21
505.53	31199.34
505.71	31569.15
505.88	31594.89
506.06	31192.32
506.23	31510.63
506.41	31597.23
506.58	31798.52
506.76	31676.81
506.93	32114.49
507.11	31510.63
507.28	32189.39
507.46	32430.46
507.63	32397.70
507.81	32645.79
507.98	32645.79
508.16	32776.86
508.33	32514.72
508.50	32739.41
508.68	32858.78
508.85	33214.54
509.03	33212.20
509.20	33242.63
509.38	33582.01
509.55	33322.21
509.73	33647.54
509.90	33287.10
510.08	33727.12
510.25	33479.02
510.42	34057.14
510.60	33809.04
510.77	33926.07
510.95	34497.16
511.12	34054.79
511.30	34473.75
511.47	34412.90
511.64	34436.30
511.82	34602.48
511.99	34323.96
512.17	34888.03
512.34	34995.69
512.51	35625.29
512.69	35070.59
512.86	35414.65
513.04	35363.15
513.21	35028.46
513.38	35075.27
513.56	35402.94
513.73	34939.52
513.90	35529.33
514.08	35529.33
514.25	36236.17
514.43	35807.86
514.60	35765.73
514.77	35941.27
514.95	36065.31
515.12	36004.46
515.29	36301.71
515.47	36891.52
515.64	37095.15
515.81	36678.54
515.99	36964.08
516.16	36928.97
516.33	37048.34
516.51	37177.07
516.68	37127.92
516.85	37446.23
517.03	37797.31
517.20	37797.31
517.37	37216.86
517.54	37443.89
517.72	37352.61
517.89	37244.94
518.06	37902.64
518.24	37825.40
518.41	38101.58
518.58	38071.15
518.75	37773.91
518.93	38153.07
519.10	38190.52
519.27	38419.89
519.45	38265.42
519.62	38560.33
519.79	38382.45
519.96	38735.87
520.14	38880.98
520.31	38637.56
520.48	38478.41
520.65	38960.56
520.83	39185.25
521.00	38843.53
521.17	39023.75
521.34	39068.22
521.52	39683.78
521.69	39164.18
521.86	39524.63
522.03	39541.01
522.20	39922.52
522.38	39901.45
522.55	40142.53
522.72	39803.15
522.89	40100.40
523.07	40280.62
523.24	40165.93
523.41	40306.37
523.58	39908.47
523.75	40467.86
523.92	40404.67
524.10	40559.14
524.27	41120.87
524.44	40947.67
524.61	40828.30
524.78	40598.93
524.96	40907.88
525.13	40734.68
525.30	41350.24
525.47	41343.22
525.64	41193.43
525.81	41801.97
525.98	41493.02
526.16	41088.10
526.33	41490.68
526.50	41455.57
526.67	41565.57
526.84	41745.80
527.01	41497.70
527.18	42068.79
527.36	42366.04
527.53	41977.51
527.70	42206.88
527.87	41975.17
528.04	41937.72
528.21	42525.19
528.38	42518.17
528.55	42707.76
528.72	42593.07
528.89	42525.19
529.07	42080.49
529.24	42422.21
529.41	42726.48
529.58	42703.07
529.75	42295.82
529.92	43276.51
530.09	42944.15
530.26	43159.48
530.43	43044.79
530.60	42408.17
530.77	42628.18
530.94	43126.71
531.11	43353.74
531.28	43587.80
531.46	43753.97
531.63	43246.08
531.80	43643.97
531.97	43522.26
532.14	43433.32
532.31	43753.97
532.48	44032.50
532.65	43847.60
532.82	43421.62
532.99	44383.58
533.16	43641.63
533.33	44292.30
533.50	44451.45
533.67	44421.03
533.84	44041.86
534.01	44388.26
534.18	44498.26
534.35	44896.16
534.52	44566.14
534.69	44774.45
534.86	44608.27
535.03	44172.93
535.20	44575.50
535.37	44566.14
535.54	45074.04
535.71	44439.75
535.88	45170.00
536.05	45162.98
536.22	45375.97
536.38	45256.60
536.55	45078.72
536.72	44966.37
536.89	45088.08
537.06	44678.49
537.23	45453.20
537.40	45366.60
537.57	45247.24
537.74	45453.20
537.91	45696.62
538.08	45708.32
538.25	45425.12
538.42	46026.63
538.59	46045.36
538.75	45640.45
538.92	45762.15
539.09	45691.94
539.26	46157.70
539.43	45617.04
539.60	46054.72
539.77	45811.31
539.94	46492.40
540.11	46349.63
540.28	46506.44
540.44	46394.10
540.61	46319.20
540.78	46494.74
540.95	46499.42
541.12	46347.29
541.29	46672.62
541.46	46326.22
541.62	46312.18
541.79	46918.38
541.96	46431.55
542.13	46398.78
542.30	46822.42
542.47	47306.91
542.63	46616.45
542.80	46855.18
542.97	47274.14
543.14	47405.21
543.31	47248.39
543.48	47423.93
543.64	47835.87
543.81	47255.42
543.98	47681.39
544.15	47569.05
544.32	47400.53
544.48	48041.84
544.65	47405.21
544.82	47782.04
544.99	47412.23
545.16	47856.93
545.32	47840.55
545.49	48247.80
545.66	48137.80
545.83	47938.85
546.00	48006.73
546.16	48243.12
546.33	47915.45
546.50	47866.30
546.67	48320.36
546.83	47913.11
547.00	48191.63
547.17	48079.28
547.34	48531.01
547.50	48177.59
547.67	48793.15
547.84	48350.79
548.00	48851.66
548.17	48872.73
548.34	48837.62
548.51	48699.53
548.67	49001.46
548.84	49069.33
549.01	48306.32
549.18	48809.53
549.34	48582.50
549.51	49528.08
549.68	49389.98
549.84	49125.50
550.01	48917.20
550.18	48711.23
550.34	48718.25
550.51	49268.28
550.68	49263.60
550.84	48926.56
551.01	49268.28
551.18	49172.31
551.34	49385.30
551.51	48842.30
551.68	49467.22
551.84	49511.69
552.01	49216.78
552.18	49237.85
552.34	49130.19
552.51	49214.44
552.68	49317.43
552.84	49375.94
553.01	49677.87
553.18	49862.77
553.34	49771.49
553.51	49394.67
553.67	49778.51
553.84	49759.79
554.01	49762.13
554.17	49563.18
554.34	50092.15
554.51	50155.34
554.67	50342.58
554.84	50337.90
555.00	49989.16
555.17	50000.86
555.33	49598.29
555.50	50085.12
555.67	49820.64
555.83	49972.78
556.00	50117.89
556.16	50344.92
556.33	50061.72
556.50	50255.98
556.66	50216.19
556.83	49769.15
556.99	50377.69
557.16	50506.42
557.32	50356.63
557.49	50520.46
557.65	50370.67
557.82	50443.23
557.98	50396.42
558.15	50440.89
558.32	50918.35
558.48	50597.70
558.65	50553.23
558.81	50211.51
558.98	50562.59
559.14	50281.73
559.31	50693.66
559.47	50464.29
559.64	50967.51
559.80	50653.87
559.97	50693.66
560.13	50946.44
560.30	50724.09
560.46	50831.75
560.63	50672.60
560.79	50628.13
560.96	50798.99
561.12	50944.10
561.29	51026.02
561.45	50859.84
561.61	50974.53
561.78	50843.46
561.94	50806.01
562.11	50967.51
562.27	50677.28
562.44	50667.92
562.60	50852.82
562.77	51131.34
562.93	51100.92
563.10	51482.42
563.26	51140.71
563.42	51152.41
563.59	50923.04
563.75	50965.17
563.92	51304.54
564.08	51049.42
564.24	51086.87
564.41	51297.52
564.57	51234.33
564.74	51138.36
564.90	51107.94
565.07	51100.92
565.23	50815.37
565.39	50981.55
565.56	50951.12
565.72	51306.88
565.88	51271.78
566.05	51189.86
566.21	51461.36
566.38	51264.75
566.54	51444.98
566.70	51676.69
566.87	51384.12
567.03	51585.41
567.19	51477.74
567.36	51065.81
567.52	51306.88
567.68	51669.67
567.85	51618.17
568.01	51473.06
568.17	51482.42
568.34	51470.72
568.50	51295.18
568.66	51208.58
568.83	51737.54
568.99	51384.12
569.15	51494.13
569.32	51421.57
569.48	51290.50
569.64	51657.96
569.81	51810.10
569.97	51636.90
570.13	51737.54
570.30	51547.96
570.46	51571.36
570.62	51618.17
570.78	51533.92
570.95	51414.55
571.11	51786.69
571.27	51552.64
571.43	51664.99
571.60	51700.09
571.76	51580.73
571.92	51814.78
572.09	51681.37
572.25	51936.49
572.41	51800.74
572.57	51789.03
572.74	51997.34
572.90	51885.00
573.06	52088.62
573.22	51877.97
573.38	52224.37
573.55	51517.53
573.71	51828.82
573.87	51615.83
574.03	51683.71
574.20	51662.64
574.36	51068.15
574.52	51789.03
574.68	51896.70
574.84	52189.27
575.01	52175.22
575.17	52112.03
575.33	51723.50
575.49	51756.27
575.65	51913.08
575.82	51824.14
575.98	51716.48
576.14	51931.81
576.30	52090.96
576.46	52133.09
576.62	52034.79
576.79	52130.75
576.95	51763.29
577.11	51955.21
577.27	51910.74
577.43	52086.28
577.59	51913.08
577.75	51693.07
577.92	51789.03
578.08	51702.43
578.24	52004.36
578.40	52081.60
578.56	52439.70
578.72	52065.22
578.88	51901.38
579.04	52074.58
579.21	51885.00
579.37	52128.41
579.53	51969.26
579.69	51995.00
579.85	52116.71
580.01	51971.60
580.17	51992.66
580.33	52573.11
580.49	52013.73
580.65	52074.58
580.82	51941.17
580.98	51742.22
581.14	51796.06
581.30	51995.00
581.46	51885.00
581.62	52081.60
581.78	52065.22
581.94	52322.68
582.10	52205.65
582.26	51847.55
582.42	51833.50
582.58	52044.15
582.74	52266.50
582.90	52009.04
583.06	52112.03
583.22	52212.67
583.38	52360.12
583.54	52399.91
583.70	52399.91
583.86	52044.15
584.02	52072.24
584.18	52093.30
584.34	52046.49
584.50	52229.05
584.66	52165.86
584.82	51941.17
584.98	52474.81
585.14	52308.63
585.30	52200.97
585.46	52254.80
585.62	52097.98
585.78	52577.79
585.94	52261.82
586.10	52046.49
586.26	52310.97
586.42	51838.18
586.58	52207.99
586.74	52133.09
586.90	52231.40
587.06	52009.04
587.22	52266.50
587.38	52500.56
587.54	52420.98
587.70	52453.75
587.86	52364.81
588.02	52584.82
588.18	52491.19
588.34	52238.42
588.49	52390.55
588.65	51966.91
588.81	52596.52
588.97	52713.55
589.13	52605.88
589.29	52474.81
589.45	52486.51
589.61	52643.33
589.77	52657.37
589.93	52547.37
590.08	52308.63
590.24	52526.30
590.40	52561.41
