SpectraSuite Data File
++++++++++++++++++++++++++++++++++++
Date: Fri Oct 04 11:39:57 GMT-05:00 2013
User: price-jones
Dark Spectrum Present: No
Reference Spectrum Present: No
Number of Sampled Component Spectra: 1
Spectrometers: USB2+H05261
Integration Time (usec): 100000 (USB2+H05261)
Spectra Averaged: 1 (USB2+H05261)
Boxcar Smoothing: 0 (USB2+H05261)
Correct for Electrical Dark: No (USB2+H05261)
Strobe/Lamp Enabled: No (USB2+H05261)
Correct for Detector Non-linearity: No (USB2+H05261)
Correct for Stray Light: No (USB2+H05261)
Number of Pixels in Processed Spectrum: 2048
>>>>>Begin Processed Spectral Data<<<<<
365.73	28.09
365.92	28.09
366.12	28.09
366.32	23.41
366.52	0.00
366.72	0.00
366.91	0.00
367.11	0.00
367.31	0.00
367.51	0.00
367.70	0.00
367.90	0.00
368.10	0.00
368.30	0.00
368.49	0.00
368.69	0.00
368.89	0.00
369.09	0.00
369.28	21.06
369.48	4.68
369.68	0.00
369.87	0.00
370.07	0.00
370.27	44.47
370.47	23.41
370.66	72.56
370.86	32.77
371.06	95.96
371.25	128.73
371.45	161.50
371.65	39.79
371.84	117.03
372.04	70.22
372.24	86.60
372.44	201.29
372.63	72.56
372.83	114.69
373.03	105.32
373.22	138.09
373.42	121.71
373.62	140.43
373.81	128.73
374.01	154.48
374.21	173.20
374.40	217.67
374.60	236.39
374.79	177.88
374.99	133.41
375.19	152.13
375.38	124.05
375.58	154.48
375.78	182.56
375.97	147.45
376.17	236.39
376.37	128.73
376.56	138.09
376.76	203.63
376.95	72.56
377.15	163.84
377.35	182.56
377.54	168.52
377.74	212.99
377.93	149.79
378.13	110.01
378.33	117.03
378.52	100.64
378.72	194.26
378.91	135.75
379.11	18.72
379.31	91.28
379.50	91.28
379.70	189.58
379.89	175.54
380.09	166.18
380.28	163.84
380.48	156.82
380.68	81.92
380.87	119.37
381.07	177.88
381.26	170.86
381.46	124.05
381.65	177.88
381.85	187.24
382.04	159.16
382.24	140.43
382.43	88.94
382.63	142.77
382.83	149.79
383.02	208.31
383.22	222.35
383.41	173.20
383.61	203.63
383.80	156.82
384.00	74.90
384.19	128.73
384.39	173.20
384.58	189.58
384.78	201.29
384.97	180.22
385.17	166.18
385.36	208.31
385.56	173.20
385.75	77.24
385.95	112.35
386.14	203.63
386.34	112.35
386.53	280.86
386.72	93.62
386.92	168.52
387.11	110.01
387.31	170.86
387.50	203.63
387.70	128.73
387.89	156.82
388.09	156.82
388.28	203.63
388.48	194.26
388.67	159.16
388.86	182.56
389.06	166.18
389.25	166.18
389.45	182.56
389.64	231.71
389.84	175.54
390.03	203.63
390.22	187.24
390.42	231.71
390.61	154.48
390.81	215.33
391.00	187.24
391.19	152.13
391.39	170.86
391.58	187.24
391.78	241.08
391.97	212.99
392.16	110.01
392.36	252.78
392.55	227.03
392.75	194.26
392.94	152.13
393.13	215.33
393.33	217.67
393.52	205.97
393.71	201.29
393.91	208.31
394.10	189.58
394.29	131.07
394.49	180.22
394.68	220.01
394.88	264.48
395.07	264.48
395.26	140.43
395.46	208.31
395.65	227.03
395.84	250.44
396.04	278.52
396.23	238.73
396.42	248.10
396.62	243.42
396.81	264.48
397.00	245.76
397.19	224.69
397.39	243.42
397.58	301.93
397.77	250.44
397.97	245.76
398.16	332.36
398.35	287.89
398.55	273.84
398.74	273.84
398.93	276.18
399.12	198.95
399.32	227.03
399.51	227.03
399.70	320.65
399.90	264.48
400.09	222.35
400.28	257.46
400.47	290.23
400.67	290.23
400.86	264.48
401.05	278.52
401.24	285.55
401.44	339.38
401.63	358.10
401.82	397.89
402.01	271.50
402.21	262.14
402.40	365.12
402.59	301.93
402.78	264.48
402.97	341.72
403.17	297.25
403.36	353.42
403.55	383.85
403.74	376.83
403.93	386.19
404.13	479.81
404.32	386.19
404.51	355.76
404.70	484.49
404.89	332.36
405.09	512.58
405.28	369.80
405.47	348.74
405.66	360.44
405.85	479.81
406.05	320.65
406.24	411.93
406.43	402.57
406.62	440.02
406.81	475.13
407.00	449.38
407.20	433.00
407.39	365.12
407.58	454.06
407.77	496.19
407.96	470.45
408.15	507.90
408.34	479.81
408.54	482.15
408.73	447.04
408.92	454.06
409.11	425.98
409.30	540.66
409.49	397.89
409.68	489.17
409.87	500.87
410.07	482.15
410.26	491.51
410.45	498.53
410.64	510.24
410.83	566.41
411.02	545.34
411.21	566.41
411.40	653.01
411.59	517.26
411.78	500.87
411.98	538.32
412.17	519.60
412.36	531.30
412.55	543.00
412.74	620.24
412.93	662.37
413.12	706.84
413.31	667.05
413.50	627.26
413.69	695.14
413.88	648.33
414.07	709.18
414.26	655.35
414.45	734.93
414.64	631.94
414.83	777.06
415.02	767.70
415.22	727.91
415.41	767.70
415.60	788.76
415.79	692.80
415.98	784.08
416.17	755.99
416.36	800.46
416.55	814.51
416.74	765.36
416.93	746.63
417.12	739.61
417.31	713.86
417.50	755.99
417.69	849.61
417.88	795.78
418.07	800.46
418.26	784.08
418.45	774.72
418.64	786.42
418.83	851.96
419.02	866.00
419.21	793.44
419.39	910.47
419.58	812.17
419.77	826.21
419.96	835.57
420.15	854.30
420.34	889.40
420.53	889.40
420.72	870.68
420.91	936.21
421.10	898.77
421.29	1004.09
421.48	858.98
421.67	961.96
421.86	891.74
422.05	926.85
422.24	898.77
422.43	966.64
422.61	833.23
422.80	954.94
422.99	1001.75
423.18	884.72
423.37	1032.18
423.56	1015.79
423.75	968.98
423.94	905.79
424.13	1006.43
424.32	884.72
424.50	973.66
424.69	1004.09
424.88	1097.71
425.07	1046.22
425.26	973.66
425.45	1034.52
425.64	1025.15
425.83	980.68
426.01	1027.50
426.20	1022.81
426.39	990.05
426.58	1004.09
426.77	1114.10
426.96	1053.24
427.15	994.73
427.33	1001.75
427.52	966.64
427.71	968.98
427.90	1027.50
428.09	1125.80
428.28	1057.92
428.46	1043.88
428.65	1128.14
428.84	1109.41
429.03	1093.03
429.22	1060.26
429.40	1064.94
429.59	1104.73
429.78	1114.10
429.97	1001.75
430.16	1041.54
430.34	1064.94
430.53	1142.18
430.72	1074.31
430.91	1088.35
431.10	1128.14
431.28	1090.69
431.47	1130.48
431.66	1153.88
431.85	1207.72
432.03	1188.99
432.22	1219.42
432.41	1121.12
432.60	1219.42
432.79	1076.65
432.97	1268.57
433.16	1268.57
433.35	1156.22
433.54	1242.82
433.72	1144.52
433.91	1240.48
434.10	1200.69
434.28	1212.40
434.47	1331.76
434.66	1212.40
434.85	1296.66
435.03	1380.92
435.22	1596.25
435.41	1797.53
435.59	1834.98
435.78	1640.72
435.97	1453.47
436.16	1383.26
436.34	1238.14
436.53	1273.25
436.72	1282.61
436.90	1221.76
437.09	1275.59
437.28	1256.87
437.46	1228.78
437.65	1296.66
437.84	1287.29
438.02	1352.83
438.21	1369.21
438.40	1303.68
438.58	1418.36
438.77	1315.38
438.96	1418.36
439.14	1383.26
439.33	1434.75
439.52	1474.54
439.70	1378.58
439.89	1394.96
440.08	1409.00
440.26	1423.05
440.45	1502.62
440.63	1404.32
440.82	1423.05
441.01	1497.94
441.19	1472.20
441.38	1507.30
441.57	1451.13
441.75	1537.73
441.94	1504.96
442.12	1483.90
442.31	1490.92
442.50	1507.30
442.68	1561.14
442.87	1528.37
443.05	1603.27
443.24	1614.97
443.43	1617.31
443.61	1614.97
443.80	1483.90
443.98	1584.54
444.17	1589.22
444.35	1593.90
444.54	1661.78
444.73	1624.33
444.91	1600.93
445.10	1572.84
445.28	1563.48
445.47	1549.43
445.65	1661.78
445.84	1596.25
446.02	1537.73
446.21	1619.65
446.39	1682.85
446.58	1610.29
446.77	1607.95
446.95	1643.06
447.14	1652.42
447.32	1673.48
447.51	1685.19
447.69	1699.23
447.88	1645.40
448.06	1654.76
448.25	1696.89
448.43	1692.21
448.62	1530.71
448.80	1732.00
448.99	1755.40
449.17	1640.72
449.36	1685.19
449.54	1640.72
449.73	1675.82
449.91	1762.42
450.10	1732.00
450.28	1799.87
450.46	1760.08
450.65	1769.44
450.83	1837.32
451.02	1830.30
451.20	1757.74
451.39	1781.15
451.57	1802.21
451.76	1699.23
451.94	1750.72
452.13	1870.09
452.31	1778.81
452.49	1762.42
452.68	1720.29
452.86	1853.70
453.05	1806.89
453.23	1879.45
453.42	1792.85
453.60	1804.55
453.78	1874.77
453.97	1788.17
454.15	1870.09
454.34	1755.40
454.52	1902.86
454.70	1879.45
454.89	1923.92
455.07	1895.83
455.26	1879.45
455.44	1977.75
455.62	1914.56
455.81	1916.90
455.99	1980.09
456.17	1884.13
456.36	1949.67
456.54	1984.77
456.73	2031.58
456.91	1919.24
457.09	2008.18
457.28	1933.28
457.46	1914.56
457.64	2036.27
457.83	2052.65
458.01	1973.07
458.19	1982.43
458.38	1963.71
458.56	1996.48
458.74	2054.99
458.93	1991.80
459.11	1996.48
459.29	2052.65
459.48	2033.93
459.66	2078.40
459.84	2092.44
460.03	2272.66
460.21	2043.29
460.39	2155.63
460.57	2047.97
460.76	2104.14
460.94	2122.87
461.12	2153.29
461.31	2129.89
461.49	2087.76
461.67	2094.78
461.85	2115.84
462.04	2106.48
462.22	2630.76
462.40	2216.49
462.59	2165.00
462.77	2080.74
462.95	2136.91
463.13	2232.87
463.32	2127.55
463.50	2289.04
463.68	2228.19
463.86	2214.15
464.05	2190.74
464.23	2298.41
464.41	2179.04
464.59	2310.11
464.78	2235.21
464.96	2174.36
465.14	2239.89
465.32	2235.21
465.50	2377.98
465.69	2282.02
465.87	2275.00
466.05	2289.04
466.23	2363.94
466.41	2307.77
466.60	2406.07
466.78	2314.79
466.96	2373.30
467.14	2293.72
467.32	2375.64
467.51	2284.36
467.69	2244.57
467.87	2377.98
468.05	2284.36
468.23	2380.32
468.41	2413.09
468.60	2270.32
468.78	2480.97
468.96	2380.32
469.14	2415.43
469.32	2317.13
469.50	2415.43
469.69	2356.92
469.87	2413.09
470.05	2436.50
470.23	2410.75
470.41	2396.71
470.59	2499.69
470.77	2546.50
470.95	2448.20
471.14	2541.82
471.32	2452.88
471.50	2518.42
471.68	2583.95
471.86	2595.65
472.04	2583.95
472.22	2642.46
472.40	2558.21
472.58	2595.65
472.77	2658.85
472.95	2520.76
473.13	2818.00
473.31	2654.17
473.49	2633.10
473.67	2612.04
473.85	2712.68
474.03	2717.36
474.21	2708.00
474.39	2724.38
474.57	2836.73
474.75	2703.32
474.93	2768.85
475.12	2754.81
475.30	2745.45
475.48	2789.92
475.66	2871.84
475.84	2766.51
476.02	2853.11
476.20	2871.84
476.38	2848.43
476.56	2902.26
476.74	2923.33
476.92	2843.75
477.10	2965.46
477.28	3042.70
477.46	3052.06
477.64	2984.18
477.82	3007.59
478.00	3084.83
478.18	3042.70
478.36	3096.53
478.54	3105.89
478.72	3063.76
478.90	3105.89
479.08	3241.64
479.26	3265.05
479.44	3204.19
479.62	3297.81
479.80	3283.77
479.98	3335.26
480.16	3375.05
480.34	3199.51
480.52	3356.33
480.70	3471.01
480.88	3473.36
481.06	3389.10
481.24	3368.03
481.41	3485.06
481.59	3538.89
481.77	3529.53
481.95	3634.85
482.13	3625.49
482.31	3517.83
482.49	3693.37
482.67	3606.77
482.85	3712.09
483.03	3880.61
483.21	3904.01
483.39	3854.86
483.57	3854.86
483.74	3896.99
483.92	3913.38
484.10	3889.97
484.28	3899.33
484.46	4023.38
484.64	4021.04
484.82	3864.22
485.00	3999.98
485.18	4231.69
485.35	4227.01
485.53	4210.62
485.71	4332.33
485.89	4418.93
486.07	4243.39
486.25	4383.82
486.43	4266.80
486.61	4451.70
486.78	4402.55
486.96	4337.01
487.14	4545.32
487.32	4454.04
487.50	4503.19
487.68	4479.79
487.85	4489.15
488.03	4615.54
488.21	4711.50
488.39	4540.64
488.57	4669.37
488.75	4802.78
488.92	5100.03
489.10	4652.98
489.28	4919.81
489.46	4910.44
489.64	4910.44
489.81	4816.82
489.99	4940.87
490.17	5064.92
490.35	5050.88
490.53	5020.45
490.70	5139.82
490.88	5036.83
491.06	5027.47
491.24	5247.48
491.41	5139.82
491.59	5191.31
491.77	5310.68
491.95	5390.25
492.13	5249.82
492.30	5315.36
492.48	5399.62
492.66	5355.15
492.84	5516.64
493.01	5547.07
493.19	5589.20
493.37	5767.08
493.54	5703.89
493.72	5746.02
493.90	5610.26
494.08	5598.56
494.25	5650.05
494.43	5858.36
494.61	5877.09
494.79	5905.17
494.96	5657.07
495.14	5891.13
495.32	6038.58
495.49	5874.74
495.67	6017.52
495.85	6017.52
496.02	5905.17
496.20	5881.77
496.38	6080.71
496.55	6033.90
496.73	6214.12
496.91	6022.20
497.09	6279.66
497.26	6160.29
497.44	6296.04
497.62	6296.04
497.79	6237.53
497.97	6380.30
498.14	6207.10
498.32	6527.75
498.50	6319.45
498.67	6700.95
498.85	6377.96
499.03	6541.80
499.20	6406.05
499.38	6441.15
499.56	6516.05
499.73	6574.56
499.91	6607.33
500.08	6628.40
500.26	6527.75
500.44	6682.23
500.61	6502.01
500.79	6679.89
500.97	6764.15
501.14	6869.47
501.32	6675.21
501.49	6633.08
501.67	6738.40
501.84	7007.56
502.02	6649.46
502.20	6925.65
502.37	7012.24
502.55	6974.80
502.72	6815.64
502.90	6846.07
503.07	6743.08
503.25	7126.93
503.43	7007.56
503.60	6904.58
503.78	7016.93
503.95	7056.72
504.13	7063.74
504.30	6956.07
504.48	7059.06
504.65	7194.81
504.83	7155.02
505.01	7178.42
505.18	7136.29
505.36	7073.10
505.53	7398.43
505.71	7307.15
505.88	7419.50
506.06	7473.33
506.23	7232.26
506.41	7508.44
506.58	7358.64
506.76	7541.21
506.93	7449.93
507.11	7405.46
507.28	7557.59
507.46	7485.03
507.63	7693.34
507.81	7742.49
507.98	7552.91
508.16	7733.13
508.33	7487.37
508.50	7573.97
508.68	7578.65
508.85	7756.54
509.03	7859.52
509.20	7721.43
509.38	7709.72
509.55	7957.82
509.73	8006.97
509.90	7988.25
510.08	7801.01
510.25	7815.05
510.42	8002.29
510.60	7911.01
510.77	8107.62
510.95	8004.63
511.12	7962.50
511.30	7859.52
511.47	8131.02
511.64	8002.29
511.82	8109.96
511.99	8159.11
512.17	8393.16
512.34	8215.28
512.51	8308.90
512.69	8180.17
512.86	8400.18
513.04	8273.79
513.21	8259.75
513.38	8285.50
513.56	8327.63
513.73	8252.73
513.90	8236.35
514.08	8353.37
514.25	8306.56
514.43	8503.17
514.60	8409.54
514.77	8372.10
514.95	8355.71
515.12	8407.20
515.29	8386.14
515.47	8575.72
515.64	8608.49
515.81	8557.00
515.99	8788.71
516.16	8486.78
516.33	8816.80
516.51	8683.39
516.68	8720.84
516.85	8585.08
517.03	8702.11
517.20	8695.09
517.37	8891.70
517.54	8877.65
517.72	8922.12
517.89	8856.59
518.06	8936.17
518.24	8870.63
518.41	8929.14
518.58	8966.59
518.75	8898.72
518.93	8954.89
519.10	8863.61
519.27	8765.31
519.45	8847.22
519.62	8903.40
519.79	9179.58
519.96	8980.64
520.14	8917.44
520.31	8990.00
520.48	9041.49
520.65	9083.62
520.83	9226.39
521.00	9224.05
521.17	9139.79
521.34	9198.31
521.52	9207.67
521.69	9200.65
521.86	9210.01
522.03	9282.56
522.20	9415.98
522.38	9254.48
522.55	9371.50
522.72	9245.12
522.89	9305.97
523.07	9465.13
523.24	9149.15
523.41	9614.92
523.58	9528.32
523.75	9598.54
523.92	9385.55
524.10	9628.96
524.27	9549.39
524.44	9685.14
524.61	9518.96
524.78	9556.41
524.96	9666.41
525.13	9558.75
525.30	9617.26
525.47	9607.90
525.64	9694.50
525.81	9481.51
525.98	9626.62
526.16	9806.84
526.33	9736.63
526.50	9844.29
526.67	9551.73
526.84	9750.67
527.01	9598.54
527.18	9820.89
527.36	9839.61
527.53	9778.76
527.70	9977.70
527.87	9797.48
528.04	9872.38
528.21	9685.14
528.38	9909.83
528.55	9996.43
528.72	9947.28
528.89	10005.79
529.07	10019.83
529.24	9984.73
529.41	10230.48
529.58	10026.86
529.75	9841.95
529.92	9884.08
530.09	10059.62
530.26	10038.56
530.43	10031.54
530.60	10045.58
530.77	10125.16
530.94	10108.77
531.11	10059.62
531.28	10181.33
531.46	9771.74
531.63	10321.76
531.80	10396.66
531.97	10134.52
532.14	10279.63
532.31	10022.17
532.48	10373.25
532.65	10312.40
532.82	10326.44
532.99	10244.52
533.16	10377.94
533.33	10387.30
533.50	10548.79
533.67	10532.41
533.84	10490.28
534.01	10427.09
534.18	10244.52
534.35	10300.70
534.52	10340.49
534.69	10445.81
534.86	10520.71
535.03	10422.41
535.20	10609.65
535.37	10644.76
535.54	10588.58
535.71	10286.65
535.88	10616.67
536.05	10506.66
536.22	10539.43
536.38	10588.58
536.55	10810.93
536.72	10478.58
536.89	10427.09
537.06	10389.64
537.23	10483.26
537.40	10637.73
537.57	10630.71
537.74	10848.38
537.91	11007.54
538.08	10890.51
538.25	10630.71
538.42	10799.23
538.59	10841.36
538.75	10630.71
538.92	10874.13
539.09	11056.69
539.26	10808.59
539.43	10815.62
539.60	10993.50
539.77	11021.58
539.94	10960.73
540.11	11162.01
540.28	10930.30
540.44	11012.22
540.61	11145.63
540.78	11321.17
540.95	11370.32
541.12	11489.69
541.29	11463.94
541.46	11508.41
541.62	11398.41
541.79	11487.35
541.96	11335.21
542.13	11414.79
542.30	11456.92
542.47	11527.14
542.63	11770.55
542.80	11707.36
542.97	11648.85
543.14	11559.91
543.31	11485.01
543.48	11700.34
543.64	11733.11
543.81	11679.27
543.98	11894.60
544.15	11929.71
544.32	11714.38
544.48	11936.73
544.65	11854.81
544.82	11360.96
544.99	11690.98
545.16	11634.80
545.32	11859.49
545.49	12430.59
545.66	12884.65
545.83	13013.38
546.00	12781.67
546.16	12259.73
546.33	11939.07
546.50	11529.48
546.67	11777.58
546.83	11585.65
547.00	11786.94
547.17	11534.16
547.34	11770.55
547.50	11592.67
547.67	11822.05
547.84	11683.95
548.00	11669.91
548.17	11723.74
548.34	11555.22
548.51	11517.78
548.67	11705.02
548.84	11583.31
549.01	11728.42
549.18	11742.47
549.34	11791.62
549.51	11538.84
549.68	11545.86
549.84	11688.64
550.01	11618.42
550.18	11665.23
550.34	11440.54
550.51	11754.17
550.68	11978.86
550.84	11494.37
551.01	11658.21
551.18	11555.22
551.34	11576.29
551.51	11375.00
551.68	11836.09
551.84	11606.72
552.01	11559.91
552.18	11754.17
552.34	11604.38
552.51	11779.92
552.68	11538.84
552.84	11550.54
553.01	11969.50
553.18	11772.89
553.34	11726.08
553.51	11791.62
553.67	11868.86
553.84	11829.07
554.01	11723.74
554.17	11658.21
554.34	11620.76
554.51	11674.59
554.67	11803.32
554.84	11747.15
555.00	11779.92
555.17	11728.42
555.33	11754.17
555.50	11705.02
555.67	11667.57
555.83	11609.06
556.00	11644.17
556.16	11822.05
556.33	11686.29
556.50	11590.33
556.66	11819.71
556.83	11833.75
556.99	11651.19
557.16	11960.14
557.32	11756.51
557.49	11805.66
557.65	11705.02
557.82	11737.79
557.98	11716.72
558.15	11719.06
558.32	11908.65
558.48	11721.40
558.65	11723.74
558.81	11925.03
558.98	11501.39
559.14	11730.76
559.31	11941.41
559.47	11742.47
559.64	11859.49
559.80	12053.76
559.97	11840.77
560.13	11815.02
560.30	12060.78
560.46	12056.10
560.63	11838.43
560.79	11915.67
560.96	11948.43
561.12	11997.59
561.29	11864.18
561.45	11960.14
561.61	12018.65
561.78	11786.94
561.94	12168.45
562.11	11791.62
562.27	11906.31
562.44	11815.02
562.60	11606.72
562.77	11894.60
562.93	12095.89
563.10	11967.16
563.26	11761.19
563.42	12161.42
563.59	12070.14
563.75	11878.22
563.92	12081.85
564.08	11957.80
564.24	11983.54
564.41	12051.42
564.57	12032.69
564.74	11948.43
564.90	12063.12
565.07	11873.54
565.23	12145.04
565.39	12119.29
565.56	11840.77
565.72	12205.89
565.88	12074.82
566.05	11857.15
566.21	12039.72
566.38	11831.41
566.54	11976.52
566.70	11854.81
566.87	12273.77
567.03	11850.13
567.19	12037.38
567.36	12222.28
567.52	11826.73
567.68	12119.29
567.85	12098.23
568.01	12013.97
568.17	11992.90
568.34	12121.63
568.50	12058.44
568.66	12114.61
568.83	12201.21
568.99	11871.20
569.15	12184.83
569.32	12098.23
569.48	12198.87
569.64	12067.80
569.81	12201.21
569.97	11988.22
570.13	12250.36
570.30	12119.29
570.46	12128.66
570.62	12058.44
570.78	11913.33
570.95	11974.18
571.11	12187.17
571.27	12170.79
571.43	11864.18
571.60	12063.12
571.76	12102.91
571.92	11950.78
572.09	12149.72
572.25	11906.31
572.41	12243.34
572.57	11999.93
572.74	12168.45
572.90	12287.81
573.06	12142.70
573.22	12116.95
573.38	12194.19
573.55	11749.49
573.71	12285.47
573.87	12255.04
574.03	12112.27
574.20	12315.90
574.36	12107.59
574.52	11899.28
574.68	12395.48
574.84	12226.96
575.01	12276.11
575.17	12255.04
575.33	12018.65
575.49	11983.54
575.65	12161.42
575.82	12147.38
575.98	12128.66
576.14	12147.38
576.30	12255.04
576.46	12372.07
576.62	12372.07
576.79	12444.63
576.95	12189.51
577.11	12311.22
577.27	12109.93
577.43	12182.49
577.59	12306.54
577.75	12084.19
577.92	12126.32
578.08	11939.07
578.24	12271.43
578.40	12116.95
578.56	12318.24
578.72	12435.27
578.88	12512.50
579.04	12549.95
579.21	12236.32
579.37	12355.69
579.53	12376.75
579.69	12325.26
579.85	12341.64
580.01	12226.96
580.17	12318.24
580.33	12320.58
580.49	12126.32
580.65	12030.35
580.82	12351.01
580.98	12114.61
581.14	12126.32
581.30	12004.61
581.46	12257.39
581.62	12035.03
581.78	12215.26
581.94	12372.07
582.10	11995.25
582.26	12212.92
582.42	12411.86
582.58	12369.73
582.74	12067.80
582.90	12269.09
583.06	12334.62
583.22	12257.39
583.38	12210.57
583.54	12383.77
583.70	12245.68
583.86	12273.77
584.02	12339.30
584.18	12369.73
584.34	12411.86
584.50	12390.80
584.66	12233.98
584.82	12114.61
584.98	12283.13
585.14	12168.45
585.30	12098.23
585.46	12276.11
585.62	12184.83
585.78	12100.57
585.94	12311.22
586.10	12409.52
586.26	12180.15
586.42	12559.31
586.58	12402.50
586.74	12145.04
586.90	12271.43
587.06	12559.31
587.22	12482.08
587.38	12435.27
587.54	12411.86
587.70	12229.30
587.86	12301.86
588.02	12369.73
588.18	12257.39
588.34	12432.93
588.49	12166.10
588.65	12299.52
588.81	12109.93
588.97	12461.01
589.13	12262.07
589.29	12123.98
589.45	12374.41
589.61	12336.96
589.77	12449.31
589.93	12381.43
590.08	12386.12
590.24	12311.22
590.40	12053.76
590.56	12402.50
590.72	12215.26
590.88	12336.96
591.04	12315.90
591.20	12318.24
591.35	12397.82
591.51	12241.00
591.67	12381.43
591.83	12409.52
591.99	12318.24
592.15	12554.63
592.31	12395.48
592.46	12400.16
592.62	12400.16
592.78	12388.46
592.94	12554.63
593.10	12463.35
593.26	12386.12
593.41	12589.74
593.57	12311.22
593.73	12306.54
593.89	12269.09
594.05	12114.61
594.20	12397.82
594.36	12362.71
594.52	12430.59
594.68	12238.66
594.84	12217.60
594.99	12524.21
595.15	12334.62
595.31	12395.48
