SpectraSuite Data File
++++++++++++++++++++++++++++++++++++
Date: Fri Oct 04 11:39:36 GMT-05:00 2013
User: price-jones
Dark Spectrum Present: No
Reference Spectrum Present: No
Number of Sampled Component Spectra: 1
Spectrometers: USB2+H05261
Integration Time (usec): 100000 (USB2+H05261)
Spectra Averaged: 1 (USB2+H05261)
Boxcar Smoothing: 0 (USB2+H05261)
Correct for Electrical Dark: No (USB2+H05261)
Strobe/Lamp Enabled: No (USB2+H05261)
Correct for Detector Non-linearity: No (USB2+H05261)
Correct for Stray Light: No (USB2+H05261)
Number of Pixels in Processed Spectrum: 2048
>>>>>Begin Processed Spectral Data<<<<<
365.73	67.88
365.92	67.88
366.12	67.88
366.32	0.00
366.52	0.00
366.72	0.00
366.91	0.00
367.11	0.00
367.31	0.00
367.51	0.00
367.70	0.00
367.90	0.00
368.10	0.00
368.30	0.00
368.49	0.00
368.69	11.70
368.89	0.00
369.09	0.00
369.28	2.34
369.48	0.00
369.68	0.00
369.87	23.41
370.07	0.00
370.27	93.62
370.47	53.83
370.66	173.20
370.86	332.36
371.06	341.72
371.25	322.99
371.45	306.61
371.65	325.33
371.84	334.70
372.04	341.72
372.24	292.57
372.44	355.76
372.63	330.02
372.83	369.80
373.03	327.68
373.22	386.19
373.42	369.80
373.62	315.97
373.81	395.55
374.01	360.44
374.21	358.10
374.40	486.83
374.60	503.22
374.79	397.89
374.99	458.74
375.19	418.96
375.38	379.17
375.58	374.49
375.78	491.51
375.97	463.43
376.17	425.98
376.37	477.47
376.56	489.17
376.76	491.51
376.95	322.99
377.15	430.66
377.35	496.19
377.54	482.15
377.74	470.45
377.93	376.83
378.13	376.83
378.33	477.47
378.52	512.58
378.72	482.15
378.91	521.94
379.11	496.19
379.31	519.60
379.50	425.98
379.70	517.26
379.89	472.79
380.09	503.22
380.28	491.51
380.48	470.45
380.68	500.87
380.87	477.47
381.07	554.71
381.26	482.15
381.46	505.56
381.65	571.09
381.85	575.77
382.04	477.47
382.24	531.30
382.43	500.87
382.63	475.13
382.83	519.60
383.02	582.79
383.22	585.13
383.41	514.92
383.61	514.92
383.80	552.37
384.00	603.86
384.19	543.00
384.39	528.96
384.58	650.67
384.78	645.99
384.97	610.88
385.17	512.58
385.36	528.96
385.56	564.07
385.75	533.64
385.95	674.07
386.14	594.50
386.34	575.77
386.53	620.24
386.72	608.54
386.92	655.35
387.11	669.39
387.31	566.41
387.50	493.85
387.70	690.46
387.89	657.69
388.09	709.18
388.28	690.46
388.48	631.94
388.67	685.78
388.86	688.12
389.06	741.95
389.25	610.88
389.45	732.59
389.64	723.23
389.84	901.11
390.03	702.16
390.22	737.27
390.42	660.03
390.61	667.05
390.81	653.01
391.00	755.99
391.19	833.23
391.39	690.46
391.58	683.44
391.78	697.48
391.97	767.70
392.16	744.29
392.36	793.44
392.55	816.85
392.75	798.12
392.94	828.55
393.13	784.08
393.33	758.33
393.52	805.14
393.71	891.74
393.91	844.93
394.10	840.25
394.29	800.46
394.49	835.57
394.68	856.64
394.88	863.66
395.07	835.57
395.26	863.66
395.46	968.98
395.65	851.96
395.84	875.36
396.04	971.32
396.23	947.92
396.42	870.68
396.62	997.07
396.81	950.26
397.00	950.26
397.19	973.66
397.39	877.70
397.58	959.62
397.77	931.53
397.97	968.98
398.16	985.37
398.35	1095.37
398.55	978.34
398.74	1149.20
398.93	1090.69
399.12	1128.14
399.32	1062.60
399.51	1057.92
399.70	1057.92
399.90	1160.91
400.09	1135.16
400.28	1078.99
400.47	1093.03
400.67	1219.42
400.86	1172.61
401.05	1156.22
401.24	1090.69
401.44	1130.48
401.63	1331.76
401.82	1270.91
402.01	1151.54
402.21	1252.19
402.40	1247.51
402.59	1261.55
402.78	1289.64
402.97	1207.72
403.17	1299.00
403.36	1432.41
403.55	1287.29
403.74	1394.96
403.93	1437.09
404.13	1474.54
404.32	1469.86
404.51	1366.87
404.70	1448.79
404.89	1472.20
405.09	1446.45
405.28	1420.71
405.47	1533.05
405.66	1497.94
405.85	1490.92
406.05	1425.39
406.24	1605.61
406.43	1521.35
406.62	1666.46
406.81	1647.74
407.00	1575.18
407.20	1575.18
407.39	1554.12
407.58	1750.72
407.77	1682.85
407.96	1689.87
408.15	1732.00
408.34	1694.55
408.54	1666.46
408.73	1657.10
408.92	1750.72
409.11	1795.19
409.30	1760.08
409.49	1827.96
409.68	1783.49
409.87	1865.41
410.07	2008.18
410.26	1909.88
410.45	1870.09
410.64	1879.45
410.83	2024.56
411.02	1940.30
411.21	2017.54
411.40	1987.11
411.59	1994.14
411.78	2036.27
411.98	1968.39
412.17	2026.90
412.36	2197.76
412.55	2244.57
412.74	2139.25
412.93	2289.04
413.12	2064.35
413.31	2321.81
413.50	2272.66
413.69	2333.51
413.88	2235.21
414.07	2298.41
414.26	2422.45
414.45	2448.20
414.64	2513.74
414.83	2525.44
415.02	2499.69
415.22	2532.46
415.41	2682.25
415.60	2583.95
415.79	2644.81
415.98	2525.44
416.17	2679.91
416.36	2726.72
416.55	2644.81
416.74	2799.28
416.93	2832.05
417.12	2778.22
417.31	2848.43
417.50	2848.43
417.69	2923.33
417.88	2808.64
418.07	3019.29
418.26	2970.14
418.45	2942.05
418.64	3016.95
418.83	3026.31
419.02	2951.42
419.21	3035.67
419.39	3035.67
419.58	3187.81
419.77	3101.21
419.96	3190.15
420.15	3152.70
420.34	3290.79
420.53	3190.15
420.72	3169.09
420.91	3187.81
421.10	3356.33
421.29	3307.18
421.48	3302.50
421.67	3440.59
421.86	3234.62
422.05	3342.28
422.24	3419.52
422.43	3351.65
422.61	3435.91
422.80	3335.26
422.99	3456.97
423.18	3419.52
423.37	3438.25
423.56	3538.89
423.75	3356.33
423.94	3433.57
424.13	3248.66
424.32	3215.90
424.50	3480.38
424.69	3527.19
424.88	3478.04
425.07	3454.63
425.26	3517.83
425.45	3564.64
425.64	3396.12
425.83	3485.06
426.01	3669.96
426.20	3541.23
426.39	3351.65
426.58	3541.23
426.77	3609.11
426.96	3548.25
427.15	3585.70
427.33	3627.83
427.52	3676.98
427.71	3868.91
427.90	3712.09
428.09	3784.65
428.28	3644.21
428.46	3777.62
428.65	3798.69
428.84	3999.98
429.03	3901.67
429.22	3684.00
429.40	3859.54
429.59	3957.85
429.78	3805.71
429.97	3709.75
430.16	3637.19
430.34	3836.14
430.53	4088.92
430.72	3990.61
430.91	3948.48
431.10	3927.42
431.28	4025.72
431.47	4079.55
431.66	4126.36
431.85	4084.23
432.03	4393.19
432.22	4241.05
432.41	4243.39
432.60	4325.31
432.79	4152.11
432.97	4318.29
433.16	4252.75
433.35	4182.54
433.54	4348.72
433.72	4273.82
433.91	4374.46
434.10	4241.05
434.28	4327.65
434.47	4285.52
434.66	4498.51
434.85	4500.85
435.03	4496.17
435.22	4650.64
435.41	4840.23
435.59	4877.68
435.78	4823.84
435.97	4767.67
436.16	4503.19
436.34	4601.49
436.53	4580.43
436.72	4755.97
436.90	4657.67
437.09	4814.48
437.28	4482.13
437.46	4697.46
437.65	4795.76
437.84	4751.29
438.02	4812.14
438.21	4636.60
438.40	4814.48
438.58	4973.64
438.77	5062.58
438.96	4961.94
439.14	4917.47
439.33	4919.81
439.52	5177.26
439.70	5097.69
439.89	5174.92
440.08	5198.33
440.26	5142.16
440.45	5303.65
440.63	5336.42
440.82	5261.52
441.01	5207.69
441.19	5416.00
441.38	5371.53
441.57	5289.61
441.75	5544.73
441.94	5650.05
442.12	5526.00
442.31	5757.72
442.50	5762.40
442.68	5633.67
442.87	5570.48
443.05	5736.65
443.24	5865.38
443.43	5900.49
443.61	5928.58
443.80	5841.98
443.98	5743.67
444.17	5717.93
444.35	5767.08
444.54	5797.51
444.73	5870.06
444.91	5774.10
445.10	6111.14
445.28	5820.91
445.47	5774.10
445.65	5771.76
445.84	5888.79
446.02	6045.60
446.21	5837.30
446.39	5736.65
446.58	5980.07
446.77	5937.94
446.95	5823.25
447.14	6064.33
447.32	5914.53
447.51	5905.17
447.69	6118.16
447.88	6148.59
448.06	6125.18
448.25	5984.75
448.43	6153.27
448.62	6090.07
448.80	6111.14
448.99	6008.16
449.17	6104.12
449.36	6125.18
449.54	6284.34
449.73	6223.48
449.91	6186.04
450.10	6284.34
450.28	6434.13
450.46	6340.51
450.65	6375.62
450.83	6408.39
451.02	6260.93
451.20	6394.34
451.39	6361.58
451.57	6434.13
451.76	6417.75
451.94	6497.33
452.13	6579.25
452.31	6548.82
452.49	6520.73
452.68	6588.61
452.86	6534.78
453.05	6576.91
453.23	6738.40
453.42	6621.38
453.60	6534.78
453.78	6513.71
453.97	6513.71
454.15	6757.13
454.34	6752.45
454.52	6892.88
454.70	6953.73
454.89	6775.85
455.07	6775.85
455.26	6963.09
455.44	6864.79
455.62	6817.98
455.81	6935.01
455.99	6930.33
456.17	7033.31
456.36	7131.61
456.54	7119.91
456.73	7318.86
456.91	7243.96
457.09	7337.58
457.28	7396.09
457.46	7115.23
457.64	7365.67
457.83	7368.01
458.01	7232.26
458.19	7506.10
458.38	7169.06
458.56	7566.95
458.74	7456.95
458.93	7501.42
459.11	7358.64
459.29	7499.08
459.48	7470.99
459.66	7599.72
459.84	7695.68
460.03	7723.77
460.21	7637.17
460.39	7679.30
460.57	7709.72
460.76	7819.73
460.94	7824.41
461.12	7784.62
461.31	7786.96
461.49	7974.21
461.67	7857.18
461.85	7941.44
462.04	7808.03
462.22	8105.28
462.40	8093.57
462.59	8060.80
462.77	8032.72
462.95	7999.95
463.13	8140.38
463.32	8182.51
463.50	8318.26
463.68	8191.88
463.86	8140.38
464.05	8051.44
464.23	8114.64
464.41	8248.05
464.59	8098.25
464.78	8269.11
464.96	8161.45
465.14	8313.58
465.32	8697.43
465.50	8629.56
465.69	8439.97
465.87	8238.69
466.05	8468.06
466.23	8510.19
466.41	8578.06
466.60	8730.20
466.78	8732.54
466.96	8442.31
467.14	8676.37
467.32	8549.98
467.51	8493.80
467.69	8444.65
467.87	8638.92
468.05	8650.62
468.23	8414.23
468.41	8709.13
468.60	8823.82
468.78	8671.68
468.96	8500.83
469.14	8814.46
469.32	8879.99
469.50	8905.74
469.69	8985.32
469.87	8982.98
470.05	9029.79
470.23	9149.15
470.41	9011.06
470.59	9088.30
470.77	8959.57
470.95	8992.34
471.14	9305.97
471.32	9273.20
471.50	9303.63
471.68	9315.33
471.86	9626.62
472.04	9451.08
472.22	9582.15
472.40	9408.95
472.58	9577.47
472.77	9650.03
472.95	9731.95
473.13	10001.11
473.31	9778.76
473.49	9748.33
473.67	9713.22
473.85	9970.68
474.03	9898.13
474.21	9907.49
474.39	10221.12
474.57	10289.00
474.75	10207.08
474.93	10464.54
475.12	10164.95
475.30	10354.53
475.48	10307.72
475.66	10424.75
475.84	10583.90
476.02	10490.28
476.20	10611.99
476.38	10700.93
476.56	11075.42
476.74	10942.00
476.92	10883.49
477.10	10764.12
477.28	11185.42
477.46	11358.62
477.64	11356.28
477.82	11438.20
478.00	11616.08
478.18	11698.00
478.36	11569.27
478.54	11782.26
478.72	11910.99
478.90	11899.28
479.08	12039.72
479.26	12091.21
479.44	11960.14
479.62	12112.27
479.80	12301.86
479.98	12222.28
480.16	12669.32
480.34	12484.42
480.52	12669.32
480.70	12968.91
480.88	12699.75
481.06	12769.96
481.24	12739.54
481.41	13015.72
481.59	13125.72
481.77	13273.18
481.95	13334.03
482.13	13338.71
482.31	13460.42
482.49	13633.62
482.67	13642.98
482.85	13916.83
483.03	13940.23
483.21	14225.78
483.39	14314.72
483.57	14232.80
483.74	14532.39
483.92	14600.26
484.10	14307.69
484.28	15255.61
484.46	14871.76
484.64	15501.37
484.82	15000.49
485.00	15232.21
485.18	15412.43
485.35	15398.38
485.53	15592.65
485.71	15630.10
485.89	16194.17
486.07	15859.47
486.25	16121.61
486.43	15962.45
486.61	16173.10
486.78	16568.65
486.96	16334.60
487.14	16952.50
487.32	17046.12
487.50	16699.72
487.68	17060.16
487.85	17289.54
488.03	17181.87
488.21	17586.79
488.39	17596.15
488.57	17638.28
488.75	17537.63
488.92	18312.35
489.10	18274.90
489.28	18097.02
489.46	18574.49
489.64	18614.28
489.81	18679.82
489.99	19009.83
490.17	18799.18
490.35	19311.76
490.53	18878.76
490.70	19159.63
490.88	19412.40
491.06	19651.14
491.24	19321.12
491.41	19758.80
491.59	19831.36
491.77	19971.79
491.95	20126.27
492.13	20088.82
492.30	20147.33
492.48	20587.35
492.66	20423.51
492.84	20479.69
493.01	21032.05
493.19	20964.18
493.37	21216.96
493.54	21343.35
493.72	21598.46
493.90	21109.29
494.08	21165.46
494.25	21570.38
494.43	21741.24
494.61	21909.75
494.79	21933.16
494.96	21781.03
495.14	22307.65
495.32	22396.59
495.49	22345.09
495.67	22558.08
495.85	22520.63
496.02	22780.43
496.20	22918.53
496.38	22656.39
496.55	23213.43
496.73	23536.43
496.91	23374.93
497.09	23468.55
497.26	23442.81
497.44	23531.75
497.62	23784.52
497.79	23974.11
497.97	24266.67
498.14	24294.76
498.32	24615.41
498.50	24800.32
498.67	24432.85
498.85	24505.41
499.03	24687.97
499.20	24975.86
499.38	24978.20
499.56	25095.22
499.73	25277.79
499.91	25493.12
500.08	25287.15
500.26	24797.98
500.44	25132.67
500.61	25420.56
500.79	25345.66
500.97	25474.39
501.14	26019.74
501.32	26316.98
501.49	26122.72
501.67	26319.32
501.84	26335.71
502.02	26087.61
502.20	26309.96
502.37	26822.54
502.55	26602.53
502.72	26689.13
502.90	26639.98
503.07	26417.63
503.25	26705.51
503.43	26464.44
503.60	26909.14
503.78	27201.71
503.95	27103.40
504.13	27056.59
504.30	27424.06
504.48	27232.13
504.65	27466.19
504.83	27866.42
505.01	27662.79
505.18	27924.93
505.36	28088.77
505.53	28070.04
505.71	28278.35
505.88	27999.83
506.06	28151.96
506.23	28575.60
506.41	28196.43
506.58	28500.70
506.76	28634.11
506.93	28816.68
507.11	28402.40
507.28	28933.70
507.46	28938.38
507.63	28973.49
507.81	29427.56
507.98	29001.58
508.16	29235.63
508.33	29521.18
508.50	29357.34
508.68	29378.40
508.85	30284.19
509.03	29631.18
509.20	29926.09
509.38	30204.61
509.55	29851.19
509.73	29879.28
509.90	30183.55
510.08	29963.54
510.25	29788.00
510.42	30361.43
510.60	30441.01
510.77	30747.62
510.95	30632.93
511.12	30759.32
511.30	30565.06
511.47	30831.88
511.64	30866.98
511.82	31473.18
511.99	30771.02
512.17	31466.16
512.34	31445.10
512.51	31531.70
512.69	31417.01
512.86	31363.18
513.04	31534.04
513.21	31693.19
513.38	32053.64
513.56	32020.87
513.73	31777.45
513.90	32034.91
514.08	31854.69
514.25	32533.45
514.43	32175.34
514.60	32154.28
514.77	32315.78
514.95	32629.41
515.12	32437.48
515.29	32577.92
515.47	32788.56
515.64	33191.14
515.81	32926.66
515.99	32830.69
516.16	33390.08
516.33	32907.93
516.51	33090.49
516.68	33352.63
516.85	32692.60
517.03	33624.14
517.20	33467.32
517.37	33310.50
517.54	33530.51
517.72	33764.57
517.89	33493.07
518.06	33734.14
518.24	33851.17
518.41	33860.53
518.58	34223.31
518.75	33961.17
518.93	34036.07
519.10	33675.63
519.27	34160.12
519.45	33881.60
519.62	34108.63
519.79	34059.48
519.96	34433.96
520.14	34897.39
520.31	34532.26
520.48	34934.84
520.65	34443.32
520.83	35147.82
521.00	34799.08
521.17	34902.07
521.34	34630.57
521.52	35494.22
521.69	35344.43
521.86	35583.16
522.03	35845.30
522.20	35405.28
522.38	35339.75
522.55	35604.23
522.72	35218.04
522.89	35541.03
523.07	35936.59
523.24	35775.09
523.41	36465.55
523.58	36004.46
523.75	35943.61
523.92	35838.28
524.10	36488.95
524.27	36458.52
524.44	36292.35
524.61	36671.51
524.78	36503.00
524.96	36676.19
525.13	36486.61
525.30	36498.31
525.47	36694.92
525.64	36577.89
525.81	36938.33
525.98	37076.43
526.16	36964.08
526.33	37151.32
526.50	37057.70
526.67	36959.40
526.84	37350.27
527.01	37518.79
527.18	37298.78
527.36	37481.34
527.53	37734.12
527.70	38045.41
527.87	37724.75
528.04	37212.18
528.21	38169.46
528.38	37429.85
528.55	37713.05
528.72	37799.65
528.89	37881.57
529.07	37734.12
529.24	38038.39
529.41	37972.85
529.58	38045.41
529.75	37921.36
529.92	38050.09
530.09	38618.84
530.26	37958.81
530.43	38443.30
530.60	38330.95
530.77	38316.91
530.94	38199.88
531.11	38557.99
531.28	38368.40
531.46	38396.49
531.63	38518.20
531.80	38632.88
531.97	39131.42
532.14	38876.30
532.31	38930.13
532.48	38852.89
532.65	39072.90
532.82	38604.80
532.99	39519.95
533.16	38941.83
533.33	39690.80
533.50	39697.83
533.67	39611.23
533.84	39133.76
534.01	39288.23
534.18	39606.55
534.35	39524.63
534.52	39494.20
534.69	39866.34
534.86	40250.19
535.03	39742.30
535.20	39711.87
535.37	39962.31
535.54	40236.15
535.71	39667.40
535.88	39711.87
536.05	39948.26
536.22	40114.44
536.38	39929.54
536.55	40711.28
536.72	40250.19
536.89	39924.86
537.06	40046.57
537.23	40306.37
537.40	40128.48
537.57	40320.41
537.74	40484.25
537.91	40329.77
538.08	40800.22
538.25	40760.43
538.42	40751.07
538.59	41228.54
538.75	40837.67
538.92	40591.91
539.09	41024.91
539.26	40854.05
539.43	40950.01
539.60	41188.75
539.77	41167.68
539.94	41432.16
540.11	41251.94
540.28	41378.33
540.44	41111.51
540.61	41078.74
540.78	41584.30
540.95	41755.16
541.12	41675.58
541.29	41490.68
541.46	41670.90
541.62	41834.74
541.79	41801.97
541.96	41420.46
542.13	41619.41
542.30	41834.74
542.47	41757.50
542.63	42073.47
542.80	42337.95
542.97	42394.12
543.14	42239.65
543.31	42483.06
543.48	42176.45
543.64	42600.09
543.81	42850.53
543.98	42848.19
544.15	43075.22
544.32	42490.09
544.48	42820.10
544.65	42906.70
544.82	42600.09
544.99	42108.58
545.16	42649.24
545.32	42979.26
545.49	43669.72
545.66	43955.26
545.83	44051.22
546.00	43878.02
546.16	43309.27
546.33	42660.94
546.50	42506.47
546.67	42902.02
546.83	42382.42
547.00	42995.64
547.17	43014.37
547.34	43093.94
547.50	43175.86
547.67	43234.38
547.84	42766.27
548.00	43255.44
548.17	43866.32
548.34	43131.39
548.51	43751.63
548.67	43480.13
548.84	43386.51
549.01	43620.56
549.18	43089.26
549.34	43618.22
549.51	43845.26
549.68	43438.00
549.84	43903.77
550.01	43676.74
550.18	43264.80
550.34	43894.41
550.51	43702.48
550.68	43770.36
550.84	43353.74
551.01	43522.26
551.18	43606.52
551.34	43634.61
551.51	43639.29
551.68	44074.63
551.84	43643.97
552.01	43892.07
552.18	44025.48
552.34	43931.86
552.51	43742.27
552.68	43606.52
552.84	43866.32
553.01	44154.21
553.18	43658.01
553.34	44353.15
553.51	43782.06
553.67	43988.03
553.84	44657.42
554.01	44615.29
554.17	44126.12
554.34	44189.31
554.51	44231.44
554.67	44507.63
554.84	44444.43
555.00	43887.39
555.17	44435.07
555.33	44353.15
555.50	44463.16
555.67	44378.90
555.83	44465.50
556.00	44271.23
556.16	44570.82
556.33	44533.37
556.50	44334.43
556.66	44854.03
556.83	44217.40
556.99	44509.97
557.16	44989.78
557.32	44425.71
557.49	44945.31
557.65	44460.82
557.82	44439.75
557.98	44165.91
558.15	44715.93
558.32	45034.25
558.48	44643.38
558.65	45184.04
558.81	44886.79
558.98	44964.03
559.14	44882.11
559.31	44610.61
559.47	44933.60
559.64	44713.59
559.80	44968.71
559.97	45439.16
560.13	44666.78
560.30	45191.06
560.46	45174.68
560.63	44875.09
560.79	45181.70
560.96	45422.78
561.12	44734.66
561.29	44868.07
561.45	44954.67
561.61	45055.31
561.78	45357.24
561.94	45085.74
562.11	45595.98
562.27	45207.45
562.44	45057.65
562.60	45209.79
562.77	44926.58
562.93	44978.07
563.10	45453.20
563.26	45207.45
563.42	45801.94
563.59	45390.01
563.75	45280.00
563.92	45354.90
564.08	45123.19
564.24	45272.98
564.41	45071.70
564.57	45226.17
564.74	45195.74
564.90	45584.27
565.07	45436.82
565.23	45141.91
565.39	45275.32
565.56	45558.53
565.72	44957.01
565.88	45364.26
566.05	45219.15
566.21	44865.73
566.38	45242.56
566.54	45272.98
566.70	46061.74
566.87	45785.56
567.03	45841.73
567.19	45806.62
567.36	45727.05
567.52	45478.95
567.68	45752.79
567.85	45160.64
568.01	45502.35
568.17	45090.42
568.34	45673.21
568.50	45748.11
568.66	45670.87
568.83	45911.95
568.99	45469.59
569.15	45567.89
569.32	45514.06
569.48	45333.84
569.64	45610.02
569.81	45415.76
569.97	45614.70
570.13	45649.81
570.30	45654.49
570.46	45680.24
570.62	45830.03
570.78	45240.21
570.95	45467.25
571.11	45668.53
571.27	45237.87
571.43	45528.10
571.60	45315.11
571.76	45762.15
571.92	45794.92
572.09	45720.02
572.25	45654.49
572.41	45670.87
572.57	45542.14
572.74	46026.63
572.90	45738.75
573.06	45715.34
573.22	45600.66
573.38	45528.10
573.55	45872.16
573.71	46089.83
573.87	45958.76
574.03	45612.36
574.20	45902.59
574.36	45432.14
574.52	45972.80
574.68	46178.77
574.84	45717.68
575.01	45539.80
575.17	45933.01
575.33	45647.47
575.49	45907.27
575.65	45815.99
575.82	46241.96
575.98	45865.14
576.14	46108.55
576.30	45989.19
576.46	45668.53
576.62	45729.39
576.79	45703.64
576.95	45645.13
577.11	45713.00
577.27	45827.69
577.43	46021.95
577.59	45855.78
577.75	45808.96
577.92	45755.13
578.08	45504.70
578.24	45734.07
578.40	45666.19
578.56	45986.85
578.72	45883.86
578.88	45808.96
579.04	46167.07
579.21	45869.82
579.37	45830.03
579.53	46089.83
579.69	45390.01
579.85	45525.76
580.01	45736.41
580.17	45434.48
580.33	45649.81
580.49	45928.33
580.65	46080.47
580.82	46237.28
580.98	45787.90
581.14	46277.07
581.30	46089.83
581.46	45684.92
581.62	45855.78
581.78	46033.66
581.94	46251.33
582.10	45368.94
582.26	45895.56
582.42	45771.52
582.58	46256.01
582.74	46036.00
582.90	46050.04
583.06	46183.45
583.22	45886.20
583.38	45801.94
583.54	45890.88
583.70	45659.17
583.86	45911.95
584.02	45787.90
584.18	45511.72
584.34	45588.95
584.50	46185.79
584.66	45593.64
584.82	45595.98
584.98	46146.00
585.14	45794.92
585.30	45818.33
585.46	46141.32
585.62	46005.57
585.78	46429.21
585.94	45921.31
586.10	46281.75
586.26	45710.66
586.42	46487.72
586.58	46206.86
586.74	45736.41
586.90	46068.76
587.06	45593.64
587.22	45984.51
587.38	45823.01
587.54	45951.74
587.70	46251.33
587.86	45771.52
588.02	46277.07
588.18	46405.80
588.34	46291.12
588.49	45869.82
588.65	45874.50
588.81	45659.17
588.97	45794.92
589.13	46286.43
589.29	45839.39
589.45	46351.97
589.61	46279.41
589.77	46131.96
589.93	45998.55
590.08	46373.03
590.24	46012.59
590.40	46312.18
590.56	46473.68
590.72	45815.99
