SpectraSuite Data File
++++++++++++++++++++++++++++++++++++
Date: Tue Oct 01 18:27:27 GMT-05:00 2013
User: stostad
Dark Spectrum Present: No
Reference Spectrum Present: No
Number of Sampled Component Spectra: 1
Spectrometers: USB2+H05261
Integration Time (usec): 100000 (USB2+H05261)
Spectra Averaged: 1 (USB2+H05261)
Boxcar Smoothing: 0 (USB2+H05261)
Correct for Electrical Dark: No (USB2+H05261)
Strobe/Lamp Enabled: No (USB2+H05261)
Correct for Detector Non-linearity: No (USB2+H05261)
Correct for Stray Light: No (USB2+H05261)
Number of Pixels in Processed Spectrum: 2048
>>>>>Begin Processed Spectral Data<<<<<
365.73	58.51
365.92	58.51
366.12	58.51
366.32	0.00
366.52	18.72
366.72	0.00
366.91	0.00
367.11	0.00
367.31	0.00
367.51	0.00
367.70	0.00
367.90	0.00
368.10	0.00
368.30	0.00
368.49	0.00
368.69	0.00
368.89	0.00
369.09	0.00
369.28	21.06
369.48	35.11
369.68	0.00
369.87	60.85
370.07	0.00
370.27	67.88
370.47	49.15
370.66	236.39
370.86	337.04
371.06	341.72
371.25	339.38
371.45	306.61
371.65	369.80
371.84	404.91
372.04	315.97
372.24	397.89
372.44	374.49
372.63	360.44
372.83	367.46
373.03	393.21
373.22	301.93
373.42	402.57
373.62	355.76
373.81	407.25
374.01	442.36
374.21	435.34
374.40	381.51
374.60	489.17
374.79	512.58
374.99	390.87
375.19	416.62
375.38	496.19
375.58	510.24
375.78	557.05
375.97	425.98
376.17	559.39
376.37	444.70
376.56	512.58
376.76	489.17
376.95	433.00
377.15	472.79
377.35	456.40
377.54	521.94
377.74	475.13
377.93	503.22
378.13	514.92
378.33	526.62
378.52	573.43
378.72	505.56
378.91	510.24
379.11	489.17
379.31	491.51
379.50	472.79
379.70	557.05
379.89	489.17
380.09	543.00
380.28	521.94
380.48	538.32
380.68	472.79
380.87	468.11
381.07	486.83
381.26	573.43
381.46	543.00
381.65	482.15
381.85	603.86
382.04	554.71
382.24	575.77
382.43	571.09
382.63	634.29
382.83	641.31
383.02	699.82
383.22	627.26
383.41	573.43
383.61	589.82
383.80	653.01
384.00	592.16
384.19	552.37
384.39	603.86
384.58	531.30
384.78	599.18
384.97	594.50
385.17	667.05
385.36	603.86
385.56	699.82
385.75	620.24
385.95	678.76
386.14	613.22
386.34	622.58
386.53	704.50
386.72	645.99
386.92	645.99
387.11	674.07
387.31	692.80
387.50	744.29
387.70	716.20
387.89	678.76
388.09	674.07
388.28	807.48
388.48	788.76
388.67	692.80
388.86	716.20
389.06	732.59
389.25	784.08
389.45	723.23
389.64	732.59
389.84	814.51
390.03	802.80
390.22	791.10
390.42	793.44
390.61	716.20
390.81	748.97
391.00	856.64
391.19	802.80
391.39	856.64
391.58	826.21
391.78	753.65
391.97	821.53
392.16	922.17
392.36	870.68
392.55	922.17
392.75	851.96
392.94	898.77
393.13	891.74
393.33	802.80
393.52	931.53
393.71	971.32
393.91	943.24
394.10	866.00
394.29	978.34
394.49	882.38
394.68	1053.24
394.88	1041.54
395.07	1071.97
395.26	926.85
395.46	943.24
395.65	1032.18
395.84	1060.26
396.04	1088.35
396.23	1060.26
396.42	1076.65
396.62	1053.24
396.81	1027.50
397.00	1130.48
397.19	1081.33
397.39	968.98
397.58	1102.39
397.77	1076.65
397.97	1053.24
398.16	1107.07
398.35	1210.06
398.55	1114.10
398.74	1032.18
398.93	1151.54
399.12	1193.67
399.32	1165.59
399.51	1135.16
399.70	1233.46
399.90	1139.84
400.09	1231.12
400.28	1163.25
400.47	1280.27
400.67	1359.85
400.86	1249.85
401.05	1284.95
401.24	1249.85
401.44	1277.93
401.63	1282.61
401.82	1280.27
402.01	1299.00
402.21	1371.55
402.40	1387.94
402.59	1441.77
402.78	1469.86
402.97	1324.74
403.17	1329.42
403.36	1507.30
403.55	1490.92
403.74	1493.26
403.93	1493.26
404.13	1535.39
404.32	1448.79
404.51	1486.24
404.70	1596.25
404.89	1528.37
405.09	1675.82
405.28	1575.18
405.47	1563.48
405.66	1607.95
405.85	1673.48
406.05	1652.42
406.24	1621.99
406.43	1671.14
406.62	1732.00
406.81	1788.17
407.00	1774.13
407.20	1813.92
407.39	1783.49
407.58	1830.30
407.77	1769.44
407.96	1870.09
408.15	1842.00
408.34	1710.93
408.54	1893.49
408.73	1923.92
408.92	1884.13
409.11	1959.03
409.30	2033.93
409.49	2036.27
409.68	1949.67
409.87	2026.90
410.07	1921.58
410.26	2052.65
410.45	2001.16
410.64	2001.16
410.83	2066.69
411.02	2214.15
411.21	2157.97
411.40	2155.63
411.59	2179.04
411.78	2256.28
411.98	2153.29
412.17	2232.87
412.36	2289.04
412.55	2246.91
412.74	2387.35
412.93	2310.11
413.12	2282.02
413.31	2483.31
413.50	2413.09
413.69	2516.08
413.88	2548.84
414.07	2576.93
414.26	2619.06
414.45	2525.44
414.64	2562.89
414.83	2712.68
415.02	2593.31
415.22	2647.15
415.41	2698.64
415.60	2719.70
415.79	2696.30
415.98	2761.83
416.17	2698.64
416.36	2801.62
416.55	2799.28
416.74	2867.16
416.93	2925.67
417.12	2883.54
417.31	2857.79
417.50	2920.99
417.69	3049.72
417.88	3066.10
418.07	3059.08
418.26	3014.61
418.45	3126.96
418.64	3126.96
418.83	3169.09
419.02	3169.09
419.21	3248.66
419.39	3213.56
419.58	3218.24
419.77	3208.87
419.96	3337.60
420.15	3349.31
420.34	3318.88
420.53	3311.86
420.72	3414.84
420.91	3363.35
421.10	3426.54
421.29	3452.29
421.48	3353.99
421.67	3414.84
421.86	3485.06
422.05	3440.59
422.24	3379.73
422.43	3438.25
422.61	3517.83
422.80	3543.57
422.99	3562.30
423.18	3545.91
423.37	3559.95
423.56	3463.99
423.75	3562.30
423.94	3545.91
424.13	3368.03
424.32	3480.38
424.50	3679.32
424.69	3730.81
424.88	3545.91
425.07	3620.81
425.26	3522.51
425.45	3637.19
425.64	3550.59
425.83	3637.19
426.01	3676.98
426.20	3667.62
426.39	3641.87
426.58	3623.15
426.77	3721.45
426.96	3613.79
427.15	3667.62
427.33	3719.11
427.52	3681.66
427.71	3786.99
427.90	3840.82
428.09	3765.92
428.28	3894.65
428.46	3791.67
428.65	3850.18
428.84	4053.81
429.03	3936.78
429.22	3838.48
429.40	3896.99
429.59	4009.34
429.78	3796.35
429.97	3847.84
430.16	3882.95
430.34	3969.55
430.53	4149.77
430.72	4173.18
430.91	4025.72
431.10	4009.34
431.28	4170.83
431.47	4241.05
431.66	4194.24
431.85	4095.94
432.03	4311.27
432.22	4386.16
432.41	4280.84
432.60	4344.03
432.79	4201.26
432.97	4348.72
433.16	4341.69
433.35	4269.14
433.54	4355.74
433.72	4470.42
433.91	4278.50
434.10	4421.27
434.28	4287.86
434.47	4521.92
434.66	4475.10
434.85	4552.34
435.03	4638.94
435.22	4734.90
435.41	4681.07
435.59	4622.56
435.78	4734.90
435.97	4542.98
436.16	4777.03
436.34	4716.18
436.53	4685.75
436.72	4734.90
436.90	4723.20
437.09	4739.58
437.28	4695.11
437.46	4830.87
437.65	4947.89
437.84	4788.74
438.02	5046.20
438.21	5027.47
438.40	4917.47
438.58	4983.00
438.77	5167.90
438.96	5130.45
439.14	5153.86
439.33	5195.99
439.52	5177.26
439.70	5247.48
439.89	5324.72
440.08	5345.78
440.26	5310.68
440.45	5486.22
440.63	5465.15
440.82	5455.79
441.01	5486.22
441.19	5554.09
441.38	5696.86
441.57	5603.24
441.75	5507.28
441.94	5811.55
442.12	5884.11
442.31	5839.64
442.50	5874.74
442.68	5830.27
442.87	5771.76
443.05	5851.34
443.24	6003.47
443.43	5907.51
443.61	5877.09
443.80	6108.80
443.98	6087.73
444.17	5795.17
444.35	6083.05
444.54	6186.04
444.73	6104.12
444.91	6242.21
445.10	6092.41
445.28	6036.24
445.47	6171.99
445.65	6052.63
445.84	6146.25
446.02	6176.67
446.21	6097.10
446.39	6087.73
446.58	6171.99
446.77	6155.61
446.95	5879.43
447.14	6080.71
447.32	6230.51
447.51	6209.44
447.69	6139.23
447.88	6333.49
448.06	6263.27
448.25	6239.87
448.43	6392.00
448.62	6377.96
448.80	6237.53
448.99	6265.61
449.17	6487.96
449.36	6239.87
449.54	6452.86
449.73	6476.26
449.91	6518.39
450.10	6513.71
450.28	6413.07
450.46	6612.01
450.65	6813.30
450.83	6431.79
451.02	6633.08
451.20	6759.47
451.39	6726.70
451.57	6724.36
451.76	6670.53
451.94	6696.27
452.13	6839.05
452.31	6834.36
452.49	6693.93
452.68	6892.88
452.86	6780.53
453.05	6923.30
453.23	7035.65
453.42	6895.22
453.60	6925.65
453.78	6956.07
453.97	6897.56
454.15	6942.03
454.34	7112.89
454.52	7073.10
454.70	7056.72
454.89	7136.29
455.07	7187.79
455.26	6991.18
455.44	7321.20
455.62	7229.91
455.81	7274.38
455.99	7377.37
456.17	7414.82
456.36	7293.11
456.54	7454.61
456.73	7449.93
456.91	7613.76
457.09	7627.81
457.28	7784.62
457.46	7653.55
457.64	7503.76
457.83	7705.04
458.01	7581.00
458.19	7782.28
458.38	7810.37
458.56	7667.60
458.74	7777.60
458.93	7683.98
459.11	7896.97
459.29	7978.89
459.48	7843.14
459.66	7911.01
459.84	7918.03
460.03	8124.00
460.21	8074.85
460.39	8002.29
460.57	8065.49
460.76	8063.15
460.94	8081.87
461.12	8128.68
461.31	8344.01
461.49	8114.64
461.67	8294.86
461.85	8451.67
462.04	8205.92
462.22	8786.37
462.40	8383.80
462.59	8383.80
462.77	8418.91
462.95	8493.80
463.13	8496.14
463.32	8486.78
463.50	8470.40
463.68	8540.61
463.86	8690.41
464.05	8486.78
464.23	8681.05
464.41	8716.16
464.59	8559.34
464.78	8861.27
464.96	8774.67
465.14	8489.12
465.32	8781.69
465.50	8872.97
465.69	8720.84
465.87	8807.44
466.05	8961.91
466.23	8791.05
466.41	8898.72
466.60	9202.99
466.78	8854.25
466.96	8929.14
467.14	8786.37
467.32	8865.95
467.51	9160.86
467.69	8755.94
467.87	8908.08
468.05	9081.28
468.23	8851.91
468.41	9060.21
468.60	9202.99
468.78	9331.72
468.96	9163.20
469.14	9280.22
469.32	9235.75
469.50	9224.05
469.69	9593.86
469.87	9727.27
470.05	9797.48
470.23	9647.69
470.41	9778.76
470.59	9554.07
470.77	9624.28
470.95	9750.67
471.14	9902.81
471.32	9507.26
471.50	9872.38
471.68	9877.06
471.86	10026.86
472.04	10090.05
472.22	10155.58
472.40	9937.91
472.58	10153.24
472.77	10317.08
472.95	10408.36
473.13	10654.12
473.31	10333.47
473.49	10462.19
473.67	10352.19
473.85	10399.00
474.03	10714.97
474.21	10682.20
474.39	10663.48
474.57	10726.68
474.75	11000.52
474.93	10836.68
475.12	10714.97
475.30	10934.98
475.48	10930.30
475.66	11124.57
475.84	11173.72
476.02	11080.10
476.20	11346.92
476.38	11403.09
476.56	11681.61
476.74	11705.02
476.92	11641.82
477.10	11531.82
477.28	11625.44
477.46	11679.27
477.64	11889.92
477.82	12189.51
478.00	12411.86
478.18	12145.04
478.36	12248.02
478.54	12334.62
478.72	12585.06
478.90	12678.68
479.08	12678.68
479.26	13046.15
479.44	12795.71
479.62	13088.28
479.80	12891.67
479.98	13273.18
480.16	13254.45
480.34	13336.37
480.52	13593.83
480.70	13781.07
480.88	13532.98
481.06	13650.00
481.24	13614.90
481.41	14019.81
481.59	14019.81
481.77	14047.90
481.95	14420.04
482.13	14441.11
482.31	14417.70
482.49	14663.46
482.67	14712.61
482.85	15082.41
483.03	14913.89
483.21	15190.08
483.39	15225.18
483.57	15475.62
483.74	15494.35
483.92	15690.95
484.10	15611.37
484.28	15831.38
484.46	16175.44
484.64	16327.58
484.82	16004.58
485.00	16346.30
485.18	16709.08
485.35	16875.26
485.53	16634.19
485.71	16671.64
485.89	17224.00
486.07	17039.10
486.25	17294.22
486.43	17392.52
486.61	17551.68
486.78	17628.92
486.96	17837.22
487.14	18019.78
487.32	17968.29
487.50	18258.52
487.68	18415.34
487.85	18452.78
488.03	18721.95
488.21	18743.01
488.39	19117.50
488.57	18944.30
488.75	19309.42
488.92	19562.20
489.10	19667.52
489.28	19822.00
489.46	19814.98
489.64	19597.31
489.81	20114.56
489.99	20425.86
490.17	20496.07
490.35	20690.34
490.53	20872.90
490.70	20720.76
490.88	21013.33
491.06	21120.99
491.24	20711.40
491.41	21490.80
491.59	21626.55
491.77	21455.69
491.95	21713.15
492.13	21806.77
492.30	21694.43
492.48	22012.74
492.66	22274.88
492.84	22113.38
493.01	22574.47
493.19	22618.94
493.37	22604.89
493.54	22927.89
493.72	23150.24
493.90	23068.32
494.08	23349.18
494.25	23445.15
494.43	23477.91
494.61	23946.02
494.79	23723.67
494.96	23496.64
495.14	24030.28
495.32	24304.12
495.49	24444.56
495.67	24269.01
495.85	24622.44
496.02	24573.28
496.20	24992.24
496.38	25186.50
496.55	25261.40
496.73	25238.00
496.91	25399.49
497.09	25523.54
497.26	25855.90
497.44	25713.13
497.62	26373.16
497.79	26352.09
497.97	26176.55
498.14	26417.63
498.32	26827.22
498.50	26324.01
498.67	26675.09
498.85	26822.54
499.03	27243.84
499.20	27164.26
499.38	27033.19
499.56	27222.77
499.73	27164.26
499.91	27232.13
500.08	27690.88
500.26	27388.95
500.44	27695.56
500.61	28156.64
500.79	27784.50
500.97	28144.94
501.14	27941.32
501.32	28198.77
501.49	28388.36
501.67	28283.03
501.84	28467.94
502.02	28690.29
502.20	28835.40
502.37	28819.02
502.55	28854.12
502.72	29078.82
502.90	29350.32
503.07	29085.84
503.25	29350.32
503.43	29261.38
503.60	29720.12
503.78	29539.90
503.95	29315.21
504.13	30040.78
504.30	29776.30
504.48	30195.25
504.65	30239.72
504.83	30218.66
505.01	30501.86
505.18	30078.22
505.36	30590.80
505.53	30251.42
505.71	30756.98
505.88	30410.58
506.06	30532.29
506.23	31426.37
506.41	31023.80
506.58	31007.42
506.76	31381.90
506.93	31283.60
507.11	31098.70
507.28	31749.37
507.46	31880.44
507.63	31988.10
507.81	32119.17
507.98	31679.15
508.16	32060.66
508.33	31587.87
508.50	32400.04
508.68	32332.16
508.85	32519.40
509.03	32367.27
509.20	32442.17
509.38	32711.33
509.55	33209.86
509.73	32903.25
509.90	32898.57
510.08	33008.58
510.25	32964.10
510.42	33289.44
510.60	33354.97
510.77	33277.74
510.95	33790.31
511.12	33535.20
511.30	33708.40
511.47	33993.94
511.64	34019.69
511.82	33795.00
511.99	33773.93
512.17	34408.22
512.34	34220.97
512.51	34073.52
512.69	35084.63
512.86	34806.11
513.04	34703.12
513.21	35257.83
513.38	34768.66
513.56	34658.65
513.73	34644.61
513.90	35213.36
514.08	35316.34
514.25	35550.40
514.43	35693.17
514.60	35295.28
514.77	35531.67
514.95	35875.73
515.12	35414.65
515.29	35772.75
515.47	36161.28
515.64	36505.34
515.81	36460.87
515.99	36271.28
516.16	36224.47
516.33	36425.76
516.51	36196.38
516.68	36631.72
516.85	36694.92
517.03	36945.36
517.20	37006.21
517.37	36833.01
517.54	36823.65
517.72	36734.71
517.89	36959.40
518.06	36865.78
518.24	36891.52
518.41	37071.75
518.58	37371.33
518.75	37184.09
518.93	37675.60
519.10	37305.80
519.27	37743.48
519.45	37490.70
519.62	38237.33
519.79	37757.52
519.96	38366.06
520.14	38419.89
520.31	37811.35
520.48	38012.64
520.65	37963.49
520.83	38546.28
521.00	38651.61
521.17	38361.38
521.34	38684.37
521.52	39115.03
521.69	38756.93
521.86	38866.94
522.03	39229.72
522.20	39070.56
522.38	39473.13
522.55	38972.26
522.72	39419.30
522.89	39138.44
523.07	39805.49
523.24	39178.23
523.41	39716.55
523.58	39152.48
523.75	40044.23
523.92	39594.84
524.10	40495.95
524.27	40144.87
524.44	40128.48
524.61	40407.01
524.78	40266.58
524.96	40552.12
525.13	40343.81
525.30	40748.73
525.47	40914.90
525.64	40559.14
525.81	40945.33
525.98	41041.29
526.16	41085.76
526.33	41017.89
526.50	41415.78
526.67	40978.10
526.84	41177.04
527.01	41120.87
527.18	41523.44
527.36	41310.46
527.53	41139.60
527.70	41722.39
527.87	41514.08
528.04	41605.36
528.21	41397.06
528.38	41827.71
528.55	42073.47
528.72	41701.32
528.89	41860.48
529.07	41450.89
529.24	41844.10
529.41	42164.75
529.58	42026.66
529.75	42012.62
529.92	42160.07
530.09	42361.36
530.26	42471.36
530.43	42354.33
530.60	42230.29
530.77	42499.45
530.94	42595.41
531.11	42895.00
531.28	42740.52
531.46	42770.95
531.63	43086.92
531.80	42829.46
531.97	43243.74
532.14	42955.85
532.31	42674.99
532.48	43255.44
532.65	43304.59
532.82	43124.37
532.99	43267.14
533.16	43405.23
533.33	43332.68
533.50	43335.02
533.67	43274.16
533.84	43269.48
534.01	43372.47
534.18	43550.35
534.35	44275.91
534.52	43943.56
534.69	44252.51
534.86	44149.53
535.03	43962.28
535.20	43957.60
535.37	44144.84
535.54	44498.26
535.71	44196.34
535.88	44622.31
536.05	44678.49
536.22	44631.68
536.38	44062.93
536.55	44935.95
536.72	44512.31
536.89	44245.49
537.06	44608.27
537.23	44832.96
537.40	44458.48
537.57	44734.66
537.74	44809.56
537.91	45352.56
538.08	45104.46
538.25	44849.35
538.42	44809.56
538.59	45354.90
538.75	44952.33
538.92	45006.16
539.09	45244.90
539.26	45478.95
539.43	45092.76
539.60	45415.76
539.77	45240.21
539.94	45467.25
540.11	45755.13
540.28	45895.56
540.44	45612.36
540.61	45888.54
540.78	45387.67
540.95	45804.28
541.12	45759.81
541.29	45820.67
541.46	45916.63
541.62	45848.75
541.79	45827.69
541.96	45874.50
542.13	46204.52
542.30	46120.26
542.47	46263.03
542.63	45998.55
542.80	46796.67
542.97	46703.05
543.14	46827.10
543.31	46866.89
543.48	46405.80
543.64	47386.49
543.81	47180.52
543.98	46782.63
544.15	47075.19
544.32	46831.78
544.48	47323.29
544.65	46754.54
544.82	47054.13
544.99	47154.77
545.16	47271.80
545.32	47285.84
545.49	47592.45
545.66	47051.79
545.83	47555.00
546.00	47342.02
546.16	47019.02
546.33	47400.53
546.50	47433.30
546.67	47473.09
546.83	46997.96
547.00	47519.90
547.17	47704.80
547.34	47363.08
547.50	47606.50
547.67	47931.83
547.84	47810.12
548.00	47966.94
548.17	48149.50
548.34	48339.08
548.51	48175.25
548.67	48224.40
548.84	48339.08
549.01	48060.56
549.18	48083.97
549.34	48404.62
549.51	47936.51
549.68	48629.31
549.84	48397.60
550.01	48507.60
550.18	48189.29
550.34	48336.74
550.51	48074.60
550.68	49031.88
550.84	48055.88
551.01	48577.82
551.18	48474.84
551.34	48802.51
551.51	48664.42
551.68	48802.51
551.84	48713.57
552.01	48266.53
552.18	48535.69
552.34	48666.76
552.51	48786.13
552.68	48486.54
552.84	48732.29
553.01	49064.65
553.18	49137.21
553.34	49212.10
553.51	48622.29
553.67	48882.09
553.84	48940.60
554.01	49099.76
554.17	49247.21
554.34	49380.62
554.51	49240.19
554.67	49645.10
554.84	49904.90
555.00	49361.90
555.17	49261.26
555.33	49116.14
555.50	49247.21
555.67	49368.92
555.83	48846.98
556.00	49579.57
556.16	49783.19
556.33	49832.35
556.50	49904.90
556.66	49743.41
556.83	49680.21
556.99	49865.11
557.16	49649.78
557.32	49593.61
557.49	49607.65
557.65	49879.16
557.82	50103.85
557.98	50024.27
558.15	49977.46
558.32	49984.48
558.48	50000.86
558.65	50005.55
558.81	49724.68
558.98	49617.02
559.14	50080.44
559.31	49949.37
559.47	50021.93
559.64	50422.16
559.80	50384.71
559.97	50403.44
560.13	49897.88
560.30	50047.68
560.46	49808.94
560.63	50164.70
560.79	50068.74
560.96	50131.93
561.12	50508.76
561.29	50312.16
561.45	50574.30
561.61	50532.17
561.78	50239.60
561.94	50246.62
562.11	50117.89
562.27	49989.16
562.44	49937.67
562.60	50403.44
562.77	50504.08
562.93	50307.47
563.10	50803.67
563.26	50548.55
563.42	50590.68
563.59	50525.14
563.75	50443.23
563.92	50794.31
564.08	50375.35
564.24	50756.86
564.41	50674.94
564.57	50148.32
564.74	50855.16
564.90	50593.02
565.07	50602.38
565.23	50501.74
565.39	50567.27
565.56	50740.47
565.72	50644.51
565.88	50763.88
566.05	50749.84
566.21	50834.10
566.38	50564.93
566.54	51084.53
566.70	50873.88
566.87	50796.65
567.03	50284.07
567.19	50670.26
567.36	50782.60
567.52	50550.89
567.68	51021.34
567.85	51065.81
568.01	51194.54
568.17	50951.12
568.34	50913.67
568.50	50674.94
568.66	50782.60
568.83	50684.30
568.99	50710.05
569.15	51058.79
569.32	50759.20
569.48	50782.60
569.64	51201.56
569.81	50763.88
569.97	50920.70
570.13	50871.54
570.30	50775.58
570.46	50962.82
570.62	50700.68
570.78	50850.48
570.95	50660.90
571.11	51185.18
571.27	51075.17
571.43	51461.36
571.60	51077.51
571.76	51075.17
571.92	51157.09
572.09	50995.59
572.25	51203.90
572.41	50817.71
572.57	51168.79
572.74	51632.22
572.90	51028.36
573.06	51309.22
573.22	51559.66
573.38	51304.54
573.55	51173.47
573.71	51302.20
573.87	51203.90
574.03	51040.06
574.20	51222.62
574.36	51002.61
574.52	51281.14
574.68	51089.21
574.84	51484.76
575.01	51566.68
575.17	51501.15
575.33	51344.33
575.49	50983.89
575.65	51283.48
575.82	51393.48
575.98	51248.37
576.14	51491.79
576.30	51709.46
576.46	51739.88
576.62	51517.53
576.79	51622.86
576.95	51466.04
577.11	50937.08
577.27	51161.77
577.43	51346.67
577.59	51344.33
577.75	51363.06
577.92	51089.21
578.08	51213.26
578.24	51543.28
578.40	51578.39
578.56	51786.69
578.72	51220.28
578.88	51522.21
579.04	51554.98
579.21	51557.32
579.37	51620.52
579.53	51386.46
579.69	51288.16
579.85	51430.93
580.01	51531.57
580.17	51536.26
580.33	51660.30
580.49	51625.20
580.65	51512.85
580.82	51774.99
580.98	51494.13
581.14	51297.52
581.30	51580.73
581.46	51597.11
581.62	51620.52
581.78	51421.57
581.94	51763.29
582.10	51601.79
582.26	51636.90
582.42	51313.90
582.58	51437.95
582.74	51339.65
582.90	51442.63
583.06	51414.55
583.22	51276.46
583.38	51978.62
583.54	52100.32
583.70	51847.55
583.86	52041.81
584.02	51721.16
584.18	51578.39
584.34	51459.02
584.50	51683.71
584.66	51573.70
584.82	51400.50
584.98	51571.36
585.14	51760.95
585.30	51828.82
585.46	51695.41
585.62	51833.50
585.78	52037.13
585.94	51503.49
586.10	51505.83
586.26	51138.36
586.42	51566.68
586.58	51756.27
586.74	51325.61
586.90	51569.02
587.06	51695.41
587.22	52128.41
587.38	51491.79
587.54	51856.91
587.70	51976.28
587.86	51714.14
588.02	51697.75
588.18	51838.18
588.34	51430.93
588.49	51648.60
588.65	51693.07
588.81	51655.62
588.97	52322.68
589.13	52037.13
589.29	52069.90
589.45	51831.16
589.61	52025.43
589.77	51892.02
589.93	51901.38
590.08	51660.30
590.24	52140.11
590.40	52123.73
