SpectraSuite Data File
++++++++++++++++++++++++++++++++++++
Date: Tue Oct 01 18:27:25 GMT-05:00 2013
User: stostad
Dark Spectrum Present: No
Reference Spectrum Present: No
Number of Sampled Component Spectra: 1
Spectrometers: USB2+H05261
Integration Time (usec): 100000 (USB2+H05261)
Spectra Averaged: 1 (USB2+H05261)
Boxcar Smoothing: 0 (USB2+H05261)
Correct for Electrical Dark: No (USB2+H05261)
Strobe/Lamp Enabled: No (USB2+H05261)
Correct for Detector Non-linearity: No (USB2+H05261)
Correct for Stray Light: No (USB2+H05261)
Number of Pixels in Processed Spectrum: 2048
>>>>>Begin Processed Spectral Data<<<<<
365.73	77.24
365.92	77.24
366.12	77.24
366.32	0.00
366.52	0.00
366.72	65.54
366.91	0.00
367.11	0.00
367.31	0.00
367.51	0.00
367.70	32.77
367.90	0.00
368.10	0.00
368.30	0.00
368.49	0.00
368.69	18.72
368.89	0.00
369.09	0.00
369.28	23.41
369.48	0.00
369.68	42.13
369.87	14.04
370.07	0.00
370.27	46.81
370.47	93.62
370.66	292.57
370.86	421.30
371.06	297.25
371.25	423.64
371.45	381.51
371.65	379.17
371.84	341.72
372.04	383.85
372.24	386.19
372.44	313.63
372.63	397.89
372.83	379.17
373.03	341.72
373.22	425.98
373.42	348.74
373.62	379.17
373.81	461.09
374.01	442.36
374.21	402.57
374.40	332.36
374.60	458.74
374.79	458.74
374.99	411.93
375.19	484.49
375.38	409.59
375.58	449.38
375.78	528.96
375.97	437.68
376.17	512.58
376.37	437.68
376.56	514.92
376.76	526.62
376.95	531.30
377.15	472.79
377.35	416.62
377.54	603.86
377.74	468.11
377.93	489.17
378.13	540.66
378.33	533.64
378.52	458.74
378.72	561.73
378.91	519.60
379.11	545.34
379.31	479.81
379.50	528.96
379.70	514.92
379.89	582.79
380.09	482.15
380.28	472.79
380.48	557.05
380.68	533.64
380.87	517.26
381.07	535.98
381.26	550.03
381.46	587.47
381.65	568.75
381.85	566.41
382.04	531.30
382.24	634.29
382.43	500.87
382.63	557.05
382.83	552.37
383.02	538.32
383.22	608.54
383.41	594.50
383.61	545.34
383.80	610.88
384.00	641.31
384.19	568.75
384.39	580.45
384.58	648.33
384.78	669.39
384.97	643.65
385.17	610.88
385.36	660.03
385.56	636.63
385.75	543.00
385.95	573.43
386.14	674.07
386.34	660.03
386.53	585.13
386.72	732.59
386.92	650.67
387.11	713.86
387.31	716.20
387.50	655.35
387.70	631.94
387.89	725.57
388.09	683.44
388.28	660.03
388.48	653.01
388.67	660.03
388.86	674.07
389.06	702.16
389.25	739.61
389.45	760.67
389.64	753.65
389.84	709.18
390.03	784.08
390.22	730.25
390.42	770.04
390.61	711.52
390.81	662.37
391.00	821.53
391.19	737.27
391.39	807.48
391.58	734.93
391.78	833.23
391.97	816.85
392.16	875.36
392.36	828.55
392.55	800.46
392.75	840.25
392.94	812.17
393.13	744.29
393.33	854.30
393.52	884.72
393.71	870.68
393.91	945.58
394.10	898.77
394.29	877.70
394.49	898.77
394.68	964.30
394.88	844.93
395.07	954.94
395.26	1015.79
395.46	884.72
395.65	1048.56
395.84	1022.81
396.04	968.98
396.23	1027.50
396.42	1093.03
396.62	992.39
396.81	1083.67
397.00	992.39
397.19	1132.82
397.39	1043.88
397.58	1078.99
397.77	1015.79
397.97	1109.41
398.16	1064.94
398.35	1055.58
398.55	1165.59
398.74	1095.37
398.93	1121.12
399.12	1196.01
399.32	992.39
399.51	1107.07
399.70	1158.57
399.90	1165.59
400.09	1191.33
400.28	1324.74
400.47	1238.14
400.67	1350.49
400.86	1123.46
401.05	1287.29
401.24	1322.40
401.44	1254.53
401.63	1268.57
401.82	1156.22
402.01	1270.91
402.21	1371.55
402.40	1310.70
402.59	1418.36
402.78	1359.85
402.97	1439.43
403.17	1483.90
403.36	1413.68
403.55	1509.65
403.74	1486.24
403.93	1511.99
404.13	1507.30
404.32	1483.90
404.51	1561.14
404.70	1537.73
404.89	1502.62
405.09	1624.33
405.28	1537.73
405.47	1626.67
405.66	1645.40
405.85	1493.26
406.05	1556.46
406.24	1591.56
406.43	1650.08
406.62	1720.29
406.81	1832.64
407.00	1774.13
407.20	1629.01
407.39	1687.53
407.58	1732.00
407.77	1741.36
407.96	1774.13
408.15	1769.44
408.34	1781.15
408.54	1849.02
408.73	1860.73
408.92	1881.79
409.11	1881.79
409.30	1980.09
409.49	2012.86
409.68	1930.94
409.87	1996.48
410.07	2005.84
410.26	2001.16
410.45	2050.31
410.64	2050.31
410.83	2076.06
411.02	2033.93
411.21	2197.76
411.40	2174.36
411.59	2090.10
411.78	2115.84
411.98	2129.89
412.17	2293.72
412.36	2277.34
412.55	2244.57
412.74	2319.47
412.93	2385.01
413.12	2181.38
413.31	2506.71
413.50	2324.15
413.69	2361.60
413.88	2480.97
414.07	2443.52
414.26	2546.50
414.45	2511.39
414.64	2534.80
414.83	2635.44
415.02	2555.86
415.22	2621.40
415.41	2759.49
415.60	2703.32
415.79	2738.43
415.98	2633.10
416.17	2834.39
416.36	2647.15
416.55	2874.18
416.74	2913.97
416.93	2906.95
417.12	2895.24
417.31	2928.01
417.50	2855.45
417.69	2946.73
417.88	2981.84
418.07	3033.33
418.26	3052.06
418.45	3000.57
418.64	3119.93
418.83	3016.95
419.02	3246.32
419.21	3150.36
419.39	3218.24
419.58	3087.17
419.77	3246.32
419.96	3220.58
420.15	3328.24
420.34	3148.02
420.53	3265.05
420.72	3372.71
420.91	3440.59
421.10	3403.14
421.29	3496.76
421.48	3382.07
421.67	3403.14
421.86	3227.60
422.05	3368.03
422.24	3478.04
422.43	3438.25
422.61	3396.12
422.80	3377.39
422.99	3414.84
423.18	3555.27
423.37	3508.46
423.56	3424.20
423.75	3475.70
423.94	3555.27
424.13	3445.27
424.32	3461.65
424.50	3522.51
424.69	3485.06
424.88	3686.34
425.07	3459.31
425.26	3496.76
425.45	3602.08
425.64	3482.72
425.83	3597.40
426.01	3794.01
426.20	3646.55
426.39	3709.75
426.58	3651.24
426.77	3688.68
426.96	3679.32
427.15	3604.42
427.33	3695.71
427.52	3775.28
427.71	3735.50
427.90	3756.56
428.09	3740.18
428.28	3957.85
428.46	3735.50
428.65	3915.72
428.84	3882.95
429.03	3798.69
429.22	3838.48
429.40	3978.91
429.59	4039.76
429.78	3801.03
429.97	3831.46
430.16	3758.90
430.34	3864.22
430.53	4100.62
430.72	4109.98
430.91	3960.19
431.10	3948.48
431.28	4102.96
431.47	4262.12
431.66	4252.75
431.85	4081.89
432.03	4262.12
432.22	4339.35
432.41	4161.47
432.60	4435.32
432.79	4245.73
432.97	4212.96
433.16	4276.16
433.35	4318.29
433.54	4339.35
433.72	4353.40
433.91	4414.25
434.10	4484.47
434.28	4428.29
434.47	4447.02
434.66	4425.95
434.85	4484.47
435.03	4423.61
435.22	4514.89
435.41	4645.96
435.59	4772.35
435.78	4655.33
435.97	4578.09
436.16	4891.72
436.34	4737.24
436.53	4652.98
436.72	4809.80
436.90	4528.94
437.09	4716.18
437.28	4571.07
437.46	4662.35
437.65	4655.33
437.84	4788.74
438.02	4753.63
438.21	4894.06
438.40	4851.93
438.58	5015.77
438.77	4938.53
438.96	5104.71
439.14	5062.58
439.33	5088.32
439.52	5205.35
439.70	5261.52
439.89	5376.21
440.08	5301.31
440.26	5359.83
440.45	5315.36
440.63	5397.28
440.82	5565.79
441.01	5488.56
441.19	5596.22
441.38	5526.00
441.57	5628.99
441.75	5603.24
441.94	5657.07
442.12	5675.80
442.31	5802.19
442.50	5851.34
442.68	5661.76
442.87	5715.59
443.05	5909.85
443.24	5982.41
443.43	5856.02
443.61	6080.71
443.80	6012.84
443.98	5792.83
444.17	5710.91
444.35	5984.75
444.54	6108.80
444.73	5989.43
444.91	6120.50
445.10	6029.22
445.28	5874.74
445.47	6005.81
445.65	6040.92
445.84	6083.05
446.02	6083.05
446.21	6036.24
446.39	6167.31
446.58	6127.52
446.77	6022.20
446.95	5940.28
447.14	6085.39
447.32	6193.06
447.51	6171.99
447.69	6253.91
447.88	6221.14
448.06	6054.97
448.25	6174.33
448.43	6207.10
448.62	6190.72
448.80	6244.55
448.99	6076.03
449.17	6370.94
449.36	6153.27
449.54	6523.07
449.73	6513.71
449.91	6338.17
450.10	6399.02
450.28	6523.07
450.46	6499.67
450.65	6691.59
450.83	6534.78
451.02	6469.24
451.20	6478.60
451.39	6658.82
451.57	6548.82
451.76	6637.76
451.94	6693.93
452.13	6700.95
452.31	6867.13
452.49	6600.31
452.68	6782.87
452.86	6771.17
453.05	6864.79
453.23	6747.76
453.42	6799.26
453.60	6834.36
453.78	6960.75
453.97	6857.77
454.15	6815.64
454.34	6927.99
454.52	7194.81
454.70	6946.71
454.89	7140.97
455.07	7061.40
455.26	7229.91
455.44	7140.97
455.62	7255.66
455.81	7028.63
455.99	7084.80
456.17	7321.20
456.36	7204.17
456.54	7272.04
456.73	7351.62
456.91	7730.79
457.09	7559.93
457.28	7737.81
457.46	7538.87
457.64	7503.76
457.83	7543.55
458.01	7534.18
458.19	7763.56
458.38	7569.29
458.56	7798.66
458.74	7578.65
458.93	7545.89
459.11	7885.26
459.29	7758.88
459.48	7775.26
459.66	8081.87
459.84	7885.26
460.03	8060.80
460.21	8100.59
460.39	8189.53
460.57	8030.38
460.76	7988.25
460.94	8063.15
461.12	7866.54
461.31	8196.56
461.49	8093.57
461.67	8018.68
461.85	8175.49
462.04	8285.50
462.22	8681.05
462.40	8402.52
462.59	8264.43
462.77	8454.02
462.95	8318.26
463.13	8421.25
463.32	8409.54
463.50	8425.93
463.68	8585.08
463.86	8671.68
464.05	8568.70
464.23	8432.95
464.41	8454.02
464.59	8304.22
464.78	8840.20
464.96	8657.64
465.14	8468.06
465.32	8755.94
465.50	8861.27
465.69	8692.75
465.87	8723.18
466.05	8861.27
466.23	8840.20
466.41	8812.12
466.60	8975.95
466.78	8887.01
466.96	8826.16
467.14	8980.64
467.32	8924.46
467.51	8849.57
467.69	8791.05
467.87	8875.31
468.05	9004.04
468.23	9102.34
468.41	8889.35
468.60	9146.81
468.78	9123.41
468.96	9128.09
469.14	9338.74
469.32	9341.08
469.50	9123.41
469.69	9385.55
469.87	9465.13
470.05	9493.21
470.23	9327.03
470.41	9621.94
470.59	9549.39
470.77	9486.19
470.95	9797.48
471.14	9713.22
471.32	9525.98
471.50	9706.20
471.68	9830.25
471.86	9898.13
472.04	9933.23
472.22	10232.82
472.40	9778.76
472.58	9944.94
472.77	10061.96
472.95	10394.32
473.13	10417.72
473.31	9970.68
473.49	10171.97
473.67	10090.05
473.85	10214.10
474.03	10354.53
474.21	10539.43
474.39	10569.86
474.57	10576.88
474.75	10712.63
474.93	11000.52
475.12	10604.97
475.30	10789.87
475.48	10927.96
475.66	10827.32
475.84	10757.10
476.02	10977.11
476.20	11122.23
476.38	11365.64
476.56	11625.44
476.74	11569.27
476.92	11510.75
477.10	11611.40
477.28	11672.25
477.46	11716.72
477.64	12030.35
477.82	11985.88
478.00	12365.05
478.18	12070.14
478.36	12145.04
478.54	12294.83
478.72	12416.54
478.90	12669.32
479.08	12704.43
479.26	12898.69
479.44	12947.84
479.62	12776.98
479.80	12844.86
479.98	12994.65
480.16	13188.92
480.34	13504.89
480.52	13469.78
480.70	13455.74
480.88	13156.15
481.06	13453.40
481.24	13692.13
481.41	13846.61
481.59	13848.95
481.77	13907.46
481.95	14122.79
482.13	14305.35
482.31	14214.07
482.49	14497.28
482.67	14501.96
482.85	14785.16
483.03	15227.53
483.21	14988.79
483.39	15012.20
483.57	14904.53
483.74	15169.01
483.92	15363.28
484.10	15267.31
484.28	16027.99
484.46	16074.80
484.64	16278.43
484.82	16020.97
485.00	16311.19
485.18	16582.70
485.35	16390.77
485.53	16599.08
485.71	16650.57
485.89	17142.08
486.07	16854.20
486.25	17083.57
486.43	16884.62
486.61	17397.20
486.78	17425.29
486.96	17598.49
487.14	17738.92
487.32	17408.90
487.50	18061.91
487.68	18302.99
487.85	18312.35
488.03	18457.46
488.21	18623.64
488.39	18499.59
488.57	18867.06
488.75	18714.92
488.92	19536.45
489.10	19173.67
489.28	19679.22
489.46	19583.26
489.64	19477.94
489.81	20137.97
489.99	19983.49
490.17	20226.91
490.35	20650.55
490.53	20685.65
490.70	20908.01
490.88	20531.18
491.06	20851.83
491.24	20865.88
491.41	20835.45
491.59	21287.17
491.77	21191.21
491.95	21790.39
492.13	21596.12
492.30	21556.33
492.48	21881.67
492.66	21961.25
492.84	22321.69
493.01	22106.36
493.19	22207.00
493.37	22382.54
493.54	22616.60
493.72	22979.38
493.90	22661.07
494.08	23098.75
494.25	23585.58
494.43	23311.74
494.61	23388.97
494.79	23805.59
494.96	23735.37
495.14	23646.43
495.32	24184.76
495.49	24182.42
495.67	24517.11
495.85	23969.43
496.02	24652.86
496.20	24505.41
496.38	25118.63
496.55	24711.38
496.73	25003.94
496.91	25097.56
497.09	25483.75
497.26	25626.53
497.44	25296.51
497.62	25488.43
497.79	26192.94
497.97	26096.97
498.14	26382.52
498.32	25996.33
498.50	26314.64
498.67	26141.44
498.85	26293.58
499.03	26464.44
499.20	26644.66
499.38	26597.85
499.56	26822.54
499.73	27241.50
499.91	27182.98
500.08	27140.85
500.26	27536.40
500.44	27381.93
500.61	27594.92
500.79	27131.49
500.97	27725.99
501.14	28013.87
501.32	28091.11
501.49	28126.22
501.67	28034.94
501.84	28669.22
502.02	28383.68
502.20	28683.27
502.37	28833.06
502.55	28493.68
502.72	28388.36
502.90	28774.55
503.07	28814.34
503.25	29017.96
503.43	28863.49
503.60	29422.87
503.78	29083.50
503.95	29319.89
504.13	29436.92
504.30	29425.22
504.48	29633.52
504.65	30195.25
504.83	29907.37
505.01	30251.42
505.18	30059.50
505.36	30728.89
505.53	29958.86
505.71	30558.03
505.88	30415.26
506.06	30422.28
506.23	31063.59
506.41	30733.57
506.58	30794.43
506.76	30632.93
506.93	30862.30
507.11	30855.28
507.28	31309.35
507.46	31363.18
507.63	31543.40
507.81	31665.11
507.98	31234.45
508.16	31564.46
508.33	31587.87
508.50	32292.37
508.68	31889.80
508.85	32039.59
509.03	32070.02
509.20	32091.09
509.38	32184.71
509.55	32299.39
509.73	32683.24
509.90	32840.06
510.08	32570.90
510.25	32929.00
510.42	32989.85
510.60	32980.49
510.77	33237.95
510.95	33352.63
511.12	33268.37
511.30	33631.16
511.47	33507.11
511.64	33530.51
511.82	33823.08
511.99	33343.27
512.17	34024.37
512.34	33759.89
512.51	34295.87
512.69	34389.49
512.86	34349.70
513.04	34801.43
513.21	34927.81
513.38	34225.65
513.56	34967.60
513.73	33813.72
513.90	34761.64
514.08	34841.21
514.25	35105.70
514.43	35356.13
514.60	34967.60
514.77	34965.26
514.95	35637.00
515.12	34998.03
515.29	35262.51
515.47	35634.66
515.64	35803.17
515.81	35955.31
515.99	35721.26
516.16	36287.67
516.33	35999.78
516.51	36402.35
516.68	36016.16
516.85	36458.52
517.03	36601.30
517.20	36692.58
517.37	36552.15
517.54	36378.95
517.72	36685.56
517.89	36282.98
518.06	36804.92
518.24	36842.37
518.41	36739.39
518.58	36884.50
518.75	36659.81
518.93	37015.57
519.10	36985.15
519.27	37411.12
519.45	37078.77
519.62	37586.66
519.79	37684.97
519.96	37530.49
520.14	37886.25
520.31	37368.99
520.48	37759.86
520.65	38106.26
520.83	38246.69
521.00	38017.32
521.17	38639.90
521.34	37996.26
521.52	38653.95
521.69	38267.76
521.86	38644.59
522.03	38557.99
522.20	38759.27
522.38	38869.28
522.55	38773.31
522.72	38962.90
522.89	38897.36
523.07	38916.09
523.24	38628.20
523.41	39412.28
523.58	38756.93
523.75	39559.73
523.92	39274.19
524.10	39707.19
524.27	39702.51
524.44	39751.66
524.61	40107.42
524.78	39978.69
524.96	39915.50
525.13	40053.59
525.30	40547.44
525.47	40418.71
525.64	40795.54
525.81	40299.34
525.98	40128.48
526.16	40282.96
526.33	40069.97
526.50	40790.86
526.67	40297.00
526.84	40477.22
527.01	40638.72
527.18	40844.69
527.36	41104.49
527.53	41013.21
527.70	41193.43
527.87	41228.54
528.04	40863.41
528.21	41530.47
528.38	40910.22
528.55	41666.22
528.72	41542.17
528.89	41488.34
529.07	41191.09
529.24	41373.65
529.41	41647.49
529.58	41514.08
529.75	41397.06
529.92	42443.27
530.09	41968.15
530.26	41776.22
530.43	41918.99
530.60	41743.45
530.77	41790.27
530.94	42366.04
531.11	41862.82
531.28	42403.49
531.46	42422.21
531.63	42822.44
531.80	42728.82
531.97	42735.84
532.14	42347.31
532.31	42429.23
532.48	42909.04
532.65	42976.92
532.82	42288.80
532.99	43232.04
533.16	42871.59
533.33	42710.10
533.50	43367.79
533.67	42944.15
533.84	42916.06
534.01	42974.58
534.18	42696.05
534.35	43400.55
534.52	43622.90
534.69	43728.23
534.86	43517.58
535.03	43538.65
535.20	43381.83
535.37	43826.53
535.54	43658.01
535.71	43950.58
535.88	43901.43
536.05	43674.40
536.22	44170.59
536.38	44144.84
536.55	43835.89
536.72	43908.45
536.89	43660.35
537.06	44428.05
537.23	44552.10
537.40	44074.63
537.57	44205.70
537.74	44514.65
537.91	44814.24
538.08	44477.20
538.25	44364.85
538.42	44341.45
538.59	45020.20
538.75	44311.02
538.92	44509.97
539.09	44825.94
539.26	44851.69
539.43	44800.19
539.60	44954.67
539.77	44652.74
539.94	45151.27
540.11	45069.36
540.28	45464.91
540.44	45228.51
540.61	44966.37
540.78	45434.48
540.95	45476.61
541.12	45195.74
541.29	45123.19
541.46	45132.55
541.62	45139.57
541.79	45684.92
541.96	44910.20
542.13	45198.09
542.30	45975.14
542.47	45855.78
542.63	46143.66
542.80	46138.98
542.97	46031.32
543.14	46113.23
543.31	46454.95
543.48	46270.05
543.64	46770.93
543.81	46735.82
543.98	46335.59
544.15	46588.36
544.32	46450.27
544.48	46656.24
544.65	46686.67
544.82	46691.35
544.99	46541.55
545.16	46848.16
545.32	46784.97
545.49	47157.11
545.66	47079.88
545.83	46703.05
546.00	47309.25
546.16	47138.39
546.33	46513.47
546.50	46855.18
546.67	47257.76
546.83	46789.65
547.00	47049.45
547.17	47365.42
547.34	47105.62
547.50	47426.28
547.67	47503.51
547.84	47360.74
548.00	47447.34
548.17	47894.38
548.34	47782.04
548.51	47810.12
548.67	47845.23
548.84	47917.79
549.01	47744.59
549.18	47660.33
549.34	47810.12
549.51	48116.73
549.68	48027.79
549.84	47976.30
550.01	47899.06
550.18	47793.74
550.34	48009.07
550.51	47887.36
550.68	48147.16
550.84	47765.65
551.01	47992.68
551.18	47913.11
551.34	48280.57
551.51	48023.11
551.68	48046.52
551.84	48423.34
552.01	48292.27
552.18	48381.21
552.34	48247.80
552.51	48294.61
552.68	48413.98
552.84	48491.22
553.01	48437.39
553.18	48397.60
553.34	48516.96
553.51	48594.20
553.67	48413.98
553.84	48512.28
554.01	48589.52
554.17	48608.25
554.34	48905.49
554.51	49310.41
554.67	49312.75
554.84	48945.28
555.00	48861.02
555.17	48692.50
555.33	49205.08
555.50	48399.94
555.67	48776.76
555.83	48905.49
556.00	48727.61
556.16	49602.97
556.33	49020.18
556.50	49340.83
556.66	49455.52
556.83	49392.33
556.99	49495.31
557.16	48931.24
557.32	49181.68
557.49	49357.22
557.65	49251.89
557.82	49605.31
557.98	49560.84
558.15	49514.03
558.32	49727.02
558.48	49490.63
558.65	49382.96
558.81	49059.97
558.98	49581.91
559.14	49263.60
559.31	49614.68
559.47	49825.32
559.64	49820.64
559.80	49907.24
559.97	49834.69
560.13	49577.23
560.30	49502.33
560.46	49357.22
560.63	49727.02
560.79	49848.73
560.96	50117.89
561.12	49844.05
561.29	50021.93
561.45	49640.42
561.61	49888.52
561.78	49689.57
561.94	49776.17
562.11	50232.58
562.27	49607.65
562.44	49820.64
562.60	50082.78
562.77	50328.54
562.93	49921.29
563.10	50302.79
563.26	50054.70
563.42	50389.39
563.59	50181.09
563.75	50167.04
563.92	50099.17
564.08	50064.06
564.24	49982.14
564.41	50522.80
564.57	50438.54
564.74	50298.11
564.90	50260.66
565.07	50237.26
565.23	50417.48
565.39	50061.72
565.56	50176.40
565.72	50370.67
565.88	50342.58
566.05	50124.91
566.21	50590.68
566.38	50195.13
566.54	50475.99
566.70	50588.34
566.87	50754.52
567.03	50197.47
567.19	50754.52
567.36	50239.60
567.52	50461.95
567.68	50693.66
567.85	50377.69
568.01	50887.93
568.17	50349.60
568.34	50319.18
568.50	50225.56
568.66	50436.20
568.83	50546.21
568.99	50316.84
569.15	50497.06
569.32	50836.44
569.48	50284.07
569.64	50763.88
569.81	50433.86
569.97	50525.14
570.13	50784.94
570.30	50600.04
570.46	50483.01
570.62	50422.16
570.78	50522.80
570.95	50696.00
571.11	50548.55
571.27	50578.98
571.43	50822.39
571.60	50658.56
571.76	50649.19
571.92	50642.17
572.09	50497.06
572.25	50571.96
572.41	50586.00
572.57	50749.84
572.74	51318.59
572.90	51026.02
573.06	50630.47
573.22	50845.80
573.38	50890.27
573.55	50831.75
573.71	50916.01
573.87	50410.46
574.03	50728.77
574.20	50843.46
574.36	50450.25
574.52	50754.52
574.68	51049.42
574.84	50817.71
575.01	51276.46
575.17	51264.75
575.33	50546.21
575.49	50745.15
575.65	51026.02
575.82	51051.76
575.98	51077.51
576.14	50932.40
576.30	51199.22
576.46	51145.39
576.62	51047.08
576.79	50986.23
576.95	50855.16
577.11	50911.33
577.27	50845.80
577.43	50784.94
577.59	50581.32
577.75	50564.93
577.92	50422.16
578.08	50871.54
578.24	51054.11
578.40	51381.78
578.56	50930.06
578.72	51143.05
578.88	51117.30
579.04	50995.59
579.21	50698.34
579.37	51016.66
579.53	50951.12
579.69	50752.18
579.85	51091.55
580.01	51501.15
580.17	51189.86
580.33	51007.29
580.49	50569.61
580.65	50986.23
580.82	51100.92
580.98	50602.38
581.14	50855.16
581.30	51379.44
581.46	51346.67
581.62	51040.06
581.78	51023.68
581.94	51337.31
582.10	51217.94
582.26	51253.05
582.42	51117.30
582.58	50927.72
582.74	50983.89
582.90	51255.39
583.06	51121.98
583.22	51063.47
583.38	51349.01
583.54	51215.60
583.70	51253.05
583.86	51344.33
584.02	51290.50
584.18	51320.93
584.34	51267.09
584.50	51407.53
584.66	51114.96
584.82	50806.01
584.98	51213.26
585.14	51276.46
585.30	51234.33
585.46	51358.38
585.62	51246.03
585.78	51356.03
585.94	51056.45
586.10	50918.35
586.26	50827.07
586.42	50674.94
586.58	51498.81
586.74	51196.88
586.90	51119.64
587.06	51381.78
587.22	51435.61
587.38	51393.48
587.54	51442.63
587.70	51407.53
587.86	51452.00
588.02	51217.94
588.18	51414.55
588.34	51519.87
588.49	51407.53
588.65	51332.63
588.81	51255.39
588.97	51657.96
589.13	51845.21
589.29	51363.06
589.45	51639.24
589.61	51578.39
589.77	51477.74
589.93	51351.35
590.08	51405.19
590.24	51639.24
590.40	51854.57
590.56	51646.26
