SpectraSuite Data File
++++++++++++++++++++++++++++++++++++
Date: Fri Oct 04 11:39:38 GMT-05:00 2013
User: price-jones
Dark Spectrum Present: No
Reference Spectrum Present: No
Number of Sampled Component Spectra: 1
Spectrometers: USB2+H05261
Integration Time (usec): 100000 (USB2+H05261)
Spectra Averaged: 1 (USB2+H05261)
Boxcar Smoothing: 0 (USB2+H05261)
Correct for Electrical Dark: No (USB2+H05261)
Strobe/Lamp Enabled: No (USB2+H05261)
Correct for Detector Non-linearity: No (USB2+H05261)
Correct for Stray Light: No (USB2+H05261)
Number of Pixels in Processed Spectrum: 2048
>>>>>Begin Processed Spectral Data<<<<<
365.73	21.06
365.92	21.06
366.12	21.06
366.32	0.00
366.52	0.00
366.72	0.00
366.91	18.72
367.11	0.00
367.31	0.00
367.51	0.00
367.70	0.00
367.90	0.00
368.10	0.00
368.30	0.00
368.49	0.00
368.69	0.00
368.89	2.34
369.09	0.00
369.28	0.00
369.48	0.00
369.68	65.54
369.87	91.28
370.07	0.00
370.27	51.49
370.47	126.39
370.66	299.59
370.86	315.97
371.06	325.33
371.25	402.57
371.45	367.46
371.65	395.55
371.84	243.42
372.04	318.31
372.24	440.02
372.44	334.70
372.63	386.19
372.83	397.89
373.03	416.62
373.22	430.66
373.42	306.61
373.62	283.20
373.81	454.06
374.01	447.04
374.21	468.11
374.40	428.32
374.60	489.17
374.79	482.15
374.99	477.47
375.19	486.83
375.38	433.00
375.58	496.19
375.78	454.06
375.97	435.34
376.17	514.92
376.37	456.40
376.56	507.90
376.76	531.30
376.95	447.04
377.15	430.66
377.35	477.47
377.54	510.24
377.74	519.60
377.93	465.77
378.13	477.47
378.33	543.00
378.52	491.51
378.72	538.32
378.91	486.83
379.11	517.26
379.31	622.58
379.50	503.22
379.70	589.82
379.89	566.41
380.09	543.00
380.28	550.03
380.48	575.77
380.68	573.43
380.87	496.19
381.07	477.47
381.26	587.47
381.46	552.37
381.65	585.13
381.85	585.13
382.04	589.82
382.24	582.79
382.43	610.88
382.63	631.94
382.83	655.35
383.02	620.24
383.22	603.86
383.41	685.78
383.61	657.69
383.80	629.60
384.00	662.37
384.19	660.03
384.39	617.90
384.58	660.03
384.78	606.20
384.97	730.25
385.17	660.03
385.36	571.09
385.56	627.26
385.75	620.24
385.95	681.10
386.14	601.52
386.34	573.43
386.53	664.71
386.72	664.71
386.92	634.29
387.11	713.86
387.31	648.33
387.50	730.25
387.70	643.65
387.89	683.44
388.09	716.20
388.28	706.84
388.48	730.25
388.67	669.39
388.86	781.74
389.06	718.54
389.25	753.65
389.45	828.55
389.64	774.72
389.84	887.06
390.03	823.87
390.22	880.04
390.42	777.06
390.61	788.76
390.81	727.91
391.00	753.65
391.19	936.21
391.39	847.27
391.58	760.67
391.78	842.59
391.97	840.25
392.16	800.46
392.36	842.59
392.55	863.66
392.75	863.66
392.94	854.30
393.13	917.49
393.33	861.32
393.52	809.83
393.71	877.70
393.91	950.26
394.10	945.58
394.29	968.98
394.49	861.32
394.68	992.39
394.88	929.19
395.07	994.73
395.26	961.96
395.46	968.98
395.65	1093.03
395.84	1050.90
396.04	1090.69
396.23	1062.60
396.42	1048.56
396.62	985.37
396.81	1081.33
397.00	1055.58
397.19	1090.69
397.39	1107.07
397.58	1081.33
397.77	1057.92
397.97	1086.01
398.16	1196.01
398.35	1179.63
398.55	1146.86
398.74	1158.57
398.93	1306.02
399.12	1191.33
399.32	1144.52
399.51	1111.75
399.70	1193.67
399.90	1193.67
400.09	1273.25
400.28	1280.27
400.47	1313.04
400.67	1306.02
400.86	1310.70
401.05	1289.64
401.24	1315.38
401.44	1310.70
401.63	1322.40
401.82	1404.32
402.01	1338.79
402.21	1322.40
402.40	1469.86
402.59	1352.83
402.78	1359.85
402.97	1336.45
403.17	1460.49
403.36	1502.62
403.55	1469.86
403.74	1383.26
403.93	1572.84
404.13	1533.05
404.32	1413.68
404.51	1542.41
404.70	1589.22
404.89	1568.16
405.09	1664.12
405.28	1591.56
405.47	1544.75
405.66	1582.20
405.85	1722.63
406.05	1661.78
406.24	1647.74
406.43	1729.66
406.62	1699.23
406.81	1771.79
407.00	1687.53
407.20	1739.02
407.39	1736.68
407.58	1849.02
407.77	1818.60
407.96	1949.67
408.15	1778.81
408.34	1898.17
408.54	1867.75
408.73	2029.24
408.92	1867.75
409.11	2047.97
409.30	1947.33
409.49	1872.43
409.68	1966.05
409.87	1928.60
410.07	2071.37
410.26	2038.61
410.45	2019.88
410.64	2136.91
410.83	2118.18
411.02	2111.16
411.21	2176.70
411.40	2214.15
411.59	2139.25
411.78	2160.31
411.98	2169.68
412.17	2321.81
412.36	2174.36
412.55	2410.75
412.74	2401.39
412.93	2464.58
413.12	2373.30
413.31	2497.35
413.50	2450.54
413.69	2555.86
413.88	2518.42
414.07	2513.74
414.26	2518.42
414.45	2590.97
414.64	2539.48
414.83	2675.23
415.02	2738.43
415.22	2754.81
415.41	2855.45
415.60	2818.00
415.79	2771.19
415.98	2829.71
416.17	2904.60
416.36	2930.35
416.55	3035.67
416.74	2841.41
416.93	2818.00
417.12	2986.52
417.31	3159.72
417.50	3016.95
417.69	3183.13
417.88	3201.85
418.07	3138.66
418.26	3122.27
418.45	3213.56
418.64	3410.16
418.83	3260.37
419.02	3314.20
419.21	3222.92
419.39	3361.01
419.58	3246.32
419.77	3258.03
419.96	3459.31
420.15	3342.28
420.34	3316.54
420.53	3531.87
420.72	3475.70
420.91	3506.12
421.10	3485.06
421.29	3646.55
421.48	3508.46
421.67	3726.13
421.86	3606.77
422.05	3552.93
422.24	3536.55
422.43	3564.64
422.61	3681.66
422.80	3695.71
422.99	3768.26
423.18	3742.52
423.37	3644.21
423.56	3611.45
423.75	3723.79
423.94	3679.32
424.13	3412.50
424.32	3452.29
424.50	3712.09
424.69	3726.13
424.88	3836.14
425.07	3660.60
425.26	3768.26
425.45	3707.41
425.64	3747.20
425.83	3721.45
426.01	3896.99
426.20	3740.18
426.39	3765.92
426.58	3728.47
426.77	3873.59
426.96	3808.05
427.15	3894.65
427.33	3967.21
427.52	3845.50
427.71	3983.59
427.90	3920.40
428.09	4093.60
428.28	4002.32
428.46	4126.36
428.65	4058.49
428.84	4131.05
429.03	4163.81
429.22	4128.70
429.40	4175.52
429.59	4154.45
429.78	3899.33
429.97	3845.50
430.16	4018.70
430.34	4102.96
430.53	4297.22
430.72	4243.39
430.91	4175.52
431.10	4067.85
431.28	4376.80
431.47	4280.84
431.66	4297.22
431.85	4334.67
432.03	4491.49
432.22	4624.90
432.41	4344.03
432.60	4568.73
432.79	4421.27
432.97	4533.62
433.16	4418.93
433.35	4554.68
433.54	4559.36
433.72	4552.34
433.91	4662.35
434.10	4615.54
434.28	4732.56
434.47	4542.98
434.66	4709.16
434.85	4692.77
435.03	4784.06
435.22	5078.96
435.41	5256.84
435.59	5308.34
435.78	5039.17
435.97	4966.62
436.16	4940.87
436.34	4990.02
436.53	4854.27
436.72	5039.17
436.90	4905.76
437.09	5060.24
437.28	5013.43
437.46	5156.20
437.65	5224.08
437.84	5001.72
438.02	5135.14
438.21	5160.88
438.40	5020.45
438.58	5118.75
438.77	5195.99
438.96	5097.69
439.14	5385.57
439.33	5413.66
439.52	5343.44
439.70	5371.53
439.89	5570.48
440.08	5582.18
440.26	5481.53
440.45	5598.56
440.63	5671.12
440.82	5659.42
441.01	5722.61
441.19	5769.42
441.38	5797.51
441.57	5717.93
441.75	5954.32
441.94	6087.73
442.12	6073.69
442.31	6106.46
442.50	6040.92
442.68	6019.86
442.87	5975.39
443.05	6087.73
443.24	6087.73
443.43	6228.17
443.61	6085.39
443.80	6408.39
443.98	6235.19
444.17	6017.52
444.35	6291.36
444.54	6305.40
444.73	6265.61
444.91	6232.85
445.10	6305.40
445.28	6211.78
445.47	6171.99
445.65	6216.46
445.84	6492.65
446.02	6469.24
446.21	6249.23
446.39	6487.96
446.58	6303.06
446.77	6300.72
446.95	6249.23
447.14	6272.64
447.32	6382.64
447.51	6434.13
447.69	6455.20
447.88	6310.08
448.06	6487.96
448.25	6551.16
448.43	6712.66
448.62	6408.39
448.80	6368.60
448.99	6623.72
449.17	6661.16
449.36	6630.74
449.54	6565.20
449.73	6644.78
449.91	6686.91
450.10	6623.72
450.28	6604.99
450.46	6850.75
450.65	6794.58
450.83	7014.59
451.02	6841.39
451.20	6906.92
451.39	6899.90
451.57	6825.00
451.76	6951.39
451.94	6892.88
452.13	7077.78
452.31	7096.50
452.49	6998.20
452.68	6960.75
452.86	7255.66
453.05	7208.85
453.23	7180.76
453.42	6913.94
453.60	6942.03
453.78	7234.60
453.97	7073.10
454.15	7166.72
454.34	7148.00
454.52	7178.42
454.70	7332.90
454.89	7288.43
455.07	7213.53
455.26	7279.07
455.44	7606.74
455.62	7218.21
455.81	7375.03
455.99	7475.67
456.17	7435.88
456.36	7435.88
456.54	7576.31
456.73	7763.56
456.91	7789.30
457.09	7754.19
457.28	7772.92
457.46	7599.72
457.64	7691.00
457.83	7824.41
458.01	7817.39
458.19	7850.16
458.38	7927.39
458.56	7784.62
458.74	8028.04
458.93	7964.84
459.11	7918.03
459.29	7868.88
459.48	8056.12
459.66	8053.78
459.84	8109.96
460.03	8374.44
460.21	8128.68
460.39	8093.57
460.57	8147.40
460.76	8161.45
460.94	8390.82
461.12	8175.49
461.31	8449.33
461.49	8320.60
461.67	8259.75
461.85	8634.24
462.04	8531.25
462.22	8533.59
462.40	8395.50
462.59	8561.68
462.77	8477.42
462.95	8444.65
463.13	8592.11
463.32	8676.37
463.50	8683.39
463.68	8744.24
463.86	8690.41
464.05	8341.67
464.23	8769.99
464.41	8926.80
464.59	8620.19
464.78	8835.52
464.96	8872.97
465.14	8765.31
465.32	8821.48
465.50	9020.42
465.69	9114.05
465.87	8854.25
466.05	8879.99
466.23	8922.12
466.41	8957.23
466.60	9200.65
466.78	8994.68
466.96	8809.78
467.14	9013.40
467.32	8966.59
467.51	9191.28
467.69	9092.98
467.87	9228.73
468.05	9310.65
468.23	9109.36
468.41	9312.99
468.60	9504.92
468.78	9488.53
468.96	9064.89
469.14	9437.04
469.32	9544.70
469.50	9078.94
469.69	9479.17
469.87	9687.48
470.05	9720.24
470.23	9664.07
470.41	9570.45
470.59	9853.66
470.77	9556.41
470.95	9907.49
471.14	9954.30
471.32	9699.18
471.50	10190.69
471.68	10017.49
471.86	9966.00
472.04	10038.56
472.22	10331.12
472.40	9825.57
472.58	10111.11
472.77	10193.03
472.95	10424.75
473.13	10534.75
473.31	10349.85
473.49	10279.63
473.67	10305.38
473.85	10541.77
474.03	10497.30
474.21	10487.94
474.39	10609.65
474.57	10857.75
474.75	10834.34
474.93	10827.32
475.12	10759.44
475.30	11154.99
475.48	11030.94
475.66	11229.89
475.84	11108.18
476.02	11236.91
476.20	11276.70
476.38	11604.38
476.56	11644.17
476.74	11552.88
476.92	11618.42
477.10	11602.04
477.28	11875.88
477.46	11887.58
477.64	11967.16
477.82	12119.29
478.00	12301.86
478.18	12393.14
478.36	12400.16
478.54	12482.08
478.72	12568.68
478.90	12678.68
479.08	12744.22
479.26	12709.11
479.44	12915.08
479.62	12861.24
479.80	13004.02
479.98	12959.55
480.16	13301.26
480.34	13181.90
480.52	13242.75
480.70	13610.22
480.88	13563.40
481.06	13488.51
481.24	13771.71
481.41	13699.16
481.59	13942.57
481.77	14218.75
481.95	13996.40
482.13	14253.86
482.31	14314.72
482.49	14511.32
482.67	14745.38
482.85	14918.57
483.03	14979.43
483.21	15051.99
483.39	15314.13
483.57	15070.71
483.74	15358.60
483.92	15597.33
484.10	15641.80
484.28	15796.28
484.46	16219.91
484.64	16280.77
484.82	16009.26
485.00	16147.36
485.18	16369.71
485.35	16673.98
485.53	16622.48
485.71	16594.40
485.89	17106.98
486.07	16987.61
486.25	16952.50
486.43	17191.23
486.61	17432.31
486.78	17673.39
486.96	17563.38
487.14	18026.81
487.32	17970.63
487.50	17834.88
487.68	18075.96
487.85	18555.77
488.03	18630.66
488.21	18693.86
488.39	18724.29
488.57	18836.63
488.75	19005.15
488.92	19290.70
489.10	19246.23
489.28	19648.80
489.46	19372.61
489.64	19576.24
489.81	19878.17
489.99	19726.04
490.17	20046.69
490.35	20322.87
490.53	19873.49
490.70	20472.67
490.88	20554.58
491.06	20917.37
491.24	20788.64
491.41	20779.28
491.59	20758.21
491.77	20863.54
491.95	21624.21
492.13	21397.18
492.30	21483.78
492.48	21813.79
492.66	21617.19
492.84	21799.75
493.01	22204.66
493.19	22115.72
493.37	22347.44
493.54	22710.22
493.72	22522.98
493.90	22731.28
494.08	22705.54
494.25	23213.43
494.43	23550.47
494.61	23489.62
494.79	23653.45
494.96	23056.62
495.14	23777.50
495.32	23601.96
495.49	24175.39
495.67	23859.42
495.85	24280.72
496.02	24283.06
496.20	24613.07
496.38	24673.93
496.55	24470.30
496.73	25191.19
496.91	24931.39
497.09	25025.01
497.26	25338.64
497.44	25214.59
497.62	25212.25
497.79	25504.82
497.97	25392.47
498.14	25785.68
498.32	26141.44
498.50	26164.85
498.67	26246.77
498.85	25965.90
499.03	26314.64
499.20	26567.42
499.38	26684.45
499.56	26492.52
499.73	26813.18
499.91	26801.47
500.08	26916.16
500.26	26845.94
500.44	27040.21
500.61	26988.72
500.79	27241.50
500.97	27335.12
501.14	27566.83
501.32	27531.72
501.49	27653.43
501.67	27349.16
501.84	27742.37
502.02	28133.24
502.20	28154.30
502.37	28109.83
502.55	28100.47
502.72	28245.58
502.90	28453.89
503.07	28245.58
503.25	28723.05
503.43	28528.79
503.60	28343.89
503.78	29195.84
503.95	29144.35
504.13	28711.35
504.30	28725.39
504.48	28533.47
504.65	29284.78
504.83	28760.50
505.01	29818.42
505.18	29359.68
505.36	29729.48
505.53	29661.61
505.71	29549.26
505.88	30043.12
506.06	29596.07
506.23	29933.11
506.41	29926.09
506.58	29912.05
506.76	30230.36
506.93	30342.70
507.11	29989.28
507.28	30675.06
507.46	30096.95
507.63	30492.50
507.81	31108.06
507.98	30595.48
508.16	30738.26
508.33	31105.72
508.50	31063.59
508.68	30721.87
508.85	31344.45
509.03	31644.04
509.20	31407.65
509.38	32128.53
509.55	31887.46
509.73	31740.00
509.90	31875.76
510.08	31431.05
510.25	32018.53
510.42	32531.11
510.60	32503.02
510.77	32510.04
510.95	32821.33
511.12	32393.01
511.30	32470.25
511.47	32725.37
511.64	32446.85
511.82	33247.31
511.99	33067.09
512.17	33158.37
512.34	33123.26
512.51	33174.75
512.69	33558.60
512.86	33600.73
513.04	33577.33
513.21	33336.25
513.38	34040.75
513.56	33635.84
513.73	33525.83
513.90	33722.44
514.08	33670.95
514.25	33876.91
514.43	34085.22
514.60	34153.10
514.77	34068.84
514.95	34237.36
515.12	34352.04
515.29	34476.09
515.47	34684.40
515.64	34710.14
515.81	34925.47
515.99	35093.99
516.16	34822.49
516.33	34953.56
516.51	35077.61
516.68	34672.70
516.85	34845.90
517.03	35175.91
517.20	34937.18
517.37	35487.20
517.54	35660.40
517.72	35524.65
517.89	35395.92
518.06	35632.32
518.24	35613.59
518.41	36016.16
518.58	35864.03
518.75	35803.17
518.93	36233.83
519.10	35871.05
519.27	36425.76
519.45	36268.94
519.62	36353.20
519.79	36095.74
519.96	36545.12
520.14	36362.56
520.31	36245.54
520.48	36935.99
520.65	36713.64
520.83	36713.64
521.00	36797.90
521.17	36577.89
521.34	37361.97
521.52	37170.05
521.69	37298.78
521.86	37439.21
522.03	37453.25
522.20	37706.03
522.38	37537.51
522.55	37357.29
522.72	37762.20
522.89	37305.80
523.07	38230.31
523.24	37851.14
523.41	38047.75
523.58	37902.64
523.75	38293.50
523.92	37989.24
524.10	38302.87
524.27	38066.47
524.44	38703.10
524.61	39136.10
524.78	38300.53
524.96	38391.81
525.13	38768.63
525.30	38691.40
525.47	38969.92
525.64	38815.44
525.81	38983.96
525.98	39339.72
526.16	39213.34
526.33	38873.96
526.50	39400.58
526.67	38576.71
526.84	39021.41
527.01	39381.85
527.18	39412.28
527.36	39922.52
527.53	39580.80
527.70	40034.86
527.87	39981.03
528.04	39880.39
528.21	39856.98
528.38	39515.26
528.55	39754.00
528.72	39489.52
528.89	40179.98
529.07	40126.14
529.24	39683.78
529.41	40102.74
529.58	40278.28
529.75	40140.19
529.92	40128.48
530.09	40034.86
530.26	40261.90
530.43	40390.62
530.60	40402.33
530.77	40041.88
530.94	40734.68
531.11	40425.73
531.28	40704.26
531.46	40563.82
531.63	40762.77
531.80	41120.87
531.97	41134.92
532.14	41109.17
532.31	41127.89
532.48	40879.80
532.65	41113.85
532.82	41003.85
532.99	41148.96
533.16	41347.90
533.33	41329.18
533.50	41460.25
533.67	41757.50
533.84	41427.48
534.01	41539.83
534.18	40973.42
534.35	41869.84
534.52	41883.89
534.69	41954.10
534.86	42007.94
535.03	41322.16
535.20	42061.77
535.37	41652.17
535.54	41923.68
535.71	41748.14
535.88	42178.79
536.05	41968.15
536.22	42286.46
536.38	42382.42
536.55	42003.25
536.72	42071.13
536.89	42550.94
537.06	42555.62
537.23	42906.70
537.40	42220.92
537.57	42710.10
537.74	42415.19
537.91	43213.31
538.08	42876.27
538.25	42494.77
538.42	42485.40
538.59	43220.33
538.75	42969.90
538.92	43086.92
539.09	42995.64
539.26	43206.29
539.43	43222.67
539.60	43386.51
539.77	43056.50
539.94	43428.64
540.11	43349.06
540.28	43487.15
540.44	43543.33
540.61	43463.75
540.78	43353.74
540.95	43742.27
541.12	43819.51
541.29	43793.76
541.46	43847.60
541.62	43662.69
541.79	43995.05
541.96	43812.49
542.13	43992.71
542.30	44009.09
542.47	44304.00
542.63	44224.42
542.80	44301.66
542.97	44142.50
543.14	44624.65
543.31	44376.56
543.48	44481.88
543.64	45069.36
543.81	44732.32
543.98	45038.93
544.15	44800.19
544.32	44767.43
544.48	44966.37
544.65	44758.06
544.82	45329.16
544.99	44786.15
545.16	44741.68
545.32	45247.24
545.49	45441.50
545.66	45904.93
545.83	45944.72
546.00	45830.03
546.16	45640.45
546.33	45359.58
546.50	44847.00
546.67	45263.62
546.83	44626.99
547.00	45228.51
547.17	45008.50
547.34	45088.08
547.50	45228.51
547.67	45528.10
547.84	45347.88
548.00	45340.86
548.17	45691.94
548.34	45406.39
548.51	45734.07
548.67	45698.96
548.84	46007.91
549.01	45605.34
549.18	45485.97
549.34	45839.39
549.51	45464.91
549.68	45853.44
549.84	45661.51
550.01	45624.06
550.18	45717.68
550.34	45649.81
550.51	46106.21
550.68	46337.93
550.84	45036.59
551.01	45741.09
551.18	45631.08
551.34	45514.06
551.51	45619.38
551.68	45879.18
551.84	46422.19
552.01	45778.54
552.18	46298.14
552.34	45666.19
552.51	46232.60
552.68	45659.17
552.84	45614.70
553.01	46529.85
553.18	46028.98
553.34	46693.69
553.51	46010.25
553.67	46450.27
553.84	46836.46
554.01	46621.13
554.17	46616.45
554.34	46663.26
554.51	46085.15
554.67	46476.02
554.84	46366.01
555.00	46422.19
555.17	46532.19
555.33	46628.15
555.50	46564.96
555.67	46450.27
555.83	46777.95
556.00	46670.28
556.16	46611.77
556.33	46150.68
556.50	46740.50
556.66	46913.70
556.83	46859.87
556.99	47103.28
557.16	47140.73
557.32	46967.53
557.49	47157.11
557.65	46459.63
557.82	46546.23
557.98	46670.28
558.15	47299.89
558.32	46616.45
558.48	47234.35
558.65	47103.28
558.81	47356.06
558.98	47122.01
559.14	46681.98
559.31	46623.47
559.47	46780.29
559.64	47194.56
559.80	47229.67
559.97	47543.30
560.13	47091.58
560.30	47257.76
560.46	46995.62
560.63	47253.08
560.79	47136.05
560.96	47332.65
561.12	47562.03
561.29	47365.42
561.45	47096.26
561.61	47442.66
561.78	47267.12
561.94	47196.90
562.11	47241.37
562.27	47412.23
562.44	47056.47
562.60	47629.90
562.77	47414.57
562.93	47320.95
563.10	47381.80
563.26	47253.08
563.42	47777.36
563.59	47407.55
563.75	47489.47
563.92	47571.39
564.08	47363.08
564.24	47391.17
564.41	47707.14
564.57	46990.94
564.74	47955.24
564.90	47545.64
565.07	47540.96
565.23	47840.55
565.39	47615.86
565.56	47587.77
565.72	47353.72
565.88	47571.39
566.05	47688.42
566.21	47028.38
566.38	47232.01
566.54	47496.49
566.70	47854.59
566.87	47547.98
567.03	47824.17
567.19	48002.05
567.36	47770.33
567.52	47573.73
567.68	47718.84
567.85	47494.15
568.01	47655.65
568.17	47484.79
568.34	47627.56
568.50	47887.36
568.66	47620.54
568.83	48016.09
568.99	47646.29
569.15	47812.46
569.32	47557.35
569.48	47358.40
569.64	47594.79
569.81	47777.36
569.97	47842.89
570.13	48168.22
570.30	47721.18
570.46	48217.38
570.62	47730.54
570.78	47803.10
570.95	47760.97
571.11	47950.56
571.27	47421.59
571.43	47606.50
571.60	47824.17
571.76	47751.61
571.92	47772.67
572.09	48079.28
572.25	47980.98
572.41	48100.35
572.57	48023.11
572.74	47938.85
572.90	47711.82
573.06	47716.50
573.22	47665.01
573.38	48109.71
573.55	47817.14
573.71	48098.01
573.87	47941.19
574.03	48147.16
574.20	47662.67
574.36	47709.48
574.52	47845.23
574.68	47599.47
574.84	47852.25
575.01	48116.73
575.17	47859.27
575.33	47828.85
575.49	48081.63
575.65	48044.18
575.82	48039.50
575.98	47693.10
576.14	48404.62
576.30	47971.62
576.46	47793.74
576.62	47805.44
576.79	48114.39
576.95	47821.83
577.11	47899.06
577.27	47969.28
577.43	47866.30
577.59	48109.71
577.75	47817.14
577.92	47737.57
578.08	47627.56
578.24	47814.80
578.40	48355.47
578.56	48238.44
578.72	47962.26
578.88	48266.53
579.04	48041.84
579.21	48238.44
579.37	47763.31
579.53	48222.06
579.69	47351.38
579.85	47728.20
580.01	47995.03
580.17	47870.98
580.33	47892.04
580.49	48093.33
580.65	48556.75
580.82	48486.54
580.98	47838.21
581.14	47662.67
581.30	48233.76
581.46	47800.76
581.62	48184.61
581.78	47611.18
581.94	48030.13
582.10	47805.44
582.26	48285.25
582.42	47866.30
582.58	47824.17
582.74	48191.63
582.90	48229.08
583.06	48329.72
583.22	47798.42
583.38	48123.75
583.54	48055.88
583.70	47711.82
583.86	47894.38
584.02	47555.00
584.18	48098.01
584.34	48303.98
584.50	48210.35
584.66	47838.21
584.82	48105.03
584.98	48371.85
585.14	47782.04
585.30	47786.72
585.46	48254.82
585.62	47988.00
585.78	48079.28
585.94	47351.38
586.10	48126.10
586.26	48144.82
586.42	48086.31
586.58	48327.38
586.74	48189.29
586.90	47709.48
587.06	47653.31
587.22	48168.22
587.38	48128.44
587.54	48229.08
587.70	48329.72
587.86	48090.99
588.02	48102.69
588.18	48406.96
588.34	47988.00
588.49	48165.88
588.65	47999.71
588.81	47744.59
588.97	48203.33
589.13	48069.92
589.29	47636.92
589.45	48238.44
589.61	48423.34
589.77	48708.89
589.93	48233.76
590.08	48474.84
590.24	48502.92
590.40	48168.22
