SpectraSuite Data File
++++++++++++++++++++++++++++++++++++
Date: Fri Oct 04 11:40:01 GMT-05:00 2013
User: price-jones
Dark Spectrum Present: No
Reference Spectrum Present: No
Number of Sampled Component Spectra: 1
Spectrometers: USB2+H05261
Integration Time (usec): 100000 (USB2+H05261)
Spectra Averaged: 1 (USB2+H05261)
Boxcar Smoothing: 0 (USB2+H05261)
Correct for Electrical Dark: No (USB2+H05261)
Strobe/Lamp Enabled: No (USB2+H05261)
Correct for Detector Non-linearity: No (USB2+H05261)
Correct for Stray Light: No (USB2+H05261)
Number of Pixels in Processed Spectrum: 2048
>>>>>Begin Processed Spectral Data<<<<<
365.73	49.15
365.92	49.15
366.12	49.15
366.32	21.06
366.52	0.00
366.72	0.00
366.91	0.00
367.11	0.00
367.31	0.00
367.51	0.00
367.70	18.72
367.90	0.00
368.10	0.00
368.30	0.00
368.49	0.00
368.69	11.70
368.89	0.00
369.09	0.00
369.28	0.00
369.48	0.00
369.68	0.00
369.87	39.79
370.07	2.34
370.27	51.49
370.47	138.09
370.66	299.59
370.86	383.85
371.06	416.62
371.25	510.24
371.45	433.00
371.65	510.24
371.84	500.87
372.04	521.94
372.24	456.40
372.44	540.66
372.63	482.15
372.83	477.47
373.03	535.98
373.22	606.20
373.42	535.98
373.62	430.66
373.81	526.62
374.01	585.13
374.21	660.03
374.40	615.56
374.60	608.54
374.79	671.73
374.99	606.20
375.19	617.90
375.38	676.41
375.58	500.87
375.78	690.46
375.97	718.54
376.17	699.82
376.37	578.11
376.56	592.16
376.76	596.84
376.95	643.65
377.15	711.52
377.35	669.39
377.54	699.82
377.74	643.65
377.93	610.88
378.13	671.73
378.33	667.05
378.52	711.52
378.72	732.59
378.91	741.95
379.11	641.31
379.31	650.67
379.50	674.07
379.70	667.05
379.89	807.48
380.09	753.65
380.28	734.93
380.48	772.38
380.68	699.82
380.87	692.80
381.07	784.08
381.26	748.97
381.46	718.54
381.65	786.42
381.85	830.89
382.04	798.12
382.24	791.10
382.43	798.12
382.63	823.87
382.83	807.48
383.02	870.68
383.22	887.06
383.41	844.93
383.61	809.83
383.80	788.76
384.00	908.13
384.19	861.32
384.39	938.55
384.58	961.96
384.78	936.21
384.97	901.11
385.17	866.00
385.36	903.45
385.56	905.79
385.75	987.71
385.95	929.19
386.14	908.13
386.34	887.06
386.53	964.30
386.72	1006.43
386.92	976.00
387.11	957.28
387.31	1076.65
387.50	884.72
387.70	992.39
387.89	1020.47
388.09	997.07
388.28	1025.15
388.48	1034.52
388.67	1001.75
388.86	957.28
389.06	1032.18
389.25	1081.33
389.45	1036.86
389.64	1053.24
389.84	1062.60
390.03	1086.01
390.22	1135.16
390.42	1198.35
390.61	1090.69
390.81	1167.93
391.00	1205.38
391.19	1235.80
391.39	1137.50
391.58	1205.38
391.78	1151.54
391.97	1144.52
392.16	1226.44
392.36	1221.76
392.55	1273.25
392.75	1144.52
392.94	1203.04
393.13	1217.08
393.33	1200.69
393.52	1366.87
393.71	1348.15
393.91	1301.34
394.10	1275.59
394.29	1359.85
394.49	1306.02
394.68	1345.81
394.88	1390.28
395.07	1420.71
395.26	1362.19
395.46	1385.60
395.65	1474.54
395.84	1348.15
396.04	1476.88
396.23	1458.15
396.42	1444.11
396.62	1444.11
396.81	1488.58
397.00	1411.34
397.19	1399.64
397.39	1530.71
397.58	1519.01
397.77	1355.17
397.97	1516.67
398.16	1687.53
398.35	1614.97
398.55	1603.27
398.74	1551.78
398.93	1689.87
399.12	1614.97
399.32	1535.39
399.51	1607.95
399.70	1701.57
399.90	1654.76
400.09	1809.23
400.28	1689.87
400.47	1696.89
400.67	1710.93
400.86	1746.04
401.05	1804.55
401.24	1739.02
401.44	1783.49
401.63	1811.57
401.82	1844.34
402.01	1781.15
402.21	1898.17
402.40	1795.19
402.59	1842.00
402.78	1895.83
402.97	1963.71
403.17	1893.49
403.36	1902.86
403.55	1991.80
403.74	1956.69
403.93	2057.33
404.13	2092.44
404.32	2134.57
404.51	1975.41
404.70	2195.42
404.89	2083.08
405.09	2139.25
405.28	2045.63
405.47	2150.95
405.66	2211.81
405.85	2200.10
406.05	2111.16
406.24	2202.44
406.43	2186.06
406.62	2242.23
406.81	2321.81
407.00	2331.17
407.20	2244.57
407.39	2368.62
407.58	2413.09
407.77	2441.18
407.96	2429.48
408.15	2548.84
408.34	2396.71
408.54	2401.39
408.73	2438.84
408.92	2483.31
409.11	2588.63
409.30	2541.82
409.49	2583.95
409.68	2572.25
409.87	2630.76
410.07	2595.65
410.26	2693.96
410.45	2635.44
410.64	2642.46
410.83	2773.53
411.02	2775.88
411.21	2810.98
411.40	2808.64
411.59	2878.86
411.78	2700.98
411.98	2796.94
412.17	2890.56
412.36	2881.20
412.55	2995.89
412.74	2981.84
412.93	3002.91
413.12	2935.03
413.31	3239.30
413.50	3035.67
413.69	3332.92
413.88	3236.96
414.07	3178.45
414.26	3309.52
414.45	3286.11
414.64	3318.88
414.83	3349.31
415.02	3361.01
415.22	3492.08
415.41	3590.38
415.60	3520.17
415.79	3571.66
415.98	3494.42
416.17	3625.49
416.36	3688.68
416.55	3684.00
416.74	3707.41
416.93	3754.22
417.12	3751.88
417.31	3805.71
417.50	3801.03
417.69	3915.72
417.88	3896.99
418.07	3939.12
418.26	3981.25
418.45	3967.21
418.64	4070.19
418.83	4306.59
419.02	4030.40
419.21	4184.88
419.39	4070.19
419.58	4109.98
419.77	4227.01
419.96	4257.43
420.15	4292.54
420.34	4173.18
420.53	4465.74
420.72	4423.61
420.91	4358.08
421.10	4608.51
421.29	4444.68
421.48	4493.83
421.67	4437.66
421.86	4510.21
422.05	4594.47
422.24	4432.97
422.43	4395.53
422.61	4533.62
422.80	4568.73
422.99	4526.60
423.18	4671.71
423.37	4545.32
423.56	4645.96
423.75	4557.02
423.94	4601.49
424.13	4257.43
424.32	4442.34
424.50	4709.16
424.69	4826.18
424.88	4793.42
425.07	4561.70
425.26	4519.57
425.45	4573.41
425.64	4514.89
425.83	4645.96
426.01	4779.37
426.20	4779.37
426.39	4683.41
426.58	4730.22
426.77	4849.59
426.96	4706.82
427.15	4599.15
427.33	4730.22
427.52	4676.39
427.71	4858.95
427.90	4840.23
428.09	5055.56
428.28	5060.24
428.46	5029.81
428.65	5165.56
428.84	5184.29
429.03	5203.01
429.22	5048.54
429.40	5121.09
429.59	5153.86
429.78	4898.74
429.97	5069.60
430.16	5144.50
430.34	5308.34
430.53	5305.99
430.72	5259.18
430.91	5348.12
431.10	5238.12
431.28	5366.85
431.47	5284.93
431.66	5511.96
431.85	5549.41
432.03	5769.42
432.22	5654.73
432.41	5472.17
432.60	5678.14
432.79	5600.90
432.97	5619.63
433.16	5565.79
433.35	5685.16
433.54	5689.84
433.72	5678.14
433.91	5607.92
434.10	5671.12
434.28	5886.45
434.47	5881.77
434.66	6003.47
434.85	5820.91
435.03	6076.03
435.22	6099.44
435.41	6464.56
435.59	6279.66
435.78	6193.06
435.97	6214.12
436.16	6120.50
436.34	5947.30
436.53	6134.54
436.72	6167.31
436.90	6132.20
437.09	6270.30
437.28	6132.20
437.46	6132.20
437.65	6410.73
437.84	6296.04
438.02	6342.85
438.21	6380.30
438.40	6417.75
438.58	6546.48
438.77	6715.00
438.96	6801.60
439.14	6698.61
439.33	6780.53
439.52	6796.92
439.70	6738.40
439.89	6773.51
440.08	6836.70
440.26	7002.88
440.45	7075.44
440.63	7009.90
440.82	7241.62
441.01	6935.01
441.19	7023.95
441.38	7098.84
441.57	7260.34
441.75	7349.28
441.94	7595.04
442.12	7482.69
442.31	7747.17
442.50	7487.37
442.68	7494.40
442.87	7599.72
443.05	7620.78
443.24	7824.41
443.43	7712.07
443.61	7873.56
443.80	7822.07
443.98	7550.57
444.17	7550.57
444.35	7955.48
444.54	8060.80
444.73	7922.71
444.91	7864.20
445.10	7885.26
445.28	7887.61
445.47	7810.37
445.65	7817.39
445.84	7723.77
446.02	8067.83
446.21	8032.72
446.39	7948.46
446.58	8273.79
446.77	8039.74
446.95	7896.97
447.14	8109.96
447.32	8086.55
447.51	8039.74
447.69	7943.78
447.88	8168.47
448.06	8241.03
448.25	8142.72
448.43	8042.08
448.62	8072.51
448.80	8006.97
448.99	8271.45
449.17	8355.71
449.36	8203.58
449.54	8486.78
449.73	8369.76
449.91	8468.06
450.10	8517.21
450.28	8695.09
450.46	8313.58
450.65	8568.70
450.83	8713.81
451.02	8446.99
451.20	8819.14
451.39	8765.31
451.57	8652.96
451.76	8435.29
451.94	8664.66
452.13	8980.64
452.31	8891.70
452.49	8894.04
452.68	8865.95
452.86	8938.51
453.05	9226.39
453.23	9123.41
453.42	8910.42
453.60	8950.21
453.78	8826.16
453.97	8915.10
454.15	9057.87
454.34	8975.95
454.52	9287.25
454.70	9139.79
454.89	9231.07
455.07	9282.56
455.26	9247.46
455.44	9427.68
455.62	9366.82
455.81	9369.16
455.99	9554.07
456.17	9610.24
456.36	9572.79
456.54	9788.12
456.73	9706.20
456.91	10003.45
457.09	9879.40
457.28	10050.26
457.46	9816.21
457.64	9951.96
457.83	10162.61
458.01	10050.26
458.19	9996.43
458.38	10146.22
458.56	10235.16
458.74	9795.14
458.93	10097.07
459.11	10148.56
459.29	10122.82
459.48	10338.15
459.66	10382.62
459.84	10324.10
460.03	10562.84
460.21	10326.44
460.39	10619.01
460.57	10237.50
460.76	10420.06
460.94	10698.59
461.12	10504.32
461.31	10808.59
461.49	10630.71
461.67	10572.20
461.85	10759.44
462.04	10764.12
462.22	11360.96
462.40	11030.94
462.59	10892.85
462.77	10960.73
462.95	11026.26
463.13	10902.22
463.32	10920.94
463.50	10944.34
463.68	11059.03
463.86	11213.51
464.05	11061.37
464.23	11136.27
464.41	11183.08
464.59	11131.59
464.78	11452.24
464.96	11250.96
465.14	11269.68
465.32	11604.38
465.50	11424.15
465.69	11456.92
465.87	11220.53
466.05	11367.98
466.23	11611.40
466.41	11576.29
466.60	11793.96
466.78	11566.93
466.96	11466.28
467.14	11674.59
467.32	11723.74
467.51	11957.80
467.69	11688.64
467.87	11831.41
468.05	11875.88
468.23	12046.74
468.41	11719.06
468.60	12035.03
468.78	12058.44
468.96	12095.89
469.14	12451.65
469.32	12301.86
469.50	12325.26
469.69	12493.78
469.87	12367.39
470.05	12573.36
470.23	12566.34
470.41	12498.46
470.59	12606.13
470.77	12524.21
470.95	12594.42
471.14	12732.51
471.32	12692.73
471.50	13022.74
471.68	12940.82
471.86	12891.67
472.04	13202.96
472.22	13556.38
472.40	13004.02
472.58	13078.91
472.77	13259.13
472.95	13406.59
473.13	13516.59
473.31	13397.23
473.49	13413.61
473.67	13575.11
473.85	13542.34
474.03	13907.46
474.21	13600.85
474.39	14085.34
474.57	13846.61
474.75	14164.92
474.93	14317.06
475.12	14193.01
475.30	14207.05
475.48	14218.75
475.66	14424.72
475.84	14469.19
476.02	14555.79
476.20	14771.12
476.38	14974.75
476.56	14899.85
476.74	15227.53
476.92	15037.94
477.10	15187.74
477.28	15236.89
477.46	15295.40
477.64	15683.93
477.82	15662.86
478.00	16046.71
478.18	16201.19
478.36	16142.67
478.54	16540.57
478.72	16418.86
478.90	16442.26
479.08	16624.83
479.26	17025.06
479.44	16816.75
479.62	17025.06
479.80	16891.65
479.98	17149.11
480.16	17467.42
480.34	17532.95
480.52	17607.85
480.70	17458.06
480.88	17532.95
481.06	18057.23
481.24	17944.89
481.41	18174.26
481.59	18569.81
481.77	18752.37
481.95	18691.52
482.13	18611.94
482.31	19023.87
482.49	19487.30
482.67	19400.70
482.85	19360.91
483.03	19878.17
483.21	19969.45
483.39	20074.77
483.57	20100.52
483.74	20360.32
483.92	20589.69
484.10	20278.40
484.28	20926.73
484.46	21142.06
484.64	21404.20
484.82	21001.63
485.00	21387.82
485.18	21696.77
485.35	21912.10
485.53	21607.83
485.71	21792.73
485.89	22225.73
486.07	22473.82
486.25	22661.07
486.43	22951.29
486.61	22567.45
486.78	23108.11
486.96	23164.28
487.14	23506.00
487.32	23346.84
487.50	23721.33
487.68	23995.17
487.85	24479.66
488.03	24823.72
488.21	24428.17
488.39	24980.54
488.57	24912.66
488.75	24985.22
488.92	25235.66
489.10	26059.52
489.28	25874.62
489.46	26092.29
489.64	25902.71
489.81	26689.13
489.99	26075.91
490.17	26654.02
490.35	26703.17
490.53	26838.92
490.70	27400.65
490.88	27417.04
491.06	27557.47
491.24	27510.66
491.41	27718.96
491.59	28112.17
491.77	28056.00
491.95	28524.11
492.13	28147.28
492.30	28650.50
492.48	28699.65
492.66	28706.67
492.84	29118.60
493.01	29055.41
493.19	29357.34
493.37	29935.45
493.54	30019.71
493.72	30323.98
493.90	30541.65
494.08	30508.88
494.25	30649.32
494.43	30581.44
494.61	30710.17
494.79	31012.10
494.96	31079.97
495.14	31173.60
495.32	31510.63
495.49	31477.86
495.67	31967.04
495.85	32184.71
496.02	32390.67
496.20	31906.18
496.38	32554.51
496.55	32706.65
496.73	33469.66
496.91	33247.31
497.09	33439.23
497.26	33589.03
497.44	33476.68
497.62	33483.70
497.79	33713.08
497.97	34022.03
498.14	34602.48
498.32	35019.10
498.50	34866.96
498.67	34775.68
498.85	34869.30
499.03	35363.15
499.20	34754.61
499.38	35269.53
499.56	35433.37
499.73	35847.64
499.91	35754.02
500.08	36135.53
500.26	35639.34
500.44	35964.67
500.61	36432.78
500.79	36055.95
500.97	36900.89
501.14	37158.34
501.32	36996.85
501.49	36882.16
501.67	37074.09
501.84	36938.33
502.02	37092.81
502.20	37387.72
502.37	37656.88
502.55	37640.50
502.72	38249.03
502.90	38103.92
503.07	38087.54
503.25	37670.92
503.43	38064.13
503.60	38433.94
503.78	38670.33
503.95	38335.63
504.13	39049.50
504.30	38579.05
504.48	38909.07
504.65	39058.86
504.83	39658.04
505.01	39711.87
505.18	39438.03
505.36	40020.82
505.53	39309.30
505.71	39868.69
505.88	39817.19
506.06	39562.08
506.23	40577.87
506.41	39927.20
506.58	40247.85
506.76	40989.80
506.93	40781.49
507.11	40491.27
507.28	40793.20
507.46	40879.80
507.63	41174.70
507.81	41895.59
507.98	41139.60
508.16	41478.97
508.33	41413.44
508.50	41635.79
508.68	41916.65
508.85	41961.12
509.03	42330.93
509.20	42504.13
509.38	42396.46
509.55	42454.98
509.73	42696.05
509.90	42492.43
510.08	42890.32
510.25	42541.58
510.42	43065.86
510.60	43217.99
510.77	43665.03
510.95	43512.90
511.12	43367.79
511.30	43452.05
511.47	43452.05
511.64	43646.31
511.82	44069.95
511.99	44016.11
512.17	44273.57
512.34	44154.21
512.51	44526.35
512.69	44671.46
512.86	44718.28
513.04	45312.77
513.21	44905.52
513.38	45158.30
513.56	45010.84
513.73	44847.00
513.90	44982.76
514.08	44989.78
514.25	45509.38
514.43	45366.60
514.60	45996.21
514.77	45598.32
514.95	45844.07
515.12	45539.80
515.29	45940.04
515.47	45937.69
515.64	46291.12
515.81	46143.66
515.99	46417.50
516.16	46925.40
516.33	46674.96
516.51	46651.56
516.68	46536.87
516.85	46349.63
517.03	46707.73
517.20	47033.07
517.37	47299.89
517.54	46857.52
517.72	47398.19
517.89	47248.39
518.06	47463.72
518.24	47210.95
518.41	47419.25
518.58	47775.02
518.75	47913.11
518.93	48107.37
519.10	47758.63
519.27	48095.67
519.45	48006.73
519.62	48474.84
519.79	48151.84
519.96	48336.74
520.14	48500.58
520.31	48470.15
520.48	48706.55
520.65	48683.14
520.83	49298.70
521.00	48863.36
521.17	48746.34
521.34	49155.93
521.52	49462.54
521.69	49378.28
521.86	49397.01
522.03	49469.56
522.20	49577.23
522.38	49450.84
522.55	49869.79
522.72	49581.91
522.89	49965.76
523.07	50052.36
523.24	49965.76
523.41	50288.75
523.58	50171.72
523.75	50239.60
523.92	50050.02
524.10	49954.05
524.27	50607.06
524.44	50363.65
524.61	50876.22
524.78	50600.04
524.96	50707.71
525.13	50726.43
525.30	50686.64
525.47	51009.64
525.64	50976.87
525.81	51187.52
525.98	51707.12
526.16	50791.97
526.33	51159.43
526.50	51440.29
526.67	50859.84
526.84	51299.86
527.01	51374.76
527.18	51524.55
527.36	51615.83
527.53	51735.20
527.70	51917.76
527.87	51770.31
528.04	51838.18
528.21	52039.47
528.38	51952.87
528.55	52154.16
528.72	51957.55
528.89	51908.40
529.07	52144.80
529.24	52140.11
529.41	52182.24
529.58	52121.39
529.75	52308.63
529.92	52479.49
530.09	52519.28
530.26	52662.05
530.43	52530.98
530.60	52577.79
530.77	52650.35
530.94	52512.26
531.11	52486.51
531.28	52577.79
531.46	52769.72
531.63	53130.16
531.80	52924.19
531.97	53289.32
532.14	53254.21
532.31	52940.58
532.48	53202.72
532.65	53284.64
532.82	53013.13
532.99	53240.17
533.16	53078.67
533.33	53668.48
533.50	53612.31
533.67	53649.76
533.84	53284.64
534.01	53127.82
534.18	53511.67
534.35	53734.02
534.52	53514.01
534.69	53455.50
534.86	53939.99
535.03	53581.88
535.20	53897.86
535.37	54073.40
535.54	54141.27
535.71	53572.52
535.88	54078.08
536.05	53881.47
536.22	54092.12
536.38	54258.30
536.55	54321.49
536.72	54234.89
536.89	54167.02
537.06	54368.30
537.23	54211.49
537.40	54419.80
537.57	54347.24
537.74	54515.76
537.91	54967.48
538.08	54651.51
538.25	54279.36
538.42	54506.40
538.59	54681.94
538.75	54506.40
538.92	54429.16
539.09	54726.41
539.26	54740.45
539.43	55033.02
539.60	54885.56
539.77	54822.37
539.94	54997.91
540.11	54990.89
540.28	55302.18
540.44	55159.41
540.61	55018.97
540.78	55194.51
540.95	55636.87
541.12	55426.23
541.29	55480.06
541.46	55419.20
541.62	55402.82
541.79	55590.06
541.96	55344.31
542.13	55730.50
542.30	55709.43
542.47	55854.54
542.63	55927.10
542.80	55959.87
542.97	55980.93
543.14	56016.04
543.31	55856.88
543.48	55969.23
543.64	56161.15
543.81	56217.33
543.98	56231.37
544.15	56313.29
544.32	56182.22
544.48	56390.53
544.65	56034.77
544.82	56154.13
544.99	55915.40
545.16	56388.19
545.32	56259.46
545.49	56736.93
545.66	56989.70
545.83	56804.80
546.00	56903.10
546.16	56547.34
546.33	56442.02
546.50	56147.11
546.67	56537.98
546.83	56247.75
547.00	56353.08
547.17	56706.50
547.34	56732.25
547.50	56877.36
547.67	57008.43
547.84	56905.44
548.00	56825.87
548.17	56900.76
548.34	56790.76
548.51	57010.77
548.67	56928.85
548.84	57024.81
549.01	57031.83
549.18	56994.39
549.34	57090.35
549.51	57088.01
549.68	56928.85
549.84	56884.38
550.01	57048.22
550.18	57010.77
550.34	57034.17
550.51	57158.22
550.68	57504.62
550.84	56776.72
551.01	57020.13
551.18	57176.95
551.34	56900.76
551.51	57279.93
551.68	57521.01
551.84	57584.20
552.01	57212.06
552.18	57326.74
552.34	57244.82
552.51	57530.37
552.68	57209.71
552.84	57357.17
553.01	57614.63
553.18	57586.54
553.34	57563.14
553.51	57605.26
553.67	57408.66
553.84	57841.66
554.01	57553.77
554.17	57696.55
554.34	57598.24
554.51	57598.24
554.67	57750.38
554.84	57698.89
555.00	57504.62
555.17	57790.17
555.33	57773.78
555.50	57773.78
555.67	57780.81
555.83	57696.55
556.00	57874.43
556.16	58047.63
556.33	57855.70
556.50	57846.34
556.66	58066.35
556.83	57815.91
556.99	58145.93
557.16	58216.14
557.32	58326.15
557.49	58300.40
557.65	57968.05
557.82	58129.54
557.98	58138.91
558.15	58028.90
558.32	58141.25
558.48	58312.11
558.65	58405.73
558.81	58265.30
558.98	58169.33
559.14	58038.26
559.31	58220.83
559.47	58300.40
559.64	58410.41
559.80	58349.56
559.97	58176.36
560.13	58251.25
560.30	58253.59
560.46	58337.85
560.63	58534.46
560.79	58478.28
560.96	58384.66
561.12	58382.32
561.29	58220.83
561.45	58539.14
561.61	58539.14
561.78	58515.73
561.94	58567.23
562.11	58618.72
562.27	58508.71
562.44	58525.10
562.60	58684.25
562.77	58609.35
562.93	58504.03
563.10	58660.85
563.26	58405.73
563.42	59040.01
563.59	58616.38
563.75	58642.12
563.92	58754.47
564.08	58688.93
564.24	58712.34
564.41	58677.23
564.57	58445.52
564.74	58564.88
564.90	58719.36
565.07	58820.00
565.23	58859.79
565.39	58798.94
565.56	58820.00
565.72	58642.12
565.88	58880.86
566.05	58700.64
566.21	58721.70
566.38	58768.51
566.54	58843.41
566.70	58681.91
566.87	59161.72
567.03	59058.74
567.19	58976.82
567.36	59175.76
567.52	58824.68
567.68	58953.41
567.85	58976.82
568.01	58920.65
568.17	58827.02
568.34	58981.50
568.50	59002.56
568.66	58890.22
568.83	59166.40
568.99	58995.54
569.15	59028.31
569.32	58969.80
569.48	58717.02
569.64	58958.09
569.81	59093.85
569.97	59023.63
570.13	59018.95
570.30	58918.31
570.46	59138.32
570.62	58862.13
570.78	59248.32
570.95	58862.13
571.11	58941.71
571.27	58796.60
571.43	59002.56
571.60	59213.21
571.76	59203.85
571.92	59302.15
572.09	59292.79
572.25	59199.17
572.41	59187.47
572.57	59044.69
572.74	59332.58
572.90	59100.87
573.06	59161.72
573.22	59037.67
573.38	59135.98
573.55	59131.29
573.71	59393.43
573.87	59559.61
574.03	59288.11
574.20	59152.36
574.36	59302.15
574.52	59145.34
574.68	59091.51
574.84	59231.94
575.01	59374.71
575.17	59515.14
575.33	59058.74
575.49	59199.17
575.65	59243.64
575.82	59325.56
575.98	59248.32
576.14	59238.96
576.30	59444.93
576.46	59283.43
576.62	59269.39
576.79	59107.89
576.95	59388.75
577.11	59292.79
577.27	59210.87
577.43	59238.96
577.59	59360.67
577.75	59374.71
577.92	59325.56
578.08	59199.17
578.24	59243.64
578.40	59423.86
578.56	59465.99
578.72	59475.35
578.88	59667.28
579.04	59529.19
579.21	59655.57
579.37	59508.12
579.53	59402.80
579.69	59220.23
579.85	59260.02
580.01	59451.95
580.17	59377.05
580.33	59295.13
580.49	59508.12
580.65	59487.06
580.82	59707.07
580.98	59718.77
581.14	59451.95
581.30	59496.42
581.46	59135.98
581.62	59337.26
581.78	59405.14
581.94	59302.15
582.10	59423.86
582.26	59395.77
582.42	59484.72
582.58	59536.21
582.74	59398.12
582.90	59702.38
583.06	59442.59
583.22	59199.17
583.38	59526.84
583.54	59531.53
583.70	59568.97
583.86	59580.68
584.02	59276.41
584.18	59714.09
584.34	59655.57
584.50	59821.75
584.66	59674.30
584.82	59526.84
584.98	59531.53
585.14	59510.46
585.30	59398.12
585.46	59704.73
585.62	59468.33
585.78	59688.34
585.94	59402.80
586.10	59697.70
586.26	59585.36
586.42	59421.52
586.58	59709.41
586.74	59760.90
586.90	59519.82
587.06	59363.01
587.22	59779.62
587.38	59700.04
587.54	59540.89
587.70	59681.32
587.86	59723.45
588.02	59660.26
588.18	59732.81
588.34	59784.30
588.49	59678.98
588.65	59358.33
588.81	59578.34
588.97	59573.66
589.13	59620.47
589.29	59594.72
