SpectraSuite Data File
++++++++++++++++++++++++++++++++++++
Date: Fri Oct 04 11:40:01 GMT-05:00 2013
User: price-jones
Dark Spectrum Present: No
Reference Spectrum Present: No
Number of Sampled Component Spectra: 1
Spectrometers: USB2+H05261
Integration Time (usec): 100000 (USB2+H05261)
Spectra Averaged: 1 (USB2+H05261)
Boxcar Smoothing: 0 (USB2+H05261)
Correct for Electrical Dark: No (USB2+H05261)
Strobe/Lamp Enabled: No (USB2+H05261)
Correct for Detector Non-linearity: No (USB2+H05261)
Correct for Stray Light: No (USB2+H05261)
Number of Pixels in Processed Spectrum: 2048
>>>>>Begin Processed Spectral Data<<<<<
365.73	63.19
365.92	63.19
366.12	63.19
366.32	0.00
366.52	4.68
366.72	0.00
366.91	0.00
367.11	0.00
367.31	0.00
367.51	0.00
367.70	0.00
367.90	0.00
368.10	4.68
368.30	0.00
368.49	0.00
368.69	0.00
368.89	0.00
369.09	0.00
369.28	0.00
369.48	9.36
369.68	14.04
369.87	0.00
370.07	18.72
370.27	0.00
370.47	46.81
370.66	119.37
370.86	16.38
371.06	100.64
371.25	159.16
371.45	93.62
371.65	100.64
371.84	147.45
372.04	77.24
372.24	88.94
372.44	84.26
372.63	149.79
372.83	182.56
373.03	145.11
373.22	35.11
373.42	138.09
373.62	114.69
373.81	208.31
374.01	255.12
374.21	248.10
374.40	102.98
374.60	140.43
374.79	198.95
374.99	145.11
375.19	250.44
375.38	189.58
375.58	147.45
375.78	182.56
375.97	145.11
376.17	241.08
376.37	142.77
376.56	147.45
376.76	112.35
376.95	189.58
377.15	161.50
377.35	175.54
377.54	161.50
377.74	147.45
377.93	121.71
378.13	105.32
378.33	166.18
378.52	170.86
378.72	196.60
378.91	222.35
379.11	110.01
379.31	173.20
379.50	131.07
379.70	198.95
379.89	241.08
380.09	173.20
380.28	217.67
380.48	166.18
380.68	100.64
380.87	149.79
381.07	212.99
381.26	210.65
381.46	177.88
381.65	173.20
381.85	210.65
382.04	142.77
382.24	133.41
382.43	191.92
382.63	208.31
382.83	159.16
383.02	205.97
383.22	149.79
383.41	149.79
383.61	149.79
383.80	86.60
384.00	196.60
384.19	154.48
384.39	210.65
384.58	114.69
384.78	210.65
384.97	175.54
385.17	117.03
385.36	194.26
385.56	149.79
385.75	117.03
385.95	208.31
386.14	198.95
386.34	191.92
386.53	187.24
386.72	147.45
386.92	241.08
387.11	175.54
387.31	234.05
387.50	245.76
387.70	184.90
387.89	208.31
388.09	294.91
388.28	147.45
388.48	121.71
388.67	238.73
388.86	203.63
389.06	297.25
389.25	112.35
389.45	227.03
389.64	175.54
389.84	238.73
390.03	217.67
390.22	229.37
390.42	177.88
390.61	224.69
390.81	220.01
391.00	208.31
391.19	248.10
391.39	166.18
391.58	248.10
391.78	205.97
391.97	198.95
392.16	194.26
392.36	259.80
392.55	245.76
392.75	191.92
392.94	248.10
393.13	299.59
393.33	222.35
393.52	220.01
393.71	236.39
393.91	124.05
394.10	236.39
394.29	320.65
394.49	231.71
394.68	257.46
394.88	283.20
395.07	234.05
395.26	325.33
395.46	250.44
395.65	339.38
395.84	308.95
396.04	393.21
396.23	184.90
396.42	238.73
396.62	285.55
396.81	346.40
397.00	327.68
397.19	266.82
397.39	257.46
397.58	325.33
397.77	285.55
397.97	341.72
398.16	285.55
398.35	365.12
398.55	346.40
398.74	318.31
398.93	341.72
399.12	301.93
399.32	344.06
399.51	327.68
399.70	376.83
399.90	376.83
400.09	334.70
400.28	376.83
400.47	322.99
400.67	285.55
400.86	397.89
401.05	482.15
401.24	332.36
401.44	327.68
401.63	386.19
401.82	454.06
402.01	407.25
402.21	372.15
402.40	411.93
402.59	388.53
402.78	402.57
402.97	433.00
403.17	428.32
403.36	454.06
403.55	468.11
403.74	461.09
403.93	505.56
404.13	475.13
404.32	498.53
404.51	454.06
404.70	479.81
404.89	547.69
405.09	554.71
405.28	491.51
405.47	449.38
405.66	433.00
405.85	622.58
406.05	468.11
406.24	489.17
406.43	554.71
406.62	587.47
406.81	517.26
407.00	531.30
407.20	528.96
407.39	561.73
407.58	561.73
407.77	608.54
407.96	660.03
408.15	578.11
408.34	519.60
408.54	575.77
408.73	589.82
408.92	615.56
409.11	669.39
409.30	653.01
409.49	622.58
409.68	641.31
409.87	641.31
410.07	648.33
410.26	667.05
410.45	697.48
410.64	664.71
410.83	732.59
411.02	737.27
411.21	711.52
411.40	734.93
411.59	739.61
411.78	748.97
411.98	739.61
412.17	873.02
412.36	823.87
412.55	805.14
412.74	816.85
412.93	830.89
413.12	791.10
413.31	945.58
413.50	851.96
413.69	851.96
413.88	870.68
414.07	898.77
414.26	997.07
414.45	966.64
414.64	961.96
414.83	985.37
415.02	1043.88
415.22	968.98
415.41	964.30
415.60	987.71
415.79	1029.84
415.98	1006.43
416.17	952.60
416.36	1095.37
416.55	1053.24
416.74	1083.67
416.93	1090.69
417.12	1071.97
417.31	1111.75
417.50	1062.60
417.69	1132.82
417.88	1121.12
418.07	1046.22
418.26	1128.14
418.45	1177.29
418.64	1289.64
418.83	1186.65
419.02	1198.35
419.21	1156.22
419.39	1116.44
419.58	1252.19
419.77	1146.86
419.96	1179.63
420.15	1242.82
420.34	1217.08
420.53	1256.87
420.72	1299.00
420.91	1235.80
421.10	1247.51
421.29	1301.34
421.48	1273.25
421.67	1345.81
421.86	1376.24
422.05	1315.38
422.24	1254.53
422.43	1331.76
422.61	1345.81
422.80	1357.51
422.99	1373.89
423.18	1310.70
423.37	1432.41
423.56	1394.96
423.75	1366.87
423.94	1404.32
424.13	1336.45
424.32	1261.55
424.50	1357.51
424.69	1369.21
424.88	1371.55
425.07	1390.28
425.26	1355.17
425.45	1406.66
425.64	1280.27
425.83	1308.36
426.01	1392.62
426.20	1416.02
426.39	1387.94
426.58	1394.96
426.77	1399.64
426.96	1495.60
427.15	1462.83
427.33	1502.62
427.52	1455.81
427.71	1479.22
427.90	1497.94
428.09	1364.53
428.28	1291.98
428.46	1530.71
428.65	1526.03
428.84	1500.28
429.03	1666.46
429.22	1521.35
429.40	1495.60
429.59	1530.71
429.78	1514.33
429.97	1465.18
430.16	1547.09
430.34	1572.84
430.53	1523.69
430.72	1596.25
430.91	1530.71
431.10	1528.37
431.28	1511.99
431.47	1621.99
431.66	1610.29
431.85	1633.69
432.03	1687.53
432.22	1741.36
432.41	1621.99
432.60	1687.53
432.79	1554.12
432.97	1605.61
433.16	1694.55
433.35	1685.19
433.54	1746.04
433.72	1776.47
433.91	1771.79
434.10	1643.06
434.28	1717.95
434.47	1746.04
434.66	1710.93
434.85	1790.51
435.03	1834.98
435.22	1956.69
435.41	2115.84
435.59	2232.87
435.78	2003.50
435.97	2003.50
436.16	1797.53
436.34	1785.83
436.53	1739.02
436.72	1949.67
436.90	1856.04
437.09	1867.75
437.28	1825.62
437.46	1713.27
437.65	1884.13
437.84	1886.47
438.02	1947.33
438.21	1872.43
438.40	1820.94
438.58	1966.05
438.77	2050.31
438.96	1886.47
439.14	1977.75
439.33	1961.37
439.52	2087.76
439.70	1907.54
439.89	1966.05
440.08	2090.10
440.26	2054.99
440.45	2129.89
440.63	2153.29
440.82	2031.58
441.01	2211.81
441.19	2188.40
441.38	2155.63
441.57	2162.66
441.75	2183.72
441.94	2200.10
442.12	2211.81
442.31	2223.51
442.50	2221.17
442.68	2172.02
442.87	2239.89
443.05	2303.09
443.24	2394.37
443.43	2349.90
443.61	2249.25
443.80	2326.49
443.98	2260.96
444.17	2202.44
444.35	2399.05
444.54	2415.43
444.73	2296.07
444.91	2270.32
445.10	2317.13
445.28	2303.09
445.47	2307.77
445.65	2319.47
445.84	2394.37
446.02	2401.39
446.21	2349.90
446.39	2377.98
446.58	2392.03
446.77	2399.05
446.95	2424.80
447.14	2354.58
447.32	2485.65
447.51	2293.72
447.69	2319.47
447.88	2436.50
448.06	2380.32
448.25	2338.20
448.43	2361.60
448.62	2499.69
448.80	2331.17
448.99	2506.71
449.17	2506.71
449.36	2513.74
449.54	2509.05
449.73	2469.27
449.91	2485.65
450.10	2602.68
450.28	2518.42
450.46	2605.02
450.65	2560.55
450.83	2532.46
451.02	2450.54
451.20	2567.57
451.39	2532.46
451.57	2553.52
451.76	2502.03
451.94	2506.71
452.13	2677.57
452.31	2609.70
452.49	2431.82
452.68	2537.14
452.86	2553.52
453.05	2518.42
453.23	2696.30
453.42	2616.72
453.60	2628.42
453.78	2663.53
453.97	2658.85
454.15	2565.23
454.34	2623.74
454.52	2572.25
454.70	2747.79
454.89	2813.32
455.07	2717.36
455.26	2686.94
455.44	2752.47
455.62	2773.53
455.81	2806.30
455.99	2731.41
456.17	2829.71
456.36	2855.45
456.54	2932.69
456.73	2792.26
456.91	2864.82
457.09	2780.56
457.28	2906.95
457.46	2888.22
457.64	2860.13
457.83	2885.88
458.01	2818.00
458.19	3000.57
458.38	2946.73
458.56	2956.10
458.74	2935.03
458.93	2949.08
459.11	2935.03
459.29	2958.44
459.48	2869.50
459.66	2899.92
459.84	3180.79
460.03	3185.47
460.21	3054.40
460.39	3042.70
460.57	3126.96
460.76	3199.51
460.94	3171.43
461.12	2951.42
461.31	3094.19
461.49	3162.06
461.67	3035.67
461.85	3166.74
462.04	3073.12
462.22	3737.84
462.40	3155.04
462.59	3171.43
462.77	3288.45
462.95	3239.30
463.13	3138.66
463.32	3300.16
463.50	3258.03
463.68	3117.59
463.86	3162.06
464.05	3251.00
464.23	3232.28
464.41	3239.30
464.59	3318.88
464.78	3157.38
464.96	3187.81
465.14	3246.32
465.32	3241.64
465.50	3353.99
465.69	3356.33
465.87	3321.22
466.05	3445.27
466.23	3337.60
466.41	3396.12
466.60	3407.82
466.78	3325.90
466.96	3405.48
467.14	3370.37
467.32	3440.59
467.51	3449.95
467.69	3361.01
467.87	3396.12
468.05	3370.37
468.23	3468.67
468.41	3414.84
468.60	3482.72
468.78	3517.83
468.96	3412.50
469.14	3459.31
469.32	3403.14
469.50	3442.93
469.69	3618.47
469.87	3581.02
470.05	3688.68
470.23	3555.27
470.41	3620.81
470.59	3644.21
470.77	3777.62
470.95	3698.05
471.14	3688.68
471.32	3669.96
471.50	3688.68
471.68	3658.26
471.86	3674.64
472.04	3796.35
472.22	3812.73
472.40	3700.39
472.58	3747.20
472.77	3768.26
472.95	3915.72
473.13	3981.25
473.31	3920.40
473.49	3894.65
473.67	3843.16
473.85	3948.48
474.03	3967.21
474.21	4004.66
474.39	4049.13
474.57	4032.74
474.75	4088.92
474.93	4081.89
475.12	3985.93
475.30	4011.68
475.48	3939.12
475.66	4009.34
475.84	3995.29
476.02	4161.47
476.20	4301.90
476.38	4311.27
476.56	4212.96
476.74	4191.90
476.92	4339.35
477.10	4255.09
477.28	4306.59
477.46	4404.89
477.64	4491.49
477.82	4507.87
478.00	4594.47
478.18	4617.88
478.36	4620.22
478.54	4711.50
478.72	4627.24
478.90	4580.43
479.08	4688.09
479.26	4744.27
479.44	4755.97
479.62	4854.27
479.80	4840.23
479.98	4837.89
480.16	4875.34
480.34	4802.78
480.52	5018.11
480.70	4999.38
480.88	4926.83
481.06	5022.79
481.24	5090.67
481.41	5013.43
481.59	5320.04
481.77	5186.63
481.95	5177.26
482.13	5280.25
482.31	5142.16
482.49	5544.73
482.67	5467.49
482.85	5575.16
483.03	5486.22
483.21	5636.01
483.39	5816.23
483.57	5664.10
483.74	5671.12
483.92	5547.07
484.10	5537.71
484.28	5987.09
484.46	5977.73
484.64	6050.28
484.82	6146.25
485.00	5825.59
485.18	6094.76
485.35	6092.41
485.53	6040.92
485.71	6118.16
485.89	6286.68
486.07	6132.20
486.25	6221.14
486.43	6265.61
486.61	6551.16
486.78	6602.65
486.96	6586.27
487.14	6499.67
487.32	6656.48
487.50	6782.87
487.68	6733.72
487.85	6665.85
488.03	6878.83
488.21	6927.99
488.39	6864.79
488.57	7180.76
488.75	6913.94
488.92	7442.90
489.10	7105.87
489.28	7129.27
489.46	7122.25
489.64	7222.89
489.81	7215.87
489.99	7433.54
490.17	7346.94
490.35	7531.84
490.53	7459.29
490.70	7779.94
490.88	7440.56
491.06	7721.43
491.24	7564.61
491.41	7751.85
491.59	7723.77
491.77	7667.60
491.95	7918.03
492.13	7868.88
492.30	7988.25
492.48	7770.58
492.66	8011.65
492.84	7878.24
493.01	8088.89
493.19	8016.33
493.37	8236.35
493.54	8131.02
493.72	8369.76
493.90	8280.82
494.08	8138.04
494.25	8486.78
494.43	8458.70
494.61	8463.38
494.79	8613.17
494.96	8535.93
495.14	8554.66
495.32	8669.34
495.49	8842.54
495.67	8746.58
495.85	8816.80
496.02	9060.21
496.20	8959.57
496.38	8929.14
496.55	9069.58
496.73	9282.56
496.91	9291.93
497.09	9071.92
497.26	9207.67
497.44	8987.66
497.62	9301.29
497.79	9280.22
497.97	9184.26
498.14	9198.31
498.32	9327.03
498.50	9359.80
498.67	9579.81
498.85	9603.22
499.03	9619.60
499.20	9715.56
499.38	9549.39
499.56	9652.37
499.73	10003.45
499.91	9942.60
500.08	9970.68
500.26	9785.78
500.44	9872.38
500.61	9769.40
500.79	9994.09
500.97	9823.23
501.14	10071.33
501.32	10211.76
501.49	9982.38
501.67	10019.83
501.84	10202.40
502.02	10279.63
502.20	10373.25
502.37	10333.47
502.55	10293.68
502.72	10359.21
502.90	10391.98
503.07	10300.70
503.25	10333.47
503.43	10450.49
503.60	10471.56
503.78	10560.50
503.95	10483.26
504.13	10499.64
504.30	10703.27
504.48	10651.78
504.65	10595.61
504.83	10733.70
505.01	11014.56
505.18	10768.80
505.36	10913.92
505.53	11037.97
505.71	11049.67
505.88	10965.41
506.06	10782.85
506.23	10953.71
506.41	11190.10
506.58	11108.18
506.76	11250.96
506.93	11169.04
507.11	11105.84
507.28	11260.32
507.46	11403.09
507.63	11218.19
507.81	11370.32
507.98	11171.38
508.16	11204.14
508.33	11227.55
508.50	11232.23
508.68	11360.96
508.85	11602.04
509.03	11637.14
509.20	11442.88
509.38	11793.96
509.55	11705.02
509.73	11747.15
509.90	11721.40
510.08	11606.72
510.25	11557.57
510.42	11927.37
510.60	11878.22
510.77	11903.96
510.95	12217.60
511.12	12105.25
511.30	12004.61
511.47	12159.08
511.64	12084.19
511.82	12278.45
511.99	12517.18
512.17	12414.20
512.34	12425.90
512.51	12276.11
512.69	12231.64
512.86	12435.27
513.04	12386.12
513.21	12439.95
513.38	12538.25
513.56	12456.33
513.73	12285.47
513.90	12603.78
514.08	12486.76
514.25	12437.61
514.43	12578.04
514.60	12727.83
514.77	12828.48
514.95	12547.61
515.12	12432.93
515.29	12585.06
515.47	12816.77
515.64	12931.46
515.81	12784.01
515.99	12886.99
516.16	12996.99
516.33	13156.15
516.51	13144.45
516.68	12999.34
516.85	13050.83
517.03	13109.34
517.20	13259.13
517.37	13378.50
517.54	13350.42
517.72	13345.73
517.89	13523.62
518.06	13029.76
518.24	13029.76
518.41	13172.54
518.58	13312.97
518.75	13324.67
518.93	13511.91
519.10	13209.98
519.27	13554.04
519.45	13685.11
519.62	13523.62
519.79	13692.13
519.96	13532.98
520.14	13734.26
520.31	13544.68
520.48	13692.13
520.65	13799.80
520.83	13652.34
521.00	13640.64
521.17	13593.83
521.34	13722.56
521.52	13919.17
521.69	14071.30
521.86	14092.37
522.03	13610.22
522.20	13994.06
522.38	14019.81
522.55	14188.33
522.72	14120.45
522.89	14099.39
523.07	14153.22
523.24	14134.50
523.41	14293.65
523.58	14054.92
523.75	14073.64
523.92	14305.35
524.10	14221.10
524.27	14380.25
524.44	14525.36
524.61	14511.32
524.78	14391.95
524.96	14586.22
525.13	14394.29
525.30	14700.90
525.47	14483.24
525.64	14558.13
525.81	14752.40
525.98	14504.30
526.16	14487.92
526.33	14827.29
526.50	14508.98
526.67	14799.21
526.84	14303.01
527.01	14377.91
527.18	14789.85
527.36	14824.95
527.53	14927.94
527.70	14824.95
527.87	14970.07
528.04	14710.27
528.21	14712.61
528.38	14939.64
528.55	15166.67
528.72	14923.26
528.89	15159.65
529.07	15037.94
529.24	15040.28
529.41	15169.01
529.58	15199.44
529.75	15044.96
529.92	15089.43
530.09	15103.48
530.26	15374.98
530.43	15250.93
530.60	15293.06
530.77	15321.15
530.94	15281.36
531.11	15400.72
531.28	15101.14
531.46	15257.95
531.63	15452.22
531.80	15105.82
531.97	15403.07
532.14	15290.72
532.31	15178.37
532.48	15662.86
532.65	15597.33
532.82	15522.43
532.99	15253.27
533.16	15531.80
533.33	15590.31
533.50	15824.36
533.67	15564.56
533.84	15541.16
534.01	15791.59
534.18	15763.51
534.35	15658.18
534.52	15557.54
534.69	16030.33
534.86	15948.41
535.03	15934.37
535.20	15934.37
535.37	15749.46
535.54	16060.76
535.71	15772.87
535.88	16116.93
536.05	16156.72
536.22	15873.51
536.38	16161.40
536.55	15976.50
536.72	16168.42
536.89	16067.78
537.06	15990.54
537.23	15880.53
537.40	16105.23
537.57	16053.73
537.74	16437.58
537.91	16451.63
538.08	16294.81
538.25	16074.80
538.42	16311.19
538.59	16215.23
538.75	16109.91
538.92	16147.36
539.09	16308.85
539.26	16276.09
539.43	16170.76
539.60	16294.81
539.77	16430.56
539.94	16926.75
540.11	16573.33
540.28	16938.46
540.44	16779.30
540.61	16510.14
540.78	16924.41
540.95	17046.12
541.12	17083.57
541.29	17011.01
541.46	17114.00
541.62	17081.23
541.79	16987.61
541.96	16697.38
542.13	17118.68
542.30	17027.40
542.47	17207.62
542.63	17219.32
542.80	16945.48
542.97	17359.75
543.14	17355.07
543.31	17109.32
543.48	17160.81
543.64	17563.38
543.81	17500.19
543.98	17535.29
544.15	17287.20
544.32	17500.19
544.48	17408.90
544.65	17345.71
544.82	17200.60
544.99	17034.42
545.16	17315.28
545.32	17413.59
545.49	17982.34
545.66	18331.08
545.83	18539.38
546.00	18417.68
546.16	17862.97
546.33	17575.08
546.50	17523.59
546.67	17502.53
546.83	17399.54
547.00	17661.68
547.17	17406.56
547.34	17334.01
547.50	17284.86
547.67	17291.88
547.84	17472.10
548.00	17474.44
548.17	17453.37
548.34	17514.23
548.51	17586.79
548.67	17465.08
548.84	17277.83
549.01	17401.88
549.18	17458.06
549.34	17432.31
549.51	17336.35
549.68	17493.16
549.84	17432.31
550.01	17694.45
550.18	17561.04
550.34	17696.79
550.51	17490.82
550.68	17731.90
550.84	17275.49
551.01	17757.64
551.18	17668.70
551.34	17743.60
551.51	17628.92
551.68	17647.64
551.84	17774.03
552.01	17720.20
552.18	17661.68
552.34	17668.70
552.51	17364.43
552.68	17668.70
552.84	17668.70
553.01	17778.71
553.18	17738.92
553.34	17865.31
553.51	17841.90
553.67	17715.51
553.84	17958.93
554.01	17914.46
554.17	17839.56
554.34	17942.55
554.51	17884.03
554.67	17853.61
554.84	17902.76
555.00	17895.74
555.17	17860.63
555.33	17830.20
555.50	17759.98
555.67	17965.95
555.83	17926.16
556.00	17818.50
556.16	18438.74
556.33	17909.78
556.50	17982.34
556.66	18080.64
556.83	18031.49
556.99	18216.39
557.16	17825.52
557.32	17994.04
557.49	17774.03
557.65	17867.65
557.82	17703.81
557.98	17617.21
558.15	18291.29
558.32	17916.80
558.48	18104.04
558.65	18223.41
558.81	18045.53
558.98	18106.38
559.14	17872.33
559.31	18277.24
559.47	17919.14
559.64	18162.56
559.80	17905.10
559.97	18235.11
560.13	18068.94
560.30	18291.29
560.46	18057.23
560.63	17982.34
560.79	18288.95
560.96	18218.73
561.12	18150.85
561.29	18036.17
561.45	18162.56
561.61	18260.86
561.78	18232.77
561.94	18396.61
562.11	18082.98
562.27	18312.35
562.44	18129.79
562.60	18113.41
562.77	18412.99
562.93	18139.15
563.10	18670.45
563.26	18036.17
563.42	18441.08
563.59	18253.84
563.75	18192.98
563.92	18235.11
564.08	18469.17
564.24	18232.77
564.41	18338.10
564.57	18104.04
564.74	18026.81
564.90	18679.82
565.07	18239.79
565.23	18370.86
565.39	18185.96
565.56	18284.26
565.72	18080.64
565.88	18207.03
566.05	18328.74
566.21	18146.17
566.38	18225.75
566.54	18310.01
566.70	18448.10
566.87	18544.06
567.03	18391.93
567.19	18478.53
567.36	18314.69
567.52	18260.86
567.68	18391.93
567.85	18115.75
568.01	18464.49
568.17	18319.37
568.34	18499.59
568.50	18462.15
568.66	18373.21
568.83	18532.36
568.99	18476.19
569.15	18113.41
569.32	18265.54
569.48	18207.03
569.64	18230.43
569.81	18157.88
569.97	18284.26
570.13	18609.60
570.30	18111.07
570.46	18490.23
570.62	18635.35
570.78	18553.43
570.95	18008.08
571.11	18623.64
571.27	18520.66
571.43	18293.63
571.60	18438.74
571.76	18558.11
571.92	18483.21
572.09	18590.88
572.25	18345.12
572.41	18459.81
572.57	18382.57
572.74	18700.88
572.90	18279.58
573.06	18548.75
573.22	18834.29
573.38	18656.41
573.55	18319.37
573.71	18815.57
573.87	18794.50
574.03	18361.50
574.20	18508.96
574.36	18469.17
574.52	18260.86
574.68	18317.03
574.84	18665.77
575.01	18508.96
575.17	18443.42
575.33	18277.24
575.49	18424.70
575.65	18630.66
575.82	18331.08
575.98	18321.71
576.14	18705.56
576.30	18412.99
576.46	18841.31
576.62	18595.56
576.79	18604.92
576.95	18668.11
577.11	19080.05
577.27	18686.84
577.43	18691.52
577.59	18675.13
577.75	18354.48
577.92	18590.88
578.08	18412.99
578.24	18537.04
578.40	18560.45
578.56	18827.27
578.72	18824.93
578.88	19061.32
579.04	18789.82
579.21	18623.64
579.37	18691.52
579.53	18527.68
579.69	18618.96
579.85	18581.51
580.01	18438.74
580.17	18422.36
580.33	18572.15
580.49	18754.71
580.65	18850.67
580.82	18768.76
580.98	18565.13
581.14	18757.05
581.30	19157.28
581.46	18581.51
581.62	18618.96
581.78	18335.76
581.94	18445.76
582.10	18597.90
582.26	18656.41
582.42	18686.84
582.58	18710.24
582.74	18787.48
582.90	18876.42
583.06	18633.00
583.22	18663.43
583.38	18743.01
583.54	18686.84
583.70	18487.89
583.86	18717.26
584.02	18651.73
584.18	19037.92
584.34	18860.04
584.50	18675.13
584.66	18686.84
584.82	18738.33
584.98	18757.05
585.14	18759.39
585.30	18565.13
585.46	18597.90
585.62	18789.82
585.78	18452.78
585.94	18572.15
586.10	19005.15
586.26	18743.01
586.42	18995.79
586.58	19000.47
586.74	18813.23
586.90	19084.73
587.06	18647.05
587.22	18651.73
587.38	18916.21
587.54	18595.56
587.70	18848.33
587.86	18958.34
588.02	19066.00
588.18	18953.66
588.34	18623.64
588.49	18820.25
588.65	18726.63
588.81	18607.26
588.97	18740.67
589.13	18588.53
589.29	18780.46
589.45	18726.63
589.61	18476.19
589.77	18871.74
589.93	18773.44
590.08	18647.05
590.24	18721.95
590.40	18885.78
590.56	18878.76
590.72	18827.27
590.88	18504.28
591.04	18384.91
591.20	18951.32
591.35	19091.75
591.51	19288.35
591.67	18874.08
591.83	18869.40
591.99	18672.79
592.15	18864.72
592.31	19019.19
592.46	18817.91
592.62	18848.33
592.78	18909.19
592.94	18972.38
593.10	18967.70
