SpectraSuite Data File
++++++++++++++++++++++++++++++++++++
Date: Fri Oct 04 11:39:33 GMT-05:00 2013
User: price-jones
Dark Spectrum Present: No
Reference Spectrum Present: No
Number of Sampled Component Spectra: 1
Spectrometers: USB2+H05261
Integration Time (usec): 100000 (USB2+H05261)
Spectra Averaged: 1 (USB2+H05261)
Boxcar Smoothing: 0 (USB2+H05261)
Correct for Electrical Dark: No (USB2+H05261)
Strobe/Lamp Enabled: No (USB2+H05261)
Correct for Detector Non-linearity: No (USB2+H05261)
Correct for Stray Light: No (USB2+H05261)
Number of Pixels in Processed Spectrum: 2048
>>>>>Begin Processed Spectral Data<<<<<
365.73	32.77
365.92	32.77
366.12	32.77
366.32	0.00
366.52	0.00
366.72	0.00
366.91	0.00
367.11	0.00
367.31	0.00
367.51	0.00
367.70	0.00
367.90	0.00
368.10	0.00
368.30	0.00
368.49	0.00
368.69	4.68
368.89	0.00
369.09	0.00
369.28	11.70
369.48	18.72
369.68	0.00
369.87	18.72
370.07	37.45
370.27	131.07
370.47	107.66
370.66	145.11
370.86	198.95
371.06	236.39
371.25	292.57
371.45	220.01
371.65	299.59
371.84	280.86
372.04	234.05
372.24	269.16
372.44	245.76
372.63	283.20
372.83	297.25
373.03	369.80
373.22	250.44
373.42	327.68
373.62	313.63
373.81	351.08
374.01	390.87
374.21	306.61
374.40	318.31
374.60	381.51
374.79	290.23
374.99	337.04
375.19	369.80
375.38	372.15
375.58	346.40
375.78	468.11
375.97	339.38
376.17	400.23
376.37	388.53
376.56	372.15
376.76	344.06
376.95	388.53
377.15	386.19
377.35	386.19
377.54	322.99
377.74	376.83
377.93	351.08
378.13	379.17
378.33	367.46
378.52	404.91
378.72	418.96
378.91	418.96
379.11	353.42
379.31	365.12
379.50	341.72
379.70	423.64
379.89	365.12
380.09	440.02
380.28	407.25
380.48	404.91
380.68	348.74
380.87	400.23
381.07	447.04
381.26	442.36
381.46	449.38
381.65	381.51
381.85	362.78
382.04	472.79
382.24	435.34
382.43	393.21
382.63	395.55
382.83	416.62
383.02	461.09
383.22	512.58
383.41	463.43
383.61	451.72
383.80	409.59
384.00	430.66
384.19	456.40
384.39	449.38
384.58	414.27
384.78	503.22
384.97	599.18
385.17	425.98
385.36	454.06
385.56	447.04
385.75	470.45
385.95	514.92
386.14	479.81
386.34	454.06
386.53	461.09
386.72	486.83
386.92	559.39
387.11	578.11
387.31	507.90
387.50	433.00
387.70	440.02
387.89	482.15
388.09	521.94
388.28	573.43
388.48	547.69
388.67	482.15
388.86	554.71
389.06	624.92
389.25	507.90
389.45	552.37
389.64	547.69
389.84	573.43
390.03	596.84
390.22	552.37
390.42	596.84
390.61	543.00
390.81	564.07
391.00	543.00
391.19	669.39
391.39	592.16
391.58	568.75
391.78	671.73
391.97	706.84
392.16	650.67
392.36	627.26
392.55	781.74
392.75	648.33
392.94	641.31
393.13	702.16
393.33	711.52
393.52	608.54
393.71	702.16
393.91	627.26
394.10	711.52
394.29	655.35
394.49	655.35
394.68	697.48
394.88	727.91
395.07	753.65
395.26	779.40
395.46	751.31
395.65	842.59
395.84	758.33
396.04	744.29
396.23	730.25
396.42	765.36
396.62	772.38
396.81	814.51
397.00	793.44
397.19	772.38
397.39	772.38
397.58	770.04
397.77	830.89
397.97	844.93
398.16	868.34
398.35	875.36
398.55	919.83
398.74	933.87
398.93	861.32
399.12	837.91
399.32	915.15
399.51	901.11
399.70	952.60
399.90	877.70
400.09	936.21
400.28	985.37
400.47	959.62
400.67	964.30
400.86	973.66
401.05	987.71
401.24	1067.28
401.44	973.66
401.63	889.40
401.82	1025.15
402.01	999.41
402.21	1001.75
402.40	1064.94
402.59	1060.26
402.78	1083.67
402.97	1018.13
403.17	1095.37
403.36	1100.05
403.55	1043.88
403.74	1174.95
403.93	1259.21
404.13	1231.12
404.32	1200.69
404.51	1235.80
404.70	1231.12
404.89	1179.63
405.09	1273.25
405.28	1313.04
405.47	1266.23
405.66	1380.92
405.85	1291.98
406.05	1245.16
406.24	1420.71
406.43	1270.91
406.62	1327.08
406.81	1399.64
407.00	1399.64
407.20	1369.21
407.39	1404.32
407.58	1404.32
407.77	1437.09
407.96	1472.20
408.15	1451.13
408.34	1460.49
408.54	1542.41
408.73	1563.48
408.92	1530.71
409.11	1589.22
409.30	1558.80
409.49	1696.89
409.68	1533.05
409.87	1554.12
410.07	1629.01
410.26	1638.38
410.45	1645.40
410.64	1643.06
410.83	1795.19
411.02	1645.40
411.21	1788.17
411.40	1811.57
411.59	1739.02
411.78	1809.23
411.98	1799.87
412.17	1837.32
412.36	1858.39
412.55	1916.90
412.74	2005.84
412.93	2106.48
413.12	1977.75
413.31	2125.21
413.50	2052.65
413.69	2139.25
413.88	2253.94
414.07	1973.07
414.26	2155.63
414.45	2120.53
414.64	2181.38
414.83	2235.21
415.02	2326.49
415.22	2286.70
415.41	2333.51
415.60	2256.28
415.79	2363.94
415.98	2422.45
416.17	2586.29
416.36	2370.96
416.55	2349.90
416.74	2534.80
416.93	2478.63
417.12	2541.82
417.31	2534.80
417.50	2612.04
417.69	2649.49
417.88	2614.38
418.07	2593.31
418.26	2675.23
418.45	2693.96
418.64	2818.00
418.83	2775.88
419.02	2747.79
419.21	2818.00
419.39	2843.75
419.58	2743.11
419.77	2829.71
419.96	2974.82
420.15	2904.60
420.34	2949.08
420.53	2920.99
420.72	2958.44
420.91	2953.76
421.10	2956.10
421.29	3126.96
421.48	2993.55
421.67	3005.25
421.86	3019.29
422.05	3152.70
422.24	3091.85
422.43	3028.65
422.61	3070.78
422.80	3096.53
422.99	3222.92
423.18	3197.17
423.37	3117.59
423.56	3136.32
423.75	3124.62
423.94	3133.98
424.13	2939.71
424.32	3021.63
424.50	3066.10
424.69	3370.37
424.88	3274.41
425.07	3328.24
425.26	3281.43
425.45	3220.58
425.64	3215.90
425.83	3129.30
426.01	3232.28
426.20	3136.32
426.39	3094.19
426.58	3281.43
426.77	3239.30
426.96	3349.31
427.15	3222.92
427.33	3295.47
427.52	3279.09
427.71	3318.88
427.90	3428.88
428.09	3485.06
428.28	3485.06
428.46	3433.57
428.65	3592.72
428.84	3592.72
429.03	3604.42
429.22	3489.74
429.40	3653.58
429.59	3552.93
429.78	3468.67
429.97	3396.12
430.16	3471.01
430.34	3564.64
430.53	3672.30
430.72	3599.74
430.91	3618.47
431.10	3559.95
431.28	3667.62
431.47	3763.58
431.66	3730.81
431.85	3772.94
432.03	3815.07
432.22	4021.04
432.41	3786.99
432.60	3946.14
432.79	3808.05
432.97	3737.84
433.16	3955.51
433.35	3962.53
433.54	3953.16
433.72	3960.19
433.91	3913.38
434.10	3955.51
434.28	3946.14
434.47	4011.68
434.66	4189.56
434.85	4163.81
435.03	4067.85
435.22	4327.65
435.41	4596.81
435.59	4507.87
435.78	4280.84
435.97	4285.52
436.16	4332.33
436.34	4208.28
436.53	4196.58
436.72	4327.65
436.90	4152.11
437.09	4311.27
437.28	4308.93
437.46	4292.54
437.65	4234.03
437.84	4269.14
438.02	4348.72
438.21	4559.36
438.40	4440.00
438.58	4606.17
438.77	4608.51
438.96	4603.83
439.14	4765.33
439.33	4723.20
439.52	4718.52
439.70	4784.06
439.89	4641.28
440.08	4746.61
440.26	4870.65
440.45	4727.88
440.63	4973.64
440.82	4954.91
441.01	4856.61
441.19	4882.36
441.38	5001.72
441.57	5114.07
441.75	5139.82
441.94	5219.39
442.12	5114.07
442.31	5270.89
442.50	5128.11
442.68	5090.67
442.87	5287.27
443.05	5408.98
443.24	5371.53
443.43	5231.10
443.61	5298.97
443.80	5530.69
443.98	5170.24
444.17	5203.01
444.35	5383.23
444.54	5509.62
444.73	5376.21
444.91	5364.51
445.10	5490.90
445.28	5186.63
445.47	5341.10
445.65	5523.66
445.84	5523.66
446.02	5479.19
446.21	5544.73
446.39	5591.54
446.58	5633.67
446.77	5568.13
446.95	5556.43
447.14	5547.07
447.32	5694.52
447.51	5535.37
447.69	5533.03
447.88	5607.92
448.06	5521.32
448.25	5432.38
448.43	5579.84
448.62	5537.71
448.80	5736.65
448.99	5713.25
449.17	5593.88
449.36	5696.86
449.54	5537.71
449.73	5760.06
449.91	5942.62
450.10	5841.98
450.28	5973.05
450.46	6003.47
450.65	5963.68
450.83	5942.62
451.02	5823.25
451.20	5832.62
451.39	5996.45
451.57	6047.94
451.76	6125.18
451.94	5959.00
452.13	5921.56
452.31	6181.35
452.49	5989.43
452.68	6197.74
452.86	6099.44
453.05	6108.80
453.23	6139.23
453.42	6090.07
453.60	5984.75
453.78	6085.39
453.97	6125.18
454.15	6106.46
454.34	6132.20
454.52	6305.40
454.70	6186.04
454.89	6326.47
455.07	6296.04
455.26	6427.11
455.44	6356.90
455.62	6399.02
455.81	6539.46
455.99	6480.94
456.17	6644.78
456.36	6494.99
456.54	6483.28
456.73	6621.38
456.91	6820.32
457.09	6703.29
457.28	6773.51
457.46	6656.48
457.64	6953.73
457.83	6913.94
458.01	6661.16
458.19	6906.92
458.38	6832.02
458.56	6920.96
458.74	6897.56
458.93	7040.33
459.11	7030.97
459.29	7117.57
459.48	7183.10
459.66	6817.98
459.84	7117.57
460.03	7133.95
460.21	7077.78
460.39	7148.00
460.57	7012.24
460.76	7110.55
460.94	7098.84
461.12	7204.17
461.31	7157.36
461.49	7318.86
461.67	7211.19
461.85	7382.05
462.04	7297.79
462.22	7480.35
462.40	7569.29
462.59	7459.29
462.77	7368.01
462.95	7475.67
463.13	7510.78
463.32	7527.16
463.50	7639.51
463.68	7473.33
463.86	7513.12
464.05	7583.34
464.23	7683.98
464.41	7667.60
464.59	7421.84
464.78	7667.60
464.96	7702.70
465.14	7569.29
465.32	7801.01
465.50	7758.88
465.69	7850.16
465.87	7815.05
466.05	7838.45
466.23	7723.77
466.41	7798.66
466.60	8079.53
466.78	7812.71
466.96	7782.28
467.14	7868.88
467.32	8187.19
467.51	8163.79
467.69	7899.31
467.87	7964.84
468.05	8121.66
468.23	7932.08
468.41	8004.63
468.60	8159.11
468.78	8182.51
468.96	8009.31
469.14	8102.93
469.32	8393.16
469.50	8196.56
469.69	8360.39
469.87	8456.36
470.05	8334.65
470.23	8444.65
470.41	8393.16
470.59	8554.66
470.77	8252.73
470.95	8400.18
471.14	8582.74
471.32	8477.42
471.50	8739.56
471.68	8917.44
471.86	8702.11
472.04	8659.98
472.22	8863.61
472.40	8730.20
472.58	8809.78
472.77	8734.88
472.95	8968.93
473.13	9174.90
473.31	8905.74
473.49	9078.94
473.67	8898.72
473.85	9165.54
474.03	9085.96
474.21	9291.93
474.39	9334.06
474.57	9434.70
474.75	9437.04
474.93	9497.89
475.12	9455.76
475.30	9511.94
475.48	9631.30
475.66	9682.80
475.84	9764.72
476.02	9591.52
476.20	9874.72
476.38	9951.96
476.56	10153.24
476.74	10087.71
476.92	10125.16
477.10	10277.29
477.28	9998.77
477.46	10176.65
477.64	10490.28
477.82	10464.54
478.00	10581.56
478.18	10956.05
478.36	10551.14
478.54	10717.31
478.72	11157.33
478.90	10953.71
479.08	10984.13
479.26	11262.66
479.44	11138.61
479.62	11286.06
479.80	11398.41
479.98	11756.51
480.16	11536.50
480.34	11468.62
480.52	11838.43
480.70	11808.00
480.88	11609.06
481.06	11744.81
481.24	11922.69
481.41	12058.44
481.59	12042.06
481.77	12418.88
481.95	12241.00
482.13	12545.27
482.31	12404.84
482.49	12786.35
482.67	12875.29
482.85	12884.65
483.03	13095.30
483.21	13219.35
483.39	13256.79
483.57	13209.98
483.74	13331.69
483.92	13390.20
484.10	13514.25
484.28	13561.06
484.46	13937.89
484.64	14010.45
484.82	13827.88
485.00	14148.54
485.18	14209.39
485.35	14207.05
485.53	14417.70
485.71	14455.15
485.89	14899.85
486.07	14953.68
486.25	14974.75
486.43	14679.84
486.61	15180.71
486.78	14986.45
486.96	15138.58
487.14	15578.61
487.32	15391.36
487.50	15583.29
487.68	15515.41
487.85	16222.25
488.03	16027.99
488.21	16365.03
488.39	16329.92
488.57	16500.78
488.75	16395.45
488.92	16823.77
489.10	16886.97
489.28	16952.50
489.46	17291.88
489.64	17062.51
489.81	17429.97
489.99	17511.89
490.17	17425.29
490.35	17448.69
490.53	17935.53
490.70	17790.41
490.88	18050.21
491.06	18216.39
491.24	18094.68
491.41	18324.05
491.59	18239.79
491.77	18513.64
491.95	18555.77
492.13	18785.14
492.30	18810.89
492.48	19089.41
492.66	19000.47
492.84	19087.07
493.01	18881.10
493.19	18941.96
493.37	19351.55
493.54	19510.71
493.72	19866.47
493.90	19594.96
494.08	20039.67
494.25	20269.04
494.43	20325.21
494.61	20556.93
494.79	20397.77
494.96	20528.84
495.14	20641.18
495.32	20521.82
495.49	20805.02
495.67	20531.18
495.85	20875.24
496.02	20996.95
496.20	21301.22
496.38	21151.42
496.55	21624.21
496.73	21661.66
496.91	21678.04
497.09	22026.78
497.26	22052.53
497.44	21752.94
497.62	21827.84
497.79	22214.02
497.97	21954.22
498.14	22361.48
498.32	22530.00
498.50	22558.08
498.67	22670.43
498.85	22824.90
499.03	22808.52
499.20	22899.80
499.38	22857.67
499.56	22986.40
499.73	23620.69
499.91	23311.74
500.08	23522.38
500.26	23480.25
500.44	23403.02
500.61	23461.53
500.79	23676.86
500.97	23660.48
501.14	23917.93
501.32	23990.49
501.49	24208.16
501.67	23901.55
501.84	23957.72
502.02	24180.07
502.20	24414.13
502.37	24482.00
502.55	24552.22
502.72	24676.27
502.90	24762.87
503.07	24912.66
503.25	25123.31
503.43	24772.23
503.60	24872.87
503.78	25317.57
503.95	24952.45
504.13	25081.18
504.30	25043.73
504.48	25245.02
504.65	25472.05
504.83	25493.12
505.01	25633.55
505.18	25883.98
505.36	25853.56
505.53	25671.00
505.71	25874.62
505.88	26174.21
506.06	26005.69
506.23	26623.59
506.41	26066.55
506.58	26593.17
506.76	26436.35
506.93	26132.08
507.11	26434.01
507.28	26909.14
507.46	26661.04
507.63	26649.34
507.81	26897.44
507.98	26834.24
508.16	26951.27
508.33	26897.44
508.50	26972.33
508.68	27208.73
508.85	27756.41
509.03	27688.54
509.20	27613.64
509.38	28004.51
509.55	28063.02
509.73	28254.95
509.90	27709.60
510.08	27988.13
510.25	27889.82
510.42	28166.01
510.60	28432.83
510.77	28261.97
510.95	28414.10
511.12	28521.77
511.30	28407.08
511.47	28961.79
511.64	28570.92
511.82	28966.47
511.99	29137.33
512.17	29085.84
512.34	28893.91
512.51	29071.79
512.69	28992.22
512.86	29319.89
513.04	29479.05
513.21	29507.13
513.38	29694.38
513.56	29343.30
513.73	29378.40
513.90	29504.79
514.08	29504.79
514.25	30129.72
514.43	29860.55
514.60	30195.25
514.77	30078.22
514.95	30169.51
515.12	30185.89
515.29	29811.40
515.47	30249.08
515.64	30178.87
515.81	30335.68
515.99	30553.35
516.16	30677.40
516.33	30993.37
516.51	30967.63
516.68	30857.62
516.85	30508.88
517.03	31161.89
517.20	31112.74
517.37	31321.05
517.54	31222.75
517.72	31220.41
517.89	31241.47
518.06	31283.60
518.24	31103.38
518.41	31625.32
518.58	31674.47
518.75	31456.80
518.93	31826.60
519.10	31660.43
519.27	32051.30
519.45	31466.16
519.62	31814.90
519.79	32252.58
519.96	32088.74
520.14	31906.18
520.31	32458.55
520.48	32175.34
520.65	32807.29
520.83	32325.14
521.00	32393.01
521.17	32409.40
521.34	32371.95
521.52	32512.38
521.69	32545.15
521.86	33081.13
522.03	33233.27
522.20	32931.34
522.38	33153.69
522.55	33500.09
522.72	33326.89
522.89	33291.78
523.07	33628.82
523.24	33404.13
523.41	33483.70
523.58	33305.82
523.75	33523.49
523.92	33301.14
524.10	33720.10
524.27	33549.24
524.44	34178.84
524.61	34181.18
524.78	34031.39
524.96	33886.28
525.13	34080.54
525.30	34115.65
525.47	34281.83
525.64	34071.18
525.81	34443.32
525.98	34408.22
526.16	34216.29
526.33	34408.22
526.50	34604.82
526.67	34038.41
526.84	34726.53
527.01	34604.82
527.18	34670.36
527.36	34998.03
527.53	35028.46
527.70	35232.08
527.87	35131.44
528.04	35068.25
528.21	35019.10
528.38	35009.73
528.55	35133.78
528.72	34850.58
528.89	34976.97
529.07	35428.69
529.24	35377.20
529.41	35606.57
529.58	35115.06
529.75	35534.01
529.92	35461.46
530.09	35704.87
530.26	35374.86
530.43	35056.54
530.60	35662.74
530.77	35716.58
530.94	36128.51
531.11	35962.33
531.28	35826.58
531.46	35765.73
531.63	36137.87
531.80	36142.55
531.97	35864.03
532.14	36034.89
532.31	36004.46
532.48	36194.04
532.65	36421.08
532.82	35775.09
532.99	36594.28
533.16	36683.22
533.33	36334.48
533.50	37120.90
533.67	36767.48
533.84	36669.17
534.01	36388.31
534.18	36341.50
534.35	36781.52
534.52	36732.37
534.69	37350.27
534.86	37254.31
535.03	36926.63
535.20	36966.42
535.37	37137.28
535.54	36994.51
535.71	36992.17
535.88	37235.58
536.05	37184.09
536.22	37137.28
536.38	37132.60
536.55	37214.52
536.72	37546.87
536.89	37642.84
537.06	37462.61
537.23	37745.82
537.40	37368.99
537.57	37628.79
537.74	37607.73
537.91	38314.57
538.08	37607.73
538.25	37832.42
538.42	37897.95
538.59	37958.81
538.75	37816.04
538.92	38263.08
539.09	38176.48
539.26	38410.53
539.43	37970.51
539.60	38450.32
539.77	38333.29
539.94	38738.21
540.11	38370.74
540.28	38426.92
540.44	38408.19
540.61	38141.37
540.78	38813.10
540.95	38852.89
541.12	38878.64
541.29	39119.71
541.46	38756.93
541.62	38609.48
541.79	39250.78
541.96	38576.71
542.13	39049.50
542.30	39250.78
542.47	39325.68
542.63	39573.78
542.80	39548.03
542.97	39552.71
543.14	39903.79
543.31	39679.10
543.48	39332.70
543.64	39672.08
543.81	40273.60
543.98	39927.20
544.15	40194.02
544.32	39826.56
544.48	39924.86
544.65	39660.38
544.82	39739.96
544.99	39849.96
545.16	40149.55
545.32	39992.73
545.49	40699.58
545.66	41062.36
545.83	41214.49
546.00	40968.74
546.16	40252.53
546.33	40519.35
546.50	39901.45
546.67	39999.76
546.83	39810.17
547.00	39899.11
547.17	40196.36
547.34	40622.34
547.50	40634.04
547.67	40584.89
547.84	40268.92
548.00	40273.60
548.17	40610.64
548.34	40430.41
548.51	41085.76
548.67	40439.78
548.84	40470.20
549.01	40678.51
549.18	40273.60
549.34	40751.07
549.51	40278.28
549.68	40568.51
549.84	40767.45
550.01	40631.70
550.18	40474.88
550.34	40519.35
550.51	40725.32
550.68	41111.51
550.84	40502.97
551.01	40683.19
551.18	40589.57
551.34	40554.46
551.51	40924.27
551.68	41188.75
551.84	41139.60
552.01	40980.44
552.18	41249.60
552.34	41055.34
552.51	40921.93
552.68	41230.88
552.84	41223.86
553.01	41570.25
553.18	40804.90
553.34	41525.78
553.51	40966.40
553.67	41289.39
553.84	41717.71
554.01	41350.24
554.17	41111.51
554.34	41392.37
554.51	41315.14
554.67	41535.15
554.84	41338.54
555.00	41631.11
555.17	41535.15
555.33	41816.01
555.50	41127.89
555.67	41883.89
555.83	41443.87
556.00	41331.52
556.16	41713.03
556.33	41684.94
556.50	41626.43
556.66	41841.76
556.83	41251.94
556.99	41956.44
557.16	41860.48
557.32	41834.74
557.49	42209.22
557.65	41811.33
557.82	41687.28
557.98	41523.44
558.15	41525.78
558.32	41876.86
558.48	41516.42
558.65	42047.72
558.81	41666.22
558.98	42021.98
559.14	41928.36
559.31	41752.82
559.47	42073.47
559.64	41687.28
559.80	42295.82
559.97	42192.84
560.13	42031.34
560.30	42368.38
560.46	41921.34
560.63	42176.45
560.79	42017.30
560.96	42237.31
561.12	42082.83
561.29	41811.33
561.45	42082.83
561.61	42342.63
561.78	42249.01
561.94	42314.55
562.11	42059.43
562.27	41979.85
562.44	41972.83
562.60	42199.86
562.77	41937.72
562.93	42061.77
563.10	42412.85
563.26	42092.19
563.42	42848.19
563.59	42515.83
563.75	42806.06
563.92	42478.38
564.08	42440.93
564.24	42569.66
564.41	42621.16
564.57	42108.58
564.74	42574.34
564.90	42127.30
565.07	42618.81
565.23	42756.91
565.39	42436.25
565.56	42609.45
565.72	42218.58
565.88	42314.55
566.05	42340.29
566.21	42328.59
566.38	42396.46
566.54	42054.75
566.70	42532.22
566.87	42649.24
567.03	42564.98
567.19	43098.62
567.36	42775.63
567.52	42745.20
567.68	42742.86
567.85	42036.02
568.01	42452.64
568.17	42300.50
568.34	42944.15
568.50	42848.19
568.66	42476.04
568.83	43035.43
568.99	42555.62
569.15	42302.84
569.32	42497.11
569.48	42422.21
569.64	42525.19
569.81	42799.04
569.97	42450.30
570.13	42677.33
570.30	42349.65
570.46	42679.67
570.62	42892.66
570.78	42457.32
570.95	42497.11
571.11	42911.38
571.27	42490.09
571.43	42375.40
571.60	42630.52
571.76	42483.06
571.92	42934.79
572.09	42890.32
572.25	43356.08
572.41	42712.44
572.57	43068.20
572.74	43126.71
572.90	42417.53
573.06	42595.41
573.22	42602.43
573.38	42923.08
573.55	42738.18
573.71	43239.06
573.87	42691.37
574.03	42920.74
574.20	42773.29
574.36	42831.80
574.52	42768.61
574.68	42822.44
574.84	42586.05
575.01	42859.89
575.17	42728.82
575.33	42703.07
575.49	42670.31
575.65	42714.78
575.82	42932.45
575.98	42993.30
576.14	43201.61
576.30	43112.67
576.46	42948.83
576.62	42553.28
576.79	42958.19
576.95	43091.60
577.11	43288.21
577.27	42951.17
577.43	43166.50
577.59	42792.01
577.75	42899.68
577.92	42251.35
578.08	42567.32
578.24	42511.15
578.40	42405.83
578.56	42831.80
578.72	42988.62
578.88	43206.29
579.04	43349.06
579.21	43285.87
579.37	42967.55
579.53	43278.85
579.69	42693.71
579.85	42822.44
580.01	42941.81
580.17	42925.42
580.33	43012.02
580.49	42693.71
580.65	43171.18
580.82	43131.39
580.98	42541.58
581.14	43346.72
581.30	42909.04
581.46	43208.63
581.62	42382.42
581.78	42525.19
581.94	42515.83
582.10	42841.17
582.26	42763.93
582.42	42866.91
582.58	43374.81
582.74	43302.25
582.90	43143.09
583.06	43131.39
583.22	42618.81
583.38	42637.54
583.54	42904.36
583.70	42923.08
583.86	42810.74
584.02	43056.50
584.18	42862.23
584.34	43629.93
584.50	43009.68
584.66	43159.48
584.82	43054.15
584.98	43028.41
585.14	42689.03
585.30	42988.62
585.46	42590.73
585.62	43019.05
585.78	43182.88
585.94	42555.62
586.10	43337.36
586.26	42969.90
586.42	43419.28
586.58	43358.42
586.74	43328.00
586.90	42899.68
587.06	42646.90
587.22	43433.32
587.38	42806.06
587.54	43363.11
587.70	43849.94
587.86	43150.12
588.02	43030.75
588.18	43564.39
588.34	43257.78
588.49	43100.97
588.65	43023.73
588.81	42883.30
588.97	43274.16
589.13	43161.82
589.29	43164.16
589.45	43075.22
589.61	43246.08
589.77	43510.56
589.93	43400.55
590.08	43227.35
590.24	43419.28
590.40	43503.54
590.56	43611.20
590.72	43332.68
590.88	42920.74
