SpectraSuite Data File
++++++++++++++++++++++++++++++++++++
Date: Fri Oct 04 11:40:07 GMT-05:00 2013
User: price-jones
Dark Spectrum Present: No
Reference Spectrum Present: No
Number of Sampled Component Spectra: 1
Spectrometers: USB2+H05261
Integration Time (usec): 100000 (USB2+H05261)
Spectra Averaged: 1 (USB2+H05261)
Boxcar Smoothing: 0 (USB2+H05261)
Correct for Electrical Dark: No (USB2+H05261)
Strobe/Lamp Enabled: No (USB2+H05261)
Correct for Detector Non-linearity: No (USB2+H05261)
Correct for Stray Light: No (USB2+H05261)
Number of Pixels in Processed Spectrum: 2048
>>>>>Begin Processed Spectral Data<<<<<
365.73	142.77
365.92	142.77
366.12	142.77
366.32	0.00
366.52	0.00
366.72	0.00
366.91	0.00
367.11	0.00
367.31	0.00
367.51	0.00
367.70	0.00
367.90	0.00
368.10	0.00
368.30	0.00
368.49	0.00
368.69	77.24
368.89	0.00
369.09	0.00
369.28	0.00
369.48	11.70
369.68	0.00
369.87	30.43
370.07	28.09
370.27	0.00
370.47	131.07
370.66	404.91
370.86	498.53
371.06	526.62
371.25	524.28
371.45	589.82
371.65	456.40
371.84	486.83
372.04	414.27
372.24	608.54
372.44	505.56
372.63	657.69
372.83	477.47
373.03	479.81
373.22	423.64
373.42	435.34
373.62	479.81
373.81	636.63
374.01	552.37
374.21	571.09
374.40	550.03
374.60	564.07
374.79	514.92
374.99	631.94
375.19	699.82
375.38	685.78
375.58	678.76
375.78	636.63
375.97	692.80
376.17	587.47
376.37	613.22
376.56	678.76
376.76	737.27
376.95	648.33
377.15	786.42
377.35	753.65
377.54	873.02
377.74	751.31
377.93	798.12
378.13	880.04
378.33	805.14
378.52	664.71
378.72	842.59
378.91	755.99
379.11	648.33
379.31	664.71
379.50	655.35
379.70	690.46
379.89	793.44
380.09	732.59
380.28	802.80
380.48	772.38
380.68	772.38
380.87	770.04
381.07	770.04
381.26	732.59
381.46	634.29
381.65	662.37
381.85	648.33
382.04	543.00
382.24	615.56
382.43	655.35
382.63	458.74
382.83	521.94
383.02	582.79
383.22	634.29
383.41	580.45
383.61	582.79
383.80	613.22
384.00	706.84
384.19	770.04
384.39	770.04
384.58	767.70
384.78	755.99
384.97	800.46
385.17	791.10
385.36	734.93
385.56	688.12
385.75	791.10
385.95	861.32
386.14	821.53
386.34	873.02
386.53	894.08
386.72	767.70
386.92	734.93
387.11	854.30
387.31	777.06
387.50	826.21
387.70	821.53
387.89	791.10
388.09	793.44
388.28	786.42
388.48	730.25
388.67	812.17
388.86	903.45
389.06	1011.11
389.25	1086.01
389.45	990.05
389.64	994.73
389.84	1013.45
390.03	1015.79
390.22	987.71
390.42	1022.81
390.61	1060.26
390.81	1153.88
391.00	1137.50
391.19	1069.62
391.39	1062.60
391.58	1062.60
391.78	1083.67
391.97	964.30
392.16	875.36
392.36	882.38
392.55	772.38
392.75	667.05
392.94	484.49
393.13	503.22
393.33	688.12
393.52	667.05
393.71	866.00
393.91	938.55
394.10	990.05
394.29	1029.84
394.49	1137.50
394.68	1170.27
394.88	1313.04
395.07	1214.74
395.26	1203.04
395.46	1203.04
395.65	1174.95
395.84	1011.11
396.04	957.28
396.23	720.88
396.42	732.59
396.62	653.01
396.81	678.76
397.00	891.74
397.19	990.05
397.39	1158.57
397.58	1397.30
397.77	1404.32
397.97	1411.34
398.16	1544.75
398.35	1500.28
398.55	1528.37
398.74	1516.67
398.93	1692.21
399.12	1624.33
399.32	1610.29
399.51	1523.69
399.70	1696.89
399.90	1664.12
400.09	1638.38
400.28	1654.76
400.47	1746.04
400.67	1713.27
400.86	1771.79
401.05	1781.15
401.24	1865.41
401.44	1830.30
401.63	1799.87
401.82	1792.85
402.01	1820.94
402.21	1858.39
402.40	1891.15
402.59	1750.72
402.78	1764.76
402.97	1685.19
403.17	1818.60
403.36	1858.39
403.55	1842.00
403.74	1956.69
403.93	1874.77
404.13	1666.46
404.32	1715.61
404.51	1802.21
404.70	1907.54
404.89	1877.11
405.09	1849.02
405.28	1682.85
405.47	1722.63
405.66	1879.45
405.85	1853.70
406.05	1816.26
406.24	1668.80
406.43	1823.28
406.62	1823.28
406.81	1909.88
407.00	1722.63
407.20	1734.34
407.39	1825.62
407.58	1839.66
407.77	1870.09
407.96	1961.37
408.15	1966.05
408.34	1959.03
408.54	2017.54
408.73	2033.93
408.92	2031.58
409.11	1970.73
409.30	1877.11
409.49	1708.59
409.68	1778.81
409.87	1734.34
410.07	1743.70
410.26	1900.52
410.45	1930.94
410.64	2029.24
410.83	2045.63
411.02	1984.77
411.21	2324.15
411.40	2209.47
411.59	2204.78
411.78	2073.71
411.98	2204.78
412.17	2155.63
412.36	2179.04
412.55	2218.83
412.74	2162.66
412.93	2160.31
413.12	2136.91
413.31	2293.72
413.50	2256.28
413.69	2324.15
413.88	2230.53
414.07	2153.29
414.26	2232.87
414.45	2319.47
414.64	2284.36
414.83	2256.28
415.02	2286.70
415.22	2263.30
415.41	2312.45
415.60	2443.52
415.79	2483.31
415.98	2396.71
416.17	2476.29
416.36	2471.61
416.55	2324.15
416.74	2352.24
416.93	2272.66
417.12	2340.54
417.31	2232.87
417.50	2169.68
417.69	2485.65
417.88	2487.99
418.07	2349.90
418.26	2445.86
418.45	2382.67
418.64	2354.58
418.83	2509.05
419.02	2567.57
419.21	2513.74
419.39	2436.50
419.58	2214.15
419.77	2225.85
419.96	2352.24
420.15	2464.58
420.34	2534.80
420.53	2544.16
420.72	2628.42
420.91	2588.63
421.10	2663.53
421.29	2679.91
421.48	2588.63
421.67	2588.63
421.86	2518.42
422.05	2382.67
422.24	2176.70
422.43	2204.78
422.61	2314.79
422.80	2576.93
422.99	2373.30
423.18	2473.95
423.37	2450.54
423.56	2485.65
423.75	2307.77
423.94	2413.09
424.13	2403.73
424.32	2377.98
424.50	2420.11
424.69	2427.14
424.88	2424.80
425.07	2441.18
425.26	2387.35
425.45	2429.48
425.64	2310.11
425.83	2328.83
426.01	2410.75
426.20	2466.92
426.39	2396.71
426.58	2235.21
426.77	2246.91
426.96	2087.76
427.15	2085.42
427.33	2256.28
427.52	2352.24
427.71	2403.73
427.90	2441.18
428.09	2260.96
428.28	2321.81
428.46	2190.74
428.65	2232.87
428.84	2298.41
429.03	2293.72
429.22	2101.80
429.40	1987.11
429.59	1834.98
429.78	1715.61
429.97	1760.08
430.16	1797.53
430.34	1682.85
430.53	1797.53
430.72	1706.25
430.91	1935.62
431.10	2157.97
431.28	2436.50
431.47	2607.36
431.66	2881.20
431.85	2469.27
432.03	2296.07
432.22	2385.01
432.41	2401.39
432.60	2597.99
432.79	2602.68
432.97	2677.57
433.16	2715.02
433.35	2466.92
433.54	2260.96
433.72	2139.25
433.91	2139.25
434.10	2331.17
434.28	2466.92
434.47	2619.06
434.66	2633.10
434.85	2562.89
435.03	2684.59
435.22	2803.96
435.41	3019.29
435.59	3089.51
435.78	2942.05
435.97	2937.37
436.16	3005.25
436.34	2841.41
436.53	2801.62
436.72	2867.16
436.90	2717.36
437.09	2651.83
437.28	2607.36
437.46	2715.02
437.65	2768.85
437.84	2609.70
438.02	2340.54
438.21	2401.39
438.40	2410.75
438.58	2436.50
438.77	2757.15
438.96	2715.02
439.14	2935.03
439.33	2991.20
439.52	2932.69
439.70	2855.45
439.89	2829.71
440.08	2757.15
440.26	2778.22
440.45	2726.72
440.63	2937.37
440.82	2979.50
441.01	3150.36
441.19	3012.27
441.38	3176.11
441.57	3213.56
441.75	3201.85
441.94	3236.96
442.12	3169.09
442.31	3297.81
442.50	3229.94
442.68	3363.35
442.87	3141.00
443.05	3199.51
443.24	3169.09
443.43	3229.94
443.61	3316.54
443.80	3164.40
443.98	3204.19
444.17	3148.02
444.35	3325.90
444.54	3494.42
444.73	3459.31
444.91	3302.50
445.10	3126.96
445.28	3054.40
445.47	2937.37
445.65	2949.08
445.84	3052.06
446.02	3138.66
446.21	3162.06
446.39	3124.62
446.58	3262.71
446.77	3215.90
446.95	3302.50
447.14	3316.54
447.32	3288.45
447.51	3375.05
447.69	3253.34
447.88	3255.69
448.06	3255.69
448.25	3309.52
448.43	3407.82
448.62	3321.22
448.80	3281.43
448.99	3328.24
449.17	3349.31
449.36	3330.58
449.54	3527.19
449.73	3506.12
449.91	3485.06
450.10	3604.42
450.28	3592.72
450.46	3641.87
450.65	3726.13
450.83	3611.45
451.02	3489.74
451.20	3534.21
451.39	3520.17
451.57	3393.78
451.76	3609.11
451.94	3520.17
452.13	3302.50
452.31	3337.60
452.49	3119.93
452.68	3190.15
452.86	3129.30
453.05	3309.52
453.23	3407.82
453.42	3391.44
453.60	3487.40
453.78	3405.48
453.97	3461.65
454.15	3494.42
454.34	3335.26
454.52	3548.25
454.70	3456.97
454.89	3384.41
455.07	3269.73
455.26	3447.61
455.44	3562.30
455.62	3520.17
455.81	3648.90
455.99	3562.30
456.17	3527.19
456.36	3520.17
456.54	3674.64
456.73	3662.94
456.91	3779.97
457.09	3606.77
457.28	3899.33
457.46	3625.49
457.64	3646.55
457.83	3531.87
458.01	3506.12
458.19	3669.96
458.38	3595.06
458.56	3496.76
458.74	3634.85
458.93	3632.51
459.11	3644.21
459.29	3508.46
459.48	3555.27
459.66	3515.48
459.84	3684.00
460.03	3691.02
460.21	3524.85
460.39	3501.44
460.57	3681.66
460.76	3845.50
460.94	3831.46
461.12	3716.77
461.31	3733.15
461.49	3770.60
461.67	3695.71
461.85	3978.91
462.04	3836.14
462.22	4477.44
462.40	3817.41
462.59	3695.71
462.77	3824.44
462.95	3815.07
463.13	3721.45
463.32	3686.34
463.50	3749.54
463.68	3597.40
463.86	3812.73
464.05	3623.15
464.23	3616.13
464.41	3599.74
464.59	3620.81
464.78	3737.84
464.96	3735.50
465.14	3693.37
465.32	3758.90
465.50	3737.84
465.69	3817.41
465.87	3714.43
466.05	3728.47
466.23	3602.08
466.41	3351.65
466.60	3475.70
466.78	3571.66
466.96	3644.21
467.14	3693.37
467.32	3791.67
467.51	3723.79
467.69	3557.61
467.87	3676.98
468.05	3590.38
468.23	3716.77
468.41	3721.45
468.60	3695.71
468.78	3684.00
468.96	3679.32
469.14	3770.60
469.32	3815.07
469.50	3543.57
469.69	3672.30
469.87	3639.53
470.05	3602.08
470.23	3574.00
470.41	3609.11
470.59	3609.11
470.77	3515.48
470.95	3679.32
471.14	3749.54
471.32	3634.85
471.50	3932.10
471.68	3838.48
471.86	3894.65
472.04	3964.87
472.22	4025.72
472.40	3754.22
472.58	3892.31
472.77	3749.54
472.95	3749.54
473.13	4032.74
473.31	3969.55
473.49	3712.09
473.67	3974.23
473.85	4065.51
474.03	4140.41
474.21	3983.59
474.39	3946.14
474.57	4063.17
474.75	4065.51
474.93	4086.58
475.12	3962.53
475.30	4002.32
475.48	3988.27
475.66	4100.62
475.84	4025.72
476.02	4035.08
476.20	3922.74
476.38	3978.91
476.56	4152.11
476.74	4163.81
476.92	4102.96
477.10	4138.07
477.28	4329.99
477.46	4304.25
477.64	4416.59
477.82	4362.76
478.00	4395.53
478.18	4337.01
478.36	4311.27
478.54	4329.99
478.72	4442.34
478.90	4535.96
479.08	4533.62
479.26	4592.13
479.44	4627.24
479.62	4542.98
479.80	4547.66
479.98	4683.41
480.16	4645.96
480.34	4662.35
480.52	4739.58
480.70	4788.74
480.88	4814.48
481.06	4751.29
481.24	4798.10
481.41	5020.45
481.59	4950.23
481.77	5027.47
481.95	4873.00
482.13	4896.40
482.31	4898.74
482.49	4931.51
482.67	4975.98
482.85	4994.70
483.03	4971.30
483.21	5088.32
483.39	5060.24
483.57	5034.49
483.74	4800.44
483.92	5004.07
484.10	5018.11
484.28	5151.52
484.46	5074.28
484.64	5352.81
484.82	5160.88
485.00	5043.85
485.18	4847.25
485.35	4823.84
485.53	4458.72
485.71	4154.45
485.89	4079.55
486.07	4102.96
486.25	4493.83
486.43	4870.65
486.61	4884.70
486.78	4917.47
486.96	4910.44
487.14	5006.41
487.32	5233.44
487.50	5315.36
487.68	5511.96
487.85	5661.76
488.03	5706.23
488.21	5469.83
488.39	5373.87
488.57	5490.90
488.75	5364.51
488.92	5685.16
489.10	5844.32
489.28	6033.90
489.46	6069.01
489.64	6064.33
489.81	6127.52
489.99	6167.31
490.17	6129.86
490.35	6263.27
490.53	6174.33
490.70	6019.86
490.88	6094.76
491.06	6024.54
491.24	6246.89
491.41	5944.96
491.59	5846.66
491.77	5624.31
491.95	5755.38
492.13	5909.85
492.30	6216.46
492.48	6494.99
492.66	6499.67
492.84	6340.51
493.01	6422.43
493.19	6335.83
493.37	6340.51
493.54	6108.80
493.72	6324.13
493.90	6361.58
494.08	6633.08
494.25	6668.19
494.43	6867.13
494.61	7005.22
494.79	6930.33
494.96	6958.41
495.14	6775.85
495.32	6429.45
495.49	6384.98
495.67	6551.16
495.85	6918.62
496.02	7019.27
496.20	6956.07
496.38	6867.13
496.55	6871.81
496.73	6803.94
496.91	6839.05
497.09	7073.10
497.26	7215.87
497.44	7016.93
497.62	6768.83
497.79	6773.51
497.97	6494.99
498.14	6604.99
498.32	6633.08
498.50	7084.80
498.67	7131.61
498.85	6906.92
499.03	7077.78
499.20	7133.95
499.38	6871.81
499.56	7108.21
499.73	7159.70
499.91	7119.91
500.08	6855.43
500.26	6609.67
500.44	6707.98
500.61	6710.32
500.79	6846.07
500.97	6794.58
501.14	6712.66
501.32	6466.90
501.49	6668.19
501.67	6780.53
501.84	6738.40
502.02	6787.55
502.20	7152.68
502.37	7049.69
502.55	6986.50
502.72	6932.67
502.90	7061.40
503.07	6960.75
503.25	7000.54
503.43	6661.16
503.60	6389.66
503.78	6342.85
503.95	6499.67
504.13	6710.32
504.30	6956.07
504.48	7103.53
504.65	7159.70
504.83	7101.19
505.01	7281.41
505.18	7417.16
505.36	7302.47
505.53	7529.50
505.71	7403.11
505.88	7466.31
506.06	7410.14
506.23	7248.64
506.41	7103.53
506.58	7206.51
506.76	7236.94
506.93	7108.21
507.11	7052.03
507.28	7061.40
507.46	7056.72
507.63	6782.87
507.81	6988.84
507.98	6712.66
508.16	6946.71
508.33	7143.32
508.50	7332.90
508.68	7536.52
508.85	7709.72
509.03	7555.25
509.20	7520.14
509.38	7403.11
509.55	7236.94
509.73	7197.15
509.90	7372.69
510.08	7250.98
510.25	7363.33
510.42	7391.41
510.60	7339.92
510.77	7499.08
510.95	7452.27
511.12	7665.25
511.30	7723.77
511.47	7707.38
511.64	7850.16
511.82	7599.72
511.99	7555.25
512.17	7494.40
512.34	7227.57
512.51	7288.43
512.69	7424.18
512.86	7527.16
513.04	7606.74
513.21	7585.68
513.38	7297.79
513.56	7307.15
513.73	7129.27
513.90	7234.60
514.08	7246.30
514.25	7300.13
514.43	7260.34
514.60	7456.95
514.77	7342.26
514.95	7300.13
515.12	7258.00
515.29	7349.28
515.47	7581.00
515.64	7541.21
515.81	7653.55
515.99	7599.72
516.16	7073.10
516.33	6682.23
516.51	6232.85
516.68	6186.04
516.85	5872.40
517.03	6080.71
517.20	6546.48
517.37	7091.82
517.54	7316.51
517.72	7410.14
517.89	6729.04
518.06	6422.43
518.24	6399.02
518.41	6642.44
518.58	6843.73
518.75	7077.78
518.93	7080.12
519.10	7061.40
519.27	7190.13
519.45	7255.66
519.62	7375.03
519.79	7564.61
519.96	7562.27
520.14	7506.10
520.31	7229.91
520.48	7246.30
520.65	7236.94
520.83	7473.33
521.00	7578.65
521.17	7566.95
521.34	7510.78
521.52	7569.29
521.69	7861.86
521.86	7866.54
522.03	7740.15
522.20	7419.50
522.38	7066.08
522.55	7126.93
522.72	7215.87
522.89	7452.27
523.07	7344.60
523.24	7438.22
523.41	7515.46
523.58	7616.10
523.75	7882.92
523.92	7604.40
524.10	7946.12
524.27	7756.54
524.44	7866.54
524.61	7651.21
524.78	7602.06
524.96	7740.15
525.13	7468.65
525.30	7632.49
525.47	7719.09
525.64	7864.20
525.81	7873.56
525.98	7218.21
526.16	6703.29
526.33	6647.12
526.50	6679.89
526.67	6530.09
526.84	6705.63
527.01	6951.39
527.18	7140.97
527.36	7157.36
527.53	7590.36
527.70	7768.24
527.87	7557.59
528.04	7431.20
528.21	7543.55
528.38	7515.46
528.55	7992.93
528.72	8116.98
528.89	8175.49
529.07	7892.29
529.24	7721.43
529.41	7691.00
529.58	7618.44
529.75	7389.07
529.92	7702.70
530.09	7744.83
530.26	7950.80
530.43	8023.36
530.60	7878.24
530.77	8116.98
530.94	7960.16
531.11	7854.84
531.28	7735.47
531.46	7819.73
531.63	7805.69
531.80	7674.62
531.97	7737.81
532.14	7527.16
532.31	7075.44
532.48	7035.65
532.65	7087.14
532.82	7096.50
532.99	7611.42
533.16	7630.15
533.33	7875.90
533.50	7758.88
533.67	7597.38
533.84	7358.64
534.01	7494.40
534.18	7447.58
534.35	7412.48
534.52	7676.96
534.69	7716.75
534.86	7674.62
535.03	7620.78
535.20	7801.01
535.37	7782.28
535.54	7815.05
535.71	7925.05
535.88	7786.96
536.05	7688.66
536.22	7740.15
536.38	7552.91
536.55	7375.03
536.72	7281.41
536.89	7098.84
537.06	7510.78
537.23	7630.15
537.40	7782.28
537.57	7555.25
537.74	7798.66
537.91	7749.51
538.08	7536.52
538.25	7456.95
538.42	7805.69
538.59	7648.87
538.75	7569.29
538.92	7421.84
539.09	7391.41
539.26	7403.11
539.43	7339.92
539.60	7274.38
539.77	7363.33
539.94	7447.58
540.11	7157.36
540.28	7002.88
540.44	6904.58
540.61	7213.53
540.78	7105.87
540.95	7328.22
541.12	7459.29
541.29	7499.08
541.46	7595.04
541.62	7749.51
541.79	7541.21
541.96	7513.12
542.13	7712.07
542.30	7683.98
542.47	7662.91
542.63	7489.71
542.80	7433.54
542.97	7517.80
543.14	7529.50
543.31	7269.70
543.48	7602.06
543.64	8028.04
543.81	7894.63
543.98	7861.86
544.15	7683.98
544.32	7508.44
544.48	7573.97
544.65	7559.93
544.82	7613.76
544.99	7770.58
545.16	7499.08
545.32	7419.50
545.49	7882.92
545.66	8198.90
545.83	8226.98
546.00	8032.72
546.16	7639.51
546.33	7541.21
546.50	7494.40
546.67	7552.91
546.83	7658.23
547.00	7578.65
547.17	7253.32
547.34	7145.66
547.50	7232.26
547.67	7171.40
547.84	7204.17
548.00	7368.01
548.17	7288.43
548.34	7456.95
548.51	7522.48
548.67	7545.89
548.84	7571.63
549.01	7393.75
549.18	7410.14
549.34	7520.14
549.51	7234.60
549.68	7368.01
549.84	7478.01
550.01	7456.95
550.18	7328.22
550.34	7452.27
550.51	7396.09
550.68	7527.16
550.84	7187.79
551.01	7222.89
551.18	7246.30
551.34	7136.29
551.51	7503.76
551.68	7382.05
551.84	7524.82
552.01	7389.07
552.18	7346.94
552.34	7108.21
552.51	6923.30
552.68	7089.48
552.84	7068.42
553.01	7192.47
553.18	7103.53
553.34	7012.24
553.51	7084.80
553.67	7391.41
553.84	7407.80
554.01	7382.05
554.17	6991.18
554.34	7293.11
554.51	7445.24
554.67	7323.54
554.84	7330.56
555.00	7258.00
555.17	7194.81
555.33	7246.30
555.50	7192.47
555.67	7049.69
555.83	7365.67
556.00	7108.21
556.16	7030.97
556.33	7014.59
556.50	7052.03
556.66	7009.90
556.83	6860.11
556.99	6965.43
557.16	6890.54
557.32	6977.14
557.49	6822.66
557.65	7033.31
557.82	6998.20
557.98	6986.50
558.15	6916.28
558.32	6841.39
558.48	6448.18
558.65	6478.60
558.81	6612.01
558.98	6656.48
559.14	6661.16
559.31	6658.82
559.47	6785.21
559.64	6841.39
559.80	6576.91
559.97	6628.40
560.13	6600.31
560.30	6949.05
560.46	7166.72
560.63	7162.04
560.79	6984.16
560.96	7049.69
561.12	6754.79
561.29	6803.94
561.45	6499.67
561.61	6771.17
561.78	6764.15
561.94	6764.15
562.11	6654.14
562.27	6600.31
562.44	6546.48
562.60	6719.68
562.77	6834.36
562.93	6970.12
563.10	6913.94
563.26	6890.54
563.42	6712.66
563.59	6668.19
563.75	6633.08
563.92	6689.25
564.08	6604.99
564.24	6743.08
564.41	6647.12
564.57	6729.04
564.74	6633.08
564.90	6696.27
565.07	6726.70
565.23	6539.46
565.39	6532.44
565.56	6340.51
565.72	6242.21
565.88	6286.68
566.05	6469.24
566.21	6637.76
566.38	6530.09
566.54	6415.41
566.70	6633.08
566.87	6626.06
567.03	6588.61
567.19	6668.19
567.36	6696.27
567.52	6459.88
567.68	6712.66
567.85	6347.53
568.01	6349.87
568.17	6115.82
568.34	6024.54
568.50	6120.50
568.66	5928.58
568.83	6200.08
568.99	6242.21
569.15	6190.72
569.32	6333.49
569.48	6073.69
569.64	6003.47
569.81	6202.42
569.97	6162.63
570.13	6125.18
570.30	6190.72
570.46	5996.45
570.62	6083.05
570.78	5813.89
570.95	5954.32
571.11	6064.33
571.27	6181.35
571.43	6045.60
571.60	6202.42
571.76	6101.78
571.92	6361.58
572.09	6335.83
572.25	6237.53
572.41	6260.93
572.57	6284.34
572.74	6106.46
572.90	6104.12
573.06	6218.80
573.22	6260.93
573.38	6139.23
573.55	6242.21
573.71	6202.42
573.87	6162.63
574.03	6008.16
574.20	5949.64
574.36	5982.41
574.52	5963.68
574.68	5994.11
574.84	5987.09
575.01	5837.30
575.17	5795.17
575.33	5767.08
575.49	5877.09
575.65	6010.50
575.82	5956.66
575.98	5790.49
576.14	5912.19
576.30	5874.74
576.46	6129.86
576.62	6148.59
576.79	6071.35
576.95	6127.52
577.11	6064.33
577.27	5785.80
577.43	5907.51
577.59	5937.94
577.75	5762.40
577.92	5717.93
578.08	5788.14
578.24	5760.06
578.40	5668.78
578.56	5959.00
578.72	6188.38
578.88	5942.62
579.04	5944.96
579.21	5928.58
579.37	6057.31
579.53	5809.21
579.69	6087.73
579.85	6026.88
580.01	5963.68
580.17	5973.05
580.33	5959.00
580.49	5888.79
580.65	5851.34
580.82	5900.49
580.98	5956.66
581.14	5863.04
581.30	5933.26
581.46	5788.14
581.62	6040.92
581.78	6047.94
581.94	6143.91
582.10	5858.36
582.26	6153.27
582.42	6052.63
582.58	6057.31
582.74	5947.30
582.90	5940.28
583.06	5954.32
583.22	5954.32
583.38	5905.17
583.54	5863.04
583.70	6115.82
583.86	6153.27
584.02	6015.18
584.18	6118.16
584.34	5865.38
584.50	5893.47
584.66	5994.11
584.82	5851.34
584.98	5680.48
585.14	5696.86
585.30	5621.97
585.46	5692.18
585.62	5521.32
585.78	5666.44
585.94	5502.60
586.10	5495.58
586.26	5650.05
586.42	5811.55
586.58	5696.86
586.74	5659.42
586.90	5710.91
587.06	5678.14
587.22	5769.42
587.38	5355.15
587.54	5425.36
587.70	5486.22
587.86	5254.50
588.02	5214.71
588.18	5036.83
588.34	4896.40
588.49	4589.79
588.65	4337.01
588.81	4280.84
588.97	4264.46
589.13	4224.67
589.29	4147.43
589.45	4332.33
589.61	4231.69
589.77	4456.38
589.93	4587.45
590.08	4833.21
590.24	4854.27
590.40	4961.94
590.56	4940.87
590.72	4842.57
590.88	4812.14
591.04	4718.52
591.20	4833.21
591.35	4905.76
591.51	4873.00
591.67	4849.59
591.83	4777.03
591.99	4760.65
592.15	4648.30
592.31	4826.18
592.46	4954.91
592.62	5160.88
592.78	5020.45
592.94	4865.97
593.10	5057.90
593.26	5146.84
593.41	5289.61
593.57	4954.91
593.73	5048.54
593.89	4784.06
594.05	4655.33
594.20	4599.15
594.36	4528.94
594.52	4442.34
594.68	4486.81
594.84	4706.82
594.99	4819.16
595.15	4854.27
595.31	4842.57
595.47	4849.59
595.62	4802.78
595.78	4821.50
595.94	5170.24
596.10	5116.41
596.25	4868.31
596.41	4837.89
596.57	4812.14
596.73	4915.12
596.88	4779.37
597.04	5015.77
597.20	5008.75
597.36	5027.47
597.51	4837.89
