SpectraSuite Data File
++++++++++++++++++++++++++++++++++++
Date: Fri Oct 04 11:39:14 GMT-05:00 2013
User: price-jones
Dark Spectrum Present: No
Reference Spectrum Present: No
Number of Sampled Component Spectra: 1
Spectrometers: USB2+H05261
Integration Time (usec): 100000 (USB2+H05261)
Spectra Averaged: 1 (USB2+H05261)
Boxcar Smoothing: 0 (USB2+H05261)
Correct for Electrical Dark: No (USB2+H05261)
Strobe/Lamp Enabled: No (USB2+H05261)
Correct for Detector Non-linearity: No (USB2+H05261)
Correct for Stray Light: No (USB2+H05261)
Number of Pixels in Processed Spectrum: 2048
>>>>>Begin Processed Spectral Data<<<<<
365.73	74.90
365.92	74.90
366.12	74.90
366.32	0.00
366.52	28.09
366.72	30.43
366.91	0.00
367.11	0.00
367.31	0.00
367.51	0.00
367.70	0.00
367.90	0.00
368.10	0.00
368.30	0.00
368.49	0.00
368.69	4.68
368.89	0.00
369.09	0.00
369.28	4.68
369.48	0.00
369.68	0.00
369.87	0.00
370.07	0.00
370.27	39.79
370.47	2.34
370.66	67.88
370.86	224.69
371.06	128.73
371.25	227.03
371.45	177.88
371.65	177.88
371.84	145.11
372.04	196.60
372.24	264.48
372.44	285.55
372.63	194.26
372.83	231.71
373.03	215.33
373.22	205.97
373.42	294.91
373.62	271.50
373.81	255.12
374.01	278.52
374.21	212.99
374.40	257.46
374.60	285.55
374.79	344.06
374.99	252.78
375.19	259.80
375.38	201.29
375.58	283.20
375.78	306.61
375.97	227.03
376.17	266.82
376.37	208.31
376.56	308.95
376.76	257.46
376.95	271.50
377.15	322.99
377.35	334.70
377.54	304.27
377.74	264.48
377.93	234.05
378.13	318.31
378.33	271.50
378.52	243.42
378.72	290.23
378.91	325.33
379.11	290.23
379.31	234.05
379.50	280.86
379.70	369.80
379.89	306.61
380.09	304.27
380.28	238.73
380.48	180.22
380.68	322.99
380.87	355.76
381.07	255.12
381.26	332.36
381.46	327.68
381.65	348.74
381.85	294.91
382.04	315.97
382.24	339.38
382.43	306.61
382.63	294.91
382.83	308.95
383.02	355.76
383.22	327.68
383.41	369.80
383.61	383.85
383.80	341.72
384.00	322.99
384.19	248.10
384.39	358.10
384.58	320.65
384.78	374.49
384.97	372.15
385.17	229.37
385.36	386.19
385.56	397.89
385.75	454.06
385.95	423.64
386.14	351.08
386.34	241.08
386.53	315.97
386.72	318.31
386.92	386.19
387.11	386.19
387.31	376.83
387.50	332.36
387.70	337.04
387.89	271.50
388.09	379.17
388.28	339.38
388.48	381.51
388.67	425.98
388.86	367.46
389.06	372.15
389.25	334.70
389.45	320.65
389.64	442.36
389.84	409.59
390.03	395.55
390.22	337.04
390.42	374.49
390.61	414.27
390.81	430.66
391.00	489.17
391.19	475.13
391.39	407.25
391.58	360.44
391.78	381.51
391.97	404.91
392.16	468.11
392.36	440.02
392.55	388.53
392.75	365.12
392.94	372.15
393.13	475.13
393.33	367.46
393.52	400.23
393.71	475.13
393.91	477.47
394.10	425.98
394.29	531.30
394.49	423.64
394.68	479.81
394.88	493.85
395.07	498.53
395.26	409.59
395.46	447.04
395.65	491.51
395.84	524.28
396.04	470.45
396.23	510.24
396.42	526.62
396.62	521.94
396.81	416.62
397.00	449.38
397.19	510.24
397.39	540.66
397.58	535.98
397.77	444.70
397.97	580.45
398.16	568.75
398.35	550.03
398.55	461.09
398.74	559.39
398.93	610.88
399.12	479.81
399.32	578.11
399.51	573.43
399.70	571.09
399.90	587.47
400.09	505.56
400.28	531.30
400.47	575.77
400.67	601.52
400.86	575.77
401.05	568.75
401.24	606.20
401.44	564.07
401.63	634.29
401.82	660.03
402.01	580.45
402.21	643.65
402.40	641.31
402.59	669.39
402.78	610.88
402.97	608.54
403.17	650.67
403.36	641.31
403.55	596.84
403.74	716.20
403.93	603.86
404.13	664.71
404.32	788.76
404.51	748.97
404.70	765.36
404.89	664.71
405.09	699.82
405.28	807.48
405.47	784.08
405.66	809.83
405.85	784.08
406.05	739.61
406.24	699.82
406.43	690.46
406.62	798.12
406.81	779.40
407.00	753.65
407.20	809.83
407.39	746.63
407.58	751.31
407.77	851.96
407.96	781.74
408.15	720.88
408.34	894.08
408.54	830.89
408.73	821.53
408.92	875.36
409.11	922.17
409.30	917.49
409.49	849.61
409.68	835.57
409.87	896.43
410.07	863.66
410.26	926.85
410.45	901.11
410.64	964.30
410.83	997.07
411.02	945.58
411.21	945.58
411.40	976.00
411.59	910.47
411.78	992.39
411.98	908.13
412.17	1018.13
412.36	957.28
412.55	1025.15
412.74	1006.43
412.93	1083.67
413.12	1011.11
413.31	1193.67
413.50	1060.26
413.69	1137.50
413.88	1186.65
414.07	1060.26
414.26	1046.22
414.45	1114.10
414.64	1146.86
414.83	1160.91
415.02	1078.99
415.22	1174.95
415.41	1210.06
415.60	1172.61
415.79	1252.19
415.98	1238.14
416.17	1240.48
416.36	1263.89
416.55	1249.85
416.74	1301.34
416.93	1277.93
417.12	1296.66
417.31	1273.25
417.50	1252.19
417.69	1240.48
417.88	1352.83
418.07	1404.32
418.26	1196.01
418.45	1406.66
418.64	1378.58
418.83	1399.64
419.02	1338.79
419.21	1420.71
419.39	1394.96
419.58	1366.87
419.77	1383.26
419.96	1355.17
420.15	1409.00
420.34	1373.89
420.53	1376.24
420.72	1507.30
420.91	1376.24
421.10	1474.54
421.29	1533.05
421.48	1458.15
421.67	1474.54
421.86	1458.15
422.05	1509.65
422.24	1446.45
422.43	1497.94
422.61	1465.18
422.80	1561.14
422.99	1481.56
423.18	1451.13
423.37	1547.09
423.56	1638.38
423.75	1488.58
423.94	1521.35
424.13	1418.36
424.32	1509.65
424.50	1593.90
424.69	1612.63
424.88	1696.89
425.07	1605.61
425.26	1563.48
425.45	1568.16
425.64	1645.40
425.83	1535.39
426.01	1526.03
426.20	1593.90
426.39	1533.05
426.58	1621.99
426.77	1502.62
426.96	1607.95
427.15	1554.12
427.33	1521.35
427.52	1514.33
427.71	1540.07
427.90	1755.40
428.09	1612.63
428.28	1666.46
428.46	1600.93
428.65	1715.61
428.84	1657.10
429.03	1739.02
429.22	1624.33
429.40	1598.59
429.59	1696.89
429.78	1694.55
429.97	1671.14
430.16	1598.59
430.34	1717.95
430.53	1769.44
430.72	1741.36
430.91	1741.36
431.10	1732.00
431.28	1682.85
431.47	1823.28
431.66	1764.76
431.85	1746.04
432.03	1893.49
432.22	1909.88
432.41	1846.68
432.60	1921.58
432.79	1774.13
432.97	1804.55
433.16	1900.52
433.35	1837.32
433.54	1952.01
433.72	1860.73
433.91	1907.54
434.10	1846.68
434.28	1919.24
434.47	1909.88
434.66	1942.64
434.85	1970.73
435.03	2073.71
435.22	2115.84
435.41	2246.91
435.59	2331.17
435.78	2080.74
435.97	2026.90
436.16	2045.63
436.34	2038.61
436.53	2050.31
436.72	2090.10
436.90	1991.80
437.09	2040.95
437.28	2031.58
437.46	2010.52
437.65	2085.42
437.84	2029.24
438.02	2111.16
438.21	2101.80
438.40	2078.40
438.58	2087.76
438.77	2157.97
438.96	2207.13
439.14	2218.83
439.33	2183.72
439.52	2097.12
439.70	2242.23
439.89	2356.92
440.08	2272.66
440.26	2153.29
440.45	2291.38
440.63	2321.81
440.82	2333.51
441.01	2204.78
441.19	2363.94
441.38	2424.80
441.57	2359.26
441.75	2436.50
441.94	2340.54
442.12	2443.52
442.31	2429.48
442.50	2473.95
442.68	2422.45
442.87	2502.03
443.05	2434.16
443.24	2502.03
443.43	2466.92
443.61	2511.39
443.80	2551.18
443.98	2385.01
444.17	2359.26
444.35	2565.23
444.54	2509.05
444.73	2644.81
444.91	2518.42
445.10	2546.50
445.28	2569.91
445.47	2558.21
445.65	2476.29
445.84	2532.46
446.02	2527.78
446.21	2495.01
446.39	2574.59
446.58	2677.57
446.77	2628.42
446.95	2612.04
447.14	2642.46
447.32	2649.49
447.51	2616.72
447.69	2663.53
447.88	2595.65
448.06	2810.98
448.25	2607.36
448.43	2586.29
448.62	2602.68
448.80	2546.50
448.99	2637.78
449.17	2640.12
449.36	2607.36
449.54	2785.24
449.73	2619.06
449.91	2719.70
450.10	2731.41
450.28	2803.96
450.46	2825.03
450.65	2813.32
450.83	2794.60
451.02	2832.05
451.20	2726.72
451.39	2773.53
451.57	2785.24
451.76	2686.94
451.94	2806.30
452.13	2850.77
452.31	2846.09
452.49	2773.53
452.68	2684.59
452.86	2843.75
453.05	2913.97
453.23	2775.88
453.42	2911.63
453.60	2754.81
453.78	2724.38
453.97	2806.30
454.15	2993.55
454.34	2958.44
454.52	3047.38
454.70	3005.25
454.89	2974.82
455.07	3068.44
455.26	3038.02
455.44	3040.36
455.62	2974.82
455.81	3173.77
455.99	2956.10
456.17	3066.10
456.36	3141.00
456.54	3101.21
456.73	3005.25
456.91	3265.05
457.09	3180.79
457.28	3251.00
457.46	3098.87
457.64	3138.66
457.83	3222.92
458.01	3274.41
458.19	3143.34
458.38	3112.91
458.56	3218.24
458.74	3192.49
458.93	3274.41
459.11	3318.88
459.29	3337.60
459.48	3302.50
459.66	3363.35
459.84	3183.13
460.03	3466.33
460.21	3272.07
460.39	3379.73
460.57	3262.71
460.76	3192.49
460.94	3325.90
461.12	3321.22
461.31	3309.52
461.49	3361.01
461.67	3293.13
461.85	3496.76
462.04	3449.95
462.22	3435.91
462.40	3414.84
462.59	3557.61
462.77	3623.15
462.95	3456.97
463.13	3438.25
463.32	3545.91
463.50	3419.52
463.68	3517.83
463.86	3522.51
464.05	3513.14
464.23	3555.27
464.41	3728.47
464.59	3496.76
464.78	3492.08
464.96	3454.63
465.14	3653.58
465.32	3646.55
465.50	3679.32
465.69	3634.85
465.87	3581.02
466.05	3700.39
466.23	3660.60
466.41	3559.95
466.60	3735.50
466.78	3719.11
466.96	3702.73
467.14	3667.62
467.32	3524.85
467.51	3859.54
467.69	3744.86
467.87	3789.33
468.05	3658.26
468.23	3754.22
468.41	3712.09
468.60	3702.73
468.78	3875.93
468.96	3688.68
469.14	3861.88
469.32	3810.39
469.50	3744.86
469.69	3941.46
469.87	3978.91
470.05	3913.38
470.23	3939.12
470.41	3824.44
470.59	3843.16
470.77	3824.44
470.95	4037.42
471.14	3988.27
471.32	3779.97
471.50	3941.46
471.68	4128.70
471.86	3992.95
472.04	4051.47
472.22	4217.65
472.40	4067.85
472.58	4030.40
472.77	4198.92
472.95	4252.75
473.13	4358.08
473.31	4297.22
473.49	4205.94
473.67	4166.15
473.85	4180.20
474.03	4299.56
474.21	4276.16
474.39	4339.35
474.57	4423.61
474.75	4465.74
474.93	4470.42
475.12	4407.23
475.30	4409.57
475.48	4564.04
475.66	4514.89
475.84	4440.00
476.02	4482.13
476.20	4521.92
476.38	4587.45
476.56	4697.46
476.74	4603.83
476.92	4657.67
477.10	4798.10
477.28	4873.00
477.46	4807.46
477.64	4786.40
477.82	4987.68
478.00	4898.74
478.18	5039.17
478.36	4978.32
478.54	4952.57
478.72	5006.41
478.90	5013.43
479.08	5254.50
479.26	5095.35
479.44	5228.76
479.62	5263.86
479.80	5242.80
479.98	5273.23
480.16	5387.91
480.34	5380.89
480.52	5310.68
480.70	5535.37
480.88	5401.96
481.06	5427.70
481.24	5530.69
481.41	5535.37
481.59	5570.48
481.77	5659.42
481.95	5650.05
482.13	5837.30
482.31	5708.57
482.49	5872.40
482.67	5874.74
482.85	5980.07
483.03	6047.94
483.21	6003.47
483.39	6179.01
483.57	6040.92
483.74	6207.10
483.92	6150.93
484.10	6101.78
484.28	6539.46
484.46	6567.54
484.64	6466.90
484.82	6363.92
485.00	6492.65
485.18	6590.95
485.35	6745.42
485.53	6738.40
485.71	6682.23
485.89	6628.40
486.07	6869.47
486.25	6888.20
486.43	6846.07
486.61	7070.76
486.78	6979.48
486.96	7005.22
487.14	7115.23
487.32	7307.15
487.50	7124.59
487.68	7236.94
487.85	7339.92
488.03	7253.32
488.21	7515.46
488.39	7609.08
488.57	7576.31
488.75	7611.42
488.92	7772.92
489.10	7843.14
489.28	7784.62
489.46	7686.32
489.64	7796.32
489.81	7971.86
489.99	7976.55
490.17	7997.61
490.35	8297.20
490.53	8145.06
490.70	8344.01
490.88	8400.18
491.06	8250.39
491.24	8276.13
491.41	8255.07
491.59	8421.25
491.77	8463.38
491.95	8692.75
492.13	8456.36
492.30	8676.37
492.48	8549.98
492.66	8603.81
492.84	8767.65
493.01	8901.06
493.19	8851.91
493.37	9210.01
493.54	8896.38
493.72	9015.74
493.90	9057.87
494.08	9163.20
494.25	9167.88
494.43	9128.09
494.61	9345.76
494.79	9254.48
494.96	9338.74
495.14	9366.82
495.32	9624.28
495.49	9423.00
495.67	9521.30
495.85	9666.41
496.02	9633.64
496.20	9757.69
496.38	9792.80
496.55	9715.56
496.73	10010.47
496.91	9844.29
497.09	10104.09
497.26	10005.79
497.44	9937.91
497.62	10036.22
497.79	9944.94
497.97	10045.58
498.14	10200.05
498.32	10043.24
498.50	10036.22
498.67	10462.19
498.85	10363.89
499.03	10237.50
499.20	10476.24
499.38	10408.36
499.56	10623.69
499.73	10750.08
499.91	10604.97
500.08	10801.57
500.26	10555.82
500.44	10651.78
500.61	10855.40
500.79	11096.48
500.97	10897.53
501.14	10883.49
501.32	10977.11
501.49	10956.05
501.67	10984.13
501.84	11009.88
502.02	10991.16
502.20	11393.73
502.37	11363.30
502.55	11143.29
502.72	11187.76
502.90	11316.49
503.07	11309.47
503.25	11452.24
503.43	11316.49
503.60	11421.81
503.78	11393.73
503.95	11492.03
504.13	11508.41
504.30	11356.28
504.48	11510.75
504.65	11569.27
504.83	11936.73
505.01	11866.52
505.18	11812.68
505.36	11946.09
505.53	11712.04
505.71	11639.48
505.88	11763.53
506.06	11707.36
506.23	11957.80
506.41	11988.22
506.58	11969.50
506.76	12133.34
506.93	12208.23
507.11	12255.04
507.28	12133.34
507.46	12269.09
507.63	12285.47
507.81	12446.97
507.98	12283.13
508.16	12175.47
508.33	12367.39
508.50	12285.47
508.68	12402.50
508.85	12718.47
509.03	12559.31
509.20	12952.52
509.38	12760.60
509.55	12947.84
509.73	12765.28
509.90	12805.07
510.08	12486.76
510.25	12828.48
510.42	12954.87
510.60	12973.59
510.77	13011.04
510.95	13099.98
511.12	13151.47
511.30	12898.69
511.47	13240.41
511.64	13212.32
511.82	13179.56
511.99	13107.00
512.17	13266.16
512.34	13071.89
512.51	13315.31
512.69	13355.10
512.86	13097.64
513.04	13425.31
513.21	13387.86
513.38	13664.05
513.56	13549.36
513.73	13310.63
513.90	13359.78
514.08	13479.15
514.25	13830.23
514.43	13645.32
514.60	13607.87
514.77	13811.50
514.95	14012.79
515.12	13933.21
515.29	13877.04
515.47	13769.37
515.64	13926.19
515.81	13923.85
515.99	14150.88
516.16	13982.36
516.33	14319.40
516.51	14218.75
516.68	13921.51
516.85	13954.27
517.03	13855.97
517.20	14314.72
517.37	14274.93
517.54	14466.85
517.72	14087.68
517.89	14328.76
518.06	14450.47
518.24	14307.69
518.41	14417.70
518.58	14539.41
518.75	14324.08
518.93	14593.24
519.10	14597.92
519.27	14459.83
519.45	14333.44
519.62	14754.74
519.79	14551.11
519.96	14705.59
520.14	14583.88
520.31	14551.11
520.48	14986.45
520.65	14523.02
520.83	14930.28
521.00	14654.09
521.17	15082.41
521.34	15023.90
521.52	15044.96
521.69	14991.13
521.86	15059.01
522.03	15183.06
522.20	15351.57
522.38	15218.16
522.55	15311.78
522.72	15234.55
522.89	15653.50
523.07	15386.68
523.24	15316.47
523.41	15494.35
523.58	15419.45
523.75	15571.58
523.92	15215.82
524.10	15426.47
524.27	15517.75
524.44	15344.55
524.61	15494.35
524.78	15480.30
524.96	15728.40
525.13	15297.74
525.30	15384.34
525.47	15758.83
525.64	15466.26
525.81	15896.92
525.98	15861.81
526.16	15742.44
526.33	15826.70
526.50	15784.57
526.67	16006.92
526.84	16016.29
527.01	15803.30
527.18	16226.93
527.36	16189.49
527.53	16126.29
527.70	16346.30
527.87	16137.99
528.04	16100.55
528.21	16329.92
528.38	16030.33
528.55	16168.42
528.72	16250.34
528.89	16407.16
529.07	16414.18
529.24	16451.63
529.41	16358.00
529.58	16329.92
529.75	16114.59
529.92	16393.11
530.09	16210.55
530.26	16372.05
530.43	16390.77
530.60	16105.23
530.77	16620.14
530.94	16475.03
531.11	16589.72
531.28	16407.16
531.46	16379.07
531.63	16669.30
531.80	16711.42
531.97	16781.64
532.14	16917.39
532.31	16772.28
532.48	16720.79
532.65	16695.04
532.82	16397.79
532.99	16835.47
533.16	16919.73
533.33	16826.11
533.50	17132.72
533.67	16945.48
533.84	16844.84
534.01	17128.04
534.18	16840.15
534.35	17081.23
534.52	17146.76
534.69	17149.11
534.86	17181.87
535.03	16847.18
535.20	17057.82
535.37	17345.71
535.54	17259.11
535.71	17256.77
535.88	17291.88
536.05	17411.25
536.22	17528.27
536.38	17315.28
536.55	17460.40
536.72	17551.68
536.89	17523.59
537.06	17479.12
537.23	17603.17
537.40	17343.37
537.57	17296.56
537.74	17434.65
537.91	17530.61
538.08	17696.79
538.25	17486.14
538.42	17383.16
538.59	17752.96
538.75	17453.37
538.92	17418.27
539.09	17781.05
539.26	17664.02
539.43	17900.42
539.60	17844.24
539.77	17841.90
539.94	17722.54
540.11	17610.19
540.28	17926.16
540.44	18019.78
540.61	17680.41
540.78	18010.42
540.95	17982.34
541.12	18054.89
541.29	17994.04
541.46	18246.82
541.62	18223.41
541.79	18288.95
541.96	18122.77
542.13	18190.64
542.30	18396.61
542.47	18214.05
542.63	18389.59
542.80	18422.36
542.97	18743.01
543.14	18457.46
543.31	18523.00
543.48	18616.62
543.64	18731.31
543.81	18679.82
543.98	18607.26
544.15	18801.52
544.32	18817.91
544.48	18700.88
544.65	18682.16
544.82	18398.95
544.99	18586.19
545.16	18829.61
545.32	18565.13
545.49	19157.28
545.66	19215.80
545.83	19508.37
546.00	19524.75
546.16	19232.18
546.33	19145.58
546.50	18686.84
546.67	18721.95
546.83	18541.72
547.00	18775.78
547.17	18836.63
547.34	18735.99
547.50	18841.31
547.67	18614.28
547.84	18855.36
548.00	18799.18
548.17	18923.23
548.34	19108.13
548.51	18916.21
548.67	19117.50
548.84	19136.22
549.01	18906.85
549.18	18831.95
549.34	18789.82
549.51	18698.54
549.68	18970.04
549.84	19187.71
550.01	19082.39
550.18	19143.24
550.34	19180.69
550.51	19082.39
550.68	18768.76
550.84	18965.36
551.01	19101.11
551.18	19192.39
551.34	19417.08
551.51	19204.10
551.68	19178.35
551.84	19440.49
552.01	19087.07
552.18	19084.73
552.34	19232.18
552.51	19414.74
552.68	19197.07
552.84	19271.97
553.01	19644.12
553.18	19627.73
553.34	19147.92
553.51	19339.85
553.67	19314.10
553.84	19637.09
554.01	19433.47
554.17	19555.18
554.34	19351.55
554.51	19499.00
554.67	19342.19
554.84	19374.95
555.00	19428.79
555.17	19484.96
555.33	19304.74
555.50	19496.66
555.67	19487.30
555.83	19243.88
556.00	19625.39
556.16	19936.68
556.33	19297.72
556.50	19662.84
556.66	19857.10
556.83	19714.33
556.99	19702.63
557.16	19473.26
557.32	19765.82
557.49	19789.23
557.65	19754.12
557.82	19623.05
557.98	19599.65
558.15	19372.61
558.32	19576.24
558.48	19749.44
558.65	19707.31
558.81	19992.86
558.98	19772.85
559.14	19524.75
559.31	19307.08
559.47	19672.20
559.64	20060.73
559.80	19690.93
559.97	19688.59
560.13	19920.30
560.30	19728.38
560.46	19697.95
560.63	19763.48
560.79	19943.70
560.96	19789.23
561.12	19887.53
561.29	19810.29
561.45	19941.36
561.61	19639.44
561.78	20493.73
561.94	19859.45
562.11	20004.56
562.27	19988.18
562.44	20049.03
562.60	19674.54
562.77	19838.38
562.93	19995.20
563.10	19985.83
563.26	20107.54
563.42	19854.76
563.59	20243.29
563.75	19791.57
563.92	20133.29
564.08	19709.65
564.24	20379.04
564.41	19960.09
564.57	19974.13
564.74	20238.61
564.90	19817.32
565.07	20102.86
565.23	19880.51
565.39	20264.36
565.56	20037.33
565.72	20037.33
565.88	19847.74
566.05	19950.73
566.21	19850.08
566.38	20135.63
566.54	19988.18
566.70	20121.59
566.87	20538.20
567.03	19999.88
567.19	20273.72
567.36	19929.66
567.52	20098.18
567.68	19983.49
567.85	19798.59
568.01	20297.13
568.17	20217.55
568.34	20133.29
568.50	20320.53
568.66	20084.14
568.83	20547.56
568.99	20154.35
569.15	20210.53
569.32	20641.18
569.48	20042.01
569.64	20168.40
569.81	20247.97
569.97	20372.02
570.13	20128.61
570.30	20311.17
570.46	20170.74
570.62	20372.02
570.78	20360.32
570.95	20212.87
571.11	20589.69
571.27	20297.13
571.43	19922.64
571.60	20343.94
571.76	20318.19
571.92	20552.24
572.09	19981.15
572.25	20301.81
572.41	20123.93
572.57	20418.83
572.74	20376.70
572.90	20514.80
573.06	20519.48
573.22	20400.11
573.38	20357.98
573.55	20191.80
573.71	20395.43
573.87	20533.52
574.03	20339.26
574.20	20070.09
574.36	20409.47
574.52	20526.50
574.68	20512.46
574.84	20601.40
575.01	20299.47
575.17	20306.49
575.33	20182.44
575.49	20259.68
575.65	20313.51
575.82	20484.37
575.98	20404.79
576.14	20276.06
576.30	20559.27
576.46	20723.10
576.62	20589.69
576.79	20393.09
576.95	20533.52
577.11	20315.85
577.27	20304.15
577.43	20573.31
577.59	20313.51
577.75	20535.86
577.92	20137.97
578.08	20313.51
578.24	20432.88
578.40	20680.97
578.56	20725.44
578.72	20416.49
578.88	20971.20
579.04	20486.71
579.21	20582.67
579.37	20479.69
579.53	20477.35
579.69	20549.90
579.85	20545.22
580.01	20512.46
580.17	20231.59
580.33	20404.79
580.49	20269.04
580.65	20570.97
580.82	20521.82
580.98	20531.18
581.14	20460.96
581.30	20393.09
581.46	20402.45
581.62	20570.97
581.78	20561.61
581.94	20444.58
582.10	20549.90
582.26	20243.29
582.42	20430.54
582.58	20636.50
582.74	20599.05
582.90	20482.03
583.06	20711.40
583.22	20540.54
583.38	20606.08
583.54	20652.89
583.70	20524.16
583.86	20758.21
584.02	20573.31
584.18	20704.38
584.34	20484.37
584.50	20973.54
584.66	20362.66
584.82	20634.16
584.98	20528.84
585.14	20748.85
585.30	20842.47
585.46	20489.05
585.62	20594.37
585.78	20650.55
585.94	20570.97
586.10	20444.58
586.26	20587.35
586.42	20561.61
586.58	20552.24
586.74	20559.27
586.90	20411.81
587.06	20870.56
587.22	20727.78
587.38	20912.69
587.54	20613.10
587.70	20741.83
587.86	20737.15
588.02	20786.30
588.18	20917.37
588.34	20645.87
588.49	20657.57
588.65	20793.32
588.81	20648.21
588.97	20531.18
589.13	21074.18
589.29	20638.84
589.45	20851.83
589.61	20978.22
589.77	20788.64
589.93	20662.25
590.08	21060.14
590.24	20802.68
590.40	20688.00
590.56	20931.41
590.72	20961.84
590.88	20730.12
591.04	20741.83
591.20	20786.30
591.35	20905.66
591.51	20957.16
591.67	20900.98
591.83	20999.29
591.99	20725.44
592.15	20837.79
592.31	20973.54
592.46	20800.34
592.62	20666.93
