SpectraSuite Data File
++++++++++++++++++++++++++++++++++++
Date: Fri Oct 04 11:40:00 GMT-05:00 2013
User: price-jones
Dark Spectrum Present: No
Reference Spectrum Present: No
Number of Sampled Component Spectra: 1
Spectrometers: USB2+H05261
Integration Time (usec): 100000 (USB2+H05261)
Spectra Averaged: 1 (USB2+H05261)
Boxcar Smoothing: 0 (USB2+H05261)
Correct for Electrical Dark: No (USB2+H05261)
Strobe/Lamp Enabled: No (USB2+H05261)
Correct for Detector Non-linearity: No (USB2+H05261)
Correct for Stray Light: No (USB2+H05261)
Number of Pixels in Processed Spectrum: 2048
>>>>>Begin Processed Spectral Data<<<<<
365.73	21.06
365.92	21.06
366.12	21.06
366.32	0.00
366.52	0.00
366.72	0.00
366.91	0.00
367.11	0.00
367.31	0.00
367.51	0.00
367.70	0.00
367.90	0.00
368.10	0.00
368.30	0.00
368.49	0.00
368.69	0.00
368.89	0.00
369.09	0.00
369.28	0.00
369.48	0.00
369.68	2.34
369.87	56.17
370.07	0.00
370.27	32.77
370.47	30.43
370.66	138.09
370.86	60.85
371.06	16.38
371.25	194.26
371.45	126.39
371.65	121.71
371.84	128.73
372.04	138.09
372.24	131.07
372.44	107.66
372.63	138.09
372.83	147.45
373.03	177.88
373.22	131.07
373.42	189.58
373.62	119.37
373.81	166.18
374.01	131.07
374.21	177.88
374.40	149.79
374.60	152.13
374.79	201.29
374.99	180.22
375.19	119.37
375.38	210.65
375.58	229.37
375.78	210.65
375.97	227.03
376.17	203.63
376.37	222.35
376.56	177.88
376.76	102.98
376.95	145.11
377.15	189.58
377.35	159.16
377.54	156.82
377.74	173.20
377.93	215.33
378.13	133.41
378.33	205.97
378.52	161.50
378.72	163.84
378.91	140.43
379.11	243.42
379.31	180.22
379.50	135.75
379.70	175.54
379.89	124.05
380.09	135.75
380.28	184.90
380.48	121.71
380.68	152.13
380.87	159.16
381.07	173.20
381.26	180.22
381.46	187.24
381.65	180.22
381.85	93.62
382.04	163.84
382.24	147.45
382.43	184.90
382.63	238.73
382.83	156.82
383.02	161.50
383.22	180.22
383.41	149.79
383.61	187.24
383.80	161.50
384.00	95.96
384.19	152.13
384.39	72.56
384.58	81.92
384.78	119.37
384.97	234.05
385.17	166.18
385.36	117.03
385.56	222.35
385.75	196.60
385.95	217.67
386.14	229.37
386.34	238.73
386.53	205.97
386.72	156.82
386.92	212.99
387.11	255.12
387.31	142.77
387.50	189.58
387.70	140.43
387.89	238.73
388.09	208.31
388.28	152.13
388.48	191.92
388.67	276.18
388.86	231.71
389.06	170.86
389.25	250.44
389.45	203.63
389.64	191.92
389.84	241.08
390.03	217.67
390.22	182.56
390.42	126.39
390.61	156.82
390.81	154.48
391.00	152.13
391.19	227.03
391.39	170.86
391.58	217.67
391.78	269.16
391.97	264.48
392.16	201.29
392.36	273.84
392.55	241.08
392.75	224.69
392.94	194.26
393.13	205.97
393.33	191.92
393.52	229.37
393.71	255.12
393.91	215.33
394.10	161.50
394.29	208.31
394.49	227.03
394.68	227.03
394.88	227.03
395.07	210.65
395.26	212.99
395.46	238.73
395.65	358.10
395.84	334.70
396.04	280.86
396.23	159.16
396.42	351.08
396.62	250.44
396.81	301.93
397.00	255.12
397.19	313.63
397.39	292.57
397.58	320.65
397.77	234.05
397.97	266.82
398.16	308.95
398.35	311.29
398.55	278.52
398.74	269.16
398.93	325.33
399.12	318.31
399.32	276.18
399.51	292.57
399.70	308.95
399.90	369.80
400.09	353.42
400.28	367.46
400.47	320.65
400.67	376.83
400.86	444.70
401.05	308.95
401.24	355.76
401.44	351.08
401.63	362.78
401.82	402.57
402.01	383.85
402.21	423.64
402.40	358.10
402.59	353.42
402.78	365.12
402.97	339.38
403.17	437.68
403.36	369.80
403.55	390.87
403.74	418.96
403.93	365.12
404.13	477.47
404.32	414.27
404.51	500.87
404.70	479.81
404.89	447.04
405.09	465.77
405.28	376.83
405.47	308.95
405.66	461.09
405.85	500.87
406.05	514.92
406.24	456.40
406.43	528.96
406.62	528.96
406.81	514.92
407.00	538.32
407.20	538.32
407.39	507.90
407.58	599.18
407.77	545.34
407.96	568.75
408.15	475.13
408.34	559.39
408.54	641.31
408.73	575.77
408.92	589.82
409.11	648.33
409.30	699.82
409.49	587.47
409.68	655.35
409.87	643.65
410.07	610.88
410.26	678.76
410.45	702.16
410.64	653.01
410.83	704.50
411.02	723.23
411.21	718.54
411.40	753.65
411.59	718.54
411.78	730.25
411.98	657.69
412.17	676.41
412.36	732.59
412.55	758.33
412.74	767.70
412.93	779.40
413.12	741.95
413.31	809.83
413.50	746.63
413.69	793.44
413.88	830.89
414.07	901.11
414.26	915.15
414.45	802.80
414.64	842.59
414.83	755.99
415.02	819.19
415.22	889.40
415.41	952.60
415.60	931.53
415.79	870.68
415.98	933.87
416.17	922.17
416.36	994.73
416.55	919.83
416.74	1013.45
416.93	966.64
417.12	1025.15
417.31	1107.07
417.50	1034.52
417.69	1032.18
417.88	1078.99
418.07	943.24
418.26	1060.26
418.45	1107.07
418.64	1053.24
418.83	1144.52
419.02	1001.75
419.21	1132.82
419.39	1203.04
419.58	1114.10
419.77	1074.31
419.96	1064.94
420.15	1151.54
420.34	1090.69
420.53	1254.53
420.72	1165.59
420.91	1111.75
421.10	1196.01
421.29	1121.12
421.48	1186.65
421.67	1205.38
421.86	1130.48
422.05	1254.53
422.24	1153.88
422.43	1226.44
422.61	1191.33
422.80	1261.55
422.99	1203.04
423.18	1196.01
423.37	1327.08
423.56	1280.27
423.75	1172.61
423.94	1191.33
424.13	1163.25
424.32	1324.74
424.50	1277.93
424.69	1299.00
424.88	1226.44
425.07	1301.34
425.26	1179.63
425.45	1228.78
425.64	1205.38
425.83	1369.21
426.01	1214.74
426.20	1303.68
426.39	1277.93
426.58	1387.94
426.77	1277.93
426.96	1231.12
427.15	1203.04
427.33	1277.93
427.52	1369.21
427.71	1371.55
427.90	1317.72
428.09	1348.15
428.28	1394.96
428.46	1380.92
428.65	1427.73
428.84	1376.24
429.03	1554.12
429.22	1425.39
429.40	1345.81
429.59	1439.43
429.78	1371.55
429.97	1343.47
430.16	1357.51
430.34	1397.30
430.53	1338.79
430.72	1416.02
430.91	1423.05
431.10	1451.13
431.28	1624.33
431.47	1516.67
431.66	1526.03
431.85	1547.09
432.03	1497.94
432.22	1568.16
432.41	1504.96
432.60	1572.84
432.79	1568.16
432.97	1493.26
433.16	1451.13
433.35	1511.99
433.54	1497.94
433.72	1572.84
433.91	1629.01
434.10	1596.25
434.28	1619.65
434.47	1598.59
434.66	1666.46
434.85	1568.16
435.03	1746.04
435.22	1818.60
435.41	2036.27
435.59	2064.35
435.78	1954.35
435.97	1746.04
436.16	1736.68
436.34	1722.63
436.53	1633.69
436.72	1806.89
436.90	1659.44
437.09	1699.23
437.28	1664.12
437.46	1652.42
437.65	1722.63
437.84	1645.40
438.02	1703.91
438.21	1727.32
438.40	1757.74
438.58	1783.49
438.77	1764.76
438.96	1834.98
439.14	1849.02
439.33	1916.90
439.52	1774.13
439.70	1830.30
439.89	1893.49
440.08	1816.26
440.26	1825.62
440.45	1919.24
440.63	1898.17
440.82	1905.20
441.01	1944.99
441.19	1975.41
441.38	2012.86
441.57	1977.75
441.75	2059.67
441.94	2026.90
442.12	2022.22
442.31	2022.22
442.50	2132.23
442.68	1963.71
442.87	2101.80
443.05	2122.87
443.24	2106.48
443.43	2167.34
443.61	2066.69
443.80	2249.25
443.98	1987.11
444.17	1963.71
444.35	2176.70
444.54	2083.08
444.73	2169.68
444.91	2136.91
445.10	2097.12
445.28	2083.08
445.47	2108.82
445.65	2139.25
445.84	2146.27
446.02	2073.71
446.21	2066.69
446.39	2134.57
446.58	2169.68
446.77	2232.87
446.95	2190.74
447.14	2155.63
447.32	2209.47
447.51	2078.40
447.69	2200.10
447.88	2202.44
448.06	2078.40
448.25	2221.17
448.43	2087.76
448.62	2148.61
448.80	2239.89
448.99	2188.40
449.17	2169.68
449.36	2228.19
449.54	2258.62
449.73	2253.94
449.91	2361.60
450.10	2249.25
450.28	2296.07
450.46	2317.13
450.65	2321.81
450.83	2347.56
451.02	2239.89
451.20	2289.04
451.39	2296.07
451.57	2305.43
451.76	2363.94
451.94	2237.55
452.13	2366.28
452.31	2354.58
452.49	2495.01
452.68	2438.84
452.86	2377.98
453.05	2399.05
453.23	2420.11
453.42	2314.79
453.60	2282.02
453.78	2462.24
453.97	2335.85
454.15	2504.37
454.34	2497.35
454.52	2516.08
454.70	2413.09
454.89	2548.84
455.07	2511.39
455.26	2560.55
455.44	2497.35
455.62	2544.16
455.81	2551.18
455.99	2530.12
456.17	2534.80
456.36	2450.54
456.54	2630.76
456.73	2558.21
456.91	2729.06
457.09	2600.34
457.28	2810.98
457.46	2605.02
457.64	2773.53
457.83	2710.34
458.01	2607.36
458.19	2689.28
458.38	2686.94
458.56	2705.66
458.74	2710.34
458.93	2726.72
459.11	2754.81
459.29	2640.12
459.48	2717.36
459.66	2825.03
459.84	2801.62
460.03	2881.20
460.21	2855.45
460.39	2759.49
460.57	2705.66
460.76	2693.96
460.94	2654.17
461.12	2813.32
461.31	2778.22
461.49	2796.94
461.67	2883.54
461.85	2911.63
462.04	2890.56
462.22	3211.22
462.40	2810.98
462.59	2874.18
462.77	2888.22
462.95	2951.42
463.13	2906.95
463.32	2902.26
463.50	3016.95
463.68	3014.61
463.86	2836.73
464.05	2897.58
464.23	2888.22
464.41	2916.31
464.59	2864.82
464.78	2988.86
464.96	2888.22
465.14	2911.63
465.32	3068.44
465.50	3084.83
465.69	3009.93
465.87	2944.39
466.05	2869.50
466.23	3103.55
466.41	3101.21
466.60	3131.64
466.78	3162.06
466.96	3143.34
467.14	3054.40
467.32	3052.06
467.51	3141.00
467.69	2988.86
467.87	3054.40
468.05	3047.38
468.23	3016.95
468.41	3103.55
468.60	3129.30
468.78	3155.04
468.96	3131.64
469.14	3204.19
469.32	3171.43
469.50	3141.00
469.69	3089.51
469.87	3262.71
470.05	3267.39
470.23	3384.41
470.41	3267.39
470.59	3253.34
470.77	3393.78
470.95	3288.45
471.14	3391.44
471.32	3384.41
471.50	3548.25
471.68	3510.80
471.86	3515.48
472.04	3344.63
472.22	3438.25
472.40	3414.84
472.58	3421.86
472.77	3424.20
472.95	3407.82
473.13	3475.70
473.31	3459.31
473.49	3375.05
473.67	3630.17
473.85	3454.63
474.03	3728.47
474.21	3639.53
474.39	3662.94
474.57	3726.13
474.75	3730.81
474.93	3712.09
475.12	3747.20
475.30	3791.67
475.48	3733.15
475.66	3740.18
475.84	3815.07
476.02	3770.60
476.20	3775.28
476.38	3873.59
476.56	3946.14
476.74	3875.93
476.92	3847.84
477.10	4039.76
477.28	4044.45
477.46	3981.25
477.64	4023.38
477.82	4016.36
478.00	4154.45
478.18	4058.49
478.36	4264.46
478.54	4154.45
478.72	4241.05
478.90	4229.35
479.08	4301.90
479.26	4395.53
479.44	4407.23
479.62	4287.86
479.80	4397.87
479.98	4482.13
480.16	4540.64
480.34	4400.21
480.52	4486.81
480.70	4524.26
480.88	4507.87
481.06	4557.02
481.24	4479.79
481.41	4645.96
481.59	4793.42
481.77	4744.27
481.95	4697.46
482.13	4732.56
482.31	4924.49
482.49	4915.12
482.67	4997.04
482.85	5001.72
483.03	5097.69
483.21	5078.96
483.39	5008.75
483.57	5011.09
483.74	5235.78
483.92	5200.67
484.10	5046.20
484.28	5350.46
484.46	5497.92
484.64	5488.56
484.82	5399.62
485.00	5481.53
485.18	5418.34
485.35	5778.78
485.53	5628.99
485.71	5591.54
485.89	5743.67
486.07	5591.54
486.25	5680.48
486.43	5753.04
486.61	5738.99
486.78	5853.68
486.96	5846.66
487.14	5940.28
487.32	6015.18
487.50	5989.43
487.68	5977.73
487.85	6293.70
488.03	6026.88
488.21	6300.72
488.39	6183.70
488.57	6352.21
488.75	6258.59
488.92	6778.19
489.10	6373.28
489.28	6686.91
489.46	6595.63
489.64	6579.25
489.81	6565.20
489.99	6607.33
490.17	6881.18
490.35	6843.73
490.53	6668.19
490.70	6888.20
490.88	6825.00
491.06	7054.37
491.24	6935.01
491.41	6974.80
491.59	7068.42
491.77	7126.93
491.95	7234.60
492.13	7138.63
492.30	7330.56
492.48	7159.70
492.66	7304.81
492.84	7215.87
493.01	7307.15
493.19	7468.65
493.37	7485.03
493.54	7485.03
493.72	7723.77
493.90	7524.82
494.08	7573.97
494.25	7662.91
494.43	7564.61
494.61	7709.72
494.79	7599.72
494.96	7833.77
495.14	7903.99
495.32	7843.14
495.49	7880.58
495.67	8035.06
495.85	8058.46
496.02	8018.68
496.20	8138.04
496.38	8278.47
496.55	8177.83
496.73	8294.86
496.91	8224.64
497.09	8425.93
497.26	8416.57
497.44	8468.06
497.62	8428.27
497.79	8486.78
497.97	8564.02
498.14	8610.83
498.32	8493.80
498.50	8631.90
498.67	8561.68
498.85	8615.51
499.03	8561.68
499.20	8929.14
499.38	8767.65
499.56	8767.65
499.73	8933.82
499.91	9067.24
500.08	8978.30
500.26	8842.54
500.44	9029.79
500.61	9083.62
500.79	8879.99
500.97	9217.03
501.14	9500.23
501.32	9083.62
501.49	9212.35
501.67	9249.80
501.84	9167.88
502.02	9268.52
502.20	9493.21
502.37	9357.46
502.55	9446.40
502.72	9385.55
502.90	9383.21
503.07	9500.23
503.25	9488.53
503.43	9268.52
503.60	9635.99
503.78	9556.41
503.95	9497.89
504.13	9640.67
504.30	9640.67
504.48	9858.34
504.65	9788.12
504.83	9848.97
505.01	9760.03
505.18	9905.15
505.36	10010.47
505.53	9877.06
505.71	10010.47
505.88	9963.66
506.06	9818.55
506.23	10061.96
506.41	9900.47
506.58	10134.52
506.76	10260.91
506.93	10139.20
507.11	10040.90
507.28	10071.33
507.46	10246.87
507.63	10305.38
507.81	10167.29
507.98	10111.11
508.16	10246.87
508.33	10279.63
508.50	10396.66
508.68	10420.06
508.85	10595.61
509.03	10408.36
509.20	10586.24
509.38	10565.18
509.55	10710.29
509.73	10670.50
509.90	10523.05
510.08	10815.62
510.25	10949.03
510.42	10712.63
510.60	10761.78
510.77	10956.05
510.95	10813.28
511.12	10906.90
511.30	10714.97
511.47	10785.19
511.64	11253.30
511.82	10965.41
511.99	10810.93
512.17	10991.16
512.34	10874.13
512.51	11227.55
512.69	11176.06
512.86	11243.93
513.04	11269.68
513.21	11335.21
513.38	11384.37
513.56	11199.46
513.73	11157.33
513.90	11513.10
514.08	11335.21
514.25	11398.41
514.43	11587.99
514.60	11506.07
514.77	11421.81
514.95	11501.39
515.12	11571.61
515.29	11503.73
515.47	11550.54
515.64	11695.66
515.81	11655.87
515.99	11632.46
516.16	11716.72
516.33	11901.62
516.51	11885.24
516.68	11683.95
516.85	11850.13
517.03	11618.42
517.20	11967.16
517.37	12020.99
517.54	11845.45
517.72	11833.75
517.89	11894.60
518.06	11936.73
518.24	12016.31
518.41	11885.24
518.58	12046.74
518.75	11950.78
518.93	12533.57
519.10	12173.13
519.27	12367.39
519.45	12428.24
519.62	12114.61
519.79	12177.81
519.96	12238.66
520.14	12358.03
520.31	12313.56
520.48	12322.92
520.65	12374.41
520.83	12493.78
521.00	12435.27
521.17	12580.38
521.34	12386.12
521.52	12636.55
521.69	12444.63
521.86	12559.31
522.03	12606.13
522.20	12788.69
522.38	12751.24
522.55	12840.18
522.72	13001.68
522.89	12798.05
523.07	12854.22
523.24	12795.71
523.41	12877.63
523.58	12858.90
523.75	13046.15
523.92	12985.29
524.10	12814.43
524.27	12975.93
524.44	13074.23
524.61	13135.09
524.78	12971.25
524.96	13186.58
525.13	13273.18
525.30	13275.52
525.47	13121.04
525.64	13273.18
525.81	13427.65
525.98	13116.36
526.16	13252.11
526.33	13523.62
526.50	13493.19
526.67	13022.74
526.84	13462.76
527.01	13441.70
527.18	13364.46
527.36	13263.82
527.53	13612.56
527.70	13764.69
527.87	13619.58
528.04	13631.28
528.21	13252.11
528.38	13547.02
528.55	13628.94
528.72	13752.99
528.89	13657.03
529.07	13495.53
529.24	13530.64
529.41	13657.03
529.58	13729.58
529.75	13642.98
529.92	13568.09
530.09	13645.32
530.26	13975.34
530.43	13586.81
530.60	13549.36
530.77	14085.34
530.94	13984.70
531.11	13624.26
531.28	13886.40
531.46	13638.30
531.63	13825.54
531.80	14057.26
531.97	14284.29
532.14	14347.48
532.31	13893.42
532.48	14015.13
532.65	14139.18
532.82	14022.15
532.99	14071.30
533.16	14221.10
533.33	14462.17
533.50	14417.70
533.67	14160.24
533.84	14286.63
534.01	13954.27
534.18	14368.55
534.35	14221.10
534.52	14094.71
534.69	14539.41
534.86	14511.32
535.03	14579.20
535.20	14300.67
535.37	14197.69
535.54	14396.64
535.71	14520.68
535.88	14312.38
536.05	14223.44
536.22	14684.52
536.38	14569.83
536.55	14422.38
536.72	14361.53
536.89	14546.43
537.06	14590.90
537.23	14415.36
537.40	14726.65
537.57	14710.27
537.74	14778.14
537.91	14621.33
538.08	14761.76
538.25	14562.81
538.42	14927.94
538.59	14743.03
538.75	14782.82
538.92	14738.35
539.09	14827.29
539.26	14963.04
539.43	14951.34
539.60	15197.10
539.77	15143.27
539.94	15169.01
540.11	15047.30
540.28	15204.12
540.44	15260.29
540.61	15082.41
540.78	15405.41
540.95	15016.88
541.12	15470.94
541.29	15475.62
541.46	15529.45
541.62	15562.22
541.79	15510.73
541.96	15356.25
542.13	15580.95
542.30	15482.64
542.47	15641.80
542.63	15513.07
542.80	15405.41
542.97	15580.95
543.14	15604.35
543.31	15854.79
543.48	15374.98
543.64	15943.73
543.81	15616.05
543.98	15910.96
544.15	15651.16
544.32	15800.96
544.48	15812.66
544.65	15658.18
544.82	15779.89
544.99	15805.64
545.16	15864.15
545.32	15712.02
545.49	16374.39
545.66	16671.64
545.83	16739.51
546.00	16996.97
546.16	16453.97
546.33	15981.18
546.50	15885.22
546.67	15950.75
546.83	15775.21
547.00	15641.80
547.17	15857.13
547.34	15889.90
547.50	15639.46
547.67	16035.01
547.84	15721.38
548.00	15840.75
548.17	16100.55
548.34	15831.38
548.51	16128.63
548.67	15971.82
548.84	15985.86
549.01	16058.42
549.18	15908.62
549.34	15826.70
549.51	15768.19
549.68	15908.62
549.84	15868.83
550.01	15997.56
550.18	15992.88
550.34	15887.56
550.51	16126.29
550.68	16145.02
550.84	16058.42
551.01	16027.99
551.18	15798.62
551.34	15735.42
551.51	15908.62
551.68	15922.66
551.84	15971.82
552.01	16011.60
552.18	15988.20
552.34	15913.30
552.51	16126.29
552.68	16042.03
552.84	16063.10
553.01	15957.77
553.18	16404.81
553.34	16287.79
553.51	16051.39
553.67	16585.04
553.84	16187.14
554.01	16018.63
554.17	16093.52
554.34	16016.29
554.51	16212.89
554.67	16201.19
554.84	16170.76
555.00	16039.69
555.17	16177.78
555.33	16271.40
555.50	16212.89
555.67	16168.42
555.83	16072.46
556.00	16264.38
556.16	16486.73
556.33	16252.68
556.50	16198.85
556.66	16418.86
556.83	16262.04
556.99	16578.01
557.16	16561.63
557.32	16423.54
557.49	16517.16
557.65	16255.02
557.82	16121.61
557.98	16322.90
558.15	16386.09
558.32	16358.00
558.48	16496.10
558.65	16676.32
558.81	16615.46
558.98	16346.30
559.14	16446.94
559.31	16137.99
559.47	16203.53
559.64	16561.63
559.80	16484.39
559.97	16535.88
560.13	16627.17
560.30	16301.83
560.46	16196.51
560.63	16568.65
560.79	16386.09
560.96	16468.01
561.12	16407.16
561.29	16084.16
561.45	16329.92
561.61	16519.50
561.78	16702.06
561.94	16688.02
562.11	16947.82
562.27	16704.40
562.44	16587.38
562.60	16648.23
562.77	16526.52
562.93	16327.58
563.10	16669.30
563.26	16418.86
563.42	16856.54
563.59	16844.84
563.75	16446.94
563.92	16819.09
564.08	16610.78
564.24	16322.90
564.41	16449.28
564.57	16353.32
564.74	16397.79
564.90	16568.65
565.07	16882.28
565.23	16446.94
565.39	16500.78
565.56	16765.26
565.72	16334.60
565.88	16435.24
566.05	16669.30
566.21	16554.61
566.38	16561.63
566.54	16613.12
566.70	16697.38
566.87	16774.62
567.03	16676.32
567.19	16606.10
567.36	16748.87
567.52	16245.66
567.68	16755.90
567.85	16468.01
568.01	16671.64
568.17	16517.16
568.34	16744.19
568.50	16964.20
568.66	16578.01
568.83	16636.53
568.99	16547.59
569.15	16730.15
569.32	16563.97
569.48	16472.69
569.64	16709.08
569.81	16833.13
569.97	16807.39
570.13	16673.98
570.30	16758.24
570.46	16638.87
570.62	16725.47
570.78	16865.90
570.95	16512.48
571.11	16767.60
571.27	16673.98
571.43	16678.66
571.60	16734.83
571.76	16634.19
571.92	16718.45
572.09	16788.66
572.25	16826.11
572.41	16835.47
572.57	16547.59
572.74	16816.75
572.90	16769.94
573.06	16552.27
573.22	16924.41
573.38	17060.16
573.55	16709.08
573.71	16908.03
573.87	17235.70
574.03	16748.87
574.20	16882.28
574.36	16842.50
574.52	16589.72
574.68	16760.58
574.84	16704.40
575.01	16938.46
575.17	16800.37
575.33	16755.90
575.49	16627.17
575.65	16805.05
575.82	16863.56
575.98	16854.20
576.14	16961.86
576.30	16755.90
576.46	16877.60
576.62	16905.69
576.79	17125.70
576.95	16713.77
577.11	17003.99
577.27	16716.11
577.43	16999.31
577.59	16868.24
577.75	16903.35
577.92	16507.80
578.08	16578.01
578.24	16783.98
578.40	16758.24
578.56	16823.77
578.72	17261.45
578.88	17263.79
579.04	16952.50
579.21	16908.03
579.37	16732.49
579.53	17027.40
579.69	16767.60
579.85	16795.68
580.01	16893.99
580.17	16741.85
580.33	16692.70
580.49	17027.40
580.65	16992.29
580.82	16861.22
580.98	16940.80
581.14	16718.45
581.30	17039.10
581.46	16957.18
581.62	16950.16
581.78	16809.73
581.94	16877.60
582.10	16854.20
582.26	16861.22
582.42	16762.92
582.58	17048.46
582.74	16744.19
582.90	16982.93
583.06	16952.50
583.22	16994.63
583.38	17167.83
583.54	16994.63
583.70	16968.88
583.86	16891.65
584.02	16664.61
584.18	16910.37
584.34	17160.81
584.50	16847.18
584.66	16908.03
584.82	16924.41
584.98	17195.92
585.14	16896.33
585.30	16739.51
585.46	16748.87
585.62	16542.91
585.78	16791.00
585.94	16851.86
586.10	17029.74
586.26	17085.91
586.42	17050.80
586.58	16901.01
586.74	17078.89
586.90	16734.83
587.06	16957.18
587.22	17078.89
587.38	16830.79
587.54	17095.27
587.70	17048.46
587.86	16901.01
588.02	17053.14
588.18	16945.48
588.34	16650.57
588.49	16720.79
588.65	16898.67
588.81	17106.98
588.97	17116.34
589.13	16823.77
589.29	16931.44
589.45	17139.74
589.61	16964.20
589.77	16872.92
589.93	17390.18
590.08	16971.22
590.24	16884.62
590.40	17139.74
590.56	17092.93
590.72	16933.78
590.88	17008.67
591.04	16774.62
591.20	17238.05
591.35	16912.71
591.51	17242.73
591.67	16940.80
591.83	17018.04
591.99	16975.91
592.15	17092.93
592.31	17221.66
592.46	17060.16
592.62	17137.40
592.78	16973.56
592.94	17032.08
593.10	17015.69
593.26	17060.16
593.41	17259.11
