SpectraSuite Data File
++++++++++++++++++++++++++++++++++++
Date: Fri Oct 04 11:39:30 GMT-05:00 2013
User: price-jones
Dark Spectrum Present: No
Reference Spectrum Present: No
Number of Sampled Component Spectra: 1
Spectrometers: USB2+H05261
Integration Time (usec): 100000 (USB2+H05261)
Spectra Averaged: 1 (USB2+H05261)
Boxcar Smoothing: 0 (USB2+H05261)
Correct for Electrical Dark: No (USB2+H05261)
Strobe/Lamp Enabled: No (USB2+H05261)
Correct for Detector Non-linearity: No (USB2+H05261)
Correct for Stray Light: No (USB2+H05261)
Number of Pixels in Processed Spectrum: 2048
>>>>>Begin Processed Spectral Data<<<<<
365.73	51.49
365.92	51.49
366.12	51.49
366.32	0.00
366.52	0.00
366.72	53.83
366.91	0.00
367.11	0.00
367.31	0.00
367.51	0.00
367.70	0.00
367.90	0.00
368.10	0.00
368.30	9.36
368.49	0.00
368.69	0.00
368.89	0.00
369.09	0.00
369.28	0.00
369.48	0.00
369.68	0.00
369.87	32.77
370.07	9.36
370.27	7.02
370.47	0.00
370.66	72.56
370.86	142.77
371.06	166.18
371.25	208.31
371.45	119.37
371.65	133.41
371.84	156.82
372.04	145.11
372.24	107.66
372.44	98.30
372.63	159.16
372.83	222.35
373.03	177.88
373.22	170.86
373.42	203.63
373.62	168.52
373.81	201.29
374.01	241.08
374.21	154.48
374.40	276.18
374.60	198.95
374.79	236.39
374.99	145.11
375.19	194.26
375.38	177.88
375.58	175.54
375.78	234.05
375.97	194.26
376.17	271.50
376.37	177.88
376.56	245.76
376.76	227.03
376.95	149.79
377.15	224.69
377.35	208.31
377.54	173.20
377.74	114.69
377.93	142.77
378.13	133.41
378.33	149.79
378.52	170.86
378.72	138.09
378.91	222.35
379.11	234.05
379.31	210.65
379.50	180.22
379.70	166.18
379.89	166.18
380.09	173.20
380.28	182.56
380.48	196.60
380.68	147.45
380.87	140.43
381.07	156.82
381.26	248.10
381.46	156.82
381.65	217.67
381.85	147.45
382.04	227.03
382.24	191.92
382.43	203.63
382.63	173.20
382.83	252.78
383.02	189.58
383.22	236.39
383.41	189.58
383.61	191.92
383.80	215.33
384.00	238.73
384.19	248.10
384.39	205.97
384.58	184.90
384.78	236.39
384.97	241.08
385.17	170.86
385.36	184.90
385.56	215.33
385.75	271.50
385.95	285.55
386.14	220.01
386.34	191.92
386.53	163.84
386.72	128.73
386.92	262.14
387.11	180.22
387.31	215.33
387.50	205.97
387.70	208.31
387.89	236.39
388.09	236.39
388.28	252.78
388.48	301.93
388.67	318.31
388.86	217.67
389.06	229.37
389.25	227.03
389.45	205.97
389.64	222.35
389.84	184.90
390.03	231.71
390.22	313.63
390.42	245.76
390.61	220.01
390.81	241.08
391.00	264.48
391.19	271.50
391.39	234.05
391.58	290.23
391.78	264.48
391.97	245.76
392.16	229.37
392.36	311.29
392.55	290.23
392.75	299.59
392.94	287.89
393.13	348.74
393.33	229.37
393.52	304.27
393.71	325.33
393.91	271.50
394.10	299.59
394.29	318.31
394.49	339.38
394.68	351.08
394.88	334.70
395.07	334.70
395.26	374.49
395.46	248.10
395.65	334.70
395.84	334.70
396.04	390.87
396.23	330.02
396.42	320.65
396.62	379.17
396.81	348.74
397.00	311.29
397.19	381.51
397.39	383.85
397.58	418.96
397.77	458.74
397.97	327.68
398.16	390.87
398.35	475.13
398.55	386.19
398.74	433.00
398.93	475.13
399.12	407.25
399.32	503.22
399.51	440.02
399.70	484.49
399.90	444.70
400.09	456.40
400.28	451.72
400.47	463.43
400.67	449.38
400.86	461.09
401.05	430.66
401.24	468.11
401.44	479.81
401.63	411.93
401.82	479.81
402.01	440.02
402.21	575.77
402.40	550.03
402.59	543.00
402.78	543.00
402.97	477.47
403.17	543.00
403.36	514.92
403.55	594.50
403.74	615.56
403.93	601.52
404.13	608.54
404.32	629.60
404.51	737.27
404.70	709.18
404.89	645.99
405.09	671.73
405.28	643.65
405.47	613.22
405.66	788.76
405.85	800.46
406.05	674.07
406.24	683.44
406.43	770.04
406.62	718.54
406.81	873.02
407.00	727.91
407.20	760.67
407.39	725.57
407.58	688.12
407.77	802.80
407.96	777.06
408.15	833.23
408.34	851.96
408.54	828.55
408.73	795.78
408.92	786.42
409.11	858.98
409.30	917.49
409.49	844.93
409.68	894.08
409.87	931.53
410.07	807.48
410.26	950.26
410.45	898.77
410.64	933.87
410.83	945.58
411.02	961.96
411.21	1062.60
411.40	983.02
411.59	985.37
411.78	922.17
411.98	1076.65
412.17	1181.97
412.36	1027.50
412.55	1097.71
412.74	1100.05
412.93	1043.88
413.12	1160.91
413.31	1177.29
413.50	1193.67
413.69	1221.76
413.88	1266.23
414.07	1177.29
414.26	1214.74
414.45	1156.22
414.64	1315.38
414.83	1294.32
415.02	1226.44
415.22	1235.80
415.41	1380.92
415.60	1306.02
415.79	1313.04
415.98	1399.64
416.17	1369.21
416.36	1371.55
416.55	1317.72
416.74	1434.75
416.93	1474.54
417.12	1390.28
417.31	1493.26
417.50	1455.81
417.69	1633.69
417.88	1425.39
418.07	1521.35
418.26	1570.50
418.45	1507.30
418.64	1605.61
418.83	1584.54
419.02	1544.75
419.21	1638.38
419.39	1654.76
419.58	1617.31
419.77	1650.08
419.96	1544.75
420.15	1617.31
420.34	1561.14
420.53	1671.14
420.72	1694.55
420.91	1762.42
421.10	1785.83
421.29	1643.06
421.48	1785.83
421.67	1746.04
421.86	1795.19
422.05	1802.21
422.24	1715.61
422.43	1806.89
422.61	1743.70
422.80	1846.68
422.99	1849.02
423.18	1825.62
423.37	1851.36
423.56	1856.04
423.75	1872.43
423.94	1750.72
424.13	1722.63
424.32	1753.06
424.50	1870.09
424.69	1961.37
424.88	1912.22
425.07	1851.36
425.26	1867.75
425.45	1867.75
425.64	1879.45
425.83	1947.33
426.01	1912.22
426.20	1905.20
426.39	1755.40
426.58	1902.86
426.77	1881.79
426.96	1987.11
427.15	1940.30
427.33	1933.28
427.52	1907.54
427.71	1980.09
427.90	2104.14
428.09	1961.37
428.28	2071.37
428.46	1959.03
428.65	2031.58
428.84	2134.57
429.03	2001.16
429.22	1921.58
429.40	2069.03
429.59	2031.58
429.78	1944.99
429.97	1914.56
430.16	1996.48
430.34	2001.16
430.53	2115.84
430.72	2148.61
430.91	2157.97
431.10	2040.95
431.28	2148.61
431.47	2160.31
431.66	2183.72
431.85	2066.69
432.03	2167.34
432.22	2373.30
432.41	2190.74
432.60	2204.78
432.79	2232.87
432.97	2237.55
433.16	2225.85
433.35	2253.94
433.54	2202.44
433.72	2218.83
433.91	2284.36
434.10	2270.32
434.28	2286.70
434.47	2345.22
434.66	2345.22
434.85	2370.96
435.03	2324.15
435.22	2614.38
435.41	2869.50
435.59	2801.62
435.78	2715.02
435.97	2495.01
436.16	2375.64
436.34	2464.58
436.53	2466.92
436.72	2569.91
436.90	2394.37
437.09	2520.76
437.28	2471.61
437.46	2490.33
437.65	2476.29
437.84	2499.69
438.02	2579.27
438.21	2513.74
438.40	2595.65
438.58	2605.02
438.77	2719.70
438.96	2724.38
439.14	2619.06
439.33	2708.00
439.52	2696.30
439.70	2815.66
439.89	2726.72
440.08	2911.63
440.26	2717.36
440.45	2810.98
440.63	2883.54
440.82	2825.03
441.01	2958.44
441.19	2867.16
441.38	2909.29
441.57	2979.50
441.75	2892.90
441.94	3002.91
442.12	2925.67
442.31	2981.84
442.50	3014.61
442.68	3077.80
442.87	3030.99
443.05	2967.80
443.24	3105.89
443.43	3059.08
443.61	3112.91
443.80	3213.56
443.98	3155.04
444.17	3066.10
444.35	3021.63
444.54	3222.92
444.73	3166.74
444.91	3045.04
445.10	3101.21
445.28	3129.30
445.47	3112.91
445.65	3124.62
445.84	3164.40
446.02	3110.57
446.21	3098.87
446.39	3019.29
446.58	3131.64
446.77	3215.90
446.95	3208.87
447.14	3199.51
447.32	3295.47
447.51	3169.09
447.69	3171.43
447.88	3302.50
448.06	3288.45
448.25	3297.81
448.43	3187.81
448.62	3225.26
448.80	3211.22
448.99	3274.41
449.17	3218.24
449.36	3248.66
449.54	3300.16
449.73	3494.42
449.91	3396.12
450.10	3344.63
450.28	3412.50
450.46	3365.69
450.65	3393.78
450.83	3384.41
451.02	3311.86
451.20	3494.42
451.39	3499.10
451.57	3485.06
451.76	3541.23
451.94	3405.48
452.13	3534.21
452.31	3447.61
452.49	3323.56
452.68	3531.87
452.86	3452.29
453.05	3517.83
453.23	3515.48
453.42	3454.63
453.60	3543.57
453.78	3625.49
453.97	3478.04
454.15	3513.14
454.34	3517.83
454.52	3534.21
454.70	3660.60
454.89	3693.37
455.07	3606.77
455.26	3620.81
455.44	3737.84
455.62	3574.00
455.81	3786.99
455.99	3747.20
456.17	3747.20
456.36	3609.11
456.54	3754.22
456.73	3803.37
456.91	3927.42
457.09	3674.64
457.28	3847.84
457.46	3936.78
457.64	3964.87
457.83	3857.20
458.01	3894.65
458.19	3857.20
458.38	3906.35
458.56	3960.19
458.74	3857.20
458.93	3939.12
459.11	3960.19
459.29	3978.91
459.48	4074.87
459.66	4077.21
459.84	4109.98
460.03	4227.01
460.21	4025.72
460.39	4142.75
460.57	4107.64
460.76	4184.88
460.94	4107.64
461.12	4203.60
461.31	4152.11
461.49	4126.36
461.67	4224.67
461.85	4212.96
462.04	4271.48
462.22	4379.14
462.40	4362.76
462.59	4386.16
462.77	4358.08
462.95	4315.95
463.13	4414.25
463.32	4423.61
463.50	4381.48
463.68	4313.61
463.86	4390.84
464.05	4329.99
464.23	4409.57
464.41	4376.80
464.59	4311.27
464.78	4418.93
464.96	4458.72
465.14	4468.08
465.32	4489.15
465.50	4641.28
465.69	4552.34
465.87	4430.63
466.05	4510.21
466.23	4704.48
466.41	4498.51
466.60	4580.43
466.78	4526.60
466.96	4526.60
467.14	4596.81
467.32	4674.05
467.51	4550.00
467.69	4585.11
467.87	4472.76
468.05	4596.81
468.23	4629.58
468.41	4674.05
468.60	4613.20
468.78	4762.99
468.96	4683.41
469.14	4772.35
469.32	4891.72
469.50	4643.62
469.69	4802.78
469.87	4856.61
470.05	4938.53
470.23	4847.25
470.41	4910.44
470.59	5027.47
470.77	4854.27
470.95	4896.40
471.14	5111.73
471.32	4868.31
471.50	5116.41
471.68	5083.64
471.86	5158.54
472.04	5041.51
472.22	5025.13
472.40	5100.03
472.58	5303.65
472.77	5184.29
472.95	5160.88
473.13	5401.96
473.31	5165.56
473.49	5198.33
473.67	5139.82
473.85	5256.84
474.03	5331.74
474.21	5345.78
474.39	5504.94
474.57	5434.72
474.75	5500.26
474.93	5458.13
475.12	5479.19
475.30	5626.65
475.48	5540.05
475.66	5521.32
475.84	5582.18
476.02	5589.20
476.20	5593.88
476.38	5785.80
476.56	5731.97
476.74	5760.06
476.92	5781.12
477.10	5844.32
477.28	5738.99
477.46	5865.38
477.64	5909.85
477.82	6076.03
478.00	6209.44
478.18	6029.22
478.36	6176.67
478.54	6242.21
478.72	6289.02
478.90	6312.42
479.08	6310.08
479.26	6223.48
479.44	6450.52
479.62	6562.86
479.80	6410.73
479.98	6616.69
480.16	6558.18
480.34	6682.23
480.52	6743.08
480.70	6771.17
480.88	6895.22
481.06	6731.38
481.24	6864.79
481.41	6729.04
481.59	7119.91
481.77	7094.16
481.95	7094.16
482.13	6972.46
482.31	7307.15
482.49	7152.68
482.67	7222.89
482.85	7545.89
483.03	7438.22
483.21	7569.29
483.39	7620.78
483.57	7508.44
483.74	7747.17
483.92	7742.49
484.10	7653.55
484.28	7974.21
484.46	8023.36
484.64	8065.49
484.82	7962.50
485.00	8203.58
485.18	8114.64
485.35	8163.79
485.53	8280.82
485.71	8128.68
485.89	8372.10
486.07	8540.61
486.25	8592.11
486.43	8414.23
486.61	8648.28
486.78	8805.10
486.96	8887.01
487.14	8809.78
487.32	8748.92
487.50	8779.35
487.68	8917.44
487.85	9027.45
488.03	9256.82
488.21	9563.43
488.39	9338.74
488.57	9453.42
488.75	9343.42
488.92	9696.84
489.10	9596.20
489.28	9776.42
489.46	9954.30
489.64	9867.70
489.81	10099.41
489.99	9841.95
490.17	9935.57
490.35	10221.12
490.53	9987.07
490.70	10218.78
490.88	10296.02
491.06	10356.87
491.24	10293.68
491.41	10363.89
491.59	10457.51
491.77	10375.59
491.95	10764.12
492.13	10677.52
492.30	10909.24
492.48	10836.68
492.66	10736.04
492.84	10803.91
493.01	10906.90
493.19	11037.97
493.37	11342.24
493.54	11190.10
493.72	11454.58
493.90	11208.83
494.08	11318.83
494.25	11580.97
494.43	11477.99
494.61	11508.41
494.79	11777.58
494.96	11655.87
495.14	11913.33
495.32	11920.35
495.49	11826.73
495.67	11793.96
495.85	12077.16
496.02	12049.08
496.20	12023.33
496.38	12095.89
496.55	12091.21
496.73	12465.69
496.91	12456.33
497.09	12491.44
497.26	12578.04
497.44	12629.53
497.62	12507.82
497.79	12980.61
497.97	12519.53
498.14	12784.01
498.32	12879.97
498.50	13088.28
498.67	13097.64
498.85	12982.95
499.03	12929.12
499.20	13118.70
499.38	13069.55
499.56	13179.56
499.73	13291.90
499.91	13233.39
500.08	13259.13
500.26	13453.40
500.44	13556.38
500.61	13575.11
500.79	13458.08
500.97	13741.29
501.14	13792.78
501.32	13689.79
501.49	13841.93
501.67	13706.18
501.84	13750.65
502.02	13853.63
502.20	13968.32
502.37	14068.96
502.55	14017.47
502.72	13926.19
502.90	13940.23
503.07	14073.64
503.25	14223.44
503.43	14040.87
503.60	14347.48
503.78	14511.32
503.95	14326.42
504.13	14490.26
504.30	14457.49
504.48	14244.50
504.65	14494.94
504.83	14642.39
505.01	14637.71
505.18	14881.13
505.36	14953.68
505.53	14665.80
505.71	14937.30
505.88	14923.26
506.06	14775.80
506.23	14949.00
506.41	15061.35
506.58	14956.02
506.76	15407.75
506.93	15115.18
507.11	15353.91
507.28	15283.70
507.46	15625.42
507.63	15431.15
507.81	15330.51
507.98	15417.11
508.16	15475.62
508.33	15609.03
508.50	15796.28
508.68	15742.44
508.85	15866.49
509.03	15850.11
509.20	15927.35
509.38	15843.09
509.55	15946.07
509.73	15854.79
509.90	16271.40
510.08	16032.67
510.25	16252.68
510.42	16224.59
510.60	16212.89
510.77	16343.96
510.95	16449.28
511.12	16046.71
511.30	16259.70
511.47	16599.08
511.64	16596.74
511.82	16648.23
511.99	16631.85
512.17	16643.55
512.34	16685.68
512.51	16673.98
512.69	16837.81
512.86	16783.98
513.04	17149.11
513.21	16812.07
513.38	17090.59
513.56	16884.62
513.73	16727.81
513.90	17041.44
514.08	17308.26
514.25	17186.55
514.43	17055.48
514.60	17378.48
514.77	17429.97
514.95	17483.80
515.12	17259.11
515.29	17238.05
515.47	17387.84
515.64	17657.00
515.81	17502.53
515.99	17600.83
516.16	17715.51
516.33	17596.15
516.51	17874.67
516.68	17809.14
516.85	17790.41
517.03	17874.67
517.20	17785.73
517.37	17965.95
517.54	18331.08
517.72	17987.02
517.89	18008.08
518.06	18026.81
518.24	17933.18
518.41	18146.17
518.58	18122.77
518.75	18043.19
518.93	18429.38
519.10	18417.68
519.27	18281.92
519.45	18279.58
519.62	18604.92
519.79	18408.31
519.96	18490.23
520.14	18410.65
520.31	18956.00
520.48	18523.00
520.65	18537.04
520.83	18689.18
521.00	18593.22
521.17	18635.35
521.34	19122.18
521.52	18986.43
521.69	19070.68
521.86	19105.79
522.03	19082.39
522.20	19229.84
522.38	19040.26
522.55	19110.47
522.72	19028.56
522.89	19513.05
523.07	19208.78
523.24	18965.36
523.41	19653.48
523.58	19543.47
523.75	19435.81
523.92	19311.76
524.10	19286.01
524.27	19726.04
524.44	19674.54
524.61	19639.44
524.78	19590.28
524.96	19344.53
525.13	19637.09
525.30	19906.26
525.47	19777.53
525.64	19515.39
525.81	19791.57
525.98	20159.03
526.16	19875.83
526.33	19878.17
526.50	20065.41
526.67	19711.99
526.84	19838.38
527.01	19728.38
527.18	20147.33
527.36	19939.02
527.53	20112.22
527.70	20449.26
527.87	20608.42
528.04	20166.06
528.21	20393.09
528.38	20463.30
528.55	20262.02
528.72	20699.70
528.89	20439.90
529.07	20545.22
529.24	20472.67
529.41	20606.08
529.58	20357.98
529.75	20196.48
529.92	20559.27
530.09	20538.20
530.26	20741.83
530.43	20790.98
530.60	20634.16
530.77	20767.57
530.94	20898.64
531.11	20875.24
531.28	20727.78
531.46	20966.52
531.63	20952.48
531.80	20865.88
531.97	21142.06
532.14	20989.92
532.31	20861.19
532.48	20959.50
532.65	21640.59
532.82	21008.65
532.99	21256.75
533.16	21069.50
533.33	21568.04
533.50	21455.69
533.67	21525.91
533.84	21467.39
534.01	21296.53
534.18	20889.28
534.35	21469.73
534.52	21322.28
534.69	21799.75
534.86	21490.80
535.03	21427.60
535.20	21706.13
535.37	21537.61
535.54	21844.22
535.71	21575.06
535.88	21415.90
536.05	21687.40
536.22	21694.43
536.38	21724.85
536.55	21624.21
536.72	21757.62
536.89	21846.56
537.06	21830.18
537.23	21556.33
537.40	21766.98
537.57	21923.80
537.74	21940.18
537.91	22097.00
538.08	22097.00
538.25	22146.15
538.42	22216.36
538.59	22181.26
538.75	21977.63
538.92	22068.91
539.09	22391.91
539.26	22258.49
539.43	22284.24
539.60	22230.41
539.77	22443.40
539.94	22508.93
540.11	22347.44
540.28	22787.46
540.44	22637.66
540.61	22644.68
540.78	22405.95
540.95	23030.87
541.12	22508.93
541.29	22817.88
541.46	22843.63
541.62	23002.78
541.79	22740.64
541.96	23007.47
542.13	22881.08
542.30	22995.76
542.47	22881.08
542.63	23171.30
542.80	23161.94
542.97	23449.83
543.14	23136.20
543.31	23063.64
543.48	23154.92
543.64	23365.57
543.81	23274.29
543.98	23234.50
544.15	23082.36
544.32	23297.69
544.48	23868.78
544.65	23138.54
544.82	23653.45
544.99	23421.74
545.16	23218.11
545.32	23384.29
545.49	23786.86
545.66	24238.59
545.83	24573.28
546.00	24809.68
546.16	23824.31
546.33	23548.13
546.50	23571.54
546.67	23782.18
546.83	23222.80
547.00	23573.88
547.17	23147.90
547.34	23548.13
547.50	23836.02
547.67	23833.68
547.84	23669.84
548.00	23655.79
548.17	23857.08
548.34	23461.53
548.51	23967.09
548.67	23494.30
548.84	23779.84
549.01	24023.26
549.18	23510.68
549.34	24212.84
549.51	23487.28
549.68	23709.63
549.84	23740.05
550.01	23346.84
550.18	23838.36
550.34	23735.37
550.51	24112.20
550.68	23899.21
550.84	23690.90
551.01	24095.82
551.18	24053.69
551.34	23793.89
551.51	23889.85
551.68	24133.26
551.84	24161.35
552.01	23913.25
552.18	24072.41
552.34	23861.76
552.51	24187.10
552.68	23990.49
552.84	24280.72
553.01	24084.11
553.18	24016.24
553.34	24238.59
553.51	24060.71
553.67	24493.71
553.84	24463.28
554.01	24156.67
554.17	24112.20
554.34	24187.10
554.51	24032.62
554.67	24142.63
554.84	24093.47
555.00	23908.57
555.17	24397.74
555.33	24460.94
555.50	24219.86
555.67	24407.11
555.83	24397.74
556.00	23906.23
556.16	24697.33
556.33	24379.02
556.50	24437.53
556.66	24507.75
556.83	24212.84
556.99	24418.81
557.16	24566.26
557.32	24364.98
557.49	24374.34
557.65	24217.52
557.82	24271.36
557.98	24390.72
558.15	24559.24
558.32	24720.74
558.48	24865.85
558.65	24346.25
558.81	24517.11
558.98	24322.85
559.14	24474.98
559.31	24479.66
559.47	24374.34
559.64	24741.80
559.80	24444.56
559.97	24439.87
560.13	24730.10
560.30	24781.59
560.46	24982.88
560.63	25020.33
560.79	24683.29
560.96	24671.59
561.12	24643.50
561.29	24734.78
561.45	24758.19
561.61	24795.64
561.78	24629.46
561.94	24952.45
562.11	24788.61
562.27	24643.50
562.44	24622.44
562.60	24673.93
562.77	24872.87
562.93	24779.25
563.10	24856.49
563.26	24706.70
563.42	25109.27
563.59	24690.31
563.75	24886.92
563.92	24898.62
564.08	24589.67
564.24	24737.12
564.41	25331.62
564.57	24940.75
564.74	24552.22
564.90	25116.29
565.07	24816.70
565.23	24980.54
565.39	24723.08
565.56	24933.73
565.72	24372.00
565.88	24727.76
566.05	24599.03
566.21	24425.83
566.38	24790.95
566.54	24631.80
566.70	24982.88
566.87	25020.33
567.03	24905.64
567.19	25340.98
567.36	25172.46
567.52	24774.57
567.68	24788.61
567.85	24952.45
568.01	24830.74
568.17	24879.89
568.34	25022.67
568.50	25127.99
568.66	24727.76
568.83	25312.89
568.99	24982.88
569.15	24996.92
569.32	24687.97
569.48	24915.00
569.64	24999.26
569.81	25324.60
569.97	25195.87
570.13	24905.64
570.30	24629.46
570.46	24947.77
570.62	24875.21
570.78	24907.98
570.95	25198.21
571.11	25027.35
571.27	24945.43
571.43	24786.27
571.60	25013.31
571.76	25015.65
571.92	24996.92
572.09	25242.68
572.25	25205.23
572.41	25090.54
572.57	24931.39
572.74	25233.32
572.90	25200.55
573.06	24924.36
573.22	24994.58
573.38	24943.09
573.55	24889.26
573.71	24931.39
573.87	25245.02
574.03	25130.33
574.20	25078.84
574.36	24664.57
574.52	25404.17
574.68	25207.57
574.84	25270.76
575.01	25022.67
575.17	25153.74
575.33	25149.06
575.49	25188.85
575.65	25221.61
575.82	25476.73
575.98	25142.03
576.14	24912.66
576.30	25549.29
576.46	25436.94
576.62	25378.43
576.79	25387.79
576.95	25291.83
577.11	25193.53
577.27	25338.64
577.43	25111.61
577.59	25455.67
577.75	25153.74
577.92	25362.04
578.08	24900.96
578.24	25193.53
578.40	24989.90
578.56	25230.98
578.72	25322.26
578.88	25694.40
579.04	25406.52
579.21	25329.28
579.37	25544.61
579.53	24849.47
579.69	24940.75
579.85	25202.89
580.01	25095.22
580.17	25158.42
580.33	25083.52
580.49	25586.74
580.65	25240.34
580.82	25350.34
580.98	25509.50
581.14	25223.95
581.30	25408.86
581.46	25249.70
581.62	25116.29
581.78	25378.43
581.94	25010.96
582.10	24968.84
582.26	25280.13
582.42	25378.43
582.58	25277.79
582.74	25125.65
582.90	25404.17
583.06	25305.87
583.22	25184.16
583.38	25268.42
583.54	25106.93
583.70	25181.82
583.86	25282.47
584.02	25329.28
584.18	25528.22
584.34	25521.20
584.50	25263.74
584.66	25453.33
584.82	25242.68
584.98	25401.83
585.14	24992.24
585.30	25214.59
585.46	24863.51
585.62	24996.92
585.78	25282.47
585.94	25149.06
586.10	25221.61
586.26	25273.10
586.42	25411.20
586.58	25329.28
586.74	25149.06
586.90	25399.49
587.06	25553.97
587.22	25156.08
587.38	25329.28
587.54	25212.25
587.70	25713.13
587.86	25568.01
588.02	25340.98
588.18	25771.64
588.34	25568.01
588.49	25635.89
588.65	25156.08
588.81	25359.70
588.97	25085.86
589.13	25221.61
589.29	25628.87
589.45	25338.64
589.61	25160.76
589.77	25685.04
589.93	25612.48
590.08	25441.62
590.24	25357.36
590.40	25247.36
590.56	25589.08
590.72	25539.93
590.88	25228.63
591.04	25238.00
591.20	25558.65
591.35	25818.45
591.51	25659.29
591.67	25312.89
591.83	25839.51
591.99	25954.20
592.15	25591.42
592.31	25701.42
