SpectraSuite Data File
++++++++++++++++++++++++++++++++++++
Date: Fri Oct 04 11:39:49 GMT-05:00 2013
User: price-jones
Dark Spectrum Present: No
Reference Spectrum Present: No
Number of Sampled Component Spectra: 1
Spectrometers: USB2+H05261
Integration Time (usec): 100000 (USB2+H05261)
Spectra Averaged: 1 (USB2+H05261)
Boxcar Smoothing: 0 (USB2+H05261)
Correct for Electrical Dark: No (USB2+H05261)
Strobe/Lamp Enabled: No (USB2+H05261)
Correct for Detector Non-linearity: No (USB2+H05261)
Correct for Stray Light: No (USB2+H05261)
Number of Pixels in Processed Spectrum: 2048
>>>>>Begin Processed Spectral Data<<<<<
365.73	16.38
365.92	16.38
366.12	16.38
366.32	16.38
366.52	0.00
366.72	0.00
366.91	0.00
367.11	0.00
367.31	0.00
367.51	0.00
367.70	0.00
367.90	0.00
368.10	0.00
368.30	0.00
368.49	0.00
368.69	0.00
368.89	0.00
369.09	0.00
369.28	0.00
369.48	0.00
369.68	37.45
369.87	28.09
370.07	0.00
370.27	0.00
370.47	14.04
370.66	39.79
370.86	88.94
371.06	198.95
371.25	180.22
371.45	100.64
371.65	182.56
371.84	98.30
372.04	51.49
372.24	119.37
372.44	110.01
372.63	217.67
372.83	212.99
373.03	177.88
373.22	191.92
373.42	205.97
373.62	138.09
373.81	154.48
374.01	208.31
374.21	231.71
374.40	180.22
374.60	210.65
374.79	271.50
374.99	215.33
375.19	224.69
375.38	208.31
375.58	210.65
375.78	313.63
375.97	187.24
376.17	250.44
376.37	170.86
376.56	170.86
376.76	131.07
376.95	152.13
377.15	196.60
377.35	177.88
377.54	147.45
377.74	145.11
377.93	198.95
378.13	252.78
378.33	273.84
378.52	205.97
378.72	241.08
378.91	271.50
379.11	201.29
379.31	175.54
379.50	201.29
379.70	290.23
379.89	262.14
380.09	189.58
380.28	205.97
380.48	191.92
380.68	264.48
380.87	210.65
381.07	222.35
381.26	184.90
381.46	220.01
381.65	278.52
381.85	241.08
382.04	262.14
382.24	285.55
382.43	227.03
382.63	138.09
382.83	175.54
383.02	257.46
383.22	301.93
383.41	297.25
383.61	180.22
383.80	163.84
384.00	231.71
384.19	285.55
384.39	245.76
384.58	234.05
384.78	196.60
384.97	220.01
385.17	358.10
385.36	184.90
385.56	217.67
385.75	124.05
385.95	133.41
386.14	234.05
386.34	241.08
386.53	308.95
386.72	236.39
386.92	301.93
387.11	231.71
387.31	255.12
387.50	294.91
387.70	266.82
387.89	346.40
388.09	229.37
388.28	198.95
388.48	271.50
388.67	257.46
388.86	182.56
389.06	227.03
389.25	276.18
389.45	248.10
389.64	236.39
389.84	280.86
390.03	243.42
390.22	257.46
390.42	308.95
390.61	189.58
390.81	297.25
391.00	241.08
391.19	311.29
391.39	348.74
391.58	297.25
391.78	351.08
391.97	257.46
392.16	257.46
392.36	332.36
392.55	264.48
392.75	294.91
392.94	250.44
393.13	292.57
393.33	266.82
393.52	346.40
393.71	341.72
393.91	315.97
394.10	299.59
394.29	297.25
394.49	320.65
394.68	231.71
394.88	318.31
395.07	311.29
395.26	339.38
395.46	266.82
395.65	327.68
395.84	299.59
396.04	348.74
396.23	346.40
396.42	320.65
396.62	257.46
396.81	381.51
397.00	332.36
397.19	379.17
397.39	320.65
397.58	332.36
397.77	414.27
397.97	322.99
398.16	358.10
398.35	332.36
398.55	320.65
398.74	337.04
398.93	444.70
399.12	404.91
399.32	379.17
399.51	351.08
399.70	374.49
399.90	299.59
400.09	372.15
400.28	440.02
400.47	386.19
400.67	463.43
400.86	332.36
401.05	400.23
401.24	440.02
401.44	407.25
401.63	416.62
401.82	423.64
402.01	418.96
402.21	395.55
402.40	423.64
402.59	421.30
402.78	386.19
402.97	369.80
403.17	397.89
403.36	433.00
403.55	407.25
403.74	365.12
403.93	418.96
404.13	524.28
404.32	500.87
404.51	510.24
404.70	425.98
404.89	491.51
405.09	512.58
405.28	526.62
405.47	327.68
405.66	550.03
405.85	524.28
406.05	528.96
406.24	519.60
406.43	535.98
406.62	543.00
406.81	575.77
407.00	557.05
407.20	435.34
407.39	566.41
407.58	571.09
407.77	486.83
407.96	498.53
408.15	543.00
408.34	589.82
408.54	550.03
408.73	671.73
408.92	575.77
409.11	571.09
409.30	655.35
409.49	547.69
409.68	557.05
409.87	613.22
410.07	585.13
410.26	667.05
410.45	613.22
410.64	575.77
410.83	641.31
411.02	624.92
411.21	638.97
411.40	641.31
411.59	648.33
411.78	690.46
411.98	622.58
412.17	692.80
412.36	624.92
412.55	765.36
412.74	716.20
412.93	819.19
413.12	716.20
413.31	772.38
413.50	751.31
413.69	791.10
413.88	821.53
414.07	685.78
414.26	812.17
414.45	828.55
414.64	781.74
414.83	802.80
415.02	875.36
415.22	866.00
415.41	856.64
415.60	837.91
415.79	903.45
415.98	973.66
416.17	891.74
416.36	891.74
416.55	744.29
416.74	917.49
416.93	800.46
417.12	933.87
417.31	961.96
417.50	880.04
417.69	1001.75
417.88	894.08
418.07	950.26
418.26	866.00
418.45	954.94
418.64	990.05
418.83	931.53
419.02	987.71
419.21	926.85
419.39	1015.79
419.58	896.43
419.77	1086.01
419.96	905.79
420.15	971.32
420.34	976.00
420.53	990.05
420.72	985.37
420.91	1156.22
421.10	1057.92
421.29	1081.33
421.48	933.87
421.67	959.62
421.86	1013.45
422.05	1011.11
422.24	1100.05
422.43	1008.77
422.61	1060.26
422.80	1081.33
422.99	1032.18
423.18	1123.46
423.37	1111.75
423.56	1090.69
423.75	1053.24
423.94	1036.86
424.13	1011.11
424.32	1041.54
424.50	1102.39
424.69	1013.45
424.88	1104.73
425.07	1123.46
425.26	1053.24
425.45	1093.03
425.64	1144.52
425.83	1160.91
426.01	1163.25
426.20	1093.03
426.39	1053.24
426.58	1078.99
426.77	1102.39
426.96	1167.93
427.15	1104.73
427.33	1086.01
427.52	1086.01
427.71	1039.20
427.90	1086.01
428.09	1128.14
428.28	1093.03
428.46	1149.20
428.65	1146.86
428.84	1245.16
429.03	1207.72
429.22	1146.86
429.40	1172.61
429.59	1137.50
429.78	1221.76
429.97	1074.31
430.16	1135.16
430.34	1210.06
430.53	1233.46
430.72	1186.65
430.91	1203.04
431.10	1163.25
431.28	1191.33
431.47	1284.95
431.66	1256.87
431.85	1212.40
432.03	1289.64
432.22	1345.81
432.41	1259.21
432.60	1366.87
432.79	1184.31
432.97	1418.36
433.16	1355.17
433.35	1256.87
433.54	1327.08
433.72	1348.15
433.91	1327.08
434.10	1329.42
434.28	1362.19
434.47	1369.21
434.66	1362.19
434.85	1390.28
435.03	1404.32
435.22	1465.18
435.41	1715.61
435.59	1762.42
435.78	1533.05
435.97	1462.83
436.16	1390.28
436.34	1416.02
436.53	1380.92
436.72	1399.64
436.90	1345.81
437.09	1409.00
437.28	1427.73
437.46	1476.88
437.65	1331.76
437.84	1497.94
438.02	1460.49
438.21	1261.55
438.40	1516.67
438.58	1519.01
438.77	1444.11
438.96	1453.47
439.14	1416.02
439.33	1568.16
439.52	1549.43
439.70	1558.80
439.89	1528.37
440.08	1547.09
440.26	1479.22
440.45	1514.33
440.63	1481.56
440.82	1586.88
441.01	1612.63
441.19	1636.03
441.38	1668.80
441.57	1668.80
441.75	1696.89
441.94	1722.63
442.12	1661.78
442.31	1689.87
442.50	1783.49
442.68	1741.36
442.87	1727.32
443.05	1757.74
443.24	1685.19
443.43	1898.17
443.61	1820.94
443.80	1799.87
443.98	1713.27
444.17	1739.02
444.35	1762.42
444.54	1743.70
444.73	1778.81
444.91	1629.01
445.10	1771.79
445.28	1792.85
445.47	1757.74
445.65	1743.70
445.84	1727.32
446.02	1614.97
446.21	1788.17
446.39	1853.70
446.58	1736.68
446.77	1799.87
446.95	1785.83
447.14	1774.13
447.32	1767.10
447.51	1818.60
447.69	1895.83
447.88	1764.76
448.06	1753.06
448.25	1713.27
448.43	1839.66
448.62	1816.26
448.80	1820.94
448.99	1914.56
449.17	1736.68
449.36	1799.87
449.54	1853.70
449.73	1900.52
449.91	1795.19
450.10	1942.64
450.28	1879.45
450.46	1900.52
450.65	1940.30
450.83	1884.13
451.02	1860.73
451.20	1956.69
451.39	1898.17
451.57	1856.04
451.76	1877.11
451.94	1937.96
452.13	2073.71
452.31	1891.15
452.49	1919.24
452.68	1926.26
452.86	1989.46
453.05	2094.78
453.23	2036.27
453.42	1837.32
453.60	1811.57
453.78	1994.14
453.97	1909.88
454.15	1909.88
454.34	1907.54
454.52	2038.61
454.70	1954.35
454.89	2012.86
455.07	1926.26
455.26	2111.16
455.44	2008.18
455.62	1996.48
455.81	2057.33
455.99	2111.16
456.17	2057.33
456.36	1989.46
456.54	2031.58
456.73	2146.27
456.91	2090.10
457.09	2078.40
457.28	2132.23
457.46	2012.86
457.64	2293.72
457.83	2106.48
458.01	2059.67
458.19	2167.34
458.38	2125.21
458.56	2188.40
458.74	2202.44
458.93	2193.08
459.11	2172.02
459.29	2071.37
459.48	2218.83
459.66	2340.54
459.84	2310.11
460.03	2370.96
460.21	2272.66
460.39	2195.42
460.57	2242.23
460.76	2368.62
460.94	2293.72
461.12	2258.62
461.31	2286.70
461.49	2321.81
461.67	2223.51
461.85	2335.85
462.04	2282.02
462.22	2785.24
462.40	2406.07
462.59	2296.07
462.77	2382.67
462.95	2258.62
463.13	2303.09
463.32	2377.98
463.50	2455.22
463.68	2275.00
463.86	2368.62
464.05	2401.39
464.23	2431.82
464.41	2289.04
464.59	2406.07
464.78	2373.30
464.96	2354.58
465.14	2375.64
465.32	2523.10
465.50	2345.22
465.69	2377.98
465.87	2401.39
466.05	2251.60
466.23	2363.94
466.41	2490.33
466.60	2569.91
466.78	2366.28
466.96	2495.01
467.14	2380.32
467.32	2534.80
467.51	2588.63
467.69	2452.88
467.87	2562.89
468.05	2469.27
468.23	2509.05
468.41	2462.24
468.60	2530.12
468.78	2492.67
468.96	2534.80
469.14	2532.46
469.32	2602.68
469.50	2651.83
469.69	2733.75
469.87	2558.21
470.05	2616.72
470.23	2534.80
470.41	2602.68
470.59	2635.44
470.77	2665.87
470.95	2562.89
471.14	2693.96
471.32	2677.57
471.50	2693.96
471.68	2572.25
471.86	2708.00
472.04	2848.43
472.22	2827.37
472.40	2743.11
472.58	2705.66
472.77	2740.77
472.95	2822.69
473.13	3049.72
473.31	2799.28
473.49	2778.22
473.67	2740.77
473.85	2848.43
474.03	2993.55
474.21	2745.45
474.39	2953.76
474.57	2888.22
474.75	2963.12
474.93	2960.78
475.12	2902.26
475.30	2825.03
475.48	2862.48
475.66	3012.27
475.84	3054.40
476.02	3131.64
476.20	3075.46
476.38	3061.42
476.56	3218.24
476.74	3068.44
476.92	3077.80
477.10	3103.55
477.28	3272.07
477.46	3087.17
477.64	3178.45
477.82	3227.60
478.00	3293.13
478.18	3279.09
478.36	3379.73
478.54	3361.01
478.72	3265.05
478.90	3300.16
479.08	3353.99
479.26	3447.61
479.44	3379.73
479.62	3253.34
479.80	3389.10
479.98	3461.65
480.16	3557.61
480.34	3471.01
480.52	3616.13
480.70	3520.17
480.88	3489.74
481.06	3616.13
481.24	3681.66
481.41	3562.30
481.59	3653.58
481.77	3864.22
481.95	3700.39
482.13	3824.44
482.31	3850.18
482.49	3854.86
482.67	3880.61
482.85	4025.72
483.03	3955.51
483.21	3988.27
483.39	4044.45
483.57	4074.87
483.74	4109.98
483.92	4126.36
484.10	3941.46
484.28	4102.96
484.46	4159.13
484.64	4283.18
484.82	4114.66
485.00	4341.69
485.18	4360.42
485.35	4393.19
485.53	4269.14
485.71	4311.27
485.89	4447.02
486.07	4360.42
486.25	4564.04
486.43	4479.79
486.61	4585.11
486.78	4652.98
486.96	4603.83
487.14	4716.18
487.32	4702.14
487.50	4798.10
487.68	4835.55
487.85	4746.61
488.03	4854.27
488.21	4835.55
488.39	4828.53
488.57	5018.11
488.75	4910.44
488.92	5324.72
489.10	5149.18
489.28	5170.24
489.46	5104.71
489.64	4968.96
489.81	5139.82
489.99	5247.48
490.17	5210.03
490.35	5282.59
490.53	5371.53
490.70	5537.71
490.88	5479.19
491.06	5369.19
491.24	5308.34
491.41	5362.17
491.59	5387.91
491.77	5551.75
491.95	5540.05
492.13	5589.20
492.30	5493.24
492.48	5437.06
492.66	5654.73
492.84	5638.35
493.01	5652.39
493.19	5701.54
493.37	5743.67
493.54	5736.65
493.72	5834.96
493.90	5767.08
494.08	5823.25
494.25	5987.09
494.43	5968.37
494.61	5846.66
494.79	6125.18
494.96	6127.52
495.14	6143.91
495.32	6061.99
495.49	6207.10
495.67	6242.21
495.85	6296.04
496.02	6272.64
496.20	6207.10
496.38	6289.02
496.55	6321.79
496.73	6593.29
496.91	6354.55
497.09	6277.32
497.26	6401.37
497.44	6452.86
497.62	6459.88
497.79	6689.25
497.97	6476.26
498.14	6537.12
498.32	6710.32
498.50	6647.12
498.67	6754.79
498.85	6778.19
499.03	6712.66
499.20	6693.93
499.38	6820.32
499.56	6743.08
499.73	6920.96
499.91	6883.52
500.08	6897.56
500.26	6860.11
500.44	6939.69
500.61	6754.79
500.79	6850.75
500.97	6939.69
501.14	6972.46
501.32	6993.52
501.49	7087.14
501.67	7105.87
501.84	7164.38
502.02	7248.64
502.20	7171.40
502.37	7215.87
502.55	7089.48
502.72	7080.12
502.90	7227.57
503.07	7117.57
503.25	7131.61
503.43	7126.93
503.60	7286.09
503.78	7199.49
503.95	7227.57
504.13	7204.17
504.30	7492.05
504.48	7478.01
504.65	7604.40
504.83	7396.09
505.01	7454.61
505.18	7428.86
505.36	7618.44
505.53	7536.52
505.71	7641.85
505.88	7595.04
506.06	7524.82
506.23	7639.51
506.41	7592.70
506.58	7616.10
506.76	7618.44
506.93	7735.47
507.11	7691.00
507.28	7733.13
507.46	7847.82
507.63	8002.29
507.81	7997.61
507.98	7887.61
508.16	7838.45
508.33	7808.03
508.50	7896.97
508.68	7815.05
508.85	7992.93
509.03	8006.97
509.20	8149.75
509.38	8201.24
509.55	7957.82
509.73	8098.25
509.90	8182.51
510.08	8145.06
510.25	8163.79
510.42	8088.89
510.60	8196.56
510.77	8276.13
510.95	8280.82
511.12	8114.64
511.30	8311.24
511.47	8327.63
511.64	8339.33
511.82	8477.42
511.99	8411.89
512.17	8306.56
512.34	8351.03
512.51	8372.10
512.69	8388.48
512.86	8336.99
513.04	8468.06
513.21	8507.85
513.38	8505.51
513.56	8723.18
513.73	8505.51
513.90	8683.39
514.08	8589.77
514.25	8549.98
514.43	8451.67
514.60	8678.71
514.77	8671.68
514.95	8648.28
515.12	8751.26
515.29	8667.00
515.47	8870.63
515.64	8891.70
515.81	8606.15
515.99	8854.25
516.16	8945.53
516.33	8901.06
516.51	8940.85
516.68	8887.01
516.85	8980.64
517.03	8844.88
517.20	8966.59
517.37	8954.89
517.54	9015.74
517.72	8870.63
517.89	9167.88
518.06	9022.77
518.24	9233.41
518.41	9217.03
518.58	9015.74
518.75	9078.94
518.93	9067.24
519.10	9039.15
519.27	9245.12
519.45	9235.75
519.62	9205.33
519.79	9146.81
519.96	9224.05
520.14	9146.81
520.31	9146.81
520.48	9371.50
520.65	9408.95
520.83	9376.19
521.00	9284.91
521.17	9345.76
521.34	9331.72
521.52	9404.27
521.69	9357.46
521.86	9376.19
522.03	9378.53
522.20	9458.10
522.38	9385.55
522.55	9273.20
522.72	9441.72
522.89	9631.30
523.07	9603.22
523.24	9563.43
523.41	9816.21
523.58	9378.53
523.75	9544.70
523.92	9558.75
524.10	9600.88
524.27	9778.76
524.44	9774.08
524.61	10054.94
524.78	9891.10
524.96	9825.57
525.13	9757.69
525.30	9614.92
525.47	9797.48
525.64	9720.24
525.81	9905.15
525.98	10071.33
526.16	9832.59
526.33	9846.63
526.50	10040.90
526.67	9841.95
526.84	10010.47
527.01	9893.44
527.18	10099.41
527.36	9921.53
527.53	10209.42
527.70	10019.83
527.87	10195.37
528.04	9802.16
528.21	10057.28
528.38	10038.56
528.55	10122.82
528.72	10214.10
528.89	10183.67
529.07	10136.86
529.24	10370.91
529.41	10335.81
529.58	10228.14
529.75	10181.33
529.92	10307.72
530.09	10083.03
530.26	10214.10
530.43	10291.34
530.60	10176.65
530.77	10415.38
530.94	10228.14
531.11	10246.87
531.28	10059.62
531.46	10478.58
531.63	10178.99
531.80	10455.17
531.97	10464.54
532.14	10452.83
532.31	10200.05
532.48	10464.54
532.65	10399.00
532.82	10286.65
532.99	10305.38
533.16	10513.69
533.33	10684.55
533.50	10462.19
533.67	10562.84
533.84	10684.55
534.01	10600.29
534.18	10478.58
534.35	10682.20
534.52	10527.73
534.69	10757.10
534.86	10604.97
535.03	10534.75
535.20	10576.88
535.37	10609.65
535.54	10705.61
535.71	10546.45
535.88	10813.28
536.05	10712.63
536.22	10740.72
536.38	10890.51
536.55	10930.30
536.72	10918.60
536.89	10684.55
537.06	10647.10
537.23	10822.64
537.40	10562.84
537.57	10684.55
537.74	11049.67
537.91	10815.62
538.08	10630.71
538.25	10967.75
538.42	10796.89
538.59	10942.00
538.75	10881.15
538.92	10759.44
539.09	11119.89
539.26	10970.09
539.43	10967.75
539.60	11281.38
539.77	11066.05
539.94	11171.38
540.11	11117.54
540.28	11197.12
540.44	11229.89
540.61	11222.87
540.78	11131.59
540.95	11304.79
541.12	11269.68
541.29	11435.86
541.46	11379.68
541.62	11267.34
541.79	11370.32
541.96	11220.53
542.13	11349.26
542.30	11475.65
542.47	11599.70
542.63	11470.97
542.80	11541.18
542.97	11543.52
543.14	11272.02
543.31	11660.55
543.48	11487.35
543.64	11501.39
543.81	11503.73
543.98	11548.20
544.15	11754.17
544.32	11716.72
544.48	11810.34
544.65	11501.39
544.82	11288.40
544.99	11300.11
545.16	11557.57
545.32	11744.81
545.49	11953.12
545.66	12463.35
545.83	12444.63
546.00	11927.37
546.16	11995.25
546.33	11765.87
546.50	11676.93
546.67	11651.19
546.83	11482.67
547.00	11403.09
547.17	11578.63
547.34	11639.48
547.50	11412.45
547.67	11602.04
547.84	11749.49
548.00	11606.72
548.17	11784.60
548.34	11580.97
548.51	12009.29
548.67	11644.17
548.84	11761.19
549.01	11676.93
549.18	11662.89
549.34	11705.02
549.51	11587.99
549.68	11627.78
549.84	11716.72
550.01	11698.00
550.18	11861.84
550.34	11599.70
550.51	11461.60
550.68	11721.40
550.84	11646.51
551.01	11871.20
551.18	11480.33
551.34	11517.78
551.51	11377.34
551.68	11822.05
551.84	11896.94
552.01	11700.34
552.18	11726.08
552.34	11599.70
552.51	11913.33
552.68	11772.89
552.84	11726.08
553.01	11791.62
553.18	11655.87
553.34	11873.54
553.51	11913.33
553.67	11723.74
553.84	11632.46
554.01	11719.06
554.17	11735.45
554.34	11793.96
554.51	11644.17
554.67	11777.58
554.84	11892.26
555.00	11798.64
555.17	11772.89
555.33	11976.52
555.50	11700.34
555.67	11934.39
555.83	11957.80
556.00	12046.74
556.16	11960.14
556.33	11859.49
556.50	11962.48
556.66	11833.75
556.83	11889.92
556.99	11847.79
557.16	11950.78
557.32	12025.67
557.49	11875.88
557.65	11726.08
557.82	11819.71
557.98	11749.49
558.15	11878.22
558.32	12013.97
558.48	11861.84
558.65	11903.96
558.81	11964.82
558.98	11903.96
559.14	12250.36
559.31	11981.20
559.47	12074.82
559.64	11974.18
559.80	12039.72
559.97	12149.72
560.13	12032.69
560.30	12269.09
560.46	12093.55
560.63	11950.78
560.79	12056.10
560.96	12088.87
561.12	11964.82
561.29	12079.50
561.45	11932.05
561.61	11957.80
561.78	12079.50
561.94	12102.91
562.11	12196.53
562.27	11946.09
562.44	11705.02
562.60	11878.22
562.77	12002.27
562.93	11875.88
563.10	12215.26
563.26	11927.37
563.42	12093.55
563.59	12215.26
563.75	12046.74
563.92	12095.89
564.08	12135.68
564.24	12198.87
564.41	11960.14
564.57	12023.33
564.74	12133.34
564.90	11990.56
565.07	12217.60
565.23	11992.90
565.39	12032.69
565.56	12079.50
565.72	11957.80
565.88	11957.80
566.05	11981.20
566.21	12028.01
566.38	11960.14
566.54	12149.72
566.70	12159.08
566.87	12252.70
567.03	11974.18
567.19	11969.50
567.36	11885.24
567.52	11899.28
567.68	12226.96
567.85	11955.46
568.01	11964.82
568.17	11932.05
568.34	11981.20
568.50	11985.88
568.66	12112.27
568.83	12004.61
568.99	12011.63
569.15	11995.25
569.32	12079.50
569.48	12006.95
569.64	12219.94
569.81	12070.14
569.97	11955.46
570.13	12011.63
570.30	12112.27
570.46	11882.90
570.62	12262.07
570.78	12205.89
570.95	12154.40
571.11	12271.43
571.27	12102.91
571.43	11960.14
571.60	12002.27
571.76	12283.13
571.92	12271.43
572.09	12135.68
572.25	12266.75
572.41	12170.79
572.57	12119.29
572.74	12280.79
572.90	11815.02
573.06	11971.84
573.22	12238.66
573.38	12313.56
573.55	12306.54
573.71	12400.16
573.87	12358.03
574.03	12346.33
574.20	11978.86
574.36	11894.60
574.52	12142.70
574.68	12044.40
574.84	12154.40
575.01	12163.76
575.17	12039.72
575.33	12063.12
575.49	12067.80
575.65	12028.01
575.82	12128.66
575.98	12229.30
576.14	12166.10
576.30	12259.73
576.46	12201.21
576.62	12189.51
576.79	12395.48
576.95	12320.58
577.11	12210.57
577.27	12037.38
577.43	12168.45
577.59	12091.21
577.75	11946.09
577.92	12067.80
578.08	12156.74
578.24	11985.88
578.40	12180.15
578.56	12149.72
578.72	12145.04
578.88	12372.07
579.04	12259.73
579.21	11988.22
579.37	12236.32
579.53	12166.10
579.69	12013.97
579.85	12060.78
580.01	12301.86
580.17	12348.67
580.33	12252.70
580.49	12369.73
580.65	12351.01
580.82	12311.22
580.98	12365.05
581.14	12013.97
581.30	12264.41
581.46	12196.53
581.62	11983.54
581.78	11941.41
581.94	12198.87
582.10	12210.57
582.26	12283.13
582.42	12280.79
582.58	12386.12
582.74	12351.01
582.90	12060.78
583.06	12163.76
583.22	11995.25
583.38	12046.74
583.54	11873.54
583.70	12002.27
583.86	12093.55
584.02	12421.22
584.18	12236.32
584.34	12322.92
584.50	12266.75
584.66	12205.89
584.82	12145.04
584.98	11915.67
585.14	12194.19
585.30	12353.35
585.46	12161.42
585.62	11943.75
585.78	12262.07
585.94	12262.07
586.10	12512.50
586.26	12231.64
586.42	12133.34
586.58	12425.90
586.74	12159.08
586.90	12205.89
587.06	12208.23
587.22	12105.25
587.38	12290.15
587.54	12348.67
587.70	12222.28
587.86	12439.95
588.02	12210.57
588.18	12222.28
588.34	12105.25
588.49	12030.35
588.65	12100.57
588.81	12236.32
588.97	12231.64
589.13	12046.74
589.29	12180.15
589.45	12229.30
589.61	12116.95
589.77	12411.86
589.93	12524.21
590.08	12376.75
590.24	12177.81
590.40	12353.35
590.56	12271.43
590.72	12219.94
590.88	12140.36
591.04	12145.04
591.20	12304.20
591.35	12131.00
591.51	12318.24
591.67	12379.09
591.83	12173.13
591.99	12351.01
592.15	12264.41
592.31	12044.40
592.46	12273.77
592.62	12318.24
592.78	12271.43
592.94	12123.98
593.10	12095.89
593.26	12418.88
593.41	12304.20
593.57	12365.05
593.73	12306.54
593.89	12145.04
594.05	12343.99
594.20	12159.08
594.36	12095.89
594.52	12142.70
594.68	12346.33
594.84	12093.55
