SpectraSuite Data File
++++++++++++++++++++++++++++++++++++
Date: Fri Oct 04 11:39:44 GMT-05:00 2013
User: price-jones
Dark Spectrum Present: No
Reference Spectrum Present: No
Number of Sampled Component Spectra: 1
Spectrometers: USB2+H05261
Integration Time (usec): 100000 (USB2+H05261)
Spectra Averaged: 1 (USB2+H05261)
Boxcar Smoothing: 0 (USB2+H05261)
Correct for Electrical Dark: No (USB2+H05261)
Strobe/Lamp Enabled: No (USB2+H05261)
Correct for Detector Non-linearity: No (USB2+H05261)
Correct for Stray Light: No (USB2+H05261)
Number of Pixels in Processed Spectrum: 2048
>>>>>Begin Processed Spectral Data<<<<<
365.73	0.00
365.92	0.00
366.12	0.00
366.32	0.00
366.52	0.00
366.72	14.04
366.91	0.00
367.11	0.00
367.31	0.00
367.51	0.00
367.70	0.00
367.90	0.00
368.10	2.34
368.30	18.72
368.49	0.00
368.69	51.49
368.89	16.38
369.09	0.00
369.28	0.00
369.48	0.00
369.68	0.00
369.87	0.00
370.07	0.00
370.27	30.43
370.47	198.95
370.66	379.17
370.86	430.66
371.06	491.51
371.25	634.29
371.45	503.22
371.65	533.64
371.84	409.59
372.04	461.09
372.24	547.69
372.44	610.88
372.63	564.07
372.83	575.77
373.03	573.43
373.22	578.11
373.42	573.43
373.62	608.54
373.81	615.56
374.01	629.60
374.21	603.86
374.40	615.56
374.60	746.63
374.79	641.31
374.99	615.56
375.19	648.33
375.38	671.73
375.58	629.60
375.78	706.84
375.97	713.86
376.17	660.03
376.37	667.05
376.56	667.05
376.76	758.33
376.95	648.33
377.15	711.52
377.35	784.08
377.54	793.44
377.74	725.57
377.93	732.59
378.13	755.99
378.33	772.38
378.52	685.78
378.72	798.12
378.91	723.23
379.11	746.63
379.31	800.46
379.50	814.51
379.70	908.13
379.89	858.98
380.09	821.53
380.28	826.21
380.48	767.70
380.68	868.34
380.87	835.57
381.07	828.55
381.26	821.53
381.46	821.53
381.65	917.49
381.85	833.23
382.04	873.02
382.24	901.11
382.43	910.47
382.63	973.66
382.83	964.30
383.02	973.66
383.22	973.66
383.41	966.64
383.61	950.26
383.80	938.55
384.00	973.66
384.19	947.92
384.39	957.28
384.58	964.30
384.78	992.39
384.97	987.71
385.17	947.92
385.36	1025.15
385.56	1020.47
385.75	854.30
385.95	961.96
386.14	1025.15
386.34	1008.77
386.53	1111.75
386.72	1053.24
386.92	1107.07
387.11	1013.45
387.31	1041.54
387.50	1130.48
387.70	1156.22
387.89	1174.95
388.09	1125.80
388.28	1125.80
388.48	1135.16
388.67	1188.99
388.86	1174.95
389.06	1181.97
389.25	1212.40
389.45	1212.40
389.64	1245.16
389.84	1228.78
390.03	1200.69
390.22	1303.68
390.42	1256.87
390.61	1289.64
390.81	1313.04
391.00	1308.36
391.19	1273.25
391.39	1341.13
391.58	1343.47
391.78	1357.51
391.97	1273.25
392.16	1233.46
392.36	1390.28
392.55	1378.58
392.75	1338.79
392.94	1521.35
393.13	1427.73
393.33	1324.74
393.52	1432.41
393.71	1423.05
393.91	1455.81
394.10	1444.11
394.29	1437.09
394.49	1448.79
394.68	1516.67
394.88	1432.41
395.07	1675.82
395.26	1584.54
395.46	1483.90
395.65	1579.86
395.84	1572.84
396.04	1589.22
396.23	1598.59
396.42	1650.08
396.62	1661.78
396.81	1703.91
397.00	1673.48
397.19	1600.93
397.39	1682.85
397.58	1811.57
397.77	1701.57
397.97	1739.02
398.16	1767.10
398.35	1748.38
398.55	1750.72
398.74	1849.02
398.93	1781.15
399.12	1860.73
399.32	1776.47
399.51	1743.70
399.70	1867.75
399.90	1872.43
400.09	1886.47
400.28	1872.43
400.47	1902.86
400.67	2097.12
400.86	1933.28
401.05	1926.26
401.24	1984.77
401.44	2186.06
401.63	2129.89
401.82	2129.89
402.01	1970.73
402.21	2078.40
402.40	2054.99
402.59	2118.18
402.78	2118.18
402.97	2223.51
403.17	2148.61
403.36	2186.06
403.55	2165.00
403.74	2277.34
403.93	2265.64
404.13	2401.39
404.32	2459.90
404.51	2480.97
404.70	2342.88
404.89	2375.64
405.09	2445.86
405.28	2335.85
405.47	2356.92
405.66	2363.94
405.85	2520.76
406.05	2562.89
406.24	2612.04
406.43	2509.05
406.62	2562.89
406.81	2651.83
407.00	2583.95
407.20	2487.99
407.39	2457.56
407.58	2612.04
407.77	2537.14
407.96	2656.51
408.15	2782.90
408.34	2597.99
408.54	2841.41
408.73	2684.59
408.92	2822.69
409.11	2803.96
409.30	2820.35
409.49	2998.23
409.68	2843.75
409.87	2932.69
410.07	3028.65
410.26	2904.60
410.45	3045.04
410.64	2949.08
410.83	3077.80
411.02	3089.51
411.21	3201.85
411.40	3159.72
411.59	3155.04
411.78	3056.74
411.98	3300.16
412.17	3276.75
412.36	3211.22
412.55	3382.07
412.74	3475.70
412.93	3368.03
413.12	3398.46
413.31	3550.59
413.50	3506.12
413.69	3609.11
413.88	3494.42
414.07	3698.05
414.26	3620.81
414.45	3798.69
414.64	3861.88
414.83	3981.25
415.02	3665.28
415.22	3882.95
415.41	4002.32
415.60	3880.61
415.79	4063.17
415.98	4081.89
416.17	4212.96
416.36	4070.19
416.55	3978.91
416.74	4194.24
416.93	4079.55
417.12	4297.22
417.31	4208.28
417.50	4318.29
417.69	4554.68
417.88	4465.74
418.07	4437.66
418.26	4325.31
418.45	4641.28
418.64	4627.24
418.83	4669.37
419.02	4369.78
419.21	4704.48
419.39	4608.51
419.58	4589.79
419.77	4678.73
419.96	4704.48
420.15	4812.14
420.34	4641.28
420.53	4861.29
420.72	4997.04
420.91	4793.42
421.10	4908.10
421.29	4959.60
421.48	4910.44
421.67	5048.54
421.86	4865.97
422.05	5048.54
422.24	4990.02
422.43	5137.48
422.61	4873.00
422.80	5172.58
422.99	5153.86
423.18	5090.67
423.37	5114.07
423.56	5137.48
423.75	5158.54
423.94	5156.20
424.13	4856.61
424.32	4915.12
424.50	5186.63
424.69	5198.33
424.88	5240.46
425.07	5118.75
425.26	5074.28
425.45	5210.03
425.64	5331.74
425.83	5282.59
426.01	5146.84
426.20	5233.44
426.39	5404.30
426.58	5263.86
426.77	5338.76
426.96	5406.64
427.15	5273.23
427.33	5308.34
427.52	5305.99
427.71	5439.40
427.90	5554.09
428.09	5603.24
428.28	5607.92
428.46	5668.78
428.65	5764.74
428.84	5710.91
429.03	5888.79
429.22	5549.41
429.40	5860.70
429.59	5799.85
429.78	5586.86
429.97	5558.77
430.16	5626.65
430.34	5928.58
430.53	5837.30
430.72	5928.58
430.91	5781.12
431.10	5813.89
431.28	5949.64
431.47	5928.58
431.66	6183.70
431.85	6012.84
432.03	6204.76
432.22	6434.13
432.41	6251.57
432.60	6237.53
432.79	6104.12
432.97	6312.42
433.16	6366.26
433.35	6401.37
433.54	6284.34
433.72	6511.37
433.91	6487.96
434.10	6471.58
434.28	6427.11
434.47	6644.78
434.66	6541.80
434.85	6562.86
435.03	6782.87
435.22	6768.83
435.41	7159.70
435.59	6951.39
435.78	7007.56
435.97	6750.10
436.16	6920.96
436.34	6927.99
436.53	6810.96
436.72	6965.43
436.90	6785.21
437.09	6904.58
437.28	6782.87
437.46	7054.37
437.65	7098.84
437.84	7279.07
438.02	7045.01
438.21	7213.53
438.40	7063.74
438.58	7346.94
438.77	7435.88
438.96	7470.99
439.14	7655.89
439.33	7440.56
439.52	7756.54
439.70	7485.03
439.89	7660.57
440.08	7850.16
440.26	7812.71
440.45	7796.32
440.63	7611.42
440.82	8074.85
441.01	7967.18
441.19	7943.78
441.38	8177.83
441.57	8124.00
441.75	8308.90
441.94	8374.44
442.12	8332.31
442.31	8477.42
442.50	8397.84
442.68	8397.84
442.87	8439.97
443.05	8634.24
443.24	8821.48
443.43	8674.03
443.61	8596.79
443.80	9013.40
443.98	8589.77
444.17	8344.01
444.35	8620.19
444.54	8943.19
444.73	8978.30
444.91	8685.73
445.10	8741.90
445.28	8819.14
445.47	8538.27
445.65	8652.96
445.84	9067.24
446.02	8879.99
446.21	8858.93
446.39	8943.19
446.58	8990.00
446.77	8709.13
446.95	8753.60
447.14	8997.02
447.32	9217.03
447.51	8978.30
447.69	9125.75
447.88	9006.38
448.06	9104.68
448.25	9383.21
448.43	9039.15
448.62	9004.04
448.80	9139.79
448.99	9116.39
449.17	9191.28
449.36	9025.11
449.54	9418.32
449.73	9284.91
449.91	9533.00
450.10	9638.33
450.28	9717.90
450.46	9628.96
450.65	9778.76
450.83	9556.41
451.02	9579.81
451.20	9701.52
451.39	9738.97
451.57	9720.24
451.76	9729.61
451.94	9774.08
452.13	10008.13
452.31	9745.99
452.49	9898.13
452.68	10022.17
452.86	10017.49
453.05	10113.45
453.23	10242.18
453.42	10043.24
453.60	10054.94
453.78	10251.55
453.97	10178.99
454.15	9926.21
454.34	10118.14
454.52	10352.19
454.70	10345.17
454.89	10246.87
455.07	10438.79
455.26	10679.86
455.44	10534.75
455.62	10640.08
455.81	10523.05
455.99	10668.16
456.17	10520.71
456.36	10527.73
456.54	10871.79
456.73	10703.27
456.91	10995.84
457.09	11019.24
457.28	11183.08
457.46	10930.30
457.64	11150.31
457.83	11140.95
458.01	11201.80
458.19	11573.95
458.38	11225.21
458.56	11499.05
458.74	11686.29
458.93	11426.50
459.11	11468.62
459.29	11337.56
459.48	11339.90
459.66	11332.87
459.84	11707.36
460.03	11707.36
460.21	11756.51
460.39	12025.67
460.57	11627.78
460.76	11833.75
460.94	11976.52
461.12	11815.02
461.31	11852.47
461.49	11908.65
461.67	11826.73
461.85	12297.17
462.04	12334.62
462.22	12580.38
462.40	12297.17
462.59	12224.62
462.77	12329.94
462.95	12524.21
463.13	12575.70
463.32	12327.60
463.50	12489.10
463.68	12582.72
463.86	12737.20
464.05	12372.07
464.23	12325.26
464.41	12809.75
464.59	12390.80
464.78	13062.53
464.96	12821.45
465.14	12629.53
465.32	13088.28
465.50	13083.59
465.69	13149.13
465.87	12877.63
466.05	12695.07
466.23	12861.24
466.41	13071.89
466.60	13476.80
466.78	13081.25
466.96	12980.61
467.14	13081.25
467.32	13053.17
467.51	13490.85
467.69	13088.28
467.87	13371.48
468.05	13460.42
468.23	13348.08
468.41	13331.69
468.60	13710.86
468.78	13671.07
468.96	13348.08
469.14	13497.87
469.32	13755.33
469.50	13525.96
469.69	13947.25
469.87	14127.47
470.05	13912.14
470.23	13973.00
470.41	14080.66
470.59	14307.69
470.77	13738.94
470.95	13816.18
471.14	14410.68
471.32	14164.92
471.50	14750.06
471.68	14614.30
471.86	14485.58
472.04	14614.30
472.22	14881.13
472.40	14785.16
472.58	14726.65
472.77	14941.98
472.95	15250.93
473.13	15396.04
473.31	14911.55
473.49	14899.85
473.67	15410.09
473.85	15274.34
474.03	15604.35
474.21	15646.48
474.39	16011.60
474.57	15889.90
474.75	15847.77
474.93	16219.91
475.12	15997.56
475.30	16009.26
475.48	16229.27
475.66	16269.06
475.84	16147.36
476.02	16475.03
476.20	16662.27
476.38	16716.11
476.56	16994.63
476.74	17090.59
476.92	17057.82
477.10	17144.42
477.28	17561.04
477.46	17315.28
477.64	17525.93
477.82	17612.53
478.00	18001.06
478.18	18057.23
478.36	18394.27
478.54	18473.85
478.72	18478.53
478.90	18462.15
479.08	18848.33
479.26	19058.98
479.44	19234.52
479.62	19349.21
479.80	19529.43
479.98	19487.30
480.16	19625.39
480.34	19702.63
480.52	20020.94
480.70	20056.05
480.88	20334.57
481.06	20411.81
481.24	20013.92
481.41	20301.81
481.59	20893.96
481.77	20720.76
481.95	21006.31
482.13	21551.65
482.31	21245.04
482.49	21680.38
482.67	21947.20
482.85	21937.84
483.03	22431.69
483.21	22700.86
483.39	22906.82
483.57	22745.33
483.74	23133.86
483.92	23204.07
484.10	23061.30
484.28	23381.95
484.46	24049.00
484.64	24346.25
484.82	23630.05
485.00	24329.87
485.18	24383.70
485.35	25050.75
485.53	24512.43
485.71	24624.78
485.89	25406.52
486.07	24968.84
486.25	25420.56
486.43	25282.47
486.61	25841.85
486.78	26361.45
486.96	25968.24
487.14	26473.80
487.32	26485.50
487.50	26672.74
487.68	27051.91
487.85	27101.06
488.03	27468.53
488.21	28004.51
488.39	27824.29
488.57	28177.71
488.75	28088.77
488.92	28666.88
489.10	29032.00
489.28	28673.90
489.46	29446.28
489.64	29149.03
489.81	30192.91
489.99	29982.26
490.17	29788.00
490.35	30558.03
490.53	30445.69
490.70	30618.89
490.88	30504.20
491.06	31049.55
491.24	30995.71
491.41	31250.83
491.59	31552.76
491.77	31807.88
491.95	32074.70
492.13	32243.22
492.30	32652.81
492.48	32701.96
492.66	32435.14
492.84	32765.16
493.01	33090.49
493.19	33467.32
493.37	33766.91
493.54	33769.25
493.72	34054.79
493.90	34153.10
494.08	34408.22
494.25	35002.71
494.43	34705.46
494.61	35168.89
494.79	35007.39
494.96	35260.17
495.14	35784.45
495.32	35845.30
495.49	35604.23
495.67	36332.14
495.85	36189.36
496.02	36524.06
496.20	36938.33
496.38	36652.79
496.55	36982.80
496.73	37715.39
496.91	37439.21
497.09	37888.59
497.26	38462.02
497.44	37771.57
497.62	37937.74
497.79	38478.41
497.97	38705.44
498.14	38944.17
498.32	39105.67
498.50	39145.46
498.67	39119.71
498.85	39180.57
499.03	39646.33
499.20	39342.06
499.38	39576.12
499.56	40318.07
499.73	40383.60
499.91	40219.77
500.08	40517.01
500.26	40245.51
500.44	40795.54
500.61	40823.62
500.79	40573.19
500.97	41214.49
501.14	41411.10
501.32	41727.07
501.49	41832.39
501.67	41469.61
501.84	41998.57
502.02	41888.57
502.20	42216.24
502.37	42866.91
502.55	42258.37
502.72	42941.81
502.90	42756.91
503.07	42391.78
503.25	43063.52
503.43	42843.51
503.60	43117.35
503.78	43454.39
503.95	43260.12
504.13	43501.20
504.30	43421.62
504.48	43402.89
504.65	43746.95
504.83	44287.62
505.01	44877.43
505.18	44346.13
505.36	44924.24
505.53	44456.14
505.71	44650.40
505.88	44797.85
506.06	44746.36
506.23	45373.63
506.41	45067.02
506.58	45368.94
506.76	45537.46
506.93	45911.95
507.11	45296.39
507.28	45855.78
507.46	45968.12
507.63	46043.02
507.81	46667.94
507.98	46288.77
508.16	46309.84
508.33	46735.82
508.50	46564.96
508.68	46784.97
508.85	46749.86
509.03	46976.89
509.20	47093.92
509.38	47473.09
509.55	47468.40
509.73	47632.24
509.90	47742.25
510.08	47334.99
510.25	47786.72
510.42	47924.81
510.60	48119.07
510.77	48545.05
510.95	47739.91
511.12	47948.21
511.30	48505.26
511.47	48357.81
511.64	48704.21
511.82	49111.46
511.99	48783.79
512.17	49270.62
512.34	48884.43
512.51	49291.68
512.69	49392.33
512.86	49359.56
513.04	49638.08
513.21	50019.59
513.38	49865.11
513.56	50092.15
513.73	49867.45
513.90	49949.37
514.08	49712.98
514.25	50401.10
514.43	50054.70
514.60	50473.65
514.77	50335.56
514.95	50740.47
515.12	50358.97
515.29	50365.99
515.47	50541.53
515.64	51112.62
515.81	50712.39
515.99	50803.67
516.16	51751.59
516.33	51344.33
516.51	51526.89
516.68	51007.29
516.85	51400.50
517.03	51475.40
517.20	51360.72
517.37	51693.07
517.54	52002.02
517.72	51866.27
517.89	51962.23
518.06	51920.10
518.24	51903.72
518.41	52034.79
518.58	52395.23
518.75	52156.50
518.93	52453.75
519.10	52369.49
519.27	52535.66
519.45	52271.18
519.62	52374.17
519.79	52697.16
519.96	52980.37
520.14	52804.83
520.31	52940.58
520.48	52954.62
520.65	53172.29
520.83	53029.52
521.00	53233.14
521.17	53294.00
521.34	53088.03
521.52	53408.68
521.69	53668.48
521.86	53631.04
522.03	53837.00
522.20	53717.64
522.38	53595.93
522.55	53790.19
522.72	53811.26
522.89	54045.31
523.07	53818.28
523.24	54246.60
523.41	54195.10
523.58	54141.27
523.75	54185.74
523.92	54162.34
524.10	54253.62
524.27	54347.24
524.44	54546.18
524.61	54480.65
524.78	54700.66
524.96	54665.55
525.13	54911.31
525.30	54969.82
525.47	54876.20
525.64	54864.50
525.81	55290.48
525.98	55253.03
526.16	55215.58
526.33	54969.82
526.50	55290.48
526.67	55091.53
526.84	55189.83
527.01	55161.75
527.18	55428.57
527.36	55543.25
527.53	55690.71
527.70	55732.84
527.87	55810.07
528.04	55655.60
528.21	55594.74
528.38	55536.23
528.55	55889.65
528.72	55938.80
528.89	56109.66
529.07	55789.01
529.24	55877.95
529.41	55835.82
529.58	55896.67
529.75	55877.95
529.92	56062.85
530.09	56245.41
530.26	56142.43
530.43	56413.93
530.60	56151.79
530.77	56034.77
530.94	56315.63
531.11	56413.93
531.28	56491.17
531.46	56301.59
531.63	56793.10
531.80	56788.42
531.97	56865.66
532.14	56938.21
532.31	56807.14
532.48	56802.46
532.65	56802.46
532.82	56931.19
532.99	57008.43
533.16	56917.15
533.33	56994.39
533.50	57062.26
533.67	57205.03
533.84	57212.06
534.01	56884.38
534.18	57031.83
534.35	57389.94
534.52	57230.78
534.69	57333.76
534.86	57282.27
535.03	57453.13
535.20	57403.98
535.37	57350.15
535.54	57401.64
535.71	57382.91
535.88	57403.98
536.05	57364.19
536.22	57958.69
536.38	57902.51
536.55	57733.99
536.72	57865.06
536.89	57528.03
537.06	57968.05
537.23	57844.00
537.40	57860.38
537.57	57638.03
537.74	58000.82
537.91	58253.59
538.08	58094.44
538.25	58092.10
538.42	58087.42
538.59	57991.45
538.75	57928.26
538.92	58206.78
539.09	58199.76
539.26	58438.50
539.43	58258.27
539.60	58637.44
539.77	58143.59
539.94	58361.26
540.11	58578.93
540.28	58621.06
540.44	58550.84
540.61	58553.18
540.78	58532.12
540.95	58721.70
541.12	58815.32
541.29	58876.18
541.46	58817.66
541.62	58747.45
541.79	58663.19
541.96	58766.17
542.13	58798.94
542.30	58876.18
542.47	58969.80
542.63	59152.36
542.80	59157.04
542.97	59456.63
543.14	59355.99
543.31	59185.13
543.48	59241.30
543.64	59465.99
543.81	59302.15
543.98	59667.28
544.15	59709.41
544.32	59756.22
544.48	59538.55
544.65	59405.14
544.82	59480.03
544.99	59409.82
545.16	59676.64
545.32	59604.08
545.49	59814.73
545.66	60219.64
545.83	60009.00
546.00	60224.32
546.16	59983.25
546.33	59800.69
546.50	59489.40
546.67	59800.69
546.83	59615.79
547.00	59870.90
547.17	59920.05
547.34	59948.14
547.50	59992.61
547.67	60083.89
547.84	59854.52
548.00	60137.72
548.17	60142.41
548.34	60025.38
548.51	60364.76
548.67	60154.11
548.84	60430.29
549.01	60163.47
549.18	60240.71
549.34	60247.73
549.51	60051.12
549.68	60076.87
549.84	60006.65
550.01	60107.30
550.18	60079.21
550.34	60261.77
550.51	60526.25
550.68	60334.33
550.84	60413.91
551.01	60472.42
551.18	60467.74
551.34	60294.54
551.51	60444.33
551.68	60481.78
551.84	60734.56
552.01	60409.23
552.18	60540.30
552.34	60636.26
552.51	60554.34
552.68	60484.12
552.84	60640.94
553.01	60860.95
553.18	60460.72
553.34	60884.36
553.51	60687.75
553.67	60910.10
553.84	61045.85
554.01	61085.64
554.17	60963.93
554.34	61024.79
554.51	60851.59
554.67	60999.04
554.84	60844.57
555.00	60842.23
555.17	61055.21
555.33	60963.93
555.50	60949.89
555.67	61020.11
555.83	60905.42
556.00	61055.21
556.16	61123.09
556.33	61059.90
556.50	61092.66
556.66	61190.97
556.83	61104.37
556.99	61322.04
557.16	61298.63
557.32	61394.59
557.49	61403.95
557.65	61095.00
557.82	61406.30
557.98	61492.89
558.15	61429.70
558.32	61560.77
558.48	61469.49
558.65	61542.05
558.81	61535.02
558.98	61422.68
559.14	61289.27
559.31	61345.44
559.47	61338.42
559.64	61441.40
559.80	61361.82
559.97	61661.41
560.13	61354.80
560.30	61600.56
560.46	61516.30
560.63	61535.02
560.79	61614.60
560.96	61733.97
561.12	61546.73
561.29	61467.15
561.45	61719.93
561.61	61591.20
561.78	61886.10
561.94	61993.77
562.11	61925.89
562.27	61900.15
562.44	61876.74
562.60	61703.54
562.77	61822.91
562.93	61787.80
563.10	61975.05
563.26	61698.86
563.42	61998.45
563.59	61881.42
563.75	61759.72
563.92	62120.16
564.08	61879.08
564.24	61867.38
564.41	61703.54
564.57	61914.19
564.74	62021.86
564.90	62054.62
565.07	61982.07
565.23	61930.58
565.39	61965.68
565.56	62087.39
565.72	62078.03
565.88	61890.79
566.05	61935.26
566.21	62157.61
566.38	61977.39
566.54	62063.99
566.70	62056.96
566.87	62433.79
567.03	62122.50
567.19	62148.24
567.36	62162.29
567.52	62103.77
567.68	62017.17
567.85	61890.79
568.01	62141.22
568.17	62122.50
568.34	62372.94
568.50	62265.27
568.66	62108.46
568.83	62408.04
568.99	62223.14
569.15	62281.66
569.32	62230.16
569.48	62159.95
569.64	62171.65
569.81	62166.97
569.97	62218.46
570.13	62337.83
570.30	62155.27
570.46	62333.15
570.62	62258.25
570.78	62124.84
570.95	62096.75
571.11	62424.43
571.27	62166.97
571.43	62141.22
571.60	62431.45
571.76	62291.02
571.92	62344.85
572.09	62508.69
572.25	62564.86
572.41	62358.89
572.57	62398.68
572.74	62499.33
572.90	62429.11
573.06	62417.41
573.22	62291.02
573.38	62396.34
573.55	62412.73
573.71	62864.45
573.87	62604.65
574.03	62337.83
574.20	62316.76
574.36	62501.67
574.52	62363.57
574.68	62553.16
574.84	62452.51
575.01	62440.81
575.17	62513.37
575.33	62599.97
575.49	62253.57
575.65	62850.41
575.82	62733.38
575.98	62454.86
576.14	62461.88
576.30	62602.31
576.46	62663.16
576.62	62298.04
576.79	62562.52
576.95	62562.52
577.11	62567.20
577.27	62478.26
577.43	62585.92
577.59	62504.01
577.75	62466.56
577.92	62302.72
578.08	62342.51
578.24	62550.82
578.40	62567.20
578.56	62499.33
578.72	62628.05
578.88	62878.49
579.04	62836.36
579.21	62564.86
579.37	62578.90
579.53	62784.87
579.69	62438.47
579.85	62475.92
580.01	62630.40
580.17	62621.03
580.33	62632.74
580.49	62691.25
580.65	62700.61
580.82	62822.32
580.98	62611.67
581.14	62731.04
581.30	62745.08
581.46	62485.28
581.62	62480.60
581.78	62443.15
581.94	62873.81
582.10	62571.88
582.26	62756.78
582.42	62752.10
582.58	62864.45
582.74	62717.00
582.90	62834.02
583.06	62752.10
583.22	62606.99
583.38	62691.25
583.54	62653.80
583.70	62616.35
583.86	62740.40
584.02	62606.99
584.18	62883.17
584.34	62829.34
584.50	62922.96
584.66	62841.04
584.82	62707.63
584.98	62724.02
585.14	62869.13
585.30	62822.32
585.46	62714.65
585.62	62618.69
585.78	62775.51
585.94	62574.22
586.10	62920.62
586.26	62812.96
586.42	62974.45
586.58	63042.33
586.74	62759.12
586.90	62866.79
587.06	62784.87
587.22	62838.70
587.38	62986.16
587.54	62894.88
587.70	63028.29
587.86	62986.16
588.02	63121.91
588.18	63028.29
588.34	62857.43
588.49	63075.10
588.65	62890.19
588.81	62831.68
