SpectraSuite Data File
++++++++++++++++++++++++++++++++++++
Date: Fri Oct 04 11:40:01 GMT-05:00 2013
User: price-jones
Dark Spectrum Present: No
Reference Spectrum Present: No
Number of Sampled Component Spectra: 1
Spectrometers: USB2+H05261
Integration Time (usec): 100000 (USB2+H05261)
Spectra Averaged: 1 (USB2+H05261)
Boxcar Smoothing: 0 (USB2+H05261)
Correct for Electrical Dark: No (USB2+H05261)
Strobe/Lamp Enabled: No (USB2+H05261)
Correct for Detector Non-linearity: No (USB2+H05261)
Correct for Stray Light: No (USB2+H05261)
Number of Pixels in Processed Spectrum: 2048
>>>>>Begin Processed Spectral Data<<<<<
365.73	11.70
365.92	11.70
366.12	11.70
366.32	0.00
366.52	0.00
366.72	0.00
366.91	0.00
367.11	0.00
367.31	0.00
367.51	4.68
367.70	0.00
367.90	0.00
368.10	0.00
368.30	21.06
368.49	0.00
368.69	0.00
368.89	0.00
369.09	0.00
369.28	0.00
369.48	0.00
369.68	0.00
369.87	21.06
370.07	25.75
370.27	86.60
370.47	220.01
370.66	578.11
370.86	627.26
371.06	732.59
371.25	695.14
371.45	657.69
371.65	767.70
371.84	734.93
372.04	648.33
372.24	748.97
372.44	791.10
372.63	873.02
372.83	819.19
373.03	746.63
373.22	774.72
373.42	723.23
373.62	847.27
373.81	884.72
374.01	854.30
374.21	887.06
374.40	807.48
374.60	891.74
374.79	950.26
374.99	938.55
375.19	959.62
375.38	835.57
375.58	976.00
375.78	884.72
375.97	947.92
376.17	933.87
376.37	945.58
376.56	1121.12
376.76	1004.09
376.95	1018.13
377.15	1006.43
377.35	1015.79
377.54	1025.15
377.74	1067.28
377.93	1022.81
378.13	1032.18
378.33	1046.22
378.52	1076.65
378.72	1069.62
378.91	1111.75
379.11	1050.90
379.31	1083.67
379.50	1151.54
379.70	1188.99
379.89	1165.59
380.09	1179.63
380.28	1252.19
380.48	1093.03
380.68	1137.50
380.87	1111.75
381.07	1160.91
381.26	1266.23
381.46	1219.42
381.65	1160.91
381.85	1233.46
382.04	1266.23
382.24	1240.48
382.43	1287.29
382.63	1233.46
382.83	1270.91
383.02	1331.76
383.22	1345.81
383.41	1310.70
383.61	1399.64
383.80	1392.62
384.00	1465.18
384.19	1444.11
384.39	1411.34
384.58	1371.55
384.78	1418.36
384.97	1476.88
385.17	1345.81
385.36	1362.19
385.56	1385.60
385.75	1472.20
385.95	1500.28
386.14	1437.09
386.34	1434.75
386.53	1446.45
386.72	1483.90
386.92	1621.99
387.11	1533.05
387.31	1561.14
387.50	1455.81
387.70	1544.75
387.89	1664.12
388.09	1549.43
388.28	1490.92
388.48	1619.65
388.67	1659.44
388.86	1650.08
389.06	1708.59
389.25	1710.93
389.45	1696.89
389.64	1577.52
389.84	1692.21
390.03	1813.92
390.22	1661.78
390.42	1753.06
390.61	1746.04
390.81	1783.49
391.00	1849.02
391.19	1739.02
391.39	1867.75
391.58	1858.39
391.78	1900.52
391.97	1935.62
392.16	1874.77
392.36	1930.94
392.55	1898.17
392.75	1963.71
392.94	1937.96
393.13	1994.14
393.33	1998.82
393.52	1975.41
393.71	2066.69
393.91	2017.54
394.10	2052.65
394.29	2062.01
394.49	2202.44
394.68	2115.84
394.88	2169.68
395.07	2167.34
395.26	2118.18
395.46	2174.36
395.65	2331.17
395.84	2190.74
396.04	2244.57
396.23	2242.23
396.42	2263.30
396.62	2246.91
396.81	2328.83
397.00	2375.64
397.19	2237.55
397.39	2354.58
397.58	2495.01
397.77	2429.48
397.97	2387.35
398.16	2544.16
398.35	2616.72
398.55	2504.37
398.74	2520.76
398.93	2630.76
399.12	2574.59
399.32	2452.88
399.51	2572.25
399.70	2558.21
399.90	2602.68
400.09	2651.83
400.28	2724.38
400.47	2738.43
400.67	2780.56
400.86	2818.00
401.05	2684.59
401.24	2738.43
401.44	2871.84
401.63	2796.94
401.82	2876.52
402.01	2862.48
402.21	2876.52
402.40	2883.54
402.59	2747.79
402.78	2904.60
402.97	2888.22
403.17	3016.95
403.36	2970.14
403.55	3028.65
403.74	3108.23
403.93	3077.80
404.13	3309.52
404.32	3206.53
404.51	3227.60
404.70	3332.92
404.89	3236.96
405.09	3234.62
405.28	3314.20
405.47	3208.87
405.66	3339.94
405.85	3379.73
406.05	3400.80
406.24	3368.03
406.43	3475.70
406.62	3536.55
406.81	3761.24
407.00	3433.57
407.20	3496.76
407.39	3379.73
407.58	3599.74
407.77	3702.73
407.96	3658.26
408.15	3726.13
408.34	3763.58
408.54	3721.45
408.73	3728.47
408.92	3782.31
409.11	3721.45
409.30	3899.33
409.49	3875.93
409.68	3992.95
409.87	3833.80
410.07	4126.36
410.26	3957.85
410.45	3955.51
410.64	4147.43
410.83	4217.65
411.02	4133.39
411.21	4133.39
411.40	4109.98
411.59	4304.25
411.78	4287.86
411.98	4440.00
412.17	4430.63
412.36	4533.62
412.55	4528.94
412.74	4557.02
412.93	4430.63
413.12	4526.60
413.31	4880.02
413.50	4718.52
413.69	4931.51
413.88	4755.97
414.07	4830.87
414.26	4840.23
414.45	4912.78
414.64	4978.32
414.83	5167.90
415.02	4908.10
415.22	5015.77
415.41	5336.42
415.60	5240.46
415.79	5277.91
415.98	5327.06
416.17	5322.38
416.36	5305.99
416.55	5589.20
416.74	5533.03
416.93	5518.98
417.12	5729.63
417.31	5563.45
417.50	5657.07
417.69	6064.33
417.88	5905.17
418.07	5949.64
418.26	5818.57
418.45	5886.45
418.64	5942.62
418.83	6256.25
419.02	6104.12
419.21	6176.67
419.39	6026.88
419.58	6054.97
419.77	6094.76
419.96	6328.81
420.15	6389.66
420.34	6225.82
420.53	6445.84
420.72	6511.37
420.91	6375.62
421.10	6413.07
421.29	6567.54
421.48	6459.88
421.67	6506.69
421.86	6588.61
422.05	6747.76
422.24	6719.68
422.43	6579.25
422.61	6780.53
422.80	6719.68
422.99	6899.90
423.18	6813.30
423.37	6637.76
423.56	6825.00
423.75	6761.81
423.94	6649.46
424.13	6293.70
424.32	6464.56
424.50	6825.00
424.69	6815.64
424.88	6899.90
425.07	6860.11
425.26	6834.36
425.45	6902.24
425.64	6939.69
425.83	6967.77
426.01	7019.27
426.20	6857.77
426.39	6923.30
426.58	6703.29
426.77	7056.72
426.96	6995.86
427.15	6991.18
427.33	7169.06
427.52	7023.95
427.71	7148.00
427.90	7290.77
428.09	7222.89
428.28	7220.55
428.46	7475.67
428.65	7405.46
428.84	7456.95
429.03	7721.43
429.22	7304.81
429.40	7602.06
429.59	7550.57
429.78	7136.29
429.97	7377.37
430.16	7440.56
430.34	7691.00
430.53	7808.03
430.72	7920.37
430.91	7604.40
431.10	7791.64
431.28	7946.12
431.47	7819.73
431.66	8060.80
431.85	8056.12
432.03	8156.77
432.22	8280.82
432.41	8100.59
432.60	8285.50
432.79	8119.32
432.97	8173.15
433.16	8346.35
433.35	8189.53
433.54	8212.94
433.72	8367.42
433.91	8578.06
434.10	8582.74
434.28	8386.14
434.47	8599.13
434.66	8629.56
434.85	8769.99
435.03	8847.22
435.22	8865.95
435.41	9462.79
435.59	9254.48
435.78	9135.11
435.97	9092.98
436.16	8929.14
436.34	8898.72
436.53	8959.57
436.72	9170.22
436.90	8861.27
437.09	9064.89
437.28	9055.53
437.46	9329.38
437.65	9114.05
437.84	9291.93
438.02	9392.57
438.21	9406.61
438.40	9432.36
438.58	9554.07
438.77	9713.22
438.96	9654.71
439.14	10104.09
439.33	10061.96
439.52	10150.90
439.70	10064.30
439.89	10204.74
440.08	10127.50
440.26	10150.90
440.45	10300.70
440.63	10410.70
440.82	10487.94
441.01	10457.51
441.19	10504.32
441.38	10918.60
441.57	10810.93
441.75	11077.76
441.94	11033.29
442.12	11187.76
442.31	11293.08
442.50	11265.00
442.68	11159.67
442.87	11342.24
443.05	11213.51
443.24	11463.94
443.43	11421.81
443.61	11438.20
443.80	11925.03
443.98	11246.27
444.17	11145.63
444.35	11648.85
444.54	11761.19
444.73	11651.19
444.91	11693.32
445.10	11712.04
445.28	11630.12
445.47	11314.15
445.65	11555.22
445.84	11932.05
446.02	11843.11
446.21	11896.94
446.39	11908.65
446.58	11836.09
446.77	11763.53
446.95	11765.87
447.14	11861.84
447.32	11967.16
447.51	11967.16
447.69	11976.52
447.88	11976.52
448.06	12037.38
448.25	12013.97
448.43	11969.50
448.62	12212.92
448.80	11999.93
448.99	12098.23
449.17	12231.64
449.36	12149.72
449.54	12308.88
449.73	12411.86
449.91	12709.11
450.10	12650.60
450.28	12840.18
450.46	12737.20
450.65	12681.02
450.83	12627.19
451.02	12898.69
451.20	13008.70
451.39	13085.94
451.57	12901.03
451.76	12652.94
451.94	13109.34
452.13	13191.26
452.31	13188.92
452.49	12823.80
452.68	13221.69
452.86	13329.35
453.05	13231.05
453.23	13462.76
453.42	13125.72
453.60	13233.39
453.78	13467.44
453.97	13252.11
454.15	13350.42
454.34	13350.42
454.52	13762.35
454.70	13708.52
454.89	13949.59
455.07	13521.27
455.26	14019.81
455.44	14190.67
455.62	13851.29
455.81	14066.62
455.99	14115.77
456.17	14193.01
456.36	14094.71
456.54	14438.76
456.73	14487.92
456.91	14743.03
457.09	14773.46
457.28	15047.30
457.46	14768.78
457.64	14974.75
457.83	14747.72
458.01	14794.53
458.19	15016.88
458.38	15101.14
458.56	15428.81
458.74	15047.30
458.93	15314.13
459.11	14939.64
459.29	15091.77
459.48	15342.21
459.66	15337.53
459.84	15503.71
460.03	15487.32
460.21	15531.80
460.39	15894.58
460.57	15393.70
460.76	15770.53
460.94	15943.73
461.12	15812.66
461.31	15941.39
461.49	15964.79
461.67	15939.05
461.85	16465.67
462.04	16336.94
462.22	16776.96
462.40	16678.66
462.59	16175.44
462.77	16184.80
462.95	16592.06
463.13	16336.94
463.32	16552.27
463.50	16809.73
463.68	16704.40
463.86	16943.14
464.05	16563.97
464.23	16606.10
464.41	17106.98
464.59	16573.33
464.78	17011.01
464.96	17043.78
465.14	16709.08
465.32	17462.74
465.50	17341.03
465.69	17371.46
465.87	17273.15
466.05	17322.30
466.23	17336.35
466.41	17434.65
466.60	17860.63
466.78	17558.70
466.96	17701.47
467.14	17406.56
467.32	17514.23
467.51	18090.00
467.69	17322.30
467.87	17813.82
468.05	17958.93
468.23	17518.91
468.41	17537.63
468.60	17902.76
468.78	18148.51
468.96	17893.40
469.14	18160.22
469.32	18401.29
469.50	17802.11
469.69	18750.03
469.87	18745.35
470.05	18911.53
470.23	18712.58
470.41	18799.18
470.59	19262.61
470.77	18600.24
470.95	18838.97
471.14	19164.31
471.32	18948.98
471.50	19641.78
471.68	19510.71
471.86	19513.05
472.04	19616.03
472.22	20102.86
472.40	19431.13
472.58	20034.99
472.77	19955.41
472.95	20156.69
473.13	20563.95
473.31	20018.60
473.49	20231.59
473.67	20285.42
473.85	20498.41
474.03	20854.17
474.21	21071.84
474.39	21113.97
474.57	21406.54
474.75	21717.83
474.93	21476.76
475.12	21757.62
475.30	21645.27
475.48	21443.99
475.66	21977.63
475.84	22199.98
476.02	22113.38
476.20	22298.28
476.38	22436.38
476.56	22574.47
476.74	22499.57
476.92	22981.72
477.10	22522.98
477.28	23330.46
477.46	23073.00
477.64	23789.20
477.82	23995.17
478.00	24189.44
478.18	24418.81
478.36	24727.76
478.54	24854.15
478.72	24737.12
478.90	24797.98
479.08	25284.81
479.26	25500.14
479.44	25633.55
479.62	25968.24
479.80	26010.37
479.98	26082.93
480.16	26448.05
480.34	26103.99
480.52	27028.51
480.70	26703.17
480.88	26347.41
481.06	26794.45
481.24	27136.17
481.41	27395.97
481.59	28065.36
481.77	28285.37
481.95	28320.48
482.13	28528.79
482.31	28283.03
482.49	29092.86
482.67	28999.24
482.85	29563.31
483.03	29759.91
483.21	30206.95
483.39	30469.09
483.57	30185.89
483.74	30607.19
483.92	30969.97
484.10	31077.63
484.28	31126.78
484.46	31590.21
484.64	32219.81
484.82	31592.55
485.00	32446.85
485.18	32711.33
485.35	33830.10
485.53	32987.51
485.71	33315.19
485.89	33879.25
486.07	33787.97
486.25	33420.51
486.43	34338.00
486.61	34263.10
486.78	34866.96
486.96	35225.06
487.14	35683.81
487.32	35744.66
487.50	36503.00
487.68	36126.17
487.85	36652.79
488.03	37102.17
488.21	37717.73
488.39	37610.07
488.57	37053.02
488.75	37890.93
488.92	38274.78
489.10	38766.29
489.28	38234.99
489.46	39108.01
489.64	39243.76
489.81	39962.31
489.99	39852.30
490.17	40060.61
490.35	40477.22
490.53	40795.54
490.70	40704.26
490.88	40840.01
491.06	41570.25
491.24	41537.49
491.41	41750.48
491.59	42204.54
491.77	41855.80
491.95	42974.58
492.13	42801.38
492.30	42892.66
492.48	43583.12
492.66	43374.81
492.84	43559.71
493.01	44275.91
493.19	44065.27
493.37	45067.02
493.54	44954.67
493.72	45205.11
493.90	45043.61
494.08	45331.50
494.25	45724.71
494.43	45581.93
494.61	46330.90
494.79	46274.73
494.96	46342.61
495.14	46663.26
495.32	47599.47
495.49	47175.84
495.67	47372.44
495.85	47718.84
496.02	48273.55
496.20	48299.30
496.38	47840.55
496.55	48458.45
496.73	49015.50
496.91	48713.57
497.09	49177.00
497.26	49490.63
497.44	48921.88
497.62	49705.96
497.79	49757.45
497.97	49787.88
498.14	50295.77
498.32	50703.03
498.50	50703.03
498.67	51126.66
498.85	50646.85
499.03	51199.22
499.20	51208.58
499.38	51318.59
499.56	51044.74
499.73	51655.62
499.91	51774.99
500.08	51873.29
500.26	51379.44
500.44	51894.36
500.61	52289.91
500.79	52172.88
500.97	52381.19
501.14	52615.24
501.32	52963.98
501.49	52652.69
501.67	52905.47
501.84	53200.38
502.02	53066.97
502.20	53284.64
502.37	53361.87
502.55	53408.68
502.72	53511.67
502.90	53614.65
503.07	53476.56
503.25	53813.60
503.43	53839.34
503.60	53977.43
503.78	54237.23
503.95	54293.41
504.13	54286.39
504.30	54164.68
504.48	54529.80
504.65	54651.51
504.83	54850.45
505.01	55192.17
505.18	54911.31
505.36	55356.01
505.53	54969.82
505.71	55002.59
505.88	55271.75
506.06	55164.09
506.23	55580.70
506.41	55365.37
506.58	55660.28
506.76	55454.31
506.93	55622.83
507.11	55735.18
507.28	55882.63
507.46	55992.64
507.63	56203.28
507.81	56346.06
507.98	56278.18
508.16	56376.48
508.33	56144.77
508.50	56449.04
508.68	56603.52
508.85	56844.59
509.03	56814.16
509.20	57132.48
509.38	56926.51
509.55	57305.68
509.73	56942.89
509.90	57214.40
510.08	57162.90
510.25	57350.15
510.42	57764.42
510.60	57619.31
510.77	57682.50
510.95	57694.21
511.12	57563.14
511.30	57696.55
511.47	57822.93
511.64	57965.71
511.82	58239.55
511.99	58003.16
512.17	58197.42
512.34	58174.02
512.51	58466.58
512.69	58426.79
512.86	58644.46
513.04	58787.24
513.21	58688.93
513.38	58677.23
513.56	58960.44
513.73	58571.91
513.90	58972.14
514.08	58803.62
514.25	59018.95
514.43	59196.83
514.60	59150.02
514.77	59306.83
514.95	59449.61
515.12	59192.15
515.29	59166.40
515.47	59655.57
515.64	59428.54
515.81	59433.22
515.99	59896.65
516.16	60116.66
516.33	59856.86
516.51	59791.33
516.68	59657.91
516.85	59723.45
517.03	59999.63
517.20	60051.12
517.37	59973.89
517.54	60069.85
517.72	60156.45
517.89	59936.44
518.06	60186.88
518.24	60287.52
518.41	60285.18
518.58	60533.28
518.75	60303.90
518.93	60671.37
519.10	60577.75
519.27	60795.42
519.45	60795.42
519.62	60622.22
519.79	60711.16
519.96	61029.47
520.14	61151.18
520.31	61008.40
520.48	61368.85
520.65	61188.63
520.83	61310.33
521.00	61315.01
521.17	61244.80
521.34	61263.52
521.52	61268.20
521.69	61296.29
521.86	61675.46
522.03	61661.41
522.20	61584.18
522.38	61558.43
522.55	61628.65
522.72	61645.03
522.89	61886.10
523.07	61888.45
523.24	61965.68
523.41	62169.31
523.58	61951.64
523.75	62176.33
523.92	62028.88
524.10	62209.10
524.27	62246.55
524.44	62401.02
524.61	62576.56
524.78	62473.58
524.96	62564.86
525.13	62511.03
525.30	62876.15
525.47	62555.50
525.64	62489.96
525.81	62782.53
525.98	62749.76
526.16	62726.36
526.33	62810.62
526.50	62988.50
526.67	62709.97
526.84	62911.26
527.01	62983.82
527.18	62939.35
527.36	63313.83
527.53	63154.68
527.70	63430.86
527.87	63440.22
528.04	63014.24
528.21	63400.43
528.38	63283.40
528.55	63437.88
528.72	63238.93
528.89	63358.30
529.07	63508.10
529.24	63419.16
529.41	63648.53
529.58	63524.48
529.75	63564.27
529.92	63723.43
530.09	63721.08
530.26	63758.53
530.43	63866.20
530.60	63798.32
530.77	63597.04
530.94	63863.86
531.11	63662.57
531.28	63739.81
531.46	63950.46
531.63	64123.66
531.80	64034.72
531.97	64126.00
532.14	64182.17
532.31	64203.24
532.48	64360.05
532.65	64271.11
532.82	64062.80
532.99	64549.63
533.16	64364.73
533.33	64488.78
533.50	64601.13
533.67	64615.17
533.84	64456.01
534.01	64563.68
534.18	64378.78
534.35	64603.47
534.52	64587.08
534.69	64633.89
534.86	64661.98
535.03	64839.86
535.20	64837.52
535.37	64959.23
535.54	64982.63
535.71	64750.92
535.88	64935.82
536.05	64926.46
536.22	65055.19
536.38	65006.04
536.55	65022.42
536.72	64968.59
536.89	65106.68
537.06	64898.37
537.23	65216.69
537.40	65071.57
537.57	65024.76
537.74	65125.41
537.91	65509.25
538.08	65502.23
538.25	65382.87
538.42	65237.75
538.59	65535.00
538.75	65186.26
538.92	65392.23
539.09	65488.19
539.26	65535.00
539.43	65535.00
539.60	65535.00
539.77	65535.00
539.94	65535.00
540.11	65535.00
540.28	65535.00
540.44	65535.00
540.61	65535.00
540.78	65535.00
540.95	65535.00
541.12	65535.00
541.29	65535.00
541.46	65535.00
541.62	65535.00
541.79	65535.00
541.96	65535.00
542.13	65535.00
542.30	65535.00
542.47	65535.00
542.63	65535.00
542.80	65535.00
542.97	65535.00
543.14	65535.00
543.31	65535.00
543.48	65535.00
543.64	65535.00
543.81	65535.00
543.98	65535.00
544.15	65535.00
544.32	65535.00
544.48	65535.00
544.65	65535.00
544.82	65535.00
544.99	65535.00
545.16	65535.00
545.32	65535.00
545.49	65535.00
545.66	65535.00
545.83	65535.00
546.00	65535.00
546.16	65535.00
546.33	65535.00
546.50	65535.00
546.67	65535.00
546.83	65535.00
547.00	65535.00
547.17	65535.00
547.34	65535.00
547.50	65535.00
547.67	65535.00
547.84	65535.00
548.00	65535.00
548.17	65535.00
548.34	65535.00
548.51	65535.00
548.67	65535.00
548.84	65535.00
549.01	65535.00
549.18	65535.00
549.34	65535.00
549.51	65535.00
549.68	65535.00
549.84	65535.00
550.01	65535.00
550.18	65535.00
550.34	65535.00
550.51	65535.00
550.68	65535.00
550.84	65535.00
551.01	65535.00
551.18	65535.00
551.34	65535.00
551.51	65535.00
551.68	65535.00
551.84	65535.00
552.01	65535.00
552.18	65535.00
552.34	65535.00
552.51	65535.00
552.68	65535.00
552.84	65535.00
553.01	65535.00
553.18	65535.00
553.34	65535.00
553.51	65535.00
553.67	65535.00
553.84	65535.00
554.01	65535.00
554.17	65535.00
554.34	65535.00
554.51	65535.00
554.67	65535.00
554.84	65535.00
555.00	65535.00
555.17	65535.00
555.33	65535.00
555.50	65535.00
555.67	65535.00
555.83	65535.00
556.00	65535.00
556.16	65535.00
556.33	65535.00
556.50	65535.00
556.66	65535.00
556.83	65535.00
556.99	65535.00
557.16	65535.00
557.32	65535.00
557.49	65535.00
557.65	65535.00
557.82	65535.00
557.98	65535.00
558.15	65535.00
558.32	65535.00
558.48	65535.00
558.65	65535.00
558.81	65535.00
558.98	65535.00
559.14	65535.00
559.31	65535.00
559.47	65535.00
559.64	65535.00
559.80	65535.00
559.97	65535.00
560.13	65535.00
560.30	65535.00
560.46	65535.00
560.63	65535.00
560.79	65535.00
560.96	65535.00
561.12	65535.00
561.29	65535.00
561.45	65535.00
561.61	65535.00
561.78	65535.00
561.94	65535.00
562.11	65535.00
562.27	65535.00
562.44	65535.00
562.60	65535.00
562.77	65535.00
562.93	65535.00
563.10	65535.00
563.26	65535.00
563.42	65535.00
563.59	65535.00
563.75	65535.00
563.92	65535.00
564.08	65535.00
564.24	65535.00
564.41	65535.00
564.57	65535.00
564.74	65535.00
564.90	65535.00
565.07	65535.00
565.23	65535.00
565.39	65535.00
565.56	65535.00
565.72	65535.00
565.88	65535.00
566.05	65535.00
566.21	65535.00
566.38	65535.00
566.54	65535.00
566.70	65535.00
566.87	65535.00
567.03	65535.00
567.19	65535.00
567.36	65535.00
567.52	65535.00
567.68	65535.00
567.85	65535.00
568.01	65535.00
568.17	65535.00
568.34	65535.00
568.50	65535.00
568.66	65535.00
568.83	65535.00
568.99	65535.00
569.15	65535.00
569.32	65535.00
569.48	65535.00
569.64	65535.00
569.81	65535.00
569.97	65535.00
570.13	65535.00
570.30	65535.00
570.46	65535.00
570.62	65535.00
570.78	65535.00
570.95	65535.00
571.11	65535.00
571.27	65535.00
571.43	65535.00
571.60	65535.00
571.76	65535.00
571.92	65535.00
572.09	65535.00
572.25	65535.00
572.41	65535.00
572.57	65535.00
572.74	65535.00
572.90	65535.00
573.06	65535.00
573.22	65535.00
573.38	65535.00
573.55	65535.00
573.71	65535.00
573.87	65535.00
574.03	65535.00
574.20	65535.00
574.36	65535.00
574.52	65535.00
574.68	65535.00
574.84	65535.00
575.01	65535.00
575.17	65535.00
575.33	65535.00
575.49	65535.00
575.65	65535.00
575.82	65535.00
575.98	65535.00
576.14	65535.00
576.30	65535.00
576.46	65535.00
576.62	65535.00
576.79	65535.00
576.95	65535.00
577.11	65535.00
577.27	65535.00
577.43	65535.00
577.59	65535.00
577.75	65535.00
577.92	65535.00
578.08	65535.00
578.24	65535.00
578.40	65535.00
578.56	65535.00
578.72	65535.00
578.88	65535.00
579.04	65535.00
579.21	65535.00
579.37	65535.00
579.53	65535.00
579.69	65535.00
579.85	65535.00
580.01	65535.00
580.17	65535.00
580.33	65535.00
580.49	65535.00
580.65	65535.00
580.82	65535.00
580.98	65535.00
581.14	65535.00
581.30	65535.00
581.46	65535.00
581.62	65535.00
581.78	65535.00
581.94	65535.00
582.10	65535.00
582.26	65535.00
582.42	65535.00
582.58	65535.00
582.74	65535.00
582.90	65535.00
583.06	65535.00
583.22	65535.00
583.38	65535.00
583.54	65535.00
583.70	65535.00
583.86	65535.00
584.02	65535.00
584.18	65535.00
584.34	65535.00
584.50	65535.00
584.66	65535.00
584.82	65535.00
584.98	65535.00
585.14	65535.00
585.30	65535.00
585.46	65535.00
585.62	65535.00
585.78	65535.00
585.94	65535.00
586.10	65535.00
586.26	65535.00
586.42	65535.00
586.58	65535.00
586.74	65535.00
586.90	65535.00
587.06	65535.00
587.22	65535.00
587.38	65535.00
587.54	65535.00
587.70	65535.00
