SpectraSuite Data File
++++++++++++++++++++++++++++++++++++
Date: Tue Oct 01 18:27:24 GMT-05:00 2013
User: stostad
Dark Spectrum Present: No
Reference Spectrum Present: No
Number of Sampled Component Spectra: 1
Spectrometers: USB2+H05261
Integration Time (usec): 100000 (USB2+H05261)
Spectra Averaged: 1 (USB2+H05261)
Boxcar Smoothing: 0 (USB2+H05261)
Correct for Electrical Dark: No (USB2+H05261)
Strobe/Lamp Enabled: No (USB2+H05261)
Correct for Detector Non-linearity: No (USB2+H05261)
Correct for Stray Light: No (USB2+H05261)
Number of Pixels in Processed Spectrum: 2048
>>>>>Begin Processed Spectral Data<<<<<
365.73	140.43
365.92	140.43
366.12	140.43
366.32	0.00
366.52	0.00
366.72	9.36
366.91	0.00
367.11	0.00
367.31	0.00
367.51	0.00
367.70	0.00
367.90	0.00
368.10	0.00
368.30	0.00
368.49	0.00
368.69	46.81
368.89	21.06
369.09	0.00
369.28	0.00
369.48	9.36
369.68	0.00
369.87	93.62
370.07	16.38
370.27	110.01
370.47	70.22
370.66	259.80
370.86	210.65
371.06	339.38
371.25	369.80
371.45	266.82
371.65	318.31
371.84	362.78
372.04	330.02
372.24	339.38
372.44	362.78
372.63	430.66
372.83	423.64
373.03	341.72
373.22	341.72
373.42	351.08
373.62	433.00
373.81	477.47
374.01	442.36
374.21	458.74
374.40	500.87
374.60	451.72
374.79	390.87
374.99	489.17
375.19	425.98
375.38	435.34
375.58	428.32
375.78	454.06
375.97	500.87
376.17	550.03
376.37	461.09
376.56	447.04
376.76	514.92
376.95	458.74
377.15	458.74
377.35	463.43
377.54	543.00
377.74	477.47
377.93	517.26
378.13	571.09
378.33	500.87
378.52	571.09
378.72	505.56
378.91	571.09
379.11	493.85
379.31	503.22
379.50	482.15
379.70	484.49
379.89	592.16
380.09	566.41
380.28	552.37
380.48	514.92
380.68	496.19
380.87	423.64
381.07	510.24
381.26	538.32
381.46	608.54
381.65	547.69
381.85	552.37
382.04	573.43
382.24	589.82
382.43	585.13
382.63	557.05
382.83	559.39
383.02	638.97
383.22	617.90
383.41	620.24
383.61	608.54
383.80	720.88
384.00	655.35
384.19	655.35
384.39	589.82
384.58	641.31
384.78	704.50
384.97	636.63
385.17	566.41
385.36	723.23
385.56	725.57
385.75	627.26
385.95	627.26
386.14	711.52
386.34	704.50
386.53	765.36
386.72	634.29
386.92	695.14
387.11	784.08
387.31	751.31
387.50	645.99
387.70	699.82
387.89	685.78
388.09	753.65
388.28	746.63
388.48	760.67
388.67	763.01
388.86	765.36
389.06	739.61
389.25	737.27
389.45	704.50
389.64	695.14
389.84	812.17
390.03	812.17
390.22	833.23
390.42	772.38
390.61	746.63
390.81	779.40
391.00	739.61
391.19	748.97
391.39	830.89
391.58	891.74
391.78	837.91
391.97	873.02
392.16	896.43
392.36	919.83
392.55	828.55
392.75	828.55
392.94	849.61
393.13	882.38
393.33	875.36
393.52	954.94
393.71	997.07
393.91	1025.15
394.10	891.74
394.29	973.66
394.49	947.92
394.68	973.66
394.88	926.85
395.07	1020.47
395.26	1004.09
395.46	980.68
395.65	1055.58
395.84	1018.13
396.04	1062.60
396.23	994.73
396.42	1034.52
396.62	1039.20
396.81	1039.20
397.00	1053.24
397.19	1160.91
397.39	1050.90
397.58	1118.78
397.77	1088.35
397.97	1132.82
398.16	1078.99
398.35	1057.92
398.55	1100.05
398.74	1146.86
398.93	1228.78
399.12	1181.97
399.32	1212.40
399.51	1177.29
399.70	1191.33
399.90	1294.32
400.09	1282.61
400.28	1256.87
400.47	1245.16
400.67	1217.08
400.86	1306.02
401.05	1299.00
401.24	1345.81
401.44	1343.47
401.63	1263.89
401.82	1301.34
402.01	1336.45
402.21	1350.49
402.40	1437.09
402.59	1275.59
402.78	1397.30
402.97	1425.39
403.17	1371.55
403.36	1378.58
403.55	1430.07
403.74	1483.90
403.93	1488.58
404.13	1614.97
404.32	1481.56
404.51	1493.26
404.70	1556.46
404.89	1591.56
405.09	1661.78
405.28	1591.56
405.47	1570.50
405.66	1586.88
405.85	1593.90
406.05	1575.18
406.24	1633.69
406.43	1643.06
406.62	1790.51
406.81	1734.34
407.00	1694.55
407.20	1830.30
407.39	1748.38
407.58	1837.32
407.77	1937.96
407.96	1844.34
408.15	1818.60
408.34	1888.81
408.54	1792.85
408.73	1923.92
408.92	1851.36
409.11	1984.77
409.30	1905.20
409.49	1933.28
409.68	1914.56
409.87	2026.90
410.07	2008.18
410.26	2045.63
410.45	2062.01
410.64	2069.03
410.83	2066.69
411.02	2125.21
411.21	2183.72
411.40	2193.08
411.59	2352.24
411.78	2270.32
411.98	2265.64
412.17	2258.62
412.36	2202.44
412.55	2377.98
412.74	2349.90
412.93	2349.90
413.12	2305.43
413.31	2452.88
413.50	2455.22
413.69	2476.29
413.88	2478.63
414.07	2551.18
414.26	2499.69
414.45	2574.59
414.64	2612.04
414.83	2600.34
415.02	2637.78
415.22	2621.40
415.41	2684.59
415.60	2768.85
415.79	2782.90
415.98	2874.18
416.17	2750.13
416.36	2897.58
416.55	2881.20
416.74	2993.55
416.93	2818.00
417.12	2911.63
417.31	2937.37
417.50	2974.82
417.69	3002.91
417.88	3103.55
418.07	3038.02
418.26	3054.40
418.45	2979.50
418.64	3248.66
418.83	3276.75
419.02	3218.24
419.21	3267.39
419.39	3126.96
419.58	3199.51
419.77	3272.07
419.96	3293.13
420.15	3248.66
420.34	3332.92
420.53	3403.14
420.72	3489.74
420.91	3400.80
421.10	3295.47
421.29	3667.62
421.48	3314.20
421.67	3421.86
421.86	3440.59
422.05	3480.38
422.24	3431.23
422.43	3513.14
422.61	3557.61
422.80	3611.45
422.99	3576.34
423.18	3632.51
423.37	3688.68
423.56	3592.72
423.75	3513.14
423.94	3599.74
424.13	3492.08
424.32	3328.24
424.50	3700.39
424.69	3609.11
424.88	3616.13
425.07	3574.00
425.26	3513.14
425.45	3583.36
425.64	3646.55
425.83	3672.30
426.01	3721.45
426.20	3529.53
426.39	3740.18
426.58	3595.06
426.77	3684.00
426.96	3772.94
427.15	3672.30
427.33	3833.80
427.52	3705.07
427.71	3815.07
427.90	3751.88
428.09	3796.35
428.28	3946.14
428.46	3941.46
428.65	3779.97
428.84	4049.13
429.03	3988.27
429.22	3812.73
429.40	4107.64
429.59	4124.02
429.78	3805.71
429.97	4023.38
430.16	4077.21
430.34	4098.28
430.53	4266.80
430.72	4002.32
430.91	4140.41
431.10	4196.58
431.28	4236.37
431.47	4219.99
431.66	4386.16
431.85	4196.58
432.03	4278.50
432.22	4339.35
432.41	4304.25
432.60	4337.01
432.79	4301.90
432.97	4519.57
433.16	4278.50
433.35	4418.93
433.54	4449.36
433.72	4400.21
433.91	4416.59
434.10	4592.13
434.28	4418.93
434.47	4564.04
434.66	4386.16
434.85	4620.22
435.03	4617.88
435.22	4667.03
435.41	4727.88
435.59	4755.97
435.78	4800.44
435.97	4655.33
436.16	4725.54
436.34	4746.61
436.53	4929.17
436.72	4823.84
436.90	4854.27
437.09	4844.91
437.28	4931.51
437.46	4863.63
437.65	4896.40
437.84	4910.44
438.02	4830.87
438.21	5097.69
438.40	4720.86
438.58	5078.96
438.77	5212.37
438.96	5050.88
439.14	5263.86
439.33	5294.29
439.52	5416.00
439.70	5273.23
439.89	5289.61
440.08	5277.91
440.26	5425.36
440.45	5479.19
440.63	5425.36
440.82	5610.26
441.01	5495.58
441.19	5554.09
441.38	5715.59
441.57	5561.11
441.75	5750.70
441.94	5757.72
442.12	5961.34
442.31	5956.66
442.50	5966.03
442.68	5844.32
442.87	5944.96
443.05	5959.00
443.24	6134.54
443.43	5970.71
443.61	5991.77
443.80	6328.81
443.98	5907.51
444.17	6026.88
444.35	6052.63
444.54	6155.61
444.73	6050.28
444.91	6258.59
445.10	6026.88
445.28	6019.86
445.47	6092.41
445.65	6040.92
445.84	6214.12
446.02	6202.42
446.21	6253.91
446.39	6223.48
446.58	6335.83
446.77	6312.42
446.95	6136.88
447.14	6183.70
447.32	6221.14
447.51	6216.46
447.69	6106.46
447.88	6392.00
448.06	6267.95
448.25	6356.90
448.43	6464.56
448.62	6347.53
448.80	6331.15
448.99	6328.81
449.17	6567.54
449.36	6333.49
449.54	6483.28
449.73	6551.16
449.91	6675.21
450.10	6602.65
450.28	6574.56
450.46	6654.14
450.65	6668.19
450.83	6698.61
451.02	6649.46
451.20	6691.59
451.39	6881.18
451.57	6633.08
451.76	6696.27
451.94	6829.68
452.13	7005.22
452.31	6979.48
452.49	6724.36
452.68	6878.83
452.86	6918.62
453.05	7000.54
453.23	6841.39
453.42	7061.40
453.60	6825.00
453.78	7091.82
453.97	7070.76
454.15	6792.23
454.34	7089.48
454.52	7162.04
454.70	7358.64
454.89	7000.54
455.07	7227.57
455.26	7133.95
455.44	7375.03
455.62	7124.59
455.81	7405.46
455.99	7398.43
456.17	7431.20
456.36	7442.90
456.54	7452.27
456.73	7595.04
456.91	7817.39
457.09	7779.94
457.28	7859.52
457.46	7527.16
457.64	7749.51
457.83	7716.75
458.01	7538.87
458.19	7796.32
458.38	7915.69
458.56	8011.65
458.74	7901.65
458.93	7812.71
459.11	8021.02
459.29	7864.20
459.48	7999.95
459.66	7929.74
459.84	7988.25
460.03	8332.31
460.21	8011.65
460.39	8013.99
460.57	8191.88
460.76	8149.75
460.94	8234.00
461.12	8217.62
461.31	8290.18
461.49	8280.82
461.67	8191.88
461.85	8425.93
462.04	8468.06
462.22	8819.14
462.40	8421.25
462.59	8542.96
462.77	8439.97
462.95	8430.61
463.13	8571.04
463.32	8547.64
463.50	8564.02
463.68	8603.81
463.86	8748.92
464.05	8463.38
464.23	8725.52
464.41	8706.79
464.59	8568.70
464.78	8835.52
464.96	8777.01
465.14	8606.15
465.32	8798.07
465.50	8851.91
465.69	8898.72
465.87	8744.24
466.05	8997.02
466.23	8912.76
466.41	9067.24
466.60	9291.93
466.78	9146.81
466.96	9085.96
467.14	9013.40
467.32	8959.57
467.51	9312.99
467.69	8997.02
467.87	9202.99
468.05	9350.44
468.23	9135.11
468.41	9392.57
468.60	9212.35
468.78	9502.58
468.96	9556.41
469.14	9479.17
469.32	9516.62
469.50	9114.05
469.69	9465.13
469.87	9701.52
470.05	9668.75
470.23	9635.99
470.41	9771.74
470.59	9764.72
470.77	9856.00
470.95	9912.17
471.14	10033.88
471.32	9834.93
471.50	9914.51
471.68	10101.75
471.86	9769.40
472.04	10057.28
472.22	10317.08
472.40	10097.07
472.58	10066.64
472.77	10328.78
472.95	10562.84
473.13	10593.26
473.31	10293.68
473.49	10384.96
473.67	10518.37
473.85	10487.94
474.03	10775.83
474.21	10780.51
474.39	10743.06
474.57	10895.19
474.75	10977.11
474.93	10902.22
475.12	11068.39
475.30	11066.05
475.48	11073.07
475.66	11206.48
475.84	11159.67
476.02	11229.89
476.20	11405.43
476.38	11606.72
476.56	11728.42
476.74	11735.45
476.92	11896.94
477.10	11721.40
477.28	11934.39
477.46	11789.28
477.64	12105.25
477.82	12166.10
478.00	12376.75
478.18	12468.03
478.36	12510.16
478.54	12496.12
478.72	12346.33
478.90	12713.79
479.08	12982.95
479.26	12765.28
479.44	13102.32
479.62	13050.83
479.80	13170.19
479.98	13678.09
480.16	13434.68
480.34	13584.47
480.52	13600.85
480.70	13724.90
480.88	13687.45
481.06	13984.70
481.24	13837.25
481.41	14216.41
481.59	14389.61
481.77	14410.68
481.95	14342.80
482.13	14642.39
482.31	14658.78
482.49	14815.59
482.67	14827.29
482.85	15117.52
483.03	15365.62
483.21	15543.50
483.39	15386.68
483.57	15286.04
483.74	15599.67
483.92	15976.50
484.10	15824.36
484.28	15925.00
484.46	15864.15
484.64	16692.70
484.82	16107.57
485.00	16432.90
485.18	16737.17
485.35	16980.59
485.53	16863.56
485.71	16938.46
485.89	17165.49
486.07	17170.17
486.25	17652.32
486.43	17549.34
486.61	17556.36
486.78	17937.87
486.96	17820.84
487.14	18214.05
487.32	18335.76
487.50	18288.95
487.68	18216.39
487.85	18735.99
488.03	18874.08
488.21	18810.89
488.39	19218.14
488.57	19140.90
488.75	19644.12
488.92	19796.25
489.10	19520.07
489.28	19665.18
489.46	20243.29
489.64	19866.47
489.81	20215.21
489.99	20320.53
490.17	20430.54
490.35	20833.11
490.53	20912.69
490.70	21053.12
490.88	21029.71
491.06	21261.43
491.24	21427.60
491.41	21216.96
491.59	21729.53
491.77	21769.32
491.95	21830.18
492.13	22057.21
492.30	22459.78
492.48	22483.19
492.66	22511.27
492.84	22513.61
493.01	23080.02
493.19	22604.89
493.37	22728.94
493.54	23171.30
493.72	23388.97
493.90	23276.63
494.08	23388.97
494.25	23751.76
494.43	24032.62
494.61	23908.57
494.79	23751.76
494.96	23950.70
495.14	24311.14
495.32	24877.55
495.49	24629.46
495.67	24891.60
495.85	25057.78
496.02	24781.59
496.20	25097.56
496.38	25261.40
496.55	25570.35
496.73	25996.33
496.91	25783.34
497.09	25734.19
497.26	25689.72
497.44	25886.32
497.62	26129.74
497.79	26471.46
497.97	26366.13
498.14	26838.92
498.32	27012.12
498.50	26642.32
498.67	27180.64
498.85	26698.49
499.03	27316.39
499.20	27307.03
499.38	27367.88
499.56	27681.52
499.73	27789.18
499.91	27630.02
500.08	27803.22
500.26	27908.55
500.44	27871.10
500.61	28208.14
500.79	28290.06
500.97	28268.99
501.14	28898.59
501.32	28737.10
501.49	28292.40
501.67	28987.53
501.84	28762.84
502.02	29244.99
502.20	29034.35
502.37	29584.37
502.55	29043.71
502.72	29399.47
502.90	29174.78
503.07	29582.03
503.25	29483.73
503.43	29631.18
503.60	29879.28
503.78	29984.60
503.95	30005.67
504.13	30384.83
504.30	30422.28
504.48	30534.63
504.65	30347.39
504.83	30834.22
505.01	30733.57
505.18	30848.26
505.36	30630.59
505.53	30838.90
505.71	30876.35
505.88	31681.49
506.06	31412.33
506.23	31421.69
506.41	31152.53
506.58	31325.73
506.76	31131.47
506.93	31594.89
507.11	31892.14
507.28	31859.37
507.46	32524.08
507.63	32135.56
507.81	32414.08
507.98	32243.22
508.16	32245.56
508.33	32224.50
508.50	32275.99
508.68	32322.80
508.85	32842.40
509.03	32580.26
509.20	32638.77
509.38	32994.53
509.55	33383.06
509.73	33521.15
509.90	33326.89
510.08	33413.49
510.25	33172.41
510.42	33378.38
510.60	33684.99
510.77	33727.12
510.95	34075.86
511.12	33881.60
511.30	34026.71
511.47	34300.55
511.64	34012.66
511.82	34347.36
511.99	34426.94
512.17	34595.46
512.34	34227.99
512.51	34993.35
512.69	34703.12
512.86	35105.70
513.04	35215.70
513.21	35115.06
513.38	35084.63
513.56	35386.56
513.73	34988.67
513.90	35281.24
514.08	35805.52
514.25	35749.34
514.43	35714.23
514.60	35831.26
514.77	35531.67
514.95	36318.09
515.12	35267.19
515.29	35847.64
515.47	36519.38
515.64	36570.87
515.81	36327.45
515.99	36627.04
516.16	37001.53
516.33	36610.66
516.51	36751.09
516.68	36851.73
516.85	37261.33
517.03	37361.97
517.20	37371.33
517.37	37010.89
517.54	37244.94
517.72	37296.44
517.89	37266.01
518.06	37649.86
518.24	37673.26
518.41	37703.69
518.58	37830.08
518.75	37347.93
518.93	37937.74
519.10	37493.04
519.27	37865.19
519.45	37771.57
519.62	38263.08
519.79	38143.71
519.96	38188.18
520.14	38787.36
520.31	38532.24
520.48	38113.28
520.65	38349.68
520.83	38525.22
521.00	38930.13
521.17	38749.91
521.34	39075.24
521.52	39351.43
521.69	39098.65
521.86	38988.64
522.03	39381.85
522.20	39445.05
522.38	39562.08
522.55	39587.82
522.72	39962.31
522.89	39948.26
523.07	40046.57
523.24	39700.17
523.41	40011.46
523.58	39962.31
523.75	40360.20
523.92	40018.48
524.10	40194.02
524.27	40367.22
524.44	40598.93
524.61	40666.81
524.78	40533.40
524.96	40781.49
525.13	40692.55
525.30	40957.03
525.47	41268.33
525.64	41053.00
525.81	41277.69
525.98	41338.54
526.16	41006.19
526.33	41090.44
526.50	41600.68
526.67	41474.29
526.84	41628.77
527.01	41298.75
527.18	41886.23
527.36	42082.83
527.53	41766.86
527.70	42005.59
527.87	42106.24
528.04	42183.48
528.21	42258.37
528.38	41851.12
528.55	42792.01
528.72	42349.65
528.89	42506.47
529.07	42272.42
529.24	42185.82
529.41	42094.53
529.58	42370.72
529.75	42188.16
529.92	42712.44
530.09	43203.95
530.26	42850.53
530.43	42595.41
530.60	42609.45
530.77	42494.77
530.94	43061.18
531.11	43072.88
531.28	43040.11
531.46	43313.95
531.63	43548.01
531.80	43042.45
531.97	43498.86
532.14	43393.53
532.31	43187.56
532.48	43468.43
532.65	43704.82
532.82	43435.66
532.99	44105.06
533.16	43393.53
533.33	43564.39
533.50	43906.11
533.67	43461.41
533.84	43849.94
534.01	43702.48
534.18	44205.70
534.35	44573.16
534.52	44339.11
534.69	44502.95
534.86	44250.17
535.03	43983.35
535.20	44156.55
535.37	44547.42
535.54	44509.97
535.71	44823.60
535.88	44212.72
536.05	44762.75
536.22	45064.67
536.38	45006.16
536.55	44570.82
536.72	44713.59
536.89	44233.78
537.06	44795.51
537.23	45195.74
537.40	45027.23
537.57	45603.00
537.74	45408.73
537.91	45319.79
538.08	45240.21
538.25	45198.09
538.42	45521.08
538.59	45483.63
538.75	45858.12
538.92	45380.65
539.09	45888.54
539.26	45656.83
539.43	45411.07
539.60	45666.19
539.77	45925.99
539.94	46157.70
540.11	46010.25
540.28	46223.24
540.44	46136.64
540.61	46312.18
540.78	46272.39
540.95	46064.08
541.12	46305.16
541.29	46127.28
541.46	45996.21
541.62	46260.69
541.79	46614.11
541.96	46485.38
542.13	46387.08
542.30	46691.35
542.47	46689.01
542.63	46574.32
542.80	46380.06
542.97	47042.43
543.14	47309.25
543.31	47002.64
543.48	47302.23
543.64	47618.20
543.81	47365.42
543.98	47339.68
544.15	47150.09
544.32	47576.07
544.48	47180.52
544.65	47426.28
544.82	47821.83
544.99	47306.91
545.16	47599.47
545.32	47519.90
545.49	48172.91
545.66	47955.24
545.83	47833.53
546.00	48362.49
546.16	47751.61
546.33	47615.86
546.50	47882.68
546.67	48296.95
546.83	47416.91
547.00	47929.49
547.17	48158.86
547.34	47503.51
547.50	48037.16
547.67	48334.40
547.84	48355.47
548.00	48238.44
548.17	48666.76
548.34	48655.06
548.51	48641.01
548.67	48411.64
548.84	48168.22
549.01	48299.30
549.18	48280.57
549.34	48294.61
549.51	48664.42
549.68	48584.84
549.84	48722.93
550.01	48751.02
550.18	48484.20
550.34	48713.57
550.51	48830.60
550.68	48978.05
550.84	48451.43
551.01	49055.29
551.18	48704.21
551.34	48715.91
551.51	48954.64
551.68	49303.38
551.84	49200.40
552.01	48828.26
552.18	48795.49
552.34	48987.41
552.51	49081.03
552.68	48823.58
552.84	48933.58
553.01	49595.95
553.18	49127.84
553.34	49282.32
553.51	49106.78
553.67	49450.84
553.84	49785.54
554.01	49595.95
554.17	49467.22
554.34	49741.06
554.51	49837.03
554.67	49956.39
554.84	49876.82
555.00	49546.80
555.17	49731.70
555.33	49689.57
555.50	49600.63
555.67	49354.88
555.83	49755.11
556.00	49698.94
556.16	50415.14
556.33	50209.17
556.50	50000.86
556.66	50162.36
556.83	50045.33
556.99	50356.63
557.16	49785.54
557.32	50239.60
557.49	50157.68
557.65	50197.47
557.82	50211.51
557.98	50211.51
558.15	50368.33
558.32	50316.84
558.48	50405.78
558.65	50071.08
558.81	50075.76
558.98	50134.28
559.14	50127.25
559.31	50244.28
559.47	50354.29
559.64	50454.93
559.80	50373.01
559.97	50440.89
560.13	50281.73
560.30	50272.37
560.46	50248.96
560.63	50354.29
560.79	50578.98
560.96	50457.27
561.12	50974.53
561.29	50745.15
561.45	50445.57
561.61	50934.74
561.78	50644.51
561.94	50253.64
562.11	50696.00
562.27	50218.53
562.44	50780.26
562.60	51058.79
562.77	50593.02
562.93	50567.27
563.10	51152.41
563.26	50705.37
563.42	51178.15
563.59	50836.44
563.75	50937.08
563.92	50887.93
564.08	50763.88
564.24	51014.32
564.41	50684.30
564.57	50773.24
564.74	50864.52
564.90	51175.81
565.07	50597.70
565.23	51107.94
565.39	50937.08
565.56	50777.92
565.72	51173.47
565.88	51002.61
566.05	51077.51
566.21	51089.21
566.38	50862.18
566.54	51121.98
566.70	51547.96
566.87	51414.55
567.03	50576.64
567.19	50953.46
567.36	50932.40
567.52	51068.15
567.68	51353.69
567.85	51028.36
568.01	51510.51
568.17	51414.55
568.34	51189.86
568.50	51622.86
568.66	51065.81
568.83	51154.75
568.99	51096.24
569.15	51367.74
569.32	51337.31
569.48	51290.50
569.64	51597.11
569.81	51119.64
569.97	51405.19
570.13	51489.45
570.30	51447.32
570.46	51341.99
570.62	50981.55
570.78	50869.20
570.95	50836.44
571.11	51667.33
571.27	51906.06
571.43	51599.45
571.60	51669.67
571.76	51044.74
571.92	51255.39
572.09	51222.62
572.25	51435.61
572.41	51281.14
572.57	51449.66
572.74	51737.54
572.90	51430.93
573.06	51810.10
573.22	51784.35
573.38	51655.62
573.55	51533.92
573.71	51618.17
573.87	51643.92
574.03	51023.68
574.20	51295.18
574.36	51255.39
574.52	51461.36
574.68	51784.35
574.84	51632.22
575.01	51739.88
575.17	51849.89
575.33	51662.64
575.49	51484.76
575.65	51945.85
575.82	51569.02
575.98	51489.45
576.14	51948.19
576.30	52004.36
576.46	51688.39
576.62	52076.92
576.79	51805.42
576.95	51578.39
577.11	51578.39
577.27	51756.27
577.43	51686.05
577.59	51592.43
577.75	51480.08
577.92	51613.49
578.08	51566.68
578.24	51908.40
578.40	51915.42
578.56	52062.88
578.72	51746.90
578.88	51760.95
579.04	51992.66
579.21	51613.49
579.37	51987.98
579.53	51753.93
579.69	52013.73
579.85	51716.48
580.01	52105.01
580.17	51821.80
580.33	52009.04
580.49	51562.00
580.65	51789.03
580.82	51753.93
580.98	51700.09
581.14	51826.48
581.30	51847.55
581.46	51873.29
581.62	51803.08
581.78	51679.03
581.94	52016.07
582.10	51934.15
582.26	51824.14
582.42	51786.69
582.58	51756.27
582.74	51751.59
582.90	52023.09
583.06	51854.57
583.22	51957.55
583.38	52088.62
583.54	51929.47
583.70	52060.54
583.86	52151.82
584.02	52076.92
584.18	52329.70
584.34	51819.46
584.50	51973.94
584.66	52170.54
584.82	51894.36
584.98	52055.85
585.14	51840.53
585.30	51877.97
585.46	52067.56
585.62	51913.08
585.78	52074.58
585.94	52006.70
586.10	52060.54
586.26	51971.60
586.42	51695.41
586.58	52048.83
586.74	51789.03
586.90	52025.43
587.06	52353.10
587.22	52025.43
587.38	52067.56
587.54	52343.74
587.70	51894.36
587.86	52332.04
588.02	52142.45
588.18	52222.03
588.34	52126.07
588.49	52250.12
588.65	52182.24
588.81	52376.51
588.97	52580.13
589.13	52507.58
589.29	52392.89
589.45	52463.11
589.61	52203.31
589.77	52449.06
589.93	52126.07
590.08	52369.49
590.24	52418.64
590.40	52472.47
