SpectraSuite Data File
++++++++++++++++++++++++++++++++++++
Date: Tue Oct 01 18:27:24 GMT-05:00 2013
User: stostad
Dark Spectrum Present: No
Reference Spectrum Present: No
Number of Sampled Component Spectra: 1
Spectrometers: USB2+H05261
Integration Time (usec): 100000 (USB2+H05261)
Spectra Averaged: 1 (USB2+H05261)
Boxcar Smoothing: 0 (USB2+H05261)
Correct for Electrical Dark: No (USB2+H05261)
Strobe/Lamp Enabled: No (USB2+H05261)
Correct for Detector Non-linearity: No (USB2+H05261)
Correct for Stray Light: No (USB2+H05261)
Number of Pixels in Processed Spectrum: 2048
>>>>>Begin Processed Spectral Data<<<<<
365.73	65.54
365.92	65.54
366.12	65.54
366.32	84.26
366.52	0.00
366.72	18.72
366.91	0.00
367.11	0.00
367.31	2.34
367.51	0.00
367.70	0.00
367.90	0.00
368.10	0.00
368.30	0.00
368.49	0.00
368.69	0.00
368.89	0.00
369.09	0.00
369.28	72.56
369.48	0.00
369.68	32.77
369.87	23.41
370.07	9.36
370.27	131.07
370.47	203.63
370.66	250.44
370.86	269.16
371.06	287.89
371.25	327.68
371.45	259.80
371.65	276.18
371.84	322.99
372.04	407.25
372.24	388.53
372.44	411.93
372.63	425.98
372.83	475.13
373.03	407.25
373.22	449.38
373.42	428.32
373.62	404.91
373.81	416.62
374.01	484.49
374.21	454.06
374.40	397.89
374.60	510.24
374.79	479.81
374.99	447.04
375.19	440.02
375.38	442.36
375.58	425.98
375.78	468.11
375.97	437.68
376.17	575.77
376.37	428.32
376.56	521.94
376.76	482.15
376.95	390.87
377.15	486.83
377.35	531.30
377.54	533.64
377.74	470.45
377.93	411.93
378.13	575.77
378.33	535.98
378.52	514.92
378.72	475.13
378.91	514.92
379.11	491.51
379.31	475.13
379.50	461.09
379.70	507.90
379.89	554.71
380.09	514.92
380.28	486.83
380.48	519.60
380.68	414.27
380.87	552.37
381.07	545.34
381.26	615.56
381.46	601.52
381.65	641.31
381.85	599.18
382.04	699.82
382.24	624.92
382.43	617.90
382.63	538.32
382.83	566.41
383.02	655.35
383.22	603.86
383.41	617.90
383.61	655.35
383.80	629.60
384.00	636.63
384.19	601.52
384.39	599.18
384.58	610.88
384.78	603.86
384.97	683.44
385.17	685.78
385.36	662.37
385.56	606.20
385.75	636.63
385.95	634.29
386.14	699.82
386.34	601.52
386.53	617.90
386.72	648.33
386.92	613.22
387.11	660.03
387.31	657.69
387.50	725.57
387.70	720.88
387.89	741.95
388.09	692.80
388.28	788.76
388.48	826.21
388.67	767.70
388.86	650.67
389.06	734.93
389.25	774.72
389.45	805.14
389.64	737.27
389.84	772.38
390.03	793.44
390.22	816.85
390.42	751.31
390.61	716.20
390.81	802.80
391.00	772.38
391.19	807.48
391.39	814.51
391.58	861.32
391.78	809.83
391.97	823.87
392.16	828.55
392.36	933.87
392.55	905.79
392.75	933.87
392.94	816.85
393.13	922.17
393.33	882.38
393.52	915.15
393.71	884.72
393.91	933.87
394.10	938.55
394.29	936.21
394.49	926.85
394.68	997.07
394.88	950.26
395.07	1093.03
395.26	1001.75
395.46	926.85
395.65	1100.05
395.84	1053.24
396.04	1053.24
396.23	983.02
396.42	973.66
396.62	1006.43
396.81	1071.97
397.00	1036.86
397.19	1086.01
397.39	1029.84
397.58	1046.22
397.77	1107.07
397.97	1083.67
398.16	1083.67
398.35	1179.63
398.55	1060.26
398.74	1118.78
398.93	1174.95
399.12	1043.88
399.32	1067.28
399.51	1078.99
399.70	1174.95
399.90	1198.35
400.09	1228.78
400.28	1179.63
400.47	1226.44
400.67	1275.59
400.86	1259.21
401.05	1282.61
401.24	1308.36
401.44	1233.46
401.63	1371.55
401.82	1320.06
402.01	1348.15
402.21	1345.81
402.40	1409.00
402.59	1378.58
402.78	1451.13
402.97	1474.54
403.17	1432.41
403.36	1575.18
403.55	1490.92
403.74	1584.54
403.93	1502.62
404.13	1526.03
404.32	1483.90
404.51	1556.46
404.70	1575.18
404.89	1558.80
405.09	1687.53
405.28	1577.52
405.47	1633.69
405.66	1689.87
405.85	1699.23
406.05	1647.74
406.24	1680.50
406.43	1626.67
406.62	1626.67
406.81	1748.38
407.00	1685.19
407.20	1708.59
407.39	1783.49
407.58	1870.09
407.77	1891.15
407.96	1863.07
408.15	1902.86
408.34	1912.22
408.54	1891.15
408.73	1916.90
408.92	1935.62
409.11	1973.07
409.30	2071.37
409.49	2003.50
409.68	1998.82
409.87	2005.84
410.07	2043.29
410.26	2052.65
410.45	2087.76
410.64	2024.56
410.83	2118.18
411.02	2181.38
411.21	2221.17
411.40	2129.89
411.59	2275.00
411.78	2200.10
411.98	2209.47
412.17	2223.51
412.36	2256.28
412.55	2293.72
412.74	2422.45
412.93	2443.52
413.12	2279.68
413.31	2483.31
413.50	2314.79
413.69	2569.91
413.88	2607.36
414.07	2572.25
414.26	2590.97
414.45	2609.70
414.64	2609.70
414.83	2679.91
415.02	2743.11
415.22	2719.70
415.41	2743.11
415.60	2621.40
415.79	2569.91
415.98	2881.20
416.17	2782.90
416.36	2855.45
416.55	2869.50
416.74	2984.18
416.93	2846.09
417.12	2860.13
417.31	2984.18
417.50	3066.10
417.69	3066.10
417.88	3169.09
418.07	3096.53
418.26	3126.96
418.45	3007.59
418.64	3246.32
418.83	3290.79
419.02	3166.74
419.21	3246.32
419.39	3222.92
419.58	3138.66
419.77	3279.09
419.96	3225.26
420.15	3353.99
420.34	3279.09
420.53	3379.73
420.72	3356.33
420.91	3349.31
421.10	3503.78
421.29	3571.66
421.48	3211.22
421.67	3377.39
421.86	3534.21
422.05	3524.85
422.24	3496.76
422.43	3475.70
422.61	3508.46
422.80	3529.53
422.99	3557.61
423.18	3545.91
423.37	3646.55
423.56	3632.51
423.75	3611.45
423.94	3508.46
424.13	3382.07
424.32	3335.26
424.50	3726.13
424.69	3702.73
424.88	3637.19
425.07	3644.21
425.26	3618.47
425.45	3574.00
425.64	3744.86
425.83	3543.57
426.01	3646.55
426.20	3550.59
426.39	3665.28
426.58	3627.83
426.77	3674.64
426.96	3742.52
427.15	3782.31
427.33	3737.84
427.52	3581.02
427.71	3803.37
427.90	3845.50
428.09	3803.37
428.28	3950.82
428.46	3866.56
428.65	3882.95
428.84	4053.81
429.03	3850.18
429.22	3831.46
429.40	4088.92
429.59	3995.29
429.78	3889.97
429.97	3950.82
430.16	4060.83
430.34	4105.30
430.53	4091.26
430.72	4095.94
430.91	4154.45
431.10	4063.17
431.28	4238.71
431.47	4266.80
431.66	4337.01
431.85	4133.39
432.03	4231.69
432.22	4409.57
432.41	4458.72
432.60	4367.44
432.79	4219.99
432.97	4404.89
433.16	4381.48
433.35	4339.35
433.54	4514.89
433.72	4372.12
433.91	4442.34
434.10	4531.28
434.28	4402.55
434.47	4465.74
434.66	4578.09
434.85	4573.41
435.03	4582.77
435.22	4667.03
435.41	4802.78
435.59	4636.60
435.78	4739.58
435.97	4676.39
436.16	4873.00
436.34	4751.29
436.53	4842.57
436.72	4915.12
436.90	4690.43
437.09	4765.33
437.28	4770.01
437.46	4816.82
437.65	4774.69
437.84	4905.76
438.02	4929.17
438.21	5043.85
438.40	4968.96
438.58	5083.64
438.77	5132.79
438.96	4854.27
439.14	5193.65
439.33	5242.80
439.52	5200.67
439.70	5242.80
439.89	5385.57
440.08	5521.32
440.26	5366.85
440.45	5320.04
440.63	5598.56
440.82	5467.49
441.01	5542.39
441.19	5650.05
441.38	5769.42
441.57	5710.91
441.75	5551.75
441.94	5671.12
442.12	5816.23
442.31	5994.11
442.50	5994.11
442.68	5713.25
442.87	5849.00
443.05	5926.24
443.24	5879.43
443.43	5984.75
443.61	5923.90
443.80	6202.42
443.98	6010.50
444.17	5792.83
444.35	6012.84
444.54	5951.98
444.73	6033.90
444.91	5994.11
445.10	6085.39
445.28	6099.44
445.47	5949.64
445.65	6064.33
445.84	6282.00
446.02	6354.55
446.21	6029.22
446.39	6136.88
446.58	6286.68
446.77	6162.63
446.95	6209.44
447.14	6155.61
447.32	6387.32
447.51	6314.77
447.69	6190.72
447.88	6373.28
448.06	6235.19
448.25	6223.48
448.43	6253.91
448.62	6251.57
448.80	6345.19
448.99	6328.81
449.17	6286.68
449.36	6258.59
449.54	6494.99
449.73	6551.16
449.91	6567.54
450.10	6616.69
450.28	6707.98
450.46	6654.14
450.65	6628.40
450.83	6499.67
451.02	6647.12
451.20	6906.92
451.39	6743.08
451.57	6689.25
451.76	6555.84
451.94	6825.00
452.13	6953.73
452.31	6862.45
452.49	6855.43
452.68	7014.59
452.86	6619.04
453.05	6991.18
453.23	7026.29
453.42	6913.94
453.60	7007.56
453.78	6876.49
453.97	6864.79
454.15	7087.14
454.34	7014.59
454.52	7089.48
454.70	7098.84
454.89	7206.51
455.07	7091.82
455.26	7176.08
455.44	7279.07
455.62	7279.07
455.81	7330.56
455.99	7321.20
456.17	7265.02
456.36	7527.16
456.54	7482.69
456.73	7513.12
456.91	7751.85
457.09	7632.49
457.28	7808.03
457.46	7571.63
457.64	7719.09
457.83	7730.79
458.01	7592.70
458.19	7974.21
458.38	7798.66
458.56	7920.37
458.74	7793.98
458.93	8056.12
459.11	8126.34
459.29	8011.65
459.48	7854.84
459.66	7889.95
459.84	8013.99
460.03	8070.17
460.21	8114.64
460.39	8084.21
460.57	8159.11
460.76	8243.37
460.94	8287.84
461.12	8276.13
461.31	8198.90
461.49	8231.66
461.67	8215.28
461.85	8404.86
462.04	8444.65
462.22	9008.72
462.40	8720.84
462.59	8575.72
462.77	8428.27
462.95	8528.91
463.13	8404.86
463.32	8777.01
463.50	8652.96
463.68	8753.60
463.86	8681.05
464.05	8517.21
464.23	8622.53
464.41	8575.72
464.59	8587.43
464.78	9062.55
464.96	8781.69
465.14	8674.03
465.32	8692.75
465.50	9142.13
465.69	9067.24
465.87	9078.94
466.05	8896.38
466.23	9142.13
466.41	9048.51
466.60	9275.54
466.78	8978.30
466.96	9018.08
467.14	8929.14
467.32	9111.71
467.51	9327.03
467.69	8936.17
467.87	9247.46
468.05	9352.78
468.23	8992.34
468.41	9128.09
468.60	9287.25
468.78	9228.73
468.96	9256.82
469.14	9448.74
469.32	9350.44
469.50	9107.02
469.69	9650.03
469.87	9947.28
470.05	9628.96
470.23	9668.75
470.41	9731.95
470.59	9783.44
470.77	9703.86
470.95	9680.46
471.14	10052.60
471.32	9820.89
471.50	10064.30
471.68	10015.15
471.86	10207.08
472.04	10235.16
472.22	10289.00
472.40	10031.54
472.58	10239.84
472.77	10370.91
472.95	10427.09
473.13	10832.00
473.31	10394.32
473.49	10232.82
473.67	10448.15
473.85	10415.38
474.03	10792.21
474.21	10733.70
474.39	10892.85
474.57	10684.55
474.75	11206.48
474.93	11049.67
475.12	11143.29
475.30	11187.76
475.48	10934.98
475.66	11255.64
475.84	11304.79
476.02	11262.66
476.20	11187.76
476.38	11566.93
476.56	11726.08
476.74	11695.66
476.92	11667.57
477.10	11796.30
477.28	11974.18
477.46	11712.04
477.64	12107.59
477.82	12238.66
478.00	12711.45
478.18	12379.09
478.36	12634.21
478.54	12549.95
478.72	12744.22
478.90	12711.45
479.08	12957.21
479.26	12903.37
479.44	13266.16
479.62	13078.91
479.80	13345.73
479.98	13200.62
480.16	13706.18
480.34	13605.53
480.52	13745.97
480.70	13980.02
480.88	13811.50
481.06	13680.43
481.24	13626.60
481.41	14338.12
481.59	14356.85
481.77	14558.13
481.95	14413.02
482.13	14553.45
482.31	14560.47
482.49	14764.10
482.67	14712.61
482.85	15225.18
483.03	15192.42
483.21	15232.21
483.39	15449.88
483.57	15417.11
483.74	15506.05
483.92	15906.28
484.10	15730.74
484.28	16175.44
484.46	16421.20
484.64	16542.91
484.82	15955.43
485.00	16397.79
485.18	16936.12
485.35	17046.12
485.53	16971.22
485.71	16706.74
485.89	17334.01
486.07	17453.37
486.25	17635.94
486.43	17619.55
486.61	17949.57
486.78	17884.03
486.96	17982.34
487.14	18363.84
487.32	18174.26
487.50	18225.75
487.68	18494.91
487.85	18614.28
488.03	18733.65
488.21	19070.68
488.39	18801.52
488.57	18831.95
488.75	18991.11
488.92	19756.46
489.10	19967.11
489.28	19676.88
489.46	19997.54
489.64	19840.72
489.81	20388.41
489.99	20348.62
490.17	20634.16
490.35	20842.47
490.53	20812.04
490.70	20837.79
490.88	20900.98
491.06	21252.06
491.24	21277.81
491.41	21731.87
491.59	21701.45
491.77	21799.75
491.95	21996.35
492.13	22059.55
492.30	21834.86
492.48	21785.71
492.66	22328.71
492.84	22373.18
493.01	22672.77
493.19	22637.66
493.37	22843.63
493.54	22960.66
493.72	23452.17
493.90	23424.08
494.08	23569.19
494.25	24121.56
494.43	23826.65
494.61	23550.47
494.79	24056.03
494.96	24353.27
495.14	24512.43
495.32	24655.20
495.49	24931.39
495.67	24741.80
495.85	24673.93
496.02	24680.95
496.20	25223.95
496.38	25153.74
496.55	25579.71
496.73	25720.15
496.91	25408.86
497.09	25668.66
497.26	25954.20
497.44	26061.87
497.62	26129.74
497.79	26260.81
497.97	26249.11
498.14	26377.84
498.32	26822.54
498.50	26904.46
498.67	27447.46
498.85	27131.49
499.03	27192.34
499.20	27353.84
499.38	27459.16
499.56	27241.50
499.73	27494.27
499.91	27782.16
500.08	28009.19
500.26	27749.39
500.44	28056.00
500.61	28350.91
500.79	28140.26
500.97	28439.85
501.14	28840.08
501.32	28608.37
501.49	28797.95
501.67	28432.83
501.84	29125.63
502.02	28795.61
502.20	28999.24
502.37	29202.86
502.55	28842.42
502.72	29296.49
502.90	29017.96
503.07	29371.38
503.25	29544.58
503.43	29610.12
503.60	29968.22
503.78	29986.94
503.95	29926.09
504.13	29989.28
504.30	30141.42
504.48	30155.46
504.65	30808.47
504.83	30398.88
505.01	30485.48
505.18	30300.58
505.36	31056.57
505.53	30595.48
505.71	31168.91
505.88	31117.42
506.06	31337.43
506.23	31335.09
506.41	31541.06
506.58	31328.07
506.76	31405.31
506.93	31508.29
507.11	31487.23
507.28	31903.84
507.46	32173.00
507.63	32144.92
507.81	32011.51
507.98	31938.95
508.16	31927.25
508.33	32580.26
508.50	32900.91
508.68	32463.23
508.85	33228.59
509.03	33158.37
509.20	32903.25
509.38	32936.02
509.55	32849.42
509.73	32910.27
509.90	33399.44
510.08	33708.40
510.25	33275.40
510.42	33628.82
510.60	33851.17
510.77	33649.88
510.95	33720.10
511.12	34066.50
511.30	34007.98
511.47	34071.18
511.64	34370.77
511.82	34480.77
511.99	34291.19
512.17	34113.31
512.34	34684.40
512.51	35007.39
512.69	35079.95
512.86	34953.56
513.04	35337.41
513.21	35054.20
513.38	35428.69
513.56	35330.39
513.73	35014.41
513.90	35351.45
514.08	35557.42
514.25	36098.08
514.43	35777.43
514.60	35620.61
514.77	35622.95
514.95	35962.33
515.12	36407.03
515.29	35765.73
515.47	36231.49
515.64	36718.32
515.81	36613.00
515.99	36711.30
516.16	37280.05
516.33	36711.30
516.51	36748.75
516.68	36538.10
516.85	37125.58
517.03	37668.58
517.20	37291.76
517.37	37106.85
517.54	37046.00
517.72	37212.18
517.89	37120.90
518.06	37762.20
518.24	37350.27
518.41	37516.45
518.58	38022.00
518.75	37619.43
518.93	37806.67
519.10	37584.32
519.27	37921.36
519.45	37944.76
519.62	38611.82
519.79	38710.12
519.96	38272.44
520.14	38621.18
520.31	38260.74
520.48	38391.81
520.65	38450.32
520.83	38983.96
521.00	38728.84
521.17	38803.74
521.34	39206.31
521.52	39178.23
521.69	39173.55
521.86	39351.43
522.03	39026.09
522.20	39487.18
522.38	39658.04
522.55	39627.61
522.72	40006.78
522.89	39927.20
523.07	40079.33
523.24	39728.25
523.41	39723.57
523.58	39386.54
523.75	39646.33
523.92	40287.64
524.10	40327.43
524.27	40732.34
524.44	40657.45
524.61	40598.93
524.78	40465.52
524.96	40573.19
525.13	40900.86
525.30	40854.05
525.47	40811.92
525.64	40804.90
525.81	41043.63
525.98	41387.69
526.16	41193.43
526.33	40804.90
526.50	41507.06
526.67	41493.02
526.84	41783.24
527.01	41366.63
527.18	41720.05
527.36	41823.03
527.53	42082.83
527.70	42192.84
527.87	41881.55
528.04	41715.37
528.21	42155.39
528.38	42253.69
528.55	42101.56
528.72	42148.37
528.89	42277.10
529.07	42026.66
529.24	42199.86
529.41	42148.37
529.58	41825.37
529.75	42527.53
529.92	43119.69
530.09	42515.83
530.26	42569.66
530.43	42780.31
530.60	42014.96
530.77	42698.39
530.94	42859.89
531.11	42784.99
531.28	42883.30
531.46	43129.05
531.63	43407.58
531.80	43480.13
531.97	43707.16
532.14	43365.45
532.31	43501.20
532.48	43529.28
532.65	43695.46
532.82	43358.42
532.99	43941.22
533.16	43386.51
533.33	44123.78
533.50	43896.75
533.67	43512.90
533.84	43508.22
534.01	43770.36
534.18	43941.22
534.35	44465.50
534.52	44329.75
534.69	44556.78
534.86	44570.82
535.03	44350.81
535.20	44257.19
535.37	44313.36
535.54	44767.43
535.71	44175.27
535.88	44896.16
536.05	44737.00
536.22	44715.93
536.38	44568.48
536.55	44718.28
536.72	44793.17
536.89	44411.67
537.06	45104.46
537.23	45467.25
537.40	45099.78
537.57	45492.99
537.74	45071.70
537.91	45722.37
538.08	45551.51
538.25	44947.65
538.42	45581.93
538.59	45815.99
538.75	45401.71
538.92	45308.09
539.09	45654.49
539.26	45514.06
539.43	45588.95
539.60	46251.33
539.77	45785.56
539.94	45757.47
540.11	46138.98
540.28	46021.95
540.44	46197.49
540.61	46328.56
540.78	46162.39
540.95	46213.88
541.12	46258.35
541.29	46185.79
541.46	46504.10
541.62	46405.80
541.79	46567.30
541.96	46169.41
542.13	46415.16
542.30	46536.87
542.47	46370.69
542.63	46450.27
542.80	46838.80
542.97	47435.64
543.14	47187.54
543.31	46906.68
543.48	47227.33
543.64	47508.19
543.81	47517.56
543.98	47522.24
544.15	47433.30
544.32	47316.27
544.48	47657.99
544.65	47536.28
544.82	47114.98
544.99	47185.20
545.16	47456.70
545.32	47756.29
545.49	47662.67
545.66	47863.96
545.83	47669.69
546.00	47786.72
546.16	47931.83
546.33	47697.78
546.50	47690.76
546.67	47828.85
546.83	47929.49
547.00	47894.38
547.17	48004.39
547.34	48119.07
547.50	48011.41
547.67	48540.37
547.84	48404.62
548.00	48411.64
548.17	48786.13
548.34	48259.51
548.51	48968.69
548.67	48322.70
548.84	48638.67
549.01	48158.86
549.18	48308.66
549.34	48299.30
549.51	48500.58
549.68	48744.00
549.84	48652.72
550.01	48666.76
550.18	48495.90
550.34	48795.49
550.51	48793.15
550.68	48514.62
550.84	48683.14
551.01	49003.80
551.18	48622.29
551.34	48928.90
551.51	49186.36
551.68	49006.14
551.84	49200.40
552.01	49052.95
552.18	48985.07
552.34	48835.28
552.51	49151.25
552.68	49230.83
552.84	48811.87
553.01	49591.27
553.18	49542.12
553.34	49846.39
553.51	49162.95
553.67	49249.55
553.84	49310.41
554.01	49448.50
554.17	49790.22
554.34	49572.55
554.51	49806.60
554.67	49794.90
554.84	49570.21
555.00	49705.96
555.17	49715.32
555.33	49645.10
555.50	49521.05
555.67	49294.02
555.83	49624.04
556.00	49703.62
556.16	50305.13
556.33	50174.06
556.50	50101.51
556.66	50197.47
556.83	49614.68
556.99	50286.41
557.16	50181.09
557.32	49961.08
557.49	50108.53
557.65	50185.77
557.82	50106.19
557.98	50527.48
558.15	50438.54
558.32	50440.89
558.48	50068.74
558.65	50134.28
558.81	50230.24
558.98	50307.47
559.14	50110.87
559.31	50202.15
559.47	50401.10
559.64	50574.30
559.80	50464.29
559.97	50677.28
560.13	50295.77
560.30	50518.12
560.46	50340.24
560.63	50288.75
560.79	50412.80
560.96	50693.66
561.12	50571.96
561.29	50525.14
561.45	50548.55
561.61	50824.73
561.78	50920.70
561.94	50525.14
562.11	50417.48
562.27	50773.24
562.44	50541.53
562.60	50625.79
562.77	50843.46
562.93	50948.78
563.10	50908.99
563.26	50911.33
563.42	51260.07
563.59	50883.25
563.75	50787.28
563.92	50913.67
564.08	50859.84
564.24	50883.25
564.41	51129.00
564.57	50836.44
564.74	50672.60
564.90	50714.73
565.07	50894.95
565.23	51192.20
565.39	50700.68
565.56	50848.14
565.72	51042.40
565.88	51257.73
566.05	50990.91
566.21	51007.29
566.38	50958.14
566.54	51042.40
566.70	51449.66
566.87	51276.46
567.03	50883.25
567.19	50941.76
567.36	51035.38
567.52	51119.64
567.68	51508.17
567.85	51295.18
568.01	51353.69
568.17	51416.89
568.34	51246.03
568.50	51611.15
568.66	51327.95
568.83	51138.36
568.99	51239.01
569.15	50974.53
569.32	51503.49
569.48	50962.82
569.64	51285.82
569.81	51405.19
569.97	51498.81
570.13	51817.12
570.30	51157.09
570.46	51121.98
570.62	51103.26
570.78	51391.14
570.95	51171.13
571.11	51400.50
571.27	51845.21
571.43	51662.64
571.60	51805.42
571.76	51325.61
571.92	51496.47
572.09	51494.13
572.25	51550.30
572.41	51452.00
572.57	51243.69
572.74	51915.42
572.90	51695.41
573.06	51576.04
573.22	51414.55
573.38	51667.33
573.55	51529.23
573.71	51653.28
573.87	51569.02
574.03	51374.76
574.20	51611.15
574.36	51257.73
574.52	51707.12
574.68	51529.23
574.84	51903.72
575.01	51943.51
575.17	51686.05
575.33	51711.80
575.49	51374.76
575.65	51779.67
575.82	52006.70
575.98	51522.21
576.14	51372.42
576.30	51697.75
576.46	51789.03
576.62	51906.06
576.79	52083.94
576.95	51611.15
577.11	51840.53
577.27	51681.37
577.43	51805.42
577.59	51571.36
577.75	51304.54
577.92	51543.28
578.08	51447.32
578.24	51812.44
578.40	51676.69
578.56	51957.55
578.72	51969.26
578.88	51777.33
579.04	52207.99
579.21	51913.08
579.37	51746.90
579.53	51824.14
579.69	51672.01
579.85	52062.88
580.01	51962.23
580.17	51760.95
580.33	52109.69
580.49	51842.87
580.65	51770.31
580.82	51730.52
580.98	51540.94
581.14	51601.79
581.30	52044.15
581.46	51700.09
581.62	51899.04
581.78	51594.77
581.94	52198.63
582.10	51873.29
582.26	51938.83
582.42	51686.05
582.58	51906.06
582.74	51430.93
582.90	51723.50
583.06	51777.33
583.22	52044.15
583.38	52275.87
583.54	52329.70
583.70	52069.90
583.86	52233.74
584.02	51903.72
584.18	51889.68
584.34	52126.07
584.50	52252.46
584.66	51906.06
584.82	51650.94
584.98	52086.28
585.14	52130.75
585.30	51908.40
585.46	51999.68
585.62	52109.69
585.78	51915.42
585.94	51569.02
586.10	51487.10
586.26	51798.40
586.42	51978.62
586.58	52149.48
586.74	51709.46
586.90	52126.07
587.06	51997.34
587.22	52172.88
587.38	52025.43
587.54	52261.82
587.70	52367.15
587.86	52083.94
588.02	51952.87
588.18	52039.47
588.34	51817.12
588.49	52130.75
588.65	51892.02
588.81	52222.03
588.97	52449.06
589.13	52519.28
589.29	52554.39
589.45	52755.68
589.61	52315.65
589.77	52325.02
589.93	51784.35
590.08	52020.75
590.24	52381.19
590.40	52416.30
