SpectraSuite Data File
++++++++++++++++++++++++++++++++++++
Date: Fri Oct 04 11:39:44 GMT-05:00 2013
User: price-jones
Dark Spectrum Present: No
Reference Spectrum Present: No
Number of Sampled Component Spectra: 1
Spectrometers: USB2+H05261
Integration Time (usec): 100000 (USB2+H05261)
Spectra Averaged: 1 (USB2+H05261)
Boxcar Smoothing: 0 (USB2+H05261)
Correct for Electrical Dark: No (USB2+H05261)
Strobe/Lamp Enabled: No (USB2+H05261)
Correct for Detector Non-linearity: No (USB2+H05261)
Correct for Stray Light: No (USB2+H05261)
Number of Pixels in Processed Spectrum: 2048
>>>>>Begin Processed Spectral Data<<<<<
365.73	53.83
365.92	53.83
366.12	53.83
366.32	0.00
366.52	0.00
366.72	0.00
366.91	9.36
367.11	0.00
367.31	0.00
367.51	0.00
367.70	0.00
367.90	7.02
368.10	0.00
368.30	0.00
368.49	0.00
368.69	63.19
368.89	0.00
369.09	0.00
369.28	0.00
369.48	0.00
369.68	0.00
369.87	30.43
370.07	39.79
370.27	98.30
370.47	145.11
370.66	379.17
370.86	500.87
371.06	557.05
371.25	535.98
371.45	557.05
371.65	552.37
371.84	461.09
372.04	566.41
372.24	559.39
372.44	545.34
372.63	589.82
372.83	720.88
373.03	599.18
373.22	636.63
373.42	697.48
373.62	669.39
373.81	608.54
374.01	685.78
374.21	725.57
374.40	636.63
374.60	772.38
374.79	697.48
374.99	676.41
375.19	739.61
375.38	683.44
375.58	676.41
375.78	723.23
375.97	741.95
376.17	828.55
376.37	781.74
376.56	807.48
376.76	753.65
376.95	772.38
377.15	779.40
377.35	737.27
377.54	746.63
377.74	809.83
377.93	748.97
378.13	837.91
378.33	807.48
378.52	889.40
378.72	795.78
378.91	844.93
379.11	936.21
379.31	894.08
379.50	809.83
379.70	901.11
379.89	854.30
380.09	868.34
380.28	950.26
380.48	903.45
380.68	807.48
380.87	976.00
381.07	880.04
381.26	994.73
381.46	891.74
381.65	947.92
381.85	983.02
382.04	950.26
382.24	1064.94
382.43	938.55
382.63	968.98
382.83	1057.92
383.02	978.34
383.22	1022.81
383.41	945.58
383.61	978.34
383.80	997.07
384.00	1050.90
384.19	1046.22
384.39	1064.94
384.58	1097.71
384.78	1074.31
384.97	1114.10
385.17	1043.88
385.36	1048.56
385.56	1137.50
385.75	1111.75
385.95	1109.41
386.14	1086.01
386.34	1128.14
386.53	1203.04
386.72	1233.46
386.92	1165.59
387.11	1165.59
387.31	1139.84
387.50	1114.10
387.70	1184.31
387.89	1233.46
388.09	1160.91
388.28	1217.08
388.48	1287.29
388.67	1294.32
388.86	1317.72
389.06	1268.57
389.25	1287.29
389.45	1299.00
389.64	1207.72
389.84	1341.13
390.03	1270.91
390.22	1355.17
390.42	1371.55
390.61	1373.89
390.81	1376.24
391.00	1299.00
391.19	1355.17
391.39	1420.71
391.58	1413.68
391.78	1413.68
391.97	1476.88
392.16	1462.83
392.36	1509.65
392.55	1535.39
392.75	1568.16
392.94	1535.39
393.13	1617.31
393.33	1448.79
393.52	1500.28
393.71	1537.73
393.91	1521.35
394.10	1612.63
394.29	1519.01
394.49	1659.44
394.68	1575.18
394.88	1629.01
395.07	1694.55
395.26	1652.42
395.46	1661.78
395.65	1764.76
395.84	1696.89
396.04	1860.73
396.23	1804.55
396.42	1732.00
396.62	1849.02
396.81	1802.21
397.00	1717.95
397.19	1802.21
397.39	1708.59
397.58	1748.38
397.77	1884.13
397.97	1912.22
398.16	1813.92
398.35	1863.07
398.55	1912.22
398.74	1940.30
398.93	1940.30
399.12	1930.94
399.32	1877.11
399.51	1966.05
399.70	2071.37
399.90	1963.71
400.09	2045.63
400.28	2176.70
400.47	2040.95
400.67	2174.36
400.86	2092.44
401.05	2157.97
401.24	2157.97
401.44	2253.94
401.63	2242.23
401.82	2263.30
402.01	2160.31
402.21	2242.23
402.40	2305.43
402.59	2267.98
402.78	2338.20
402.97	2303.09
403.17	2293.72
403.36	2324.15
403.55	2361.60
403.74	2480.97
403.93	2443.52
404.13	2565.23
404.32	2513.74
404.51	2471.61
404.70	2574.59
404.89	2572.25
405.09	2504.37
405.28	2600.34
405.47	2520.76
405.66	2693.96
405.85	2789.92
406.05	2715.02
406.24	2679.91
406.43	2642.46
406.62	2597.99
406.81	2768.85
407.00	2829.71
407.20	2717.36
407.39	2740.77
407.58	2803.96
407.77	2902.26
407.96	2867.16
408.15	2885.88
408.34	2883.54
408.54	2960.78
408.73	2930.35
408.92	2897.58
409.11	3136.32
409.30	2953.76
409.49	3077.80
409.68	3171.43
409.87	3190.15
410.07	3290.79
410.26	3187.81
410.45	3185.47
410.64	3274.41
410.83	3288.45
411.02	3346.97
411.21	3417.18
411.40	3419.52
411.59	3269.73
411.78	3435.91
411.98	3386.76
412.17	3559.95
412.36	3421.86
412.55	3566.98
412.74	3534.21
412.93	3574.00
413.12	3751.88
413.31	3850.18
413.50	3616.13
413.69	3712.09
413.88	3950.82
414.07	3786.99
414.26	3978.91
414.45	3747.20
414.64	3920.40
414.83	3939.12
415.02	4100.62
415.22	4212.96
415.41	4098.28
415.60	4065.51
415.79	4194.24
415.98	4283.18
416.17	4238.71
416.36	4159.13
416.55	4311.27
416.74	4428.29
416.93	4383.82
417.12	4416.59
417.31	4362.76
417.50	4531.28
417.69	4751.29
417.88	4709.16
418.07	4650.64
418.26	4676.39
418.45	4709.16
418.64	4950.23
418.83	4793.42
419.02	4889.38
419.21	4910.44
419.39	4940.87
419.58	4856.61
419.77	4868.31
419.96	4954.91
420.15	5184.29
420.34	4940.87
420.53	5083.64
420.72	5172.58
420.91	5214.71
421.10	5259.18
421.29	5277.91
421.48	5177.26
421.67	5277.91
421.86	5268.55
422.05	5355.15
422.24	5210.03
422.43	5397.28
422.61	5383.23
422.80	5446.43
422.99	5327.06
423.18	5331.74
423.37	5439.40
423.56	5329.40
423.75	5373.87
423.94	5224.08
424.13	5188.97
424.32	5224.08
424.50	5472.17
424.69	5582.18
424.88	5462.81
425.07	5476.85
425.26	5430.04
425.45	5350.46
425.64	5397.28
425.83	5392.59
426.01	5643.03
426.20	5437.06
426.39	5612.60
426.58	5462.81
426.77	5603.24
426.96	5633.67
427.15	5696.86
427.33	5678.14
427.52	5757.72
427.71	5846.66
427.90	5874.74
428.09	5841.98
428.28	5818.57
428.46	5898.15
428.65	6050.28
428.84	6127.52
429.03	6097.10
429.22	5907.51
429.40	6202.42
429.59	5959.00
429.78	5720.27
429.97	5825.59
430.16	5804.53
430.34	6230.51
430.53	6279.66
430.72	6317.11
430.91	6129.86
431.10	6097.10
431.28	6272.64
431.47	6457.54
431.66	6555.84
431.85	6354.55
432.03	6665.85
432.22	6761.81
432.41	6441.15
432.60	6675.21
432.79	6623.72
432.97	6686.91
433.16	6640.10
433.35	6628.40
433.54	6867.13
433.72	6579.25
433.91	6628.40
434.10	6843.73
434.28	6909.26
434.47	7016.93
434.66	6874.15
434.85	7133.95
435.03	7321.20
435.22	7370.35
435.41	7618.44
435.59	7508.44
435.78	7290.77
435.97	7274.38
436.16	7426.52
436.34	7133.95
436.53	7180.76
436.72	7307.15
436.90	7119.91
437.09	7309.49
437.28	7126.93
437.46	7424.18
437.65	7449.93
437.84	7531.84
438.02	7590.36
438.21	7524.82
438.40	7398.43
438.58	7786.96
438.77	7578.65
438.96	7805.69
439.14	8011.65
439.33	8161.45
439.52	7978.89
439.70	8156.77
439.89	8203.58
440.08	8212.94
440.26	8210.60
440.45	8367.42
440.63	8397.84
440.82	8439.97
441.01	8409.54
441.19	8655.30
441.38	8601.47
441.57	8592.11
441.75	8699.77
441.94	8950.21
442.12	8704.45
442.31	9062.55
442.50	9020.42
442.68	9055.53
442.87	8931.48
443.05	8910.42
443.24	9261.50
443.43	9064.89
443.61	9179.58
443.80	9451.08
443.98	8835.52
444.17	8938.51
444.35	9385.55
444.54	9315.33
444.73	9359.80
444.91	9441.72
445.10	9406.61
445.28	9336.40
445.47	9289.59
445.65	9249.80
445.84	9263.84
446.02	9671.09
446.21	9284.91
446.39	9406.61
446.58	9813.87
446.77	9696.84
446.95	9439.38
447.14	9413.63
447.32	9612.58
447.51	9446.40
447.69	9722.59
447.88	9640.67
448.06	9572.79
448.25	9687.48
448.43	9760.03
448.62	9701.52
448.80	9575.13
448.99	9600.88
449.17	9671.09
449.36	9621.94
449.54	10040.90
449.73	10038.56
449.91	9940.26
450.10	10111.11
450.28	10232.82
450.46	9977.70
450.65	10054.94
450.83	10368.57
451.02	10120.48
451.20	10441.13
451.39	10429.43
451.57	10363.89
451.76	10251.55
451.94	10333.47
452.13	10494.96
452.31	10532.41
452.49	10314.74
452.68	10501.98
452.86	10429.43
453.05	10551.14
453.23	10663.48
453.42	10235.16
453.60	10289.00
453.78	10689.23
453.97	10569.86
454.15	10661.14
454.34	10967.75
454.52	10949.03
454.70	11108.18
454.89	11019.24
455.07	10824.98
455.26	10984.13
455.44	11353.94
455.62	11318.83
455.81	11154.99
455.99	11260.32
456.17	11000.52
456.36	11470.97
456.54	11555.22
456.73	11379.68
456.91	11976.52
457.09	11850.13
457.28	11964.82
457.46	11580.97
457.64	11726.08
457.83	11646.51
458.01	11641.82
458.19	11964.82
458.38	12056.10
458.56	12241.00
458.74	12336.96
458.93	12018.65
459.11	12025.67
459.29	12159.08
459.48	12353.35
459.66	12203.55
459.84	12531.23
460.03	12578.04
460.21	12313.56
460.39	12416.54
460.57	12418.88
460.76	12496.12
460.94	12606.13
461.12	12671.66
461.31	12697.41
461.49	12538.25
461.67	12449.31
461.85	12947.84
462.04	12828.48
462.22	13385.52
462.40	13132.75
462.59	13074.23
462.77	12933.80
462.95	13481.49
463.13	12936.14
463.32	13350.42
463.50	13146.79
463.68	13376.16
463.86	13359.78
464.05	13179.56
464.23	13268.50
464.41	13561.06
464.59	13153.81
464.78	13769.37
464.96	13324.67
465.14	13207.64
465.32	13593.83
465.50	13914.48
465.69	13848.95
465.87	13713.20
466.05	13654.69
466.23	13848.95
466.41	13465.10
466.60	14628.35
466.78	13706.18
466.96	13642.98
467.14	13884.06
467.32	13944.91
467.51	14305.35
467.69	13865.33
467.87	13905.12
468.05	14200.03
468.23	14078.32
468.41	13837.25
468.60	14221.10
468.78	14434.08
468.96	14190.67
469.14	14473.87
469.32	14773.46
469.50	14452.81
469.69	14817.93
469.87	14932.62
470.05	15105.82
470.23	14822.61
470.41	15131.56
470.59	15005.17
470.77	15070.71
470.95	14897.51
471.14	15316.47
471.32	15281.36
471.50	15637.12
471.68	15489.67
471.86	15243.91
472.04	15878.19
472.22	15655.84
472.40	15686.27
472.58	15630.10
472.77	15800.96
472.95	16053.73
473.13	16711.42
473.31	15822.02
473.49	15887.56
473.67	16355.66
473.85	16093.52
474.03	16423.54
474.21	16622.48
474.39	16929.09
474.57	16912.71
474.75	16901.01
474.93	17109.32
475.12	16671.64
475.30	17085.91
475.48	17179.53
475.66	16961.86
475.84	17362.09
476.02	17537.63
476.20	17507.21
476.38	17928.50
476.56	17884.03
476.74	18389.59
476.92	18064.25
477.10	18277.24
477.28	18539.38
477.46	18494.91
477.64	18738.33
477.82	19047.28
478.00	19440.49
478.18	19344.53
478.36	19145.58
478.54	19372.61
478.72	19655.82
478.90	19772.85
479.08	20032.65
479.26	20102.86
479.44	20135.63
479.62	20390.75
479.80	20650.55
479.98	20547.56
480.16	20903.32
480.34	21067.16
480.52	21146.74
480.70	21139.72
480.88	21247.38
481.06	21170.15
481.24	21551.65
481.41	21743.58
481.59	22136.79
481.77	22466.80
481.95	22239.77
482.13	22419.99
482.31	22265.52
482.49	23103.43
482.67	22649.36
482.85	23351.52
483.03	23735.37
483.21	23744.73
483.39	23978.79
483.57	23761.12
483.74	24084.11
483.92	24238.59
484.10	24187.10
484.28	24634.14
484.46	24868.19
484.64	25799.73
484.82	25472.05
485.00	25450.99
485.18	25933.14
485.35	26485.50
485.53	26162.51
485.71	26363.79
485.89	26965.31
486.07	26925.52
486.25	26829.56
486.43	27026.17
486.61	27271.92
486.78	27838.33
486.96	27864.08
487.14	28285.37
487.32	28086.43
487.50	28320.48
487.68	28584.96
487.85	28811.99
488.03	29596.07
488.21	29659.27
488.39	29378.40
488.57	29930.77
488.75	29984.60
488.92	30260.79
489.10	30581.44
489.28	30984.01
489.46	31204.02
489.64	30855.28
489.81	31562.12
489.99	31702.56
490.17	31786.82
490.35	32027.89
490.53	32063.00
490.70	32713.67
490.88	32514.72
491.06	32807.29
491.24	32526.42
491.41	32863.46
491.59	33717.76
491.77	33598.39
491.95	33972.88
492.13	34106.29
492.30	33928.41
492.48	34302.89
492.66	34895.05
492.84	34501.84
493.01	35082.29
493.19	35192.30
493.37	35791.47
493.54	35543.38
493.72	35707.21
493.90	36416.40
494.08	36201.07
494.25	36563.85
494.43	37134.94
494.61	37280.05
494.79	37532.83
494.96	37160.69
495.14	37010.89
495.32	37839.44
495.49	37792.63
495.67	37904.98
495.85	38574.37
496.02	38663.31
496.20	39082.27
496.38	38969.92
496.55	39005.03
496.73	40065.29
496.91	39477.82
497.09	39791.45
497.26	39966.99
497.44	39711.87
497.62	39838.26
497.79	40421.05
497.97	40353.18
498.14	41160.66
498.32	41256.62
498.50	41717.71
498.67	41794.95
498.85	41743.45
499.03	41827.71
499.20	41542.17
499.38	41979.85
499.56	42148.37
499.73	42684.35
499.91	42351.99
500.08	42934.79
500.26	42815.42
500.44	42817.76
500.61	43023.73
500.79	43082.24
500.97	43840.57
501.14	43931.86
501.32	43966.96
501.49	43798.44
501.67	43997.39
501.84	44498.26
502.02	44051.22
502.20	44521.67
502.37	44886.79
502.55	44786.15
502.72	44858.71
502.90	45198.09
503.07	44959.35
503.25	44982.76
503.43	45043.61
503.60	45382.99
503.78	45509.38
503.95	45663.85
504.13	45890.88
504.30	45804.28
504.48	46054.72
504.65	46162.39
504.83	46499.42
505.01	46761.56
505.18	46646.88
505.36	47026.04
505.53	46836.46
505.71	47100.94
505.88	47040.09
506.06	47136.05
506.23	47515.22
506.41	47363.08
506.58	47807.78
506.76	48044.18
506.93	48116.73
507.11	47903.74
507.28	48051.20
507.46	48147.16
507.63	48278.23
507.81	48390.58
507.98	48509.94
508.16	48753.36
508.33	48549.73
508.50	48493.56
508.68	49153.59
508.85	49301.04
509.03	49343.17
509.20	49502.33
509.38	49666.17
509.55	49743.41
509.73	49631.06
509.90	49916.61
510.08	50052.36
510.25	49705.96
510.42	50475.99
510.60	50714.73
510.77	50515.78
510.95	50602.38
511.12	50293.43
511.30	50616.43
511.47	50707.71
511.64	50522.80
511.82	51161.77
511.99	51007.29
512.17	50934.74
512.34	51185.18
512.51	51590.09
512.69	51456.68
512.86	51501.15
513.04	51782.01
513.21	51948.19
513.38	51938.83
513.56	51707.12
513.73	51847.55
513.90	51976.28
514.08	51969.26
514.25	52051.17
514.43	52626.95
514.60	52505.24
514.77	52282.89
514.95	52521.62
515.12	52556.73
515.29	52505.24
515.47	52875.04
515.64	52830.57
515.81	52877.38
515.99	53191.01
516.16	53528.05
516.33	52987.39
516.51	53429.75
516.68	53006.11
516.85	53162.93
517.03	53368.90
517.20	53806.58
517.37	53687.21
517.54	53499.97
517.72	53989.14
517.89	53537.41
518.06	53895.52
518.24	53668.48
518.41	53586.57
518.58	54440.86
518.75	54064.03
518.93	54190.42
519.10	54113.19
519.27	54337.88
519.45	54145.95
519.62	54223.19
519.79	54323.83
519.96	54925.35
520.14	54798.96
520.31	54649.17
520.48	54803.64
520.65	54749.81
520.83	54848.11
521.00	54773.22
521.17	54864.50
521.34	54857.48
521.52	55147.70
521.69	55229.62
521.86	55313.88
522.03	55423.89
522.20	55580.70
522.38	55554.96
522.55	55327.92
522.72	55325.58
522.89	55709.43
523.07	55819.44
523.24	55735.18
523.41	55810.07
523.58	55791.35
523.75	56229.03
523.92	55873.27
524.10	55915.40
524.27	56170.52
524.44	56294.56
524.61	56547.34
524.78	56535.64
524.96	56545.00
525.13	56523.94
525.30	56313.29
525.47	56619.90
525.64	56615.22
525.81	56846.93
525.98	56910.13
526.16	56692.46
526.33	56535.64
526.50	56912.47
526.67	56643.30
526.84	56875.02
527.01	56802.46
527.18	56933.53
527.36	57141.84
527.53	57099.71
527.70	57687.18
527.87	57553.77
528.04	57083.33
528.21	57401.64
528.38	57233.12
528.55	57499.94
528.72	57408.66
528.89	57284.61
529.07	57324.40
529.24	57446.11
529.41	57663.78
529.58	57588.88
529.75	57382.91
529.92	57726.97
530.09	57628.67
530.26	57855.70
530.43	57893.15
530.60	57832.30
530.77	57846.34
530.94	58206.78
531.11	58045.29
531.28	57780.81
531.46	57783.15
531.63	57900.17
531.80	58199.76
531.97	58309.77
532.14	58433.81
532.31	58204.44
532.48	58328.49
532.65	58482.97
532.82	58145.93
532.99	58471.26
533.16	58319.13
533.33	58913.62
533.50	58801.28
533.67	58721.70
533.84	58574.25
534.01	58611.70
534.18	58361.26
534.35	59011.93
534.52	58667.87
534.69	59028.31
534.86	58894.90
535.03	59004.91
535.20	58962.78
535.37	59189.81
535.54	58990.86
535.71	58981.50
535.88	59100.87
536.05	59178.10
536.22	59468.33
536.38	59334.92
536.55	59440.24
536.72	59339.60
536.89	59114.91
537.06	59248.32
537.23	59454.29
537.40	59157.04
537.57	59257.68
537.74	59323.22
537.91	59695.36
538.08	59571.32
538.25	59592.38
538.42	59877.93
538.59	59716.43
538.75	59444.93
538.92	59770.26
539.09	59887.29
539.26	59898.99
539.43	59807.71
539.60	60107.30
539.77	59728.13
539.94	60013.68
540.11	59987.93
540.28	60177.51
540.44	60009.00
540.61	60046.44
540.78	60027.72
540.95	60221.98
541.12	60111.98
541.29	60381.14
541.46	60210.28
541.62	60179.85
541.79	60360.08
541.96	59920.05
542.13	60158.79
542.30	60418.59
542.47	60678.39
542.63	60612.85
542.80	60856.27
542.97	60683.07
543.14	60692.43
543.31	60746.26
543.48	60505.19
543.64	60917.12
543.81	60830.52
543.98	60898.40
544.15	61085.64
544.32	61207.35
544.48	61244.80
544.65	61113.73
544.82	61031.81
544.99	60804.78
545.16	60956.91
545.32	60980.32
545.49	61282.25
545.66	61687.16
545.83	61733.97
546.00	61673.12
546.16	61497.58
546.33	61102.03
546.50	61001.38
546.67	61326.72
546.83	60985.00
547.00	61134.79
547.17	61350.12
547.34	61275.22
547.50	61701.20
547.67	61544.39
547.84	61506.94
548.00	61544.39
548.17	61677.80
548.34	61729.29
548.51	61703.54
548.67	61813.55
548.84	61682.48
549.01	61673.12
549.18	61799.50
549.34	61574.81
549.51	61560.77
549.68	61670.78
549.84	61740.99
550.01	61659.07
550.18	61778.44
550.34	61752.69
550.51	61790.14
550.68	62005.47
550.84	61769.08
551.01	61738.65
551.18	61825.25
551.34	61841.63
551.51	61811.21
551.68	61998.45
551.84	62078.03
552.01	62042.92
552.18	62260.59
552.34	61956.32
552.51	62288.68
552.68	62024.20
552.84	61843.98
553.01	62267.61
553.18	62010.15
553.34	62045.26
553.51	62202.08
553.67	62370.60
553.84	62571.88
554.01	62473.58
554.17	62443.15
554.34	62356.55
554.51	62527.41
554.67	62326.13
554.84	62424.43
555.00	62405.70
555.17	62396.34
555.33	62513.37
555.50	62511.03
555.67	62513.37
555.83	62436.13
556.00	62578.90
556.16	62742.74
556.33	62424.43
556.50	62489.96
556.66	62419.75
556.83	62562.52
556.99	62892.54
557.16	62810.62
557.32	62831.68
557.49	62890.19
557.65	62602.31
557.82	62709.97
557.98	62747.42
558.15	62815.30
558.32	62993.18
558.48	62913.60
558.65	63032.97
558.81	62967.43
558.98	62974.45
559.14	63061.05
559.31	62667.84
559.47	62894.88
559.64	63164.04
559.80	62827.00
559.97	63128.93
560.13	62951.05
560.30	62850.41
560.46	63028.29
560.63	63042.33
560.79	63037.65
560.96	63077.44
561.12	63098.50
561.29	62862.11
561.45	63114.89
561.61	63140.63
561.78	63229.57
561.94	63421.50
562.11	63194.46
562.27	63323.19
562.44	63264.68
562.60	63056.37
562.77	63217.87
562.93	63224.89
563.10	63419.16
563.26	63070.42
563.42	63568.95
563.59	63234.25
563.75	63398.09
563.92	63557.25
564.08	63220.21
564.24	63302.13
564.41	63267.02
564.57	63447.24
564.74	63465.97
564.90	63421.50
565.07	63517.46
565.23	63468.31
565.39	63421.50
565.56	63564.27
565.72	63461.29
565.88	63494.05
566.05	63444.90
566.21	63257.66
566.38	63496.39
566.54	63365.32
566.70	63653.21
566.87	63800.66
567.03	63657.89
567.19	63758.53
567.36	63756.19
567.52	63480.01
567.68	63468.31
567.85	63608.74
568.01	63648.53
568.17	63678.96
568.34	63681.30
568.50	63683.64
568.66	63894.28
568.83	63812.37
568.99	63763.21
569.15	63753.85
569.32	63501.07
569.48	63517.46
569.64	63618.10
569.81	63728.11
569.97	63671.93
570.13	63859.18
570.30	63744.49
570.46	63894.28
570.62	63730.45
570.78	63707.04
570.95	63653.21
571.11	63805.34
571.27	63498.73
571.43	63622.78
571.60	63786.62
571.76	63653.21
571.92	63962.16
572.09	63905.99
572.25	63945.78
572.41	63936.41
572.57	63934.07
572.74	63927.05
572.90	63653.21
573.06	63964.50
573.22	63964.50
573.38	63990.25
573.55	64023.01
573.71	64184.51
573.87	64083.87
574.03	63969.18
574.20	63999.61
574.36	63646.19
574.52	63828.75
574.68	63994.93
574.84	63983.22
575.01	63999.61
575.17	64053.44
575.33	63990.25
575.49	64048.76
575.65	64189.19
575.82	64072.17
575.98	63913.01
576.14	63980.88
576.30	64027.70
576.46	63948.12
576.62	63952.80
576.79	63927.05
576.95	63990.25
577.11	64048.76
577.27	64191.53
577.43	64161.11
577.59	63964.50
577.75	64044.08
577.92	63992.59
578.08	63849.81
578.24	64046.42
578.40	64149.40
578.56	63950.46
578.72	64212.60
578.88	64322.60
579.04	64313.24
579.21	64207.92
579.37	64137.70
579.53	64198.55
579.69	64083.87
579.85	64107.27
580.01	64168.13
580.17	63941.10
580.33	64137.70
580.49	64275.79
580.65	64367.07
580.82	64404.52
580.98	64221.96
581.14	64189.19
581.30	64233.66
581.46	64032.38
581.62	63913.01
581.78	63922.37
581.94	64203.24
582.10	64175.15
582.26	64186.85
582.42	64341.33
582.58	64392.82
582.74	64299.20
582.90	64294.52
583.06	64292.18
583.22	64264.09
583.38	64371.75
583.54	64268.77
583.70	64051.10
583.86	64219.62
584.02	64147.06
584.18	64392.82
584.34	64367.07
584.50	64465.38
584.66	64037.06
584.82	64034.72
584.98	64217.28
585.14	64268.77
585.30	64149.40
585.46	64193.87
585.62	64245.36
585.78	64231.32
585.94	64175.15
586.10	64437.29
586.26	64448.99
586.42	64516.87
586.58	64474.74
586.74	64296.86
586.90	64320.26
587.06	64259.41
587.22	64301.54
587.38	64346.01
587.54	64521.55
587.70	64619.85
587.86	64481.76
588.02	64420.90
588.18	64753.26
588.34	64390.48
588.49	64491.12
