SpectraSuite Data File
++++++++++++++++++++++++++++++++++++
Date: Fri Oct 04 11:39:58 GMT-05:00 2013
User: price-jones
Dark Spectrum Present: No
Reference Spectrum Present: No
Number of Sampled Component Spectra: 1
Spectrometers: USB2+H05261
Integration Time (usec): 100000 (USB2+H05261)
Spectra Averaged: 1 (USB2+H05261)
Boxcar Smoothing: 0 (USB2+H05261)
Correct for Electrical Dark: No (USB2+H05261)
Strobe/Lamp Enabled: No (USB2+H05261)
Correct for Detector Non-linearity: No (USB2+H05261)
Correct for Stray Light: No (USB2+H05261)
Number of Pixels in Processed Spectrum: 2048
>>>>>Begin Processed Spectral Data<<<<<
365.73	74.90
365.92	74.90
366.12	74.90
366.32	0.00
366.52	0.00
366.72	0.00
366.91	0.00
367.11	0.00
367.31	0.00
367.51	0.00
367.70	0.00
367.90	0.00
368.10	0.00
368.30	0.00
368.49	0.00
368.69	0.00
368.89	25.75
369.09	21.06
369.28	4.68
369.48	0.00
369.68	0.00
369.87	0.00
370.07	0.00
370.27	65.54
370.47	0.00
370.66	9.36
370.86	81.92
371.06	60.85
371.25	56.17
371.45	77.24
371.65	60.85
371.84	46.81
372.04	93.62
372.24	147.45
372.44	100.64
372.63	173.20
372.83	168.52
373.03	91.28
373.22	142.77
373.42	88.94
373.62	70.22
373.81	131.07
374.01	241.08
374.21	147.45
374.40	161.50
374.60	133.41
374.79	189.58
374.99	138.09
375.19	65.54
375.38	163.84
375.58	95.96
375.78	154.48
375.97	177.88
376.17	138.09
376.37	74.90
376.56	100.64
376.76	147.45
376.95	126.39
377.15	154.48
377.35	175.54
377.54	147.45
377.74	149.79
377.93	107.66
378.13	149.79
378.33	252.78
378.52	177.88
378.72	184.90
378.91	201.29
379.11	145.11
379.31	124.05
379.50	88.94
379.70	110.01
379.89	135.75
380.09	65.54
380.28	140.43
380.48	133.41
380.68	93.62
380.87	77.24
381.07	142.77
381.26	149.79
381.46	187.24
381.65	198.95
381.85	166.18
382.04	105.32
382.24	138.09
382.43	121.71
382.63	124.05
382.83	184.90
383.02	173.20
383.22	159.16
383.41	117.03
383.61	140.43
383.80	93.62
384.00	84.26
384.19	147.45
384.39	135.75
384.58	133.41
384.78	65.54
384.97	86.60
385.17	124.05
385.36	145.11
385.56	154.48
385.75	74.90
385.95	84.26
386.14	131.07
386.34	154.48
386.53	147.45
386.72	152.13
386.92	147.45
387.11	208.31
387.31	184.90
387.50	156.82
387.70	124.05
387.89	119.37
388.09	140.43
388.28	173.20
388.48	215.33
388.67	149.79
388.86	138.09
389.06	133.41
389.25	170.86
389.45	173.20
389.64	100.64
389.84	184.90
390.03	86.60
390.22	128.73
390.42	133.41
390.61	147.45
390.81	135.75
391.00	119.37
391.19	220.01
391.39	126.39
391.58	234.05
391.78	154.48
391.97	79.58
392.16	135.75
392.36	191.92
392.55	220.01
392.75	201.29
392.94	220.01
393.13	241.08
393.33	163.84
393.52	98.30
393.71	161.50
393.91	203.63
394.10	173.20
394.29	201.29
394.49	203.63
394.68	159.16
394.88	203.63
395.07	238.73
395.26	159.16
395.46	133.41
395.65	243.42
395.84	142.77
396.04	231.71
396.23	285.55
396.42	159.16
396.62	79.58
396.81	154.48
397.00	98.30
397.19	196.60
397.39	166.18
397.58	266.82
397.77	124.05
397.97	128.73
398.16	168.52
398.35	222.35
398.55	145.11
398.74	175.54
398.93	222.35
399.12	236.39
399.32	156.82
399.51	187.24
399.70	259.80
399.90	236.39
400.09	173.20
400.28	210.65
400.47	196.60
400.67	170.86
400.86	201.29
401.05	227.03
401.24	189.58
401.44	138.09
401.63	320.65
401.82	241.08
402.01	212.99
402.21	236.39
402.40	173.20
402.59	166.18
402.78	196.60
402.97	138.09
403.17	191.92
403.36	273.84
403.55	220.01
403.74	285.55
403.93	339.38
404.13	498.53
404.32	538.32
404.51	543.00
404.70	428.32
404.89	290.23
405.09	278.52
405.28	241.08
405.47	191.92
405.66	313.63
405.85	287.89
406.05	194.26
406.24	252.78
406.43	257.46
406.62	255.12
406.81	276.18
407.00	283.20
407.20	301.93
407.39	306.61
407.58	337.04
407.77	325.33
407.96	205.97
408.15	308.95
408.34	325.33
408.54	259.80
408.73	208.31
408.92	217.67
409.11	313.63
409.30	234.05
409.49	278.52
409.68	229.37
409.87	234.05
410.07	236.39
410.26	285.55
410.45	301.93
410.64	255.12
410.83	308.95
411.02	311.29
411.21	325.33
411.40	362.78
411.59	355.76
411.78	334.70
411.98	299.59
412.17	304.27
412.36	315.97
412.55	322.99
412.74	360.44
412.93	337.04
413.12	411.93
413.31	322.99
413.50	318.31
413.69	297.25
413.88	358.10
414.07	337.04
414.26	355.76
414.45	313.63
414.64	341.72
414.83	334.70
415.02	404.91
415.22	360.44
415.41	322.99
415.60	339.38
415.79	372.15
415.98	379.17
416.17	369.80
416.36	332.36
416.55	320.65
416.74	421.30
416.93	376.83
417.12	358.10
417.31	320.65
417.50	411.93
417.69	461.09
417.88	393.21
418.07	308.95
418.26	423.64
418.45	411.93
418.64	416.62
418.83	400.23
419.02	444.70
419.21	383.85
419.39	425.98
419.58	470.45
419.77	388.53
419.96	397.89
420.15	489.17
420.34	397.89
420.53	451.72
420.72	458.74
420.91	400.23
421.10	425.98
421.29	386.19
421.48	418.96
421.67	411.93
421.86	484.49
422.05	472.79
422.24	463.43
422.43	472.79
422.61	414.27
422.80	465.77
422.99	435.34
423.18	498.53
423.37	477.47
423.56	425.98
423.75	500.87
423.94	388.53
424.13	437.68
424.32	425.98
424.50	451.72
424.69	440.02
424.88	449.38
425.07	404.91
425.26	465.77
425.45	524.28
425.64	482.15
425.83	489.17
426.01	561.73
426.20	449.38
426.39	421.30
426.58	423.64
426.77	477.47
426.96	477.47
427.15	468.11
427.33	463.43
427.52	526.62
427.71	475.13
427.90	500.87
428.09	449.38
428.28	402.57
428.46	433.00
428.65	454.06
428.84	564.07
429.03	505.56
429.22	468.11
429.40	465.77
429.59	428.32
429.78	507.90
429.97	557.05
430.16	540.66
430.34	505.56
430.53	479.81
430.72	500.87
430.91	491.51
431.10	472.79
431.28	528.96
431.47	491.51
431.66	610.88
431.85	517.26
432.03	458.74
432.22	622.58
432.41	447.04
432.60	517.26
432.79	493.85
432.97	615.56
433.16	580.45
433.35	524.28
433.54	535.98
433.72	596.84
433.91	557.05
434.10	566.41
434.28	545.34
434.47	545.34
434.66	599.18
434.85	585.13
435.03	793.44
435.22	1238.14
435.41	1919.24
435.59	2141.59
435.78	1629.01
435.97	1046.22
436.16	779.40
436.34	533.64
436.53	552.37
436.72	566.41
436.90	610.88
437.09	578.11
437.28	631.94
437.46	545.34
437.65	603.86
437.84	564.07
438.02	624.92
438.21	617.90
438.40	627.26
438.58	557.05
438.77	582.79
438.96	578.11
439.14	587.47
439.33	589.82
439.52	575.77
439.70	592.16
439.89	645.99
440.08	606.20
440.26	594.50
440.45	601.52
440.63	727.91
440.82	589.82
441.01	634.29
441.19	641.31
441.38	662.37
441.57	645.99
441.75	674.07
441.94	685.78
442.12	636.63
442.31	683.44
442.50	683.44
442.68	643.65
442.87	741.95
443.05	615.56
443.24	690.46
443.43	734.93
443.61	751.31
443.80	641.31
443.98	671.73
444.17	718.54
444.35	713.86
444.54	746.63
444.73	660.03
444.91	751.31
445.10	674.07
445.28	638.97
445.47	681.10
445.65	610.88
445.84	685.78
446.02	788.76
446.21	711.52
446.39	669.39
446.58	767.70
446.77	648.33
446.95	669.39
447.14	704.50
447.32	837.91
447.51	629.60
447.69	720.88
447.88	650.67
448.06	739.61
448.25	784.08
448.43	636.63
448.62	695.14
448.80	725.57
448.99	734.93
449.17	690.46
449.36	774.72
449.54	741.95
449.73	716.20
449.91	788.76
450.10	793.44
450.28	823.87
450.46	760.67
450.65	781.74
450.83	741.95
451.02	772.38
451.20	823.87
451.39	847.27
451.57	692.80
451.76	641.31
451.94	727.91
452.13	765.36
452.31	826.21
452.49	732.59
452.68	709.18
452.86	833.23
453.05	840.25
453.23	779.40
453.42	711.52
453.60	751.31
453.78	723.23
453.97	753.65
454.15	730.25
454.34	812.17
454.52	807.48
454.70	816.85
454.89	809.83
455.07	816.85
455.26	840.25
455.44	791.10
455.62	704.50
455.81	868.34
455.99	819.19
456.17	793.44
456.36	751.31
456.54	755.99
456.73	819.19
456.91	793.44
457.09	851.96
457.28	908.13
457.46	894.08
457.64	908.13
457.83	858.98
458.01	791.10
458.19	891.74
458.38	819.19
458.56	898.77
458.74	798.12
458.93	809.83
459.11	809.83
459.29	805.14
459.48	887.06
459.66	858.98
459.84	915.15
460.03	915.15
460.21	889.40
460.39	854.30
460.57	983.02
460.76	887.06
460.94	917.49
461.12	959.62
461.31	901.11
461.49	866.00
461.67	964.30
461.85	947.92
462.04	823.87
462.22	1338.79
462.40	912.81
462.59	945.58
462.77	873.02
462.95	842.59
463.13	917.49
463.32	1006.43
463.50	896.43
463.68	959.62
463.86	898.77
464.05	917.49
464.23	926.85
464.41	943.24
464.59	912.81
464.78	968.98
464.96	868.34
465.14	908.13
465.32	929.19
465.50	915.15
465.69	943.24
465.87	795.78
466.05	945.58
466.23	929.19
466.41	924.51
466.60	884.72
466.78	898.77
466.96	915.15
467.14	950.26
467.32	994.73
467.51	1018.13
467.69	873.02
467.87	1015.79
468.05	922.17
468.23	938.55
468.41	976.00
468.60	997.07
468.78	959.62
468.96	1015.79
469.14	976.00
469.32	917.49
469.50	983.02
469.69	976.00
469.87	966.64
470.05	964.30
470.23	1032.18
470.41	1036.86
470.59	950.26
470.77	990.05
470.95	1015.79
471.14	1034.52
471.32	1067.28
471.50	1104.73
471.68	964.30
471.86	1053.24
472.04	1041.54
472.22	1013.45
472.40	1055.58
472.58	1032.18
472.77	1043.88
472.95	1100.05
473.13	1090.69
473.31	1111.75
473.49	1053.24
473.67	1046.22
473.85	1071.97
474.03	1198.35
474.21	1146.86
474.39	1151.54
474.57	1207.72
474.75	1142.18
474.93	1081.33
475.12	1006.43
475.30	1020.47
475.48	1071.97
475.66	1111.75
475.84	1050.90
476.02	1179.63
476.20	1163.25
476.38	1074.31
476.56	1245.16
476.74	1111.75
476.92	1093.03
477.10	1170.27
477.28	1210.06
477.46	1151.54
477.64	1165.59
477.82	1270.91
478.00	1135.16
478.18	1196.01
478.36	1217.08
478.54	1226.44
478.72	1299.00
478.90	1181.97
479.08	1287.29
479.26	1240.48
479.44	1200.69
479.62	1196.01
479.80	1266.23
479.98	1310.70
480.16	1336.45
480.34	1313.04
480.52	1399.64
480.70	1338.79
480.88	1383.26
481.06	1273.25
481.24	1263.89
481.41	1387.94
481.59	1397.30
481.77	1416.02
481.95	1479.22
482.13	1420.71
482.31	1371.55
482.49	1434.75
482.67	1488.58
482.85	1502.62
483.03	1500.28
483.21	1591.56
483.39	1444.11
483.57	1607.95
483.74	1640.72
483.92	1481.56
484.10	1509.65
484.28	1582.20
484.46	1643.06
484.64	1680.50
484.82	1687.53
485.00	1703.91
485.18	1638.38
485.35	1675.82
485.53	1678.16
485.71	1720.29
485.89	1720.29
486.07	1783.49
486.25	1820.94
486.43	1858.39
486.61	1757.74
486.78	1717.95
486.96	1696.89
487.14	1921.58
487.32	1919.24
487.50	1860.73
487.68	1881.79
487.85	1823.28
488.03	1886.47
488.21	1907.54
488.39	1914.56
488.57	1809.23
488.75	1867.75
488.92	2118.18
489.10	1926.26
489.28	1865.41
489.46	1989.46
489.64	1991.80
489.81	1975.41
489.99	1994.14
490.17	1952.01
490.35	2045.63
490.53	2059.67
490.70	1998.82
490.88	2022.22
491.06	2085.42
491.24	2010.52
491.41	2157.97
491.59	2010.52
491.77	2305.43
491.95	2186.06
492.13	1947.33
492.30	2197.76
492.48	2148.61
492.66	2134.57
492.84	2045.63
493.01	2153.29
493.19	2024.56
493.37	2155.63
493.54	2172.02
493.72	2300.75
493.90	2115.84
494.08	2279.68
494.25	2251.60
494.43	2218.83
494.61	2183.72
494.79	2298.41
494.96	2193.08
495.14	2251.60
495.32	2228.19
495.49	2279.68
495.67	2204.78
495.85	2279.68
496.02	2235.21
496.20	2260.96
496.38	2275.00
496.55	2270.32
496.73	2335.85
496.91	2356.92
497.09	2354.58
497.26	2321.81
497.44	2361.60
497.62	2286.70
497.79	2303.09
497.97	2436.50
498.14	2347.56
498.32	2502.03
498.50	2422.45
498.67	2499.69
498.85	2504.37
499.03	2455.22
499.20	2420.11
499.38	2457.56
499.56	2471.61
499.73	2443.52
499.91	2466.92
500.08	2572.25
500.26	2551.18
500.44	2530.12
500.61	2438.84
500.79	2438.84
500.97	2478.63
501.14	2476.29
501.32	2525.44
501.49	2595.65
501.67	2602.68
501.84	2633.10
502.02	2569.91
502.20	2658.85
502.37	2588.63
502.55	2520.76
502.72	2583.95
502.90	2612.04
503.07	2527.78
503.25	2726.72
503.43	2516.08
503.60	2628.42
503.78	2633.10
503.95	2689.28
504.13	2700.98
504.30	2810.98
504.48	2612.04
504.65	2684.59
504.83	2654.17
505.01	2750.13
505.18	2766.51
505.36	2787.58
505.53	2623.74
505.71	2637.78
505.88	2661.19
506.06	2736.09
506.23	2820.35
506.41	2750.13
506.58	2796.94
506.76	2675.23
506.93	2794.60
507.11	2670.55
507.28	2834.39
507.46	2881.20
507.63	2876.52
507.81	2832.05
507.98	2717.36
508.16	2827.37
508.33	2792.26
508.50	2759.49
508.68	2780.56
508.85	2972.48
509.03	2839.07
509.20	2731.41
509.38	2970.14
509.55	2839.07
509.73	2813.32
509.90	2801.62
510.08	2895.24
510.25	2953.76
510.42	2829.71
510.60	2951.42
510.77	2850.77
510.95	2920.99
511.12	2965.46
511.30	2860.13
511.47	3040.36
511.64	2878.86
511.82	2818.00
511.99	2960.78
512.17	2876.52
512.34	2979.50
512.51	2956.10
512.69	2986.52
512.86	3101.21
513.04	2902.26
513.21	3063.76
513.38	3068.44
513.56	3038.02
513.73	3035.67
513.90	3014.61
514.08	3040.36
514.25	3061.42
514.43	3115.25
514.60	3033.33
514.77	3073.12
514.95	3159.72
515.12	2963.12
515.29	3063.76
515.47	3089.51
515.64	3068.44
515.81	3021.63
515.99	3192.49
516.16	3302.50
516.33	3194.83
516.51	3239.30
516.68	3117.59
516.85	3091.85
517.03	3176.11
517.20	3091.85
517.37	3183.13
517.54	3162.06
517.72	3236.96
517.89	3206.53
518.06	3169.09
518.24	3122.27
518.41	3248.66
518.58	3155.04
518.75	3272.07
518.93	3265.05
519.10	3169.09
519.27	3290.79
519.45	3353.99
519.62	3222.92
519.79	3239.30
519.96	3199.51
520.14	3246.32
520.31	3075.46
520.48	3440.59
520.65	3234.62
520.83	3534.21
521.00	3328.24
521.17	3286.11
521.34	3379.73
521.52	3269.73
521.69	3368.03
521.86	3208.87
522.03	3318.88
522.20	3503.78
522.38	3349.31
522.55	3398.46
522.72	3276.75
522.89	3368.03
523.07	3452.29
523.24	3375.05
523.41	3461.65
523.58	3351.65
523.75	3454.63
523.92	3466.33
524.10	3424.20
524.27	3480.38
524.44	3403.14
524.61	3386.76
524.78	3400.80
524.96	3431.23
525.13	3637.19
525.30	3515.48
525.47	3482.72
525.64	3384.41
525.81	3557.61
525.98	3309.52
526.16	3445.27
526.33	3368.03
526.50	3494.42
526.67	3613.79
526.84	3529.53
527.01	3489.74
527.18	3515.48
527.36	3461.65
527.53	3543.57
527.70	3545.91
527.87	3662.94
528.04	3667.62
528.21	3543.57
528.38	3538.89
528.55	3613.79
528.72	3559.95
528.89	3679.32
529.07	3571.66
529.24	3669.96
529.41	3585.70
529.58	3637.19
529.75	3595.06
529.92	3630.17
530.09	3655.92
530.26	3574.00
530.43	3630.17
530.60	3709.75
530.77	3644.21
530.94	3665.28
531.11	3620.81
531.28	3585.70
531.46	3609.11
531.63	3674.64
531.80	3845.50
531.97	3571.66
532.14	3644.21
532.31	3698.05
532.48	3768.26
532.65	3665.28
532.82	3693.37
532.99	3742.52
533.16	3693.37
533.33	3770.60
533.50	3868.91
533.67	3758.90
533.84	3815.07
534.01	3761.24
534.18	3698.05
534.35	3805.71
534.52	3772.94
534.69	3836.14
534.86	3859.54
535.03	3674.64
535.20	3786.99
535.37	3871.25
535.54	3873.59
535.71	3777.62
535.88	3843.16
536.05	3737.84
536.22	3899.33
536.38	3838.48
536.55	3836.14
536.72	3964.87
536.89	3875.93
537.06	3999.98
537.23	3880.61
537.40	3850.18
537.57	3861.88
537.74	3962.53
537.91	4025.72
538.08	4072.53
538.25	4121.68
538.42	4114.66
538.59	4084.23
538.75	4266.80
538.92	4002.32
539.09	4189.56
539.26	4194.24
539.43	4198.92
539.60	4189.56
539.77	4374.46
539.94	4397.87
540.11	4262.12
540.28	4514.89
540.44	4634.26
540.61	4575.75
540.78	4695.11
540.95	4924.49
541.12	5165.56
541.29	5219.39
541.46	5315.36
541.62	5537.71
541.79	5380.89
541.96	5181.95
542.13	5121.09
542.30	4947.89
542.47	4999.38
542.63	5057.90
542.80	4777.03
542.97	5083.64
543.14	4936.19
543.31	4856.61
543.48	4985.34
543.64	4959.60
543.81	4997.04
543.98	5172.58
544.15	5240.46
544.32	5025.13
544.48	5083.64
544.65	5001.72
544.82	5011.09
544.99	5123.43
545.16	4980.66
545.32	5074.28
545.49	5863.04
545.66	7192.47
545.83	8058.46
546.00	7311.83
546.16	6230.51
546.33	5652.39
546.50	5221.74
546.67	5013.43
546.83	4898.74
547.00	4709.16
547.17	4816.82
547.34	4648.30
547.50	4952.57
547.67	4734.90
547.84	4739.58
548.00	4784.06
548.17	4702.14
548.34	4692.77
548.51	4634.26
548.67	4636.60
548.84	4676.39
549.01	4521.92
549.18	4521.92
549.34	4507.87
549.51	4552.34
549.68	4568.73
549.84	4315.95
550.01	4369.78
550.18	4500.85
550.34	4568.73
550.51	4447.02
550.68	4390.84
550.84	4278.50
551.01	4376.80
551.18	4393.19
551.34	4311.27
551.51	4269.14
551.68	4341.69
551.84	4351.06
552.01	4299.56
552.18	4360.42
552.34	4194.24
552.51	4386.16
552.68	4358.08
552.84	4208.28
553.01	4334.67
553.18	4332.33
553.34	4388.50
553.51	4208.28
553.67	4283.18
553.84	4287.86
554.01	4170.83
554.17	4250.41
554.34	4301.90
554.51	4339.35
554.67	4484.47
554.84	4168.49
555.00	4060.83
555.17	4238.71
555.33	4074.87
555.50	4133.39
555.67	4149.77
555.83	4252.75
556.00	4109.98
556.16	4374.46
556.33	4297.22
556.50	4332.33
556.66	4191.90
556.83	4203.60
556.99	4327.65
557.16	4325.31
557.32	4365.10
557.49	4365.10
557.65	4264.46
557.82	4168.49
557.98	4217.65
558.15	4259.78
558.32	4379.14
558.48	4238.71
558.65	4236.37
558.81	4351.06
558.98	4166.15
559.14	4234.03
559.31	4311.27
559.47	4353.40
559.64	4294.88
559.80	4159.13
559.97	4025.72
560.13	4163.81
560.30	4124.02
560.46	4311.27
560.63	4243.39
560.79	4301.90
560.96	4145.09
561.12	4236.37
561.29	4308.93
561.45	4266.80
561.61	4280.84
561.78	4325.31
561.94	4299.56
562.11	4243.39
562.27	4299.56
562.44	4212.96
562.60	4299.56
562.77	4245.73
562.93	4297.22
563.10	4215.30
563.26	4222.33
563.42	4184.88
563.59	4196.58
563.75	4187.22
563.92	4222.33
564.08	4238.71
564.24	4227.01
564.41	4273.82
564.57	4182.54
564.74	4208.28
564.90	4234.03
565.07	4142.75
565.23	4329.99
565.39	4306.59
565.56	4173.18
565.72	4212.96
565.88	4184.88
566.05	4222.33
566.21	3976.57
566.38	4227.01
566.54	4353.40
566.70	4269.14
566.87	4320.63
567.03	4161.47
567.19	4339.35
567.36	4203.60
567.52	4290.20
567.68	4257.43
567.85	4297.22
568.01	4149.77
568.17	4369.78
568.34	4332.33
568.50	4210.62
568.66	4154.45
568.83	4222.33
568.99	4217.65
569.15	4353.40
569.32	4271.48
569.48	4161.47
569.64	4252.75
569.81	4189.56
569.97	4168.49
570.13	4208.28
570.30	4297.22
570.46	4208.28
570.62	4196.58
570.78	4138.07
570.95	4079.55
571.11	4418.93
571.27	4227.01
571.43	4131.05
571.60	4219.99
571.76	4149.77
571.92	4322.97
572.09	4084.23
572.25	4266.80
572.41	4147.43
572.57	4344.03
572.74	4362.76
572.90	4236.37
573.06	4287.86
573.22	4203.60
573.38	4142.75
573.55	4273.82
573.71	4290.20
573.87	4287.86
574.03	4334.67
574.20	4269.14
574.36	4337.01
574.52	4266.80
574.68	4198.92
574.84	4304.25
575.01	4217.65
575.17	4138.07
575.33	4180.20
575.49	4285.52
575.65	4271.48
575.82	4203.60
575.98	4554.68
576.14	4416.59
576.30	4418.93
576.46	4594.47
576.62	4954.91
576.79	4903.42
576.95	4767.67
577.11	4477.44
577.27	4367.44
577.43	4440.00
577.59	4358.08
577.75	4337.01
577.92	4393.19
578.08	4262.12
578.24	4341.69
578.40	4266.80
578.56	4697.46
578.72	4753.63
578.88	5011.09
579.04	4709.16
579.21	4578.09
579.37	4404.89
579.53	4479.79
579.69	4477.44
579.85	4409.57
580.01	4678.73
580.17	4430.63
580.33	4526.60
580.49	4432.97
580.65	4381.48
580.82	4402.55
580.98	4301.90
581.14	4381.48
581.30	4479.79
581.46	4430.63
581.62	4269.14
581.78	4440.00
581.94	4514.89
582.10	4458.72
582.26	4456.38
582.42	4550.00
582.58	4528.94
582.74	4533.62
582.90	4397.87
583.06	4498.51
583.22	4559.36
583.38	4440.00
583.54	4496.17
583.70	4491.49
583.86	4465.74
584.02	4608.51
584.18	4449.36
584.34	4489.15
584.50	4468.08
584.66	4306.59
584.82	4337.01
584.98	4318.29
585.14	4379.14
585.30	4437.66
585.46	4372.12
585.62	4306.59
585.78	4470.42
585.94	4442.34
586.10	4685.75
586.26	4545.32
586.42	4578.09
586.58	4685.75
586.74	4737.24
586.90	4692.77
587.06	4650.64
587.22	4655.33
587.38	4674.05
587.54	4521.92
587.70	4571.07
587.86	4608.51
588.02	4594.47
588.18	4482.13
588.34	4400.21
588.49	4491.49
588.65	4372.12
588.81	4454.04
588.97	4327.65
589.13	4337.01
589.29	4365.10
589.45	4386.16
589.61	4381.48
589.77	4311.27
589.93	4308.93
590.08	4285.52
590.24	4381.48
590.40	4351.06
590.56	4257.43
590.72	4362.76
590.88	4564.04
591.04	4386.16
591.20	4610.86
591.35	4493.83
591.51	4545.32
591.67	4585.11
591.83	4491.49
591.99	4493.83
592.15	4681.07
592.31	4610.86
592.46	4526.60
592.62	4594.47
592.78	4685.75
592.94	4741.93
593.10	4554.68
593.26	4636.60
593.41	4430.63
593.57	4557.02
593.73	4423.61
593.89	4498.51
594.05	4458.72
594.20	4477.44
594.36	4358.08
594.52	4500.85
594.68	4418.93
594.84	4407.23
594.99	4470.42
595.15	4470.42
595.31	4421.27
595.47	4568.73
595.62	4526.60
595.78	4421.27
595.94	4472.76
596.10	4489.15
596.25	4496.17
596.41	4231.69
596.57	4388.50
596.73	4337.01
596.88	4243.39
597.04	4395.53
597.20	4442.34
597.36	4440.00
597.51	4440.00
597.67	4362.76
597.83	4411.91
597.99	4208.28
598.14	4386.16
598.30	4447.02
598.46	4386.16
598.61	4517.23
598.77	4531.28
598.93	4425.95
599.09	4564.04
599.24	4564.04
599.40	4449.36
599.56	4395.53
599.71	4510.21
599.87	4430.63
600.03	4550.00
600.18	4311.27
600.34	4297.22
600.50	4435.32
600.65	4367.44
600.81	4421.27
600.97	4290.20
601.12	4428.29
601.28	4402.55
601.44	4390.84
601.59	4294.88
601.75	4266.80
601.91	4416.59
602.06	4337.01
602.22	4407.23
