SpectraSuite Data File
++++++++++++++++++++++++++++++++++++
Date: Fri Oct 04 11:39:23 GMT-05:00 2013
User: price-jones
Dark Spectrum Present: No
Reference Spectrum Present: No
Number of Sampled Component Spectra: 1
Spectrometers: USB2+H05261
Integration Time (usec): 100000 (USB2+H05261)
Spectra Averaged: 1 (USB2+H05261)
Boxcar Smoothing: 0 (USB2+H05261)
Correct for Electrical Dark: No (USB2+H05261)
Strobe/Lamp Enabled: No (USB2+H05261)
Correct for Detector Non-linearity: No (USB2+H05261)
Correct for Stray Light: No (USB2+H05261)
Number of Pixels in Processed Spectrum: 2048
>>>>>Begin Processed Spectral Data<<<<<
365.73	32.77
365.92	32.77
366.12	32.77
366.32	9.36
366.52	0.00
366.72	0.00
366.91	0.00
367.11	0.00
367.31	0.00
367.51	0.00
367.70	0.00
367.90	0.00
368.10	0.00
368.30	0.00
368.49	0.00
368.69	0.00
368.89	14.04
369.09	0.00
369.28	0.00
369.48	0.00
369.68	0.00
369.87	0.00
370.07	0.00
370.27	107.66
370.47	88.94
370.66	205.97
370.86	271.50
371.06	285.55
371.25	367.46
371.45	245.76
371.65	283.20
371.84	313.63
372.04	292.57
372.24	285.55
372.44	332.36
372.63	421.30
372.83	369.80
373.03	313.63
373.22	308.95
373.42	355.76
373.62	367.46
373.81	362.78
374.01	311.29
374.21	465.77
374.40	386.19
374.60	416.62
374.79	358.10
374.99	400.23
375.19	383.85
375.38	407.25
375.58	390.87
375.78	461.09
375.97	418.96
376.17	454.06
376.37	381.51
376.56	418.96
376.76	409.59
376.95	353.42
377.15	428.32
377.35	393.21
377.54	440.02
377.74	433.00
377.93	425.98
378.13	440.02
378.33	423.64
378.52	383.85
378.72	437.68
378.91	479.81
379.11	409.59
379.31	433.00
379.50	447.04
379.70	489.17
379.89	493.85
380.09	535.98
380.28	435.34
380.48	416.62
380.68	442.36
380.87	498.53
381.07	397.89
381.26	498.53
381.46	484.49
381.65	454.06
381.85	440.02
382.04	486.83
382.24	505.56
382.43	465.77
382.63	496.19
382.83	524.28
383.02	571.09
383.22	585.13
383.41	484.49
383.61	503.22
383.80	543.00
384.00	531.30
384.19	615.56
384.39	552.37
384.58	505.56
384.78	550.03
384.97	557.05
385.17	629.60
385.36	552.37
385.56	582.79
385.75	557.05
385.95	528.96
386.14	636.63
386.34	622.58
386.53	624.92
386.72	564.07
386.92	596.84
387.11	613.22
387.31	580.45
387.50	564.07
387.70	648.33
387.89	580.45
388.09	575.77
388.28	535.98
388.48	664.71
388.67	662.37
388.86	650.67
389.06	636.63
389.25	631.94
389.45	636.63
389.64	650.67
389.84	645.99
390.03	638.97
390.22	713.86
390.42	629.60
390.61	690.46
390.81	683.44
391.00	645.99
391.19	781.74
391.39	699.82
391.58	706.84
391.78	674.07
391.97	636.63
392.16	751.31
392.36	779.40
392.55	669.39
392.75	847.27
392.94	770.04
393.13	690.46
393.33	730.25
393.52	781.74
393.71	791.10
393.91	823.87
394.10	784.08
394.29	779.40
394.49	779.40
394.68	891.74
394.88	798.12
395.07	910.47
395.26	924.51
395.46	812.17
395.65	889.40
395.84	922.17
396.04	1001.75
396.23	973.66
396.42	936.21
396.62	908.13
396.81	919.83
397.00	877.70
397.19	978.34
397.39	978.34
397.58	964.30
397.77	924.51
397.97	1055.58
398.16	922.17
398.35	976.00
398.55	952.60
398.74	940.90
398.93	1034.52
399.12	1081.33
399.32	957.28
399.51	997.07
399.70	1025.15
399.90	1060.26
400.09	1048.56
400.28	1116.44
400.47	1132.82
400.67	1088.35
400.86	1121.12
401.05	1093.03
401.24	1167.93
401.44	1219.42
401.63	1200.69
401.82	1158.57
402.01	1203.04
402.21	1137.50
402.40	1226.44
402.59	1193.67
402.78	1074.31
402.97	1301.34
403.17	1291.98
403.36	1217.08
403.55	1247.51
403.74	1338.79
403.93	1390.28
404.13	1385.60
404.32	1467.52
404.51	1467.52
404.70	1453.47
404.89	1423.05
405.09	1437.09
405.28	1350.49
405.47	1455.81
405.66	1469.86
405.85	1504.96
406.05	1409.00
406.24	1404.32
406.43	1577.52
406.62	1547.09
406.81	1535.39
407.00	1514.33
407.20	1542.41
407.39	1500.28
407.58	1612.63
407.77	1575.18
407.96	1650.08
408.15	1713.27
408.34	1727.32
408.54	1633.69
408.73	1605.61
408.92	1652.42
409.11	1699.23
409.30	1846.68
409.49	1771.79
409.68	1790.51
409.87	1874.77
410.07	1820.94
410.26	1863.07
410.45	1879.45
410.64	1818.60
410.83	1849.02
411.02	1952.01
411.21	1975.41
411.40	1879.45
411.59	1961.37
411.78	1935.62
411.98	1947.33
412.17	2092.44
412.36	2045.63
412.55	2200.10
412.74	2136.91
412.93	2146.27
413.12	2104.14
413.31	2232.87
413.50	2230.53
413.69	2106.48
413.88	2265.64
414.07	2289.04
414.26	2286.70
414.45	2356.92
414.64	2326.49
414.83	2438.84
415.02	2438.84
415.22	2480.97
415.41	2558.21
415.60	2471.61
415.79	2541.82
415.98	2471.61
416.17	2593.31
416.36	2562.89
416.55	2672.89
416.74	2656.51
416.93	2642.46
417.12	2602.68
417.31	2635.44
417.50	2708.00
417.69	2829.71
417.88	2708.00
418.07	2871.84
418.26	2796.94
418.45	2848.43
418.64	2906.95
418.83	2995.89
419.02	2846.09
419.21	2916.31
419.39	2960.78
419.58	2904.60
419.77	2937.37
419.96	3103.55
420.15	3066.10
420.34	3035.67
420.53	3108.23
420.72	3218.24
420.91	3229.94
421.10	3187.81
421.29	3297.81
421.48	3068.44
421.67	3260.37
421.86	3115.25
422.05	3262.71
422.24	3199.51
422.43	3164.40
422.61	3290.79
422.80	3316.54
422.99	3304.84
423.18	3300.16
423.37	3370.37
423.56	3337.60
423.75	3314.20
423.94	3290.79
424.13	3096.53
424.32	3300.16
424.50	3283.77
424.69	3382.07
424.88	3407.82
425.07	3339.94
425.26	3377.39
425.45	3447.61
425.64	3302.50
425.83	3459.31
426.01	3461.65
426.20	3274.41
426.39	3426.54
426.58	3428.88
426.77	3346.97
426.96	3403.14
427.15	3419.52
427.33	3651.24
427.52	3492.08
427.71	3632.51
427.90	3604.42
428.09	3595.06
428.28	3655.92
428.46	3667.62
428.65	3618.47
428.84	3747.20
429.03	3646.55
429.22	3637.19
429.40	3735.50
429.59	3639.53
429.78	3538.89
429.97	3765.92
430.16	3784.65
430.34	3812.73
430.53	3934.44
430.72	3836.14
430.91	3833.80
431.10	3833.80
431.28	3847.84
431.47	4086.58
431.66	4173.18
431.85	3920.40
432.03	4079.55
432.22	4210.62
432.41	3971.89
432.60	4140.41
432.79	4032.74
432.97	4154.45
433.16	4133.39
433.35	4046.79
433.54	4180.20
433.72	4217.65
433.91	4138.07
434.10	4184.88
434.28	4166.15
434.47	4348.72
434.66	4133.39
434.85	4170.83
435.03	4269.14
435.22	4432.97
435.41	4809.80
435.59	4802.78
435.78	4507.87
435.97	4568.73
436.16	4451.70
436.34	4461.06
436.53	4531.28
436.72	4423.61
436.90	4353.40
437.09	4601.49
437.28	4449.36
437.46	4716.18
437.65	4557.02
437.84	4690.43
438.02	4435.32
438.21	4596.81
438.40	4645.96
438.58	4624.90
438.77	4819.16
438.96	4709.16
439.14	4809.80
439.33	4915.12
439.52	5039.17
439.70	4901.08
439.89	4947.89
440.08	4992.36
440.26	5069.60
440.45	4994.70
440.63	5128.11
440.82	5205.35
441.01	5203.01
441.19	5245.14
441.38	5270.89
441.57	5364.51
441.75	5446.43
441.94	5446.43
442.12	5317.70
442.31	5547.07
442.50	5619.63
442.68	5556.43
442.87	5423.02
443.05	5685.16
443.24	5572.82
443.43	5645.37
443.61	5612.60
443.80	5598.56
443.98	5696.86
444.17	5317.70
444.35	5556.43
444.54	5643.03
444.73	5727.29
444.91	5804.53
445.10	5605.58
445.28	5664.10
445.47	5605.58
445.65	5785.80
445.84	5776.44
446.02	5816.23
446.21	5694.52
446.39	5724.95
446.58	5729.63
446.77	5753.04
446.95	5879.43
447.14	5996.45
447.32	5874.74
447.51	5893.47
447.69	5823.25
447.88	5809.21
448.06	5874.74
448.25	5788.14
448.43	5942.62
448.62	5898.15
448.80	5844.32
448.99	6024.54
449.17	5853.68
449.36	5809.21
449.54	5975.39
449.73	6160.29
449.91	6129.86
450.10	6167.31
450.28	6256.25
450.46	5949.64
450.65	6289.02
450.83	6282.00
451.02	6368.60
451.20	6202.42
451.39	6366.26
451.57	6207.10
451.76	6296.04
451.94	6188.38
452.13	6340.51
452.31	6363.92
452.49	6300.72
452.68	6303.06
452.86	6438.81
453.05	6431.79
453.23	6555.84
453.42	6478.60
453.60	6427.11
453.78	6506.69
453.97	6286.68
454.15	6408.39
454.34	6506.69
454.52	6761.81
454.70	6719.68
454.89	6843.73
455.07	6621.38
455.26	6832.02
455.44	6810.96
455.62	6700.95
455.81	6663.51
455.99	6782.87
456.17	6862.45
456.36	7002.88
456.54	6932.67
456.73	7159.70
456.91	7201.83
457.09	7080.12
457.28	7133.95
457.46	6974.80
457.64	7293.11
457.83	7316.51
458.01	7129.27
458.19	7295.45
458.38	7335.24
458.56	7372.69
458.74	7110.55
458.93	7204.17
459.11	7368.01
459.29	7487.37
459.48	7461.63
459.66	7356.30
459.84	7510.78
460.03	7597.38
460.21	7475.67
460.39	7360.98
460.57	7548.23
460.76	7723.77
460.94	7616.10
461.12	7651.21
461.31	7775.26
461.49	7740.15
461.67	7808.03
461.85	8065.49
462.04	7676.96
462.22	7852.50
462.40	7908.67
462.59	8056.12
462.77	7894.63
462.95	7815.05
463.13	7833.77
463.32	7955.48
463.50	7887.61
463.68	7999.95
463.86	7964.84
464.05	8116.98
464.23	7918.03
464.41	8095.91
464.59	7985.91
464.78	8348.69
464.96	8205.92
465.14	8058.46
465.32	8201.24
465.50	8287.84
465.69	8294.86
465.87	8320.60
466.05	8404.86
466.23	8203.58
466.41	8514.87
466.60	8528.91
466.78	8292.52
466.96	8514.87
467.14	8262.09
467.32	8336.99
467.51	8468.06
467.69	8414.23
467.87	8554.66
468.05	8657.64
468.23	8409.54
468.41	8428.27
468.60	8711.47
468.78	8695.09
468.96	8657.64
469.14	8627.21
469.32	8840.20
469.50	8552.32
469.69	8894.04
469.87	8814.46
470.05	8692.75
470.23	8987.66
470.41	9048.51
470.59	9069.58
470.77	9128.09
470.95	9074.26
471.14	9219.37
471.32	9200.65
471.50	9551.73
471.68	9142.13
471.86	9085.96
472.04	9350.44
472.22	9423.00
472.40	9198.31
472.58	9322.35
472.77	9671.09
472.95	9708.54
473.13	9942.60
473.31	9748.33
473.49	9650.03
473.67	9528.32
473.85	9624.28
474.03	9769.40
474.21	9865.36
474.39	10012.81
474.57	9944.94
474.75	10164.95
474.93	10202.40
475.12	10289.00
475.30	10134.52
475.48	10328.78
475.66	10370.91
475.84	10090.05
476.02	10483.26
476.20	10413.04
476.38	10733.70
476.56	10841.36
476.74	10607.31
476.92	10586.24
477.10	10558.16
477.28	10853.06
477.46	11035.63
477.64	11138.61
477.82	11012.22
478.00	11384.37
478.18	11646.51
478.36	11562.25
478.54	11616.08
478.72	11761.19
478.90	11756.51
479.08	11857.15
479.26	12042.06
479.44	11960.14
479.62	11934.39
479.80	12351.01
479.98	12301.86
480.16	12442.29
480.34	12311.22
480.52	12283.13
480.70	12568.68
480.88	12535.91
481.06	12629.53
481.24	12713.79
481.41	12987.63
481.59	13345.73
481.77	13345.73
481.95	13357.44
482.13	13444.04
482.31	13331.69
482.49	13694.47
482.67	13717.88
482.85	13748.31
483.03	13926.19
483.21	14209.39
483.39	14286.63
483.57	14310.04
483.74	14335.78
483.92	14459.83
484.10	14295.99
484.28	14780.48
484.46	14986.45
484.64	15318.81
484.82	15169.01
485.00	15180.71
485.18	15044.96
485.35	15557.54
485.53	15789.25
485.71	15594.99
485.89	16023.31
486.07	15871.17
486.25	16056.08
486.43	15990.54
486.61	16271.40
486.78	16505.46
486.96	16255.02
487.14	16538.23
487.32	16664.61
487.50	16966.54
487.68	17046.12
487.85	17177.19
488.03	17308.26
488.21	17589.13
488.39	17661.68
488.57	17579.76
488.75	17568.06
488.92	18293.63
489.10	18003.40
489.28	18246.82
489.46	18286.61
489.64	18424.70
489.81	18595.56
489.99	18883.44
490.17	18476.19
490.35	19311.76
490.53	19143.24
490.70	19316.44
490.88	19211.12
491.06	19707.31
491.24	19440.49
491.41	19548.15
491.59	19641.78
491.77	19737.74
491.95	20170.74
492.13	20297.13
492.30	20437.56
492.48	20135.63
492.66	20531.18
492.84	20688.00
493.01	20819.07
493.19	20917.37
493.37	21191.21
493.54	21223.98
493.72	21259.09
493.90	21266.11
494.08	21996.35
494.25	21385.47
494.43	21872.31
494.61	22113.38
494.79	22153.17
494.96	21919.12
495.14	22174.24
495.32	22382.54
495.49	22251.47
495.67	22520.63
495.85	22965.34
496.02	23206.41
496.20	22960.66
496.38	22860.01
496.55	23204.07
496.73	23690.90
496.91	23147.90
497.09	23531.75
497.26	23744.73
497.44	23819.63
497.62	23810.27
497.79	24135.60
497.97	23831.33
498.14	24390.72
498.32	24318.17
498.50	24261.99
498.67	24517.11
498.85	24776.91
499.03	24954.79
499.20	24851.81
499.38	24877.55
499.56	25123.31
499.73	25268.42
499.91	25717.81
500.08	25516.52
500.26	25118.63
500.44	25310.55
500.61	25855.90
500.79	25797.38
500.97	25935.48
501.14	26333.37
501.32	26026.76
501.49	26061.87
501.67	26071.23
501.84	26845.94
502.02	26541.68
502.20	26721.90
502.37	26881.05
502.55	26700.83
502.72	26581.46
502.90	26946.59
503.07	26728.92
503.25	26808.50
503.43	26977.01
503.60	27377.25
503.78	27168.94
503.95	27470.87
504.13	27573.85
504.30	27812.59
504.48	27452.14
504.65	27648.75
504.83	27852.38
505.01	27695.56
505.18	27835.99
505.36	28222.18
505.53	28430.49
505.71	28168.35
505.88	28386.02
506.06	27957.70
506.23	28603.69
506.41	28849.44
506.58	28678.58
506.76	28606.03
506.93	28664.54
507.11	28985.19
507.28	28933.70
507.46	28907.96
507.63	29551.60
507.81	29579.69
507.98	29078.82
508.16	29132.65
508.33	29851.19
508.50	29418.19
508.68	29434.58
508.85	30103.97
509.03	29727.14
509.20	30115.67
509.38	29902.68
509.55	30415.26
509.73	30569.74
509.90	30209.29
510.08	30801.45
510.25	30778.04
510.42	30686.76
510.60	30792.09
510.77	30976.99
510.95	30731.23
511.12	30920.82
511.30	30974.65
511.47	31164.23
511.64	31108.06
511.82	31604.25
511.99	31487.23
512.17	31622.98
512.34	31527.02
512.51	31850.01
512.69	31761.07
512.86	31943.63
513.04	32182.37
513.21	32144.92
513.38	32287.69
513.56	32411.74
513.73	31955.33
513.90	32254.92
514.08	32311.10
514.25	32299.39
514.43	33020.28
514.60	32936.02
514.77	32856.44
514.95	32697.28
515.12	32657.49
515.29	32676.22
515.47	33205.18
515.64	33071.77
515.81	33230.93
515.99	33427.53
516.16	33890.96
516.33	33546.90
516.51	33752.87
516.68	33233.27
516.85	33076.45
517.03	33823.08
517.20	34108.63
517.37	34101.61
517.54	34323.96
517.72	34309.91
517.89	33958.83
518.06	33914.36
518.24	33921.38
518.41	34054.79
518.58	34249.06
518.75	34405.88
518.93	34600.14
519.10	34618.86
519.27	34658.65
519.45	34675.04
519.62	34834.19
519.79	34822.49
519.96	34698.44
520.14	35049.52
520.31	34820.15
520.48	35391.24
520.65	35470.82
520.83	35456.78
521.00	35494.22
521.17	35550.40
521.34	35239.11
521.52	35704.87
521.69	35751.68
521.86	36121.49
522.03	35945.95
522.20	36353.20
522.38	36175.32
522.55	35751.68
522.72	36180.00
522.89	36400.01
523.07	36774.50
523.24	36486.61
523.41	36723.01
523.58	36268.94
523.75	36973.44
523.92	36889.18
524.10	36687.90
524.27	36720.66
524.44	37240.26
524.61	37275.37
524.78	37130.26
524.96	37647.52
525.13	37186.43
525.30	37846.46
525.47	37460.27
525.64	37181.75
525.81	37640.50
525.98	37888.59
526.16	37638.15
526.33	37991.58
526.50	38085.20
526.67	37607.73
526.84	38000.94
527.01	37759.86
527.18	38047.75
527.36	38115.62
527.53	38061.79
527.70	38337.98
527.87	38373.08
528.04	38206.90
528.21	38445.64
528.38	38071.15
528.55	38593.09
528.72	38579.05
528.89	38504.15
529.07	39086.95
529.24	38279.46
529.41	38988.64
529.58	38574.37
529.75	38761.61
529.92	38660.97
530.09	38909.07
530.26	38740.55
530.43	38932.47
530.60	38990.98
530.77	39126.74
530.94	39161.84
531.11	39007.37
531.28	39573.78
531.46	39688.46
531.63	39515.26
531.80	39676.76
531.97	40128.48
532.14	39779.74
532.31	39917.84
532.48	39948.26
532.65	39945.92
532.82	39438.03
532.99	39854.64
533.16	39466.11
533.33	40311.05
533.50	40875.12
533.67	40194.02
533.84	40158.91
534.01	40135.51
534.18	40182.32
534.35	41027.25
534.52	40334.45
534.69	40821.28
534.86	40680.85
535.03	40601.27
535.20	40573.19
535.37	40905.54
535.54	40538.08
535.71	40554.46
535.88	41432.16
536.05	40935.97
536.22	40837.67
536.38	41429.82
536.55	41153.64
536.72	41151.30
536.89	41277.69
537.06	41132.57
537.23	41291.73
537.40	41038.95
537.57	41137.26
537.74	41577.28
537.91	42017.30
538.08	41998.57
538.25	41776.22
538.42	41628.77
538.59	41691.96
538.75	41418.12
538.92	41621.75
539.09	41916.65
539.26	42124.96
539.43	42321.57
539.60	42319.23
539.77	42581.37
539.94	42569.66
540.11	42600.09
540.28	42113.26
540.44	42684.35
540.61	42141.35
540.78	42822.44
540.95	42401.14
541.12	42742.86
541.29	42450.30
541.46	42976.92
541.62	42417.53
541.79	43210.97
541.96	42424.55
542.13	42897.34
542.30	43328.00
542.47	42777.97
542.63	43096.28
542.80	43213.31
542.97	43594.82
543.14	43732.91
543.31	43566.73
543.48	43442.68
543.64	43662.69
543.81	44065.27
543.98	44130.80
544.15	43758.66
544.32	43812.49
544.48	44215.06
544.65	44013.77
544.82	43913.13
544.99	43566.73
545.16	43878.02
545.32	43721.21
545.49	44608.27
545.66	44828.28
545.83	45240.21
546.00	45200.43
546.16	44512.31
546.33	43718.87
546.50	44128.46
546.67	44126.12
546.83	43737.59
547.00	44535.71
547.17	44676.15
547.34	44835.30
547.50	44821.26
547.67	44935.95
547.84	44751.04
548.00	44451.45
548.17	44531.03
548.34	44823.60
548.51	44622.31
548.67	44811.90
548.84	45141.91
549.01	44575.50
549.18	44758.06
549.34	44624.65
549.51	44769.77
549.68	44996.80
549.84	44942.97
550.01	45141.91
550.18	45146.59
550.34	44868.07
550.51	45500.01
550.68	45195.74
550.84	45076.38
551.01	45237.87
551.18	44851.69
551.34	44985.10
551.51	45373.63
551.68	45228.51
551.84	44839.98
552.01	45031.91
552.18	45485.97
552.34	45565.55
552.51	45401.71
552.68	45261.28
552.84	45235.53
553.01	45502.35
553.18	45230.85
553.34	45507.04
553.51	45579.59
553.67	45846.41
553.84	46033.66
554.01	45722.37
554.17	45766.84
554.34	45925.99
554.51	45656.83
554.67	45666.19
554.84	46005.57
555.00	46211.54
555.17	46164.73
555.33	45935.35
555.50	45947.06
555.67	45998.55
555.83	46014.93
556.00	45867.48
556.16	46155.36
556.33	46101.53
556.50	45942.38
556.66	46143.66
556.83	46143.66
556.99	46705.39
557.16	46398.78
557.32	46518.15
557.49	46534.53
557.65	46305.16
557.82	46087.49
557.98	46314.52
558.15	46157.70
558.32	46602.41
558.48	46366.01
558.65	46873.91
558.81	46333.24
558.98	46387.08
559.14	46300.48
559.31	45993.87
559.47	46576.66
559.64	46492.40
559.80	46703.05
559.97	47133.71
560.13	46234.94
560.30	46436.23
560.46	47007.32
560.63	46649.22
560.79	46953.49
560.96	46749.86
561.12	46604.75
561.29	46508.79
561.45	46909.02
561.61	46649.22
561.78	47065.83
561.94	47089.24
562.11	46927.74
562.27	46532.19
562.44	47112.64
562.60	47016.68
562.77	46857.52
562.93	47019.02
563.10	47122.01
563.26	46965.19
563.42	47447.34
563.59	47426.28
563.75	47063.49
563.92	47590.11
564.08	47086.90
564.24	47117.32
564.41	47178.18
564.57	46808.37
564.74	46946.47
564.90	47154.77
565.07	47157.11
565.23	46916.04
565.39	47199.24
565.56	47393.51
565.72	46902.00
565.88	47234.35
566.05	47217.97
566.21	47079.88
566.38	46946.47
566.54	47241.37
566.70	47370.10
566.87	47461.38
567.03	47269.46
567.19	47484.79
567.36	47547.98
567.52	47604.16
567.68	47557.35
567.85	46883.27
568.01	47405.21
568.17	47358.40
568.34	47367.76
568.50	47679.05
568.66	47292.86
568.83	47365.42
568.99	47232.01
569.15	47089.24
569.32	47248.39
569.48	47224.99
569.64	47533.94
569.81	47203.92
569.97	47437.98
570.13	47278.82
570.30	47763.31
570.46	47543.30
570.62	47494.15
570.78	47449.68
570.95	47381.80
571.11	47693.10
571.27	47629.90
571.43	47419.25
571.60	47531.60
571.76	47625.22
571.92	47257.76
572.09	47475.43
572.25	48144.82
572.41	47672.03
572.57	47676.71
572.74	48250.14
572.90	47400.53
573.06	47587.77
573.22	47707.14
573.38	48032.47
573.55	47646.29
573.71	47653.31
573.87	47995.03
574.03	47461.38
574.20	47456.70
574.36	47456.70
574.52	47393.51
574.68	47484.79
574.84	47753.95
575.01	47775.02
575.17	47700.12
575.33	48037.16
575.49	47334.99
575.65	47889.70
575.82	47782.04
575.98	47709.48
576.14	48041.84
576.30	47779.70
576.46	47995.03
576.62	47920.13
576.79	48095.67
576.95	47969.28
577.11	48128.44
577.27	48053.54
577.43	48034.81
577.59	48002.05
577.75	47676.71
577.92	48037.16
578.08	47435.64
578.24	47608.84
578.40	47931.83
578.56	47856.93
578.72	48095.67
578.88	48416.32
579.04	48140.14
579.21	47999.71
579.37	48177.59
579.53	48048.86
579.69	47679.05
579.85	47725.86
580.01	47936.51
580.17	47882.68
580.33	47906.08
580.49	48027.79
580.65	48409.30
580.82	48055.88
580.98	48418.66
581.14	48186.95
581.30	48383.55
581.46	47716.50
581.62	47636.92
581.78	47597.13
581.94	48149.50
582.10	48018.43
582.26	48603.56
582.42	47910.77
582.58	48222.06
582.74	48259.51
582.90	48093.33
583.06	48273.55
583.22	48348.45
583.38	48025.45
583.54	47852.25
583.70	48243.12
583.86	48165.88
584.02	48231.42
584.18	48404.62
584.34	48360.15
584.50	48219.72
584.66	47936.51
584.82	47903.74
584.98	47952.90
585.14	47976.30
585.30	47608.84
585.46	48128.44
585.62	47800.76
585.78	48439.73
585.94	47945.87
586.10	48409.30
586.26	48065.24
586.42	48369.51
586.58	48566.12
586.74	48540.37
586.90	48198.65
587.06	48170.57
587.22	47952.90
587.38	48226.74
587.54	48259.51
587.70	48425.68
587.86	48402.28
588.02	48776.76
588.18	48435.05
588.34	48526.33
588.49	48491.22
588.65	47817.14
588.81	48226.74
588.97	48219.72
589.13	48479.52
589.29	48016.09
589.45	48807.19
589.61	48516.96
589.77	48697.19
589.93	48413.98
590.08	48580.16
590.24	48474.84
590.40	48385.89
590.56	48713.57
590.72	48701.87
