SpectraSuite Data File
++++++++++++++++++++++++++++++++++++
Date: Fri Oct 04 11:39:12 GMT-05:00 2013
User: price-jones
Dark Spectrum Present: No
Reference Spectrum Present: No
Number of Sampled Component Spectra: 1
Spectrometers: USB2+H05261
Integration Time (usec): 100000 (USB2+H05261)
Spectra Averaged: 1 (USB2+H05261)
Boxcar Smoothing: 0 (USB2+H05261)
Correct for Electrical Dark: No (USB2+H05261)
Strobe/Lamp Enabled: No (USB2+H05261)
Correct for Detector Non-linearity: No (USB2+H05261)
Correct for Stray Light: No (USB2+H05261)
Number of Pixels in Processed Spectrum: 2048
>>>>>Begin Processed Spectral Data<<<<<
365.73	58.51
365.92	58.51
366.12	58.51
366.32	7.02
366.52	0.00
366.72	0.00
366.91	0.00
367.11	0.00
367.31	0.00
367.51	0.00
367.70	0.00
367.90	0.00
368.10	0.00
368.30	0.00
368.49	0.00
368.69	0.00
368.89	0.00
369.09	0.00
369.28	0.00
369.48	0.00
369.68	4.68
369.87	0.00
370.07	0.00
370.27	0.00
370.47	0.00
370.66	93.62
370.86	84.26
371.06	91.28
371.25	177.88
371.45	110.01
371.65	208.31
371.84	147.45
372.04	201.29
372.24	163.84
372.44	252.78
372.63	262.14
372.83	252.78
373.03	229.37
373.22	229.37
373.42	208.31
373.62	280.86
373.81	198.95
374.01	189.58
374.21	224.69
374.40	283.20
374.60	301.93
374.79	191.92
374.99	259.80
375.19	248.10
375.38	259.80
375.58	231.71
375.78	297.25
375.97	283.20
376.17	322.99
376.37	259.80
376.56	269.16
376.76	276.18
376.95	236.39
377.15	255.12
377.35	266.82
377.54	255.12
377.74	259.80
377.93	266.82
378.13	287.89
378.33	271.50
378.52	229.37
378.72	278.52
378.91	257.46
379.11	194.26
379.31	238.73
379.50	198.95
379.70	278.52
379.89	252.78
380.09	259.80
380.28	248.10
380.48	252.78
380.68	231.71
380.87	234.05
381.07	212.99
381.26	198.95
381.46	173.20
381.65	250.44
381.85	175.54
382.04	276.18
382.24	308.95
382.43	224.69
382.63	236.39
382.83	266.82
383.02	308.95
383.22	369.80
383.41	264.48
383.61	243.42
383.80	252.78
384.00	318.31
384.19	276.18
384.39	339.38
384.58	269.16
384.78	315.97
384.97	262.14
385.17	294.91
385.36	346.40
385.56	285.55
385.75	262.14
385.95	325.33
386.14	330.02
386.34	292.57
386.53	318.31
386.72	299.59
386.92	315.97
387.11	362.78
387.31	374.49
387.50	315.97
387.70	330.02
387.89	255.12
388.09	337.04
388.28	243.42
388.48	262.14
388.67	325.33
388.86	283.20
389.06	339.38
389.25	367.46
389.45	383.85
389.64	322.99
389.84	306.61
390.03	353.42
390.22	386.19
390.42	339.38
390.61	292.57
390.81	271.50
391.00	383.85
391.19	348.74
391.39	351.08
391.58	315.97
391.78	386.19
391.97	393.21
392.16	248.10
392.36	393.21
392.55	397.89
392.75	271.50
392.94	369.80
393.13	411.93
393.33	313.63
393.52	362.78
393.71	472.79
393.91	360.44
394.10	376.83
394.29	428.32
394.49	397.89
394.68	362.78
394.88	447.04
395.07	435.34
395.26	433.00
395.46	414.27
395.65	346.40
395.84	428.32
396.04	503.22
396.23	325.33
396.42	374.49
396.62	454.06
396.81	428.32
397.00	372.15
397.19	531.30
397.39	393.21
397.58	449.38
397.77	484.49
397.97	437.68
398.16	411.93
398.35	411.93
398.55	397.89
398.74	456.40
398.93	500.87
399.12	414.27
399.32	456.40
399.51	484.49
399.70	463.43
399.90	510.24
400.09	533.64
400.28	533.64
400.47	456.40
400.67	535.98
400.86	458.74
401.05	510.24
401.24	505.56
401.44	528.96
401.63	479.81
401.82	533.64
402.01	496.19
402.21	493.85
402.40	475.13
402.59	550.03
402.78	500.87
402.97	638.97
403.17	566.41
403.36	543.00
403.55	493.85
403.74	559.39
403.93	627.26
404.13	662.37
404.32	582.79
404.51	678.76
404.70	617.90
404.89	653.01
405.09	678.76
405.28	596.84
405.47	613.22
405.66	643.65
405.85	662.37
406.05	496.19
406.24	594.50
406.43	631.94
406.62	627.26
406.81	681.10
407.00	624.92
407.20	627.26
407.39	636.63
407.58	657.69
407.77	695.14
407.96	695.14
408.15	739.61
408.34	730.25
408.54	741.95
408.73	683.44
408.92	720.88
409.11	709.18
409.30	746.63
409.49	674.07
409.68	660.03
409.87	669.39
410.07	697.48
410.26	674.07
410.45	784.08
410.64	795.78
410.83	718.54
411.02	727.91
411.21	821.53
411.40	751.31
411.59	821.53
411.78	781.74
411.98	784.08
412.17	812.17
412.36	837.91
412.55	835.57
412.74	915.15
412.93	901.11
413.12	767.70
413.31	767.70
413.50	931.53
413.69	847.27
413.88	889.40
414.07	896.43
414.26	931.53
414.45	819.19
414.64	968.98
414.83	945.58
415.02	882.38
415.22	940.90
415.41	966.64
415.60	957.28
415.79	1020.47
415.98	1050.90
416.17	940.90
416.36	964.30
416.55	1039.20
416.74	1078.99
416.93	964.30
417.12	1008.77
417.31	1132.82
417.50	1069.62
417.69	1121.12
417.88	1086.01
418.07	983.02
418.26	1055.58
418.45	1139.84
418.64	1137.50
418.83	1177.29
419.02	1090.69
419.21	1137.50
419.39	1081.33
419.58	1100.05
419.77	1210.06
419.96	1198.35
420.15	1146.86
420.34	1125.80
420.53	1078.99
420.72	1184.31
420.91	1167.93
421.10	1170.27
421.29	1146.86
421.48	1231.12
421.67	1338.79
421.86	1165.59
422.05	1196.01
422.24	1193.67
422.43	1163.25
422.61	1233.46
422.80	1167.93
422.99	1226.44
423.18	1252.19
423.37	1355.17
423.56	1289.64
423.75	1224.10
423.94	1217.08
424.13	1174.95
424.32	1153.88
424.50	1256.87
424.69	1228.78
424.88	1320.06
425.07	1219.42
425.26	1308.36
425.45	1306.02
425.64	1252.19
425.83	1228.78
426.01	1352.83
426.20	1282.61
426.39	1350.49
426.58	1205.38
426.77	1301.34
426.96	1296.66
427.15	1247.51
427.33	1217.08
427.52	1355.17
427.71	1226.44
427.90	1280.27
428.09	1369.21
428.28	1364.53
428.46	1378.58
428.65	1430.07
428.84	1423.05
429.03	1420.71
429.22	1270.91
429.40	1357.51
429.59	1350.49
429.78	1387.94
429.97	1301.34
430.16	1350.49
430.34	1378.58
430.53	1411.34
430.72	1423.05
430.91	1474.54
431.10	1315.38
431.28	1376.24
431.47	1411.34
431.66	1490.92
431.85	1439.43
432.03	1483.90
432.22	1607.95
432.41	1418.36
432.60	1409.00
432.79	1465.18
432.97	1486.24
433.16	1519.01
433.35	1416.02
433.54	1376.24
433.72	1556.46
433.91	1526.03
434.10	1411.34
434.28	1504.96
434.47	1619.65
434.66	1537.73
434.85	1584.54
435.03	1570.50
435.22	1724.97
435.41	2059.67
435.59	1860.73
435.78	1678.16
435.97	1657.10
436.16	1696.89
436.34	1680.50
436.53	1549.43
436.72	1661.78
436.90	1612.63
437.09	1671.14
437.28	1694.55
437.46	1675.82
437.65	1607.95
437.84	1710.93
438.02	1736.68
438.21	1685.19
438.40	1703.91
438.58	1703.91
438.77	1710.93
438.96	1668.80
439.14	1750.72
439.33	1771.79
439.52	1750.72
439.70	1849.02
439.89	1849.02
440.08	1764.76
440.26	1762.42
440.45	1860.73
440.63	1753.06
440.82	1870.09
441.01	1947.33
441.19	1937.96
441.38	1989.46
441.57	1944.99
441.75	1874.77
441.94	2069.03
442.12	1926.26
442.31	1942.64
442.50	1998.82
442.68	2054.99
442.87	2085.42
443.05	2001.16
443.24	1994.14
443.43	2015.20
443.61	2113.50
443.80	2113.50
443.98	2003.50
444.17	1928.60
444.35	2017.54
444.54	2108.82
444.73	1994.14
444.91	1994.14
445.10	2019.88
445.28	2078.40
445.47	1977.75
445.65	2099.46
445.84	2062.01
446.02	2052.65
446.21	2029.24
446.39	2146.27
446.58	2150.95
446.77	1998.82
446.95	2031.58
447.14	2099.46
447.32	2069.03
447.51	2118.18
447.69	2216.49
447.88	2181.38
448.06	2190.74
448.25	2230.53
448.43	2090.10
448.62	2129.89
448.80	2026.90
448.99	2003.50
449.17	2125.21
449.36	2078.40
449.54	2101.80
449.73	2181.38
449.91	2202.44
450.10	2120.53
450.28	2186.06
450.46	2235.21
450.65	2181.38
450.83	2286.70
451.02	2139.25
451.20	2129.89
451.39	2153.29
451.57	2204.78
451.76	2216.49
451.94	2277.34
452.13	2324.15
452.31	2235.21
452.49	2146.27
452.68	2340.54
452.86	2176.70
453.05	2345.22
453.23	2260.96
453.42	2275.00
453.60	2321.81
453.78	2335.85
453.97	2251.60
454.15	2328.83
454.34	2209.47
454.52	2352.24
454.70	2420.11
454.89	2413.09
455.07	2310.11
455.26	2450.54
455.44	2464.58
455.62	2436.50
455.81	2415.43
455.99	2410.75
456.17	2370.96
456.36	2457.56
456.54	2406.07
456.73	2401.39
456.91	2593.31
457.09	2534.80
457.28	2607.36
457.46	2455.22
457.64	2537.14
457.83	2436.50
458.01	2532.46
458.19	2520.76
458.38	2511.39
458.56	2558.21
458.74	2445.86
458.93	2574.59
459.11	2607.36
459.29	2445.86
459.48	2612.04
459.66	2590.97
459.84	2619.06
460.03	2822.69
460.21	2677.57
460.39	2663.53
460.57	2661.19
460.76	2583.95
460.94	2693.96
461.12	2696.30
461.31	2670.55
461.49	2661.19
461.67	2726.72
461.85	2850.77
462.04	2705.66
462.22	2881.20
462.40	2825.03
462.59	2782.90
462.77	2822.69
462.95	2743.11
463.13	2780.56
463.32	2878.86
463.50	2799.28
463.68	2869.50
463.86	2766.51
464.05	2813.32
464.23	2827.37
464.41	2834.39
464.59	2703.32
464.78	2717.36
464.96	2869.50
465.14	2792.26
465.32	2932.69
465.50	2928.01
465.69	2869.50
465.87	2820.35
466.05	3045.04
466.23	2761.83
466.41	2897.58
466.60	3035.67
466.78	2963.12
466.96	2897.58
467.14	3012.27
467.32	3007.59
467.51	2949.08
467.69	2981.84
467.87	2979.50
468.05	2970.14
468.23	3030.99
468.41	3000.57
468.60	2932.69
468.78	2909.29
468.96	3059.08
469.14	3080.14
469.32	3089.51
469.50	3026.31
469.69	3049.72
469.87	3056.74
470.05	3061.42
470.23	3082.49
470.41	3094.19
470.59	3178.45
470.77	3077.80
470.95	3220.58
471.14	3243.98
471.32	3119.93
471.50	3232.28
471.68	3229.94
471.86	3241.64
472.04	3239.30
472.22	3155.04
472.40	3321.22
472.58	3400.80
472.77	3218.24
472.95	3281.43
473.13	3501.44
473.31	3361.01
473.49	3365.69
473.67	3279.09
473.85	3372.71
474.03	3400.80
474.21	3356.33
474.39	3452.29
474.57	3508.46
474.75	3318.88
474.93	3494.42
475.12	3475.70
475.30	3503.78
475.48	3522.51
475.66	3583.36
475.84	3534.21
476.02	3634.85
476.20	3492.08
476.38	3548.25
476.56	3777.62
476.74	3852.52
476.92	3712.09
477.10	3716.77
477.28	3719.11
477.46	3810.39
477.64	3950.82
477.82	3819.75
478.00	3908.69
478.18	3925.08
478.36	3873.59
478.54	4072.53
478.72	3939.12
478.90	4161.47
479.08	4119.34
479.26	4053.81
479.44	4219.99
479.62	4231.69
479.80	4269.14
479.98	4173.18
480.16	4196.58
480.34	4318.29
480.52	4386.16
480.70	4351.06
480.88	4255.09
481.06	4535.96
481.24	4219.99
481.41	4437.66
481.59	4519.57
481.77	4538.30
481.95	4528.94
482.13	4648.30
482.31	4657.67
482.49	4718.52
482.67	4568.73
482.85	4781.71
483.03	4615.54
483.21	4945.55
483.39	4844.91
483.57	4835.55
483.74	4926.83
483.92	4828.53
484.10	4870.65
484.28	4961.94
484.46	5088.32
484.64	5184.29
484.82	5022.79
485.00	5004.07
485.18	5336.42
485.35	5210.03
485.53	5385.57
485.71	5310.68
485.89	5357.49
486.07	5451.11
486.25	5369.19
486.43	5453.45
486.61	5526.00
486.78	5507.28
486.96	5617.29
487.14	5554.09
487.32	5628.99
487.50	5472.17
487.68	5668.78
487.85	5741.33
488.03	5895.81
488.21	6045.60
488.39	5984.75
488.57	6050.28
488.75	5954.32
488.92	6335.83
489.10	6097.10
489.28	6113.48
489.46	6033.90
489.64	6012.84
489.81	6141.57
489.99	6127.52
490.17	6228.17
490.35	6471.58
490.53	6396.68
490.70	6333.49
490.88	6480.94
491.06	6539.46
491.24	6532.44
491.41	6614.35
491.59	6513.71
491.77	6483.28
491.95	6607.33
492.13	6808.62
492.30	6677.55
492.48	6691.59
492.66	6953.73
492.84	6740.74
493.01	7101.19
493.19	6862.45
493.37	6988.84
493.54	7005.22
493.72	7049.69
493.90	7190.13
494.08	7185.44
494.25	7208.85
494.43	7541.21
494.61	7389.07
494.79	7246.30
494.96	7520.14
495.14	7424.18
495.32	7368.01
495.49	7520.14
495.67	7309.49
495.85	7590.36
496.02	7515.46
496.20	7627.81
496.38	7735.47
496.55	7524.82
496.73	7770.58
496.91	7609.08
497.09	7934.42
497.26	7887.61
497.44	7779.94
497.62	7889.95
497.79	8128.68
497.97	7941.44
498.14	8067.83
498.32	8138.04
498.50	8156.77
498.67	8166.13
498.85	8292.52
499.03	8175.49
499.20	8116.98
499.38	8358.05
499.56	8428.27
499.73	8358.05
499.91	8549.98
500.08	8334.65
500.26	8311.24
500.44	8458.70
500.61	8465.72
500.79	8458.70
500.97	8484.44
501.14	8615.51
501.32	8351.03
501.49	8585.08
501.67	8748.92
501.84	8723.18
502.02	8706.79
502.20	8608.49
502.37	8919.78
502.55	8894.04
502.72	8730.20
502.90	8882.33
503.07	8784.03
503.25	8957.23
503.43	8814.46
503.60	9118.73
503.78	8959.57
503.95	8910.42
504.13	8933.82
504.30	9100.00
504.48	9083.62
504.65	9165.54
504.83	9235.75
505.01	9179.58
505.18	9221.71
505.36	9280.22
505.53	9128.09
505.71	9355.12
505.88	9411.29
506.06	9273.20
506.23	9303.63
506.41	9497.89
506.58	9413.63
506.76	9582.15
506.93	9352.78
507.11	9624.28
507.28	9549.39
507.46	9706.20
507.63	9469.81
507.81	9900.47
507.98	9577.47
508.16	9764.72
508.33	9657.05
508.50	9680.46
508.68	9755.35
508.85	9804.50
509.03	10033.88
509.20	9874.72
509.38	9797.48
509.55	9893.44
509.73	9916.85
509.90	9865.36
510.08	10003.45
510.25	9996.43
510.42	10169.63
510.60	10050.26
510.77	10326.44
510.95	10202.40
511.12	9973.02
511.30	9989.41
511.47	10083.03
511.64	10410.70
511.82	10375.59
511.99	10333.47
512.17	10328.78
512.34	10415.38
512.51	10188.35
512.69	10333.47
512.86	10616.67
513.04	10473.90
513.21	10504.32
513.38	10574.54
513.56	10373.25
513.73	10422.41
513.90	10534.75
514.08	10651.78
514.25	10743.06
514.43	10668.16
514.60	10729.02
514.77	10724.33
514.95	10719.65
515.12	10705.61
515.29	10609.65
515.47	10836.68
515.64	11084.78
515.81	10895.19
515.99	11026.26
516.16	10918.60
516.33	11012.22
516.51	11133.93
516.68	10892.85
516.85	11028.60
517.03	10839.02
517.20	11154.99
517.37	11147.97
517.54	11154.99
517.72	11091.80
517.89	11061.37
518.06	11035.63
518.24	11152.65
518.41	11138.61
518.58	11253.30
518.75	11403.09
518.93	11297.77
519.10	11400.75
519.27	11339.90
519.45	11330.53
519.62	11548.20
519.79	11417.13
519.96	11470.97
520.14	11726.08
520.31	11421.81
520.48	11468.62
520.65	11426.50
520.83	11524.80
521.00	11700.34
521.17	11253.30
521.34	11730.76
521.52	11585.65
521.69	11824.39
521.86	11578.63
522.03	11611.40
522.20	11831.41
522.38	11686.29
522.55	11932.05
522.72	11583.31
522.89	11896.94
523.07	12102.91
523.24	11815.02
523.41	12032.69
523.58	11719.06
523.75	11887.58
523.92	11712.04
524.10	11754.17
524.27	11749.49
524.44	12065.46
524.61	12360.37
524.78	12243.34
524.96	12018.65
525.13	12290.15
525.30	12231.64
525.47	12196.53
525.64	12280.79
525.81	12112.27
525.98	12409.52
526.16	12519.53
526.33	12072.48
526.50	12381.43
526.67	12294.83
526.84	12196.53
527.01	12355.69
527.18	12320.58
527.36	12482.08
527.53	12526.55
527.70	12521.87
527.87	12816.77
528.04	12351.01
528.21	12376.75
528.38	12589.74
528.55	12444.63
528.72	12650.60
528.89	12685.70
529.07	12578.04
529.24	12676.34
529.41	12540.59
529.58	12723.15
529.75	12659.96
529.92	12840.18
530.09	12809.75
530.26	12704.43
530.43	12861.24
530.60	12894.01
530.77	12751.24
530.94	12870.61
531.11	12814.43
531.28	12727.83
531.46	12725.49
531.63	12898.69
531.80	12889.33
531.97	13097.64
532.14	13050.83
532.31	13132.75
532.48	12882.31
532.65	13081.25
532.82	12931.46
532.99	13074.23
533.16	13069.55
533.33	13160.83
533.50	13444.04
533.67	13184.24
533.84	13116.36
534.01	13268.50
534.18	13107.00
534.35	13261.48
534.52	13130.41
534.69	13427.65
534.86	13495.53
535.03	13118.70
535.20	13298.92
535.37	13209.98
535.54	13364.46
535.71	13252.11
535.88	13486.17
536.05	13420.63
536.22	13476.80
536.38	13394.89
536.55	13692.13
536.72	13472.12
536.89	13390.20
537.06	13371.48
537.23	13591.49
537.40	13355.10
537.57	13479.15
537.74	13453.40
537.91	13741.29
538.08	13774.05
538.25	13647.66
538.42	13523.62
538.59	13797.46
538.75	13509.57
538.92	13645.32
539.09	13685.11
539.26	13650.00
539.43	13855.97
539.60	13858.31
539.77	14033.85
539.94	14092.37
540.11	13717.88
540.28	14193.01
540.44	14052.58
540.61	13930.87
540.78	13916.83
540.95	13991.72
541.12	14190.67
541.29	14373.23
541.46	14047.90
541.62	14270.25
541.79	14225.78
541.96	14085.34
542.13	14108.75
542.30	14253.86
542.47	14127.47
542.63	14317.06
542.80	14284.29
542.97	14560.47
543.14	14284.29
543.31	14637.71
543.48	14347.48
543.64	14473.87
543.81	14595.58
543.98	14513.66
544.15	14525.36
544.32	14483.24
544.48	14352.16
544.65	14644.73
544.82	14263.22
544.99	14490.26
545.16	14237.48
545.32	14661.12
545.49	15087.09
545.66	15147.95
545.83	15089.43
546.00	15166.67
546.16	15044.96
546.33	14686.86
546.50	14626.01
546.67	14782.82
546.83	14281.95
547.00	14300.67
547.17	14572.18
547.34	14586.22
547.50	14455.15
547.67	14508.98
547.84	14843.68
548.00	14623.67
548.17	14602.60
548.34	14717.29
548.51	15075.39
548.67	14855.38
548.84	14867.08
549.01	14644.73
549.18	14626.01
549.34	14417.70
549.51	14862.40
549.68	14822.61
549.84	14794.53
550.01	14836.66
550.18	14958.36
550.34	14902.19
550.51	14885.81
550.68	14705.59
550.84	14682.18
551.01	14684.52
551.18	14588.56
551.34	14626.01
551.51	14644.73
551.68	14888.15
551.84	14757.08
552.01	14572.18
552.18	14630.69
552.34	14902.19
552.51	14820.27
552.68	14745.38
552.84	14801.55
553.01	15187.74
553.18	15047.30
553.34	15012.20
553.51	14958.36
553.67	14918.57
553.84	15012.20
554.01	15159.65
554.17	14960.70
554.34	14986.45
554.51	15267.31
554.67	15019.22
554.84	14836.66
555.00	15014.54
555.17	15140.93
555.33	14941.98
555.50	14970.07
555.67	15112.84
555.83	15257.95
556.00	14958.36
556.16	15267.31
556.33	15143.27
556.50	15232.21
556.66	15398.38
556.83	14963.04
556.99	15129.22
557.16	15398.38
557.32	15061.35
557.49	15276.68
557.65	14939.64
557.82	15187.74
557.98	15030.92
558.15	14953.68
558.32	15199.44
558.48	15124.54
558.65	15470.94
558.81	15159.65
558.98	15250.93
559.14	15414.77
559.31	15066.03
559.47	15253.27
559.64	14979.43
559.80	15456.90
559.97	15335.19
560.13	15426.47
560.30	15194.76
560.46	15363.28
560.63	15365.62
560.79	15176.03
560.96	15330.51
561.12	15414.77
561.29	15260.29
561.45	15473.28
561.61	15477.96
561.78	15220.50
561.94	15571.58
562.11	15433.49
562.27	15358.60
562.44	15222.84
562.60	15494.35
562.77	15260.29
562.93	15318.81
563.10	15683.93
563.26	15407.75
563.42	15618.39
563.59	15431.15
563.75	15403.07
563.92	15262.63
564.08	15616.05
564.24	15513.07
564.41	15590.31
564.57	15377.32
564.74	15328.17
564.90	15761.17
565.07	15407.75
565.23	15667.55
565.39	15389.02
565.56	15644.14
565.72	15510.73
565.88	15417.11
566.05	15431.15
566.21	15417.11
566.38	15683.93
566.54	15393.70
566.70	15461.58
566.87	15943.73
567.03	15424.13
567.19	15847.77
567.36	15843.09
567.52	15740.10
567.68	15461.58
567.85	15211.14
568.01	15344.55
568.17	15510.73
568.34	15243.91
568.50	15658.18
568.66	15590.31
568.83	15721.38
568.99	15529.45
569.15	15653.50
569.32	15517.75
569.48	15374.98
569.64	15489.67
569.81	15377.32
569.97	15552.86
570.13	15894.58
570.30	15728.40
570.46	15562.22
570.62	15775.21
570.78	15690.95
570.95	15475.62
571.11	15817.34
571.27	15651.16
571.43	15325.83
571.60	15803.30
571.76	15712.02
571.92	15372.64
572.09	15777.55
572.25	15824.36
572.41	15716.70
572.57	15517.75
572.74	15737.76
572.90	15587.97
573.06	15669.89
573.22	15686.27
573.38	15433.49
573.55	15700.31
573.71	15864.15
573.87	15599.67
574.03	15704.99
574.20	15646.48
574.36	15662.86
574.52	15529.45
574.68	15875.85
574.84	15878.19
575.01	15690.95
575.17	15779.89
575.33	15484.98
575.49	15798.62
575.65	15784.57
575.82	15960.11
575.98	15967.13
576.14	15742.44
576.30	15669.89
576.46	16037.35
576.62	15796.28
576.79	16020.97
576.95	15892.24
577.11	15789.25
577.27	15637.12
577.43	15946.07
577.59	15690.95
577.75	15702.65
577.92	15452.22
578.08	15800.96
578.24	15812.66
578.40	16065.44
578.56	15786.91
578.72	15777.55
578.88	16140.33
579.04	15936.71
579.21	15850.11
579.37	15791.59
579.53	16056.08
579.69	15700.31
579.85	15662.86
580.01	15585.63
580.17	16079.48
580.33	15833.72
580.49	16135.65
580.65	15679.25
580.82	15948.41
580.98	15967.13
581.14	15641.80
581.30	15953.09
581.46	15932.03
581.62	15997.56
581.78	15454.56
581.94	15990.54
582.10	15941.39
582.26	15571.58
582.42	15693.29
582.58	15850.11
582.74	15810.32
582.90	15786.91
583.06	16046.71
583.22	15845.43
583.38	15573.92
583.54	16243.32
583.70	15800.96
583.86	15997.56
584.02	15719.04
584.18	16046.71
584.34	15880.53
584.50	15988.20
584.66	15850.11
584.82	15969.48
584.98	15899.26
585.14	15548.18
585.30	15868.83
585.46	16037.35
585.62	15899.26
585.78	15992.88
585.94	15728.40
586.10	15887.56
586.26	15822.02
586.42	16044.37
586.58	15927.35
586.74	15967.13
586.90	15681.59
587.06	16006.92
587.22	16156.72
587.38	15960.11
587.54	16259.70
587.70	16262.04
587.86	15997.56
588.02	15913.30
588.18	15971.82
588.34	16154.38
588.49	15632.44
588.65	15939.05
588.81	15908.62
588.97	15981.18
589.13	16042.03
589.29	16058.42
589.45	15999.90
589.61	16070.12
589.77	16128.63
589.93	15683.93
590.08	15950.75
590.24	15925.00
590.40	16060.76
590.56	16004.58
590.72	15906.28
590.88	15988.20
591.04	16170.76
591.20	16006.92
591.35	16058.42
591.51	16269.06
591.67	16051.39
591.83	15882.88
591.99	16030.33
592.15	16159.06
592.31	16042.03
592.46	15894.58
592.62	16065.44
592.78	16056.08
592.94	16072.46
593.10	16156.72
593.26	16456.31
593.41	16046.71
593.57	15983.52
593.73	16002.24
