SpectraSuite Data File
++++++++++++++++++++++++++++++++++++
Date: Fri Oct 04 11:40:03 GMT-05:00 2013
User: price-jones
Dark Spectrum Present: No
Reference Spectrum Present: No
Number of Sampled Component Spectra: 1
Spectrometers: USB2+H05261
Integration Time (usec): 100000 (USB2+H05261)
Spectra Averaged: 1 (USB2+H05261)
Boxcar Smoothing: 0 (USB2+H05261)
Correct for Electrical Dark: No (USB2+H05261)
Strobe/Lamp Enabled: No (USB2+H05261)
Correct for Detector Non-linearity: No (USB2+H05261)
Correct for Stray Light: No (USB2+H05261)
Number of Pixels in Processed Spectrum: 2048
>>>>>Begin Processed Spectral Data<<<<<
365.73	65.54
365.92	65.54
366.12	65.54
366.32	0.00
366.52	0.00
366.72	0.00
366.91	0.00
367.11	0.00
367.31	0.00
367.51	0.00
367.70	0.00
367.90	0.00
368.10	0.00
368.30	0.00
368.49	0.00
368.69	0.00
368.89	0.00
369.09	0.00
369.28	0.00
369.48	0.00
369.68	0.00
369.87	7.02
370.07	0.00
370.27	30.43
370.47	39.79
370.66	28.09
370.86	49.15
371.06	56.17
371.25	121.71
371.45	30.43
371.65	9.36
371.84	65.54
372.04	51.49
372.24	117.03
372.44	39.79
372.63	100.64
372.83	126.39
373.03	93.62
373.22	145.11
373.42	142.77
373.62	117.03
373.81	81.92
374.01	107.66
374.21	220.01
374.40	131.07
374.60	131.07
374.79	198.95
374.99	77.24
375.19	93.62
375.38	131.07
375.58	124.05
375.78	124.05
375.97	121.71
376.17	212.99
376.37	91.28
376.56	110.01
376.76	140.43
376.95	86.60
377.15	98.30
377.35	161.50
377.54	135.75
377.74	77.24
377.93	142.77
378.13	135.75
378.33	98.30
378.52	156.82
378.72	121.71
378.91	117.03
379.11	168.52
379.31	121.71
379.50	63.19
379.70	84.26
379.89	198.95
380.09	149.79
380.28	126.39
380.48	114.69
380.68	42.13
380.87	79.58
381.07	32.77
381.26	170.86
381.46	128.73
381.65	107.66
381.85	86.60
382.04	124.05
382.24	107.66
382.43	117.03
382.63	88.94
382.83	23.41
383.02	126.39
383.22	135.75
383.41	124.05
383.61	149.79
383.80	140.43
384.00	65.54
384.19	147.45
384.39	149.79
384.58	154.48
384.78	131.07
384.97	126.39
385.17	86.60
385.36	77.24
385.56	142.77
385.75	161.50
385.95	18.72
386.14	102.98
386.34	91.28
386.53	126.39
386.72	215.33
386.92	138.09
387.11	91.28
387.31	124.05
387.50	156.82
387.70	152.13
387.89	95.96
388.09	74.90
388.28	86.60
388.48	79.58
388.67	126.39
388.86	138.09
389.06	114.69
389.25	100.64
389.45	117.03
389.64	77.24
389.84	220.01
390.03	138.09
390.22	91.28
390.42	84.26
390.61	53.83
390.81	100.64
391.00	100.64
391.19	117.03
391.39	105.32
391.58	25.75
391.78	95.96
391.97	166.18
392.16	112.35
392.36	194.26
392.55	140.43
392.75	180.22
392.94	88.94
393.13	163.84
393.33	91.28
393.52	133.41
393.71	149.79
393.91	74.90
394.10	126.39
394.29	117.03
394.49	105.32
394.68	121.71
394.88	152.13
395.07	154.48
395.26	163.84
395.46	126.39
395.65	107.66
395.84	184.90
396.04	161.50
396.23	121.71
396.42	152.13
396.62	182.56
396.81	140.43
397.00	11.70
397.19	91.28
397.39	156.82
397.58	140.43
397.77	180.22
397.97	194.26
398.16	138.09
398.35	177.88
398.55	156.82
398.74	110.01
398.93	159.16
399.12	138.09
399.32	149.79
399.51	194.26
399.70	196.60
399.90	166.18
400.09	198.95
400.28	231.71
400.47	140.43
400.67	126.39
400.86	191.92
401.05	149.79
401.24	187.24
401.44	205.97
401.63	168.52
401.82	194.26
402.01	145.11
402.21	227.03
402.40	124.05
402.59	161.50
402.78	95.96
402.97	220.01
403.17	49.15
403.36	149.79
403.55	161.50
403.74	133.41
403.93	154.48
404.13	252.78
404.32	198.95
404.51	215.33
404.70	163.84
404.89	210.65
405.09	224.69
405.28	95.96
405.47	205.97
405.66	133.41
405.85	187.24
406.05	201.29
406.24	177.88
406.43	173.20
406.62	187.24
406.81	212.99
407.00	227.03
407.20	138.09
407.39	98.30
407.58	149.79
407.77	159.16
407.96	231.71
408.15	243.42
408.34	215.33
408.54	224.69
408.73	110.01
408.92	184.90
409.11	241.08
409.30	215.33
409.49	140.43
409.68	189.58
409.87	175.54
410.07	180.22
410.26	231.71
410.45	234.05
410.64	205.97
410.83	201.29
411.02	245.76
411.21	220.01
411.40	238.73
411.59	212.99
411.78	161.50
411.98	184.90
412.17	243.42
412.36	147.45
412.55	243.42
412.74	187.24
412.93	194.26
413.12	170.86
413.31	252.78
413.50	264.48
413.69	283.20
413.88	290.23
414.07	222.35
414.26	220.01
414.45	238.73
414.64	243.42
414.83	278.52
415.02	320.65
415.22	280.86
415.41	245.76
415.60	255.12
415.79	248.10
415.98	308.95
416.17	234.05
416.36	299.59
416.55	257.46
416.74	224.69
416.93	283.20
417.12	252.78
417.31	332.36
417.50	278.52
417.69	290.23
417.88	222.35
418.07	257.46
418.26	184.90
418.45	280.86
418.64	243.42
418.83	273.84
419.02	308.95
419.21	234.05
419.39	299.59
419.58	217.67
419.77	255.12
419.96	259.80
420.15	255.12
420.34	273.84
420.53	341.72
420.72	318.31
420.91	285.55
421.10	271.50
421.29	287.89
421.48	271.50
421.67	348.74
421.86	252.78
422.05	290.23
422.24	299.59
422.43	262.14
422.61	241.08
422.80	231.71
422.99	297.25
423.18	306.61
423.37	365.12
423.56	311.29
423.75	320.65
423.94	266.82
424.13	262.14
424.32	299.59
424.50	313.63
424.69	299.59
424.88	404.91
425.07	322.99
425.26	306.61
425.45	306.61
425.64	290.23
425.83	252.78
426.01	348.74
426.20	332.36
426.39	304.27
426.58	313.63
426.77	297.25
426.96	262.14
427.15	269.16
427.33	318.31
427.52	308.95
427.71	301.93
427.90	348.74
428.09	292.57
428.28	337.04
428.46	299.59
428.65	308.95
428.84	297.25
429.03	341.72
429.22	236.39
429.40	297.25
429.59	341.72
429.78	339.38
429.97	341.72
430.16	332.36
430.34	322.99
430.53	287.89
430.72	351.08
430.91	353.42
431.10	294.91
431.28	297.25
431.47	379.17
431.66	315.97
431.85	283.20
432.03	332.36
432.22	447.04
432.41	297.25
432.60	360.44
432.79	330.02
432.97	374.49
433.16	332.36
433.35	264.48
433.54	315.97
433.72	344.06
433.91	362.78
434.10	365.12
434.28	332.36
434.47	404.91
434.66	404.91
434.85	337.04
435.03	489.17
435.22	706.84
435.41	1186.65
435.59	1252.19
435.78	1011.11
435.97	561.73
436.16	500.87
436.34	409.59
436.53	341.72
436.72	430.66
436.90	383.85
437.09	447.04
437.28	404.91
437.46	395.55
437.65	341.72
437.84	313.63
438.02	402.57
438.21	337.04
438.40	374.49
438.58	320.65
438.77	416.62
438.96	430.66
439.14	341.72
439.33	369.80
439.52	330.02
439.70	367.46
439.89	330.02
440.08	395.55
440.26	425.98
440.45	454.06
440.63	390.87
440.82	365.12
441.01	376.83
441.19	447.04
441.38	353.42
441.57	482.15
441.75	486.83
441.94	433.00
442.12	386.19
442.31	435.34
442.50	442.36
442.68	435.34
442.87	376.83
443.05	423.64
443.24	465.77
443.43	393.21
443.61	461.09
443.80	451.72
443.98	374.49
444.17	390.87
444.35	475.13
444.54	407.25
444.73	388.53
444.91	472.79
445.10	442.36
445.28	362.78
445.47	503.22
445.65	397.89
445.84	440.02
446.02	442.36
446.21	400.23
446.39	440.02
446.58	517.26
446.77	376.83
446.95	360.44
447.14	362.78
447.32	477.47
447.51	379.17
447.69	407.25
447.88	400.23
448.06	449.38
448.25	465.77
448.43	376.83
448.62	447.04
448.80	479.81
448.99	414.27
449.17	475.13
449.36	404.91
449.54	358.10
449.73	435.34
449.91	507.90
450.10	442.36
450.28	514.92
450.46	491.51
450.65	367.46
450.83	521.94
451.02	386.19
451.20	447.04
451.39	456.40
451.57	451.72
451.76	470.45
451.94	454.06
452.13	521.94
452.31	430.66
452.49	442.36
452.68	393.21
452.86	435.34
453.05	479.81
453.23	418.96
453.42	482.15
453.60	461.09
453.78	552.37
453.97	404.91
454.15	421.30
454.34	411.93
454.52	451.72
454.70	498.53
454.89	430.66
455.07	411.93
455.26	454.06
455.44	454.06
455.62	531.30
455.81	454.06
455.99	510.24
456.17	498.53
456.36	505.56
456.54	507.90
456.73	447.04
456.91	454.06
457.09	538.32
457.28	571.09
457.46	447.04
457.64	564.07
457.83	543.00
458.01	475.13
458.19	547.69
458.38	498.53
458.56	451.72
458.74	568.75
458.93	526.62
459.11	484.49
459.29	428.32
459.48	454.06
459.66	505.56
459.84	524.28
460.03	620.24
460.21	589.82
460.39	472.79
460.57	538.32
460.76	528.96
460.94	559.39
461.12	601.52
461.31	540.66
461.49	519.60
461.67	524.28
461.85	540.66
462.04	470.45
462.22	901.11
462.40	585.13
462.59	571.09
462.77	512.58
462.95	514.92
463.13	568.75
463.32	610.88
463.50	587.47
463.68	545.34
463.86	491.51
464.05	557.05
464.23	561.73
464.41	545.34
464.59	484.49
464.78	550.03
464.96	514.92
465.14	512.58
465.32	545.34
465.50	498.53
465.69	568.75
465.87	582.79
466.05	543.00
466.23	545.34
466.41	545.34
466.60	568.75
466.78	519.60
466.96	547.69
467.14	505.56
467.32	540.66
467.51	573.43
467.69	491.51
467.87	564.07
468.05	606.20
468.23	566.41
468.41	589.82
468.60	528.96
468.78	550.03
468.96	566.41
469.14	585.13
469.32	538.32
469.50	538.32
469.69	585.13
469.87	603.86
470.05	489.17
470.23	594.50
470.41	573.43
470.59	526.62
470.77	564.07
470.95	634.29
471.14	627.26
471.32	538.32
471.50	589.82
471.68	613.22
471.86	606.20
472.04	589.82
472.22	571.09
472.40	531.30
472.58	533.64
472.77	622.58
472.95	674.07
473.13	636.63
473.31	592.16
473.49	547.69
473.67	603.86
473.85	697.48
474.03	603.86
474.21	653.01
474.39	636.63
474.57	711.52
474.75	669.39
474.93	585.13
475.12	615.56
475.30	599.18
475.48	596.84
475.66	648.33
475.84	636.63
476.02	681.10
476.20	669.39
476.38	653.01
476.56	678.76
476.74	678.76
476.92	631.94
477.10	763.01
477.28	727.91
477.46	779.40
477.64	629.60
477.82	692.80
478.00	711.52
478.18	744.29
478.36	669.39
478.54	601.52
478.72	711.52
478.90	767.70
479.08	763.01
479.26	746.63
479.44	720.88
479.62	748.97
479.80	713.86
479.98	685.78
480.16	695.14
480.34	774.72
480.52	631.94
480.70	732.59
480.88	758.33
481.06	784.08
481.24	793.44
481.41	774.72
481.59	795.78
481.77	777.06
481.95	842.59
482.13	809.83
482.31	777.06
482.49	828.55
482.67	896.43
482.85	870.68
483.03	828.55
483.21	795.78
483.39	924.51
483.57	882.38
483.74	933.87
483.92	922.17
484.10	917.49
484.28	945.58
484.46	990.05
484.64	837.91
484.82	976.00
485.00	870.68
485.18	908.13
485.35	887.06
485.53	950.26
485.71	1060.26
485.89	990.05
486.07	1015.79
486.25	1046.22
486.43	994.73
486.61	1062.60
486.78	980.68
486.96	954.94
487.14	1081.33
487.32	1097.71
487.50	1043.88
487.68	1128.14
487.85	1088.35
488.03	1130.48
488.21	1062.60
488.39	1053.24
488.57	1062.60
488.75	1156.22
488.92	1390.28
489.10	1064.94
489.28	1123.46
489.46	1086.01
489.64	1069.62
489.81	1097.71
489.99	1104.73
490.17	1100.05
490.35	1200.69
490.53	1210.06
490.70	1104.73
490.88	1193.67
491.06	1057.92
491.24	1095.37
491.41	1212.40
491.59	1132.82
491.77	1123.46
491.95	1128.14
492.13	1111.75
492.30	1160.91
492.48	1254.53
492.66	1090.69
492.84	1200.69
493.01	1191.33
493.19	1217.08
493.37	1219.42
493.54	1188.99
493.72	1188.99
493.90	1228.78
494.08	1078.99
494.25	1226.44
494.43	1142.18
494.61	1130.48
494.79	1184.31
494.96	1247.51
495.14	1331.76
495.32	1284.95
495.49	1226.44
495.67	1231.12
495.85	1249.85
496.02	1343.47
496.20	1247.51
496.38	1320.06
496.55	1299.00
496.73	1275.59
496.91	1268.57
497.09	1203.04
497.26	1310.70
497.44	1240.48
497.62	1238.14
497.79	1193.67
497.97	1303.68
498.14	1188.99
498.32	1174.95
498.50	1324.74
498.67	1348.15
498.85	1247.51
499.03	1380.92
499.20	1350.49
499.38	1313.04
499.56	1355.17
499.73	1401.98
499.91	1357.51
500.08	1345.81
500.26	1273.25
500.44	1348.15
500.61	1291.98
500.79	1345.81
500.97	1369.21
501.14	1345.81
501.32	1366.87
501.49	1420.71
501.67	1362.19
501.84	1481.56
502.02	1366.87
502.20	1453.47
502.37	1413.68
502.55	1366.87
502.72	1371.55
502.90	1448.79
503.07	1430.07
503.25	1409.00
503.43	1423.05
503.60	1406.66
503.78	1380.92
503.95	1336.45
504.13	1387.94
504.30	1411.34
504.48	1453.47
504.65	1488.58
504.83	1364.53
505.01	1474.54
505.18	1467.52
505.36	1439.43
505.53	1423.05
505.71	1453.47
505.88	1554.12
506.06	1413.68
506.23	1397.30
506.41	1483.90
506.58	1493.26
506.76	1423.05
506.93	1479.22
507.11	1451.13
507.28	1446.45
507.46	1544.75
507.63	1420.71
507.81	1500.28
507.98	1509.65
508.16	1514.33
508.33	1582.20
508.50	1589.22
508.68	1448.79
508.85	1495.60
509.03	1383.26
509.20	1502.62
509.38	1504.96
509.55	1605.61
509.73	1537.73
509.90	1476.88
510.08	1605.61
510.25	1521.35
510.42	1551.78
510.60	1610.29
510.77	1547.09
510.95	1572.84
511.12	1563.48
511.30	1612.63
511.47	1626.67
511.64	1621.99
511.82	1514.33
511.99	1591.56
512.17	1558.80
512.34	1624.33
512.51	1500.28
512.69	1568.16
512.86	1657.10
513.04	1661.78
513.21	1544.75
513.38	1659.44
513.56	1544.75
513.73	1629.01
513.90	1533.05
514.08	1650.08
514.25	1652.42
514.43	1586.88
514.60	1596.25
514.77	1671.14
514.95	1645.40
515.12	1537.73
515.29	1570.50
515.47	1671.14
515.64	1561.14
515.81	1739.02
515.99	1708.59
516.16	1605.61
516.33	1619.65
516.51	1605.61
516.68	1605.61
516.85	1666.46
517.03	1708.59
517.20	1734.34
517.37	1699.23
517.54	1631.35
517.72	1699.23
517.89	1682.85
518.06	1584.54
518.24	1771.79
518.41	1687.53
518.58	1671.14
518.75	1795.19
518.93	1769.44
519.10	1647.74
519.27	1839.66
519.45	1713.27
519.62	1673.48
519.79	1762.42
519.96	1703.91
520.14	1827.96
520.31	1816.26
520.48	1743.70
520.65	1804.55
520.83	1837.32
521.00	1717.95
521.17	1685.19
521.34	1703.91
521.52	1717.95
521.69	1776.47
521.86	1771.79
522.03	1732.00
522.20	1741.36
522.38	1837.32
522.55	1806.89
522.72	1727.32
522.89	1811.57
523.07	1834.98
523.24	1767.10
523.41	1797.53
523.58	1834.98
523.75	1764.76
523.92	1827.96
524.10	1846.68
524.27	1888.81
524.44	1830.30
524.61	1809.23
524.78	1720.29
524.96	1842.00
525.13	1757.74
525.30	1893.49
525.47	1846.68
525.64	1750.72
525.81	1717.95
525.98	1788.17
526.16	1834.98
526.33	1886.47
526.50	1816.26
526.67	1762.42
526.84	1813.92
527.01	1783.49
527.18	1870.09
527.36	1867.75
527.53	1792.85
527.70	1991.80
527.87	1832.64
528.04	1898.17
528.21	1865.41
528.38	1956.69
528.55	1942.64
528.72	1900.52
528.89	1975.41
529.07	1919.24
529.24	1935.62
529.41	1949.67
529.58	1837.32
529.75	1872.43
529.92	1909.88
530.09	1799.87
530.26	1788.17
530.43	1921.58
530.60	1825.62
530.77	1916.90
530.94	1947.33
531.11	1928.60
531.28	1975.41
531.46	1877.11
531.63	1959.03
531.80	1914.56
531.97	1940.30
532.14	1825.62
532.31	1996.48
532.48	1966.05
532.65	1944.99
532.82	1884.13
532.99	1980.09
533.16	1949.67
533.33	1959.03
533.50	1991.80
533.67	2036.27
533.84	2022.22
534.01	2022.22
534.18	1966.05
534.35	2017.54
534.52	1935.62
534.69	1926.26
534.86	2024.56
535.03	1921.58
535.20	1942.64
535.37	2071.37
535.54	2052.65
535.71	1994.14
535.88	2097.12
536.05	2054.99
536.22	1961.37
536.38	2031.58
536.55	2115.84
536.72	2087.76
536.89	2101.80
537.06	2078.40
537.23	2118.18
537.40	2022.22
537.57	2148.61
537.74	2097.12
537.91	2111.16
538.08	2076.06
538.25	2242.23
538.42	2118.18
538.59	2260.96
538.75	2047.97
538.92	2197.76
539.09	2160.31
539.26	2115.84
539.43	2244.57
539.60	2246.91
539.77	2270.32
539.94	2377.98
540.11	2345.22
540.28	2321.81
540.44	2544.16
540.61	2513.74
540.78	2511.39
540.95	2583.95
541.12	2768.85
541.29	2803.96
541.46	2829.71
541.62	3038.02
541.79	2904.60
541.96	2946.73
542.13	2949.08
542.30	2689.28
542.47	2736.09
542.63	2796.94
542.80	2897.58
542.97	2888.22
543.14	2829.71
543.31	2810.98
543.48	2825.03
543.64	2888.22
543.81	2909.29
543.98	2771.19
544.15	2874.18
544.32	2801.62
544.48	2796.94
544.65	2799.28
544.82	2799.28
544.99	2747.79
545.16	2827.37
545.32	2829.71
545.49	3361.01
545.66	4053.81
545.83	4552.34
546.00	4416.59
546.16	3531.87
546.33	3096.53
546.50	2745.45
546.67	2658.85
546.83	2581.61
547.00	2574.59
547.17	2497.35
547.34	2518.42
547.50	2576.93
547.67	2593.31
547.84	2504.37
548.00	2459.90
548.17	2551.18
548.34	2523.10
548.51	2511.39
548.67	2462.24
548.84	2541.82
549.01	2485.65
549.18	2429.48
549.34	2459.90
549.51	2333.51
549.68	2366.28
549.84	2361.60
550.01	2286.70
550.18	2427.14
550.34	2457.56
550.51	2347.56
550.68	2464.58
550.84	2319.47
551.01	2286.70
551.18	2314.79
551.34	2244.57
551.51	2279.68
551.68	2361.60
551.84	2312.45
552.01	2265.64
552.18	2291.38
552.34	2335.85
552.51	2197.76
552.68	2207.13
552.84	2307.77
553.01	2197.76
553.18	2354.58
553.34	2225.85
553.51	2267.98
553.67	2293.72
553.84	2305.43
554.01	2349.90
554.17	2195.42
554.34	2160.31
554.51	2195.42
554.67	2139.25
554.84	2143.93
555.00	2139.25
555.17	2129.89
555.33	2246.91
555.50	2134.57
555.67	2200.10
555.83	2054.99
556.00	2167.34
556.16	2338.20
556.33	2157.97
556.50	2244.57
556.66	2181.38
556.83	2118.18
556.99	2216.49
557.16	2223.51
557.32	2195.42
557.49	2221.17
557.65	2050.31
557.82	2085.42
557.98	2099.46
558.15	2207.13
558.32	2157.97
558.48	2244.57
558.65	2120.53
558.81	2200.10
558.98	2153.29
559.14	2045.63
559.31	2097.12
559.47	2160.31
559.64	2216.49
559.80	2200.10
559.97	2099.46
560.13	2078.40
560.30	2204.78
560.46	2153.29
560.63	2120.53
560.79	2125.21
560.96	2249.25
561.12	2195.42
561.29	2120.53
561.45	2094.78
561.61	2132.23
561.78	2249.25
561.94	2150.95
562.11	2202.44
562.27	2305.43
562.44	2230.53
562.60	2202.44
562.77	2286.70
562.93	2165.00
563.10	2113.50
563.26	2120.53
563.42	2214.15
563.59	2066.69
563.75	2211.81
563.92	2090.10
564.08	2167.34
564.24	2251.60
564.41	2026.90
564.57	2174.36
564.74	2207.13
564.90	2141.59
565.07	2090.10
565.23	2265.64
565.39	2193.08
565.56	2090.10
565.72	2127.55
565.88	2127.55
566.05	2033.93
566.21	2139.25
566.38	2256.28
566.54	2186.06
566.70	2209.47
566.87	2223.51
567.03	2225.85
567.19	2113.50
567.36	2134.57
567.52	2157.97
567.68	2223.51
567.85	2155.63
568.01	2134.57
568.17	2132.23
568.34	2120.53
568.50	2153.29
568.66	2050.31
568.83	2221.17
568.99	2162.66
569.15	2157.97
569.32	2169.68
569.48	2214.15
569.64	2239.89
569.81	2148.61
569.97	2132.23
570.13	2176.70
570.30	2157.97
570.46	2150.95
570.62	2106.48
570.78	2029.24
570.95	2202.44
571.11	2148.61
571.27	2282.02
571.43	2153.29
571.60	2101.80
571.76	2303.09
571.92	2200.10
572.09	2165.00
572.25	2120.53
572.41	2113.50
572.57	2092.44
572.74	2104.14
572.90	2085.42
573.06	2200.10
573.22	2214.15
573.38	2176.70
573.55	2157.97
573.71	2223.51
573.87	2174.36
574.03	2251.60
574.20	2136.91
574.36	2148.61
574.52	2169.68
574.68	2118.18
574.84	2225.85
575.01	2127.55
575.17	2162.66
575.33	2190.74
575.49	2195.42
575.65	2172.02
575.82	2139.25
575.98	2218.83
576.14	2155.63
576.30	2244.57
576.46	2305.43
576.62	2555.86
576.79	2544.16
576.95	2518.42
577.11	2389.69
577.27	2237.55
577.43	2141.59
577.59	2193.08
577.75	2242.23
577.92	2200.10
578.08	2125.21
578.24	2176.70
578.40	2331.17
578.56	2452.88
578.72	2527.78
578.88	2579.27
579.04	2597.99
579.21	2275.00
579.37	2260.96
579.53	2251.60
579.69	2237.55
579.85	2275.00
580.01	2324.15
580.17	2331.17
580.33	2347.56
580.49	2347.56
580.65	2218.83
580.82	2246.91
580.98	2218.83
581.14	2321.81
581.30	2307.77
581.46	2141.59
581.62	2328.83
581.78	2275.00
581.94	2263.30
582.10	2289.04
582.26	2272.66
582.42	2225.85
582.58	2298.41
582.74	2253.94
582.90	2258.62
583.06	2256.28
583.22	2326.49
583.38	2363.94
583.54	2314.79
583.70	2516.08
583.86	2249.25
584.02	2263.30
584.18	2490.33
584.34	2356.92
584.50	2270.32
584.66	2354.58
584.82	2195.42
584.98	2237.55
585.14	2232.87
585.30	2232.87
585.46	2314.79
585.62	2228.19
585.78	2289.04
585.94	2382.67
586.10	2160.31
586.26	2300.75
586.42	2249.25
586.58	2406.07
586.74	2228.19
586.90	2476.29
587.06	2520.76
587.22	2420.11
587.38	2385.01
587.54	2363.94
587.70	2399.05
587.86	2326.49
588.02	2141.59
588.18	2209.47
588.34	2228.19
588.49	2263.30
588.65	2190.74
588.81	2265.64
588.97	2270.32
589.13	2195.42
589.29	2188.40
589.45	2314.79
589.61	2218.83
589.77	2303.09
589.93	2265.64
590.08	2202.44
590.24	2139.25
590.40	2251.60
590.56	2211.81
590.72	2242.23
590.88	2200.10
591.04	2190.74
591.20	2331.17
591.35	2305.43
591.51	2354.58
591.67	2256.28
591.83	2279.68
591.99	2328.83
592.15	2300.75
592.31	2317.13
592.46	2282.02
592.62	2480.97
592.78	2345.22
592.94	2403.73
593.10	2359.26
593.26	2345.22
593.41	2326.49
593.57	2317.13
593.73	2235.21
593.89	2333.51
594.05	2300.75
594.20	2150.95
594.36	2246.91
594.52	2310.11
594.68	2338.20
594.84	2108.82
594.99	2188.40
595.15	2289.04
595.31	2232.87
595.47	2326.49
595.62	2312.45
595.78	2169.68
595.94	2183.72
596.10	2263.30
596.25	2167.34
596.41	2141.59
596.57	2296.07
596.73	2291.38
596.88	2214.15
597.04	2218.83
597.20	2195.42
597.36	2190.74
597.51	2195.42
597.67	2209.47
597.83	2221.17
597.99	2312.45
598.14	2246.91
598.30	2277.34
598.46	2282.02
598.61	2160.31
598.77	2286.70
598.93	2300.75
599.09	2249.25
599.24	2317.13
599.40	2317.13
599.56	2258.62
599.71	2244.57
599.87	2209.47
600.03	2225.85
600.18	2246.91
600.34	2253.94
600.50	2251.60
600.65	2183.72
600.81	2235.21
600.97	2183.72
601.12	2183.72
601.28	2300.75
601.44	2118.18
601.59	2155.63
601.75	2167.34
601.91	2186.06
602.06	2214.15
602.22	2244.57
602.37	2176.70
602.53	2190.74
602.69	2104.14
602.84	2314.79
603.00	2057.33
603.16	2087.76
603.31	2129.89
