SpectraSuite Data File
++++++++++++++++++++++++++++++++++++
Date: Tue Oct 01 18:27:28 GMT-05:00 2013
User: stostad
Dark Spectrum Present: No
Reference Spectrum Present: No
Number of Sampled Component Spectra: 1
Spectrometers: USB2+H05261
Integration Time (usec): 100000 (USB2+H05261)
Spectra Averaged: 1 (USB2+H05261)
Boxcar Smoothing: 0 (USB2+H05261)
Correct for Electrical Dark: No (USB2+H05261)
Strobe/Lamp Enabled: No (USB2+H05261)
Correct for Detector Non-linearity: No (USB2+H05261)
Correct for Stray Light: No (USB2+H05261)
Number of Pixels in Processed Spectrum: 2048
>>>>>Begin Processed Spectral Data<<<<<
365.73	42.13
365.92	42.13
366.12	42.13
366.32	44.47
366.52	14.04
366.72	18.72
366.91	0.00
367.11	53.83
367.31	0.00
367.51	0.00
367.70	0.00
367.90	0.00
368.10	0.00
368.30	0.00
368.49	0.00
368.69	0.00
368.89	0.00
369.09	0.00
369.28	0.00
369.48	0.00
369.68	0.00
369.87	0.00
370.07	46.81
370.27	63.19
370.47	79.58
370.66	271.50
370.86	308.95
371.06	264.48
371.25	322.99
371.45	262.14
371.65	339.38
371.84	290.23
372.04	287.89
372.24	365.12
372.44	344.06
372.63	360.44
372.83	418.96
373.03	454.06
373.22	374.49
373.42	304.27
373.62	454.06
373.81	421.30
374.01	479.81
374.21	472.79
374.40	381.51
374.60	505.56
374.79	433.00
374.99	433.00
375.19	407.25
375.38	472.79
375.58	395.55
375.78	519.60
375.97	535.98
376.17	491.51
376.37	517.26
376.56	454.06
376.76	472.79
376.95	484.49
377.15	479.81
377.35	500.87
377.54	547.69
377.74	472.79
377.93	435.34
378.13	526.62
378.33	472.79
378.52	477.47
378.72	505.56
378.91	442.36
379.11	458.74
379.31	505.56
379.50	547.69
379.70	589.82
379.89	540.66
380.09	477.47
380.28	400.23
380.48	540.66
380.68	512.58
380.87	526.62
381.07	636.63
381.26	573.43
381.46	521.94
381.65	554.71
381.85	559.39
382.04	510.24
382.24	540.66
382.43	545.34
382.63	491.51
382.83	599.18
383.02	622.58
383.22	538.32
383.41	568.75
383.61	596.84
383.80	634.29
384.00	655.35
384.19	606.20
384.39	706.84
384.58	547.69
384.78	615.56
384.97	603.86
385.17	608.54
385.36	631.94
385.56	624.92
385.75	552.37
385.95	674.07
386.14	699.82
386.34	629.60
386.53	566.41
386.72	603.86
386.92	681.10
387.11	662.37
387.31	664.71
387.50	667.05
387.70	683.44
387.89	706.84
388.09	674.07
388.28	697.48
388.48	662.37
388.67	770.04
388.86	739.61
389.06	828.55
389.25	685.78
389.45	704.50
389.64	636.63
389.84	744.29
390.03	744.29
390.22	753.65
390.42	739.61
390.61	800.46
390.81	741.95
391.00	709.18
391.19	718.54
391.39	758.33
391.58	798.12
391.78	711.52
391.97	812.17
392.16	840.25
392.36	760.67
392.55	837.91
392.75	833.23
392.94	823.87
393.13	842.59
393.33	758.33
393.52	912.81
393.71	924.51
393.91	889.40
394.10	891.74
394.29	978.34
394.49	847.27
394.68	931.53
394.88	880.04
395.07	929.19
395.26	1008.77
395.46	954.94
395.65	966.64
395.84	966.64
396.04	1029.84
396.23	966.64
396.42	985.37
396.62	910.47
396.81	1029.84
397.00	1022.81
397.19	1022.81
397.39	1011.11
397.58	1100.05
397.77	936.21
397.97	997.07
398.16	1090.69
398.35	1090.69
398.55	1165.59
398.74	1060.26
398.93	1135.16
399.12	1130.48
399.32	1060.26
399.51	1128.14
399.70	1132.82
399.90	1043.88
400.09	1198.35
400.28	1231.12
400.47	1207.72
400.67	1242.82
400.86	1247.51
401.05	1289.64
401.24	1181.97
401.44	1299.00
401.63	1350.49
401.82	1320.06
402.01	1249.85
402.21	1240.48
402.40	1273.25
402.59	1362.19
402.78	1249.85
402.97	1249.85
403.17	1322.40
403.36	1427.73
403.55	1413.68
403.74	1359.85
403.93	1441.77
404.13	1467.52
404.32	1401.98
404.51	1413.68
404.70	1472.20
404.89	1341.13
405.09	1565.82
405.28	1605.61
405.47	1551.78
405.66	1605.61
405.85	1551.78
406.05	1526.03
406.24	1629.01
406.43	1645.40
406.62	1680.50
406.81	1774.13
407.00	1689.87
407.20	1682.85
407.39	1643.06
407.58	1809.23
407.77	1764.76
407.96	1774.13
408.15	1825.62
408.34	1795.19
408.54	1872.43
408.73	1743.70
408.92	1881.79
409.11	1853.70
409.30	1954.35
409.49	1930.94
409.68	1830.30
409.87	2008.18
410.07	2062.01
410.26	1989.46
410.45	2047.97
410.64	1905.20
410.83	2029.24
411.02	2033.93
411.21	2043.29
411.40	2134.57
411.59	2157.97
411.78	2054.99
411.98	2165.00
412.17	2162.66
412.36	2258.62
412.55	2324.15
412.74	2256.28
412.93	2197.76
413.12	2298.41
413.31	2389.69
413.50	2375.64
413.69	2394.37
413.88	2487.99
414.07	2434.16
414.26	2429.48
414.45	2502.03
414.64	2541.82
414.83	2452.88
415.02	2478.63
415.22	2579.27
415.41	2743.11
415.60	2605.02
415.79	2665.87
415.98	2745.45
416.17	2696.30
416.36	2738.43
416.55	2773.53
416.74	2724.38
416.93	2796.94
417.12	2881.20
417.31	2920.99
417.50	2958.44
417.69	3002.91
417.88	2960.78
418.07	2984.18
418.26	2951.42
418.45	3012.27
418.64	3220.58
418.83	3101.21
419.02	2942.05
419.21	3159.72
419.39	3023.97
419.58	3054.40
419.77	3173.77
419.96	3201.85
420.15	3117.59
420.34	3096.53
420.53	3033.33
420.72	3274.41
420.91	3262.71
421.10	3269.73
421.29	3351.65
421.48	3192.49
421.67	3452.29
421.86	3379.73
422.05	3351.65
422.24	3316.54
422.43	3353.99
422.61	3267.39
422.80	3454.63
422.99	3421.86
423.18	3442.93
423.37	3412.50
423.56	3461.65
423.75	3403.14
423.94	3452.29
424.13	3243.98
424.32	3318.88
424.50	3463.99
424.69	3604.42
424.88	3686.34
425.07	3517.83
425.26	3471.01
425.45	3421.86
425.64	3559.95
425.83	3492.08
426.01	3501.44
426.20	3569.32
426.39	3562.30
426.58	3494.42
426.77	3517.83
426.96	3576.34
427.15	3714.43
427.33	3747.20
427.52	3625.49
427.71	3660.60
427.90	3784.65
428.09	3712.09
428.28	3709.75
428.46	3756.56
428.65	3754.22
428.84	3798.69
429.03	3901.67
429.22	3801.03
429.40	3889.97
429.59	3936.78
429.78	3836.14
429.97	3744.86
430.16	3770.60
430.34	3964.87
430.53	4021.04
430.72	3908.69
430.91	3896.99
431.10	4035.08
431.28	4025.72
431.47	4145.09
431.66	4009.34
431.85	4088.92
432.03	4283.18
432.22	4243.39
432.41	4051.47
432.60	4229.35
432.79	4147.43
432.97	4285.52
433.16	4112.32
433.35	4184.88
433.54	4280.84
433.72	4297.22
433.91	4243.39
434.10	4404.89
434.28	4372.12
434.47	4400.21
434.66	4306.59
434.85	4493.83
435.03	4538.30
435.22	4234.03
435.41	4610.86
435.59	4447.02
435.78	4472.76
435.97	4566.39
436.16	4505.53
436.34	4463.40
436.53	4641.28
436.72	4690.43
436.90	4741.93
437.09	4655.33
437.28	4585.11
437.46	4791.08
437.65	4702.14
437.84	4711.50
438.02	4723.20
438.21	4636.60
438.40	4830.87
438.58	4954.91
438.77	4957.25
438.96	5125.77
439.14	5043.85
439.33	5043.85
439.52	5097.69
439.70	5036.83
439.89	5203.01
440.08	5259.18
440.26	5327.06
440.45	5193.65
440.63	5357.49
440.82	5252.16
441.01	5336.42
441.19	5493.24
441.38	5451.11
441.57	5425.36
441.75	5591.54
441.94	5652.39
442.12	5626.65
442.31	5767.08
442.50	5825.59
442.68	5643.03
442.87	5839.64
443.05	5659.42
443.24	5851.34
443.43	5668.78
443.61	6005.81
443.80	5996.45
443.98	5802.19
444.17	5671.12
444.35	5874.74
444.54	6099.44
444.73	5891.13
444.91	5919.21
445.10	5877.09
445.28	5923.90
445.47	6127.52
445.65	5980.07
445.84	5980.07
446.02	6066.67
446.21	5942.62
446.39	6005.81
446.58	5989.43
446.77	5970.71
446.95	5907.51
447.14	5888.79
447.32	6029.22
447.51	6040.92
447.69	5996.45
447.88	6113.48
448.06	6092.41
448.25	6050.28
448.43	5973.05
448.62	5998.79
448.80	6157.95
448.99	6258.59
449.17	6059.65
449.36	6186.04
449.54	6321.79
449.73	6284.34
449.91	6504.35
450.10	6392.00
450.28	6396.68
450.46	6553.50
450.65	6574.56
450.83	6553.50
451.02	6567.54
451.20	6502.01
451.39	6530.09
451.57	6637.76
451.76	6544.14
451.94	6703.29
452.13	6698.61
452.31	6616.69
452.49	6588.61
452.68	6670.53
452.86	6757.13
453.05	6679.89
453.23	6679.89
453.42	6637.76
453.60	6518.39
453.78	6789.89
453.97	6839.05
454.15	6822.66
454.34	6857.77
454.52	6927.99
454.70	7030.97
454.89	7089.48
455.07	7033.31
455.26	7075.44
455.44	6890.54
455.62	7063.74
455.81	7098.84
455.99	7220.55
456.17	7052.03
456.36	7169.06
456.54	7243.96
456.73	7335.24
456.91	7335.24
457.09	7382.05
457.28	7431.20
457.46	7365.67
457.64	7454.61
457.83	7571.63
458.01	7468.65
458.19	7648.87
458.38	7452.27
458.56	7791.64
458.74	7768.24
458.93	7730.79
459.11	7494.40
459.29	7620.78
459.48	7815.05
459.66	7770.58
459.84	7875.90
460.03	7981.23
460.21	7770.58
460.39	7793.98
460.57	7749.51
460.76	7981.23
460.94	7981.23
461.12	7906.33
461.31	8114.64
461.49	7983.57
461.67	7976.55
461.85	8170.81
462.04	8081.87
462.22	8549.98
462.40	8236.35
462.59	8138.04
462.77	8334.65
462.95	8271.45
463.13	8166.13
463.32	8269.11
463.50	8217.62
463.68	8311.24
463.86	8390.82
464.05	8468.06
464.23	8280.82
464.41	8388.48
464.59	8332.31
464.78	8779.35
464.96	8203.58
465.14	8496.14
465.32	8585.08
465.50	8638.92
465.69	8659.98
465.87	8636.58
466.05	8816.80
466.23	8851.91
466.41	8634.24
466.60	8844.88
466.78	8690.41
466.96	8674.03
467.14	8800.41
467.32	8929.14
467.51	8971.27
467.69	8784.03
467.87	8954.89
468.05	8823.82
468.23	8748.92
468.41	8947.87
468.60	8954.89
468.78	9172.56
468.96	9142.13
469.14	9268.52
469.32	9107.02
469.50	8933.82
469.69	9453.42
469.87	9357.46
470.05	9348.10
470.23	9352.78
470.41	9221.71
470.59	9394.91
470.77	9284.91
470.95	9528.32
471.14	9694.50
471.32	9533.00
471.50	9867.70
471.68	9614.92
471.86	9678.12
472.04	9851.31
472.22	9919.19
472.40	9720.24
472.58	9811.53
472.77	10022.17
472.95	10057.28
473.13	10410.70
473.31	9966.00
473.49	10155.58
473.67	9935.57
473.85	10171.97
474.03	10363.89
474.21	10443.47
474.39	10532.41
474.57	10427.09
474.75	10719.65
474.93	10801.57
475.12	10424.75
475.30	10754.76
475.48	10824.98
475.66	11068.39
475.84	10885.83
476.02	11084.78
476.20	10930.30
476.38	11066.05
476.56	11365.64
476.74	11342.24
476.92	11269.68
477.10	11241.59
477.28	11515.44
477.46	11433.52
477.64	11475.65
477.82	11971.84
478.00	12065.46
478.18	11988.22
478.36	12025.67
478.54	12262.07
478.72	12343.99
478.90	12362.71
479.08	12498.46
479.26	12648.26
479.44	12395.48
479.62	12769.96
479.80	12582.72
479.98	12961.89
480.16	13121.04
480.34	13032.10
480.52	13362.12
480.70	13252.11
480.88	13036.78
481.06	13420.63
481.24	13467.44
481.41	13371.48
481.59	13820.86
481.77	13994.06
481.95	13919.17
482.13	14061.94
482.31	13898.10
482.49	14246.84
482.67	14188.33
482.85	14656.43
483.03	14916.23
483.21	15012.20
483.39	14780.48
483.57	14991.13
483.74	15145.61
483.92	15180.71
484.10	15094.11
484.28	15365.62
484.46	15843.09
484.64	16063.10
484.82	15651.16
485.00	15833.72
485.18	16397.79
485.35	16533.54
485.53	16636.53
485.71	16421.20
485.89	16704.40
486.07	16578.01
486.25	16783.98
486.43	16854.20
486.61	16847.18
486.78	17343.37
486.96	17261.45
487.14	17795.09
487.32	17462.74
487.50	17621.89
487.68	17853.61
487.85	18080.64
488.03	18162.56
488.21	18457.46
488.39	18548.75
488.57	18464.49
488.75	18848.33
488.92	18974.72
489.10	19171.33
489.28	19419.42
489.46	19618.37
489.64	19255.59
489.81	19744.76
489.99	19730.72
490.17	19943.70
490.35	20119.24
490.53	20264.36
490.70	20189.46
490.88	20479.69
491.06	20437.56
491.24	20306.49
491.41	20816.72
491.59	21273.13
491.77	21036.74
491.95	21113.97
492.13	21455.69
492.30	21205.25
492.48	21329.30
492.66	21441.65
492.84	21839.54
493.01	21799.75
493.19	21762.30
493.37	22293.60
493.54	22022.10
493.72	22284.24
493.90	22625.96
494.08	22738.30
494.25	22555.74
494.43	22911.50
494.61	23049.60
494.79	23433.44
494.96	23346.84
495.14	23800.91
495.32	23669.84
495.49	23758.78
495.67	23971.77
495.85	23786.86
496.02	24283.06
496.20	24327.53
496.38	24584.99
496.55	24416.47
496.73	25060.12
496.91	24570.94
497.09	24975.86
497.26	24992.24
497.44	24854.15
497.62	25348.00
497.79	25678.02
497.97	25876.96
498.14	25692.06
498.32	26040.80
498.50	25771.64
498.67	25937.82
498.85	26171.87
499.03	26139.10
499.20	26675.09
499.38	26609.55
499.56	26923.18
499.73	26522.95
499.91	26597.85
500.08	27028.51
500.26	26984.04
500.44	26848.29
500.61	27117.45
500.79	27190.00
500.97	27346.82
501.14	27740.03
501.32	27365.54
501.49	27704.92
501.67	27768.12
501.84	27997.49
502.02	28297.08
502.20	27920.25
502.37	28364.95
502.55	28280.69
502.72	28166.01
502.90	28538.15
503.07	28620.07
503.25	28739.44
503.43	28577.94
503.60	28774.55
503.78	28732.42
503.95	28973.49
504.13	28964.13
504.30	29521.18
504.48	29191.16
504.65	29347.98
504.83	29537.56
505.01	29902.68
505.18	29628.84
505.36	30230.36
505.53	29998.65
505.71	30141.42
505.88	29982.26
506.06	29675.65
506.23	30525.27
506.41	30176.53
506.58	30377.81
506.76	30375.47
506.93	31009.76
507.11	30518.25
507.28	30834.22
507.46	30850.60
507.63	30888.05
507.81	31079.97
507.98	31063.59
508.16	31292.96
508.33	31089.34
508.50	31468.50
508.68	31424.03
508.85	31819.58
509.03	31901.50
509.20	31482.55
509.38	32156.62
509.55	32128.53
509.73	32037.25
509.90	32313.44
510.08	32465.57
510.25	32278.33
510.42	32194.07
510.60	32414.08
510.77	32680.90
510.95	32809.63
511.12	32624.73
511.30	32877.51
511.47	32929.00
511.64	33160.71
511.82	33362.00
511.99	33010.92
512.17	33441.57
512.34	33301.14
512.51	33970.54
512.69	33860.53
512.86	33816.06
513.04	34080.54
513.21	34099.26
513.38	34033.73
513.56	33996.28
513.73	34188.21
513.90	34321.62
514.08	34216.29
514.25	34740.57
514.43	34855.26
514.60	35283.58
514.77	34773.34
514.95	34485.45
515.12	34361.40
515.29	34235.02
515.47	35377.20
515.64	35433.37
515.81	35388.90
515.99	35180.59
516.16	35445.07
516.33	35377.20
516.51	35379.54
516.68	35662.74
516.85	35761.05
517.03	36222.13
517.20	36102.76
517.37	36144.89
517.54	35924.88
517.72	35906.16
517.89	35995.10
518.06	36402.35
518.24	36247.88
518.41	36318.09
518.58	36308.73
518.75	36105.10
518.93	36397.67
519.10	36552.15
519.27	36666.83
519.45	36900.89
519.62	36678.54
519.79	36863.44
519.96	37214.52
520.14	37326.86
520.31	36912.59
520.48	37919.02
520.65	37631.13
520.83	37853.48
521.00	37523.47
521.17	37846.46
521.34	37530.49
521.52	37958.81
521.69	37809.01
521.86	37661.56
522.03	37827.74
522.20	38227.97
522.38	38347.34
522.55	38209.25
522.72	39054.18
522.89	37986.89
523.07	38965.24
523.24	38403.51
523.41	38438.62
523.58	38433.94
523.75	38773.31
523.92	38906.73
524.10	39360.79
524.27	39007.37
524.44	39056.52
524.61	39316.32
524.78	39377.17
524.96	38831.83
525.13	39292.91
525.30	39742.30
525.47	39892.09
525.64	39613.57
525.81	39573.78
525.98	39686.12
526.16	39732.93
526.33	39941.24
526.50	39861.66
526.67	39983.37
526.84	40416.37
527.01	40362.54
527.18	39997.41
527.36	40629.36
527.53	40505.31
527.70	41179.39
527.87	40524.04
528.04	40612.98
528.21	40931.29
528.38	40699.58
528.55	40526.38
528.72	41050.66
528.89	40907.88
529.07	40535.74
529.24	40767.45
529.41	40980.44
529.58	40697.24
529.75	40870.43
529.92	41495.36
530.09	41317.48
530.26	41205.13
530.43	41411.10
530.60	41202.79
530.77	41357.27
530.94	41574.94
531.11	41486.00
531.28	41808.99
531.46	41923.68
531.63	41933.04
531.80	42014.96
531.97	41991.55
532.14	42246.67
532.31	42150.71
532.48	42471.36
532.65	42366.04
532.82	42223.26
532.99	42101.56
533.16	42197.52
533.33	42679.67
533.50	42719.46
533.67	42726.48
533.84	42239.65
534.01	42506.47
534.18	42714.78
534.35	43091.60
534.52	42979.26
534.69	43615.88
534.86	43002.66
535.03	42878.61
535.20	42822.44
535.37	42920.74
535.54	43091.60
535.71	42852.87
535.88	43405.23
536.05	43206.29
536.22	43386.51
536.38	43391.19
536.55	43421.62
536.72	43356.08
536.89	43037.77
537.06	44027.82
537.23	43842.92
537.40	43339.70
537.57	43548.01
537.74	43854.62
537.91	43992.71
538.08	43646.31
538.25	43489.49
538.42	43964.62
538.59	44203.36
538.75	43871.00
538.92	43964.62
539.09	44304.00
539.26	44240.81
539.43	44458.48
539.60	44538.05
539.77	44392.94
539.94	44477.20
540.11	44484.22
540.28	44662.10
540.44	45160.64
540.61	44678.49
540.78	44842.32
540.95	44666.78
541.12	44882.11
541.29	44465.50
541.46	44854.03
541.62	44879.77
541.79	45317.45
541.96	44762.75
542.13	44968.71
542.30	44952.33
542.47	45287.03
542.63	45226.17
542.80	44914.88
542.97	45574.91
543.14	45673.21
543.31	45675.55
543.48	45645.13
543.64	45769.18
543.81	46384.74
543.98	45851.09
544.15	45825.35
544.32	46089.83
544.48	46157.70
544.65	46131.96
544.82	45916.63
544.99	45815.99
545.16	46202.18
545.32	46192.81
545.49	46813.05
545.66	46761.56
545.83	46536.87
546.00	46515.81
546.16	46321.54
546.33	46129.62
546.50	46234.94
546.67	46595.38
546.83	46124.94
547.00	46590.70
547.17	46469.00
547.34	46728.80
547.50	46649.22
547.67	46719.43
547.84	46857.52
548.00	46796.67
548.17	47150.09
548.34	47086.90
548.51	47313.93
548.67	47337.33
548.84	46913.70
549.01	47334.99
549.18	46974.55
549.34	47086.90
549.51	47194.56
549.68	47236.69
549.84	47173.50
550.01	47103.28
550.18	47056.47
550.34	47835.87
550.51	46890.29
550.68	47154.77
550.84	47019.02
551.01	47269.46
551.18	47526.92
551.34	47833.53
551.51	47480.11
551.68	47955.24
551.84	47739.91
552.01	47524.58
552.18	47679.05
552.34	47573.73
552.51	47522.24
552.68	47728.20
552.84	48058.22
553.01	48172.91
553.18	48013.75
553.34	48051.20
553.51	47826.51
553.67	48151.84
553.84	48229.08
554.01	48425.68
554.17	48027.79
554.34	48072.26
554.51	48334.40
554.67	48821.23
554.84	48399.94
555.00	48664.42
555.17	48449.09
555.33	48346.11
555.50	48222.06
555.67	48332.06
555.83	48009.07
556.00	48617.61
556.16	48956.99
556.33	48547.39
556.50	48720.59
556.66	48973.37
556.83	48594.20
556.99	48846.98
557.16	48505.26
557.32	48795.49
557.49	48832.94
557.65	48470.15
557.82	48919.54
557.98	49249.55
558.15	49198.06
558.32	49624.04
558.48	49078.69
558.65	48905.49
558.81	49165.29
558.98	48971.03
559.14	48882.09
559.31	48868.05
559.47	49345.51
559.64	49193.38
559.80	49015.50
559.97	49289.34
560.13	48879.75
560.30	48629.31
560.46	49043.59
560.63	49193.38
560.79	49020.18
560.96	49556.16
561.12	49186.36
561.29	49579.57
561.45	49689.57
561.61	49392.33
561.78	49354.88
561.94	49359.56
562.11	49453.18
562.27	49296.36
562.44	49670.85
562.60	49675.53
562.77	49165.29
562.93	49624.04
563.10	49741.06
563.26	49663.83
563.42	49855.75
563.59	49268.28
563.75	49282.32
563.92	49600.63
564.08	49478.92
564.24	49839.37
564.41	49670.85
564.57	49752.77
564.74	49724.68
564.90	49675.53
565.07	49975.12
565.23	49776.17
565.39	49867.45
565.56	49642.76
565.72	49689.57
565.88	49844.05
566.05	50122.57
566.21	49750.43
566.38	49970.44
566.54	49621.70
566.70	50012.57
566.87	50068.74
567.03	49853.41
567.19	50066.40
567.36	49668.51
567.52	49771.49
567.68	50293.43
567.85	49930.65
568.01	50103.85
568.17	49830.01
568.34	50089.80
568.50	49729.36
568.66	49605.31
568.83	49687.23
568.99	49785.54
569.15	49869.79
569.32	50347.26
569.48	49738.72
569.64	50351.94
569.81	50012.57
569.97	50281.73
570.13	50171.72
570.30	49911.92
570.46	49591.27
570.62	50113.21
570.78	50033.63
570.95	50129.59
571.11	50389.39
571.27	50110.87
571.43	50251.30
571.60	50300.45
571.76	50052.36
571.92	50106.19
572.09	49911.92
572.25	50365.99
572.41	50415.14
572.57	50314.50
572.74	50515.78
572.90	50405.78
573.06	50541.53
573.22	50134.28
573.38	50475.99
573.55	50241.94
573.71	50321.52
573.87	50581.32
574.03	50288.75
574.20	50183.43
574.36	50225.56
574.52	50141.30
574.68	50370.67
574.84	50485.36
575.01	50443.23
575.17	50569.61
575.33	50206.83
575.49	49965.76
575.65	50595.36
575.82	50270.03
575.98	50307.47
576.14	50506.42
576.30	50475.99
576.46	50557.91
576.62	50557.91
576.79	50459.61
576.95	50365.99
577.11	50234.92
577.27	50244.28
577.43	50384.71
577.59	50452.59
577.75	50223.22
577.92	50347.26
578.08	50279.39
578.24	50403.44
578.40	50396.42
578.56	50569.61
578.72	50309.82
578.88	50426.84
579.04	50270.03
579.21	50403.44
579.37	50710.05
579.53	50696.00
579.69	50569.61
579.85	50836.44
580.01	50532.17
580.17	50763.88
580.33	50911.33
580.49	50454.93
580.65	50457.27
580.82	50319.18
580.98	50490.04
581.14	50160.02
581.30	51063.47
581.46	50637.49
581.62	50562.59
581.78	50663.24
581.94	50871.54
582.10	49965.76
582.26	50752.18
582.42	50712.39
582.58	50466.63
582.74	50464.29
582.90	50438.54
583.06	50803.67
583.22	50553.23
583.38	50923.04
583.54	50986.23
583.70	50787.28
583.86	50410.46
584.02	50237.26
584.18	51100.92
584.34	50766.22
584.50	50747.50
584.66	50588.34
584.82	50417.48
584.98	50834.10
585.14	51028.36
585.30	50660.90
585.46	50679.62
585.62	50951.12
585.78	50965.17
585.94	50417.48
586.10	50761.54
586.26	50255.98
586.42	50698.34
586.58	50831.75
586.74	50630.47
586.90	50731.11
587.06	50817.71
587.22	50827.07
587.38	50775.58
587.54	51332.63
587.70	50803.67
587.86	50763.88
588.02	50794.31
588.18	50913.67
588.34	50925.38
588.49	50831.75
588.65	50567.27
588.81	50777.92
588.97	51393.48
589.13	51002.61
589.29	50876.22
589.45	51051.76
589.61	50925.38
589.77	51309.22
589.93	50955.80
590.08	50944.10
590.24	51070.49
590.40	51105.60
590.56	51341.99
