SpectraSuite Data File
++++++++++++++++++++++++++++++++++++
Date: Fri Oct 04 11:40:01 GMT-05:00 2013
User: price-jones
Dark Spectrum Present: No
Reference Spectrum Present: No
Number of Sampled Component Spectra: 1
Spectrometers: USB2+H05261
Integration Time (usec): 100000 (USB2+H05261)
Spectra Averaged: 1 (USB2+H05261)
Boxcar Smoothing: 0 (USB2+H05261)
Correct for Electrical Dark: No (USB2+H05261)
Strobe/Lamp Enabled: No (USB2+H05261)
Correct for Detector Non-linearity: No (USB2+H05261)
Correct for Stray Light: No (USB2+H05261)
Number of Pixels in Processed Spectrum: 2048
>>>>>Begin Processed Spectral Data<<<<<
365.73	4.68
365.92	4.68
366.12	4.68
366.32	0.00
366.52	4.68
366.72	21.06
366.91	0.00
367.11	0.00
367.31	0.00
367.51	0.00
367.70	0.00
367.90	21.06
368.10	0.00
368.30	0.00
368.49	0.00
368.69	30.43
368.89	0.00
369.09	0.00
369.28	0.00
369.48	0.00
369.68	16.38
369.87	28.09
370.07	107.66
370.27	84.26
370.47	194.26
370.66	571.09
370.86	631.94
371.06	716.20
371.25	746.63
371.45	664.71
371.65	826.21
371.84	690.46
372.04	720.88
372.24	763.01
372.44	795.78
372.63	821.53
372.83	856.64
373.03	833.23
373.22	788.76
373.42	807.48
373.62	858.98
373.81	875.36
374.01	896.43
374.21	873.02
374.40	926.85
374.60	844.93
374.79	889.40
374.99	957.28
375.19	877.70
375.38	999.41
375.58	889.40
375.78	1020.47
375.97	983.02
376.17	1004.09
376.37	952.60
376.56	994.73
376.76	936.21
376.95	1020.47
377.15	1046.22
377.35	999.41
377.54	968.98
377.74	1076.65
377.93	1088.35
378.13	1121.12
378.33	1043.88
378.52	1041.54
378.72	1041.54
378.91	1121.12
379.11	1144.52
379.31	1128.14
379.50	1057.92
379.70	1135.16
379.89	1217.08
380.09	1179.63
380.28	1139.84
380.48	1233.46
380.68	1172.61
380.87	1114.10
381.07	1254.53
381.26	1240.48
381.46	1165.59
381.65	1240.48
381.85	1287.29
382.04	1238.14
382.24	1296.66
382.43	1266.23
382.63	1299.00
382.83	1350.49
383.02	1404.32
383.22	1306.02
383.41	1359.85
383.61	1430.07
383.80	1409.00
384.00	1409.00
384.19	1322.40
384.39	1444.11
384.58	1404.32
384.78	1380.92
384.97	1472.20
385.17	1472.20
385.36	1523.69
385.56	1437.09
385.75	1451.13
385.95	1444.11
386.14	1519.01
386.34	1572.84
386.53	1568.16
386.72	1561.14
386.92	1694.55
387.11	1598.59
387.31	1600.93
387.50	1547.09
387.70	1584.54
387.89	1636.03
388.09	1617.31
388.28	1685.19
388.48	1607.95
388.67	1603.27
388.86	1675.82
389.06	1666.46
389.25	1596.25
389.45	1617.31
389.64	1753.06
389.84	1650.08
390.03	1811.57
390.22	1837.32
390.42	1694.55
390.61	1717.95
390.81	1790.51
391.00	1750.72
391.19	1792.85
391.39	1774.13
391.58	1830.30
391.78	1863.07
391.97	1877.11
392.16	1776.47
392.36	2059.67
392.55	1865.41
392.75	1956.69
392.94	1898.17
393.13	2017.54
393.33	2057.33
393.52	1984.77
393.71	2026.90
393.91	2054.99
394.10	2092.44
394.29	2054.99
394.49	2083.08
394.68	2146.27
394.88	2108.82
395.07	2150.95
395.26	2043.29
395.46	2167.34
395.65	2303.09
395.84	2195.42
396.04	2338.20
396.23	2354.58
396.42	2345.22
396.62	2338.20
396.81	2401.39
397.00	2385.01
397.19	2340.54
397.39	2342.88
397.58	2382.67
397.77	2429.48
397.97	2385.01
398.16	2422.45
398.35	2413.09
398.55	2593.31
398.74	2490.33
398.93	2579.27
399.12	2555.86
399.32	2420.11
399.51	2597.99
399.70	2607.36
399.90	2626.08
400.09	2715.02
400.28	2679.91
400.47	2743.11
400.67	2794.60
400.86	2712.68
401.05	2813.32
401.24	2808.64
401.44	2949.08
401.63	2911.63
401.82	2775.88
402.01	2911.63
402.21	2836.73
402.40	2951.42
402.59	2981.84
402.78	2885.88
402.97	2827.37
403.17	2986.52
403.36	3063.76
403.55	3026.31
403.74	3126.96
403.93	3112.91
404.13	3164.40
404.32	3105.89
404.51	3220.58
404.70	3342.28
404.89	3220.58
405.09	3325.90
405.28	3185.47
405.47	3260.37
405.66	3335.26
405.85	3461.65
406.05	3335.26
406.24	3414.84
406.43	3419.52
406.62	3475.70
406.81	3733.15
407.00	3541.23
407.20	3496.76
407.39	3496.76
407.58	3606.77
407.77	3641.87
407.96	3782.31
408.15	3758.90
408.34	3768.26
408.54	3721.45
408.73	3742.52
408.92	3845.50
409.11	3838.48
409.30	3847.84
409.49	3936.78
409.68	4023.38
409.87	3955.51
410.07	4086.58
410.26	3976.57
410.45	4170.83
410.64	4060.83
410.83	4135.73
411.02	4009.34
411.21	4187.22
411.40	4180.20
411.59	4432.97
411.78	4386.16
411.98	4418.93
412.17	4484.47
412.36	4475.10
412.55	4561.70
412.74	4575.75
412.93	4617.88
413.12	4521.92
413.31	4800.44
413.50	4774.69
413.69	4711.50
413.88	4999.38
414.07	4856.61
414.26	4919.81
414.45	5050.88
414.64	5018.11
414.83	5165.56
415.02	5144.50
415.22	5174.92
415.41	5327.06
415.60	5249.82
415.79	5465.15
415.98	5348.12
416.17	5420.68
416.36	5397.28
416.55	5495.58
416.74	5528.35
416.93	5348.12
417.12	5701.54
417.31	5600.90
417.50	5727.29
417.69	5884.11
417.88	5975.39
418.07	5900.49
418.26	5884.11
418.45	5863.04
418.64	6010.50
418.83	6115.82
419.02	6150.93
419.21	6106.46
419.39	6169.65
419.58	6127.52
419.77	6111.14
419.96	6296.04
420.15	6312.42
420.34	6216.46
420.53	6375.62
420.72	6469.24
420.91	6523.07
421.10	6443.49
421.29	6665.85
421.48	6305.40
421.67	6588.61
421.86	6445.84
422.05	6799.26
422.24	6691.59
422.43	6576.91
422.61	6815.64
422.80	6801.60
422.99	6946.71
423.18	6808.62
423.37	6778.19
423.56	6586.27
423.75	6747.76
423.94	6761.81
424.13	6122.84
424.32	6427.11
424.50	6998.20
424.69	7035.65
424.88	7098.84
425.07	6792.23
425.26	6693.93
425.45	6911.60
425.64	6923.30
425.83	6935.01
426.01	7126.93
426.20	7021.61
426.39	7183.10
426.58	6920.96
426.77	7009.90
426.96	7131.61
427.15	7187.79
427.33	7204.17
427.52	7187.79
427.71	7356.30
427.90	7473.33
428.09	7470.99
428.28	7396.09
428.46	7307.15
428.65	7667.60
428.84	7571.63
429.03	7714.41
429.22	7428.86
429.40	7854.84
429.59	7653.55
429.78	7424.18
429.97	7377.37
430.16	7410.14
430.34	7728.45
430.53	7920.37
430.72	7845.48
430.91	7875.90
431.10	7857.18
431.28	8023.36
431.47	8149.75
431.66	8013.99
431.85	7978.89
432.03	8058.46
432.22	8173.15
432.41	8112.30
432.60	8442.31
432.79	8435.29
432.97	8248.05
433.16	8439.97
433.35	8369.76
433.54	8667.00
433.72	8507.85
433.91	8271.45
434.10	8617.85
434.28	8454.02
434.47	8535.93
434.66	8631.90
434.85	8835.52
435.03	9020.42
435.22	9186.60
435.41	9476.83
435.59	9277.88
435.78	9123.41
435.97	9158.52
436.16	8980.64
436.34	9025.11
436.53	9233.41
436.72	9432.36
436.90	9025.11
437.09	9359.80
437.28	9184.26
437.46	9202.99
437.65	9181.92
437.84	9406.61
438.02	9476.83
438.21	9446.40
438.40	9537.68
438.58	9724.93
438.77	9841.95
438.96	9792.80
439.14	9832.59
439.33	10083.03
439.52	9785.78
439.70	10186.01
439.89	10303.04
440.08	10150.90
440.26	10394.32
440.45	10436.45
440.63	10729.02
440.82	10654.12
441.01	10635.39
441.19	10698.59
441.38	10768.80
441.57	10885.83
441.75	10967.75
441.94	11030.94
442.12	11063.71
442.31	11377.34
442.50	11201.80
442.68	11290.74
442.87	11082.44
443.05	11363.30
443.24	11595.01
443.43	11534.16
443.61	11812.68
443.80	11957.80
443.98	11611.40
444.17	11236.91
444.35	11784.60
444.54	11742.47
444.73	11838.43
444.91	11733.11
445.10	11789.28
445.28	11660.55
445.47	11695.66
445.65	11676.93
445.84	12044.40
446.02	12025.67
446.21	12051.42
446.39	11702.68
446.58	12088.87
446.77	12025.67
446.95	11758.85
447.14	11999.93
447.32	12016.31
447.51	12020.99
447.69	11899.28
447.88	12215.26
448.06	11934.39
448.25	12060.78
448.43	12212.92
448.62	12058.44
448.80	12138.02
448.99	12372.07
449.17	12472.71
449.36	12236.32
449.54	12538.25
449.73	12709.11
449.91	12734.85
450.10	12723.15
450.28	12580.38
450.46	12919.76
450.65	12908.05
450.83	13085.94
451.02	12938.48
451.20	13025.08
451.39	12926.78
451.57	12828.48
451.76	13036.78
451.94	13111.68
452.13	13266.16
452.31	13006.36
452.49	13116.36
452.68	13109.34
452.86	13097.64
453.05	13329.35
453.23	13472.12
453.42	13291.90
453.60	13273.18
453.78	13378.50
453.97	13291.90
454.15	13577.45
454.34	13518.93
454.52	13563.40
454.70	13628.94
454.89	14071.30
455.07	13858.31
455.26	13968.32
455.44	14253.86
455.62	14066.62
455.81	13984.70
455.99	14354.51
456.17	14113.43
456.36	14452.81
456.54	14897.51
456.73	14721.97
456.91	14949.00
457.09	15035.60
457.28	15124.54
457.46	14319.40
457.64	14988.79
457.83	14963.04
458.01	14890.49
458.19	15236.89
458.38	15187.74
458.56	15651.16
458.74	15295.40
458.93	15260.29
459.11	15290.72
459.29	15194.76
459.48	15625.42
459.66	15445.20
459.84	15634.78
460.03	15770.53
460.21	15672.23
460.39	15995.22
460.57	15585.63
460.76	15934.37
460.94	16327.58
461.12	15988.20
461.31	15978.84
461.49	15929.69
461.67	16067.78
461.85	16304.17
462.04	16507.80
462.22	16816.75
462.40	16285.45
462.59	16219.91
462.77	16449.28
462.95	16751.21
463.13	16510.14
463.32	16893.99
463.50	16748.87
463.68	16709.08
463.86	16676.32
464.05	16629.51
464.23	16737.17
464.41	16959.52
464.59	16744.19
464.78	17034.42
464.96	16919.73
465.14	16982.93
465.32	17404.22
465.50	17628.92
465.69	17645.30
465.87	17441.67
466.05	17387.84
466.23	17050.80
466.41	17591.47
466.60	18157.88
466.78	17301.24
466.96	17263.79
467.14	17809.14
467.32	17628.92
467.51	18031.49
467.69	17432.31
467.87	17888.71
468.05	18225.75
468.23	17914.46
468.41	18017.44
468.60	18038.51
468.78	18490.23
468.96	18068.94
469.14	18153.20
469.32	18429.38
469.50	17916.80
469.69	18691.52
469.87	18991.11
470.05	18831.95
470.23	18911.53
470.41	18799.18
470.59	19012.17
470.77	18867.06
470.95	19014.51
471.14	19295.38
471.32	19363.25
471.50	19433.47
471.68	19697.95
471.86	19789.23
472.04	19735.40
472.22	20236.27
472.40	19882.85
472.58	20266.70
472.77	20088.82
472.95	20105.20
473.13	20814.38
473.31	20236.27
473.49	20346.28
473.67	20456.28
473.85	20765.23
474.03	20973.54
474.21	21020.35
474.39	21322.28
474.57	21212.28
474.75	21518.89
474.93	21745.92
475.12	21542.29
475.30	21844.22
475.48	21575.06
475.66	22008.06
475.84	22066.57
476.02	22590.85
476.20	22094.66
476.38	22581.49
476.56	23094.07
476.74	22920.87
476.92	22991.08
477.10	22955.97
477.28	23639.41
477.46	23585.58
477.64	23461.53
477.82	23983.47
478.00	24425.83
478.18	24292.42
478.36	24364.98
478.54	24760.53
478.72	25256.72
478.90	25029.69
479.08	25294.17
479.26	25607.80
479.44	25486.09
479.62	26052.50
479.80	26087.61
479.98	26448.05
480.16	26583.80
480.34	26712.53
480.52	26862.33
480.70	27227.45
480.88	26766.37
481.06	27431.08
481.24	27033.19
481.41	27367.88
481.59	27908.55
481.77	28596.67
481.95	28601.35
482.13	28830.72
482.31	28659.86
482.49	28884.55
482.67	29394.79
482.85	29535.22
483.03	29949.50
483.21	29900.34
483.39	30555.69
483.57	30235.04
483.74	30693.79
483.92	31061.25
484.10	30817.83
484.28	31456.80
484.46	31871.07
484.64	32659.84
484.82	32013.85
485.00	32346.20
485.18	33064.75
485.35	33474.34
485.53	33621.80
485.71	33380.72
485.89	34366.09
486.07	34160.12
486.25	34284.17
486.43	34511.20
486.61	34696.10
486.78	34733.55
486.96	35098.67
487.14	35676.79
487.32	36392.99
487.50	35849.99
487.68	36119.15
487.85	36833.01
488.03	37097.49
488.21	37610.07
488.39	37546.87
488.57	38436.28
488.75	38244.35
488.92	38677.35
489.10	38759.27
489.28	38632.88
489.46	39409.94
489.64	39269.51
489.81	40369.56
489.99	39887.41
490.17	40313.39
490.35	40603.61
490.53	41022.57
490.70	41214.49
490.88	41113.85
491.06	41394.71
491.24	41483.66
491.41	42052.41
491.59	42726.48
491.77	42440.93
491.95	43143.09
492.13	43225.01
492.30	43480.13
492.48	43227.35
492.66	43625.25
492.84	43798.44
493.01	44280.60
493.19	44470.18
493.37	44989.78
493.54	44524.01
493.72	45324.47
493.90	45052.97
494.08	45357.24
494.25	46106.21
494.43	46265.37
494.61	46831.78
494.79	46684.33
494.96	46735.82
495.14	47232.01
495.32	47428.62
495.49	47646.29
495.67	47767.99
495.85	47934.17
496.02	48303.98
496.20	48472.49
496.38	48364.83
496.55	48563.78
496.73	49282.32
496.91	49027.20
497.09	49382.96
497.26	50042.99
497.44	49586.59
497.62	49530.42
497.79	50190.45
497.97	50131.93
498.14	50857.50
498.32	50564.93
498.50	50897.29
498.67	51114.96
498.85	50918.35
499.03	51311.56
499.20	51351.35
499.38	51540.94
499.56	51667.33
499.73	52013.73
499.91	52083.94
500.08	52369.49
500.26	51934.15
500.44	52355.44
500.61	52313.31
500.79	52233.74
500.97	52680.78
501.14	53064.63
501.32	52882.06
501.49	53052.92
501.67	52889.09
501.84	52985.05
502.02	53219.10
502.20	53418.05
502.37	53612.31
502.55	53565.50
502.72	53862.75
502.90	53776.15
503.07	53727.00
503.25	53895.52
503.43	53935.30
503.60	54410.43
503.78	54602.36
503.95	54410.43
504.13	54623.42
504.30	54539.16
504.48	54522.78
504.65	54714.70
504.83	55007.27
505.01	55157.06
505.18	54901.95
505.36	55288.13
505.53	55318.56
505.71	55433.25
505.88	55150.04
506.06	55416.86
506.23	55828.80
506.41	55611.13
506.58	55730.50
506.76	55922.42
506.93	55917.74
507.11	55934.12
507.28	56189.24
507.46	56465.42
507.63	56339.04
507.81	56598.83
507.98	56273.50
508.16	56301.59
508.33	56439.68
508.50	56671.39
508.68	56788.42
508.85	57055.24
509.03	57003.75
509.20	57176.95
509.38	57230.78
509.55	57373.55
509.73	57446.11
509.90	57511.64
510.08	57319.72
510.25	57429.72
510.42	57476.54
510.60	57773.78
510.77	58066.35
510.95	57954.00
511.12	57762.08
511.30	57738.68
511.47	58169.33
511.64	58298.06
511.82	58389.34
511.99	58099.12
512.17	58557.86
512.34	58494.67
512.51	58443.18
512.69	58443.18
512.86	58539.14
513.04	58871.49
513.21	59030.65
513.38	58869.15
513.56	59185.13
513.73	58728.72
513.90	59032.99
514.08	58930.01
514.25	59245.98
514.43	59243.64
514.60	59250.66
514.77	59414.50
514.95	59625.15
515.12	59323.22
515.29	59566.63
515.47	59786.64
515.64	59852.18
515.81	59788.98
515.99	59840.48
516.16	60004.31
516.33	60102.62
516.51	60156.45
516.68	59955.16
516.85	60023.04
517.03	60184.54
517.20	60505.19
517.37	60514.55
517.54	60537.96
517.72	60315.61
517.89	60470.08
518.06	60320.29
518.24	60500.51
518.41	60486.46
518.58	60713.50
518.75	60547.32
518.93	60954.57
519.10	60907.76
519.27	61055.21
519.45	60959.25
519.62	60879.67
519.79	60966.27
519.96	61085.64
520.14	61366.51
520.31	61052.87
520.48	61354.80
520.65	61228.41
520.83	61635.67
521.00	61392.25
521.17	61476.51
521.34	61432.04
521.52	61691.84
521.69	61703.54
521.86	61778.44
522.03	61893.13
522.20	61766.74
522.38	62007.81
522.55	61911.85
522.72	61937.60
522.89	61897.81
523.07	62225.48
523.24	62052.28
523.41	62295.70
523.58	62169.31
523.75	62424.43
523.92	62164.63
524.10	62246.55
524.27	62452.51
524.44	62431.45
524.61	62649.12
524.78	62714.65
524.96	62618.69
525.13	62892.54
525.30	62794.23
525.47	62815.30
525.64	62789.55
525.81	62918.28
525.98	62960.41
526.16	62948.71
526.33	62934.66
526.50	63084.46
526.67	62857.43
526.84	63098.50
527.01	63140.63
527.18	63173.40
527.36	63419.16
527.53	63217.87
527.70	63697.68
527.87	63463.63
528.04	63428.52
528.21	63501.07
528.38	63578.31
528.55	63456.60
528.72	63608.74
528.89	63781.94
529.07	63667.25
529.24	63728.11
529.41	63693.00
529.58	63702.36
529.75	63704.70
529.92	63922.37
530.09	63758.53
530.26	63887.26
530.43	64039.40
530.60	63999.61
530.77	63922.37
530.94	64406.86
531.11	63987.91
531.28	64006.63
531.46	64140.04
531.63	64165.79
531.80	64472.40
531.97	64353.03
532.14	64470.06
532.31	64383.46
532.48	64488.78
532.65	64551.98
532.82	64285.15
532.99	64537.93
533.16	64390.48
533.33	64739.22
533.50	64856.24
533.67	64814.12
533.84	64701.77
534.01	64652.62
534.18	64645.60
534.35	64952.21
534.52	64746.24
534.69	65132.43
534.86	64872.63
535.03	64722.83
535.20	64975.61
535.37	65073.91
535.54	65167.54
535.71	64830.50
535.88	65104.34
536.05	65085.62
536.22	65310.31
536.38	65317.33
536.55	65396.91
536.72	65305.63
536.89	65167.54
537.06	65228.39
537.23	65394.57
537.40	65186.26
537.57	65275.20
537.74	65352.44
537.91	65535.00
538.08	65535.00
538.25	65420.31
538.42	65535.00
538.59	65535.00
538.75	65462.44
538.92	65535.00
539.09	65535.00
539.26	65535.00
539.43	65535.00
539.60	65535.00
539.77	65535.00
539.94	65535.00
540.11	65535.00
540.28	65535.00
540.44	65535.00
540.61	65535.00
540.78	65535.00
540.95	65535.00
541.12	65535.00
541.29	65535.00
541.46	65535.00
541.62	65535.00
541.79	65535.00
541.96	65535.00
542.13	65535.00
542.30	65535.00
542.47	65535.00
542.63	65535.00
542.80	65535.00
542.97	65535.00
543.14	65535.00
543.31	65535.00
543.48	65535.00
543.64	65535.00
543.81	65535.00
543.98	65535.00
544.15	65535.00
544.32	65535.00
544.48	65535.00
544.65	65535.00
544.82	65535.00
544.99	65535.00
545.16	65535.00
545.32	65535.00
545.49	65535.00
545.66	65535.00
545.83	65535.00
546.00	65535.00
546.16	65535.00
546.33	65535.00
546.50	65535.00
546.67	65535.00
546.83	65535.00
547.00	65535.00
547.17	65535.00
547.34	65535.00
547.50	65535.00
547.67	65535.00
547.84	65535.00
548.00	65535.00
548.17	65535.00
548.34	65535.00
548.51	65535.00
548.67	65535.00
548.84	65535.00
549.01	65535.00
549.18	65535.00
549.34	65535.00
549.51	65535.00
549.68	65535.00
549.84	65535.00
550.01	65535.00
550.18	65535.00
550.34	65535.00
550.51	65535.00
550.68	65535.00
550.84	65535.00
551.01	65535.00
551.18	65535.00
551.34	65535.00
551.51	65535.00
551.68	65535.00
551.84	65535.00
552.01	65535.00
552.18	65535.00
552.34	65535.00
552.51	65535.00
552.68	65535.00
552.84	65535.00
553.01	65535.00
553.18	65535.00
553.34	65535.00
553.51	65535.00
553.67	65535.00
553.84	65535.00
554.01	65535.00
554.17	65535.00
554.34	65535.00
554.51	65535.00
554.67	65535.00
554.84	65535.00
555.00	65535.00
555.17	65535.00
555.33	65535.00
555.50	65535.00
555.67	65535.00
555.83	65535.00
556.00	65535.00
556.16	65535.00
556.33	65535.00
556.50	65535.00
556.66	65535.00
556.83	65535.00
556.99	65535.00
557.16	65535.00
557.32	65535.00
557.49	65535.00
557.65	65535.00
557.82	65535.00
557.98	65535.00
558.15	65535.00
558.32	65535.00
558.48	65535.00
558.65	65535.00
558.81	65535.00
558.98	65535.00
559.14	65535.00
559.31	65535.00
559.47	65535.00
559.64	65535.00
559.80	65535.00
559.97	65535.00
560.13	65535.00
560.30	65535.00
560.46	65535.00
560.63	65535.00
560.79	65535.00
560.96	65535.00
561.12	65535.00
561.29	65535.00
561.45	65535.00
561.61	65535.00
561.78	65535.00
561.94	65535.00
562.11	65535.00
562.27	65535.00
562.44	65535.00
562.60	65535.00
562.77	65535.00
562.93	65535.00
563.10	65535.00
563.26	65535.00
563.42	65535.00
563.59	65535.00
563.75	65535.00
563.92	65535.00
564.08	65535.00
564.24	65535.00
564.41	65535.00
564.57	65535.00
564.74	65535.00
564.90	65535.00
565.07	65535.00
565.23	65535.00
565.39	65535.00
565.56	65535.00
565.72	65535.00
565.88	65535.00
566.05	65535.00
566.21	65535.00
566.38	65535.00
566.54	65535.00
566.70	65535.00
566.87	65535.00
567.03	65535.00
567.19	65535.00
567.36	65535.00
567.52	65535.00
567.68	65535.00
567.85	65535.00
568.01	65535.00
568.17	65535.00
568.34	65535.00
568.50	65535.00
568.66	65535.00
568.83	65535.00
568.99	65535.00
569.15	65535.00
569.32	65535.00
569.48	65535.00
569.64	65535.00
569.81	65535.00
569.97	65535.00
570.13	65535.00
570.30	65535.00
570.46	65535.00
570.62	65535.00
570.78	65535.00
570.95	65535.00
571.11	65535.00
571.27	65535.00
571.43	65535.00
571.60	65535.00
571.76	65535.00
571.92	65535.00
572.09	65535.00
572.25	65535.00
572.41	65535.00
572.57	65535.00
572.74	65535.00
572.90	65535.00
573.06	65535.00
573.22	65535.00
573.38	65535.00
573.55	65535.00
573.71	65535.00
573.87	65535.00
574.03	65535.00
574.20	65535.00
574.36	65535.00
574.52	65535.00
574.68	65535.00
574.84	65535.00
575.01	65535.00
575.17	65535.00
575.33	65535.00
575.49	65535.00
575.65	65535.00
575.82	65535.00
575.98	65535.00
576.14	65535.00
576.30	65535.00
576.46	65535.00
576.62	65535.00
576.79	65535.00
576.95	65535.00
577.11	65535.00
577.27	65535.00
577.43	65535.00
577.59	65535.00
577.75	65535.00
577.92	65535.00
578.08	65535.00
578.24	65535.00
578.40	65535.00
578.56	65535.00
578.72	65535.00
578.88	65535.00
579.04	65535.00
579.21	65535.00
579.37	65535.00
579.53	65535.00
579.69	65535.00
579.85	65535.00
580.01	65535.00
580.17	65535.00
580.33	65535.00
580.49	65535.00
580.65	65535.00
580.82	65535.00
580.98	65535.00
581.14	65535.00
581.30	65535.00
581.46	65535.00
581.62	65535.00
581.78	65535.00
581.94	65535.00
582.10	65535.00
582.26	65535.00
582.42	65535.00
582.58	65535.00
582.74	65535.00
582.90	65535.00
583.06	65535.00
583.22	65535.00
583.38	65535.00
583.54	65535.00
583.70	65535.00
583.86	65535.00
584.02	65535.00
584.18	65535.00
584.34	65535.00
584.50	65535.00
584.66	65535.00
584.82	65535.00
584.98	65535.00
585.14	65535.00
585.30	65535.00
585.46	65535.00
585.62	65535.00
585.78	65535.00
585.94	65535.00
586.10	65535.00
586.26	65535.00
586.42	65535.00
586.58	65535.00
586.74	65535.00
586.90	65535.00
587.06	65535.00
587.22	65535.00
587.38	65535.00
587.54	65535.00
587.70	65535.00
