SpectraSuite Data File
++++++++++++++++++++++++++++++++++++
Date: Fri Oct 04 11:40:03 GMT-05:00 2013
User: price-jones
Dark Spectrum Present: No
Reference Spectrum Present: No
Number of Sampled Component Spectra: 1
Spectrometers: USB2+H05261
Integration Time (usec): 100000 (USB2+H05261)
Spectra Averaged: 1 (USB2+H05261)
Boxcar Smoothing: 0 (USB2+H05261)
Correct for Electrical Dark: No (USB2+H05261)
Strobe/Lamp Enabled: No (USB2+H05261)
Correct for Detector Non-linearity: No (USB2+H05261)
Correct for Stray Light: No (USB2+H05261)
Number of Pixels in Processed Spectrum: 2048
>>>>>Begin Processed Spectral Data<<<<<
365.73	46.81
365.92	46.81
366.12	46.81
366.32	4.68
366.52	0.00
366.72	0.00
366.91	0.00
367.11	28.09
367.31	0.00
367.51	0.00
367.70	0.00
367.90	0.00
368.10	0.00
368.30	0.00
368.49	0.00
368.69	0.00
368.89	0.00
369.09	0.00
369.28	0.00
369.48	0.00
369.68	0.00
369.87	0.00
370.07	2.34
370.27	9.36
370.47	28.09
370.66	35.11
370.86	138.09
371.06	138.09
371.25	67.88
371.45	77.24
371.65	145.11
371.84	154.48
372.04	117.03
372.24	114.69
372.44	67.88
372.63	102.98
372.83	72.56
373.03	212.99
373.22	121.71
373.42	124.05
373.62	128.73
373.81	131.07
374.01	166.18
374.21	126.39
374.40	191.92
374.60	114.69
374.79	126.39
374.99	163.84
375.19	152.13
375.38	201.29
375.58	114.69
375.78	163.84
375.97	184.90
376.17	175.54
376.37	114.69
376.56	184.90
376.76	196.60
376.95	177.88
377.15	184.90
377.35	166.18
377.54	198.95
377.74	114.69
377.93	117.03
378.13	194.26
378.33	163.84
378.52	126.39
378.72	170.86
378.91	198.95
379.11	133.41
379.31	124.05
379.50	152.13
379.70	112.35
379.89	145.11
380.09	140.43
380.28	138.09
380.48	175.54
380.68	126.39
380.87	124.05
381.07	117.03
381.26	163.84
381.46	222.35
381.65	147.45
381.85	161.50
382.04	201.29
382.24	124.05
382.43	114.69
382.63	112.35
382.83	77.24
383.02	191.92
383.22	215.33
383.41	124.05
383.61	149.79
383.80	152.13
384.00	124.05
384.19	63.19
384.39	182.56
384.58	163.84
384.78	191.92
384.97	138.09
385.17	138.09
385.36	154.48
385.56	266.82
385.75	187.24
385.95	173.20
386.14	154.48
386.34	175.54
386.53	177.88
386.72	124.05
386.92	238.73
387.11	161.50
387.31	222.35
387.50	173.20
387.70	191.92
387.89	161.50
388.09	114.69
388.28	152.13
388.48	187.24
388.67	140.43
388.86	184.90
389.06	177.88
389.25	191.92
389.45	173.20
389.64	210.65
389.84	210.65
390.03	114.69
390.22	212.99
390.42	159.16
390.61	173.20
390.81	131.07
391.00	170.86
391.19	276.18
391.39	229.37
391.58	205.97
391.78	191.92
391.97	138.09
392.16	175.54
392.36	203.63
392.55	215.33
392.75	250.44
392.94	184.90
393.13	196.60
393.33	189.58
393.52	161.50
393.71	224.69
393.91	234.05
394.10	196.60
394.29	205.97
394.49	149.79
394.68	299.59
394.88	257.46
395.07	159.16
395.26	175.54
395.46	278.52
395.65	198.95
395.84	257.46
396.04	271.50
396.23	271.50
396.42	248.10
396.62	231.71
396.81	231.71
397.00	210.65
397.19	264.48
397.39	236.39
397.58	273.84
397.77	283.20
397.97	203.63
398.16	292.57
398.35	280.86
398.55	322.99
398.74	264.48
398.93	313.63
399.12	224.69
399.32	241.08
399.51	304.27
399.70	337.04
399.90	276.18
400.09	292.57
400.28	369.80
400.47	355.76
400.67	304.27
400.86	339.38
401.05	297.25
401.24	358.10
401.44	353.42
401.63	292.57
401.82	322.99
402.01	287.89
402.21	290.23
402.40	327.68
402.59	304.27
402.78	304.27
402.97	325.33
403.17	397.89
403.36	386.19
403.55	348.74
403.74	372.15
403.93	339.38
404.13	437.68
404.32	337.04
404.51	493.85
404.70	512.58
404.89	414.27
405.09	486.83
405.28	435.34
405.47	372.15
405.66	379.17
405.85	395.55
406.05	449.38
406.24	428.32
406.43	468.11
406.62	379.17
406.81	554.71
407.00	482.15
407.20	428.32
407.39	479.81
407.58	500.87
407.77	526.62
407.96	486.83
408.15	507.90
408.34	437.68
408.54	538.32
408.73	505.56
408.92	409.59
409.11	437.68
409.30	507.90
409.49	486.83
409.68	526.62
409.87	561.73
410.07	552.37
410.26	482.15
410.45	531.30
410.64	491.51
410.83	505.56
411.02	592.16
411.21	678.76
411.40	561.73
411.59	608.54
411.78	599.18
411.98	624.92
412.17	599.18
412.36	645.99
412.55	608.54
412.74	622.58
412.93	631.94
413.12	667.05
413.31	662.37
413.50	683.44
413.69	622.58
413.88	681.10
414.07	702.16
414.26	699.82
414.45	720.88
414.64	627.26
414.83	667.05
415.02	765.36
415.22	851.96
415.41	739.61
415.60	758.33
415.79	791.10
415.98	875.36
416.17	842.59
416.36	814.51
416.55	816.85
416.74	786.42
416.93	833.23
417.12	851.96
417.31	903.45
417.50	816.85
417.69	891.74
417.88	823.87
418.07	763.01
418.26	908.13
418.45	826.21
418.64	1022.81
418.83	933.87
419.02	938.55
419.21	915.15
419.39	938.55
419.58	896.43
419.77	999.41
419.96	957.28
420.15	973.66
420.34	896.43
420.53	978.34
420.72	959.62
420.91	1013.45
421.10	1053.24
421.29	980.68
421.48	943.24
421.67	1032.18
421.86	1034.52
422.05	978.34
422.24	1036.86
422.43	978.34
422.61	1015.79
422.80	1118.78
422.99	983.02
423.18	1032.18
423.37	1149.20
423.56	1100.05
423.75	1001.75
423.94	1036.86
424.13	957.28
424.32	983.02
424.50	1036.86
424.69	1074.31
424.88	1132.82
425.07	1055.58
425.26	983.02
425.45	976.00
425.64	1081.33
425.83	1137.50
426.01	954.94
426.20	1046.22
426.39	1043.88
426.58	1090.69
426.77	1015.79
426.96	1149.20
427.15	1107.07
427.33	1111.75
427.52	1067.28
427.71	1142.18
427.90	1114.10
428.09	1128.14
428.28	1067.28
428.46	1123.46
428.65	1137.50
428.84	1224.10
429.03	1233.46
429.22	1135.16
429.40	1118.78
429.59	1116.44
429.78	1188.99
429.97	1041.54
430.16	1160.91
430.34	1210.06
430.53	1090.69
430.72	1172.61
430.91	1174.95
431.10	1132.82
431.28	1231.12
431.47	1214.74
431.66	1224.10
431.85	1184.31
432.03	1317.72
432.22	1348.15
432.41	1327.08
432.60	1277.93
432.79	1268.57
432.97	1273.25
433.16	1303.68
433.35	1200.69
433.54	1348.15
433.72	1282.61
433.91	1294.32
434.10	1359.85
434.28	1289.64
434.47	1324.74
434.66	1294.32
434.85	1359.85
435.03	1411.34
435.22	1563.48
435.41	1947.33
435.59	1895.83
435.78	1797.53
435.97	1530.71
436.16	1437.09
436.34	1359.85
436.53	1371.55
436.72	1444.11
436.90	1334.11
437.09	1416.02
437.28	1380.92
437.46	1385.60
437.65	1387.94
437.84	1441.77
438.02	1413.68
438.21	1406.66
438.40	1362.19
438.58	1425.39
438.77	1420.71
438.96	1537.73
439.14	1460.49
439.33	1563.48
439.52	1469.86
439.70	1401.98
439.89	1629.01
440.08	1561.14
440.26	1605.61
440.45	1565.82
440.63	1647.74
440.82	1603.27
441.01	1596.25
441.19	1661.78
441.38	1652.42
441.57	1732.00
441.75	1685.19
441.94	1715.61
442.12	1715.61
442.31	1717.95
442.50	1657.10
442.68	1685.19
442.87	1680.50
443.05	1689.87
443.24	1710.93
443.43	1788.17
443.61	1717.95
443.80	1781.15
443.98	1722.63
444.17	1713.27
444.35	1760.08
444.54	1612.63
444.73	1825.62
444.91	1741.36
445.10	1657.10
445.28	1778.81
445.47	1682.85
445.65	1834.98
445.84	1713.27
446.02	1790.51
446.21	1767.10
446.39	1736.68
446.58	1734.34
446.77	1811.57
446.95	1699.23
447.14	1734.34
447.32	1757.74
447.51	1673.48
447.69	1739.02
447.88	1764.76
448.06	1739.02
448.25	1898.17
448.43	1755.40
448.62	1795.19
448.80	1767.10
448.99	1863.07
449.17	1905.20
449.36	1849.02
449.54	1949.67
449.73	1935.62
449.91	1919.24
450.10	1893.49
450.28	1909.88
450.46	1909.88
450.65	1970.73
450.83	1963.71
451.02	1858.39
451.20	1970.73
451.39	1968.39
451.57	1907.54
451.76	1853.70
451.94	2024.56
452.13	1937.96
452.31	2031.58
452.49	1961.37
452.68	1923.92
452.86	1881.79
453.05	2092.44
453.23	1977.75
453.42	2003.50
453.60	1935.62
453.78	1977.75
453.97	1942.64
454.15	1963.71
454.34	2029.24
454.52	2019.88
454.70	1954.35
454.89	2052.65
455.07	2115.84
455.26	2113.50
455.44	2050.31
455.62	2047.97
455.81	2022.22
455.99	2036.27
456.17	2122.87
456.36	2054.99
456.54	2122.87
456.73	2040.95
456.91	2129.89
457.09	2099.46
457.28	2242.23
457.46	2125.21
457.64	2230.53
457.83	2155.63
458.01	2188.40
458.19	2260.96
458.38	2296.07
458.56	2174.36
458.74	2176.70
458.93	2106.48
459.11	2244.57
459.29	2188.40
459.48	2251.60
459.66	2289.04
459.84	2375.64
460.03	2310.11
460.21	2230.53
460.39	2237.55
460.57	2356.92
460.76	2331.17
460.94	2300.75
461.12	2420.11
461.31	2333.51
461.49	2251.60
461.67	2272.66
461.85	2279.68
462.04	2340.54
462.22	2768.85
462.40	2382.67
462.59	2480.97
462.77	2429.48
462.95	2434.16
463.13	2406.07
463.32	2387.35
463.50	2385.01
463.68	2392.03
463.86	2331.17
464.05	2293.72
464.23	2497.35
464.41	2546.50
464.59	2338.20
464.78	2490.33
464.96	2581.61
465.14	2485.65
465.32	2485.65
465.50	2464.58
465.69	2506.71
465.87	2492.67
466.05	2504.37
466.23	2420.11
466.41	2450.54
466.60	2590.97
466.78	2476.29
466.96	2441.18
467.14	2502.03
467.32	2541.82
467.51	2541.82
467.69	2466.92
467.87	2579.27
468.05	2593.31
468.23	2569.91
468.41	2530.12
468.60	2544.16
468.78	2654.17
468.96	2614.38
469.14	2619.06
469.32	2633.10
469.50	2574.59
469.69	2548.84
469.87	2693.96
470.05	2750.13
470.23	2708.00
470.41	2715.02
470.59	2691.62
470.77	2640.12
470.95	2715.02
471.14	2675.23
471.32	2658.85
471.50	2757.15
471.68	2740.77
471.86	2808.64
472.04	2801.62
472.22	2864.82
472.40	2813.32
472.58	2801.62
472.77	2876.52
472.95	2998.23
473.13	2911.63
473.31	2843.75
473.49	2869.50
473.67	2862.48
473.85	2993.55
474.03	2885.88
474.21	2970.14
474.39	2998.23
474.57	3038.02
474.75	3101.21
474.93	2963.12
475.12	2970.14
475.30	2951.42
475.48	3070.78
475.66	2981.84
475.84	3122.27
476.02	2972.48
476.20	3073.12
476.38	3246.32
476.56	3187.81
476.74	3218.24
476.92	3295.47
477.10	3239.30
477.28	3260.37
477.46	3211.22
477.64	3253.34
477.82	3337.60
478.00	3524.85
478.18	3258.03
478.36	3459.31
478.54	3496.76
478.72	3468.67
478.90	3475.70
479.08	3417.18
479.26	3447.61
479.44	3588.04
479.62	3719.11
479.80	3578.68
479.98	3588.04
480.16	3641.87
480.34	3618.47
480.52	3716.77
480.70	3740.18
480.88	3705.07
481.06	3723.79
481.24	3641.87
481.41	3698.05
481.59	3875.93
481.77	3955.51
481.95	3887.63
482.13	3974.23
482.31	3995.29
482.49	3915.72
482.67	4131.05
482.85	4100.62
483.03	4257.43
483.21	4091.26
483.39	4081.89
483.57	4133.39
483.74	4100.62
483.92	4149.77
484.10	4227.01
484.28	4278.50
484.46	4489.15
484.64	4383.82
484.82	4264.46
485.00	4414.25
485.18	4477.44
485.35	4571.07
485.53	4470.42
485.71	4461.06
485.89	4664.69
486.07	4606.17
486.25	4732.56
486.43	4636.60
486.61	4683.41
486.78	4840.23
486.96	4861.29
487.14	4835.55
487.32	4983.00
487.50	4823.84
487.68	5097.69
487.85	5118.75
488.03	4938.53
488.21	5107.05
488.39	5130.45
488.57	5184.29
488.75	5022.79
488.92	5399.62
489.10	5301.31
489.28	5329.40
489.46	5444.09
489.64	5416.00
489.81	5472.17
489.99	5366.85
490.17	5455.79
490.35	5511.96
490.53	5460.47
490.70	5481.53
490.88	5551.75
491.06	5643.03
491.24	5593.88
491.41	5680.48
491.59	5753.04
491.77	5593.88
491.95	5741.33
492.13	5678.14
492.30	5694.52
492.48	5930.92
492.66	5841.98
492.84	6036.24
493.01	5937.94
493.19	5987.09
493.37	6040.92
493.54	5919.21
493.72	6090.07
493.90	6080.71
494.08	6218.80
494.25	6256.25
494.43	6253.91
494.61	6214.12
494.79	6361.58
494.96	6366.26
495.14	6375.62
495.32	6462.22
495.49	6270.30
495.67	6389.66
495.85	6494.99
496.02	6520.73
496.20	6511.37
496.38	6614.35
496.55	6551.16
496.73	6710.32
496.91	6640.10
497.09	6771.17
497.26	6841.39
497.44	6738.40
497.62	6825.00
497.79	7007.56
497.97	6885.86
498.14	6911.60
498.32	6925.65
498.50	6932.67
498.67	7061.40
498.85	6965.43
499.03	6942.03
499.20	7124.59
499.38	7066.08
499.56	7068.42
499.73	7304.81
499.91	7087.14
500.08	7262.68
500.26	7220.55
500.44	7171.40
500.61	7368.01
500.79	7232.26
500.97	7461.63
501.14	7403.11
501.32	7375.03
501.49	7592.70
501.67	7314.17
501.84	7475.67
502.02	7545.89
502.20	7403.11
502.37	7627.81
502.55	7653.55
502.72	7517.80
502.90	7681.64
503.07	7440.56
503.25	7442.90
503.43	7630.15
503.60	7777.60
503.78	7693.34
503.95	7819.73
504.13	7705.04
504.30	7639.51
504.48	7707.38
504.65	7866.54
504.83	7751.85
505.01	7831.43
505.18	7864.20
505.36	7950.80
505.53	7995.27
505.71	8053.78
505.88	8002.29
506.06	7992.93
506.23	8018.68
506.41	8053.78
506.58	8156.77
506.76	8119.32
506.93	8081.87
507.11	7997.61
507.28	8067.83
507.46	8292.52
507.63	8231.66
507.81	8243.37
507.98	8442.31
508.16	8088.89
508.33	8397.84
508.50	8245.71
508.68	8430.61
508.85	8414.23
509.03	8372.10
509.20	8439.97
509.38	8542.96
509.55	8688.07
509.73	8510.19
509.90	8648.28
510.08	8416.57
510.25	8603.81
510.42	8631.90
510.60	8720.84
510.77	8669.34
510.95	8812.12
511.12	8650.62
511.30	8800.41
511.47	8702.11
511.64	8777.01
511.82	8943.19
511.99	8786.37
512.17	8868.29
512.34	8966.59
512.51	8926.80
512.69	8999.36
512.86	9095.32
513.04	9167.88
513.21	9151.49
513.38	9104.68
513.56	9142.13
513.73	9034.47
513.90	9114.05
514.08	9186.60
514.25	9317.67
514.43	9228.73
514.60	9298.95
514.77	9296.61
514.95	9317.67
515.12	9275.54
515.29	9387.89
515.47	9432.36
515.64	9357.46
515.81	9294.27
515.99	9434.70
516.16	9235.75
516.33	9432.36
516.51	9540.02
516.68	9497.89
516.85	9603.22
517.03	9483.85
517.20	9444.06
517.37	9378.53
517.54	9614.92
517.72	9685.14
517.89	9542.36
518.06	9694.50
518.24	9785.78
518.41	9645.35
518.58	9825.57
518.75	9776.42
518.93	9799.82
519.10	9612.58
519.27	9966.00
519.45	9671.09
519.62	9998.77
519.79	9776.42
519.96	10071.33
520.14	9858.34
520.31	9872.38
520.48	9989.41
520.65	9989.41
520.83	9949.62
521.00	10017.49
521.17	9956.64
521.34	10010.47
521.52	9937.91
521.69	10150.90
521.86	9926.21
522.03	10298.36
522.20	10356.87
522.38	10246.87
522.55	10141.54
522.72	9944.94
522.89	10253.89
523.07	10256.23
523.24	10333.47
523.41	10324.10
523.58	10183.67
523.75	10548.79
523.92	10356.87
524.10	10581.56
524.27	10349.85
524.44	10298.36
524.61	10654.12
524.78	10387.30
524.96	10331.12
525.13	10525.39
525.30	10555.82
525.47	10558.16
525.64	10574.54
525.81	10539.43
525.98	10609.65
526.16	10700.93
526.33	10462.19
526.50	10609.65
526.67	10672.84
526.84	10551.14
527.01	10530.07
527.18	10813.28
527.36	10684.55
527.53	10857.75
527.70	10981.79
527.87	10885.83
528.04	10923.28
528.21	10911.58
528.38	10670.50
528.55	11059.03
528.72	10565.18
528.89	10862.43
529.07	10822.64
529.24	10874.13
529.41	10986.47
529.58	10932.64
529.75	10794.55
529.92	10864.77
530.09	10995.84
530.26	10906.90
530.43	11325.85
530.60	11084.78
530.77	10965.41
530.94	11037.97
531.11	11030.94
531.28	10993.50
531.46	11047.33
531.63	11145.63
531.80	11014.56
531.97	11344.58
532.14	11239.25
532.31	11288.40
532.48	11176.06
532.65	11066.05
532.82	11234.57
532.99	11403.09
533.16	11215.85
533.33	11630.12
533.50	11473.31
533.67	11353.94
533.84	11227.55
534.01	11391.39
534.18	11375.00
534.35	11564.59
534.52	11449.90
534.69	11407.77
534.86	11679.27
535.03	11349.26
535.20	11559.91
535.37	11566.93
535.54	11552.88
535.71	11407.77
535.88	11499.05
536.05	11475.65
536.22	11712.04
536.38	11784.60
536.55	11487.35
536.72	11531.82
536.89	11627.78
537.06	11630.12
537.23	11669.91
537.40	11992.90
537.57	11772.89
537.74	11786.94
537.91	11983.54
538.08	12065.46
538.25	11847.79
538.42	11604.38
538.59	11915.67
538.75	11595.01
538.92	11655.87
539.09	11822.05
539.26	11843.11
539.43	12219.94
539.60	12119.29
539.77	12067.80
539.94	12154.40
540.11	12105.25
540.28	12056.10
540.44	11967.16
540.61	12163.76
540.78	12425.90
540.95	12236.32
541.12	12425.90
541.29	12542.93
541.46	12367.39
541.62	12491.44
541.79	12629.53
541.96	12484.42
542.13	12526.55
542.30	12561.66
542.47	12856.56
542.63	12723.15
542.80	12580.38
542.97	12755.92
543.14	12671.66
543.31	12514.84
543.48	12802.73
543.64	12760.60
543.81	12919.76
543.98	12585.06
544.15	12718.47
544.32	12886.99
544.48	12905.71
544.65	12802.73
544.82	12784.01
544.99	12830.82
545.16	12868.27
545.32	12868.27
545.49	13130.41
545.66	13930.87
545.83	14235.14
546.00	13619.58
546.16	13359.78
546.33	12926.78
546.50	12697.41
546.67	13022.74
546.83	12690.38
547.00	12854.22
547.17	12802.73
547.34	12678.68
547.50	12741.88
547.67	12833.16
547.84	12727.83
548.00	12922.10
548.17	12748.90
548.34	12636.55
548.51	12947.84
548.67	13149.13
548.84	12903.37
549.01	12805.07
549.18	12971.25
549.34	12767.62
549.51	12718.47
549.68	12634.21
549.84	12622.51
550.01	12652.94
550.18	12739.54
550.34	12793.37
550.51	12655.28
550.68	12933.80
550.84	12699.75
551.01	12702.09
551.18	12706.77
551.34	12650.60
551.51	12542.93
551.68	12882.31
551.84	12720.81
552.01	12828.48
552.18	12849.54
552.34	12842.52
552.51	12746.56
552.68	12751.24
552.84	12786.35
553.01	12819.11
553.18	12966.57
553.34	12879.97
553.51	12812.09
553.67	12950.18
553.84	12854.22
554.01	13004.02
554.17	12915.08
554.34	12805.07
554.51	12805.07
554.67	12929.12
554.84	12711.45
555.00	13048.49
555.17	12961.89
555.33	12933.80
555.50	12634.21
555.67	12851.88
555.83	12664.64
556.00	12751.24
556.16	12870.61
556.33	12870.61
556.50	12634.21
556.66	12599.10
556.83	12978.27
556.99	13078.91
557.16	13191.26
557.32	12882.31
557.49	12936.14
557.65	12821.45
557.82	12978.27
557.98	12882.31
558.15	13008.70
558.32	12950.18
558.48	13069.55
558.65	13247.43
558.81	12915.08
558.98	13109.34
559.14	12828.48
559.31	12994.65
559.47	13025.08
559.64	13011.04
559.80	12929.12
559.97	13118.70
560.13	13022.74
560.30	13137.43
560.46	13076.57
560.63	13064.87
560.79	12898.69
560.96	13158.49
561.12	13109.34
561.29	12950.18
561.45	13050.83
561.61	13001.68
561.78	13493.19
561.94	13055.51
562.11	13053.17
562.27	13359.78
562.44	13359.78
562.60	13090.62
562.77	13011.04
562.93	13263.82
563.10	13284.88
563.26	13076.57
563.42	13071.89
563.59	12943.16
563.75	13312.97
563.92	13198.28
564.08	12922.10
564.24	13064.87
564.41	13121.04
564.57	13287.22
564.74	13202.96
564.90	13193.60
565.07	13181.90
565.23	13289.56
565.39	13193.60
565.56	13219.35
565.72	13076.57
565.88	13057.85
566.05	13312.97
566.21	13043.81
566.38	13193.60
566.54	13055.51
566.70	12987.63
566.87	13212.32
567.03	12978.27
567.19	13219.35
567.36	13013.38
567.52	13018.06
567.68	13114.02
567.85	13273.18
568.01	13064.87
568.17	13209.98
568.34	13310.63
568.50	13319.99
568.66	13331.69
568.83	13053.17
568.99	13046.15
569.15	13172.54
569.32	13188.92
569.48	13238.07
569.64	13205.30
569.81	13275.52
569.97	13041.46
570.13	13252.11
570.30	13348.08
570.46	13092.96
570.62	13195.94
570.78	13074.23
570.95	13092.96
571.11	12957.21
571.27	13104.66
571.43	13001.68
571.60	13432.33
571.76	13195.94
571.92	13088.28
572.09	13252.11
572.25	13121.04
572.41	13455.74
572.57	13273.18
572.74	13331.69
572.90	13170.19
573.06	13266.16
573.22	13186.58
573.38	13394.89
573.55	13460.42
573.71	13568.09
573.87	13362.12
574.03	13039.12
574.20	13181.90
574.36	13207.64
574.52	13123.38
574.68	13383.18
574.84	13366.80
575.01	13263.82
575.17	13523.62
575.33	13055.51
575.49	13195.94
575.65	13287.22
575.82	13341.05
575.98	13109.34
576.14	13315.31
576.30	13256.79
576.46	13544.68
576.62	13647.66
576.79	13596.17
576.95	13427.65
577.11	13572.77
577.27	13362.12
577.43	13558.72
577.59	13153.81
577.75	13490.85
577.92	13298.92
578.08	13153.81
578.24	13483.83
578.40	13319.99
578.56	13233.39
578.72	13542.34
578.88	13640.64
579.04	13666.39
579.21	13163.17
579.37	13537.66
579.53	13434.68
579.69	13404.25
579.85	13343.39
580.01	13385.52
580.17	13327.01
580.33	13497.87
580.49	13179.56
580.65	13334.03
580.82	13245.09
580.98	13369.14
581.14	13312.97
581.30	13429.99
581.46	13502.55
581.62	13284.88
581.78	13387.86
581.94	13331.69
582.10	13305.95
582.26	13547.02
582.42	13369.14
582.58	13528.30
582.74	13252.11
582.90	13364.46
583.06	13294.24
583.22	13502.55
583.38	13191.26
583.54	13537.66
583.70	13563.40
583.86	13266.16
584.02	13547.02
584.18	13399.57
584.34	13319.99
584.50	13582.13
584.66	13392.55
584.82	13390.20
584.98	13277.86
585.14	13355.10
585.30	13064.87
585.46	13341.05
585.62	13378.50
585.78	13142.11
585.94	13308.29
586.10	13582.13
586.26	13460.42
586.42	13593.83
586.58	13472.12
586.74	13542.34
586.90	13312.97
587.06	13434.68
587.22	13577.45
587.38	13547.02
587.54	13448.72
587.70	13547.02
587.86	13415.95
588.02	13493.19
588.18	13685.11
588.34	13483.83
588.49	13282.54
588.65	13446.38
588.81	13408.93
588.97	13135.09
589.13	13387.86
589.29	13488.51
589.45	13446.38
589.61	13324.67
589.77	13692.13
589.93	13708.52
590.08	13532.98
590.24	13516.59
590.40	13572.77
590.56	13678.09
590.72	13296.58
590.88	13535.32
591.04	13376.16
591.20	13500.21
591.35	13458.08
591.51	13420.63
591.67	13610.22
591.83	13638.30
591.99	13619.58
592.15	13458.08
592.31	13163.17
592.46	13511.91
592.62	13563.40
592.78	13549.36
592.94	13525.96
593.10	13486.17
593.26	13486.17
593.41	13642.98
593.57	13490.85
593.73	13504.89
593.89	13593.83
594.05	13589.15
594.20	13406.59
594.36	13549.36
594.52	13565.74
594.68	13289.56
