SpectraSuite Data File
++++++++++++++++++++++++++++++++++++
Date: Fri Oct 04 11:39:43 GMT-05:00 2013
User: price-jones
Dark Spectrum Present: No
Reference Spectrum Present: No
Number of Sampled Component Spectra: 1
Spectrometers: USB2+H05261
Integration Time (usec): 100000 (USB2+H05261)
Spectra Averaged: 1 (USB2+H05261)
Boxcar Smoothing: 0 (USB2+H05261)
Correct for Electrical Dark: No (USB2+H05261)
Strobe/Lamp Enabled: No (USB2+H05261)
Correct for Detector Non-linearity: No (USB2+H05261)
Correct for Stray Light: No (USB2+H05261)
Number of Pixels in Processed Spectrum: 2048
>>>>>Begin Processed Spectral Data<<<<<
365.73	74.90
365.92	74.90
366.12	74.90
366.32	0.00
366.52	0.00
366.72	14.04
366.91	21.06
367.11	0.00
367.31	0.00
367.51	0.00
367.70	0.00
367.90	0.00
368.10	0.00
368.30	0.00
368.49	0.00
368.69	11.70
368.89	0.00
369.09	28.09
369.28	0.00
369.48	0.00
369.68	0.00
369.87	0.00
370.07	0.00
370.27	42.13
370.47	30.43
370.66	112.35
370.86	67.88
371.06	81.92
371.25	131.07
371.45	112.35
371.65	147.45
371.84	98.30
372.04	138.09
372.24	168.52
372.44	84.26
372.63	159.16
372.83	175.54
373.03	58.51
373.22	152.13
373.42	133.41
373.62	145.11
373.81	170.86
374.01	177.88
374.21	217.67
374.40	203.63
374.60	140.43
374.79	102.98
374.99	140.43
375.19	84.26
375.38	168.52
375.58	152.13
375.78	173.20
375.97	170.86
376.17	248.10
376.37	124.05
376.56	198.95
376.76	163.84
376.95	156.82
377.15	198.95
377.35	182.56
377.54	208.31
377.74	140.43
377.93	168.52
378.13	152.13
378.33	205.97
378.52	163.84
378.72	180.22
378.91	212.99
379.11	184.90
379.31	187.24
379.50	140.43
379.70	224.69
379.89	154.48
380.09	173.20
380.28	107.66
380.48	142.77
380.68	140.43
380.87	212.99
381.07	128.73
381.26	112.35
381.46	77.24
381.65	259.80
381.85	220.01
382.04	210.65
382.24	131.07
382.43	184.90
382.63	124.05
382.83	182.56
383.02	203.63
383.22	236.39
383.41	198.95
383.61	142.77
383.80	156.82
384.00	187.24
384.19	154.48
384.39	133.41
384.58	152.13
384.78	271.50
384.97	156.82
385.17	269.16
385.36	149.79
385.56	238.73
385.75	110.01
385.95	245.76
386.14	173.20
386.34	205.97
386.53	208.31
386.72	159.16
386.92	215.33
387.11	212.99
387.31	140.43
387.50	159.16
387.70	182.56
387.89	250.44
388.09	266.82
388.28	229.37
388.48	191.92
388.67	191.92
388.86	203.63
389.06	208.31
389.25	222.35
389.45	241.08
389.64	224.69
389.84	222.35
390.03	215.33
390.22	227.03
390.42	180.22
390.61	231.71
390.81	189.58
391.00	124.05
391.19	271.50
391.39	224.69
391.58	243.42
391.78	229.37
391.97	234.05
392.16	135.75
392.36	227.03
392.55	241.08
392.75	159.16
392.94	255.12
393.13	250.44
393.33	182.56
393.52	241.08
393.71	271.50
393.91	234.05
394.10	163.84
394.29	154.48
394.49	259.80
394.68	248.10
394.88	227.03
395.07	318.31
395.26	325.33
395.46	229.37
395.65	315.97
395.84	243.42
396.04	297.25
396.23	257.46
396.42	271.50
396.62	266.82
396.81	250.44
397.00	262.14
397.19	224.69
397.39	264.48
397.58	318.31
397.77	271.50
397.97	262.14
398.16	227.03
398.35	294.91
398.55	313.63
398.74	367.46
398.93	334.70
399.12	273.84
399.32	369.80
399.51	362.78
399.70	301.93
399.90	346.40
400.09	315.97
400.28	344.06
400.47	299.59
400.67	374.49
400.86	332.36
401.05	283.20
401.24	341.72
401.44	362.78
401.63	315.97
401.82	416.62
402.01	379.17
402.21	386.19
402.40	435.34
402.59	369.80
402.78	360.44
402.97	353.42
403.17	353.42
403.36	425.98
403.55	456.40
403.74	400.23
403.93	433.00
404.13	505.56
404.32	437.68
404.51	428.32
404.70	510.24
404.89	479.81
405.09	543.00
405.28	461.09
405.47	468.11
405.66	482.15
405.85	489.17
406.05	491.51
406.24	528.96
406.43	517.26
406.62	554.71
406.81	653.01
407.00	550.03
407.20	514.92
407.39	454.06
407.58	442.36
407.77	643.65
407.96	638.97
408.15	596.84
408.34	540.66
408.54	521.94
408.73	601.52
408.92	650.67
409.11	643.65
409.30	643.65
409.49	671.73
409.68	641.31
409.87	645.99
410.07	650.67
410.26	669.39
410.45	671.73
410.64	725.57
410.83	660.03
411.02	678.76
411.21	669.39
411.40	774.72
411.59	737.27
411.78	753.65
411.98	758.33
412.17	723.23
412.36	730.25
412.55	821.53
412.74	840.25
412.93	882.38
413.12	791.10
413.31	802.80
413.50	774.72
413.69	868.34
413.88	931.53
414.07	786.42
414.26	821.53
414.45	917.49
414.64	898.77
414.83	924.51
415.02	952.60
415.22	887.06
415.41	936.21
415.60	952.60
415.79	1048.56
415.98	1025.15
416.17	968.98
416.36	915.15
416.55	947.92
416.74	1004.09
416.93	1004.09
417.12	973.66
417.31	1046.22
417.50	1011.11
417.69	1156.22
417.88	1060.26
418.07	1097.71
418.26	1109.41
418.45	1114.10
418.64	1116.44
418.83	1055.58
419.02	1144.52
419.21	1071.97
419.39	1221.76
419.58	1186.65
419.77	1207.72
419.96	1240.48
420.15	1242.82
420.34	1158.57
420.53	1151.54
420.72	1235.80
420.91	1224.10
421.10	1165.59
421.29	1256.87
421.48	1228.78
421.67	1270.91
421.86	1313.04
422.05	1196.01
422.24	1231.12
422.43	1277.93
422.61	1219.42
422.80	1270.91
422.99	1303.68
423.18	1308.36
423.37	1383.26
423.56	1270.91
423.75	1221.76
423.94	1289.64
424.13	1259.21
424.32	1266.23
424.50	1282.61
424.69	1329.42
424.88	1385.60
425.07	1263.89
425.26	1331.76
425.45	1235.80
425.64	1299.00
425.83	1357.51
426.01	1355.17
426.20	1291.98
426.39	1329.42
426.58	1327.08
426.77	1394.96
426.96	1266.23
427.15	1350.49
427.33	1451.13
427.52	1486.24
427.71	1348.15
427.90	1373.89
428.09	1348.15
428.28	1401.98
428.46	1380.92
428.65	1516.67
428.84	1472.20
429.03	1420.71
429.22	1451.13
429.40	1469.86
429.59	1565.82
429.78	1521.35
429.97	1444.11
430.16	1430.07
430.34	1476.88
430.53	1509.65
430.72	1462.83
430.91	1483.90
431.10	1427.73
431.28	1558.80
431.47	1678.16
431.66	1638.38
431.85	1537.73
432.03	1575.18
432.22	1610.29
432.41	1558.80
432.60	1603.27
432.79	1598.59
432.97	1657.10
433.16	1650.08
433.35	1579.86
433.54	1614.97
433.72	1598.59
433.91	1624.33
434.10	1710.93
434.28	1593.90
434.47	1687.53
434.66	1769.44
434.85	1727.32
435.03	1743.70
435.22	1872.43
435.41	2033.93
435.59	2090.10
435.78	1940.30
435.97	1860.73
436.16	1795.19
436.34	1842.00
436.53	1792.85
436.72	1762.42
436.90	1701.57
437.09	1818.60
437.28	1760.08
437.46	1804.55
437.65	1832.64
437.84	1755.40
438.02	1764.76
438.21	1849.02
438.40	1818.60
438.58	1856.04
438.77	1802.21
438.96	1856.04
439.14	1799.87
439.33	1863.07
439.52	1916.90
439.70	1937.96
439.89	2012.86
440.08	1907.54
440.26	1952.01
440.45	1952.01
440.63	1956.69
440.82	2022.22
441.01	2015.20
441.19	2054.99
441.38	2085.42
441.57	2099.46
441.75	2127.55
441.94	2155.63
442.12	2125.21
442.31	2263.30
442.50	2071.37
442.68	2209.47
442.87	2225.85
443.05	2143.93
443.24	2200.10
443.43	2244.57
443.61	2235.21
443.80	2275.00
443.98	2118.18
444.17	2120.53
444.35	2186.06
444.54	2223.51
444.73	2104.14
444.91	2284.36
445.10	2221.17
445.28	2146.27
445.47	2307.77
445.65	2202.44
445.84	2209.47
446.02	2312.45
446.21	2317.13
446.39	2146.27
446.58	2249.25
446.77	2272.66
446.95	2361.60
447.14	2246.91
447.32	2321.81
447.51	2267.98
447.69	2293.72
447.88	2326.49
448.06	2300.75
448.25	2307.77
448.43	2237.55
448.62	2296.07
448.80	2370.96
448.99	2326.49
449.17	2307.77
449.36	2387.35
449.54	2333.51
449.73	2429.48
449.91	2326.49
450.10	2366.28
450.28	2422.45
450.46	2497.35
450.65	2392.03
450.83	2387.35
451.02	2403.73
451.20	2438.84
451.39	2464.58
451.57	2459.90
451.76	2368.62
451.94	2314.79
452.13	2410.75
452.31	2490.33
452.49	2436.50
452.68	2539.48
452.86	2513.74
453.05	2502.03
453.23	2471.61
453.42	2504.37
453.60	2579.27
453.78	2572.25
453.97	2401.39
454.15	2459.90
454.34	2506.71
454.52	2413.09
454.70	2663.53
454.89	2586.29
455.07	2609.70
455.26	2558.21
455.44	2586.29
455.62	2642.46
455.81	2698.64
455.99	2675.23
456.17	2752.47
456.36	2710.34
456.54	2796.94
456.73	2635.44
456.91	2698.64
457.09	2665.87
457.28	2944.39
457.46	2708.00
457.64	2881.20
457.83	2813.32
458.01	2693.96
458.19	2956.10
458.38	2773.53
458.56	2729.06
458.74	2932.69
458.93	2857.79
459.11	2928.01
459.29	2878.86
459.48	2841.41
459.66	2895.24
459.84	2918.65
460.03	2977.16
460.21	2850.77
460.39	2839.07
460.57	2916.31
460.76	2935.03
460.94	2998.23
461.12	3108.23
461.31	3045.04
461.49	2850.77
461.67	3016.95
461.85	2977.16
462.04	3056.74
462.22	3393.78
462.40	3155.04
462.59	2986.52
462.77	3040.36
462.95	3070.78
463.13	3049.72
463.32	3084.83
463.50	2951.42
463.68	3047.38
463.86	3220.58
464.05	2899.92
464.23	3164.40
464.41	3068.44
464.59	3030.99
464.78	3180.79
464.96	3094.19
465.14	3101.21
465.32	3218.24
465.50	3180.79
465.69	3229.94
465.87	3243.98
466.05	3267.39
466.23	3105.89
466.41	3096.53
466.60	3159.72
466.78	3164.40
466.96	3183.13
467.14	3255.69
467.32	3204.19
467.51	3302.50
467.69	3183.13
467.87	3213.56
468.05	3346.97
468.23	3255.69
468.41	3293.13
468.60	3363.35
468.78	3330.58
468.96	3295.47
469.14	3372.71
469.32	3414.84
469.50	3232.28
469.69	3335.26
469.87	3337.60
470.05	3356.33
470.23	3339.94
470.41	3346.97
470.59	3445.27
470.77	3447.61
470.95	3595.06
471.14	3506.12
471.32	3328.24
471.50	3627.83
471.68	3485.06
471.86	3506.12
472.04	3471.01
472.22	3639.53
472.40	3492.08
472.58	3616.13
472.77	3569.32
472.95	3566.98
473.13	3829.12
473.31	3756.56
473.49	3588.04
473.67	3620.81
473.85	3857.20
474.03	3749.54
474.21	3695.71
474.39	3714.43
474.57	3808.05
474.75	3784.65
474.93	3960.19
475.12	3749.54
475.30	3723.79
475.48	3988.27
475.66	3885.29
475.84	3871.25
476.02	4065.51
476.20	4086.58
476.38	4046.79
476.56	4201.26
476.74	3943.80
476.92	4049.13
477.10	4154.45
477.28	4271.48
477.46	3983.59
477.64	4124.02
477.82	4264.46
478.00	4372.12
478.18	4344.03
478.36	4383.82
478.54	4416.59
478.72	4423.61
478.90	4444.68
479.08	4517.23
479.26	4463.40
479.44	4503.19
479.62	4655.33
479.80	4547.66
479.98	4603.83
480.16	4791.08
480.34	4690.43
480.52	4865.97
480.70	4889.38
480.88	4648.30
481.06	4875.34
481.24	4711.50
481.41	4936.19
481.59	4983.00
481.77	5013.43
481.95	5121.09
482.13	5137.48
482.31	5146.84
482.49	5135.14
482.67	5247.48
482.85	5165.56
483.03	5261.52
483.21	5313.02
483.39	5434.72
483.57	5217.05
483.74	5369.19
483.92	5418.34
484.10	5462.81
484.28	5434.72
484.46	5647.71
484.64	5895.81
484.82	5654.73
485.00	5666.44
485.18	5748.36
485.35	5987.09
485.53	5708.57
485.71	5863.04
485.89	5884.11
486.07	6017.52
486.25	5956.66
486.43	5973.05
486.61	6132.20
486.78	6064.33
486.96	6136.88
487.14	6291.36
487.32	6307.74
487.50	6293.70
487.68	6359.24
487.85	6303.06
488.03	6609.67
488.21	6600.31
488.39	6551.16
488.57	6516.05
488.75	6768.83
488.92	6806.28
489.10	6958.41
489.28	6778.19
489.46	6932.67
489.64	6717.34
489.81	7063.74
489.99	6974.80
490.17	6932.67
490.35	7082.46
490.53	7070.76
490.70	7140.97
490.88	7325.88
491.06	7297.79
491.24	7260.34
491.41	7241.62
491.59	7068.42
491.77	7276.73
491.95	7421.84
492.13	7592.70
492.30	7466.31
492.48	7702.70
492.66	7609.08
492.84	7599.72
493.01	7730.79
493.19	7702.70
493.37	7908.67
493.54	7939.10
493.72	7805.69
493.90	7815.05
494.08	8152.09
494.25	8131.02
494.43	8009.31
494.61	8215.28
494.79	8126.34
494.96	8126.34
495.14	8180.17
495.32	8276.13
495.49	8304.22
495.67	8444.65
495.85	8414.23
496.02	8437.63
496.20	8430.61
496.38	8425.93
496.55	8470.40
496.73	8720.84
496.91	8758.28
497.09	8875.31
497.26	8849.57
497.44	8746.58
497.62	8994.68
497.79	8868.29
497.97	8943.19
498.14	8987.66
498.32	9177.24
498.50	8952.55
498.67	8950.21
498.85	9118.73
499.03	9226.39
499.20	9191.28
499.38	9036.81
499.56	9116.39
499.73	9413.63
499.91	9078.94
500.08	9193.62
500.26	9252.14
500.44	9434.70
500.61	9479.17
500.79	9451.08
500.97	9563.43
501.14	9731.95
501.32	9563.43
501.49	9483.85
501.67	9635.99
501.84	9645.35
502.02	9458.10
502.20	9628.96
502.37	9795.14
502.55	9863.02
502.72	9731.95
502.90	9895.78
503.07	9628.96
503.25	9825.57
503.43	10085.37
503.60	10094.73
503.78	9940.26
503.95	9975.36
504.13	10134.52
504.30	10050.26
504.48	10038.56
504.65	10289.00
504.83	10242.18
505.01	10267.93
505.18	10228.14
505.36	10340.49
505.53	10541.77
505.71	10410.70
505.88	10279.63
506.06	10607.31
506.23	10431.77
506.41	10562.84
506.58	10541.77
506.76	10476.24
506.93	10492.62
507.11	10511.35
507.28	10511.35
507.46	10796.89
507.63	10839.02
507.81	10829.66
507.98	10635.39
508.16	10656.46
508.33	10541.77
508.50	10857.75
508.68	10991.16
508.85	10953.71
509.03	10909.24
509.20	11037.97
509.38	11140.95
509.55	11213.51
509.73	11255.64
509.90	11009.88
510.08	11129.25
510.25	10995.84
510.42	11288.40
510.60	11283.72
510.77	11515.44
510.95	11302.45
511.12	11379.68
511.30	11246.27
511.47	11393.73
511.64	11414.79
511.82	11510.75
511.99	11290.74
512.17	11723.74
512.34	11768.21
512.51	11632.46
512.69	11578.63
512.86	11676.93
513.04	11822.05
513.21	12051.42
513.38	11999.93
513.56	11840.77
513.73	11693.32
513.90	11936.73
514.08	11726.08
514.25	11730.76
514.43	12102.91
514.60	12004.61
514.77	12088.87
514.95	12105.25
515.12	12266.75
515.29	12203.55
515.47	12009.29
515.64	12421.22
515.81	12135.68
515.99	12131.00
516.16	12084.19
516.33	12428.24
516.51	12341.64
516.68	12348.67
516.85	12294.83
517.03	12290.15
517.20	12428.24
517.37	12528.89
517.54	12723.15
517.72	12446.97
517.89	12547.61
518.06	12552.29
518.24	12772.30
518.41	12521.87
518.58	12697.41
518.75	12444.63
518.93	12755.92
519.10	12545.27
519.27	12816.77
519.45	12739.54
519.62	12587.40
519.79	12959.55
519.96	13001.68
520.14	12872.95
520.31	13205.30
520.48	12994.65
520.65	12903.37
520.83	13029.76
521.00	13383.18
521.17	12882.31
521.34	13064.87
521.52	13076.57
521.69	13048.49
521.86	13107.00
522.03	13163.17
522.20	13397.23
522.38	13088.28
522.55	13572.77
522.72	13212.32
522.89	13530.64
523.07	13654.69
523.24	13303.60
523.41	13474.46
523.58	13387.86
523.75	13771.71
523.92	13514.25
524.10	13387.86
524.27	13376.16
524.44	13724.90
524.61	13605.53
524.78	13921.51
524.96	13654.69
525.13	13820.86
525.30	13720.22
525.47	13841.93
525.64	13855.97
525.81	13977.68
525.98	13933.21
526.16	13757.67
526.33	14073.64
526.50	14064.28
526.67	13844.27
526.84	13708.52
527.01	13926.19
527.18	13902.78
527.36	13935.55
527.53	14258.54
527.70	14256.20
527.87	13996.40
528.04	14167.26
528.21	14183.65
528.38	14008.11
528.55	14394.29
528.72	14026.83
528.89	14349.82
529.07	14207.05
529.24	14106.41
529.41	14534.73
529.58	14038.53
529.75	14225.78
529.92	14553.45
530.09	14338.12
530.26	14448.13
530.43	14420.04
530.60	14286.63
530.77	14377.91
530.94	14490.26
531.11	14387.27
531.28	14387.27
531.46	14600.26
531.63	14368.55
531.80	14576.86
531.97	14874.10
532.14	14675.16
532.31	14665.80
532.48	14736.01
532.65	14857.72
532.82	14860.06
532.99	14497.28
533.16	14867.08
533.33	14883.47
533.50	14764.10
533.67	14792.19
533.84	14841.34
534.01	14768.78
534.18	14764.10
534.35	14878.79
534.52	14904.53
534.69	15309.44
534.86	14881.13
535.03	15140.93
535.20	15199.44
535.37	15147.95
535.54	15030.92
535.71	14949.00
535.88	15246.25
536.05	14932.62
536.22	15063.69
536.38	15295.40
536.55	15150.29
536.72	15410.09
536.89	15049.64
537.06	15358.60
537.23	15353.91
537.40	15180.71
537.57	15152.63
537.74	15321.15
537.91	15590.31
538.08	15606.69
538.25	15360.94
538.42	15520.09
538.59	15609.03
538.75	15459.24
538.92	15349.23
539.09	15339.87
539.26	15461.58
539.43	15606.69
539.60	15604.35
539.77	15374.98
539.94	15744.78
540.11	15597.33
540.28	15730.74
540.44	15693.29
540.61	15557.54
540.78	15871.17
540.95	15709.68
541.12	15917.98
541.29	16166.08
541.46	16023.31
541.62	16119.27
541.79	16196.51
541.96	16020.97
542.13	16177.78
542.30	16395.45
542.47	16362.69
542.63	16638.87
542.80	16428.22
542.97	16334.60
543.14	16428.22
543.31	16093.52
543.48	16152.04
543.64	16477.37
543.81	16435.24
543.98	16278.43
544.15	16498.44
544.32	16514.82
544.48	16500.78
544.65	16315.87
544.82	16556.95
544.99	16266.72
545.16	16528.86
545.32	16411.84
545.49	16865.90
545.66	17523.59
545.83	17404.22
546.00	17415.93
546.16	17074.21
546.33	16706.74
546.50	16435.24
546.67	16540.57
546.83	16374.39
547.00	16606.10
547.17	16451.63
547.34	16643.55
547.50	16524.18
547.67	16458.65
547.84	16566.31
548.00	16758.24
548.17	16823.77
548.34	16561.63
548.51	16517.16
548.67	16865.90
548.84	16507.80
549.01	16496.10
549.18	16709.08
549.34	16643.55
549.51	16662.27
549.68	16552.27
549.84	16521.84
550.01	16795.68
550.18	16573.33
550.34	16760.58
550.51	17001.65
550.68	16776.96
550.84	16519.50
551.01	16692.70
551.18	16507.80
551.34	16358.00
551.51	16556.95
551.68	16638.87
551.84	16865.90
552.01	16678.66
552.18	16671.64
552.34	16456.31
552.51	16599.08
552.68	16629.51
552.84	16681.00
553.01	16992.29
553.18	16835.47
553.34	16908.03
553.51	16669.30
553.67	16954.84
553.84	17055.48
554.01	16767.60
554.17	16744.19
554.34	16779.30
554.51	16816.75
554.67	16676.32
554.84	16954.84
555.00	16851.86
555.17	16863.56
555.33	16945.48
555.50	16500.78
555.67	16788.66
555.83	16781.64
556.00	16882.28
556.16	17132.72
556.33	16910.37
556.50	16938.46
556.66	16952.50
556.83	16807.39
556.99	17125.70
557.16	17298.90
557.32	16823.77
557.49	17228.68
557.65	16910.37
557.82	16821.43
557.98	16776.96
558.15	17097.61
558.32	17139.74
558.48	17158.47
558.65	17355.07
558.81	17144.42
558.98	17268.47
559.14	16980.59
559.31	17027.40
559.47	17224.00
559.64	17067.19
559.80	17179.53
559.97	16961.86
560.13	17158.47
560.30	17172.51
560.46	17238.05
560.63	17025.06
560.79	17275.49
560.96	17324.65
561.12	17212.30
561.29	16842.50
561.45	16943.14
561.61	17022.72
561.78	17582.10
561.94	17315.28
562.11	17212.30
562.27	17479.12
562.44	16772.28
562.60	17123.36
562.77	17366.78
562.93	17116.34
563.10	17411.25
563.26	17308.26
563.42	17453.37
563.59	17483.80
563.75	17422.95
563.92	17298.90
564.08	17317.62
564.24	17434.65
564.41	17181.87
564.57	17064.85
564.74	17268.47
564.90	17312.94
565.07	17371.46
565.23	17121.02
565.39	17312.94
565.56	17322.30
565.72	17085.91
565.88	17352.73
566.05	16980.59
566.21	17420.61
566.38	17317.62
566.54	17228.68
566.70	17359.75
566.87	17434.65
567.03	17259.11
567.19	17322.30
567.36	17371.46
567.52	17259.11
567.68	17282.52
567.85	17357.41
568.01	17380.82
568.17	17263.79
568.34	17060.16
568.50	17200.60
568.66	17394.86
568.83	17451.03
568.99	17224.00
569.15	17404.22
569.32	17219.32
569.48	17111.66
569.64	17146.76
569.81	17146.76
569.97	17069.53
570.13	17303.58
570.30	17268.47
570.46	17411.25
570.62	17451.03
570.78	17436.99
570.95	17214.64
571.11	17245.07
571.27	16966.54
571.43	17547.00
571.60	17324.65
571.76	17444.01
571.92	17511.89
572.09	17493.16
572.25	17397.20
572.41	17324.65
572.57	17621.89
572.74	17444.01
572.90	17092.93
573.06	17467.42
573.22	17465.08
573.38	17600.83
573.55	17179.53
573.71	17776.37
573.87	17310.60
574.03	17228.68
574.20	17483.80
574.36	17287.20
574.52	17364.43
574.68	17565.72
574.84	17530.61
575.01	17448.69
575.17	17404.22
575.33	17226.34
575.49	17462.74
575.65	17441.67
575.82	17472.10
575.98	17408.90
576.14	17397.20
576.30	17188.89
576.46	17694.45
576.62	17514.23
576.79	17682.75
576.95	17539.97
577.11	17408.90
577.27	17523.59
577.43	17600.83
577.59	17453.37
577.75	17481.46
577.92	17296.56
578.08	17432.31
578.24	17453.37
578.40	17202.94
578.56	17757.64
578.72	17790.41
578.88	17832.54
579.04	17832.54
579.21	17734.24
579.37	17476.78
579.53	17411.25
579.69	17427.63
579.85	17518.91
580.01	17703.81
580.17	17493.16
580.33	17376.14
580.49	17689.77
580.65	17759.98
580.82	17783.39
580.98	17657.00
581.14	17575.08
581.30	17689.77
581.46	17689.77
581.62	17511.89
581.78	17156.13
581.94	17706.15
582.10	17432.31
582.26	17231.02
582.42	17549.34
582.58	17685.09
582.74	17734.24
582.90	17467.42
583.06	17362.09
583.22	17465.08
583.38	17626.57
583.54	17041.44
583.70	17635.94
583.86	17525.93
584.02	17387.84
584.18	17877.01
584.34	17561.04
584.50	17914.46
584.66	17582.10
584.82	17315.28
584.98	17502.53
585.14	17626.57
585.30	17535.29
585.46	17422.95
585.62	17771.69
585.78	17621.89
585.94	17551.68
586.10	17649.98
586.26	17537.63
586.42	17905.10
586.58	17738.92
586.74	17767.01
586.90	17710.83
587.06	17521.25
587.22	17731.90
587.38	17572.74
587.54	17710.83
587.70	17717.86
587.86	17617.21
588.02	17729.56
588.18	17844.24
588.34	17666.36
588.49	17736.58
588.65	17163.15
588.81	17645.30
588.97	17767.01
589.13	17788.07
589.29	17752.96
589.45	17708.49
589.61	17586.79
589.77	17858.29
589.93	17898.08
590.08	17675.73
590.24	17493.16
590.40	17385.50
590.56	17717.86
590.72	17628.92
590.88	17305.92
591.04	17776.37
591.20	17919.14
591.35	17977.65
591.51	18078.30
591.67	17680.41
591.83	17865.31
591.99	17722.54
592.15	18005.74
592.31	17701.47
592.46	17914.46
592.62	17696.79
592.78	17926.16
592.94	17860.63
593.10	18115.75
593.26	17666.36
