SpectraSuite Data File
++++++++++++++++++++++++++++++++++++
Date: Fri Oct 04 11:39:45 GMT-05:00 2013
User: price-jones
Dark Spectrum Present: No
Reference Spectrum Present: No
Number of Sampled Component Spectra: 1
Spectrometers: USB2+H05261
Integration Time (usec): 100000 (USB2+H05261)
Spectra Averaged: 1 (USB2+H05261)
Boxcar Smoothing: 0 (USB2+H05261)
Correct for Electrical Dark: No (USB2+H05261)
Strobe/Lamp Enabled: No (USB2+H05261)
Correct for Detector Non-linearity: No (USB2+H05261)
Correct for Stray Light: No (USB2+H05261)
Number of Pixels in Processed Spectrum: 2048
>>>>>Begin Processed Spectral Data<<<<<
365.73	77.24
365.92	77.24
366.12	77.24
366.32	0.00
366.52	0.00
366.72	39.79
366.91	4.68
367.11	49.15
367.31	0.00
367.51	0.00
367.70	0.00
367.90	0.00
368.10	0.00
368.30	0.00
368.49	0.00
368.69	0.00
368.89	0.00
369.09	0.00
369.28	0.00
369.48	0.00
369.68	0.00
369.87	95.96
370.07	14.04
370.27	9.36
370.47	159.16
370.66	407.25
370.86	484.49
371.06	543.00
371.25	585.13
371.45	519.60
371.65	514.92
371.84	521.94
372.04	540.66
372.24	540.66
372.44	512.58
372.63	519.60
372.83	634.29
373.03	620.24
373.22	519.60
373.42	589.82
373.62	615.56
373.81	662.37
374.01	634.29
374.21	653.01
374.40	643.65
374.60	674.07
374.79	620.24
374.99	617.90
375.19	695.14
375.38	690.46
375.58	784.08
375.78	807.48
375.97	760.67
376.17	784.08
376.37	704.50
376.56	699.82
376.76	770.04
376.95	725.57
377.15	685.78
377.35	770.04
377.54	753.65
377.74	730.25
377.93	781.74
378.13	739.61
378.33	791.10
378.52	793.44
378.72	880.04
378.91	837.91
379.11	835.57
379.31	748.97
379.50	767.70
379.70	973.66
379.89	875.36
380.09	880.04
380.28	755.99
380.48	868.34
380.68	774.72
380.87	812.17
381.07	917.49
381.26	868.34
381.46	868.34
381.65	908.13
381.85	924.51
382.04	908.13
382.24	987.71
382.43	908.13
382.63	959.62
382.83	1039.20
383.02	1015.79
383.22	1043.88
383.41	901.11
383.61	1013.45
383.80	980.68
384.00	1062.60
384.19	987.71
384.39	1025.15
384.58	968.98
384.78	1083.67
384.97	1071.97
385.17	1116.44
385.36	1025.15
385.56	1055.58
385.75	945.58
385.95	1125.80
386.14	1128.14
386.34	1020.47
386.53	1102.39
386.72	1203.04
386.92	1219.42
387.11	1156.22
387.31	1196.01
387.50	1153.88
387.70	1174.95
387.89	1130.48
388.09	1172.61
388.28	1160.91
388.48	1167.93
388.67	1301.34
388.86	1188.99
389.06	1174.95
389.25	1270.91
389.45	1254.53
389.64	1231.12
389.84	1294.32
390.03	1366.87
390.22	1263.89
390.42	1334.11
390.61	1291.98
390.81	1291.98
391.00	1364.53
391.19	1373.89
391.39	1369.21
391.58	1327.08
391.78	1387.94
391.97	1476.88
392.16	1411.34
392.36	1434.75
392.55	1399.64
392.75	1511.99
392.94	1476.88
393.13	1448.79
393.33	1530.71
393.52	1544.75
393.71	1558.80
393.91	1549.43
394.10	1444.11
394.29	1481.56
394.49	1441.77
394.68	1607.95
394.88	1554.12
395.07	1607.95
395.26	1638.38
395.46	1629.01
395.65	1673.48
395.84	1626.67
396.04	1757.74
396.23	1664.12
396.42	1682.85
396.62	1809.23
396.81	1767.10
397.00	1640.72
397.19	1699.23
397.39	1867.75
397.58	1799.87
397.77	1799.87
397.97	1844.34
398.16	1736.68
398.35	1858.39
398.55	1661.78
398.74	1790.51
398.93	1961.37
399.12	1926.26
399.32	1898.17
399.51	1832.64
399.70	2054.99
399.90	1954.35
400.09	1996.48
400.28	2059.67
400.47	2010.52
400.67	2101.80
400.86	2087.76
401.05	2113.50
401.24	2069.03
401.44	2207.13
401.63	2155.63
401.82	2174.36
402.01	2094.78
402.21	2230.53
402.40	2275.00
402.59	2157.97
402.78	2223.51
402.97	2300.75
403.17	2319.47
403.36	2232.87
403.55	2251.60
403.74	2349.90
403.93	2394.37
404.13	2471.61
404.32	2520.76
404.51	2380.32
404.70	2471.61
404.89	2422.45
405.09	2562.89
405.28	2562.89
405.47	2478.63
405.66	2516.08
405.85	2590.97
406.05	2619.06
406.24	2600.34
406.43	2572.25
406.62	2722.04
406.81	2794.60
407.00	2663.53
407.20	2623.74
407.39	2670.55
407.58	2825.03
407.77	2775.88
407.96	2729.06
408.15	2876.52
408.34	2803.96
408.54	2806.30
408.73	2874.18
408.92	2902.26
409.11	2906.95
409.30	2904.60
409.49	2958.44
409.68	2949.08
409.87	3033.33
410.07	3019.29
410.26	3178.45
410.45	3080.14
410.64	3119.93
410.83	3148.02
411.02	3229.94
411.21	3274.41
411.40	3169.09
411.59	3300.16
411.78	3398.46
411.98	3396.12
412.17	3363.35
412.36	3379.73
412.55	3574.00
412.74	3625.49
412.93	3513.14
413.12	3517.83
413.31	3648.90
413.50	3665.28
413.69	3796.35
413.88	3817.41
414.07	3763.58
414.26	3885.29
414.45	3859.54
414.64	3796.35
414.83	3796.35
415.02	3932.10
415.22	4018.70
415.41	4182.54
415.60	3995.29
415.79	4112.32
415.98	4231.69
416.17	4142.75
416.36	4142.75
416.55	4079.55
416.74	4135.73
416.93	4372.12
417.12	4423.61
417.31	4447.02
417.50	4421.27
417.69	4596.81
417.88	4582.77
418.07	4575.75
418.26	4671.71
418.45	4610.86
418.64	4865.97
418.83	4758.31
419.02	4781.71
419.21	4674.05
419.39	4997.04
419.58	4617.88
419.77	4695.11
419.96	4901.08
420.15	4821.50
420.34	4800.44
420.53	4959.60
420.72	4975.98
420.91	5081.30
421.10	5076.62
421.29	5434.72
421.48	5095.35
421.67	5231.10
421.86	5226.42
422.05	5144.50
422.24	5165.56
422.43	5104.71
422.61	5261.52
422.80	5413.66
422.99	5406.64
423.18	5434.72
423.37	5460.47
423.56	5268.55
423.75	5235.78
423.94	5195.99
424.13	4947.89
424.32	5067.26
424.50	5268.55
424.69	5488.56
424.88	5423.02
425.07	5308.34
425.26	5341.10
425.45	5245.14
425.64	5277.91
425.83	5401.96
426.01	5511.96
426.20	5296.63
426.39	5486.22
426.58	5418.34
426.77	5362.17
426.96	5558.77
427.15	5549.41
427.33	5558.77
427.52	5589.20
427.71	5631.33
427.90	5528.35
428.09	5755.38
428.28	5652.39
428.46	5650.05
428.65	6043.26
428.84	5935.60
429.03	6143.91
429.22	5750.70
429.40	6097.10
429.59	6031.56
429.78	5692.18
429.97	5860.70
430.16	5708.57
430.34	5940.28
430.53	6064.33
430.72	6094.76
430.91	6015.18
431.10	6258.59
431.28	6094.76
431.47	6265.61
431.66	6263.27
431.85	6305.40
432.03	6338.17
432.22	6375.62
432.41	6415.41
432.60	6462.22
432.79	6342.85
432.97	6450.52
433.16	6619.04
433.35	6665.85
433.54	6572.22
433.72	6803.94
433.91	6513.71
434.10	6677.55
434.28	6764.15
434.47	6829.68
434.66	6724.36
434.85	6942.03
435.03	6918.62
435.22	6935.01
435.41	7372.69
435.59	7286.09
435.78	7330.56
435.97	7281.41
436.16	7183.10
436.34	6981.82
436.53	7049.69
436.72	7281.41
436.90	6897.56
437.09	7117.57
437.28	7021.61
437.46	7274.38
437.65	7321.20
437.84	7637.17
438.02	7272.04
438.21	7351.62
438.40	7201.83
438.58	7517.80
438.77	7623.12
438.96	7522.48
439.14	7756.54
439.33	7831.43
439.52	8070.17
439.70	7868.88
439.89	8021.02
440.08	7939.10
440.26	7950.80
440.45	7934.42
440.63	8116.98
440.82	8234.00
441.01	8348.69
441.19	8346.35
441.38	8667.00
441.57	8442.31
441.75	8601.47
441.94	8615.51
442.12	8711.47
442.31	8629.56
442.50	8695.09
442.68	8744.24
442.87	8877.65
443.05	8730.20
443.24	9018.08
443.43	9064.89
443.61	9095.32
443.80	9158.52
443.98	9022.77
444.17	8748.92
444.35	9144.47
444.54	9235.75
444.73	9252.14
444.91	9050.85
445.10	9369.16
445.28	9270.86
445.47	8870.63
445.65	8980.64
445.84	9207.67
446.02	9315.33
446.21	9212.35
446.39	9111.71
446.58	9320.01
446.77	9411.29
446.95	9174.90
447.14	9312.99
447.32	9378.53
447.51	9350.44
447.69	9289.59
447.88	9483.85
448.06	9439.38
448.25	9446.40
448.43	9373.85
448.62	9439.38
448.80	9448.74
448.99	9401.93
449.17	9612.58
449.36	9497.89
449.54	9848.97
449.73	9633.64
449.91	9664.07
450.10	9888.76
450.28	9951.96
450.46	9820.89
450.65	9753.01
450.83	9898.13
451.02	10031.54
451.20	10019.83
451.39	9867.70
451.57	10111.11
451.76	9949.62
451.94	10251.55
452.13	10279.63
452.31	10263.25
452.49	10122.82
452.68	10312.40
452.86	10347.51
453.05	10214.10
453.23	10462.19
453.42	10260.91
453.60	10394.32
453.78	10480.92
453.97	10239.84
454.15	10607.31
454.34	10387.30
454.52	10546.45
454.70	10565.18
454.89	10766.46
455.07	10773.49
455.26	10750.08
455.44	11318.83
455.62	10843.70
455.81	10984.13
455.99	10729.02
456.17	10965.41
456.36	11030.94
456.54	11222.87
456.73	11150.31
456.91	11527.14
457.09	11398.41
457.28	11826.73
457.46	11323.51
457.64	11672.25
457.83	11709.70
458.01	11545.86
458.19	11777.58
458.38	11552.88
458.56	11793.96
458.74	11719.06
458.93	11655.87
459.11	11887.58
459.29	12100.57
459.48	12205.89
459.66	11791.62
459.84	12241.00
460.03	12205.89
460.21	12208.23
460.39	12336.96
460.57	11976.52
460.76	11997.59
460.94	12180.15
461.12	12222.28
461.31	12489.10
461.49	12262.07
461.67	12299.52
461.85	12510.16
462.04	12414.20
462.22	13039.12
462.40	12858.90
462.59	12580.38
462.77	12613.15
462.95	12924.44
463.13	12774.64
463.32	12833.16
463.50	12758.26
463.68	13078.91
463.86	12957.21
464.05	12781.67
464.23	13008.70
464.41	13118.70
464.59	12603.78
464.78	13245.09
464.96	12872.95
465.14	13043.81
465.32	13521.27
465.50	13291.90
465.69	13507.23
465.87	13172.54
466.05	13345.73
466.23	13373.82
466.41	13589.15
466.60	13947.25
466.78	13598.51
466.96	13371.48
467.14	13619.58
467.32	13605.53
467.51	13797.46
467.69	13359.78
467.87	13701.50
468.05	13973.00
468.23	13593.83
468.41	13783.41
468.60	13865.33
468.78	14249.18
468.96	13870.01
469.14	13935.55
469.32	14190.67
469.50	13832.57
469.69	14080.66
469.87	14420.04
470.05	14490.26
470.23	14670.48
470.41	14359.19
470.59	14572.18
470.77	14576.86
470.95	14623.67
471.14	14878.79
471.32	14637.71
471.50	15094.11
471.68	15009.86
471.86	15005.17
472.04	15253.27
472.22	15651.16
472.40	15300.08
472.58	15164.33
472.77	15482.64
472.95	15854.79
473.13	15988.20
473.31	15531.80
473.49	15637.12
473.67	15899.26
473.85	15807.98
474.03	16119.27
474.21	15917.98
474.39	16339.28
474.57	16280.77
474.75	16580.36
474.93	16582.70
475.12	16659.93
475.30	16727.81
475.48	16788.66
475.66	17078.89
475.84	16973.56
476.02	17149.11
476.20	16741.85
476.38	17172.51
476.56	17652.32
476.74	17444.01
476.92	17490.82
477.10	17640.62
477.28	17912.12
477.46	17837.22
477.64	18295.97
477.82	18291.29
478.00	18672.79
478.18	18815.57
478.36	18644.71
478.54	19147.92
478.72	19122.18
478.90	19435.81
479.08	19660.50
479.26	19534.11
479.44	19178.35
479.62	20095.84
479.80	20030.30
479.98	20072.43
480.16	20215.21
480.34	20610.76
480.52	20603.74
480.70	20779.28
480.88	20531.18
481.06	20982.90
481.24	20601.40
481.41	21434.63
481.59	21530.59
481.77	21525.91
481.95	22022.10
482.13	22082.95
482.31	21727.19
482.49	22494.89
482.67	22555.74
482.85	22867.03
483.03	23016.83
483.21	23185.35
483.39	23587.92
483.57	23412.38
483.74	23644.09
483.92	24107.52
484.10	23669.84
484.28	23957.72
484.46	24542.86
484.64	25226.29
484.82	24428.17
485.00	25106.93
485.18	24933.73
485.35	25612.48
485.53	25827.81
485.71	25696.74
485.89	26551.04
486.07	25898.03
486.25	26555.72
486.43	26052.50
486.61	26572.10
486.78	27089.36
486.96	27117.45
487.14	27243.84
487.32	27564.49
487.50	27688.54
487.68	27927.27
487.85	28463.25
488.03	28374.31
488.21	29001.58
488.39	28893.91
488.57	29198.18
488.75	29228.61
488.92	29715.44
489.10	29947.15
489.28	30134.40
489.46	30125.04
489.64	30396.54
489.81	30721.87
489.99	31044.87
490.17	31065.93
490.35	31126.78
490.53	31723.62
490.70	31529.36
490.88	31421.69
491.06	31917.89
491.24	32020.87
491.41	31910.86
491.59	32566.21
491.77	32800.27
491.95	33273.06
492.13	33303.48
492.30	33242.63
492.48	33354.97
492.66	33677.97
492.84	33750.52
493.01	33841.81
493.19	34298.21
493.37	34429.28
493.54	34785.04
493.72	34653.97
493.90	35103.35
494.08	35225.06
494.25	35878.07
494.43	35997.44
494.61	36423.42
494.79	36439.80
494.96	36503.00
495.14	36732.37
495.32	36517.04
495.49	36971.10
495.67	37305.80
495.85	37731.78
496.02	37537.51
496.20	37682.62
496.38	37787.95
496.55	37930.72
496.73	39058.86
496.91	38635.22
497.09	39208.65
497.26	39019.07
497.44	39250.78
497.62	39810.17
497.79	39517.60
497.97	39541.01
498.14	39864.00
498.32	40535.74
498.50	40488.93
498.67	40437.44
498.85	40360.20
499.03	40439.78
499.20	40828.30
499.38	41081.08
499.56	41462.59
499.73	41521.10
499.91	41942.40
500.08	42000.91
500.26	41586.64
500.44	42337.95
500.61	41778.56
500.79	42199.86
500.97	42508.81
501.14	42754.57
501.32	42560.30
501.49	42686.69
501.67	43157.14
501.84	43243.74
502.02	43688.44
502.20	43721.21
502.37	43889.73
502.55	43480.13
502.72	43899.09
502.90	43976.33
503.07	43522.26
503.25	44156.55
503.43	43920.15
503.60	44215.06
503.78	44875.09
503.95	45092.76
504.13	44797.85
504.30	45141.91
504.48	44596.57
504.65	44935.95
504.83	45485.97
505.01	45617.04
505.18	45675.55
505.36	46202.18
505.53	46057.06
505.71	46412.82
505.88	45986.85
506.06	46138.98
506.23	46642.20
506.41	46623.47
506.58	46810.71
506.76	46555.60
506.93	46845.82
507.11	46693.69
507.28	46927.74
507.46	47213.29
507.63	47501.17
507.81	47760.97
507.98	47391.17
508.16	47934.17
508.33	47662.67
508.50	47845.23
508.68	47873.32
508.85	48308.66
509.03	48451.43
509.20	48615.27
509.38	48769.74
509.55	48992.09
509.73	49294.02
509.90	49148.91
510.08	48835.28
510.25	49134.87
510.42	49518.71
510.60	49516.37
510.77	50000.86
510.95	49712.98
511.12	49212.10
511.30	49205.08
511.47	49879.16
511.64	50040.65
511.82	50124.91
511.99	50307.47
512.17	50389.39
512.34	49893.20
512.51	50447.91
512.69	50246.62
512.86	50841.12
513.04	50892.61
513.21	50925.38
513.38	51267.09
513.56	51356.03
513.73	50887.93
513.90	51180.49
514.08	51199.22
514.25	51531.57
514.43	51447.32
514.60	51615.83
514.77	51667.33
514.95	51779.67
515.12	51627.54
515.29	51592.43
515.47	51627.54
515.64	52121.39
515.81	52004.36
515.99	52247.78
516.16	52495.88
516.33	52306.29
516.51	52523.96
516.68	52219.69
516.85	52591.84
517.03	52601.20
517.20	52804.83
517.37	52666.73
517.54	52811.85
517.72	53081.01
517.89	52971.00
518.06	52704.18
518.24	52781.42
518.41	53336.13
518.58	53294.00
518.75	53347.83
518.93	53329.11
519.10	53347.83
519.27	53614.65
519.45	53471.88
519.62	53663.80
519.79	53528.05
519.96	53862.75
520.14	54110.85
520.31	53914.24
520.48	53947.01
520.65	54129.57
520.83	53818.28
521.00	54190.42
521.17	53998.50
521.34	54178.72
521.52	54363.62
521.69	54522.78
521.86	54536.82
522.03	54403.41
522.20	54574.27
522.38	54829.39
522.55	54433.84
522.72	54834.07
522.89	54827.05
523.07	55171.11
523.24	55100.89
523.41	55257.71
523.58	54960.46
523.75	55437.93
523.92	55288.13
524.10	55398.14
524.27	55484.74
524.44	55426.23
524.61	55599.43
524.78	55690.71
524.96	55632.19
525.13	55819.44
525.30	55643.90
525.47	55760.92
525.64	55744.54
525.81	56013.70
525.98	56156.47
526.16	56144.77
526.33	56271.16
526.50	56357.76
526.67	55884.97
526.84	56196.26
527.01	55920.08
527.18	56390.53
527.36	56537.98
527.53	56411.59
527.70	56795.44
527.87	56596.49
528.04	56334.35
528.21	56619.90
528.38	56420.95
528.55	56563.73
528.72	56818.84
528.89	56853.95
529.07	56701.82
529.24	56769.69
529.41	56889.06
529.58	56952.26
529.75	56966.30
529.92	57071.62
530.09	56975.66
530.26	57083.33
530.43	56931.19
530.60	57057.58
530.77	57340.78
530.94	57275.25
531.11	57455.47
531.28	56970.98
531.46	57256.53
531.63	57436.75
531.80	57518.67
531.97	57743.36
532.14	57689.52
532.31	57523.35
532.48	57825.28
532.65	57815.91
532.82	57616.97
532.99	57923.58
533.16	57478.88
533.33	57731.65
533.50	58370.62
533.67	57909.53
533.84	58064.01
534.01	57925.92
534.18	57939.96
534.35	58288.70
534.52	57935.28
534.69	58265.30
534.86	58277.00
535.03	58218.49
535.20	58471.26
535.37	58419.77
535.54	58258.27
535.71	58305.09
535.88	58298.06
536.05	58305.09
536.22	58578.93
536.38	58658.51
536.55	58656.17
536.72	58623.40
536.89	58731.06
537.06	58710.00
537.23	58724.04
537.40	58672.55
537.57	58719.36
537.74	58838.73
537.91	59021.29
538.08	58897.24
538.25	58918.31
538.42	58892.56
538.59	59241.30
538.75	58789.58
538.92	59016.61
539.09	59063.42
539.26	59128.95
539.43	59208.53
539.60	59510.46
539.77	59196.83
539.94	59487.06
540.11	59491.74
540.28	59274.07
540.44	59379.39
540.61	59372.37
540.78	59554.93
540.95	59707.07
541.12	59580.68
541.29	59571.32
541.46	59751.54
541.62	59526.84
541.79	59650.89
541.96	59620.47
542.13	59700.04
542.30	59531.53
542.47	59945.80
542.63	59788.98
542.80	60027.72
542.97	60058.15
543.14	60322.63
543.31	59934.10
543.48	59880.27
543.64	60392.84
543.81	60151.77
543.98	60324.97
544.15	60463.06
544.32	60470.08
544.48	60495.83
544.65	60182.19
544.82	60287.52
544.99	60044.10
545.16	60554.34
545.32	60205.60
545.49	60706.47
545.66	60999.04
545.83	60905.42
546.00	60764.99
546.16	60942.87
546.33	60664.35
546.50	60229.01
546.67	60662.00
546.83	60505.19
547.00	60734.56
547.17	60853.93
547.34	60708.82
547.50	60783.71
547.67	60900.74
547.84	60924.14
548.00	60720.52
548.17	60933.51
548.34	60877.33
548.51	60931.17
548.67	60938.19
548.84	61162.88
549.01	61158.20
549.18	61167.56
549.34	61057.56
549.51	60807.12
549.68	61043.51
549.84	61048.19
550.01	61029.47
550.18	61001.38
550.34	61078.62
550.51	61242.46
550.68	61443.74
550.84	61038.83
551.01	61230.75
551.18	61090.32
551.34	61158.20
551.51	61303.31
551.68	61205.01
551.84	61467.15
552.01	61169.90
552.18	61546.73
552.34	61422.68
552.51	61467.15
552.68	61427.36
552.84	61352.46
553.01	61467.15
553.18	61476.51
553.34	61680.14
553.51	61628.65
553.67	61689.50
553.84	61909.51
554.01	61944.62
554.17	61848.66
554.34	61820.57
554.51	61511.62
554.67	61771.42
554.84	61628.65
555.00	61834.61
555.17	61778.44
555.33	61956.32
555.50	61736.31
555.67	61811.21
555.83	61937.60
556.00	61839.29
556.16	62075.69
556.33	61858.02
556.50	61923.55
556.66	62129.52
556.83	61932.92
556.99	62518.05
557.16	62176.33
557.32	62258.25
557.49	62054.62
557.65	62019.52
557.82	62054.62
557.98	62159.95
558.15	62113.14
558.32	62063.99
558.48	62073.35
558.65	62213.78
558.81	62321.44
558.98	62342.51
559.14	62178.67
559.31	61876.74
559.47	62089.73
559.64	62204.42
559.80	62265.27
559.97	62291.02
560.13	62408.04
560.30	62485.28
560.46	62518.05
560.63	62471.24
560.79	62518.05
560.96	62499.33
561.12	62281.66
561.29	62382.30
561.45	62606.99
561.61	62574.22
561.78	62761.47
561.94	62599.97
562.11	62581.24
562.27	62684.23
562.44	62541.45
562.60	62520.39
562.77	62546.14
562.93	62487.62
563.10	62812.96
563.26	62564.86
563.42	62883.17
563.59	62862.11
563.75	62761.47
563.92	62941.69
564.08	62553.16
564.24	62667.84
564.41	62777.85
564.57	62691.25
564.74	62426.77
564.90	63016.58
565.07	62834.02
565.23	62843.38
565.39	62894.88
565.56	62773.17
565.72	62890.19
565.88	62677.21
566.05	62904.24
566.21	62777.85
566.38	62880.83
566.54	62852.75
566.70	63126.59
566.87	63063.39
567.03	63063.39
567.19	63098.50
567.36	62819.98
567.52	62885.51
567.68	62913.60
567.85	62890.19
568.01	62983.82
568.17	62763.81
568.34	63051.69
568.50	63047.01
568.66	63203.83
568.83	63187.44
568.99	63152.33
569.15	63030.63
569.32	63011.90
569.48	62885.51
569.64	63054.03
569.81	62993.18
569.97	63325.53
570.13	63058.71
570.30	62817.64
570.46	63245.96
570.62	63089.14
570.78	62948.71
570.95	63009.56
571.11	63196.80
571.27	62967.43
571.43	63065.73
571.60	63149.99
571.76	62892.54
571.92	63332.56
572.09	63330.22
572.25	63264.68
572.41	63220.21
572.57	63131.27
572.74	63456.60
572.90	63227.23
573.06	63327.87
573.22	63168.72
573.38	63320.85
573.55	63323.19
573.71	63613.42
573.87	63503.42
574.03	63262.34
574.20	63400.43
574.36	63189.78
574.52	63044.67
574.68	63220.21
574.84	63325.53
575.01	63346.60
575.17	63437.88
575.33	63192.12
575.49	63295.11
575.65	63316.17
575.82	63491.71
575.98	63241.28
576.14	63306.81
576.30	63348.94
576.46	63311.49
576.62	63269.36
576.79	63447.24
576.95	63257.66
577.11	63461.29
577.27	63248.30
577.43	63477.67
577.59	63398.09
577.75	63522.14
577.92	63213.19
578.08	63154.68
578.24	63051.69
578.40	63430.86
578.56	63491.71
578.72	63494.05
578.88	63641.51
579.04	63681.30
579.21	63597.04
579.37	63690.66
579.53	63529.16
579.69	63194.46
579.85	63407.45
580.01	63306.81
580.17	63484.69
580.33	63487.03
580.49	63714.06
580.65	63653.21
580.82	63512.78
580.98	63524.48
581.14	63377.03
581.30	63636.83
581.46	63374.69
581.62	63400.43
581.78	63260.00
581.94	63662.57
582.10	63590.01
582.26	63632.14
582.42	63716.40
582.58	63622.78
582.74	63529.16
582.90	63608.74
583.06	63585.33
583.22	63657.89
583.38	63566.61
583.54	63566.61
583.70	63604.06
583.86	63489.37
584.02	63440.22
584.18	63585.33
584.34	63756.19
584.50	63817.05
584.66	63606.40
584.82	63550.23
584.98	63650.87
585.14	63732.79
585.30	63517.46
585.46	63480.01
585.62	63557.25
585.78	63580.65
585.94	63484.69
586.10	63700.02
586.26	63636.83
586.42	64001.95
586.58	63810.03
586.74	63641.51
586.90	63416.82
587.06	63538.52
587.22	63767.90
587.38	63828.75
587.54	63704.70
587.70	63669.59
587.86	63737.47
588.02	63784.28
588.18	63901.31
588.34	63700.02
588.49	63985.57
588.65	63709.38
