SpectraSuite Data File
++++++++++++++++++++++++++++++++++++
Date: Fri Oct 04 11:39:30 GMT-05:00 2013
User: price-jones
Dark Spectrum Present: No
Reference Spectrum Present: No
Number of Sampled Component Spectra: 1
Spectrometers: USB2+H05261
Integration Time (usec): 100000 (USB2+H05261)
Spectra Averaged: 1 (USB2+H05261)
Boxcar Smoothing: 0 (USB2+H05261)
Correct for Electrical Dark: No (USB2+H05261)
Strobe/Lamp Enabled: No (USB2+H05261)
Correct for Detector Non-linearity: No (USB2+H05261)
Correct for Stray Light: No (USB2+H05261)
Number of Pixels in Processed Spectrum: 2048
>>>>>Begin Processed Spectral Data<<<<<
365.73	0.00
365.92	0.00
366.12	0.00
366.32	0.00
366.52	0.00
366.72	0.00
366.91	0.00
367.11	0.00
367.31	0.00
367.51	0.00
367.70	0.00
367.90	0.00
368.10	0.00
368.30	0.00
368.49	0.00
368.69	7.02
368.89	0.00
369.09	9.36
369.28	0.00
369.48	0.00
369.68	4.68
369.87	0.00
370.07	51.49
370.27	0.00
370.47	7.02
370.66	0.00
370.86	131.07
371.06	147.45
371.25	133.41
371.45	95.96
371.65	170.86
371.84	140.43
372.04	175.54
372.24	117.03
372.44	170.86
372.63	191.92
372.83	180.22
373.03	180.22
373.22	170.86
373.42	114.69
373.62	161.50
373.81	184.90
374.01	262.14
374.21	182.56
374.40	189.58
374.60	238.73
374.79	191.92
374.99	131.07
375.19	259.80
375.38	180.22
375.58	210.65
375.78	215.33
375.97	231.71
376.17	241.08
376.37	248.10
376.56	177.88
376.76	152.13
376.95	131.07
377.15	173.20
377.35	220.01
377.54	271.50
377.74	203.63
377.93	187.24
378.13	245.76
378.33	271.50
378.52	173.20
378.72	220.01
378.91	205.97
379.11	208.31
379.31	205.97
379.50	229.37
379.70	187.24
379.89	205.97
380.09	210.65
380.28	184.90
380.48	191.92
380.68	145.11
380.87	175.54
381.07	212.99
381.26	177.88
381.46	264.48
381.65	140.43
381.85	205.97
382.04	220.01
382.24	229.37
382.43	203.63
382.63	177.88
382.83	222.35
383.02	196.60
383.22	297.25
383.41	184.90
383.61	227.03
383.80	238.73
384.00	224.69
384.19	201.29
384.39	196.60
384.58	154.48
384.78	201.29
384.97	201.29
385.17	210.65
385.36	212.99
385.56	273.84
385.75	175.54
385.95	234.05
386.14	201.29
386.34	243.42
386.53	241.08
386.72	252.78
386.92	313.63
387.11	168.52
387.31	215.33
387.50	245.76
387.70	264.48
387.89	220.01
388.09	236.39
388.28	269.16
388.48	201.29
388.67	266.82
388.86	224.69
389.06	252.78
389.25	259.80
389.45	163.84
389.64	203.63
389.84	255.12
390.03	297.25
390.22	250.44
390.42	264.48
390.61	187.24
390.81	217.67
391.00	280.86
391.19	313.63
391.39	231.71
391.58	271.50
391.78	182.56
391.97	266.82
392.16	273.84
392.36	332.36
392.55	269.16
392.75	210.65
392.94	330.02
393.13	238.73
393.33	285.55
393.52	259.80
393.71	264.48
393.91	255.12
394.10	208.31
394.29	278.52
394.49	294.91
394.68	330.02
394.88	344.06
395.07	330.02
395.26	365.12
395.46	325.33
395.65	365.12
395.84	308.95
396.04	404.91
396.23	397.89
396.42	304.27
396.62	355.76
396.81	351.08
397.00	376.83
397.19	374.49
397.39	320.65
397.58	400.23
397.77	428.32
397.97	304.27
398.16	409.59
398.35	447.04
398.55	458.74
398.74	325.33
398.93	463.43
399.12	365.12
399.32	435.34
399.51	386.19
399.70	465.77
399.90	449.38
400.09	421.30
400.28	447.04
400.47	472.79
400.67	430.66
400.86	423.64
401.05	454.06
401.24	397.89
401.44	505.56
401.63	564.07
401.82	461.09
402.01	503.22
402.21	580.45
402.40	500.87
402.59	475.13
402.78	519.60
402.97	573.43
403.17	491.51
403.36	564.07
403.55	606.20
403.74	517.26
403.93	582.79
404.13	662.37
404.32	641.31
404.51	622.58
404.70	636.63
404.89	606.20
405.09	606.20
405.28	573.43
405.47	571.09
405.66	645.99
405.85	641.31
406.05	585.13
406.24	627.26
406.43	596.84
406.62	702.16
406.81	760.67
407.00	692.80
407.20	660.03
407.39	716.20
407.58	807.48
407.77	786.42
407.96	744.29
408.15	802.80
408.34	788.76
408.54	828.55
408.73	664.71
408.92	926.85
409.11	739.61
409.30	809.83
409.49	814.51
409.68	767.70
409.87	737.27
410.07	924.51
410.26	926.85
410.45	931.53
410.64	936.21
410.83	987.71
411.02	957.28
411.21	954.94
411.40	957.28
411.59	1039.20
411.78	999.41
411.98	1048.56
412.17	1097.71
412.36	1036.86
412.55	1039.20
412.74	1039.20
412.93	1104.73
413.12	1022.81
413.31	1121.12
413.50	1121.12
413.69	1146.86
413.88	1184.31
414.07	1212.40
414.26	1198.35
414.45	1167.93
414.64	1249.85
414.83	1233.46
415.02	1308.36
415.22	1270.91
415.41	1270.91
415.60	1270.91
415.79	1336.45
415.98	1289.64
416.17	1277.93
416.36	1336.45
416.55	1324.74
416.74	1362.19
416.93	1469.86
417.12	1434.75
417.31	1441.77
417.50	1369.21
417.69	1509.65
417.88	1490.92
418.07	1504.96
418.26	1474.54
418.45	1549.43
418.64	1582.20
418.83	1626.67
419.02	1451.13
419.21	1582.20
419.39	1570.50
419.58	1540.07
419.77	1554.12
419.96	1593.90
420.15	1722.63
420.34	1586.88
420.53	1706.25
420.72	1694.55
420.91	1741.36
421.10	1638.38
421.29	1708.59
421.48	1720.29
421.67	1764.76
421.86	1724.97
422.05	1818.60
422.24	1757.74
422.43	1666.46
422.61	1631.35
422.80	1727.32
422.99	1671.14
423.18	1774.13
423.37	1743.70
423.56	1806.89
423.75	1750.72
423.94	1755.40
424.13	1671.14
424.32	1675.82
424.50	1701.57
424.69	1856.04
424.88	1846.68
425.07	1839.66
425.26	1834.98
425.45	1790.51
425.64	1823.28
425.83	1802.21
426.01	1867.75
426.20	1914.56
426.39	1872.43
426.58	1935.62
426.77	1853.70
426.96	1919.24
427.15	1902.86
427.33	1839.66
427.52	1893.49
427.71	1856.04
427.90	1884.13
428.09	1905.20
428.28	1891.15
428.46	2003.50
428.65	1905.20
428.84	2045.63
429.03	1942.64
429.22	2054.99
429.40	2038.61
429.59	2015.20
429.78	1930.94
429.97	1863.07
430.16	2005.84
430.34	2012.86
430.53	2071.37
430.72	2092.44
430.91	2099.46
431.10	1998.82
431.28	2195.42
431.47	2132.23
431.66	2157.97
431.85	2162.66
432.03	2101.80
432.22	2279.68
432.41	2193.08
432.60	2265.64
432.79	2260.96
432.97	2106.48
433.16	2129.89
433.35	2216.49
433.54	2186.06
433.72	2223.51
433.91	2342.88
434.10	2354.58
434.28	2186.06
434.47	2298.41
434.66	2359.26
434.85	2326.49
435.03	2375.64
435.22	2633.10
435.41	2810.98
435.59	2705.66
435.78	2651.83
435.97	2448.20
436.16	2359.26
436.34	2389.69
436.53	2373.30
436.72	2541.82
436.90	2406.07
437.09	2457.56
437.28	2520.76
437.46	2340.54
437.65	2452.88
437.84	2466.92
438.02	2424.80
438.21	2541.82
438.40	2555.86
438.58	2509.05
438.77	2534.80
438.96	2553.52
439.14	2530.12
439.33	2555.86
439.52	2661.19
439.70	2623.74
439.89	2750.13
440.08	2705.66
440.26	2682.25
440.45	2605.02
440.63	2729.06
440.82	2773.53
441.01	2759.49
441.19	2832.05
441.38	2832.05
441.57	2885.88
441.75	2909.29
441.94	2857.79
442.12	2825.03
442.31	2862.48
442.50	3000.57
442.68	2932.69
442.87	2935.03
443.05	3047.38
443.24	3009.93
443.43	2944.39
443.61	3052.06
443.80	3040.36
443.98	3033.33
444.17	2956.10
444.35	3152.70
444.54	3171.43
444.73	3108.23
444.91	2984.18
445.10	3077.80
445.28	3206.53
445.47	3026.31
445.65	3103.55
445.84	3199.51
446.02	3075.46
446.21	3075.46
446.39	3169.09
446.58	3246.32
446.77	3150.36
446.95	2937.37
447.14	3204.19
447.32	3155.04
447.51	3115.25
447.69	3124.62
447.88	3236.96
448.06	3276.75
448.25	3124.62
448.43	3150.36
448.62	3166.74
448.80	3145.68
448.99	3215.90
449.17	3084.83
449.36	3150.36
449.54	3251.00
449.73	3304.84
449.91	3372.71
450.10	3236.96
450.28	3337.60
450.46	3475.70
450.65	3363.35
450.83	3248.66
451.02	3328.24
451.20	3379.73
451.39	3449.95
451.57	3342.28
451.76	3314.20
451.94	3314.20
452.13	3414.84
452.31	3342.28
452.49	3550.59
452.68	3384.41
452.86	3403.14
453.05	3475.70
453.23	3557.61
453.42	3400.80
453.60	3463.99
453.78	3522.51
453.97	3506.12
454.15	3524.85
454.34	3522.51
454.52	3414.84
454.70	3613.79
454.89	3709.75
455.07	3536.55
455.26	3588.04
455.44	3583.36
455.62	3765.92
455.81	3700.39
455.99	3735.50
456.17	3604.42
456.36	3679.32
456.54	3698.05
456.73	3691.02
456.91	3779.97
457.09	3669.96
457.28	3948.48
457.46	3782.31
457.64	3911.04
457.83	3779.97
458.01	3894.65
458.19	3990.61
458.38	3887.63
458.56	3871.25
458.74	3950.82
458.93	3992.95
459.11	4037.42
459.29	3885.29
459.48	3843.16
459.66	4030.40
459.84	3969.55
460.03	4280.84
460.21	3997.64
460.39	3929.76
460.57	4081.89
460.76	4128.70
460.94	3941.46
461.12	4021.04
461.31	4058.49
461.49	4119.34
461.67	4030.40
461.85	4159.13
462.04	4191.90
462.22	4447.02
462.40	4100.62
462.59	4159.13
462.77	4264.46
462.95	4142.75
463.13	4227.01
463.32	4276.16
463.50	4184.88
463.68	4407.23
463.86	4236.37
464.05	4093.60
464.23	4215.30
464.41	4351.06
464.59	4290.20
464.78	4311.27
464.96	4358.08
465.14	4376.80
465.32	4311.27
465.50	4344.03
465.69	4468.08
465.87	4533.62
466.05	4320.63
466.23	4320.63
466.41	4320.63
466.60	4430.63
466.78	4311.27
466.96	4411.91
467.14	4428.29
467.32	4561.70
467.51	4528.94
467.69	4440.00
467.87	4470.42
468.05	4582.77
468.23	4585.11
468.41	4606.17
468.60	4437.66
468.78	4631.92
468.96	4636.60
469.14	4664.69
469.32	4624.90
469.50	4620.22
469.69	4669.37
469.87	4713.84
470.05	4800.44
470.23	4830.87
470.41	4795.76
470.59	4901.08
470.77	4645.96
470.95	4767.67
471.14	4751.29
471.32	4606.17
471.50	4814.48
471.68	4922.15
471.86	4882.36
472.04	4978.32
472.22	4926.83
472.40	4896.40
472.58	4889.38
472.77	5085.98
472.95	5013.43
473.13	5125.77
473.31	5046.20
473.49	4924.49
473.67	5118.75
473.85	5034.49
474.03	5254.50
474.21	5186.63
474.39	5266.21
474.57	5179.61
474.75	5408.98
474.93	5376.21
475.12	5263.86
475.30	5434.72
475.48	5458.13
475.66	5607.92
475.84	5495.58
476.02	5596.22
476.20	5448.77
476.38	5671.12
476.56	5731.97
476.74	5738.99
476.92	5678.14
477.10	5708.57
477.28	5706.23
477.46	5769.42
477.64	5944.96
477.82	5895.81
478.00	5921.56
478.18	6064.33
478.36	5942.62
478.54	5949.64
478.72	6188.38
478.90	6216.46
479.08	6399.02
479.26	6162.63
479.44	6370.94
479.62	6373.28
479.80	6445.84
479.98	6394.34
480.16	6621.38
480.34	6399.02
480.52	6380.30
480.70	6691.59
480.88	6532.44
481.06	6609.67
481.24	6757.13
481.41	6796.92
481.59	6782.87
481.77	6918.62
481.95	6888.20
482.13	7016.93
482.31	6799.26
482.49	7131.61
482.67	7119.91
482.85	7262.68
483.03	7248.64
483.21	7440.56
483.39	7461.63
483.57	7414.82
483.74	7691.00
483.92	7665.25
484.10	7527.16
484.28	7770.58
484.46	7674.62
484.64	8044.42
484.82	7686.32
485.00	7658.23
485.18	8032.72
485.35	8077.19
485.53	8147.40
485.71	8175.49
485.89	8292.52
486.07	8271.45
486.25	8255.07
486.43	8276.13
486.61	8332.31
486.78	8648.28
486.96	8442.31
487.14	8545.30
487.32	8685.73
487.50	8849.57
487.68	8872.97
487.85	9069.58
488.03	9046.17
488.21	9132.77
488.39	9025.11
488.57	9011.06
488.75	9036.81
488.92	9628.96
489.10	9453.42
489.28	9558.75
489.46	9682.80
489.64	9507.26
489.81	9717.90
489.99	9729.61
490.17	9743.65
490.35	9994.09
490.53	9881.74
490.70	9900.47
490.88	10085.37
491.06	10232.82
491.24	10403.68
491.41	10296.02
491.59	10218.78
491.77	10216.44
491.95	10284.31
492.13	10504.32
492.30	10539.43
492.48	10527.73
492.66	10682.20
492.84	10733.70
493.01	10733.70
493.19	10836.68
493.37	10817.96
493.54	10874.13
493.72	11042.65
493.90	10867.11
494.08	11117.54
494.25	11162.01
494.43	11185.42
494.61	11396.07
494.79	11325.85
494.96	11281.38
495.14	11262.66
495.32	11405.43
495.49	11304.79
495.67	11463.94
495.85	11639.48
496.02	11836.09
496.20	11800.98
496.38	11721.40
496.55	11690.98
496.73	12023.33
496.91	11997.59
497.09	12131.00
497.26	11964.82
497.44	12245.68
497.62	12311.22
497.79	12404.84
497.97	12238.66
498.14	12622.51
498.32	12472.71
498.50	12730.17
498.67	12585.06
498.85	12877.63
499.03	12671.66
499.20	12800.39
499.38	13029.76
499.56	12961.89
499.73	12884.65
499.91	12931.46
500.08	13338.71
500.26	13170.19
500.44	13193.60
500.61	13195.94
500.79	13303.60
500.97	13324.67
501.14	13387.86
501.32	13380.84
501.49	13352.76
501.67	13565.74
501.84	13418.29
502.02	13537.66
502.20	13788.10
502.37	13713.20
502.55	13589.15
502.72	13556.38
502.90	13762.35
503.07	13642.98
503.25	13743.63
503.43	13968.32
503.60	13984.70
503.78	14017.47
503.95	13940.23
504.13	14092.37
504.30	14193.01
504.48	14073.64
504.65	14314.72
504.83	14223.44
505.01	14274.93
505.18	14506.64
505.36	14593.24
505.53	14420.04
505.71	14633.03
505.88	14689.20
506.06	14359.19
506.23	14614.30
506.41	14513.66
506.58	14780.48
506.76	14579.20
506.93	14490.26
507.11	14658.78
507.28	14888.15
507.46	14885.81
507.63	15222.84
507.81	15084.75
507.98	15194.76
508.16	15061.35
508.33	15229.87
508.50	15115.18
508.68	15370.30
508.85	15367.96
509.03	15508.39
509.20	15508.39
509.38	15239.23
509.55	15468.60
509.73	15805.64
509.90	15499.03
510.08	15707.34
510.25	15730.74
510.42	15829.04
510.60	15868.83
510.77	15936.71
510.95	15941.39
511.12	15566.90
511.30	15861.81
511.47	16051.39
511.64	15946.07
511.82	16084.16
511.99	16180.12
512.17	16313.53
512.34	15932.03
512.51	16276.09
512.69	16472.69
512.86	16140.33
513.04	16610.78
513.21	16526.52
513.38	16627.17
513.56	16446.94
513.73	16365.03
513.90	16542.91
514.08	16189.49
514.25	16896.33
514.43	16882.28
514.60	16779.30
514.77	17008.67
514.95	16699.72
515.12	16872.92
515.29	17078.89
515.47	16924.41
515.64	17081.23
515.81	17289.54
515.99	17135.06
516.16	17420.61
516.33	17216.98
516.51	17392.52
516.68	17078.89
516.85	17282.52
517.03	17544.66
517.20	17497.84
517.37	17369.12
517.54	17535.29
517.72	17371.46
517.89	17483.80
518.06	17652.32
518.24	17472.10
518.41	17855.95
518.58	17713.17
518.75	17928.50
518.93	18022.12
519.10	17680.41
519.27	17628.92
519.45	17635.94
519.62	17642.96
519.79	18087.66
519.96	18204.69
520.14	18181.28
520.31	18031.49
520.48	18050.21
520.65	18108.72
520.83	18338.10
521.00	18401.29
521.17	18216.39
521.34	18291.29
521.52	18487.89
521.69	18537.04
521.86	18567.47
522.03	18579.17
522.20	18656.41
522.38	18466.83
522.55	18349.80
522.72	18829.61
522.89	18747.69
523.07	18625.98
523.24	18630.66
523.41	18913.87
523.58	18757.05
523.75	19007.49
523.92	19028.56
524.10	19049.62
524.27	19051.96
524.44	19241.54
524.61	19023.87
524.78	18958.34
524.96	19389.00
525.13	19075.37
525.30	19311.76
525.47	19419.42
525.64	19281.33
525.81	19426.45
525.98	19583.26
526.16	19262.61
526.33	19271.97
526.50	19630.07
526.67	19412.40
526.84	19623.05
527.01	19379.64
527.18	19358.57
527.36	19599.65
527.53	19524.75
527.70	19688.59
527.87	19854.76
528.04	19803.27
528.21	19829.02
528.38	19943.70
528.55	19859.45
528.72	19850.08
528.89	19812.63
529.07	19639.44
529.24	19697.95
529.41	20086.48
529.58	20037.33
529.75	20135.63
529.92	19908.60
530.09	20231.59
530.26	19885.19
530.43	20416.49
530.60	20301.81
530.77	20538.20
530.94	20187.12
531.11	19920.30
531.28	20357.98
531.46	20105.20
531.63	20297.13
531.80	20552.24
531.97	20374.36
532.14	20442.24
532.31	20320.53
532.48	20484.37
532.65	20622.46
532.82	20606.08
532.99	20348.62
533.16	20266.70
533.33	20772.25
533.50	20828.43
533.67	20849.49
533.84	20692.68
534.01	20798.00
534.18	20774.60
534.35	20987.58
534.52	21006.31
534.69	21078.86
534.86	21298.88
535.03	20966.52
535.20	21055.46
535.37	21067.16
535.54	21013.33
535.71	20938.43
535.88	21036.74
536.05	21238.02
536.22	21233.34
536.38	21139.72
536.55	21249.72
536.72	21387.82
536.89	21053.12
537.06	21404.20
537.23	21399.52
537.40	21401.86
537.57	21249.72
537.74	21553.99
537.91	21378.45
538.08	21551.65
538.25	21296.53
538.42	21521.23
538.59	21577.40
538.75	21373.77
538.92	21453.35
539.09	21479.10
539.26	21645.27
539.43	21774.00
539.60	21930.82
539.77	21844.22
539.94	21975.29
540.11	21862.94
540.28	21617.19
540.44	22202.32
540.61	21825.50
540.78	21984.65
540.95	22260.84
541.12	22302.96
541.29	22466.80
541.46	22368.50
541.62	22441.06
541.79	22370.84
541.96	22178.92
542.13	22089.98
542.30	22532.34
542.47	22445.74
542.63	22478.50
542.80	22651.70
542.97	22583.83
543.14	22724.26
543.31	22539.36
543.48	22560.42
543.64	23094.07
543.81	22813.20
543.98	23070.66
544.15	22897.46
544.32	22700.86
544.48	22981.72
544.65	22712.56
544.82	22869.37
544.99	22616.60
545.16	22911.50
545.32	23218.11
545.49	23889.85
545.66	23910.91
545.83	24041.98
546.00	23941.34
546.16	23016.83
546.33	23257.90
546.50	22834.27
546.67	23073.00
546.83	22836.61
547.00	22817.88
547.17	23061.30
547.34	23054.28
547.50	23161.94
547.67	23232.16
547.84	23489.62
548.00	23248.54
548.17	23138.54
548.34	23150.24
548.51	23421.74
548.67	23269.61
548.84	23377.27
549.01	23285.99
549.18	23190.03
549.34	22904.48
549.51	23091.73
549.68	23171.30
549.84	23356.21
550.01	23358.55
550.18	23178.33
550.34	23175.98
550.51	23461.53
550.68	22986.40
550.84	23152.58
551.01	23243.86
551.18	23307.05
551.34	23456.85
551.51	23651.11
551.68	23346.84
551.84	23506.00
552.01	23157.26
552.18	23676.86
552.34	23510.68
552.51	23271.95
552.68	23225.14
552.84	23456.85
553.01	23337.48
553.18	23524.72
553.34	23489.62
553.51	23459.19
553.67	23749.42
553.84	23669.84
554.01	23477.91
554.17	23749.42
554.34	23562.17
554.51	23679.20
554.67	23817.29
554.84	23550.47
555.00	23463.87
555.17	23777.50
555.33	23669.84
555.50	23866.44
555.67	23447.49
555.83	23826.65
556.00	23384.29
556.16	23941.34
556.33	24067.73
556.50	23644.09
556.66	23728.35
556.83	24041.98
556.99	24032.62
557.16	23939.00
557.32	24023.26
557.49	23616.01
557.65	23831.33
557.82	23772.82
557.98	23557.49
558.15	23939.00
558.32	24002.19
558.48	23534.09
558.65	23981.13
558.81	24058.37
558.98	23796.23
559.14	23718.99
559.31	23798.57
559.47	23779.84
559.64	24002.19
559.80	24046.66
559.97	24020.92
560.13	23838.36
560.30	23962.40
560.46	23618.35
560.63	23831.33
560.79	23978.79
560.96	24271.36
561.12	24109.86
561.29	23889.85
561.45	23948.36
561.61	24086.45
561.78	24140.29
561.94	24016.24
562.11	24182.42
562.27	24437.53
562.44	24063.05
562.60	24231.57
562.77	24144.97
562.93	23747.08
563.10	23950.70
563.26	24383.70
563.42	24032.62
563.59	24379.02
563.75	24208.16
563.92	24472.64
564.08	24149.65
564.24	24123.90
564.41	24336.89
564.57	23896.87
564.74	24077.09
564.90	24116.88
565.07	24491.37
565.23	24753.51
565.39	24395.40
565.56	24386.04
565.72	24086.45
565.88	24346.25
566.05	24325.19
566.21	24493.71
566.38	23868.78
566.54	24467.96
566.70	24472.64
566.87	24432.85
567.03	24163.69
567.19	24336.89
567.36	24271.36
567.52	24329.87
567.68	24608.39
567.85	24093.47
568.01	24077.09
568.17	24098.16
568.34	24570.94
568.50	24212.84
568.66	24608.39
568.83	24711.38
568.99	24128.58
569.15	23917.93
569.32	24130.92
569.48	24428.17
569.64	24414.13
569.81	24374.34
569.97	24465.62
570.13	24409.45
570.30	24243.27
570.46	24271.36
570.62	24439.87
570.78	24287.74
570.95	24348.59
571.11	24503.07
571.27	24744.14
571.43	24503.07
571.60	24563.92
571.76	24313.48
571.92	24456.26
572.09	24465.62
572.25	24582.65
572.41	24411.79
572.57	24435.19
572.74	24479.66
572.90	24250.29
573.06	24446.90
573.22	24039.64
573.38	24346.25
573.55	24402.43
573.71	25001.60
573.87	24716.06
574.03	24449.24
574.20	24538.18
574.36	24336.89
574.52	24151.99
574.68	24364.98
574.84	24205.82
575.01	24538.18
575.17	24151.99
575.33	24437.53
575.49	24657.54
575.65	24596.69
575.82	24442.21
575.98	24453.92
576.14	24479.66
576.30	24599.03
576.46	24474.98
576.62	24774.57
576.79	24697.33
576.95	24467.96
577.11	24243.27
577.27	24299.44
577.43	24439.87
577.59	24486.68
577.75	24713.72
577.92	24346.25
578.08	24250.29
578.24	24067.73
578.40	24205.82
578.56	24711.38
578.72	24725.42
578.88	24809.68
579.04	24905.64
579.21	24629.46
579.37	24664.57
579.53	24463.28
579.69	24205.82
579.85	24053.69
580.01	24779.25
580.17	24379.02
580.33	24573.28
580.49	24584.99
580.65	24615.41
580.82	24542.86
580.98	24755.85
581.14	24577.97
581.30	24727.76
581.46	24517.11
581.62	24676.27
581.78	24453.92
581.94	24772.23
582.10	24716.06
582.26	24657.54
582.42	24542.86
582.58	24877.55
582.74	24627.12
582.90	24540.52
583.06	24863.51
583.22	24409.45
583.38	24608.39
583.54	24842.45
583.70	24685.63
583.86	24620.10
584.02	24606.05
584.18	24636.48
584.34	24725.42
584.50	24907.98
584.66	24465.62
584.82	24603.71
584.98	24929.05
585.14	24692.65
585.30	24826.06
585.46	24566.26
585.62	24872.87
585.78	24732.44
585.94	24573.28
586.10	24552.22
586.26	24549.88
586.42	25172.46
586.58	24980.54
586.74	24613.07
586.90	24533.50
587.06	24739.46
587.22	24940.75
587.38	24430.51
587.54	24870.53
587.70	25235.66
587.86	24856.49
588.02	24767.55
588.18	24926.71
588.34	24573.28
588.49	24615.41
588.65	24725.42
588.81	24540.52
588.97	24849.47
589.13	24893.94
589.29	24678.61
589.45	24805.00
589.61	24446.90
589.77	24905.64
589.93	25041.39
590.08	24718.40
590.24	24877.55
590.40	25200.55
590.56	25266.08
590.72	24760.53
590.88	24709.04
591.04	24959.47
591.20	24772.23
591.35	25200.55
591.51	25029.69
591.67	24980.54
591.83	24622.44
591.99	25120.97
592.15	24706.70
592.31	24875.21
