SpectraSuite Data File
++++++++++++++++++++++++++++++++++++
Date: Fri Oct 04 11:40:03 GMT-05:00 2013
User: price-jones
Dark Spectrum Present: No
Reference Spectrum Present: No
Number of Sampled Component Spectra: 1
Spectrometers: USB2+H05261
Integration Time (usec): 100000 (USB2+H05261)
Spectra Averaged: 1 (USB2+H05261)
Boxcar Smoothing: 0 (USB2+H05261)
Correct for Electrical Dark: No (USB2+H05261)
Strobe/Lamp Enabled: No (USB2+H05261)
Correct for Detector Non-linearity: No (USB2+H05261)
Correct for Stray Light: No (USB2+H05261)
Number of Pixels in Processed Spectrum: 2048
>>>>>Begin Processed Spectral Data<<<<<
365.73	46.81
365.92	46.81
366.12	46.81
366.32	0.00
366.52	0.00
366.72	0.00
366.91	0.00
367.11	0.00
367.31	0.00
367.51	0.00
367.70	0.00
367.90	0.00
368.10	0.00
368.30	0.00
368.49	0.00
368.69	11.70
368.89	0.00
369.09	0.00
369.28	0.00
369.48	0.00
369.68	32.77
369.87	49.15
370.07	0.00
370.27	86.60
370.47	98.30
370.66	0.00
370.86	39.79
371.06	110.01
371.25	124.05
371.45	0.00
371.65	102.98
371.84	72.56
372.04	39.79
372.24	84.26
372.44	67.88
372.63	124.05
372.83	102.98
373.03	84.26
373.22	117.03
373.42	152.13
373.62	72.56
373.81	81.92
374.01	102.98
374.21	121.71
374.40	95.96
374.60	194.26
374.79	177.88
374.99	149.79
375.19	152.13
375.38	149.79
375.58	72.56
375.78	156.82
375.97	163.84
376.17	175.54
376.37	91.28
376.56	149.79
376.76	142.77
376.95	114.69
377.15	131.07
377.35	128.73
377.54	93.62
377.74	133.41
377.93	131.07
378.13	112.35
378.33	184.90
378.52	112.35
378.72	88.94
378.91	152.13
379.11	105.32
379.31	72.56
379.50	138.09
379.70	131.07
379.89	154.48
380.09	133.41
380.28	70.22
380.48	72.56
380.68	91.28
380.87	81.92
381.07	124.05
381.26	201.29
381.46	180.22
381.65	107.66
381.85	98.30
382.04	74.90
382.24	142.77
382.43	149.79
382.63	86.60
382.83	110.01
383.02	191.92
383.22	175.54
383.41	95.96
383.61	170.86
383.80	84.26
384.00	91.28
384.19	147.45
384.39	81.92
384.58	159.16
384.78	135.75
384.97	100.64
385.17	133.41
385.36	133.41
385.56	128.73
385.75	102.98
385.95	112.35
386.14	161.50
386.34	194.26
386.53	95.96
386.72	72.56
386.92	88.94
387.11	121.71
387.31	180.22
387.50	93.62
387.70	117.03
387.89	98.30
388.09	100.64
388.28	32.77
388.48	88.94
388.67	110.01
388.86	58.51
389.06	124.05
389.25	212.99
389.45	91.28
389.64	110.01
389.84	243.42
390.03	147.45
390.22	175.54
390.42	159.16
390.61	37.45
390.81	102.98
391.00	84.26
391.19	133.41
391.39	58.51
391.58	138.09
391.78	100.64
391.97	159.16
392.16	79.58
392.36	212.99
392.55	133.41
392.75	119.37
392.94	112.35
393.13	124.05
393.33	131.07
393.52	84.26
393.71	100.64
393.91	124.05
394.10	91.28
394.29	142.77
394.49	93.62
394.68	102.98
394.88	128.73
395.07	145.11
395.26	175.54
395.46	173.20
395.65	119.37
395.84	95.96
396.04	189.58
396.23	112.35
396.42	126.39
396.62	128.73
396.81	140.43
397.00	142.77
397.19	105.32
397.39	49.15
397.58	203.63
397.77	110.01
397.97	215.33
398.16	72.56
398.35	88.94
398.55	145.11
398.74	93.62
398.93	177.88
399.12	156.82
399.32	231.71
399.51	252.78
399.70	166.18
399.90	77.24
400.09	112.35
400.28	215.33
400.47	117.03
400.67	177.88
400.86	86.60
401.05	154.48
401.24	177.88
401.44	180.22
401.63	152.13
401.82	168.52
402.01	140.43
402.21	182.56
402.40	124.05
402.59	107.66
402.78	133.41
402.97	79.58
403.17	81.92
403.36	170.86
403.55	170.86
403.74	180.22
403.93	166.18
404.13	287.89
404.32	341.72
404.51	252.78
404.70	191.92
404.89	138.09
405.09	173.20
405.28	142.77
405.47	161.50
405.66	152.13
405.85	184.90
406.05	107.66
406.24	121.71
406.43	145.11
406.62	177.88
406.81	149.79
407.00	159.16
407.20	170.86
407.39	147.45
407.58	98.30
407.77	191.92
407.96	173.20
408.15	177.88
408.34	196.60
408.54	191.92
408.73	217.67
408.92	177.88
409.11	152.13
409.30	163.84
409.49	166.18
409.68	191.92
409.87	173.20
410.07	177.88
410.26	161.50
410.45	170.86
410.64	227.03
410.83	170.86
411.02	145.11
411.21	217.67
411.40	166.18
411.59	163.84
411.78	156.82
411.98	229.37
412.17	205.97
412.36	189.58
412.55	128.73
412.74	227.03
412.93	194.26
413.12	189.58
413.31	210.65
413.50	276.18
413.69	191.92
413.88	215.33
414.07	208.31
414.26	166.18
414.45	161.50
414.64	124.05
414.83	224.69
415.02	250.44
415.22	236.39
415.41	203.63
415.60	180.22
415.79	236.39
415.98	290.23
416.17	203.63
416.36	194.26
416.55	250.44
416.74	248.10
416.93	227.03
417.12	149.79
417.31	229.37
417.50	231.71
417.69	241.08
417.88	241.08
418.07	187.24
418.26	208.31
418.45	194.26
418.64	227.03
418.83	208.31
419.02	264.48
419.21	208.31
419.39	266.82
419.58	250.44
419.77	259.80
419.96	250.44
420.15	177.88
420.34	236.39
420.53	273.84
420.72	269.16
420.91	227.03
421.10	163.84
421.29	306.61
421.48	257.46
421.67	299.59
421.86	208.31
422.05	259.80
422.24	278.52
422.43	187.24
422.61	210.65
422.80	215.33
422.99	276.18
423.18	191.92
423.37	273.84
423.56	262.14
423.75	250.44
423.94	262.14
424.13	227.03
424.32	133.41
424.50	159.16
424.69	234.05
424.88	259.80
425.07	203.63
425.26	222.35
425.45	250.44
425.64	224.69
425.83	170.86
426.01	271.50
426.20	255.12
426.39	222.35
426.58	203.63
426.77	187.24
426.96	269.16
427.15	255.12
427.33	234.05
427.52	292.57
427.71	264.48
427.90	205.97
428.09	198.95
428.28	234.05
428.46	271.50
428.65	220.01
428.84	234.05
429.03	273.84
429.22	245.76
429.40	283.20
429.59	262.14
429.78	297.25
429.97	229.37
430.16	276.18
430.34	234.05
430.53	238.73
430.72	273.84
430.91	194.26
431.10	241.08
431.28	210.65
431.47	259.80
431.66	283.20
431.85	248.10
432.03	227.03
432.22	318.31
432.41	215.33
432.60	290.23
432.79	250.44
432.97	278.52
433.16	227.03
433.35	234.05
433.54	208.31
433.72	257.46
433.91	215.33
434.10	243.42
434.28	278.52
434.47	327.68
434.66	255.12
434.85	269.16
435.03	498.53
435.22	681.10
435.41	1116.44
435.59	1331.76
435.78	884.72
435.97	552.37
436.16	344.06
436.34	255.12
436.53	287.89
436.72	273.84
436.90	313.63
437.09	299.59
437.28	252.78
437.46	311.29
437.65	311.29
437.84	280.86
438.02	322.99
438.21	327.68
438.40	304.27
438.58	229.37
438.77	264.48
438.96	306.61
439.14	241.08
439.33	367.46
439.52	252.78
439.70	297.25
439.89	227.03
440.08	243.42
440.26	248.10
440.45	348.74
440.63	222.35
440.82	332.36
441.01	262.14
441.19	330.02
441.38	334.70
441.57	297.25
441.75	358.10
441.94	369.80
442.12	318.31
442.31	322.99
442.50	262.14
442.68	332.36
442.87	362.78
443.05	320.65
443.24	278.52
443.43	320.65
443.61	255.12
443.80	264.48
443.98	320.65
444.17	355.76
444.35	353.42
444.54	287.89
444.73	318.31
444.91	306.61
445.10	308.95
445.28	327.68
445.47	322.99
445.65	276.18
445.84	299.59
446.02	276.18
446.21	271.50
446.39	287.89
446.58	287.89
446.77	273.84
446.95	320.65
447.14	318.31
447.32	362.78
447.51	297.25
447.69	262.14
447.88	292.57
448.06	365.12
448.25	379.17
448.43	367.46
448.62	334.70
448.80	292.57
448.99	341.72
449.17	348.74
449.36	344.06
449.54	344.06
449.73	367.46
449.91	353.42
450.10	257.46
450.28	348.74
450.46	367.46
450.65	285.55
450.83	381.51
451.02	332.36
451.20	360.44
451.39	325.33
451.57	386.19
451.76	348.74
451.94	292.57
452.13	397.89
452.31	425.98
452.49	269.16
452.68	369.80
452.86	395.55
453.05	379.17
453.23	358.10
453.42	306.61
453.60	241.08
453.78	358.10
453.97	262.14
454.15	313.63
454.34	360.44
454.52	381.51
454.70	407.25
454.89	358.10
455.07	355.76
455.26	379.17
455.44	397.89
455.62	255.12
455.81	348.74
455.99	290.23
456.17	311.29
456.36	372.15
456.54	322.99
456.73	353.42
456.91	360.44
457.09	362.78
457.28	360.44
457.46	266.82
457.64	376.83
457.83	341.72
458.01	294.91
458.19	402.57
458.38	297.25
458.56	388.53
458.74	348.74
458.93	322.99
459.11	334.70
459.29	365.12
459.48	348.74
459.66	400.23
459.84	334.70
460.03	524.28
460.21	374.49
460.39	346.40
460.57	334.70
460.76	402.57
460.94	358.10
461.12	280.86
461.31	311.29
461.49	390.87
461.67	360.44
461.85	383.85
462.04	322.99
462.22	812.17
462.40	444.70
462.59	433.00
462.77	344.06
462.95	425.98
463.13	367.46
463.32	411.93
463.50	444.70
463.68	493.85
463.86	341.72
464.05	409.59
464.23	418.96
464.41	468.11
464.59	360.44
464.78	301.93
464.96	381.51
465.14	339.38
465.32	334.70
465.50	435.34
465.69	425.98
465.87	311.29
466.05	397.89
466.23	390.87
466.41	334.70
466.60	344.06
466.78	386.19
466.96	395.55
467.14	344.06
467.32	428.32
467.51	367.46
467.69	421.30
467.87	433.00
468.05	404.91
468.23	374.49
468.41	362.78
468.60	428.32
468.78	360.44
468.96	416.62
469.14	348.74
469.32	330.02
469.50	440.02
469.69	423.64
469.87	444.70
470.05	451.72
470.23	435.34
470.41	451.72
470.59	367.46
470.77	362.78
470.95	404.91
471.14	461.09
471.32	388.53
471.50	411.93
471.68	449.38
471.86	433.00
472.04	421.30
472.22	390.87
472.40	397.89
472.58	355.76
472.77	360.44
472.95	444.70
473.13	475.13
473.31	416.62
473.49	400.23
473.67	444.70
473.85	421.30
474.03	486.83
474.21	397.89
474.39	418.96
474.57	477.47
474.75	414.27
474.93	416.62
475.12	339.38
475.30	407.25
475.48	376.83
475.66	407.25
475.84	519.60
476.02	465.77
476.20	465.77
476.38	458.74
476.56	500.87
476.74	379.17
476.92	493.85
477.10	463.43
477.28	400.23
477.46	447.04
477.64	430.66
477.82	472.79
478.00	468.11
478.18	528.96
478.36	409.59
478.54	463.43
478.72	430.66
478.90	430.66
479.08	449.38
479.26	507.90
479.44	554.71
479.62	557.05
479.80	409.59
479.98	486.83
480.16	477.47
480.34	507.90
480.52	585.13
480.70	521.94
480.88	510.24
481.06	456.40
481.24	454.06
481.41	552.37
481.59	571.09
481.77	575.77
481.95	524.28
482.13	596.84
482.31	477.47
482.49	465.77
482.67	575.77
482.85	571.09
483.03	645.99
483.21	557.05
483.39	571.09
483.57	552.37
483.74	603.86
483.92	554.71
484.10	557.05
484.28	617.90
484.46	669.39
484.64	543.00
484.82	587.47
485.00	587.47
485.18	608.54
485.35	631.94
485.53	620.24
485.71	641.31
485.89	629.60
486.07	667.05
486.25	599.18
486.43	653.01
486.61	683.44
486.78	716.20
486.96	676.41
487.14	763.01
487.32	748.97
487.50	760.67
487.68	788.76
487.85	711.52
488.03	770.04
488.21	791.10
488.39	772.38
488.57	741.95
488.75	704.50
488.92	1015.79
489.10	734.93
489.28	727.91
489.46	692.80
489.64	692.80
489.81	741.95
489.99	760.67
490.17	697.48
490.35	809.83
490.53	798.12
490.70	732.59
490.88	842.59
491.06	760.67
491.24	814.51
491.41	842.59
491.59	791.10
491.77	655.35
491.95	720.88
492.13	809.83
492.30	716.20
492.48	814.51
492.66	807.48
492.84	692.80
493.01	709.18
493.19	798.12
493.37	737.27
493.54	795.78
493.72	880.04
493.90	800.46
494.08	814.51
494.25	833.23
494.43	772.38
494.61	847.27
494.79	786.42
494.96	765.36
495.14	702.16
495.32	858.98
495.49	755.99
495.67	812.17
495.85	858.98
496.02	842.59
496.20	840.25
496.38	875.36
496.55	866.00
496.73	880.04
496.91	777.06
497.09	816.85
497.26	727.91
497.44	847.27
497.62	812.17
497.79	791.10
497.97	716.20
498.14	924.51
498.32	840.25
498.50	863.66
498.67	842.59
498.85	795.78
499.03	840.25
499.20	765.36
499.38	748.97
499.56	840.25
499.73	903.45
499.91	821.53
500.08	809.83
500.26	823.87
500.44	805.14
500.61	875.36
500.79	915.15
500.97	851.96
501.14	950.26
501.32	786.42
501.49	903.45
501.67	798.12
501.84	905.79
502.02	760.67
502.20	760.67
502.37	875.36
502.55	924.51
502.72	835.57
502.90	889.40
503.07	816.85
503.25	791.10
503.43	816.85
503.60	809.83
503.78	898.77
503.95	875.36
504.13	940.90
504.30	917.49
504.48	858.98
504.65	884.72
504.83	961.96
505.01	828.55
505.18	898.77
505.36	826.21
505.53	884.72
505.71	844.93
505.88	870.68
506.06	931.53
506.23	915.15
506.41	912.81
506.58	866.00
506.76	880.04
506.93	901.11
507.11	917.49
507.28	854.30
507.46	954.94
507.63	905.79
507.81	903.45
507.98	896.43
508.16	896.43
508.33	945.58
508.50	922.17
508.68	870.68
508.85	851.96
509.03	847.27
509.20	990.05
509.38	931.53
509.55	973.66
509.73	933.87
509.90	978.34
510.08	882.38
510.25	1069.62
510.42	929.19
510.60	973.66
510.77	1043.88
510.95	983.02
511.12	947.92
511.30	891.74
511.47	938.55
511.64	1001.75
511.82	919.83
511.99	992.39
512.17	936.21
512.34	1020.47
512.51	1015.79
512.69	933.87
512.86	1020.47
513.04	973.66
513.21	1071.97
513.38	1041.54
513.56	978.34
513.73	1020.47
513.90	1004.09
514.08	1025.15
514.25	943.24
514.43	1029.84
514.60	976.00
514.77	950.26
514.95	987.71
515.12	985.37
515.29	1055.58
515.47	1046.22
515.64	1034.52
515.81	1022.81
515.99	1013.45
516.16	1018.13
516.33	1055.58
516.51	1039.20
516.68	1006.43
516.85	978.34
517.03	1039.20
517.20	997.07
517.37	1067.28
517.54	1008.77
517.72	992.39
517.89	1046.22
518.06	1006.43
518.24	1039.20
518.41	1060.26
518.58	1121.12
518.75	1025.15
518.93	1025.15
519.10	1074.31
519.27	1050.90
519.45	1020.47
519.62	947.92
519.79	1048.56
519.96	1015.79
520.14	1116.44
520.31	1011.11
520.48	1001.75
520.65	1015.79
520.83	1172.61
521.00	1093.03
521.17	1102.39
521.34	1153.88
521.52	1046.22
521.69	1121.12
521.86	1111.75
522.03	1107.07
522.20	1048.56
522.38	1076.65
522.55	1095.37
522.72	1004.09
522.89	1081.33
523.07	1097.71
523.24	1053.24
523.41	1090.69
523.58	1001.75
523.75	1053.24
523.92	1013.45
524.10	1114.10
524.27	1100.05
524.44	1104.73
524.61	1116.44
524.78	1022.81
524.96	1090.69
525.13	1018.13
525.30	1006.43
525.47	1100.05
525.64	1151.54
525.81	1104.73
525.98	1055.58
526.16	1125.80
526.33	1064.94
526.50	1118.78
526.67	1025.15
526.84	1125.80
527.01	1078.99
527.18	1137.50
527.36	1137.50
527.53	1050.90
527.70	1076.65
527.87	1109.41
528.04	1174.95
528.21	1102.39
528.38	1109.41
528.55	1228.78
528.72	1167.93
528.89	1149.20
529.07	1203.04
529.24	1123.46
529.41	1184.31
529.58	1116.44
529.75	1139.84
529.92	1128.14
530.09	1231.12
530.26	1235.80
530.43	1135.16
530.60	1165.59
530.77	1165.59
530.94	1149.20
531.11	1107.07
531.28	1100.05
531.46	1097.71
531.63	1163.25
531.80	1160.91
531.97	1221.76
532.14	1308.36
532.31	1102.39
532.48	1235.80
532.65	1221.76
532.82	1181.97
532.99	1224.10
533.16	1146.86
533.33	1245.16
533.50	1149.20
533.67	1172.61
533.84	1191.33
534.01	1090.69
534.18	1191.33
534.35	1128.14
534.52	1181.97
534.69	1331.76
534.86	1156.22
535.03	1284.95
535.20	1270.91
535.37	1299.00
535.54	1184.31
535.71	1249.85
535.88	1228.78
536.05	1224.10
536.22	1231.12
536.38	1174.95
536.55	1324.74
536.72	1245.16
536.89	1308.36
537.06	1282.61
537.23	1247.51
537.40	1226.44
537.57	1416.02
537.74	1343.47
537.91	1322.40
538.08	1303.68
538.25	1273.25
538.42	1320.06
538.59	1366.87
538.75	1273.25
538.92	1315.38
539.09	1460.49
539.26	1338.79
539.43	1364.53
539.60	1441.77
539.77	1434.75
539.94	1551.78
540.11	1621.99
540.28	1586.88
540.44	1575.18
540.61	1661.78
540.78	1743.70
540.95	1905.20
541.12	1989.46
541.29	2113.50
541.46	2265.64
541.62	2150.95
541.79	2076.06
541.96	2132.23
542.13	2127.55
542.30	2115.84
542.47	2076.06
542.63	1944.99
542.80	2038.61
542.97	1973.07
543.14	1977.75
543.31	2054.99
543.48	2080.74
543.64	2038.61
543.81	1947.33
543.98	2043.29
544.15	2062.01
544.32	1954.35
544.48	1956.69
544.65	2019.88
544.82	2005.84
544.99	1923.92
545.16	1886.47
545.32	1989.46
545.49	2569.91
545.66	3393.78
545.83	3868.91
546.00	3574.00
546.16	2719.70
546.33	2319.47
546.50	2043.29
546.67	1865.41
546.83	1720.29
547.00	1769.44
547.17	1643.06
547.34	1568.16
547.50	1739.02
547.67	1722.63
547.84	1701.57
548.00	1703.91
548.17	1680.50
548.34	1584.54
548.51	1692.21
548.67	1666.46
548.84	1605.61
549.01	1502.62
549.18	1589.22
549.34	1614.97
549.51	1483.90
549.68	1551.78
549.84	1579.86
550.01	1570.50
550.18	1600.93
550.34	1500.28
550.51	1453.47
550.68	1530.71
550.84	1434.75
551.01	1483.90
551.18	1474.54
551.34	1385.60
551.51	1420.71
551.68	1404.32
551.84	1437.09
552.01	1378.58
552.18	1453.47
552.34	1399.64
552.51	1371.55
552.68	1462.83
552.84	1409.00
553.01	1390.28
553.18	1399.64
553.34	1394.96
553.51	1411.34
553.67	1423.05
553.84	1376.24
554.01	1291.98
554.17	1266.23
554.34	1320.06
554.51	1261.55
554.67	1380.92
554.84	1411.34
555.00	1310.70
555.17	1301.34
555.33	1245.16
555.50	1270.91
555.67	1296.66
555.83	1331.76
556.00	1348.15
556.16	1521.35
556.33	1394.96
556.50	1306.02
556.66	1345.81
556.83	1289.64
556.99	1212.40
557.16	1322.40
557.32	1273.25
557.49	1263.89
557.65	1296.66
557.82	1366.87
557.98	1303.68
558.15	1301.34
558.32	1329.42
558.48	1275.59
558.65	1177.29
558.81	1198.35
558.98	1203.04
559.14	1256.87
559.31	1235.80
559.47	1327.08
559.64	1240.48
559.80	1362.19
559.97	1249.85
560.13	1228.78
560.30	1310.70
560.46	1249.85
560.63	1355.17
560.79	1284.95
560.96	1270.91
561.12	1224.10
561.29	1191.33
561.45	1289.64
561.61	1275.59
561.78	1357.51
561.94	1235.80
562.11	1315.38
562.27	1226.44
562.44	1228.78
562.60	1308.36
562.77	1359.85
562.93	1432.41
563.10	1247.51
563.26	1196.01
563.42	1259.21
563.59	1369.21
563.75	1170.27
563.92	1291.98
564.08	1203.04
564.24	1284.95
564.41	1364.53
564.57	1242.82
564.74	1329.42
564.90	1275.59
565.07	1376.24
565.23	1299.00
565.39	1252.19
565.56	1320.06
565.72	1329.42
565.88	1186.65
566.05	1240.48
566.21	1217.08
566.38	1280.27
566.54	1247.51
566.70	1261.55
566.87	1252.19
567.03	1266.23
567.19	1238.14
567.36	1387.94
567.52	1277.93
567.68	1331.76
567.85	1329.42
568.01	1238.14
568.17	1259.21
568.34	1207.72
568.50	1254.53
568.66	1221.76
568.83	1341.13
568.99	1308.36
569.15	1275.59
569.32	1282.61
569.48	1254.53
569.64	1291.98
569.81	1315.38
569.97	1177.29
570.13	1242.82
570.30	1214.74
570.46	1327.08
570.62	1205.38
570.78	1306.02
570.95	1203.04
571.11	1317.72
571.27	1259.21
571.43	1217.08
571.60	1327.08
571.76	1224.10
571.92	1280.27
572.09	1301.34
572.25	1270.91
572.41	1238.14
572.57	1242.82
572.74	1371.55
572.90	1188.99
573.06	1350.49
573.22	1214.74
573.38	1294.32
573.55	1153.88
573.71	1301.34
573.87	1294.32
574.03	1247.51
574.20	1252.19
574.36	1238.14
574.52	1263.89
574.68	1203.04
574.84	1242.82
575.01	1242.82
575.17	1336.45
575.33	1212.40
575.49	1233.46
575.65	1240.48
575.82	1359.85
575.98	1308.36
576.14	1198.35
576.30	1301.34
576.46	1500.28
576.62	1657.10
576.79	1614.97
576.95	1591.56
577.11	1413.68
577.27	1427.73
577.43	1416.02
577.59	1366.87
577.75	1261.55
577.92	1273.25
578.08	1338.79
578.24	1226.44
578.40	1350.49
578.56	1535.39
578.72	1706.25
578.88	1724.97
579.04	1593.90
579.21	1507.30
579.37	1399.64
579.53	1432.41
579.69	1327.08
579.85	1416.02
580.01	1472.20
580.17	1453.47
580.33	1359.85
580.49	1406.66
580.65	1483.90
580.82	1327.08
580.98	1448.79
581.14	1401.98
581.30	1455.81
581.46	1350.49
581.62	1355.17
581.78	1383.26
581.94	1394.96
582.10	1458.15
582.26	1483.90
582.42	1472.20
582.58	1430.07
582.74	1483.90
582.90	1448.79
583.06	1420.71
583.22	1359.85
583.38	1465.18
583.54	1516.67
583.70	1495.60
583.86	1378.58
584.02	1495.60
584.18	1425.39
584.34	1554.12
584.50	1535.39
584.66	1324.74
584.82	1420.71
584.98	1432.41
585.14	1355.17
585.30	1413.68
585.46	1401.98
585.62	1310.70
585.78	1331.76
585.94	1418.36
586.10	1380.92
586.26	1432.41
586.42	1526.03
586.58	1495.60
586.74	1474.54
586.90	1621.99
587.06	1629.01
587.22	1591.56
587.38	1591.56
587.54	1619.65
587.70	1535.39
587.86	1458.15
588.02	1345.81
588.18	1299.00
588.34	1413.68
588.49	1364.53
588.65	1303.68
588.81	1303.68
588.97	1301.34
589.13	1259.21
589.29	1355.17
589.45	1350.49
589.61	1320.06
589.77	1315.38
589.93	1320.06
590.08	1329.42
590.24	1413.68
590.40	1350.49
590.56	1270.91
590.72	1411.34
590.88	1350.49
591.04	1352.83
591.20	1301.34
591.35	1383.26
591.51	1423.05
591.67	1338.79
591.83	1401.98
591.99	1306.02
592.15	1481.56
592.31	1439.43
592.46	1446.45
592.62	1551.78
592.78	1504.96
592.94	1488.58
593.10	1467.52
593.26	1460.49
593.41	1455.81
593.57	1385.60
593.73	1385.60
593.89	1430.07
594.05	1345.81
594.20	1387.94
594.36	1334.11
594.52	1301.34
594.68	1336.45
594.84	1352.83
594.99	1343.47
595.15	1308.36
595.31	1287.29
595.47	1383.26
595.62	1306.02
595.78	1320.06
595.94	1301.34
596.10	1282.61
596.25	1254.53
596.41	1291.98
596.57	1336.45
596.73	1401.98
596.88	1280.27
597.04	1439.43
597.20	1371.55
597.36	1341.13
597.51	1256.87
597.67	1266.23
597.83	1352.83
597.99	1362.19
598.14	1289.64
598.30	1352.83
598.46	1277.93
598.61	1343.47
598.77	1444.11
598.93	1366.87
599.09	1352.83
599.24	1401.98
599.40	1458.15
599.56	1413.68
599.71	1373.89
599.87	1376.24
600.03	1310.70
600.18	1277.93
600.34	1350.49
600.50	1371.55
600.65	1357.51
600.81	1385.60
600.97	1348.15
601.12	1336.45
601.28	1369.21
601.44	1268.57
601.59	1273.25
601.75	1277.93
601.91	1266.23
602.06	1291.98
602.22	1345.81
602.37	1310.70
602.53	1306.02
602.69	1336.45
602.84	1263.89
603.00	1235.80
603.16	1324.74
603.31	1303.68
603.47	1277.93
603.62	1238.14
603.78	1277.93
603.94	1308.36
604.09	1291.98
604.25	1320.06
604.40	1322.40
604.56	1359.85
604.71	1287.29
604.87	1221.76
605.03	1231.12
