SpectraSuite Data File
++++++++++++++++++++++++++++++++++++
Date: Fri Oct 04 11:39:41 GMT-05:00 2013
User: price-jones
Dark Spectrum Present: No
Reference Spectrum Present: No
Number of Sampled Component Spectra: 1
Spectrometers: USB2+H05261
Integration Time (usec): 100000 (USB2+H05261)
Spectra Averaged: 1 (USB2+H05261)
Boxcar Smoothing: 0 (USB2+H05261)
Correct for Electrical Dark: No (USB2+H05261)
Strobe/Lamp Enabled: No (USB2+H05261)
Correct for Detector Non-linearity: No (USB2+H05261)
Correct for Stray Light: No (USB2+H05261)
Number of Pixels in Processed Spectrum: 2048
>>>>>Begin Processed Spectral Data<<<<<
365.73	25.75
365.92	25.75
366.12	25.75
366.32	0.00
366.52	0.00
366.72	0.00
366.91	0.00
367.11	0.00
367.31	0.00
367.51	0.00
367.70	0.00
367.90	0.00
368.10	0.00
368.30	0.00
368.49	0.00
368.69	0.00
368.89	0.00
369.09	0.00
369.28	2.34
369.48	0.00
369.68	7.02
369.87	16.38
370.07	2.34
370.27	60.85
370.47	63.19
370.66	231.71
370.86	327.68
371.06	327.68
371.25	362.78
371.45	262.14
371.65	334.70
371.84	383.85
372.04	332.36
372.24	404.91
372.44	311.29
372.63	418.96
372.83	421.30
373.03	428.32
373.22	477.47
373.42	477.47
373.62	400.23
373.81	367.46
374.01	358.10
374.21	365.12
374.40	440.02
374.60	435.34
374.79	393.21
374.99	493.85
375.19	514.92
375.38	442.36
375.58	444.70
375.78	433.00
375.97	433.00
376.17	500.87
376.37	379.17
376.56	416.62
376.76	425.98
376.95	484.49
377.15	411.93
377.35	447.04
377.54	472.79
377.74	456.40
377.93	461.09
378.13	449.38
378.33	507.90
378.52	381.51
378.72	496.19
378.91	397.89
379.11	435.34
379.31	538.32
379.50	435.34
379.70	475.13
379.89	543.00
380.09	550.03
380.28	435.34
380.48	491.51
380.68	496.19
380.87	505.56
381.07	430.66
381.26	594.50
381.46	580.45
381.65	559.39
381.85	519.60
382.04	510.24
382.24	610.88
382.43	535.98
382.63	585.13
382.83	491.51
383.02	603.86
383.22	610.88
383.41	526.62
383.61	533.64
383.80	500.87
384.00	559.39
384.19	594.50
384.39	540.66
384.58	624.92
384.78	557.05
384.97	622.58
385.17	615.56
385.36	634.29
385.56	559.39
385.75	629.60
385.95	617.90
386.14	706.84
386.34	634.29
386.53	571.09
386.72	594.50
386.92	636.63
387.11	585.13
387.31	683.44
387.50	664.71
387.70	622.58
387.89	638.97
388.09	669.39
388.28	638.97
388.48	662.37
388.67	648.33
388.86	709.18
389.06	704.50
389.25	667.05
389.45	770.04
389.64	784.08
389.84	758.33
390.03	744.29
390.22	711.52
390.42	739.61
390.61	634.29
390.81	636.63
391.00	706.84
391.19	835.57
391.39	744.29
391.58	755.99
391.78	730.25
391.97	784.08
392.16	718.54
392.36	828.55
392.55	788.76
392.75	896.43
392.94	823.87
393.13	844.93
393.33	798.12
393.52	849.61
393.71	858.98
393.91	851.96
394.10	854.30
394.29	851.96
394.49	891.74
394.68	863.66
394.88	896.43
395.07	896.43
395.26	903.45
395.46	894.08
395.65	844.93
395.84	933.87
396.04	887.06
396.23	922.17
396.42	940.90
396.62	1006.43
396.81	929.19
397.00	997.07
397.19	926.85
397.39	978.34
397.58	1074.31
397.77	1043.88
397.97	968.98
398.16	1034.52
398.35	1050.90
398.55	997.07
398.74	1032.18
398.93	1100.05
399.12	1064.94
399.32	1100.05
399.51	1132.82
399.70	1207.72
399.90	1184.31
400.09	1043.88
400.28	1205.38
400.47	1228.78
400.67	1177.29
400.86	1261.55
401.05	1198.35
401.24	1224.10
401.44	1256.87
401.63	1282.61
401.82	1191.33
402.01	1266.23
402.21	1231.12
402.40	1313.04
402.59	1317.72
402.78	1228.78
402.97	1320.06
403.17	1401.98
403.36	1315.38
403.55	1306.02
403.74	1308.36
403.93	1446.45
404.13	1519.01
404.32	1401.98
404.51	1458.15
404.70	1458.15
404.89	1535.39
405.09	1547.09
405.28	1570.50
405.47	1462.83
405.66	1528.37
405.85	1629.01
406.05	1561.14
406.24	1575.18
406.43	1528.37
406.62	1589.22
406.81	1680.50
407.00	1561.14
407.20	1680.50
407.39	1603.27
407.58	1708.59
407.77	1629.01
407.96	1661.78
408.15	1771.79
408.34	1652.42
408.54	1839.66
408.73	1860.73
408.92	1792.85
409.11	1809.23
409.30	1881.79
409.49	1863.07
409.68	1844.34
409.87	1830.30
410.07	2001.16
410.26	1898.17
410.45	1923.92
410.64	1916.90
410.83	1970.73
411.02	1973.07
411.21	2085.42
411.40	2054.99
411.59	2083.08
411.78	2186.06
411.98	2057.33
412.17	2169.68
412.36	2113.50
412.55	2251.60
412.74	2235.21
412.93	2214.15
413.12	2246.91
413.31	2455.22
413.50	2363.94
413.69	2385.01
413.88	2333.51
414.07	2342.88
414.26	2464.58
414.45	2368.62
414.64	2495.01
414.83	2473.95
415.02	2644.81
415.22	2595.65
415.41	2612.04
415.60	2628.42
415.79	2551.18
415.98	2836.73
416.17	2759.49
416.36	2757.15
416.55	2792.26
416.74	2761.83
416.93	2956.10
417.12	2979.50
417.31	2916.31
417.50	2909.29
417.69	3026.31
417.88	3016.95
418.07	3035.67
418.26	3009.93
418.45	2972.48
418.64	2998.23
418.83	3131.64
419.02	3030.99
419.21	3255.69
419.39	3176.11
419.58	3173.77
419.77	3162.06
419.96	3162.06
420.15	3337.60
420.34	3286.11
420.53	3288.45
420.72	3295.47
420.91	3335.26
421.10	3398.46
421.29	3318.88
421.48	3304.84
421.67	3349.31
421.86	3339.94
422.05	3325.90
422.24	3412.50
422.43	3414.84
422.61	3559.95
422.80	3471.01
422.99	3625.49
423.18	3503.78
423.37	3620.81
423.56	3597.40
423.75	3538.89
423.94	3602.08
424.13	3377.39
424.32	3349.31
424.50	3686.34
424.69	3695.71
424.88	3588.04
425.07	3667.62
425.26	3536.55
425.45	3566.98
425.64	3620.81
425.83	3681.66
426.01	3534.21
426.20	3501.44
426.39	3667.62
426.58	3613.79
426.77	3688.68
426.96	3763.58
427.15	3693.37
427.33	3669.96
427.52	3796.35
427.71	3768.26
427.90	3777.62
428.09	3758.90
428.28	3794.01
428.46	3829.12
428.65	3829.12
428.84	4107.64
429.03	3988.27
429.22	3871.25
429.40	3936.78
429.59	3859.54
429.78	3744.86
429.97	3794.01
430.16	3726.13
430.34	4067.85
430.53	3969.55
430.72	4077.21
430.91	3948.48
431.10	4023.38
431.28	4091.26
431.47	4205.94
431.66	4166.15
431.85	4147.43
432.03	4196.58
432.22	4255.09
432.41	4248.07
432.60	4248.07
432.79	4266.80
432.97	4421.27
433.16	4273.82
433.35	4280.84
433.54	4365.10
433.72	4402.55
433.91	4346.37
434.10	4470.42
434.28	4386.16
434.47	4425.95
434.66	4512.55
434.85	4545.32
435.03	4596.81
435.22	4727.88
435.41	5013.43
435.59	4978.32
435.78	4894.06
435.97	4683.41
436.16	4711.50
436.34	4716.18
436.53	4821.50
436.72	4800.44
436.90	4734.90
437.09	4681.07
437.28	4781.71
437.46	4791.08
437.65	4798.10
437.84	4779.37
438.02	4774.69
438.21	4835.55
438.40	4833.21
438.58	5001.72
438.77	4931.51
438.96	4980.66
439.14	5205.35
439.33	5076.62
439.52	5181.95
439.70	5252.16
439.89	5263.86
440.08	5270.89
440.26	5296.63
440.45	5399.62
440.63	5390.25
440.82	5430.04
441.01	5455.79
441.19	5392.59
441.38	5565.79
441.57	5432.38
441.75	5664.10
441.94	5682.82
442.12	5722.61
442.31	5909.85
442.50	5790.49
442.68	5717.93
442.87	5792.83
443.05	6033.90
443.24	5895.81
443.43	5951.98
443.61	5921.56
443.80	6033.90
443.98	5788.14
444.17	5767.08
444.35	6019.86
444.54	6017.52
444.73	5968.37
444.91	6022.20
445.10	6073.69
445.28	6094.76
445.47	6050.28
445.65	6026.88
445.84	6059.65
446.02	6101.78
446.21	6101.78
446.39	6026.88
446.58	6134.54
446.77	5977.73
446.95	5872.40
447.14	6146.25
447.32	6244.55
447.51	6097.10
447.69	5949.64
447.88	6160.29
448.06	6083.05
448.25	6253.91
448.43	6190.72
448.62	6195.40
448.80	6118.16
448.99	6305.40
449.17	6347.53
449.36	6319.45
449.54	6256.25
449.73	6492.65
449.91	6324.13
450.10	6389.66
450.28	6799.26
450.46	6466.90
450.65	6518.39
450.83	6459.88
451.02	6644.78
451.20	6438.81
451.39	6586.27
451.57	6324.13
451.76	6534.78
451.94	6534.78
452.13	6644.78
452.31	6672.87
452.49	6452.86
452.68	6689.25
452.86	6626.06
453.05	6724.36
453.23	6951.39
453.42	6817.98
453.60	6717.34
453.78	6878.83
453.97	6810.96
454.15	6799.26
454.34	6864.79
454.52	6960.75
454.70	7276.73
454.89	7164.38
455.07	7014.59
455.26	7080.12
455.44	7236.94
455.62	6869.47
455.81	7208.85
455.99	7068.42
456.17	7108.21
456.36	7157.36
456.54	7157.36
456.73	7407.80
456.91	7552.91
457.09	7396.09
457.28	7604.40
457.46	7641.85
457.64	7676.96
457.83	7555.25
458.01	7332.90
458.19	7658.23
458.38	7545.89
458.56	7761.22
458.74	7765.90
458.93	7646.53
459.11	7541.21
459.29	7585.68
459.48	7571.63
459.66	7705.04
459.84	7829.09
460.03	7803.35
460.21	7735.47
460.39	7857.18
460.57	7754.19
460.76	7868.88
460.94	7943.78
461.12	7971.86
461.31	7934.42
461.49	8091.23
461.67	7901.65
461.85	8241.03
462.04	8100.59
462.22	8608.49
462.40	8028.04
462.59	8177.83
462.77	8341.67
462.95	8142.72
463.13	8168.47
463.32	8168.47
463.50	8294.86
463.68	8379.12
463.86	8395.50
464.05	8182.51
464.23	8219.96
464.41	8573.38
464.59	8238.69
464.78	8554.66
464.96	8662.32
465.14	8510.19
465.32	8517.21
465.50	8723.18
465.69	8758.28
465.87	8503.17
466.05	8737.22
466.23	8439.97
466.41	8664.66
466.60	8975.95
466.78	8603.81
466.96	8685.73
467.14	8727.86
467.32	8828.50
467.51	9029.79
467.69	8716.16
467.87	8620.19
468.05	8882.33
468.23	8589.77
468.41	8730.20
468.60	8917.44
468.78	9100.00
468.96	8800.41
469.14	9149.15
469.32	9186.60
469.50	8901.06
469.69	8994.68
469.87	9437.04
470.05	9336.40
470.23	9291.93
470.41	9100.00
470.59	9420.66
470.77	9184.26
470.95	9448.74
471.14	9404.27
471.32	9217.03
471.50	9706.20
471.68	9621.94
471.86	9628.96
472.04	9717.90
472.22	9933.23
472.40	9380.87
472.58	9692.16
472.77	9783.44
472.95	9820.89
473.13	10244.52
473.31	9958.98
473.49	9743.65
473.67	10052.60
473.85	9961.32
474.03	10223.46
474.21	10017.49
474.39	10267.93
474.57	10366.23
474.75	10469.22
474.93	10532.41
475.12	10328.78
475.30	10340.49
475.48	10445.81
475.66	10700.93
475.84	10604.97
476.02	10888.17
476.20	10719.65
476.38	10927.96
476.56	10958.39
476.74	10890.51
476.92	11215.85
477.10	11066.05
477.28	11337.56
477.46	11112.86
477.64	11304.79
477.82	11534.16
478.00	11880.56
478.18	11515.44
478.36	12070.14
478.54	11941.41
478.72	11829.07
478.90	11873.54
479.08	12315.90
479.26	12407.18
479.44	12203.55
479.62	12491.44
479.80	12383.77
479.98	12578.04
480.16	12863.58
480.34	12699.75
480.52	12769.96
480.70	13170.19
480.88	12863.58
481.06	13240.41
481.24	13132.75
481.41	13144.45
481.59	13481.49
481.77	13745.97
481.95	13715.54
482.13	13741.29
482.31	13834.91
482.49	13935.55
482.67	14190.67
482.85	14127.47
483.03	14366.21
483.21	14530.05
483.39	14663.46
483.57	14398.98
483.74	14618.99
483.92	14824.95
484.10	14616.65
484.28	15183.06
484.46	15337.53
484.64	15564.56
484.82	15051.99
485.00	15506.05
485.18	15709.68
485.35	16191.83
485.53	15866.49
485.71	15929.69
485.89	16496.10
486.07	16145.02
486.25	16332.26
486.43	16343.96
486.61	16430.56
486.78	16861.22
486.96	16891.65
487.14	16879.94
487.32	17088.25
487.50	17167.83
487.68	17504.87
487.85	17509.55
488.03	17451.03
488.21	17767.01
488.39	18019.78
488.57	18052.55
488.75	18317.03
488.92	19000.47
489.10	18904.51
489.28	18511.30
489.46	18682.16
489.64	18579.17
489.81	19459.21
489.99	19236.86
490.17	18958.34
490.35	19510.71
490.53	19541.13
490.70	19676.88
490.88	19791.57
491.06	20081.80
491.24	20156.69
491.41	20027.96
491.59	20383.73
491.77	20294.79
491.95	20475.01
492.13	20788.64
492.30	20596.71
492.48	20751.19
492.66	20877.58
492.84	20868.22
493.01	21462.71
493.19	21420.58
493.37	21628.89
493.54	21359.73
493.72	21546.97
493.90	21528.25
494.08	22146.15
494.25	22176.58
494.43	22082.95
494.61	22237.43
494.79	22298.28
494.96	22473.82
495.14	22635.32
495.32	22902.14
495.49	22838.95
495.67	22993.42
495.85	23009.81
496.02	23510.68
496.20	23445.15
496.38	23466.21
496.55	23529.41
496.73	24229.23
496.91	23662.82
497.09	24142.63
497.26	24184.76
497.44	24070.07
497.62	23857.08
497.79	24631.80
497.97	24273.70
498.14	24879.89
498.32	24741.80
498.50	24889.26
498.67	25380.77
498.85	25291.83
499.03	25118.63
499.20	25383.11
499.38	25132.67
499.56	25685.04
499.73	25614.82
499.91	25633.55
500.08	26089.95
500.26	25846.54
500.44	25895.69
500.61	25949.52
500.79	25832.49
500.97	26422.31
501.14	26733.60
501.32	26752.32
501.49	26607.21
501.67	26558.06
501.84	26611.89
502.02	26869.35
502.20	26888.07
502.37	26998.08
502.55	27253.20
502.72	27227.45
502.90	27054.25
503.07	27147.87
503.25	27498.95
503.43	27424.06
503.60	27501.29
503.78	27604.28
503.95	27639.39
504.13	27690.88
504.30	27976.42
504.48	27735.35
504.65	28109.83
504.83	28467.94
505.01	28634.11
505.18	28496.02
505.36	28982.85
505.53	28283.03
505.71	28755.82
505.88	28840.08
506.06	28446.87
506.23	29123.29
506.41	28517.09
506.58	29263.72
506.76	29123.29
506.93	29221.59
507.11	28790.93
507.28	29404.15
507.46	29394.79
507.63	29273.08
507.81	29514.16
507.98	29795.02
508.16	29972.90
508.33	29439.26
508.50	29965.88
508.68	29949.50
508.85	30242.06
509.03	30073.54
509.20	30312.28
509.38	30419.94
509.55	30778.04
509.73	30698.47
509.90	31098.70
510.08	30181.21
510.25	30682.08
510.42	31019.12
510.60	31140.83
510.77	30946.56
510.95	31168.91
511.12	30775.70
511.30	30876.35
511.47	31131.47
511.64	31356.16
511.82	31828.95
511.99	31576.17
512.17	31541.06
512.34	31772.77
512.51	31824.26
512.69	32126.19
512.86	31878.10
513.04	32362.59
513.21	32458.55
513.38	32416.42
513.56	32442.17
513.73	32086.40
513.90	32627.07
514.08	32226.84
514.25	32699.62
514.43	32835.38
514.60	33287.10
514.77	33212.20
514.95	33340.93
515.12	33216.88
515.29	33003.89
515.47	33235.61
515.64	33727.12
515.81	33160.71
515.99	33612.43
516.16	33956.49
516.33	33795.00
516.51	34071.18
516.68	33472.00
516.85	33783.29
517.03	34391.83
517.20	33900.32
517.37	34227.99
517.54	34029.05
517.72	34246.72
517.89	34384.81
518.06	34117.99
518.24	34590.78
518.41	34527.58
518.58	34265.44
518.75	34258.42
518.93	35065.91
519.10	34960.58
519.27	35194.64
519.45	34576.73
519.62	34883.34
519.79	34965.26
519.96	35248.47
520.14	34911.43
520.31	35042.50
520.48	35653.38
520.65	35035.48
520.83	35470.82
521.00	35337.41
521.17	35136.12
521.34	35534.01
521.52	35896.80
521.69	35632.32
521.86	36297.03
522.03	36376.61
522.20	36079.36
522.38	36053.61
522.55	36170.64
522.72	36114.47
522.89	36191.70
523.07	36924.29
523.24	36505.34
523.41	37034.30
523.58	36596.62
523.75	36737.05
523.92	36634.06
524.10	36863.44
524.27	36641.09
524.44	37127.92
524.61	37425.17
524.78	37474.32
524.96	37088.13
525.13	37193.45
525.30	37745.82
525.47	37273.03
525.64	37134.94
525.81	37649.86
525.98	37387.72
526.16	37399.42
526.33	37432.19
526.50	37823.06
526.67	37406.44
526.84	37406.44
527.01	37720.07
527.18	38124.99
527.36	37780.93
527.53	38050.09
527.70	38602.46
527.87	38724.16
528.04	38436.28
528.21	38274.78
528.38	38258.40
528.55	38204.56
528.72	38724.16
528.89	38593.09
529.07	38590.75
529.24	38359.04
529.41	38705.44
529.58	38113.28
529.75	38415.21
529.92	38726.50
530.09	38838.85
530.26	39028.43
530.43	38953.54
530.60	38794.38
530.77	39002.69
530.94	39456.75
531.11	39047.16
531.28	39089.29
531.46	38972.26
531.63	39119.71
531.80	39428.66
531.97	39716.55
532.14	39704.85
532.31	39641.65
532.48	39618.25
532.65	39871.03
532.82	39526.97
532.99	39482.50
533.16	40154.23
533.33	40273.60
533.50	40533.40
533.67	40325.09
533.84	40081.67
534.01	39835.92
534.18	39878.05
534.35	40168.27
534.52	40011.46
534.69	40409.35
534.86	40685.53
535.03	40383.60
535.20	40449.14
535.37	40432.75
535.54	40751.07
535.71	40341.47
535.88	40315.73
536.05	40765.11
536.22	40996.82
536.38	40769.79
536.55	41216.83
536.72	41090.44
536.89	40828.30
537.06	40722.98
537.23	40802.56
537.40	40907.88
537.57	41097.47
537.74	41418.12
537.91	41193.43
538.08	41528.13
538.25	41205.13
538.42	41469.61
538.59	41418.12
538.75	41263.64
538.92	41247.26
539.09	41577.28
539.26	41787.92
539.43	41521.10
539.60	41830.05
539.77	41830.05
539.94	41834.74
540.11	41722.39
540.28	42033.68
540.44	41633.45
540.61	41600.68
540.78	41914.31
540.95	42108.58
541.12	42026.66
541.29	42249.01
541.46	42038.36
541.62	42380.08
541.79	42560.30
541.96	42284.12
542.13	42347.31
542.30	42550.94
542.47	42646.90
542.63	42937.13
542.80	42960.53
542.97	42822.44
543.14	43007.34
543.31	43072.88
543.48	42918.40
543.64	43253.10
543.81	43695.46
543.98	43536.30
544.15	43274.16
544.32	43594.82
544.48	43388.85
544.65	43812.49
544.82	43194.59
544.99	43119.69
545.16	43477.79
545.32	43487.15
545.49	44130.80
545.66	44711.25
545.83	44755.72
546.00	44261.87
546.16	44107.40
546.33	43508.22
546.50	43295.23
546.67	43791.42
546.83	43009.68
547.00	43611.20
547.17	43894.41
547.34	43875.68
547.50	43868.66
547.67	44135.48
547.84	43704.82
548.00	44048.88
548.17	44430.39
548.34	43901.43
548.51	44175.27
548.67	43852.28
548.84	44226.76
549.01	43632.27
549.18	44086.33
549.34	43964.62
549.51	43641.63
549.68	44212.72
549.84	44116.76
550.01	44348.47
550.18	44219.74
550.34	44177.61
550.51	44507.63
550.68	44596.57
550.84	44406.98
551.01	44601.25
551.18	44294.64
551.34	44449.11
551.51	44636.36
551.68	44191.65
551.84	44526.35
552.01	44516.99
552.18	44678.49
552.34	45013.18
552.51	44744.02
552.68	44428.05
552.84	44753.38
553.01	44900.84
553.18	44762.75
553.34	44690.19
553.51	44839.98
553.67	45024.89
553.84	45340.86
554.01	45303.41
554.17	44832.96
554.34	44790.83
554.51	45113.83
554.67	44912.54
554.84	45184.04
555.00	45256.60
555.17	44704.23
555.33	44903.18
555.50	45551.51
555.67	45165.32
555.83	44966.37
556.00	44957.01
556.16	45492.99
556.33	45076.38
556.50	44980.42
556.66	45331.50
556.83	45017.86
556.99	45720.02
557.16	45408.73
557.32	45525.76
557.49	45462.57
557.65	45404.05
557.82	45237.87
557.98	45390.01
558.15	45799.60
558.32	45287.03
558.48	45942.38
558.65	45413.41
558.81	45581.93
558.98	45329.16
559.14	45656.83
559.31	45361.92
559.47	45649.81
559.64	45588.95
559.80	45759.81
559.97	45577.25
560.13	45322.13
560.30	45881.52
560.46	45558.53
560.63	45511.72
560.79	45925.99
560.96	46103.87
561.12	45666.19
561.29	45514.06
561.45	45708.32
561.61	45794.92
561.78	45844.07
561.94	45874.50
562.11	45928.33
562.27	46267.71
562.44	45689.60
562.60	45834.71
562.77	46078.13
562.93	45724.71
563.10	46028.98
563.26	46047.70
563.42	46038.34
563.59	46115.58
563.75	45858.12
563.92	46302.82
564.08	46047.70
564.24	45968.12
564.41	45713.00
564.57	45996.21
564.74	45713.00
564.90	45991.53
565.07	46211.54
565.23	46143.66
565.39	45965.78
565.56	46426.87
565.72	46036.00
565.88	46232.60
566.05	46064.08
566.21	45710.66
566.38	46153.02
566.54	45876.84
566.70	46096.85
566.87	46492.40
567.03	46288.77
567.19	46637.51
567.36	46305.16
567.52	46052.38
567.68	46387.08
567.85	46190.47
568.01	45935.35
568.17	45832.37
568.34	46171.75
568.50	46515.81
568.66	46153.02
568.83	46361.33
568.99	46326.22
569.15	46302.82
569.32	46155.36
569.48	46358.99
569.64	46071.10
569.81	46321.54
569.97	46288.77
570.13	46380.06
570.30	46216.22
570.46	46368.35
570.62	46316.86
570.78	46354.31
570.95	45979.82
571.11	46370.69
571.27	46309.84
571.43	45949.40
571.60	46347.29
571.76	45731.73
571.92	46452.61
572.09	46103.87
572.25	46642.20
572.41	46143.66
572.57	46471.34
572.74	46445.59
572.90	46300.48
573.06	46401.12
573.22	46518.15
573.38	46471.34
573.55	46377.72
573.71	46897.31
573.87	46579.00
574.03	45977.48
574.20	46614.11
574.36	46237.28
574.52	46588.36
574.68	46307.50
574.84	46302.82
575.01	46197.49
575.17	46576.66
575.33	46160.05
575.49	46663.26
575.65	46508.79
575.82	47072.85
575.98	46396.44
576.14	46801.35
576.30	46939.44
576.46	46321.54
576.62	46696.03
576.79	46571.98
576.95	46696.03
577.11	46850.50
577.27	46464.32
577.43	46681.98
577.59	46705.39
577.75	46436.23
577.92	46354.31
578.08	46361.33
578.24	46164.73
578.40	46157.70
578.56	46211.54
578.72	46649.22
578.88	46855.18
579.04	46349.63
579.21	46377.72
579.37	46817.74
579.53	46791.99
579.69	46616.45
579.85	46387.08
580.01	46373.03
580.17	46134.30
580.33	46316.86
580.49	46553.26
580.65	46277.07
580.82	46417.50
580.98	46712.41
581.14	46557.94
581.30	46770.93
581.46	46590.70
581.62	46246.65
581.78	46167.07
581.94	46628.15
582.10	46178.77
582.26	46450.27
582.42	46335.59
582.58	46838.80
582.74	46822.42
582.90	46890.29
583.06	46485.38
583.22	46328.56
583.38	46277.07
583.54	46232.60
583.70	47044.77
583.86	46045.36
584.02	46403.46
584.18	47082.22
584.34	46862.21
584.50	46674.96
584.66	46628.15
584.82	46358.99
584.98	46909.02
585.14	46480.70
585.30	46396.44
585.46	46494.74
585.62	46401.12
585.78	46522.83
585.94	46436.23
586.10	46597.73
586.26	46752.20
586.42	46981.57
586.58	46911.36
586.74	46557.94
586.90	46436.23
587.06	46546.23
587.22	47040.09
587.38	46670.28
587.54	46857.52
587.70	46667.94
587.86	46890.29
588.02	46590.70
588.18	46539.21
588.34	46883.27
588.49	46459.63
588.65	46265.37
588.81	46555.60
588.97	46787.31
589.13	46314.52
589.29	46321.54
589.45	46742.84
589.61	46965.19
589.77	46749.86
589.93	46883.27
590.08	46887.95
590.24	47112.64
590.40	46925.40
590.56	46838.80
