SpectraSuite Data File
++++++++++++++++++++++++++++++++++++
Date: Fri Oct 04 11:39:38 GMT-05:00 2013
User: price-jones
Dark Spectrum Present: No
Reference Spectrum Present: No
Number of Sampled Component Spectra: 1
Spectrometers: USB2+H05261
Integration Time (usec): 100000 (USB2+H05261)
Spectra Averaged: 1 (USB2+H05261)
Boxcar Smoothing: 0 (USB2+H05261)
Correct for Electrical Dark: No (USB2+H05261)
Strobe/Lamp Enabled: No (USB2+H05261)
Correct for Detector Non-linearity: No (USB2+H05261)
Correct for Stray Light: No (USB2+H05261)
Number of Pixels in Processed Spectrum: 2048
>>>>>Begin Processed Spectral Data<<<<<
365.73	67.88
365.92	67.88
366.12	67.88
366.32	0.00
366.52	0.00
366.72	0.00
366.91	0.00
367.11	0.00
367.31	0.00
367.51	0.00
367.70	0.00
367.90	0.00
368.10	0.00
368.30	0.00
368.49	0.00
368.69	49.15
368.89	0.00
369.09	0.00
369.28	0.00
369.48	0.00
369.68	0.00
369.87	37.45
370.07	0.00
370.27	98.30
370.47	88.94
370.66	227.03
370.86	269.16
371.06	318.31
371.25	325.33
371.45	348.74
371.65	463.43
371.84	388.53
372.04	411.93
372.24	409.59
372.44	414.27
372.63	411.93
372.83	454.06
373.03	477.47
373.22	437.68
373.42	423.64
373.62	423.64
373.81	482.15
374.01	341.72
374.21	486.83
374.40	440.02
374.60	507.90
374.79	458.74
374.99	510.24
375.19	489.17
375.38	528.96
375.58	566.41
375.78	578.11
375.97	493.85
376.17	472.79
376.37	463.43
376.56	538.32
376.76	568.75
376.95	493.85
377.15	554.71
377.35	500.87
377.54	540.66
377.74	496.19
377.93	615.56
378.13	510.24
378.33	554.71
378.52	559.39
378.72	564.07
378.91	587.47
379.11	599.18
379.31	503.22
379.50	545.34
379.70	603.86
379.89	662.37
380.09	507.90
380.28	566.41
380.48	648.33
380.68	606.20
380.87	594.50
381.07	582.79
381.26	657.69
381.46	716.20
381.65	650.67
381.85	650.67
382.04	657.69
382.24	636.63
382.43	648.33
382.63	650.67
382.83	613.22
383.02	711.52
383.22	702.16
383.41	685.78
383.61	650.67
383.80	650.67
384.00	718.54
384.19	737.27
384.39	704.50
384.58	662.37
384.78	741.95
384.97	697.48
385.17	737.27
385.36	734.93
385.56	711.52
385.75	662.37
385.95	730.25
386.14	821.53
386.34	678.76
386.53	802.80
386.72	690.46
386.92	835.57
387.11	849.61
387.31	770.04
387.50	849.61
387.70	791.10
387.89	760.67
388.09	755.99
388.28	774.72
388.48	777.06
388.67	858.98
388.86	706.84
389.06	835.57
389.25	784.08
389.45	847.27
389.64	842.59
389.84	964.30
390.03	837.91
390.22	898.77
390.42	898.77
390.61	840.25
390.81	802.80
391.00	957.28
391.19	924.51
391.39	858.98
391.58	985.37
391.78	896.43
391.97	971.32
392.16	919.83
392.36	875.36
392.55	990.05
392.75	968.98
392.94	917.49
393.13	896.43
393.33	980.68
393.52	940.90
393.71	976.00
393.91	943.24
394.10	929.19
394.29	1020.47
394.49	971.32
394.68	1062.60
394.88	1104.73
395.07	1071.97
395.26	1043.88
395.46	1078.99
395.65	1107.07
395.84	1008.77
396.04	1163.25
396.23	1093.03
396.42	1191.33
396.62	1064.94
396.81	1203.04
397.00	1121.12
397.19	1128.14
397.39	1156.22
397.58	1170.27
397.77	1109.41
397.97	1207.72
398.16	1301.34
398.35	1291.98
398.55	1324.74
398.74	1261.55
398.93	1280.27
399.12	1322.40
399.32	1261.55
399.51	1249.85
399.70	1345.81
399.90	1334.11
400.09	1287.29
400.28	1385.60
400.47	1380.92
400.67	1504.96
400.86	1348.15
401.05	1413.68
401.24	1369.21
401.44	1455.81
401.63	1514.33
401.82	1500.28
402.01	1329.42
402.21	1486.24
402.40	1467.52
402.59	1453.47
402.78	1437.09
402.97	1579.86
403.17	1568.16
403.36	1493.26
403.55	1584.54
403.74	1486.24
403.93	1572.84
404.13	1652.42
404.32	1806.89
404.51	1682.85
404.70	1732.00
404.89	1687.53
405.09	1610.29
405.28	1666.46
405.47	1736.68
405.66	1755.40
405.85	1753.06
406.05	1797.53
406.24	1834.98
406.43	1806.89
406.62	1830.30
406.81	1926.26
407.00	1806.89
407.20	1830.30
407.39	1774.13
407.58	1870.09
407.77	1825.62
407.96	1891.15
408.15	1973.07
408.34	1987.11
408.54	2134.57
408.73	1907.54
408.92	1891.15
409.11	1919.24
409.30	2047.97
409.49	1970.73
409.68	2099.46
409.87	2087.76
410.07	1996.48
410.26	2139.25
410.45	2122.87
410.64	2174.36
410.83	2312.45
411.02	2263.30
411.21	2256.28
411.40	2258.62
411.59	2242.23
411.78	2321.81
411.98	2396.71
412.17	2370.96
412.36	2284.36
412.55	2326.49
412.74	2413.09
412.93	2485.65
413.12	2476.29
413.31	2661.19
413.50	2586.29
413.69	2576.93
413.88	2684.59
414.07	2663.53
414.26	2626.08
414.45	2719.70
414.64	2820.35
414.83	2810.98
415.02	2722.04
415.22	2738.43
415.41	2778.22
415.60	2956.10
415.79	2899.92
415.98	3005.25
416.17	2944.39
416.36	2995.89
416.55	3030.99
416.74	2972.48
416.93	3155.04
417.12	3108.23
417.31	3183.13
417.50	3131.64
417.69	3272.07
417.88	3197.17
418.07	3321.22
418.26	3178.45
418.45	3293.13
418.64	3361.01
418.83	3400.80
419.02	3236.96
419.21	3330.58
419.39	3365.69
419.58	3356.33
419.77	3349.31
419.96	3515.48
420.15	3552.93
420.34	3564.64
420.53	3508.46
420.72	3503.78
420.91	3623.15
421.10	3574.00
421.29	3693.37
421.48	3609.11
421.67	3658.26
421.86	3588.04
422.05	3719.11
422.24	3583.36
422.43	3648.90
422.61	3721.45
422.80	3684.00
422.99	3810.39
423.18	3808.05
423.37	3791.67
423.56	3772.94
423.75	3789.33
423.94	3749.54
424.13	3569.32
424.32	3669.96
424.50	3751.88
424.69	3892.31
424.88	3971.89
425.07	3840.82
425.26	3735.50
425.45	3740.18
425.64	3878.27
425.83	3859.54
426.01	3906.35
426.20	3803.37
426.39	3801.03
426.58	3847.84
426.77	3941.46
426.96	3901.67
427.15	4039.76
427.33	3948.48
427.52	4056.15
427.71	3950.82
427.90	3936.78
428.09	4119.34
428.28	4042.11
428.46	3985.93
428.65	4039.76
428.84	4203.60
429.03	4091.26
429.22	4084.23
429.40	4257.43
429.59	4304.25
429.78	4135.73
429.97	3974.23
430.16	4126.36
430.34	4337.01
430.53	4348.72
430.72	4234.03
430.91	4234.03
431.10	4414.25
431.28	4388.50
431.47	4440.00
431.66	4505.53
431.85	4320.63
432.03	4482.13
432.22	4575.75
432.41	4526.60
432.60	4575.75
432.79	4589.79
432.97	4695.11
433.16	4685.75
433.35	4468.08
433.54	4706.82
433.72	4744.27
433.91	4772.35
434.10	4601.49
434.28	4594.47
434.47	4814.48
434.66	4821.50
434.85	4819.16
435.03	4777.03
435.22	4931.51
435.41	5329.40
435.59	5247.48
435.78	5217.05
435.97	5050.88
436.16	5062.58
436.34	5125.77
436.53	4975.98
436.72	5121.09
436.90	5090.67
437.09	5067.26
437.28	4924.49
437.46	5039.17
437.65	5191.31
437.84	5214.71
438.02	5100.03
438.21	5050.88
438.40	5121.09
438.58	5289.61
438.77	5397.28
438.96	5364.51
439.14	5385.57
439.33	5408.98
439.52	5507.28
439.70	5640.69
439.89	5715.59
440.08	5682.82
440.26	5530.69
440.45	5600.90
440.63	5568.13
440.82	5717.93
441.01	5710.91
441.19	5795.17
441.38	5975.39
441.57	6043.26
441.75	5799.85
441.94	6047.94
442.12	6026.88
442.31	6104.12
442.50	6001.13
442.68	6101.78
442.87	6115.82
443.05	6160.29
443.24	6331.15
443.43	6136.88
443.61	6310.08
443.80	6555.84
443.98	6246.89
444.17	6050.28
444.35	6303.06
444.54	6406.05
444.73	6473.92
444.91	6263.27
445.10	6324.13
445.28	6361.58
445.47	6319.45
445.65	6228.17
445.84	6565.20
446.02	6541.80
446.21	6413.07
446.39	6312.42
446.58	6375.62
446.77	6279.66
446.95	6434.13
447.14	6560.52
447.32	6513.71
447.51	6436.47
447.69	6384.98
447.88	6511.37
448.06	6509.03
448.25	6373.28
448.43	6445.84
448.62	6579.25
448.80	6656.48
448.99	6499.67
449.17	6668.19
449.36	6722.02
449.54	6794.58
449.73	6736.06
449.91	6841.39
450.10	6766.49
450.28	6867.13
450.46	6813.30
450.65	6906.92
450.83	6841.39
451.02	6820.32
451.20	7026.29
451.39	7124.59
451.57	6806.28
451.76	6932.67
451.94	7040.33
452.13	7199.49
452.31	7054.37
452.49	6684.57
452.68	6986.50
452.86	7073.10
453.05	7155.02
453.23	7166.72
453.42	6970.12
453.60	7176.08
453.78	7267.36
453.97	7222.89
454.15	7295.45
454.34	7122.25
454.52	7246.30
454.70	7449.93
454.89	7405.46
455.07	7304.81
455.26	7314.17
455.44	7377.37
455.62	7555.25
455.81	7527.16
455.99	7700.36
456.17	7618.44
456.36	7611.42
456.54	7487.37
456.73	7653.55
456.91	7859.52
457.09	7887.61
457.28	7854.84
457.46	7822.07
457.64	8035.06
457.83	7777.60
458.01	8070.17
458.19	8049.10
458.38	7922.71
458.56	8226.98
458.74	8018.68
458.93	8063.15
459.11	8088.89
459.29	8217.62
459.48	8224.64
459.66	8107.62
459.84	8222.30
460.03	8259.75
460.21	8243.37
460.39	8400.18
460.57	8224.64
460.76	8416.57
460.94	8379.12
461.12	8325.29
461.31	8400.18
461.49	8491.46
461.67	8407.20
461.85	8718.50
462.04	8580.40
462.22	8617.85
462.40	8753.60
462.59	8659.98
462.77	8699.77
462.95	8723.18
463.13	8809.78
463.32	9076.60
463.50	8739.56
463.68	8971.27
463.86	8809.78
464.05	8739.56
464.23	8875.31
464.41	8758.28
464.59	8837.86
464.78	9282.56
464.96	8865.95
465.14	8821.48
465.32	9214.69
465.50	9149.15
465.69	9146.81
465.87	9041.49
466.05	8959.57
466.23	9165.54
466.41	9191.28
466.60	9666.41
466.78	9001.70
466.96	9074.26
467.14	9050.85
467.32	9153.84
467.51	9371.50
467.69	9207.67
467.87	9336.40
468.05	9303.63
468.23	9193.62
468.41	9245.12
468.60	9266.18
468.78	9486.19
468.96	9455.76
469.14	9628.96
469.32	9724.93
469.50	9476.83
469.69	9635.99
469.87	9537.68
470.05	9652.37
470.23	9767.06
470.41	9687.48
470.59	9846.63
470.77	10111.11
470.95	9870.04
471.14	9989.41
471.32	9694.50
471.50	10225.80
471.68	10003.45
471.86	10157.92
472.04	10090.05
472.22	10251.55
472.40	10228.14
472.58	10469.22
472.77	10403.68
472.95	10569.86
473.13	10572.20
473.31	10310.06
473.49	10506.66
473.67	10370.91
473.85	10623.69
474.03	10714.97
474.21	10897.53
474.39	11026.26
474.57	10846.04
474.75	10934.98
474.93	11021.58
475.12	11136.27
475.30	11166.70
475.48	11218.19
475.66	11262.66
475.84	11201.80
476.02	11445.22
476.20	11133.93
476.38	11726.08
476.56	11782.26
476.74	11655.87
476.92	11763.53
477.10	11632.46
477.28	12013.97
477.46	11880.56
477.64	12105.25
477.82	12067.80
478.00	12320.58
478.18	12498.46
478.36	12531.23
478.54	12774.64
478.72	12568.68
478.90	13104.66
479.08	12901.03
479.26	12940.82
479.44	13172.54
479.62	13240.41
479.80	13448.72
479.98	13268.50
480.16	13544.68
480.34	13301.26
480.52	13607.87
480.70	13736.60
480.88	13497.87
481.06	13802.14
481.24	13898.10
481.41	14045.55
481.59	14288.97
481.77	14314.72
481.95	14469.19
482.13	14611.96
482.31	14384.93
482.49	14586.22
482.67	14916.23
482.85	15213.48
483.03	15063.69
483.21	15297.74
483.39	15609.03
483.57	15370.30
483.74	15438.17
483.92	16205.87
484.10	15665.21
484.28	16182.46
484.46	16123.95
484.64	16648.23
484.82	16341.62
485.00	16325.24
485.18	16336.94
485.35	16964.20
485.53	16835.47
485.71	16734.83
485.89	17303.58
486.07	17177.19
486.25	17352.73
486.43	17486.14
486.61	17687.43
486.78	18026.81
486.96	17940.21
487.14	18211.71
487.32	18267.88
487.50	18347.46
487.68	18314.69
487.85	18595.56
488.03	18930.25
488.21	19115.16
488.39	18923.23
488.57	19147.92
488.75	19157.28
488.92	19578.58
489.10	19604.33
489.28	19763.48
489.46	19747.10
489.64	19871.15
489.81	20781.62
489.99	20074.77
490.17	20175.42
490.35	20676.29
490.53	20664.59
490.70	21067.16
490.88	20835.45
491.06	21078.86
491.24	20444.58
491.41	21174.83
491.59	21369.09
491.77	21472.07
491.95	21355.05
492.13	21809.11
492.30	22015.08
492.48	21848.90
492.66	21832.52
492.84	22164.87
493.01	22417.65
493.19	22272.54
493.37	22637.66
493.54	22909.16
493.72	22932.57
493.90	22972.36
494.08	22824.90
494.25	23606.64
494.43	23744.73
494.61	23789.20
494.79	23964.75
494.96	23810.27
495.14	23873.46
495.32	24217.52
495.49	24201.14
495.67	24219.86
495.85	24292.42
496.02	24512.43
496.20	24680.95
496.38	24898.62
496.55	24950.11
496.73	25020.33
496.91	25289.49
497.09	25163.10
497.26	25867.60
497.44	25371.41
497.62	25350.34
497.79	25605.46
497.97	25837.17
498.14	26384.86
498.32	26632.96
498.50	26206.98
498.67	26295.92
498.85	26321.66
499.03	26684.45
499.20	26930.20
499.38	26885.73
499.56	26838.92
499.73	27154.90
499.91	27288.31
500.08	27402.99
500.26	27187.66
500.44	27377.25
500.61	27831.31
500.79	27744.71
500.97	27864.08
501.14	27662.79
501.32	28137.92
501.49	28070.04
501.67	27819.61
501.84	28095.79
502.02	28105.15
502.20	28259.63
502.37	28865.83
502.55	28690.29
502.72	28739.44
502.90	28716.03
503.07	28411.76
503.25	28776.89
503.43	28643.48
503.60	29413.51
503.78	29418.19
503.95	29427.56
504.13	29165.42
504.30	29422.87
504.48	29427.56
504.65	29392.45
504.83	29951.84
505.01	30000.99
505.18	29933.11
505.36	30237.38
505.53	30134.40
505.71	30230.36
505.88	30501.86
506.06	30110.99
506.23	30661.02
506.41	30607.19
506.58	30857.62
506.76	30689.10
506.93	30590.80
507.11	30431.65
507.28	31122.10
507.46	30478.46
507.63	30815.49
507.81	31852.35
507.98	31164.23
508.16	31346.79
508.33	31234.45
508.50	31711.92
508.68	31346.79
508.85	31910.86
509.03	31948.31
509.20	32046.62
509.38	32561.53
509.55	32556.85
509.73	32222.16
509.90	32336.84
510.08	32741.75
510.25	32636.43
510.42	32685.58
510.60	33041.34
510.77	32725.37
510.95	32795.59
511.12	32538.13
511.30	33167.73
511.47	33160.71
511.64	32996.87
511.82	33572.64
511.99	33235.61
512.17	33727.12
512.34	33350.29
512.51	33783.29
512.69	33823.08
512.86	33493.07
513.04	34010.32
513.21	33806.70
513.38	34366.09
513.56	34270.12
513.73	33909.68
513.90	34630.57
514.08	34244.38
514.25	34607.16
514.43	34859.94
514.60	34705.46
514.77	35026.12
514.95	35281.24
515.12	34766.32
515.29	34754.61
515.47	35110.38
515.64	35363.15
515.81	35323.36
515.99	35257.83
516.16	35667.42
516.33	35473.16
516.51	36198.73
516.68	35512.95
516.85	35578.48
517.03	35997.44
517.20	36350.86
517.37	36215.11
517.54	36233.83
517.72	35887.43
517.89	36039.57
518.06	36168.30
518.24	35974.03
518.41	35910.84
518.58	36479.59
518.75	36268.94
518.93	36570.87
519.10	36484.27
519.27	36439.80
519.45	36545.12
519.62	36458.52
519.79	36793.22
519.96	37163.03
520.14	36952.38
520.31	37024.93
520.48	37090.47
520.65	37191.11
520.83	37273.03
521.00	37329.20
521.17	37710.71
521.34	37490.70
521.52	37933.06
521.69	37703.69
521.86	37794.97
522.03	38022.00
522.20	37893.27
522.38	37654.54
522.55	37872.21
522.72	38230.31
522.89	38199.88
523.07	38436.28
523.24	38164.78
523.41	38256.06
523.58	38176.48
523.75	38569.69
523.92	38768.63
524.10	38597.77
524.27	38878.64
524.44	38892.68
524.61	39269.51
524.78	39222.70
524.96	39309.30
525.13	39257.81
525.30	39543.35
525.47	39208.65
525.64	39220.36
525.81	39545.69
525.98	39335.04
526.16	39634.63
526.33	39611.23
526.50	39482.50
526.67	39515.26
526.84	40163.59
527.01	39583.14
527.18	39950.60
527.36	39927.20
527.53	40383.60
527.70	40130.83
527.87	40172.96
528.04	40294.66
528.21	40538.08
528.38	39908.47
528.55	40620.00
528.72	40378.92
528.89	40411.69
529.07	40353.18
529.24	40418.71
529.41	40699.58
529.58	40697.24
529.75	40751.07
529.92	40818.94
530.09	40795.54
530.26	41057.68
530.43	40975.76
530.60	41038.95
530.77	41097.47
530.94	41214.49
531.11	41130.23
531.28	40882.14
531.46	41125.55
531.63	41425.14
531.80	41684.94
531.97	41759.84
532.14	41893.25
532.31	41661.54
532.48	41670.90
532.65	41972.83
532.82	41226.20
532.99	41698.98
533.16	41354.93
533.33	42150.71
533.50	42258.37
533.67	42059.43
533.84	41469.61
534.01	42066.45
534.18	41731.75
534.35	42359.02
534.52	42284.12
534.69	42342.63
534.86	42623.50
535.03	42183.48
535.20	42906.70
535.37	42712.44
535.54	42607.11
535.71	42506.47
535.88	42611.79
536.05	42564.98
536.22	43171.18
536.38	42689.03
536.55	43019.05
536.72	43054.15
536.89	42810.74
537.06	42637.54
537.23	42972.24
537.40	43159.48
537.57	43178.20
537.74	43178.20
537.91	43597.16
538.08	43412.26
538.25	43351.40
538.42	43353.74
538.59	43690.78
538.75	43196.93
538.92	43220.33
539.09	43484.81
539.26	43569.07
539.43	43756.32
539.60	43779.72
539.77	43674.40
539.94	43833.55
540.11	43955.26
540.28	43973.98
540.44	43929.51
540.61	44194.00
540.78	44268.89
540.95	44360.17
541.12	44580.18
541.29	44430.39
541.46	44524.01
541.62	44516.99
541.79	44149.53
541.96	44095.69
542.13	44177.61
542.30	44685.51
542.47	44524.01
542.63	45048.29
542.80	45188.72
542.97	45008.50
543.14	44854.03
543.31	45188.72
543.48	45113.83
543.64	45324.47
543.81	45434.48
543.98	45631.08
544.15	45275.32
544.32	45371.28
544.48	45443.84
544.65	45275.32
544.82	45277.66
544.99	45270.64
545.16	45160.64
545.32	45097.44
545.49	45993.87
545.66	46600.07
545.83	46712.41
546.00	46693.69
546.16	46061.74
546.33	45958.76
546.50	45188.72
546.67	45661.51
546.83	45160.64
547.00	45958.76
547.17	45720.02
547.34	45535.12
547.50	46099.19
547.67	45698.96
547.84	46328.56
548.00	46143.66
548.17	46211.54
548.34	45968.12
548.51	46328.56
548.67	46363.67
548.84	46230.26
549.01	46122.60
549.18	46272.39
549.34	46127.28
549.51	45825.35
549.68	45907.27
549.84	46410.48
550.01	46366.01
550.18	46031.32
550.34	46670.28
550.51	46483.04
550.68	46525.17
550.84	46094.51
551.01	46953.49
551.18	46117.92
551.34	46253.67
551.51	46244.30
551.68	46571.98
551.84	46625.81
552.01	46452.61
552.18	46677.30
552.34	46347.29
552.51	46829.44
552.68	46660.92
552.84	46660.92
553.01	46878.59
553.18	46834.12
553.34	46777.95
553.51	47152.43
553.67	46391.76
553.84	47288.18
554.01	47012.00
554.17	47250.74
554.34	46799.01
554.51	46955.83
554.67	47243.71
554.84	47330.31
555.00	47138.39
555.17	47019.02
555.33	47098.60
555.50	46974.55
555.67	46747.52
555.83	47009.66
556.00	46595.38
556.16	47283.50
556.33	47318.61
556.50	47445.00
556.66	47227.33
556.83	47435.64
556.99	47526.92
557.16	47742.25
557.32	47302.23
557.49	47524.58
557.65	47262.44
557.82	47222.65
557.98	47475.43
558.15	47299.89
558.32	47700.12
558.48	47437.98
558.65	47540.96
558.81	47730.54
558.98	47634.58
559.14	47356.06
559.31	47318.61
559.47	47187.54
559.64	47903.74
559.80	47646.29
559.97	47964.60
560.13	47360.74
560.30	48168.22
560.46	47332.65
560.63	47875.66
560.79	47971.62
560.96	47449.68
561.12	47657.99
561.29	47564.37
561.45	48133.12
561.61	47545.64
561.78	47779.70
561.94	47950.56
562.11	48002.05
562.27	47732.89
562.44	47913.11
562.60	48055.88
562.77	47730.54
562.93	48037.16
563.10	48240.78
563.26	48126.10
563.42	48439.73
563.59	48027.79
563.75	47901.40
563.92	48320.36
564.08	48004.39
564.24	48348.45
564.41	47936.51
564.57	48154.18
564.74	47950.56
564.90	48264.19
565.07	48282.91
565.23	48390.58
565.39	48041.84
565.56	48175.25
565.72	48261.85
565.88	47744.59
566.05	48273.55
566.21	48142.48
566.38	48083.97
566.54	48498.24
566.70	48580.16
566.87	48140.14
567.03	48076.94
567.19	48278.23
567.36	48491.22
567.52	48177.59
567.68	48303.98
567.85	47931.83
568.01	48254.82
568.17	48048.86
568.34	48376.53
568.50	48472.49
568.66	48371.85
568.83	48198.65
568.99	48638.67
569.15	48430.36
569.32	48128.44
569.48	47980.98
569.64	48390.58
569.81	48456.11
569.97	48210.35
570.13	48491.22
570.30	48191.63
570.46	48687.82
570.62	48418.66
570.78	48182.27
570.95	48271.21
571.11	48470.15
571.27	48205.67
571.43	48002.05
571.60	48149.50
571.76	48236.10
571.92	48533.35
572.09	48362.49
572.25	48413.98
572.41	48399.94
572.57	48399.94
572.74	48596.54
572.90	48601.22
573.06	48346.11
573.22	48399.94
573.38	48800.17
573.55	48339.08
573.71	48706.55
573.87	48926.56
574.03	48371.85
574.20	48247.80
574.36	48130.78
574.52	48622.29
574.68	48383.55
574.84	48577.82
575.01	48781.45
575.17	48458.45
575.33	48652.72
575.49	48107.37
575.65	48395.26
575.82	48531.01
575.98	48374.19
576.14	48645.69
576.30	48512.28
576.46	48399.94
576.62	48240.78
576.79	48619.95
576.95	48095.67
577.11	48617.61
577.27	48617.61
577.43	48807.19
577.59	48746.34
577.75	48619.95
577.92	48477.18
578.08	48322.70
578.24	48526.33
578.40	48381.21
578.56	48687.82
578.72	48769.74
578.88	49305.73
579.04	49010.82
579.21	48582.50
579.37	48575.48
579.53	49132.53
579.69	48303.98
579.85	48299.30
580.01	48423.34
580.17	48385.89
580.33	48392.92
580.49	48264.19
580.65	48783.79
580.82	48947.62
580.98	48397.60
581.14	48814.21
581.30	48629.31
581.46	48226.74
581.62	48615.27
581.78	48278.23
581.94	48531.01
582.10	48713.57
582.26	48966.35
582.42	48762.72
582.58	48666.76
582.74	48320.36
582.90	48720.59
583.06	48926.56
583.22	48577.82
583.38	48744.00
583.54	48411.64
583.70	48472.49
583.86	49088.06
584.02	48470.15
584.18	48800.17
584.34	48839.96
584.50	48711.23
584.66	48856.34
584.82	48479.52
584.98	48783.79
585.14	48226.74
585.30	48535.69
585.46	48231.42
585.62	48303.98
585.78	48797.83
585.94	48570.80
586.10	48577.82
586.26	48547.39
586.42	48978.05
586.58	48952.30
586.74	48528.67
586.90	48355.47
587.06	48374.19
587.22	48666.76
587.38	48362.49
587.54	48942.94
587.70	48762.72
587.86	48772.08
588.02	48584.84
588.18	48910.17
588.34	48580.16
588.49	48495.90
588.65	48437.39
588.81	48809.53
588.97	48891.45
589.13	48781.45
589.29	48343.77
589.45	48540.37
589.61	48615.27
589.77	48718.25
589.93	49099.76
590.08	49221.47
590.24	48793.15
