SpectraSuite Data File
++++++++++++++++++++++++++++++++++++
Date: Tue Oct 01 18:27:26 GMT-05:00 2013
User: stostad
Dark Spectrum Present: No
Reference Spectrum Present: No
Number of Sampled Component Spectra: 1
Spectrometers: USB2+H05261
Integration Time (usec): 100000 (USB2+H05261)
Spectra Averaged: 1 (USB2+H05261)
Boxcar Smoothing: 0 (USB2+H05261)
Correct for Electrical Dark: No (USB2+H05261)
Strobe/Lamp Enabled: No (USB2+H05261)
Correct for Detector Non-linearity: No (USB2+H05261)
Correct for Stray Light: No (USB2+H05261)
Number of Pixels in Processed Spectrum: 2048
>>>>>Begin Processed Spectral Data<<<<<
365.73	88.94
365.92	88.94
366.12	88.94
366.32	0.00
366.52	0.00
366.72	11.70
366.91	0.00
367.11	0.00
367.31	0.00
367.51	0.00
367.70	0.00
367.90	7.02
368.10	0.00
368.30	39.79
368.49	0.00
368.69	32.77
368.89	0.00
369.09	0.00
369.28	0.00
369.48	0.00
369.68	2.34
369.87	39.79
370.07	42.13
370.27	81.92
370.47	79.58
370.66	285.55
370.86	341.72
371.06	381.51
371.25	355.76
371.45	318.31
371.65	315.97
371.84	269.16
372.04	334.70
372.24	344.06
372.44	344.06
372.63	393.21
372.83	393.21
373.03	383.85
373.22	376.83
373.42	444.70
373.62	407.25
373.81	372.15
374.01	477.47
374.21	425.98
374.40	449.38
374.60	386.19
374.79	379.17
374.99	388.53
375.19	458.74
375.38	468.11
375.58	463.43
375.78	545.34
375.97	510.24
376.17	533.64
376.37	386.19
376.56	402.57
376.76	421.30
376.95	447.04
377.15	465.77
377.35	433.00
377.54	517.26
377.74	507.90
377.93	486.83
378.13	486.83
378.33	526.62
378.52	526.62
378.72	472.79
378.91	479.81
379.11	463.43
379.31	601.52
379.50	458.74
379.70	585.13
379.89	578.11
380.09	566.41
380.28	547.69
380.48	545.34
380.68	503.22
380.87	533.64
381.07	554.71
381.26	594.50
381.46	554.71
381.65	550.03
381.85	435.34
382.04	477.47
382.24	557.05
382.43	582.79
382.63	519.60
382.83	543.00
383.02	575.77
383.22	594.50
383.41	540.66
383.61	631.94
383.80	566.41
384.00	653.01
384.19	634.29
384.39	695.14
384.58	643.65
384.78	596.84
384.97	620.24
385.17	631.94
385.36	594.50
385.56	734.93
385.75	695.14
385.95	631.94
386.14	643.65
386.34	655.35
386.53	653.01
386.72	620.24
386.92	653.01
387.11	697.48
387.31	692.80
387.50	688.12
387.70	676.41
387.89	732.59
388.09	615.56
388.28	734.93
388.48	634.29
388.67	720.88
388.86	690.46
389.06	751.31
389.25	746.63
389.45	748.97
389.64	746.63
389.84	765.36
390.03	657.69
390.22	814.51
390.42	741.95
390.61	734.93
390.81	851.96
391.00	692.80
391.19	763.01
391.39	819.19
391.58	844.93
391.78	807.48
391.97	795.78
392.16	814.51
392.36	835.57
392.55	840.25
392.75	922.17
392.94	849.61
393.13	912.81
393.33	884.72
393.52	819.19
393.71	915.15
393.91	908.13
394.10	882.38
394.29	952.60
394.49	950.26
394.68	905.79
394.88	933.87
395.07	1011.11
395.26	877.70
395.46	1022.81
395.65	1015.79
395.84	1029.84
396.04	1034.52
396.23	983.02
396.42	1025.15
396.62	1036.86
396.81	973.66
397.00	1088.35
397.19	1088.35
397.39	1097.71
397.58	1100.05
397.77	1132.82
397.97	1118.78
398.16	1135.16
398.35	1116.44
398.55	1057.92
398.74	1055.58
398.93	1146.86
399.12	1097.71
399.32	1074.31
399.51	1027.50
399.70	1221.76
399.90	1144.52
400.09	1231.12
400.28	1160.91
400.47	1207.72
400.67	1275.59
400.86	1287.29
401.05	1240.48
401.24	1327.08
401.44	1226.44
401.63	1397.30
401.82	1277.93
402.01	1313.04
402.21	1235.80
402.40	1268.57
402.59	1385.60
402.78	1366.87
402.97	1376.24
403.17	1453.47
403.36	1507.30
403.55	1490.92
403.74	1411.34
403.93	1462.83
404.13	1425.39
404.32	1572.84
404.51	1474.54
404.70	1549.43
404.89	1629.01
405.09	1631.35
405.28	1610.29
405.47	1591.56
405.66	1652.42
405.85	1692.21
406.05	1586.88
406.24	1640.72
406.43	1645.40
406.62	1692.21
406.81	1734.34
407.00	1764.76
407.20	1703.91
407.39	1626.67
407.58	1736.68
407.77	1778.81
407.96	1898.17
408.15	1928.60
408.34	1762.42
408.54	1839.66
408.73	1898.17
408.92	1884.13
409.11	1926.26
409.30	2078.40
409.49	1902.86
409.68	1909.88
409.87	1994.14
410.07	2087.76
410.26	2033.93
410.45	1949.67
410.64	1996.48
410.83	2106.48
411.02	2017.54
411.21	2176.70
411.40	2160.31
411.59	2113.50
411.78	2106.48
411.98	2160.31
412.17	2314.79
412.36	2291.38
412.55	2333.51
412.74	2349.90
412.93	2296.07
413.12	2258.62
413.31	2450.54
413.50	2392.03
413.69	2492.67
413.88	2406.07
414.07	2473.95
414.26	2410.75
414.45	2544.16
414.64	2558.21
414.83	2724.38
415.02	2658.85
415.22	2705.66
415.41	2757.15
415.60	2663.53
415.79	2787.58
415.98	2780.56
416.17	2750.13
416.36	2855.45
416.55	2857.79
416.74	2794.60
416.93	2860.13
417.12	2909.29
417.31	2841.41
417.50	2916.31
417.69	3063.76
417.88	3133.98
418.07	3080.14
418.26	3026.31
418.45	3061.42
418.64	3091.85
418.83	3129.30
419.02	3063.76
419.21	3082.49
419.39	3176.11
419.58	3112.91
419.77	3243.98
419.96	3117.59
420.15	3258.03
420.34	3239.30
420.53	3173.77
420.72	3286.11
420.91	3393.78
421.10	3433.57
421.29	3459.31
421.48	3323.56
421.67	3492.08
421.86	3363.35
422.05	3375.05
422.24	3492.08
422.43	3541.23
422.61	3471.01
422.80	3473.36
422.99	3588.04
423.18	3522.51
423.37	3571.66
423.56	3581.02
423.75	3618.47
423.94	3473.36
424.13	3356.33
424.32	3377.39
424.50	3529.53
424.69	3559.95
424.88	3581.02
425.07	3550.59
425.26	3417.18
425.45	3506.12
425.64	3590.38
425.83	3475.70
426.01	3550.59
426.20	3583.36
426.39	3595.06
426.58	3463.99
426.77	3611.45
426.96	3623.15
427.15	3606.77
427.33	3878.27
427.52	3595.06
427.71	3744.86
427.90	3784.65
428.09	3728.47
428.28	3864.22
428.46	3836.14
428.65	3901.67
428.84	4072.53
429.03	3934.44
429.22	3854.86
429.40	3885.29
429.59	3901.67
429.78	3620.81
429.97	3761.24
430.16	3868.91
430.34	3885.29
430.53	4210.62
430.72	4028.06
430.91	4018.70
431.10	4065.51
431.28	4107.64
431.47	4133.39
431.66	4280.84
431.85	4121.68
432.03	4325.31
432.22	4409.57
432.41	4325.31
432.60	4383.82
432.79	4163.81
432.97	4278.50
433.16	4133.39
433.35	4348.72
433.54	4409.57
433.72	4294.88
433.91	4505.53
434.10	4400.21
434.28	4423.61
434.47	4514.89
434.66	4535.96
434.85	4430.63
435.03	4409.57
435.22	4496.17
435.41	4751.29
435.59	4533.62
435.78	4582.77
435.97	4608.51
436.16	4636.60
436.34	4690.43
436.53	4580.43
436.72	4725.54
436.90	4535.96
437.09	4800.44
437.28	4798.10
437.46	4713.84
437.65	4652.98
437.84	4786.40
438.02	4922.15
438.21	4891.72
438.40	4910.44
438.58	5046.20
438.77	5029.81
438.96	5036.83
439.14	5186.63
439.33	5240.46
439.52	5041.51
439.70	5184.29
439.89	5383.23
440.08	5394.93
440.26	5413.66
440.45	5334.08
440.63	5406.64
440.82	5483.88
441.01	5411.32
441.19	5551.75
441.38	5570.48
441.57	5650.05
441.75	5504.94
441.94	5771.76
442.12	5577.50
442.31	5900.49
442.50	5804.53
442.68	5795.17
442.87	5788.14
443.05	5844.32
443.24	6029.22
443.43	6129.86
443.61	6080.71
443.80	6274.98
443.98	5841.98
444.17	5757.72
444.35	5998.79
444.54	6085.39
444.73	6059.65
444.91	6017.52
445.10	6045.60
445.28	6097.10
445.47	6113.48
445.65	6010.50
445.84	6134.54
446.02	6132.20
446.21	6104.12
446.39	5998.79
446.58	6146.25
446.77	6146.25
446.95	6031.56
447.14	6225.82
447.32	6244.55
447.51	6296.04
447.69	6097.10
447.88	6181.35
448.06	6108.80
448.25	6157.95
448.43	6251.57
448.62	6363.92
448.80	6270.30
448.99	6382.64
449.17	6150.93
449.36	6340.51
449.54	6429.45
449.73	6464.56
449.91	6434.13
450.10	6511.37
450.28	6483.28
450.46	6417.75
450.65	6686.91
450.83	6604.99
451.02	6614.35
451.20	6722.02
451.39	6740.74
451.57	6607.33
451.76	6616.69
451.94	6567.54
452.13	6729.04
452.31	6836.70
452.49	6665.85
452.68	6759.47
452.86	6803.94
453.05	6848.41
453.23	6881.18
453.42	6672.87
453.60	7014.59
453.78	6815.64
453.97	6986.50
454.15	6890.54
454.34	6827.34
454.52	6897.56
454.70	7049.69
454.89	7108.21
455.07	7082.46
455.26	7183.10
455.44	7178.42
455.62	7253.32
455.81	7192.47
455.99	7236.94
456.17	7309.49
456.36	7152.68
456.54	7396.09
456.73	7431.20
456.91	7424.18
457.09	7433.54
457.28	7719.09
457.46	7630.15
457.64	7604.40
457.83	7503.76
458.01	7641.85
458.19	7805.69
458.38	7566.95
458.56	7698.02
458.74	7819.73
458.93	7672.28
459.11	7843.14
459.29	7871.22
459.48	7990.59
459.66	7742.49
459.84	7927.39
460.03	8004.63
460.21	7997.61
460.39	8025.70
460.57	7899.31
460.76	7969.52
460.94	8173.15
461.12	7873.56
461.31	8091.23
461.49	8198.90
461.67	8002.29
461.85	8294.86
462.04	8208.26
462.22	8739.56
462.40	8327.63
462.59	8255.07
462.77	8327.63
462.95	8496.14
463.13	8379.12
463.32	8496.14
463.50	8468.06
463.68	8688.07
463.86	8409.54
464.05	8430.61
464.23	8507.85
464.41	8519.55
464.59	8603.81
464.78	8659.98
464.96	8676.37
465.14	8599.13
465.32	8695.09
465.50	8762.97
465.69	8812.12
465.87	8863.61
466.05	8777.01
466.23	8648.28
466.41	8814.46
466.60	9298.95
466.78	8601.47
466.96	8872.97
467.14	8929.14
467.32	9149.15
467.51	9078.94
467.69	8959.57
467.87	9032.13
468.05	9193.62
468.23	9137.45
468.41	9139.79
468.60	9174.90
468.78	9490.87
468.96	9188.94
469.14	9170.22
469.32	9502.58
469.50	9055.53
469.69	9439.38
469.87	9411.29
470.05	9591.52
470.23	9535.34
470.41	9446.40
470.59	9689.82
470.77	9523.64
470.95	9717.90
471.14	9783.44
471.32	9607.90
471.50	10033.88
471.68	9858.34
471.86	9860.68
472.04	9994.09
472.22	10012.81
472.40	10118.14
472.58	10296.02
472.77	10005.79
472.95	10167.29
473.13	10413.04
473.31	9998.77
473.49	10026.86
473.67	10359.21
473.85	10420.06
474.03	10513.69
474.21	10593.26
474.39	10743.06
474.57	10747.74
474.75	10698.59
474.93	10942.00
475.12	10850.72
475.30	11052.01
475.48	10902.22
475.66	10794.55
475.84	11281.38
476.02	11026.26
476.20	11211.17
476.38	11480.33
476.56	11660.55
476.74	11653.53
476.92	11456.92
477.10	11580.97
477.28	11573.95
477.46	11674.59
477.64	11964.82
477.82	12037.38
478.00	12189.51
478.18	12484.42
478.36	12318.24
478.54	12571.02
478.72	12505.48
478.90	12538.25
479.08	12854.22
479.26	13071.89
479.44	12858.90
479.62	12961.89
479.80	13055.51
479.98	13235.73
480.16	13680.43
480.34	13350.42
480.52	13455.74
480.70	13408.93
480.88	13614.90
481.06	13458.08
481.24	13528.30
481.41	14087.68
481.59	14029.17
481.77	14204.71
481.95	14286.63
482.13	14434.08
482.31	14150.88
482.49	14649.41
482.67	14424.72
482.85	14822.61
483.03	14878.79
483.21	15314.13
483.39	15044.96
483.57	15480.30
483.74	15665.21
483.92	15370.30
484.10	15321.15
484.28	15730.74
484.46	15861.81
484.64	16154.38
484.82	16044.37
485.00	16294.81
485.18	16409.50
485.35	16868.24
485.53	16704.40
485.71	16739.51
485.89	16711.42
486.07	17013.35
486.25	17179.53
486.43	17156.13
486.61	17572.74
486.78	17621.89
486.96	17647.64
487.14	18019.78
487.32	17769.35
487.50	18052.55
487.68	18218.73
487.85	18342.78
488.03	18272.56
488.21	18724.29
488.39	18754.71
488.57	18644.71
488.75	19110.47
488.92	19199.41
489.10	19658.16
489.28	19620.71
489.46	19709.65
489.64	19421.77
489.81	20238.61
489.99	19985.83
490.17	20526.50
490.35	20624.80
490.53	20704.38
490.70	20563.95
490.88	20533.52
491.06	21174.83
491.24	21240.36
491.41	21116.31
491.59	21226.32
491.77	21074.18
491.95	21521.23
492.13	21565.70
492.30	21769.32
492.48	22218.71
492.66	21949.54
492.84	22155.51
493.01	22450.42
493.19	22494.89
493.37	22436.38
493.54	22827.24
493.72	22932.57
493.90	23218.11
494.08	23524.72
494.25	23321.10
494.43	23145.56
494.61	23709.63
494.79	23772.82
494.96	23562.17
495.14	23564.51
495.32	24404.77
495.49	24283.06
495.67	24233.91
495.85	24350.93
496.02	24364.98
496.20	24994.58
496.38	24837.76
496.55	25132.67
496.73	25254.38
496.91	25113.95
497.09	25476.73
497.26	25254.38
497.44	25322.26
497.62	25572.69
497.79	25979.95
497.97	25895.69
498.14	26359.11
498.32	26352.09
498.50	26382.52
498.67	26352.09
498.85	26857.65
499.03	26590.83
499.20	26850.63
499.38	26834.24
499.56	26773.39
499.73	26904.46
499.91	27019.14
500.08	27388.95
500.26	27461.51
500.44	27793.86
500.61	27859.40
500.79	27943.66
500.97	27971.74
501.14	28474.96
501.32	28205.80
501.49	28374.31
501.67	28018.55
501.84	28577.94
502.02	28631.77
502.20	28603.69
502.37	28666.88
502.55	28734.76
502.72	28753.48
502.90	29130.31
503.07	28837.74
503.25	29158.39
503.43	29256.70
503.60	29301.17
503.78	29212.23
503.95	29280.10
504.13	29649.91
504.30	29895.66
504.48	29701.40
504.65	30115.67
504.83	30204.61
505.01	30223.34
505.18	30230.36
505.36	30309.94
505.53	30448.03
505.71	30462.07
505.88	30483.14
506.06	30099.29
506.23	30677.40
506.41	30717.19
506.58	30785.07
506.76	30862.30
506.93	31072.95
507.11	31115.08
507.28	31393.61
507.46	31686.17
507.63	31522.34
507.81	31676.81
507.98	31475.52
508.16	31873.42
508.33	31929.59
508.50	32013.85
508.68	32280.67
508.85	32559.19
509.03	32432.80
509.20	32524.08
509.38	32383.65
509.55	32594.30
509.73	32900.91
509.90	32666.86
510.08	32755.80
510.25	33296.46
510.42	33071.77
510.60	32872.82
510.77	33163.05
510.95	33378.38
511.12	33282.42
511.30	33729.46
511.47	33684.99
511.64	33570.30
511.82	33680.31
511.99	33886.28
512.17	33888.62
512.34	33921.38
512.51	34485.45
512.69	34401.19
512.86	34693.76
513.04	34916.11
513.21	34515.88
513.38	34747.59
513.56	34754.61
513.73	34660.99
513.90	35211.02
514.08	34749.93
514.25	35363.15
514.43	35676.79
514.60	35150.17
514.77	35288.26
514.95	35484.86
515.12	35330.39
515.29	35328.05
515.47	35805.52
515.64	36130.85
515.81	35981.06
515.99	35861.69
516.16	35686.15
516.33	35903.82
516.51	36385.97
516.68	36561.51
516.85	36287.67
517.03	36685.56
517.20	36610.66
517.37	36493.63
517.54	36416.40
517.72	36669.17
517.89	36622.36
518.06	37111.53
518.24	36505.34
518.41	36797.90
518.58	37106.85
518.75	37263.67
518.93	37270.69
519.10	37127.92
519.27	37418.14
519.45	37827.74
519.62	37862.85
519.79	37642.84
519.96	37947.11
520.14	37982.21
520.31	37769.22
520.48	37930.72
520.65	37876.89
520.83	38043.07
521.00	38841.19
521.17	38007.96
521.34	38188.18
521.52	38607.14
521.69	38485.43
521.86	38270.10
522.03	38714.80
522.20	38766.29
522.38	38906.73
522.55	38962.90
522.72	39269.51
522.89	38869.28
523.07	39203.97
523.24	38899.70
523.41	39112.69
523.58	38852.89
523.75	39360.79
523.92	39611.23
524.10	39817.19
524.27	39824.22
524.44	39922.52
524.61	39941.24
524.78	39999.76
524.96	39999.76
525.13	40177.64
525.30	40470.20
525.47	40624.68
525.64	40470.20
525.81	40912.56
525.98	40762.77
526.16	40432.75
526.33	40376.58
526.50	41436.84
526.67	40601.27
526.84	40931.29
527.01	40872.78
527.18	41155.98
527.36	41446.21
527.53	40865.75
527.70	41411.10
527.87	41172.36
528.04	41380.67
528.21	41668.56
528.38	41631.11
528.55	41432.16
528.72	41383.01
528.89	41720.05
529.07	41324.50
529.24	41310.46
529.41	42129.64
529.58	41642.81
529.75	41757.50
529.92	42054.75
530.09	42415.19
530.26	42087.51
530.43	41982.19
530.60	41713.03
530.77	42024.32
530.94	42284.12
531.11	42305.18
531.28	42588.39
531.46	42501.79
531.63	42595.41
531.80	42747.54
531.97	42962.87
532.14	42887.98
532.31	43012.02
532.48	42848.19
532.65	42824.78
532.82	42983.94
532.99	43180.54
533.16	43068.20
533.33	43557.37
533.50	43660.35
533.67	43320.98
533.84	42808.40
534.01	43304.59
534.18	43480.13
534.35	44121.44
534.52	43583.12
534.69	43894.41
534.86	43976.33
535.03	43515.24
535.20	43690.78
535.37	44119.10
535.54	44086.33
535.71	43585.46
535.88	43826.53
536.05	44350.81
536.22	43995.05
536.38	44435.07
536.55	44233.78
536.72	44313.36
536.89	43648.65
537.06	44018.46
537.23	44762.75
537.40	44147.18
537.57	44835.30
537.74	44423.37
537.91	44486.56
538.08	44638.70
538.25	44737.00
538.42	44720.62
538.59	44973.39
538.75	44655.08
538.92	44631.68
539.09	45429.80
539.26	45226.17
539.43	45116.17
539.60	44961.69
539.77	44968.71
539.94	45298.73
540.11	45401.71
540.28	45109.14
540.44	45401.71
540.61	45134.89
540.78	45172.34
540.95	45460.23
541.12	45579.59
541.29	45647.47
541.46	45591.30
541.62	44858.71
541.79	45947.06
541.96	44893.82
542.13	45500.01
542.30	46122.60
542.47	46031.32
542.63	46248.99
542.80	46117.92
542.97	46066.42
543.14	46415.16
543.31	46562.62
543.48	46597.73
543.64	46614.11
543.81	46527.51
543.98	46581.34
544.15	46782.63
544.32	46361.33
544.48	47119.66
544.65	46761.56
544.82	46831.78
544.99	46899.65
545.16	47339.68
545.32	47000.30
545.49	47562.03
545.66	47557.35
545.83	47126.69
546.00	47096.26
546.16	47063.49
546.33	47040.09
546.50	47206.26
546.67	47227.33
546.83	46796.67
547.00	47159.45
547.17	47739.91
547.34	47124.35
547.50	47260.10
547.67	47625.22
547.84	47480.11
548.00	47831.19
548.17	47910.77
548.34	47826.51
548.51	48116.73
548.67	47374.78
548.84	47728.20
549.01	47604.16
549.18	47737.57
549.34	47564.37
549.51	48140.14
549.68	48315.68
549.84	48163.54
550.01	48229.08
550.18	47992.68
550.34	48034.81
550.51	48217.38
550.68	48161.20
550.84	47620.54
551.01	48114.39
551.18	47936.51
551.34	48051.20
551.51	48858.68
551.68	48713.57
551.84	48739.32
552.01	48573.14
552.18	48540.37
552.34	48498.24
552.51	48432.71
552.68	48350.79
552.84	48907.83
553.01	49177.00
553.18	48823.58
553.34	48985.07
553.51	48580.16
553.67	48460.79
553.84	48758.04
554.01	49085.72
554.17	48912.52
554.34	48947.62
554.51	49120.82
554.67	49434.45
554.84	48746.34
555.00	49104.44
555.17	48898.47
555.33	49282.32
555.50	48931.24
555.67	49179.34
555.83	49198.06
556.00	49029.54
556.16	49703.62
556.33	49247.21
556.50	49254.23
556.66	49455.52
556.83	49523.40
556.99	49221.47
557.16	49556.16
557.32	49202.74
557.49	49605.31
557.65	49359.56
557.82	49745.75
557.98	50230.24
558.15	49792.56
558.32	50150.66
558.48	49303.38
558.65	49825.32
558.81	49724.68
558.98	49677.87
559.14	49762.13
559.31	49635.74
559.47	49808.94
559.64	50010.23
559.80	49986.82
559.97	50021.93
560.13	49673.19
560.30	49890.86
560.46	49673.19
560.63	49982.14
560.79	50054.70
560.96	50351.94
561.12	49673.19
561.29	49970.44
561.45	49977.46
561.61	50508.76
561.78	50174.06
561.94	49907.24
562.11	49862.77
562.27	49694.25
562.44	50335.56
562.60	50300.45
562.77	50234.92
562.93	50129.59
563.10	50738.13
563.26	50302.79
563.42	50394.07
563.59	50021.93
563.75	49925.97
563.92	50314.50
564.08	50263.00
564.24	50555.57
564.41	50464.29
564.57	50136.62
564.74	50145.98
564.90	50742.81
565.07	50384.71
565.23	50574.30
565.39	50054.70
565.56	50368.33
565.72	50279.39
565.88	50408.12
566.05	50635.15
566.21	50586.00
566.38	50686.64
566.54	50323.86
566.70	50761.54
566.87	50728.77
567.03	50263.00
567.19	50667.92
567.36	50583.66
567.52	50190.45
567.68	50890.27
567.85	50754.52
568.01	50866.86
568.17	50588.34
568.34	50466.63
568.50	50747.50
568.66	50354.29
568.83	50398.76
568.99	50248.96
569.15	50506.42
569.32	50913.67
569.48	50431.52
569.64	51030.70
569.81	50623.45
569.97	50656.21
570.13	50850.48
570.30	50611.74
570.46	50595.36
570.62	50766.22
570.78	50670.26
570.95	50628.13
571.11	50770.90
571.27	50983.89
571.43	51180.49
571.60	50883.25
571.76	50754.52
571.92	50543.87
572.09	51007.29
572.25	50749.84
572.41	50663.24
572.57	51276.46
572.74	51524.55
572.90	51213.26
573.06	50616.43
573.22	51030.70
573.38	51386.46
573.55	50820.05
573.71	51014.32
573.87	50728.77
574.03	50705.37
574.20	50707.71
574.36	50635.15
574.52	50939.42
574.68	50775.58
574.84	51231.99
575.01	51213.26
575.17	51234.33
575.33	50934.74
575.49	50937.08
575.65	51309.22
575.82	51154.75
575.98	51164.11
576.14	51098.58
576.30	51283.48
576.46	51126.66
576.62	51327.95
576.79	51334.97
576.95	50731.11
577.11	51044.74
577.27	51098.58
577.43	50911.33
577.59	51103.26
577.75	51114.96
577.92	51185.18
578.08	50803.67
578.24	51388.80
578.40	51566.68
578.56	51262.41
578.72	51227.31
578.88	51501.15
579.04	51077.51
579.21	51044.74
579.37	51255.39
579.53	51452.00
579.69	51175.81
579.85	51372.42
580.01	51573.70
580.17	51107.94
580.33	51475.40
580.49	51285.82
580.65	50983.89
580.82	51119.64
580.98	51391.14
581.14	51377.10
581.30	51339.65
581.46	51246.03
581.62	51189.86
581.78	51044.74
581.94	51395.82
582.10	51302.20
582.26	50958.14
582.42	51255.39
582.58	51299.86
582.74	51042.40
582.90	51304.54
583.06	51543.28
583.22	51452.00
583.38	51426.25
583.54	51349.01
583.70	51433.27
583.86	51826.48
584.02	51194.54
584.18	51452.00
584.34	51311.56
584.50	51430.93
584.66	51597.11
584.82	51398.16
584.98	51257.73
585.14	51480.08
585.30	51107.94
585.46	51524.55
585.62	51356.03
585.78	51547.96
585.94	51175.81
586.10	51110.28
586.26	51398.16
586.42	51222.62
586.58	51026.02
586.74	51311.56
586.90	51615.83
587.06	51997.34
587.22	51978.62
587.38	51613.49
587.54	51491.79
587.70	51473.06
587.86	51545.62
588.02	51536.26
588.18	51526.89
588.34	51370.08
588.49	51821.80
588.65	51540.94
588.81	51639.24
588.97	51873.29
589.13	52130.75
589.29	51662.64
589.45	52175.22
589.61	51559.66
589.77	52058.20
589.93	51950.53
590.08	51508.17
590.24	51777.33
590.40	51819.46
