SpectraSuite Data File
++++++++++++++++++++++++++++++++++++
Date: Fri Oct 04 11:39:21 GMT-05:00 2013
User: price-jones
Dark Spectrum Present: No
Reference Spectrum Present: No
Number of Sampled Component Spectra: 1
Spectrometers: USB2+H05261
Integration Time (usec): 100000 (USB2+H05261)
Spectra Averaged: 1 (USB2+H05261)
Boxcar Smoothing: 0 (USB2+H05261)
Correct for Electrical Dark: No (USB2+H05261)
Strobe/Lamp Enabled: No (USB2+H05261)
Correct for Detector Non-linearity: No (USB2+H05261)
Correct for Stray Light: No (USB2+H05261)
Number of Pixels in Processed Spectrum: 2048
>>>>>Begin Processed Spectral Data<<<<<
365.73	63.19
365.92	63.19
366.12	63.19
366.32	25.75
366.52	0.00
366.72	9.36
366.91	0.00
367.11	0.00
367.31	0.00
367.51	0.00
367.70	0.00
367.90	0.00
368.10	0.00
368.30	0.00
368.49	0.00
368.69	0.00
368.89	0.00
369.09	0.00
369.28	0.00
369.48	0.00
369.68	0.00
369.87	42.13
370.07	0.00
370.27	49.15
370.47	72.56
370.66	290.23
370.86	266.82
371.06	311.29
371.25	266.82
371.45	283.20
371.65	238.73
371.84	292.57
372.04	362.78
372.24	334.70
372.44	327.68
372.63	379.17
372.83	351.08
373.03	411.93
373.22	337.04
373.42	379.17
373.62	390.87
373.81	404.91
374.01	400.23
374.21	372.15
374.40	374.49
374.60	320.65
374.79	407.25
374.99	397.89
375.19	444.70
375.38	348.74
375.58	470.45
375.78	482.15
375.97	500.87
376.17	535.98
376.37	468.11
376.56	458.74
376.76	440.02
376.95	428.32
377.15	435.34
377.35	475.13
377.54	402.57
377.74	353.42
377.93	407.25
378.13	386.19
378.33	444.70
378.52	421.30
378.72	430.66
378.91	463.43
379.11	395.55
379.31	416.62
379.50	433.00
379.70	475.13
379.89	465.77
380.09	475.13
380.28	351.08
380.48	311.29
380.68	456.40
380.87	414.27
381.07	456.40
381.26	472.79
381.46	468.11
381.65	538.32
381.85	472.79
382.04	573.43
382.24	538.32
382.43	550.03
382.63	444.70
382.83	465.77
383.02	543.00
383.22	596.84
383.41	500.87
383.61	538.32
383.80	521.94
384.00	519.60
384.19	505.56
384.39	500.87
384.58	603.86
384.78	610.88
384.97	526.62
385.17	580.45
385.36	528.96
385.56	545.34
385.75	521.94
385.95	545.34
386.14	578.11
386.34	552.37
386.53	634.29
386.72	540.66
386.92	603.86
387.11	538.32
387.31	587.47
387.50	634.29
387.70	578.11
387.89	571.09
388.09	582.79
388.28	606.20
388.48	573.43
388.67	599.18
388.86	629.60
389.06	674.07
389.25	617.90
389.45	645.99
389.64	610.88
389.84	699.82
390.03	674.07
390.22	671.73
390.42	645.99
390.61	723.23
390.81	606.20
391.00	788.76
391.19	706.84
391.39	774.72
391.58	699.82
391.78	669.39
391.97	685.78
392.16	667.05
392.36	758.33
392.55	805.14
392.75	744.29
392.94	706.84
393.13	716.20
393.33	767.70
393.52	753.65
393.71	713.86
393.91	844.93
394.10	713.86
394.29	774.72
394.49	746.63
394.68	833.23
394.88	786.42
395.07	854.30
395.26	767.70
395.46	856.64
395.65	915.15
395.84	809.83
396.04	875.36
396.23	837.91
396.42	870.68
396.62	931.53
396.81	931.53
397.00	933.87
397.19	931.53
397.39	938.55
397.58	1046.22
397.77	950.26
397.97	1015.79
398.16	889.40
398.35	905.79
398.55	926.85
398.74	940.90
398.93	959.62
399.12	1041.54
399.32	997.07
399.51	997.07
399.70	1109.41
399.90	1048.56
400.09	1076.65
400.28	1116.44
400.47	1158.57
400.67	1135.16
400.86	1083.67
401.05	1095.37
401.24	1090.69
401.44	1013.45
401.63	1184.31
401.82	1156.22
402.01	1118.78
402.21	1181.97
402.40	1158.57
402.59	1146.86
402.78	1153.88
402.97	1242.82
403.17	1214.74
403.36	1322.40
403.55	1214.74
403.74	1287.29
403.93	1350.49
404.13	1341.13
404.32	1303.68
404.51	1322.40
404.70	1420.71
404.89	1315.38
405.09	1352.83
405.28	1469.86
405.47	1416.02
405.66	1437.09
405.85	1439.43
406.05	1413.68
406.24	1401.98
406.43	1490.92
406.62	1535.39
406.81	1621.99
407.00	1425.39
407.20	1476.88
407.39	1621.99
407.58	1509.65
407.77	1610.29
407.96	1671.14
408.15	1652.42
408.34	1664.12
408.54	1680.50
408.73	1746.04
408.92	1605.61
409.11	1732.00
409.30	1678.16
409.49	1696.89
409.68	1706.25
409.87	1724.97
410.07	1797.53
410.26	1694.55
410.45	1907.54
410.64	1830.30
410.83	1839.66
411.02	1884.13
411.21	1942.64
411.40	1914.56
411.59	1926.26
411.78	2045.63
411.98	1877.11
412.17	2010.52
412.36	1954.35
412.55	1994.14
412.74	2019.88
412.93	2129.89
413.12	2099.46
413.31	2251.60
413.50	2118.18
413.69	2129.89
413.88	2342.88
414.07	2230.53
414.26	2256.28
414.45	2340.54
414.64	2375.64
414.83	2361.60
415.02	2480.97
415.22	2469.27
415.41	2370.96
415.60	2431.82
415.79	2483.31
415.98	2583.95
416.17	2499.69
416.36	2495.01
416.55	2644.81
416.74	2586.29
416.93	2513.74
417.12	2537.14
417.31	2644.81
417.50	2745.45
417.69	2738.43
417.88	2628.42
418.07	2752.47
418.26	2689.28
418.45	2827.37
418.64	2785.24
418.83	2881.20
419.02	2649.49
419.21	2890.56
419.39	2860.13
419.58	2853.11
419.77	2930.35
419.96	3000.57
420.15	2984.18
420.34	2855.45
420.53	3016.95
420.72	3094.19
420.91	2988.86
421.10	3112.91
421.29	3077.80
421.48	3063.76
421.67	3119.93
421.86	3047.38
422.05	3143.34
422.24	3098.87
422.43	3199.51
422.61	3105.89
422.80	3173.77
422.99	3166.74
423.18	3166.74
423.37	3229.94
423.56	3211.22
423.75	3166.74
423.94	3260.37
424.13	2892.90
424.32	3087.17
424.50	3133.98
424.69	3267.39
424.88	3356.33
425.07	3162.06
425.26	3155.04
425.45	3375.05
425.64	3258.03
425.83	3201.85
426.01	3356.33
426.20	3187.81
426.39	3260.37
426.58	3204.19
426.77	3330.58
426.96	3410.16
427.15	3295.47
427.33	3485.06
427.52	3389.10
427.71	3435.91
427.90	3398.46
428.09	3564.64
428.28	3522.51
428.46	3396.12
428.65	3627.83
428.84	3749.54
429.03	3709.75
429.22	3473.36
429.40	3637.19
429.59	3691.02
429.78	3513.14
429.97	3515.48
430.16	3618.47
430.34	3709.75
430.53	3719.11
430.72	3688.68
430.91	3688.68
431.10	3721.45
431.28	3840.82
431.47	3761.24
431.66	3941.46
431.85	3784.65
432.03	3681.66
432.22	3969.55
432.41	3906.35
432.60	3857.20
432.79	3845.50
432.97	3967.21
433.16	3981.25
433.35	4086.58
433.54	4070.19
433.72	3861.88
433.91	4004.66
434.10	3990.61
434.28	4037.42
434.47	4117.00
434.66	4117.00
434.85	4102.96
435.03	4166.15
435.22	4407.23
435.41	4660.01
435.59	4500.85
435.78	4524.26
435.97	4418.93
436.16	4320.63
436.34	4243.39
436.53	4341.69
436.72	4512.55
436.90	4234.03
437.09	4369.78
437.28	4231.69
437.46	4432.97
437.65	4449.36
437.84	4432.97
438.02	4486.81
438.21	4407.23
438.40	4423.61
438.58	4662.35
438.77	4498.51
438.96	4676.39
439.14	4685.75
439.33	4688.09
439.52	4805.12
439.70	4704.48
439.89	4973.64
440.08	4985.34
440.26	4709.16
440.45	4922.15
440.63	4849.59
440.82	4959.60
441.01	4975.98
441.19	5132.79
441.38	5055.56
441.57	4997.04
441.75	5247.48
441.94	5345.78
442.12	5298.97
442.31	5273.23
442.50	5280.25
442.68	5343.44
442.87	5448.77
443.05	5313.02
443.24	5446.43
443.43	5448.77
443.61	5638.35
443.80	5699.20
443.98	5399.62
444.17	5245.14
444.35	5626.65
444.54	5476.85
444.73	5537.71
444.91	5619.63
445.10	5502.60
445.28	5387.91
445.47	5392.59
445.65	5399.62
445.84	5636.01
446.02	5708.57
446.21	5657.07
446.39	5579.84
446.58	5579.84
446.77	5528.35
446.95	5572.82
447.14	5816.23
447.32	5671.12
447.51	5610.26
447.69	5451.11
447.88	5708.57
448.06	5533.03
448.25	5554.09
448.43	5551.75
448.62	5636.01
448.80	5750.70
448.99	5666.44
449.17	5813.89
449.36	5731.97
449.54	5816.23
449.73	5937.94
449.91	5912.19
450.10	5926.24
450.28	6017.52
450.46	5973.05
450.65	5928.58
450.83	6099.44
451.02	6003.47
451.20	6146.25
451.39	6108.80
451.57	6108.80
451.76	6008.16
451.94	6160.29
452.13	6284.34
452.31	6291.36
452.49	6335.83
452.68	6298.38
452.86	6076.03
453.05	6305.40
453.23	6551.16
453.42	6080.71
453.60	6221.14
453.78	6300.72
453.97	6314.77
454.15	6230.51
454.34	6284.34
454.52	6441.15
454.70	6296.04
454.89	6333.49
455.07	6490.31
455.26	6490.31
455.44	6509.03
455.62	6541.80
455.81	6590.95
455.99	6579.25
456.17	6740.74
456.36	6726.70
456.54	6696.27
456.73	6679.89
456.91	6832.02
457.09	6881.18
457.28	7145.66
457.46	6836.70
457.64	6920.96
457.83	6958.41
458.01	6825.00
458.19	7108.21
458.38	6981.82
458.56	7225.23
458.74	6984.16
458.93	7169.06
459.11	7112.89
459.29	7016.93
459.48	7314.17
459.66	7260.34
459.84	7393.75
460.03	7426.52
460.21	7337.58
460.39	7267.36
460.57	7290.77
460.76	7194.81
460.94	7283.75
461.12	7248.64
461.31	7349.28
461.49	7386.73
461.67	7082.46
461.85	7606.74
462.04	7602.06
462.22	8018.68
462.40	7557.59
462.59	7653.55
462.77	7599.72
462.95	7667.60
463.13	7716.75
463.32	7728.45
463.50	7878.24
463.68	7805.69
463.86	7817.39
464.05	7770.58
464.23	7702.70
464.41	7873.56
464.59	7953.14
464.78	7878.24
464.96	7859.52
465.14	7857.18
465.32	7913.35
465.50	8107.62
465.69	8053.78
465.87	7857.18
466.05	8039.74
466.23	7805.69
466.41	7861.86
466.60	8374.44
466.78	7925.05
466.96	8238.69
467.14	7896.97
467.32	8255.07
467.51	8341.67
467.69	7981.23
467.87	8243.37
468.05	8226.98
468.23	8046.76
468.41	8196.56
468.60	8173.15
468.78	8175.49
468.96	8411.89
469.14	8475.08
469.32	8400.18
469.50	8245.71
469.69	8800.41
469.87	8561.68
470.05	8662.32
470.23	8571.04
470.41	8617.85
470.59	8688.07
470.77	8718.50
470.95	8793.39
471.14	8879.99
471.32	8957.23
471.50	8966.59
471.68	9039.15
471.86	8922.12
472.04	9032.13
472.22	9181.92
472.40	8739.56
472.58	9191.28
472.77	9074.26
472.95	9188.94
473.13	9392.57
473.31	9186.60
473.49	9172.56
473.67	9458.10
473.85	9366.82
474.03	9387.89
474.21	9383.21
474.39	9724.93
474.57	9549.39
474.75	9523.64
474.93	9916.85
475.12	9675.77
475.30	9837.27
475.48	9818.55
475.66	9870.04
475.84	9851.31
476.02	10136.86
476.20	9977.70
476.38	10335.81
476.56	10359.21
476.74	10345.17
476.92	10413.04
477.10	10347.51
477.28	10586.24
477.46	10616.67
477.64	10590.92
477.82	10902.22
478.00	10965.41
478.18	11187.76
478.36	11044.99
478.54	11272.02
478.72	11342.24
478.90	11393.73
479.08	11522.46
479.26	11393.73
479.44	11688.64
479.62	11751.83
479.80	11910.99
479.98	11716.72
480.16	11976.52
480.34	11637.14
480.52	12325.26
480.70	12269.09
480.88	11751.83
481.06	12233.98
481.24	12379.09
481.41	12362.71
481.59	12758.26
481.77	12608.47
481.95	12688.04
482.13	12779.32
482.31	12992.31
482.49	13139.77
482.67	13095.30
482.85	13373.82
483.03	13631.28
483.21	13635.96
483.39	13579.79
483.57	13645.32
483.74	13921.51
483.92	14010.45
484.10	14216.41
484.28	14410.68
484.46	14532.39
484.64	14661.12
484.82	14541.75
485.00	14450.47
485.18	14904.53
485.35	15157.31
485.53	14981.77
485.71	15187.74
485.89	15433.49
486.07	15136.24
486.25	15307.10
486.43	15484.98
486.61	15545.84
486.78	16215.23
486.96	15838.41
487.14	16130.97
487.32	15920.32
487.50	16173.10
487.68	16248.00
487.85	16578.01
488.03	16746.53
488.21	16933.78
488.39	17011.01
488.57	17081.23
488.75	17228.68
488.92	17324.65
489.10	17441.67
489.28	17547.00
489.46	17619.55
489.64	17884.03
489.81	18155.54
489.99	18022.12
490.17	18286.61
490.35	18483.21
490.53	18523.00
490.70	18658.75
490.88	18635.35
491.06	19157.28
491.24	19145.58
491.41	18899.83
491.59	19222.82
491.77	19030.90
491.95	19480.28
492.13	19421.77
492.30	19372.61
492.48	19552.84
492.66	19697.95
492.84	19857.10
493.01	20100.52
493.19	20133.29
493.37	20336.91
493.54	20451.60
493.72	20608.42
493.90	20608.42
494.08	20954.82
494.25	21109.29
494.43	21074.18
494.61	21081.21
494.79	21467.39
494.96	21289.51
495.14	21214.62
495.32	21750.60
495.49	21827.84
495.67	22043.17
495.85	21902.73
496.02	22127.42
496.20	22340.41
496.38	22443.40
496.55	22396.59
496.73	22831.93
496.91	22822.56
497.09	22576.81
497.26	23248.54
497.44	22682.13
497.62	22927.89
497.79	23550.47
497.97	23339.82
498.14	23447.49
498.32	23569.19
498.50	23985.81
498.67	24273.70
498.85	24018.58
499.03	24030.28
499.20	24009.22
499.38	23950.70
499.56	24575.62
499.73	24407.11
499.91	24737.12
500.08	24905.64
500.26	24425.83
500.44	24467.96
500.61	24697.33
500.79	24732.44
500.97	25149.06
501.14	25324.60
501.32	25642.91
501.49	25355.02
501.67	25266.08
501.84	25582.06
502.02	25345.66
502.20	25738.87
502.37	26040.80
502.55	25617.16
502.72	25883.98
502.90	25865.26
503.07	25675.68
503.25	26139.10
503.43	25928.45
503.60	26260.81
503.78	26473.80
503.95	26286.56
504.13	26628.27
504.30	26558.06
504.48	26391.88
504.65	26986.38
504.83	26780.41
505.01	27211.07
505.18	27002.76
505.36	27297.67
505.53	27119.79
505.71	27269.58
505.88	27473.21
506.06	27168.94
506.23	28098.13
506.41	28044.30
506.58	27592.58
506.76	27639.39
506.93	28280.69
507.11	27608.96
507.28	28161.33
507.46	28063.02
507.63	28238.56
507.81	28320.48
507.98	28493.68
508.16	28575.60
508.33	28318.14
508.50	28004.51
508.68	28561.56
508.85	28774.55
509.03	28994.56
509.20	28872.85
509.38	29528.20
509.55	29273.08
509.73	29411.17
509.90	29443.94
510.08	29479.05
510.25	29083.50
510.42	29509.47
510.60	29457.98
510.77	29394.79
510.95	30302.92
511.12	29333.93
511.30	29876.94
511.47	29745.87
511.64	30125.04
511.82	30433.99
511.99	30101.63
512.17	30347.39
512.34	30211.64
512.51	30852.94
512.69	30710.17
512.86	31044.87
513.04	30859.96
513.21	31002.74
513.38	31068.27
513.56	31197.00
513.73	31136.15
513.90	30869.33
514.08	31164.23
514.25	31220.41
514.43	31377.22
514.60	31695.53
514.77	31845.33
514.95	31826.60
515.12	31552.76
515.29	31697.88
515.47	31929.59
515.64	31971.72
515.81	32039.59
515.99	32617.71
516.16	32591.96
516.33	32533.45
516.51	32676.22
516.68	32615.37
516.85	32458.55
517.03	32390.67
517.20	32858.78
517.37	32563.87
517.54	32884.53
517.72	33411.15
517.89	33050.70
518.06	32964.10
518.24	33039.00
518.41	33228.59
518.58	32929.00
518.75	33165.39
518.93	34178.84
519.10	33303.48
519.27	33572.64
519.45	33549.24
519.62	33551.58
519.79	33954.15
519.96	33649.88
520.14	33820.74
520.31	33982.24
520.48	34085.22
520.65	33947.13
520.83	34073.52
521.00	34319.28
521.17	34527.58
521.34	34389.49
521.52	34485.45
521.69	34787.38
521.86	34686.74
522.03	34820.15
522.20	35019.10
522.38	34834.19
522.55	34899.73
522.72	34237.36
522.89	34932.50
523.07	35096.33
523.24	35105.70
523.41	35543.38
523.58	35178.25
523.75	36222.13
523.92	35585.50
524.10	35536.35
524.27	35611.25
524.44	35606.57
524.61	35711.89
524.78	35920.20
524.96	35936.59
525.13	35828.92
525.30	35917.86
525.47	36559.17
525.64	36428.10
525.81	36212.77
525.98	35913.18
526.16	36598.96
526.33	36240.86
526.50	36495.97
526.67	36411.71
526.84	36313.41
527.01	36395.33
527.18	36528.74
527.36	36879.82
527.53	36662.15
527.70	37071.75
527.87	36950.04
528.04	36910.25
528.21	37266.01
528.38	37071.75
528.55	37053.02
528.72	37254.31
528.89	37280.05
529.07	37380.70
529.24	37378.36
529.41	37493.04
529.58	37497.72
529.75	37378.36
529.92	37596.03
530.09	37390.06
530.26	37750.50
530.43	37942.42
530.60	37570.28
530.77	37518.79
530.94	38082.86
531.11	37801.99
531.28	37806.67
531.46	37783.27
531.63	38183.50
531.80	38223.29
531.97	38443.30
532.14	38424.57
532.31	38127.33
532.48	38462.02
532.65	38368.40
532.82	38213.93
532.99	38426.92
533.16	38979.28
533.33	39285.89
533.50	38883.32
533.67	38738.21
533.84	38869.28
534.01	38834.17
534.18	38447.98
534.35	39154.82
534.52	39274.19
534.69	39665.06
534.86	39342.06
535.03	39159.50
535.20	39222.70
535.37	39215.68
535.54	39306.96
535.71	39222.70
535.88	39445.05
536.05	38918.43
536.22	39751.66
536.38	39697.83
536.55	39782.09
536.72	39737.62
536.89	39735.27
537.06	39924.86
537.23	40154.23
537.40	40208.06
537.57	40196.36
537.74	39903.79
537.91	40238.49
538.08	40622.34
538.25	40002.10
538.42	40119.12
538.59	40804.90
538.75	40275.94
538.92	40399.99
539.09	40285.30
539.26	40605.95
539.43	40495.95
539.60	40605.95
539.77	40144.87
539.94	41200.45
540.11	40978.10
540.28	41078.74
540.44	40975.76
540.61	40849.37
540.78	40615.32
540.95	41251.94
541.12	41256.62
541.29	41289.39
541.46	41095.13
541.62	41497.70
541.79	41530.47
541.96	40940.65
542.13	41497.70
542.30	41268.33
542.47	41724.73
542.63	42122.62
542.80	41970.49
542.97	42293.48
543.14	42178.79
543.31	42316.89
543.48	42050.06
543.64	41914.31
543.81	42356.67
543.98	42490.09
544.15	42408.17
544.32	42445.62
544.48	42754.57
544.65	42604.77
544.82	42630.52
544.99	42059.43
545.16	42429.23
545.32	42796.70
545.49	43349.06
545.66	43962.28
545.83	43613.54
546.00	43959.94
546.16	43253.10
546.33	42747.54
546.50	42850.53
546.67	43117.35
546.83	42148.37
547.00	42487.74
547.17	43079.90
547.34	42738.18
547.50	43295.23
547.67	43051.81
547.84	43072.88
548.00	43150.12
548.17	43475.45
548.34	43660.35
548.51	43236.72
548.67	43480.13
548.84	43302.25
549.01	43164.16
549.18	43295.23
549.34	42920.74
549.51	43407.58
549.68	43548.01
549.84	43606.52
550.01	43456.73
550.18	43433.32
550.34	43545.67
550.51	43702.48
550.68	43531.62
550.84	43470.77
551.01	43772.70
551.18	43578.43
551.34	43536.30
551.51	43711.84
551.68	43634.61
551.84	43819.51
552.01	43676.74
552.18	43819.51
552.34	43782.06
552.51	44142.50
552.68	43540.99
552.84	44161.23
553.01	43538.65
553.18	44170.59
553.34	44147.18
553.51	43835.89
553.67	44222.08
553.84	44245.49
554.01	44435.07
554.17	43945.90
554.34	44442.09
554.51	43796.10
554.67	44140.16
554.84	44399.96
555.00	44355.49
555.17	44409.32
555.33	44261.87
555.50	44327.41
555.67	44336.77
555.83	44446.77
556.00	44261.87
556.16	44549.76
556.33	44238.47
556.50	44175.27
556.66	44545.08
556.83	44898.50
556.99	45029.57
557.16	44896.16
557.32	44938.29
557.49	44612.95
557.65	44601.25
557.82	44706.57
557.98	44432.73
558.15	45013.18
558.32	45418.10
558.48	44662.10
558.65	45020.20
558.81	44605.93
558.98	45062.33
559.14	45008.50
559.31	44573.16
559.47	44879.77
559.64	45088.08
559.80	45148.93
559.97	45301.07
560.13	44900.84
560.30	45315.11
560.46	44837.64
560.63	45277.66
560.79	45560.87
560.96	44999.14
561.12	45284.68
561.29	44774.45
561.45	45359.58
561.61	45354.90
561.78	45483.63
561.94	45614.70
562.11	45705.98
562.27	45081.06
562.44	45488.31
562.60	45588.95
562.77	45298.73
562.93	45509.38
563.10	45972.80
563.26	45511.72
563.42	45886.20
563.59	45595.98
563.75	45656.83
563.92	45783.22
564.08	45717.68
564.24	45869.82
564.41	44905.52
564.57	45336.18
564.74	45710.66
564.90	45734.07
565.07	45507.04
565.23	45647.47
565.39	46012.59
565.56	45762.15
565.72	45518.74
565.88	45607.68
566.05	46103.87
566.21	45708.32
566.38	45968.12
566.54	45780.88
566.70	46073.45
566.87	45942.38
567.03	45504.70
567.19	46539.21
567.36	46129.62
567.52	45771.52
567.68	45830.03
567.85	45827.69
568.01	45666.19
568.17	45801.94
568.34	45778.54
568.50	45656.83
568.66	45727.05
568.83	46101.53
568.99	46396.44
569.15	46457.29
569.32	45808.96
569.48	45837.05
569.64	46127.28
569.81	45844.07
569.97	45895.56
570.13	46398.78
570.30	46045.36
570.46	46490.06
570.62	46045.36
570.78	46157.70
570.95	45808.96
571.11	46005.57
571.27	45853.44
571.43	45827.69
571.60	46192.81
571.76	46101.53
571.92	46431.55
572.09	45893.22
572.25	46277.07
572.41	45851.09
572.57	46183.45
572.74	46499.42
572.90	45563.21
573.06	46202.18
573.22	45958.76
573.38	46188.13
573.55	46115.58
573.71	46939.44
573.87	46494.74
574.03	46281.75
574.20	46417.50
574.36	46190.47
574.52	45930.67
574.68	45958.76
574.84	46614.11
575.01	46391.76
575.17	46370.69
575.33	46174.09
575.49	46480.70
575.65	46817.74
575.82	46497.08
575.98	46361.33
576.14	46478.36
576.30	45958.76
576.46	46438.57
576.62	46248.99
576.79	46230.26
576.95	46492.40
577.11	46707.73
577.27	46749.86
577.43	46815.40
577.59	46323.88
577.75	46679.64
577.92	46124.94
578.08	46068.76
578.24	46319.20
578.40	46267.71
578.56	46562.62
578.72	46850.50
578.88	46981.57
579.04	47182.86
579.21	46557.94
579.37	46520.49
579.53	46569.64
579.69	46562.62
579.85	46389.42
580.01	46321.54
580.17	46693.69
580.33	46534.53
580.49	46461.97
580.65	47054.13
580.82	46672.62
580.98	46866.89
581.14	46293.46
581.30	46674.96
581.46	46454.95
581.62	46267.71
581.78	46127.28
581.94	46342.61
582.10	46801.35
582.26	46923.06
582.42	46590.70
582.58	47098.60
582.74	47009.66
582.90	46934.76
583.06	47047.11
583.22	46541.55
583.38	46663.26
583.54	46728.80
583.70	46040.68
583.86	46340.27
584.02	46864.55
584.18	46576.66
584.34	46667.94
584.50	46714.75
584.66	46248.99
584.82	46995.62
584.98	46335.59
585.14	46548.57
585.30	46382.40
585.46	47173.50
585.62	46469.00
585.78	46719.43
585.94	46129.62
586.10	46955.83
586.26	46623.47
586.42	46857.52
586.58	46925.40
586.74	46946.47
586.90	46768.58
587.06	46394.10
587.22	46656.24
587.38	46541.55
587.54	47154.77
587.70	47044.77
587.86	47002.64
588.02	47327.97
588.18	47004.98
588.34	47131.37
588.49	46988.60
588.65	46801.35
588.81	46831.78
588.97	47037.75
589.13	46841.14
589.29	47016.68
589.45	46911.36
589.61	46937.10
589.77	47337.33
589.93	47276.48
590.08	46681.98
590.24	47379.46
590.40	46948.81
590.56	47098.60
590.72	47229.67
590.88	47150.09
