SpectraSuite Data File
++++++++++++++++++++++++++++++++++++
Date: Fri Oct 04 11:40:03 GMT-05:00 2013
User: price-jones
Dark Spectrum Present: No
Reference Spectrum Present: No
Number of Sampled Component Spectra: 1
Spectrometers: USB2+H05261
Integration Time (usec): 100000 (USB2+H05261)
Spectra Averaged: 1 (USB2+H05261)
Boxcar Smoothing: 0 (USB2+H05261)
Correct for Electrical Dark: No (USB2+H05261)
Strobe/Lamp Enabled: No (USB2+H05261)
Correct for Detector Non-linearity: No (USB2+H05261)
Correct for Stray Light: No (USB2+H05261)
Number of Pixels in Processed Spectrum: 2048
>>>>>Begin Processed Spectral Data<<<<<
365.73	91.28
365.92	91.28
366.12	91.28
366.32	28.09
366.52	0.00
366.72	0.00
366.91	0.00
367.11	0.00
367.31	0.00
367.51	0.00
367.70	0.00
367.90	0.00
368.10	0.00
368.30	0.00
368.49	0.00
368.69	0.00
368.89	0.00
369.09	0.00
369.28	58.51
369.48	0.00
369.68	35.11
369.87	0.00
370.07	14.04
370.27	28.09
370.47	58.51
370.66	0.00
370.86	67.88
371.06	63.19
371.25	119.37
371.45	156.82
371.65	63.19
371.84	159.16
372.04	46.81
372.24	142.77
372.44	128.73
372.63	77.24
372.83	131.07
373.03	175.54
373.22	79.58
373.42	198.95
373.62	145.11
373.81	138.09
374.01	177.88
374.21	217.67
374.40	79.58
374.60	154.48
374.79	147.45
374.99	110.01
375.19	100.64
375.38	168.52
375.58	147.45
375.78	140.43
375.97	58.51
376.17	217.67
376.37	166.18
376.56	170.86
376.76	140.43
376.95	128.73
377.15	128.73
377.35	60.85
377.54	147.45
377.74	147.45
377.93	152.13
378.13	110.01
378.33	201.29
378.52	163.84
378.72	180.22
378.91	142.77
379.11	126.39
379.31	175.54
379.50	149.79
379.70	107.66
379.89	126.39
380.09	177.88
380.28	194.26
380.48	133.41
380.68	98.30
380.87	93.62
381.07	114.69
381.26	135.75
381.46	102.98
381.65	138.09
381.85	152.13
382.04	149.79
382.24	105.32
382.43	182.56
382.63	44.47
382.83	210.65
383.02	168.52
383.22	231.71
383.41	217.67
383.61	168.52
383.80	138.09
384.00	189.58
384.19	67.88
384.39	166.18
384.58	126.39
384.78	170.86
384.97	149.79
385.17	184.90
385.36	119.37
385.56	117.03
385.75	175.54
385.95	128.73
386.14	161.50
386.34	119.37
386.53	112.35
386.72	208.31
386.92	191.92
387.11	117.03
387.31	203.63
387.50	98.30
387.70	86.60
387.89	149.79
388.09	128.73
388.28	161.50
388.48	121.71
388.67	154.48
388.86	105.32
389.06	243.42
389.25	166.18
389.45	112.35
389.64	161.50
389.84	161.50
390.03	159.16
390.22	203.63
390.42	124.05
390.61	102.98
390.81	198.95
391.00	105.32
391.19	119.37
391.39	145.11
391.58	147.45
391.78	194.26
391.97	154.48
392.16	156.82
392.36	189.58
392.55	212.99
392.75	119.37
392.94	182.56
393.13	133.41
393.33	173.20
393.52	145.11
393.71	168.52
393.91	124.05
394.10	159.16
394.29	205.97
394.49	126.39
394.68	248.10
394.88	147.45
395.07	208.31
395.26	182.56
395.46	231.71
395.65	215.33
395.84	170.86
396.04	276.18
396.23	224.69
396.42	177.88
396.62	177.88
396.81	184.90
397.00	227.03
397.19	184.90
397.39	138.09
397.58	205.97
397.77	156.82
397.97	210.65
398.16	191.92
398.35	215.33
398.55	252.78
398.74	224.69
398.93	243.42
399.12	222.35
399.32	187.24
399.51	194.26
399.70	217.67
399.90	227.03
400.09	196.60
400.28	266.82
400.47	236.39
400.67	212.99
400.86	243.42
401.05	231.71
401.24	177.88
401.44	168.52
401.63	224.69
401.82	276.18
402.01	262.14
402.21	189.58
402.40	280.86
402.59	184.90
402.78	257.46
402.97	262.14
403.17	262.14
403.36	301.93
403.55	299.59
403.74	339.38
403.93	290.23
404.13	388.53
404.32	341.72
404.51	372.15
404.70	369.80
404.89	315.97
405.09	292.57
405.28	339.38
405.47	308.95
405.66	280.86
405.85	330.02
406.05	287.89
406.24	325.33
406.43	306.61
406.62	278.52
406.81	353.42
407.00	327.68
407.20	297.25
407.39	273.84
407.58	330.02
407.77	388.53
407.96	325.33
408.15	327.68
408.34	369.80
408.54	339.38
408.73	306.61
408.92	365.12
409.11	322.99
409.30	454.06
409.49	320.65
409.68	339.38
409.87	344.06
410.07	416.62
410.26	334.70
410.45	360.44
410.64	353.42
410.83	322.99
411.02	437.68
411.21	409.59
411.40	461.09
411.59	440.02
411.78	351.08
411.98	402.57
412.17	402.57
412.36	407.25
412.55	381.51
412.74	383.85
412.93	484.49
413.12	301.93
413.31	493.85
413.50	423.64
413.69	479.81
413.88	491.51
414.07	526.62
414.26	428.32
414.45	442.36
414.64	496.19
414.83	484.49
415.02	456.40
415.22	496.19
415.41	627.26
415.60	461.09
415.79	540.66
415.98	505.56
416.17	582.79
416.36	547.69
416.55	575.77
416.74	533.64
416.93	526.62
417.12	561.73
417.31	517.26
417.50	484.49
417.69	571.09
417.88	498.53
418.07	507.90
418.26	571.09
418.45	507.90
418.64	592.16
418.83	629.60
419.02	603.86
419.21	627.26
419.39	557.05
419.58	613.22
419.77	545.34
419.96	589.82
420.15	662.37
420.34	624.92
420.53	594.50
420.72	669.39
420.91	634.29
421.10	613.22
421.29	650.67
421.48	557.05
421.67	615.56
421.86	641.31
422.05	634.29
422.24	636.63
422.43	631.94
422.61	645.99
422.80	615.56
422.99	720.88
423.18	620.24
423.37	697.48
423.56	645.99
423.75	617.90
423.94	664.71
424.13	603.86
424.32	601.52
424.50	650.67
424.69	685.78
424.88	760.67
425.07	683.44
425.26	617.90
425.45	648.33
425.64	725.57
425.83	617.90
426.01	737.27
426.20	664.71
426.39	716.20
426.58	657.69
426.77	650.67
426.96	655.35
427.15	734.93
427.33	620.24
427.52	678.76
427.71	706.84
427.90	744.29
428.09	737.27
428.28	631.94
428.46	730.25
428.65	772.38
428.84	791.10
429.03	723.23
429.22	645.99
429.40	706.84
429.59	734.93
429.78	777.06
429.97	676.41
430.16	692.80
430.34	741.95
430.53	744.29
430.72	704.50
430.91	723.23
431.10	770.04
431.28	711.52
431.47	781.74
431.66	793.44
431.85	669.39
432.03	791.10
432.22	901.11
432.41	800.46
432.60	833.23
432.79	786.42
432.97	737.27
433.16	744.29
433.35	837.91
433.54	849.61
433.72	875.36
433.91	777.06
434.10	765.36
434.28	758.33
434.47	833.23
434.66	847.27
434.85	851.96
435.03	870.68
435.22	1207.72
435.41	1535.39
435.59	1568.16
435.78	1366.87
435.97	1093.03
436.16	926.85
436.34	915.15
436.53	814.51
436.72	903.45
436.90	847.27
437.09	805.14
437.28	868.34
437.46	896.43
437.65	788.76
437.84	966.64
438.02	828.55
438.21	851.96
438.40	933.87
438.58	861.32
438.77	954.94
438.96	863.66
439.14	945.58
439.33	1029.84
439.52	849.61
439.70	990.05
439.89	990.05
440.08	910.47
440.26	978.34
440.45	931.53
440.63	1029.84
440.82	866.00
441.01	968.98
441.19	1067.28
441.38	999.41
441.57	976.00
441.75	1083.67
441.94	1013.45
442.12	954.94
442.31	987.71
442.50	954.94
442.68	954.94
442.87	968.98
443.05	1027.50
443.24	999.41
443.43	1048.56
443.61	1067.28
443.80	1046.22
443.98	1001.75
444.17	1041.54
444.35	1006.43
444.54	1095.37
444.73	1071.97
444.91	1015.79
445.10	1104.73
445.28	1011.11
445.47	1095.37
445.65	1172.61
445.84	1041.54
446.02	1053.24
446.21	1174.95
446.39	1107.07
446.58	1109.41
446.77	1008.77
446.95	1135.16
447.14	1146.86
447.32	1095.37
447.51	1139.84
447.69	1193.67
447.88	1076.65
448.06	1158.57
448.25	1153.88
448.43	1067.28
448.62	1032.18
448.80	1100.05
448.99	1086.01
449.17	1088.35
449.36	1104.73
449.54	1081.33
449.73	1142.18
449.91	1179.63
450.10	1158.57
450.28	1261.55
450.46	1252.19
450.65	1249.85
450.83	1219.42
451.02	1235.80
451.20	1177.29
451.39	1146.86
451.57	1128.14
451.76	1160.91
451.94	1221.76
452.13	1165.59
452.31	1245.16
452.49	1184.31
452.68	1142.18
452.86	1186.65
453.05	1219.42
453.23	1247.51
453.42	1165.59
453.60	1210.06
453.78	1214.74
453.97	1191.33
454.15	1135.16
454.34	1231.12
454.52	1217.08
454.70	1256.87
454.89	1249.85
455.07	1184.31
455.26	1249.85
455.44	1247.51
455.62	1226.44
455.81	1277.93
455.99	1261.55
456.17	1214.74
456.36	1320.06
456.54	1327.08
456.73	1252.19
456.91	1313.04
457.09	1320.06
457.28	1259.21
457.46	1350.49
457.64	1294.32
457.83	1411.34
458.01	1294.32
458.19	1327.08
458.38	1371.55
458.56	1334.11
458.74	1331.76
458.93	1355.17
459.11	1336.45
459.29	1301.34
459.48	1409.00
459.66	1404.32
459.84	1411.34
460.03	1362.19
460.21	1420.71
460.39	1338.79
460.57	1334.11
460.76	1406.66
460.94	1357.51
461.12	1453.47
461.31	1387.94
461.49	1488.58
461.67	1355.17
461.85	1474.54
462.04	1392.62
462.22	1830.30
462.40	1476.88
462.59	1472.20
462.77	1378.58
462.95	1490.92
463.13	1411.34
463.32	1455.81
463.50	1352.83
463.68	1462.83
463.86	1420.71
464.05	1495.60
464.23	1427.73
464.41	1544.75
464.59	1416.02
464.78	1481.56
464.96	1483.90
465.14	1444.11
465.32	1455.81
465.50	1561.14
465.69	1486.24
465.87	1533.05
466.05	1519.01
466.23	1593.90
466.41	1514.33
466.60	1469.86
466.78	1446.45
466.96	1530.71
467.14	1451.13
467.32	1554.12
467.51	1568.16
467.69	1465.18
467.87	1586.88
468.05	1549.43
468.23	1521.35
468.41	1504.96
468.60	1444.11
468.78	1617.31
468.96	1495.60
469.14	1654.76
469.32	1533.05
469.50	1563.48
469.69	1685.19
469.87	1673.48
470.05	1668.80
470.23	1638.38
470.41	1528.37
470.59	1535.39
470.77	1577.52
470.95	1675.82
471.14	1724.97
471.32	1544.75
471.50	1661.78
471.68	1640.72
471.86	1654.76
472.04	1586.88
472.22	1673.48
472.40	1633.69
472.58	1570.50
472.77	1732.00
472.95	1624.33
473.13	1734.34
473.31	1741.36
473.49	1774.13
473.67	1682.85
473.85	1682.85
474.03	1816.26
474.21	1764.76
474.39	1743.70
474.57	1799.87
474.75	1877.11
474.93	1724.97
475.12	1774.13
475.30	1811.57
475.48	1816.26
475.66	1825.62
475.84	1804.55
476.02	1813.92
476.20	1818.60
476.38	1968.39
476.56	1902.86
476.74	1853.70
476.92	1937.96
477.10	1961.37
477.28	2029.24
477.46	1893.49
477.64	1858.39
477.82	2045.63
478.00	1984.77
478.18	2005.84
478.36	2033.93
478.54	2038.61
478.72	2083.08
478.90	2073.71
479.08	2139.25
479.26	2052.65
479.44	2118.18
479.62	2029.24
479.80	1996.48
479.98	2202.44
480.16	2120.53
480.34	2143.93
480.52	2054.99
480.70	2270.32
480.88	2225.85
481.06	2303.09
481.24	2232.87
481.41	2176.70
481.59	2354.58
481.77	2260.96
481.95	2251.60
482.13	2277.34
482.31	2326.49
482.49	2328.83
482.67	2328.83
482.85	2375.64
483.03	2464.58
483.21	2483.31
483.39	2497.35
483.57	2478.63
483.74	2434.16
483.92	2487.99
484.10	2565.23
484.28	2499.69
484.46	2544.16
484.64	2630.76
484.82	2497.35
485.00	2574.59
485.18	2630.76
485.35	2647.15
485.53	2574.59
485.71	2724.38
485.89	2745.45
486.07	2558.21
486.25	2813.32
486.43	2775.88
486.61	2862.48
486.78	2895.24
486.96	2754.81
487.14	2918.65
487.32	2899.92
487.50	2998.23
487.68	2981.84
487.85	2946.73
488.03	2951.42
488.21	3110.57
488.39	2881.20
488.57	3084.83
488.75	2991.20
488.92	3159.72
489.10	3054.40
489.28	3089.51
489.46	3162.06
489.64	3220.58
489.81	3190.15
489.99	3304.84
490.17	3225.26
490.35	3384.41
490.53	3178.45
490.70	3241.64
490.88	3356.33
491.06	3253.34
491.24	3471.01
491.41	3515.48
491.59	3442.93
491.77	3258.03
491.95	3452.29
492.13	3358.67
492.30	3361.01
492.48	3417.18
492.66	3382.07
492.84	3496.76
493.01	3426.54
493.19	3517.83
493.37	3648.90
493.54	3531.87
493.72	3740.18
493.90	3468.67
494.08	3709.75
494.25	3742.52
494.43	3772.94
494.61	3606.77
494.79	3693.37
494.96	3562.30
495.14	3627.83
495.32	3843.16
495.49	3747.20
495.67	3712.09
495.85	3695.71
496.02	3861.88
496.20	3843.16
496.38	3824.44
496.55	3857.20
496.73	3911.04
496.91	3868.91
497.09	3918.06
497.26	3845.50
497.44	4100.62
497.62	3840.82
497.79	4049.13
497.97	4009.34
498.14	4056.15
498.32	4060.83
498.50	3995.29
498.67	4098.28
498.85	4105.30
499.03	4039.76
499.20	4168.49
499.38	4131.05
499.56	4198.92
499.73	4119.34
499.91	4203.60
500.08	4154.45
500.26	4138.07
500.44	4222.33
500.61	4269.14
500.79	4067.85
500.97	4159.13
501.14	4315.95
501.32	4219.99
501.49	4344.03
501.67	4273.82
501.84	4311.27
502.02	4252.75
502.20	4505.53
502.37	4374.46
502.55	4285.52
502.72	4327.65
502.90	4332.33
503.07	4374.46
503.25	4440.00
503.43	4404.89
503.60	4348.72
503.78	4498.51
503.95	4592.13
504.13	4372.12
504.30	4627.24
504.48	4631.92
504.65	4601.49
504.83	4479.79
505.01	4510.21
505.18	4505.53
505.36	4578.09
505.53	4470.42
505.71	4608.51
505.88	4634.26
506.06	4582.77
506.23	4748.95
506.41	4610.86
506.58	4699.80
506.76	4718.52
506.93	4608.51
507.11	4718.52
507.28	4461.06
507.46	4690.43
507.63	4912.78
507.81	4781.71
507.98	4863.63
508.16	4784.06
508.33	4727.88
508.50	4727.88
508.68	4840.23
508.85	4788.74
509.03	4746.61
509.20	4861.29
509.38	4936.19
509.55	4870.65
509.73	4901.08
509.90	4964.28
510.08	4997.04
510.25	4957.25
510.42	4884.70
510.60	4959.60
510.77	5071.94
510.95	4950.23
511.12	4957.25
511.30	4992.36
511.47	5060.24
511.64	5128.11
511.82	5111.73
511.99	5006.41
512.17	5071.94
512.34	5060.24
512.51	5067.26
512.69	5097.69
512.86	5320.04
513.04	5144.50
513.21	5151.52
513.38	5296.63
513.56	5149.18
513.73	5207.69
513.90	5214.71
514.08	5125.77
514.25	5128.11
514.43	5170.24
514.60	5298.97
514.77	5277.91
514.95	5465.15
515.12	5172.58
515.29	5406.64
515.47	5406.64
515.64	5390.25
515.81	5322.38
515.99	5474.51
516.16	5488.56
516.33	5261.52
516.51	5298.97
516.68	5462.81
516.85	5362.17
517.03	5434.72
517.20	5626.65
517.37	5563.45
517.54	5413.66
517.72	5561.11
517.89	5507.28
518.06	5394.93
518.24	5469.83
518.41	5481.53
518.58	5650.05
518.75	5657.07
518.93	5619.63
519.10	5645.37
519.27	5607.92
519.45	5680.48
519.62	5612.60
519.79	5526.00
519.96	5645.37
520.14	5731.97
520.31	5729.63
520.48	5881.77
520.65	5858.36
520.83	5797.51
521.00	5671.12
521.17	5643.03
521.34	5636.01
521.52	5729.63
521.69	5696.86
521.86	5792.83
522.03	5769.42
522.20	5825.59
522.38	5834.96
522.55	5804.53
522.72	5734.31
522.89	5699.20
523.07	5823.25
523.24	5760.06
523.41	5762.40
523.58	5708.57
523.75	5870.06
523.92	5856.02
524.10	5834.96
524.27	6064.33
524.44	5797.51
524.61	6076.03
524.78	5987.09
524.96	6174.33
525.13	5956.66
525.30	5996.45
525.47	5827.93
525.64	6038.58
525.81	6054.97
525.98	6017.52
526.16	6239.87
526.33	6197.74
526.50	6136.88
526.67	6101.78
526.84	5998.79
527.01	6085.39
527.18	6171.99
527.36	6054.97
527.53	6115.82
527.70	6244.55
527.87	6129.86
528.04	6305.40
528.21	6083.05
528.38	6256.25
528.55	6211.78
528.72	6204.76
528.89	6232.85
529.07	6258.59
529.24	6188.38
529.41	6232.85
529.58	6164.97
529.75	6094.76
529.92	6328.81
530.09	6373.28
530.26	6293.70
530.43	6263.27
530.60	6298.38
530.77	6202.42
530.94	6333.49
531.11	6445.84
531.28	6246.89
531.46	6228.17
531.63	6417.75
531.80	6282.00
531.97	6445.84
532.14	6434.13
532.31	6277.32
532.48	6211.78
532.65	6539.46
532.82	6532.44
532.99	6637.76
533.16	6473.92
533.33	6387.32
533.50	6626.06
533.67	6532.44
533.84	6473.92
534.01	6424.77
534.18	6420.09
534.35	6469.24
534.52	6387.32
534.69	6600.31
534.86	6506.69
535.03	6408.39
535.20	6548.82
535.37	6768.83
535.54	6548.82
535.71	6513.71
535.88	6642.44
536.05	6548.82
536.22	6614.35
536.38	6773.51
536.55	6616.69
536.72	6583.93
536.89	6654.14
537.06	6623.72
537.23	6612.01
537.40	6813.30
537.57	6782.87
537.74	6764.15
537.91	6766.49
538.08	6771.17
538.25	6759.47
538.42	6719.68
538.59	6979.48
538.75	6717.34
538.92	6794.58
539.09	7023.95
539.26	6841.39
539.43	6876.49
539.60	6899.90
539.77	6792.23
539.94	7215.87
540.11	7094.16
540.28	7101.19
540.44	7082.46
540.61	7075.44
540.78	7108.21
540.95	7386.73
541.12	7496.74
541.29	7531.84
541.46	7393.75
541.62	7583.34
541.79	7524.82
541.96	7506.10
542.13	7494.40
542.30	7623.12
542.47	7440.56
542.63	7618.44
542.80	7524.82
542.97	7557.59
543.14	7480.35
543.31	7492.05
543.48	7293.11
543.64	7555.25
543.81	7445.24
543.98	7691.00
544.15	7527.16
544.32	7454.61
544.48	7672.28
544.65	7426.52
544.82	7569.29
544.99	7552.91
545.16	7513.12
545.32	7648.87
545.49	8149.75
545.66	8781.69
545.83	9282.56
546.00	8833.18
546.16	8102.93
546.33	7859.52
546.50	7499.08
546.67	7520.14
546.83	7297.79
547.00	7428.86
547.17	7391.41
547.34	7307.15
547.50	7482.69
547.67	7344.60
547.84	7227.57
548.00	7302.47
548.17	7375.03
548.34	7344.60
548.51	7470.99
548.67	7377.37
548.84	7559.93
549.01	7454.61
549.18	7524.82
549.34	7438.22
549.51	7410.14
549.68	7431.20
549.84	7157.36
550.01	7229.91
550.18	7297.79
550.34	7260.34
550.51	7346.94
550.68	7386.73
550.84	7311.83
551.01	7466.31
551.18	7159.70
551.34	7082.46
551.51	7246.30
551.68	7272.04
551.84	7279.07
552.01	7323.54
552.18	7269.70
552.34	7269.70
552.51	7276.73
552.68	7208.85
552.84	7171.40
553.01	7295.45
553.18	7337.58
553.34	7265.02
553.51	7255.66
553.67	7393.75
553.84	7321.20
554.01	7180.76
554.17	7283.75
554.34	7204.17
554.51	7187.79
554.67	7241.62
554.84	7269.70
555.00	7349.28
555.17	7269.70
555.33	7204.17
555.50	7335.24
555.67	7335.24
555.83	7119.91
556.00	7258.00
556.16	7508.44
556.33	7470.99
556.50	7267.36
556.66	7403.11
556.83	7279.07
556.99	7339.92
557.16	7396.09
557.32	7379.71
557.49	7293.11
557.65	7302.47
557.82	7311.83
557.98	7389.07
558.15	7222.89
558.32	7332.90
558.48	7302.47
558.65	7342.26
558.81	7250.98
558.98	7150.34
559.14	7431.20
559.31	7346.94
559.47	7265.02
559.64	7328.22
559.80	7508.44
559.97	7162.04
560.13	7328.22
560.30	7222.89
560.46	7171.40
560.63	7243.96
560.79	7375.03
560.96	7269.70
561.12	7410.14
561.29	7473.33
561.45	7358.64
561.61	7307.15
561.78	7480.35
561.94	7541.21
562.11	7265.02
562.27	7335.24
562.44	7236.94
562.60	7253.32
562.77	7379.71
562.93	7349.28
563.10	7386.73
563.26	7363.33
563.42	7485.03
563.59	7194.81
563.75	7325.88
563.92	7412.48
564.08	7419.50
564.24	7365.67
564.41	7126.93
564.57	7321.20
564.74	7454.61
564.90	7515.46
565.07	7391.41
565.23	7503.76
565.39	7344.60
565.56	7346.94
565.72	7456.95
565.88	7604.40
566.05	7323.54
566.21	7482.69
566.38	7424.18
566.54	7386.73
566.70	7398.43
566.87	7382.05
567.03	7304.81
567.19	7545.89
567.36	7377.37
567.52	7337.58
567.68	7379.71
567.85	7386.73
568.01	7456.95
568.17	7466.31
568.34	7433.54
568.50	7384.39
568.66	7552.91
568.83	7576.31
568.99	7426.52
569.15	7557.59
569.32	7267.36
569.48	7368.01
569.64	7241.62
569.81	7400.77
569.97	7262.68
570.13	7510.78
570.30	7414.82
570.46	7119.91
570.62	7442.90
570.78	7449.93
570.95	7258.00
571.11	7353.96
571.27	7513.12
571.43	7466.31
571.60	7339.92
571.76	7403.11
571.92	7424.18
572.09	7353.96
572.25	7492.05
572.41	7550.57
572.57	7489.71
572.74	7403.11
572.90	7503.76
573.06	7431.20
573.22	7417.16
573.38	7550.57
573.55	7478.01
573.71	7520.14
573.87	7548.23
574.03	7400.77
574.20	7358.64
574.36	7485.03
574.52	7426.52
574.68	7311.83
574.84	7353.96
575.01	7363.33
575.17	7438.22
575.33	7480.35
575.49	7351.62
575.65	7286.09
575.82	7644.19
575.98	7265.02
576.14	7566.95
576.30	7468.65
576.46	7583.34
576.62	7889.95
576.79	7756.54
576.95	7623.12
577.11	7569.29
577.27	7475.67
577.43	7515.46
577.59	7513.12
577.75	7421.84
577.92	7445.24
578.08	7405.46
578.24	7398.43
578.40	7555.25
578.56	7562.27
578.72	7758.88
578.88	7749.51
579.04	7845.48
579.21	7819.73
579.37	7599.72
579.53	7606.74
579.69	7414.82
579.85	7588.02
580.01	7564.61
580.17	7646.53
580.33	7536.52
580.49	7634.83
580.65	7543.55
580.82	7522.48
580.98	7421.84
581.14	7653.55
581.30	7562.27
581.46	7522.48
581.62	7585.68
581.78	7541.21
581.94	7716.75
582.10	7583.34
582.26	7599.72
582.42	7669.94
582.58	7618.44
582.74	7557.59
582.90	7702.70
583.06	7478.01
583.22	7641.85
583.38	7510.78
583.54	7583.34
583.70	7613.76
583.86	7531.84
584.02	7529.50
584.18	7653.55
584.34	7595.04
584.50	7606.74
584.66	7480.35
584.82	7588.02
584.98	7686.32
585.14	7461.63
585.30	7583.34
585.46	7349.28
585.62	7421.84
585.78	7588.02
585.94	7442.90
586.10	7679.30
586.26	7559.93
586.42	7604.40
586.58	7538.87
586.74	7653.55
586.90	7627.81
587.06	7719.09
587.22	7714.41
587.38	7751.85
587.54	7772.92
587.70	7793.98
587.86	7723.77
588.02	7676.96
588.18	7606.74
588.34	7646.53
588.49	7510.78
588.65	7597.38
588.81	7463.97
588.97	7506.10
589.13	7538.87
589.29	7543.55
589.45	7569.29
589.61	7679.30
589.77	7461.63
589.93	7691.00
590.08	7461.63
590.24	7588.02
590.40	7396.09
590.56	7625.47
590.72	7611.42
590.88	7660.57
591.04	7421.84
591.20	7733.13
591.35	7737.81
591.51	7606.74
591.67	7585.68
591.83	7604.40
591.99	7714.41
592.15	7641.85
592.31	7744.83
592.46	7639.51
592.62	7712.07
592.78	7864.20
592.94	7583.34
593.10	7812.71
593.26	7545.89
593.41	7777.60
593.57	7756.54
593.73	7564.61
593.89	7653.55
594.05	7531.84
594.20	7590.36
594.36	7520.14
594.52	7482.69
594.68	7592.70
594.84	7531.84
594.99	7679.30
595.15	7496.74
595.31	7672.28
595.47	7576.31
595.62	7595.04
595.78	7623.12
595.94	7328.22
596.10	7683.98
596.25	7688.66
596.41	7679.30
596.57	7604.40
596.73	7573.97
596.88	7602.06
597.04	7398.43
597.20	7475.67
597.36	7569.29
597.51	7538.87
597.67	7581.00
597.83	7581.00
597.99	7611.42
598.14	7590.36
598.30	7592.70
598.46	7391.41
598.61	7522.48
598.77	7499.08
598.93	7709.72
599.09	7456.95
599.24	7548.23
599.40	7634.83
599.56	7527.16
599.71	7616.10
599.87	7683.98
600.03	7536.52
600.18	7566.95
600.34	7639.51
600.50	7485.03
