SpectraSuite Data File
++++++++++++++++++++++++++++++++++++
Date: Fri Oct 04 11:39:42 GMT-05:00 2013
User: price-jones
Dark Spectrum Present: No
Reference Spectrum Present: No
Number of Sampled Component Spectra: 1
Spectrometers: USB2+H05261
Integration Time (usec): 100000 (USB2+H05261)
Spectra Averaged: 1 (USB2+H05261)
Boxcar Smoothing: 0 (USB2+H05261)
Correct for Electrical Dark: No (USB2+H05261)
Strobe/Lamp Enabled: No (USB2+H05261)
Correct for Detector Non-linearity: No (USB2+H05261)
Correct for Stray Light: No (USB2+H05261)
Number of Pixels in Processed Spectrum: 2048
>>>>>Begin Processed Spectral Data<<<<<
365.73	88.94
365.92	88.94
366.12	88.94
366.32	0.00
366.52	0.00
366.72	0.00
366.91	0.00
367.11	46.81
367.31	0.00
367.51	0.00
367.70	11.70
367.90	0.00
368.10	0.00
368.30	0.00
368.49	0.00
368.69	11.70
368.89	14.04
369.09	0.00
369.28	0.00
369.48	0.00
369.68	21.06
369.87	60.85
370.07	35.11
370.27	23.41
370.47	79.58
370.66	168.52
370.86	182.56
371.06	252.78
371.25	229.37
371.45	229.37
371.65	294.91
371.84	248.10
372.04	166.18
372.24	280.86
372.44	276.18
372.63	311.29
372.83	283.20
373.03	257.46
373.22	180.22
373.42	269.16
373.62	294.91
373.81	292.57
374.01	397.89
374.21	374.49
374.40	376.83
374.60	425.98
374.79	353.42
374.99	346.40
375.19	365.12
375.38	304.27
375.58	315.97
375.78	358.10
375.97	341.72
376.17	435.34
376.37	337.04
376.56	402.57
376.76	386.19
376.95	322.99
377.15	346.40
377.35	311.29
377.54	355.76
377.74	376.83
377.93	365.12
378.13	369.80
378.33	407.25
378.52	348.74
378.72	409.59
378.91	379.17
379.11	332.36
379.31	418.96
379.50	402.57
379.70	416.62
379.89	393.21
380.09	348.74
380.28	358.10
380.48	437.68
380.68	369.80
380.87	325.33
381.07	442.36
381.26	416.62
381.46	381.51
381.65	418.96
381.85	444.70
382.04	358.10
382.24	416.62
382.43	404.91
382.63	395.55
382.83	402.57
383.02	433.00
383.22	449.38
383.41	397.89
383.61	390.87
383.80	458.74
384.00	461.09
384.19	437.68
384.39	479.81
384.58	489.17
384.78	479.81
384.97	512.58
385.17	421.30
385.36	428.32
385.56	491.51
385.75	442.36
385.95	393.21
386.14	526.62
386.34	496.19
386.53	535.98
386.72	428.32
386.92	491.51
387.11	449.38
387.31	538.32
387.50	491.51
387.70	454.06
387.89	503.22
388.09	456.40
388.28	510.24
388.48	491.51
388.67	589.82
388.86	528.96
389.06	545.34
389.25	491.51
389.45	568.75
389.64	592.16
389.84	617.90
390.03	514.92
390.22	641.31
390.42	533.64
390.61	599.18
390.81	550.03
391.00	552.37
391.19	575.77
391.39	641.31
391.58	601.52
391.78	606.20
391.97	603.86
392.16	587.47
392.36	620.24
392.55	631.94
392.75	580.45
392.94	589.82
393.13	667.05
393.33	603.86
393.52	676.41
393.71	837.91
393.91	667.05
394.10	566.41
394.29	681.10
394.49	582.79
394.68	697.48
394.88	746.63
395.07	667.05
395.26	706.84
395.46	697.48
395.65	765.36
395.84	748.97
396.04	774.72
396.23	760.67
396.42	711.52
396.62	770.04
396.81	725.57
397.00	702.16
397.19	706.84
397.39	727.91
397.58	847.27
397.77	814.51
397.97	842.59
398.16	777.06
398.35	870.68
398.55	887.06
398.74	875.36
398.93	908.13
399.12	851.96
399.32	800.46
399.51	882.38
399.70	929.19
399.90	812.17
400.09	964.30
400.28	945.58
400.47	870.68
400.67	987.71
400.86	1011.11
401.05	866.00
401.24	873.02
401.44	973.66
401.63	997.07
401.82	1001.75
402.01	1008.77
402.21	1046.22
402.40	1057.92
402.59	1015.79
402.78	1006.43
402.97	1118.78
403.17	1139.84
403.36	1100.05
403.55	1104.73
403.74	1160.91
403.93	1130.48
404.13	1214.74
404.32	1146.86
404.51	1207.72
404.70	1256.87
404.89	1093.03
405.09	1177.29
405.28	1273.25
405.47	1268.57
405.66	1247.51
405.85	1261.55
406.05	1245.16
406.24	1263.89
406.43	1446.45
406.62	1315.38
406.81	1404.32
407.00	1334.11
407.20	1362.19
407.39	1287.29
407.58	1385.60
407.77	1380.92
407.96	1476.88
408.15	1476.88
408.34	1483.90
408.54	1430.07
408.73	1542.41
408.92	1516.67
409.11	1591.56
409.30	1537.73
409.49	1603.27
409.68	1593.90
409.87	1584.54
410.07	1636.03
410.26	1689.87
410.45	1591.56
410.64	1668.80
410.83	1743.70
411.02	1645.40
411.21	1767.10
411.40	1753.06
411.59	1818.60
411.78	1914.56
411.98	1832.64
412.17	1877.11
412.36	1907.54
412.55	1933.28
412.74	1966.05
412.93	1930.94
413.12	1905.20
413.31	2069.03
413.50	2054.99
413.69	2118.18
413.88	2214.15
414.07	2008.18
414.26	2134.57
414.45	2090.10
414.64	2143.93
414.83	2209.47
415.02	2305.43
415.22	2312.45
415.41	2349.90
415.60	2260.96
415.79	2431.82
415.98	2326.49
416.17	2354.58
416.36	2373.30
416.55	2382.67
416.74	2523.10
416.93	2532.46
417.12	2565.23
417.31	2466.92
417.50	2539.48
417.69	2691.62
417.88	2523.10
418.07	2530.12
418.26	2555.86
418.45	2647.15
418.64	2750.13
418.83	2689.28
419.02	2764.17
419.21	2806.30
419.39	2836.73
419.58	2684.59
419.77	2778.22
419.96	2885.88
420.15	2918.65
420.34	2998.23
420.53	2885.88
420.72	2963.12
420.91	2846.09
421.10	3007.59
421.29	3117.59
421.48	2895.24
421.67	3066.10
421.86	2991.20
422.05	3014.61
422.24	2991.20
422.43	2928.01
422.61	3052.06
422.80	3164.40
422.99	3030.99
423.18	3178.45
423.37	3138.66
423.56	3087.17
423.75	3038.02
423.94	3021.63
424.13	2967.80
424.32	3054.40
424.50	3272.07
424.69	3239.30
424.88	3204.19
425.07	3197.17
425.26	3073.12
425.45	3178.45
425.64	3152.70
425.83	3283.77
426.01	3279.09
426.20	3166.74
426.39	3234.62
426.58	3222.92
426.77	3246.32
426.96	3311.86
427.15	3206.53
427.33	3272.07
427.52	3328.24
427.71	3351.65
427.90	3267.39
428.09	3475.70
428.28	3391.44
428.46	3379.73
428.65	3461.65
428.84	3588.04
429.03	3559.95
429.22	3506.12
429.40	3426.54
429.59	3496.76
429.78	3424.20
429.97	3311.86
430.16	3412.50
430.34	3686.34
430.53	3669.96
430.72	3684.00
430.91	3576.34
431.10	3538.89
431.28	3634.85
431.47	3714.43
431.66	3843.16
431.85	3662.94
432.03	3971.89
432.22	3927.42
432.41	3857.20
432.60	3815.07
432.79	3798.69
432.97	3857.20
433.16	3971.89
433.35	3822.09
433.54	3939.12
433.72	3911.04
433.91	4021.04
434.10	4049.13
434.28	3866.56
434.47	4039.76
434.66	3974.23
434.85	3946.14
435.03	4308.93
435.22	4271.48
435.41	4683.41
435.59	4468.08
435.78	4594.47
435.97	4271.48
436.16	4252.75
436.34	4128.70
436.53	4322.97
436.72	4252.75
436.90	4128.70
437.09	4353.40
437.28	4257.43
437.46	4248.07
437.65	4304.25
437.84	4320.63
438.02	4339.35
438.21	4379.14
438.40	4322.97
438.58	4449.36
438.77	4402.55
438.96	4542.98
439.14	4638.94
439.33	4610.86
439.52	4650.64
439.70	4676.39
439.89	4695.11
440.08	4627.24
440.26	4884.70
440.45	4683.41
440.63	4943.21
440.82	5020.45
441.01	4856.61
441.19	5076.62
441.38	4985.34
441.57	4919.81
441.75	5004.07
441.94	5036.83
442.12	5139.82
442.31	5132.79
442.50	5039.17
442.68	5130.45
442.87	5114.07
443.05	5298.97
443.24	5369.19
443.43	5387.91
443.61	5362.17
443.80	5423.02
443.98	5315.36
444.17	5135.14
444.35	5334.08
444.54	5462.81
444.73	5357.49
444.91	5315.36
445.10	5350.46
445.28	5320.04
445.47	5385.57
445.65	5179.61
445.84	5528.35
446.02	5502.60
446.21	5139.82
446.39	5474.51
446.58	5490.90
446.77	5614.95
446.95	5411.32
447.14	5530.69
447.32	5479.19
447.51	5645.37
447.69	5549.41
447.88	5631.33
448.06	5507.28
448.25	5383.23
448.43	5572.82
448.62	5448.77
448.80	5476.85
448.99	5605.58
449.17	5645.37
449.36	5603.24
449.54	5703.89
449.73	5762.40
449.91	5771.76
450.10	5804.53
450.28	5830.27
450.46	5788.14
450.65	5921.56
450.83	5853.68
451.02	5750.70
451.20	5954.32
451.39	6033.90
451.57	5877.09
451.76	5832.62
451.94	5982.41
452.13	5959.00
452.31	5968.37
452.49	5926.24
452.68	5926.24
452.86	6031.56
453.05	6162.63
453.23	6143.91
453.42	6101.78
453.60	6076.03
453.78	6141.57
453.97	5891.13
454.15	6202.42
454.34	6183.70
454.52	6417.75
454.70	6207.10
454.89	6169.65
455.07	6335.83
455.26	6319.45
455.44	6342.85
455.62	6298.38
455.81	6373.28
455.99	6370.94
456.17	6431.79
456.36	6396.68
456.54	6553.50
456.73	6567.54
456.91	6656.48
457.09	6647.12
457.28	6700.95
457.46	6623.72
457.64	6841.39
457.83	6689.25
458.01	6569.88
458.19	6836.70
458.38	6750.10
458.56	6825.00
458.74	6834.36
458.93	6958.41
459.11	6846.07
459.29	6780.53
459.48	7007.56
459.66	6958.41
459.84	6965.43
460.03	7220.55
460.21	7091.82
460.39	7016.93
460.57	7033.31
460.76	7028.63
460.94	7110.55
461.12	7267.36
461.31	7178.42
461.49	7066.08
461.67	7054.37
461.85	7225.23
462.04	7279.07
462.22	7889.95
462.40	7386.73
462.59	7316.51
462.77	7442.90
462.95	7398.43
463.13	7232.26
463.32	7433.54
463.50	7428.86
463.68	7389.07
463.86	7581.00
464.05	7358.64
464.23	7391.41
464.41	7634.83
464.59	7534.18
464.78	7723.77
464.96	7449.93
465.14	7470.99
465.32	7641.85
465.50	7681.64
465.69	7686.32
465.87	7616.10
466.05	7672.28
466.23	7585.68
466.41	7850.16
466.60	7854.84
466.78	7695.68
466.96	7719.09
467.14	7611.42
467.32	7878.24
467.51	7896.97
467.69	7648.87
467.87	7955.48
468.05	8098.25
468.23	8028.04
468.41	8063.15
468.60	7971.86
468.78	8049.10
468.96	8035.06
469.14	8173.15
469.32	8102.93
469.50	8056.12
469.69	8187.19
469.87	8318.26
470.05	8372.10
470.23	8203.58
470.41	8299.54
470.59	8166.13
470.77	8273.79
470.95	8297.20
471.14	8608.49
471.32	8327.63
471.50	8692.75
471.68	8503.17
471.86	8547.64
472.04	8688.07
472.22	8786.37
472.40	8592.11
472.58	9128.09
472.77	8671.68
472.95	8961.91
473.13	9310.65
473.31	8744.24
473.49	8812.12
473.67	9011.06
473.85	9020.42
474.03	9132.77
474.21	9207.67
474.39	9275.54
474.57	9434.70
474.75	9329.38
474.93	9305.97
475.12	9252.14
475.30	9533.00
475.48	9451.08
475.66	9465.13
475.84	9284.91
476.02	9710.88
476.20	9680.46
476.38	9643.01
476.56	10207.08
476.74	10115.80
476.92	9846.63
477.10	9919.19
477.28	10157.92
477.46	9940.26
477.64	10356.87
477.82	10473.90
478.00	10616.67
478.18	10546.45
478.36	10672.84
478.54	10787.53
478.72	10869.45
478.90	10855.40
479.08	10857.75
479.26	10916.26
479.44	11016.90
479.62	11019.24
479.80	11272.02
479.98	11300.11
480.16	11513.10
480.34	11066.05
480.52	11524.80
480.70	11747.15
480.88	11672.25
481.06	11751.83
481.24	11693.32
481.41	12018.65
481.59	12358.03
481.77	11983.54
481.95	12477.40
482.13	12264.41
482.31	12065.46
482.49	12428.24
482.67	12290.15
482.85	12666.98
483.03	12816.77
483.21	13083.59
483.39	13071.89
483.57	12989.97
483.74	13128.06
483.92	13104.66
484.10	13256.79
484.28	13781.07
484.46	13591.49
484.64	13973.00
484.82	13532.98
485.00	13792.78
485.18	14221.10
485.35	14193.01
485.53	14265.57
485.71	14326.42
485.89	14464.51
486.07	14640.05
486.25	14560.47
486.43	14766.44
486.61	14789.85
486.78	14998.15
486.96	15124.54
487.14	15389.02
487.32	15325.83
487.50	15456.90
487.68	15463.92
487.85	15672.23
488.03	16135.65
488.21	16006.92
488.39	15815.00
488.57	16240.98
488.75	16280.77
488.92	16334.60
489.10	16713.77
489.28	16304.17
489.46	16957.18
489.64	16964.20
489.81	17125.70
489.99	17294.22
490.17	17259.11
490.35	17404.22
490.53	17301.24
490.70	17472.10
490.88	17724.88
491.06	17682.75
491.24	17865.31
491.41	17916.80
491.59	18211.71
491.77	18195.32
491.95	18401.29
492.13	18204.69
492.30	18214.05
492.48	18747.69
492.66	18518.32
492.84	18874.08
493.01	19131.54
493.19	19178.35
493.37	19407.72
493.54	19094.09
493.72	19639.44
493.90	19463.90
494.08	19688.59
494.25	19562.20
494.43	19929.66
494.61	19974.13
494.79	20280.74
494.96	20229.25
495.14	20205.84
495.32	20407.13
495.49	20442.24
495.67	20910.35
495.85	20889.28
496.02	21118.65
496.20	21200.57
496.38	20835.45
496.55	20961.84
496.73	21046.10
496.91	21312.92
497.09	21261.43
497.26	21839.54
497.44	21408.88
497.62	21621.87
497.79	21869.97
497.97	22181.26
498.14	21855.92
498.32	21717.83
498.50	22335.73
498.67	22640.00
498.85	22239.77
499.03	22803.84
499.20	22635.32
499.38	22621.28
499.56	22967.68
499.73	23253.22
499.91	23000.44
500.08	23075.34
500.26	23065.98
500.44	22850.65
500.61	23042.57
500.79	23459.19
500.97	23257.90
501.14	23569.19
501.32	23976.45
501.49	23845.38
501.67	24020.92
501.84	23861.76
502.02	24173.05
502.20	24428.17
502.37	24229.23
502.55	24049.00
502.72	24477.32
502.90	24421.15
503.07	24355.61
503.25	24641.16
503.43	24694.99
503.60	24849.47
503.78	24987.56
503.95	24961.81
504.13	25139.69
504.30	24879.89
504.48	24961.81
504.65	25132.67
504.83	25254.38
505.01	25528.22
505.18	25282.47
505.36	25846.54
505.53	25523.54
505.71	25628.87
505.88	25991.65
506.06	25308.21
506.23	25935.48
506.41	25914.41
506.58	26279.54
506.76	25996.33
506.93	26122.72
507.11	26391.88
507.28	26389.54
507.46	26682.11
507.63	26808.50
507.81	26644.66
507.98	26581.46
508.16	26487.84
508.33	26988.72
508.50	26951.27
508.68	26859.99
508.85	27082.34
509.03	26775.73
509.20	27094.04
509.38	27531.72
509.55	27527.04
509.73	27393.63
509.90	27527.04
510.08	27793.86
510.25	27927.27
510.42	27812.59
510.60	27758.75
510.77	28046.64
510.95	28187.07
511.12	27896.85
511.30	28016.21
511.47	28116.86
511.64	28325.16
511.82	28603.69
511.99	28596.67
512.17	28613.05
512.34	28716.03
512.51	28905.62
512.69	28961.79
512.86	28788.59
513.04	29076.48
513.21	28648.16
513.38	28968.81
513.56	29373.72
513.73	28664.54
513.90	29170.10
514.08	29275.42
514.25	29509.47
514.43	29364.36
514.60	29406.49
514.77	29324.57
514.95	30043.12
515.12	29769.27
515.29	29467.34
515.47	30108.65
515.64	30443.35
515.81	29876.94
515.99	30274.83
516.16	30607.19
516.33	30127.38
516.51	30384.83
516.68	30471.43
516.85	30625.91
517.03	31002.74
517.20	30998.06
517.37	30885.71
517.54	31154.87
517.72	30810.81
517.89	30764.00
518.06	31014.44
518.24	31101.04
518.41	31019.12
518.58	31103.38
518.75	31314.03
518.93	31290.62
519.10	30998.06
519.27	31220.41
519.45	31323.39
519.62	31599.57
519.79	31648.72
519.96	31573.83
520.14	32126.19
520.31	31732.98
520.48	31903.84
520.65	31648.72
520.83	32102.79
521.00	32095.77
521.17	32009.17
521.34	32023.21
521.52	32472.59
521.69	32112.15
521.86	32678.56
522.03	32994.53
522.20	32830.69
522.38	32713.67
522.55	32587.28
522.72	32971.13
522.89	32830.69
523.07	33362.00
523.24	33064.75
523.41	33031.98
523.58	32596.64
523.75	33324.55
523.92	33406.47
524.10	33106.88
524.27	33488.38
524.44	33354.97
524.61	33844.15
524.78	33467.32
524.96	33404.13
525.13	33528.17
525.30	33582.01
525.47	33965.85
525.64	33647.54
525.81	33846.49
525.98	34169.48
526.16	33813.72
526.33	33933.09
526.50	34230.33
526.67	33961.17
526.84	33956.49
527.01	33921.38
527.18	34227.99
527.36	34450.35
527.53	34473.75
527.70	34609.50
527.87	34628.23
528.04	34328.64
528.21	34555.67
528.38	34356.72
528.55	34579.07
528.72	34951.22
528.89	34670.36
529.07	34771.00
529.24	34962.92
529.41	35016.75
529.58	34775.68
529.75	35065.91
529.92	34721.85
530.09	34916.11
530.26	34974.63
530.43	35281.24
530.60	35152.51
530.77	35299.96
530.94	35515.29
531.11	35152.51
531.28	35196.98
531.46	35468.48
531.63	35562.10
531.80	35988.08
531.97	35990.42
532.14	35791.47
532.31	35538.69
532.48	35871.05
532.65	35723.60
532.82	36374.27
532.99	35852.33
533.16	36018.50
533.33	36486.61
533.50	36282.98
533.67	36362.56
533.84	35934.24
534.01	36486.61
534.18	36018.50
534.35	36519.38
534.52	36177.66
534.69	36402.35
534.86	36877.48
535.03	36617.68
535.20	36559.17
535.37	36769.82
535.54	36769.82
535.71	36421.08
535.88	36322.77
536.05	36381.29
536.22	36868.12
536.38	37137.28
536.55	37043.66
536.72	37130.26
536.89	36701.94
537.06	37127.92
537.23	37041.32
537.40	37130.26
537.57	37034.30
537.74	37003.87
537.91	37727.10
538.08	37919.02
538.25	37092.81
538.42	37422.83
538.59	37914.34
538.75	36919.61
538.92	37163.03
539.09	37886.25
539.26	37874.55
539.43	37661.56
539.60	38153.07
539.77	37895.61
539.94	38129.67
540.11	37818.38
540.28	37916.68
540.44	38281.80
540.61	37556.24
540.78	38260.74
540.95	38810.76
541.12	38476.07
541.29	38642.24
541.46	38436.28
541.62	38527.56
541.79	38569.69
541.96	38431.60
542.13	38398.83
542.30	39026.09
542.47	38536.92
542.63	38895.02
542.80	38850.55
542.97	39030.77
543.14	39185.25
543.31	39056.52
543.48	38850.55
543.64	39168.87
543.81	39086.95
543.98	39405.26
544.15	39288.23
544.32	39629.95
544.48	39459.09
544.65	39302.28
544.82	39482.50
544.99	39061.20
545.16	39463.77
545.32	39707.19
545.49	40399.99
545.66	40659.79
545.83	40854.05
546.00	40931.29
546.16	39882.73
546.33	39662.72
546.50	39168.87
546.67	39746.98
546.83	39005.03
547.00	39922.52
547.17	39505.90
547.34	40086.36
547.50	39995.07
547.67	40069.97
547.84	39840.60
548.00	40095.72
548.17	40030.18
548.34	39587.82
548.51	40327.43
548.67	39892.09
548.84	40109.76
549.01	40233.81
549.18	40102.74
549.34	40184.66
549.51	40282.96
549.68	40020.82
549.84	39929.54
550.01	40060.61
550.18	40102.74
550.34	40453.82
550.51	40315.73
550.68	40580.21
550.84	40266.58
551.01	39964.65
551.18	40105.08
551.34	40027.84
551.51	40374.24
551.68	40254.87
551.84	40362.54
552.01	40343.81
552.18	40437.44
552.34	40369.56
552.51	40879.80
552.68	40360.20
552.84	40641.06
553.01	40177.64
553.18	40697.24
553.34	40774.47
553.51	40350.84
553.67	40814.26
553.84	41240.24
554.01	40884.48
554.17	40912.56
554.34	40699.58
554.51	40591.91
554.67	41462.59
554.84	41034.27
555.00	40877.46
555.17	40643.40
555.33	40737.02
555.50	40811.92
555.67	40776.81
555.83	40959.38
556.00	40601.27
556.16	41441.53
556.33	40856.39
556.50	41280.03
556.66	41294.07
556.83	41160.66
556.99	41546.85
557.16	41090.44
557.32	41720.05
557.49	41394.71
557.65	41319.82
557.82	41085.76
557.98	41500.04
558.15	41392.37
558.32	41502.38
558.48	40935.97
558.65	41776.22
558.81	41610.04
558.98	41254.28
559.14	41242.58
559.31	41015.55
559.47	41390.03
559.64	41507.06
559.80	41450.89
559.97	41851.12
560.13	41525.78
560.30	41392.37
560.46	41909.63
560.63	41769.20
560.79	41972.83
560.96	41345.56
561.12	41656.85
561.29	41645.15
561.45	41429.82
561.61	41954.10
561.78	41666.22
561.94	41546.85
562.11	42007.94
562.27	41352.58
562.44	41748.14
562.60	41577.28
562.77	41638.13
562.93	41818.35
563.10	42359.02
563.26	41876.86
563.42	42246.67
563.59	41659.20
563.75	41764.52
563.92	41937.72
564.08	41563.23
564.24	41860.48
564.41	41687.28
564.57	41984.53
564.74	41780.90
564.90	41874.52
565.07	41535.15
565.23	41916.65
565.39	42087.51
565.56	41874.52
565.72	41825.37
565.88	41467.27
566.05	42073.47
566.21	42239.65
566.38	41759.84
566.54	41989.21
566.70	42274.76
566.87	42127.30
567.03	41773.88
567.19	42351.99
567.36	42253.69
567.52	41986.87
567.68	42314.55
567.85	41827.71
568.01	41937.72
568.17	41841.76
568.34	42349.65
568.50	42220.92
568.66	41996.23
568.83	42234.97
568.99	42024.32
569.15	41991.55
569.32	41942.40
569.48	42220.92
569.64	42246.67
569.81	41869.84
569.97	42220.92
570.13	42157.73
570.30	42115.60
570.46	42419.87
570.62	42307.52
570.78	42284.12
570.95	41996.23
571.11	42188.16
571.27	41816.01
571.43	42258.37
571.60	42000.91
571.76	42143.69
571.92	42108.58
572.09	42344.97
572.25	42485.40
572.41	42164.75
572.57	42436.25
572.74	42569.66
572.90	41862.82
573.06	42309.86
573.22	41998.57
573.38	42653.92
573.55	42373.06
573.71	42260.71
573.87	42609.45
574.03	42469.02
574.20	42522.85
574.36	42211.56
574.52	42335.61
574.68	42396.46
574.84	42536.90
575.01	42155.39
575.17	42256.03
575.33	42127.30
575.49	42256.03
575.65	42438.59
575.82	42382.42
575.98	42059.43
576.14	42323.91
576.30	42227.95
576.46	42457.32
576.62	42253.69
576.79	42457.32
576.95	42209.22
577.11	42347.31
577.27	42443.27
577.43	42263.05
577.59	42550.94
577.75	42153.05
577.92	41935.38
578.08	41937.72
578.24	42534.56
578.40	42501.79
578.56	42185.82
578.72	42747.54
578.88	42803.72
579.04	42820.10
579.21	42583.71
579.37	42733.50
579.53	42319.23
579.69	41944.74
579.85	41703.67
580.01	42302.84
580.17	42174.11
580.33	42417.53
580.49	42553.28
580.65	42859.89
580.82	42422.21
580.98	42576.69
581.14	42363.70
581.30	42822.44
581.46	42679.67
581.62	42469.02
581.78	42007.94
581.94	42366.04
582.10	42321.57
582.26	42199.86
582.42	42806.06
582.58	42611.79
582.74	42880.95
582.90	42759.25
583.06	42857.55
583.22	42370.72
583.38	42553.28
583.54	41989.21
583.70	42366.04
583.86	42703.07
584.02	42021.98
584.18	42553.28
584.34	42684.35
584.50	42972.24
584.66	42321.57
584.82	42071.13
584.98	42305.18
585.14	42799.04
585.30	42256.03
585.46	42316.89
585.62	42363.70
585.78	42609.45
585.94	42440.93
586.10	42204.54
586.26	42768.61
586.42	43178.20
586.58	42464.34
586.74	42789.67
586.90	41881.55
587.06	42422.21
587.22	42213.90
587.38	42286.46
587.54	42726.48
587.70	42480.72
587.86	42534.56
588.02	42693.71
588.18	42754.57
588.34	42153.05
588.49	43079.90
588.65	42433.91
588.81	42239.65
588.97	42192.84
589.13	42209.22
589.29	42457.32
589.45	42829.46
589.61	42728.82
589.77	42548.60
589.93	42705.41
590.08	42698.39
590.24	42534.56
590.40	42876.27
590.56	42960.53
590.72	42440.93
590.88	42391.78
