SpectraSuite Data File
++++++++++++++++++++++++++++++++++++
Date: Tue Oct 01 18:27:24 GMT-05:00 2013
User: stostad
Dark Spectrum Present: No
Reference Spectrum Present: No
Number of Sampled Component Spectra: 1
Spectrometers: USB2+H05261
Integration Time (usec): 100000 (USB2+H05261)
Spectra Averaged: 1 (USB2+H05261)
Boxcar Smoothing: 0 (USB2+H05261)
Correct for Electrical Dark: No (USB2+H05261)
Strobe/Lamp Enabled: No (USB2+H05261)
Correct for Detector Non-linearity: No (USB2+H05261)
Correct for Stray Light: No (USB2+H05261)
Number of Pixels in Processed Spectrum: 2048
>>>>>Begin Processed Spectral Data<<<<<
365.73	88.94
365.92	88.94
366.12	88.94
366.32	0.00
366.52	0.00
366.72	0.00
366.91	0.00
367.11	0.00
367.31	0.00
367.51	0.00
367.70	0.00
367.90	7.02
368.10	0.00
368.30	7.02
368.49	0.00
368.69	0.00
368.89	0.00
369.09	0.00
369.28	0.00
369.48	0.00
369.68	65.54
369.87	0.00
370.07	14.04
370.27	37.45
370.47	98.30
370.66	229.37
370.86	292.57
371.06	311.29
371.25	383.85
371.45	337.04
371.65	367.46
371.84	255.12
372.04	346.40
372.24	383.85
372.44	360.44
372.63	355.76
372.83	390.87
373.03	358.10
373.22	411.93
373.42	411.93
373.62	348.74
373.81	365.12
374.01	493.85
374.21	437.68
374.40	454.06
374.60	397.89
374.79	414.27
374.99	486.83
375.19	461.09
375.38	416.62
375.58	456.40
375.78	454.06
375.97	561.73
376.17	456.40
376.37	482.15
376.56	454.06
376.76	486.83
376.95	447.04
377.15	442.36
377.35	528.96
377.54	524.28
377.74	390.87
377.93	535.98
378.13	477.47
378.33	547.69
378.52	484.49
378.72	496.19
378.91	608.54
379.11	447.04
379.31	458.74
379.50	507.90
379.70	505.56
379.89	543.00
380.09	550.03
380.28	596.84
380.48	582.79
380.68	479.81
380.87	587.47
381.07	559.39
381.26	552.37
381.46	608.54
381.65	631.94
381.85	615.56
382.04	582.79
382.24	594.50
382.43	610.88
382.63	589.82
382.83	510.24
383.02	699.82
383.22	709.18
383.41	564.07
383.61	627.26
383.80	734.93
384.00	589.82
384.19	631.94
384.39	697.48
384.58	653.01
384.78	716.20
384.97	610.88
385.17	622.58
385.36	688.12
385.56	699.82
385.75	683.44
385.95	624.92
386.14	671.73
386.34	615.56
386.53	685.78
386.72	671.73
386.92	716.20
387.11	753.65
387.31	606.20
387.50	669.39
387.70	638.97
387.89	676.41
388.09	660.03
388.28	730.25
388.48	748.97
388.67	763.01
388.86	727.91
389.06	777.06
389.25	795.78
389.45	699.82
389.64	777.06
389.84	889.40
390.03	716.20
390.22	861.32
390.42	753.65
390.61	795.78
390.81	720.88
391.00	809.83
391.19	816.85
391.39	875.36
391.58	854.30
391.78	828.55
391.97	898.77
392.16	847.27
392.36	880.04
392.55	863.66
392.75	870.68
392.94	889.40
393.13	856.64
393.33	910.47
393.52	786.42
393.71	1036.86
393.91	1036.86
394.10	866.00
394.29	882.38
394.49	964.30
394.68	1018.13
394.88	1027.50
395.07	938.55
395.26	966.64
395.46	973.66
395.65	952.60
395.84	994.73
396.04	1111.75
396.23	1027.50
396.42	1057.92
396.62	990.05
396.81	1095.37
397.00	1008.77
397.19	1078.99
397.39	1090.69
397.58	1062.60
397.77	1060.26
397.97	1086.01
398.16	1149.20
398.35	1095.37
398.55	1088.35
398.74	1137.50
398.93	1144.52
399.12	1130.48
399.32	1135.16
399.51	1067.28
399.70	1245.16
399.90	1259.21
400.09	1238.14
400.28	1301.34
400.47	1198.35
400.67	1214.74
400.86	1203.04
401.05	1306.02
401.24	1291.98
401.44	1313.04
401.63	1378.58
401.82	1270.91
402.01	1341.13
402.21	1383.26
402.40	1315.38
402.59	1406.66
402.78	1334.11
402.97	1409.00
403.17	1472.20
403.36	1411.34
403.55	1418.36
403.74	1474.54
403.93	1514.33
404.13	1645.40
404.32	1514.33
404.51	1416.02
404.70	1561.14
404.89	1535.39
405.09	1432.41
405.28	1561.14
405.47	1629.01
405.66	1720.29
405.85	1624.33
406.05	1640.72
406.24	1675.82
406.43	1734.34
406.62	1771.79
406.81	1746.04
407.00	1778.81
407.20	1647.74
407.39	1762.42
407.58	1842.00
407.77	1935.62
407.96	1891.15
408.15	1909.88
408.34	1748.38
408.54	1919.24
408.73	1954.35
408.92	1987.11
409.11	1926.26
409.30	2022.22
409.49	1963.71
409.68	1989.46
409.87	1944.99
410.07	2026.90
410.26	2080.74
410.45	2054.99
410.64	2076.06
410.83	2033.93
411.02	2106.48
411.21	2122.87
411.40	2172.02
411.59	2143.93
411.78	2239.89
411.98	2174.36
412.17	2195.42
412.36	2352.24
412.55	2345.22
412.74	2382.67
412.93	2492.67
413.12	2401.39
413.31	2347.56
413.50	2452.88
413.69	2424.80
413.88	2555.86
414.07	2502.03
414.26	2710.34
414.45	2495.01
414.64	2499.69
414.83	2696.30
415.02	2731.41
415.22	2780.56
415.41	2764.17
415.60	2736.09
415.79	2661.19
415.98	2764.17
416.17	2827.37
416.36	2785.24
416.55	2913.97
416.74	2946.73
416.93	2944.39
417.12	2951.42
417.31	3038.02
417.50	2981.84
417.69	3152.70
417.88	3145.68
418.07	3061.42
418.26	3035.67
418.45	3136.32
418.64	3281.43
418.83	3171.43
419.02	3260.37
419.21	3260.37
419.39	3241.64
419.58	3269.73
419.77	3185.47
419.96	3169.09
420.15	3241.64
420.34	3300.16
420.53	3199.51
420.72	3424.20
420.91	3478.04
421.10	3468.67
421.29	3368.03
421.48	3377.39
421.67	3447.61
421.86	3452.29
422.05	3538.89
422.24	3562.30
422.43	3571.66
422.61	3428.88
422.80	3623.15
422.99	3536.55
423.18	3543.57
423.37	3639.53
423.56	3538.89
423.75	3545.91
423.94	3527.19
424.13	3412.50
424.32	3545.91
424.50	3611.45
424.69	3655.92
424.88	3782.31
425.07	3585.70
425.26	3501.44
425.45	3510.80
425.64	3522.51
425.83	3644.21
426.01	3751.88
426.20	3665.28
426.39	3686.34
426.58	3684.00
426.77	3604.42
426.96	3784.65
427.15	3698.05
427.33	3719.11
427.52	3763.58
427.71	3815.07
427.90	3749.54
428.09	3833.80
428.28	3819.75
428.46	3995.29
428.65	3918.06
428.84	3906.35
429.03	4086.58
429.22	3791.67
429.40	4007.00
429.59	4081.89
429.78	3889.97
429.97	3878.27
430.16	3988.27
430.34	4194.24
430.53	4133.39
430.72	4173.18
430.91	4091.26
431.10	4140.41
431.28	4159.13
431.47	4245.73
431.66	4131.05
431.85	4058.49
432.03	4215.30
432.22	4353.40
432.41	4306.59
432.60	4285.52
432.79	4205.94
432.97	4395.53
433.16	4379.14
433.35	4400.21
433.54	4421.27
433.72	4402.55
433.91	4444.68
434.10	4491.49
434.28	4681.07
434.47	4397.87
434.66	4674.05
434.85	4585.11
435.03	4622.56
435.22	4643.62
435.41	4718.52
435.59	4596.81
435.78	4662.35
435.97	4667.03
436.16	4835.55
436.34	4802.78
436.53	4737.24
436.72	4894.06
436.90	4690.43
437.09	4858.95
437.28	4739.58
437.46	4926.83
437.65	4856.61
437.84	4926.83
438.02	5013.43
438.21	4968.96
438.40	4835.55
438.58	4980.66
438.77	5074.28
438.96	5057.90
439.14	5294.29
439.33	5263.86
439.52	5203.01
439.70	5348.12
439.89	5305.99
440.08	5343.44
440.26	5502.60
440.45	5296.63
440.63	5483.88
440.82	5476.85
441.01	5568.13
441.19	5535.37
441.38	5671.12
441.57	5708.57
441.75	5582.18
441.94	5853.68
442.12	5853.68
442.31	5996.45
442.50	5980.07
442.68	5757.72
442.87	5963.68
443.05	6015.18
443.24	6031.56
443.43	6195.40
443.61	6221.14
443.80	6122.84
443.98	6054.97
444.17	5860.70
444.35	6076.03
444.54	6270.30
444.73	6054.97
444.91	5954.32
445.10	6092.41
445.28	6101.78
445.47	6101.78
445.65	6270.30
445.84	6246.89
446.02	6237.53
446.21	6291.36
446.39	6195.40
446.58	6235.19
446.77	6289.02
446.95	6216.46
447.14	6211.78
447.32	6232.85
447.51	6443.49
447.69	6218.80
447.88	6401.37
448.06	6249.23
448.25	6291.36
448.43	6345.19
448.62	6483.28
448.80	6445.84
448.99	6452.86
449.17	6415.41
449.36	6258.59
449.54	6586.27
449.73	6642.44
449.91	6679.89
450.10	6832.02
450.28	6700.95
450.46	6782.87
450.65	6846.07
450.83	6635.42
451.02	6635.42
451.20	6576.91
451.39	6895.22
451.57	6722.02
451.76	6724.36
451.94	6789.89
452.13	6904.58
452.31	7019.27
452.49	6691.59
452.68	7063.74
452.86	7052.03
453.05	6937.35
453.23	6942.03
453.42	6927.99
453.60	6965.43
453.78	6951.39
453.97	7059.06
454.15	6960.75
454.34	7096.50
454.52	7112.89
454.70	7213.53
454.89	7269.70
455.07	7314.17
455.26	7180.76
455.44	7269.70
455.62	7276.73
455.81	7272.04
455.99	7393.75
456.17	7494.40
456.36	7475.67
456.54	7513.12
456.73	7522.48
456.91	7747.17
457.09	7569.29
457.28	7716.75
457.46	7520.14
457.64	7646.53
457.83	7777.60
458.01	7730.79
458.19	7868.88
458.38	7988.25
458.56	7875.90
458.74	7761.22
458.93	7864.20
459.11	8077.19
459.29	7859.52
459.48	8124.00
459.66	7957.82
459.84	8023.36
460.03	8241.03
460.21	7992.93
460.39	8102.93
460.57	8262.09
460.76	8400.18
460.94	8102.93
461.12	8140.38
461.31	8322.94
461.49	8409.54
461.67	8388.48
461.85	8486.78
462.04	8564.02
462.22	8891.70
462.40	8573.38
462.59	8599.13
462.77	8683.39
462.95	8587.43
463.13	8716.16
463.32	8601.47
463.50	8650.62
463.68	8674.03
463.86	8713.81
464.05	8578.06
464.23	8542.96
464.41	8875.31
464.59	8716.16
464.78	8802.75
464.96	8683.39
465.14	8674.03
465.32	9043.83
465.50	9195.96
465.69	8826.16
465.87	8760.63
466.05	9088.30
466.23	9071.92
466.41	8753.60
466.60	9146.81
466.78	9020.42
466.96	8968.93
467.14	9298.95
467.32	9104.68
467.51	9219.37
467.69	9076.60
467.87	9090.64
468.05	9109.36
468.23	9085.96
468.41	9102.34
468.60	9350.44
468.78	9423.00
468.96	9179.58
469.14	9390.23
469.32	9544.70
469.50	9177.24
469.69	9638.33
469.87	9748.33
470.05	9851.31
470.23	9729.61
470.41	9727.27
470.59	9827.91
470.77	9549.39
470.95	9966.00
471.14	9837.27
471.32	9830.25
471.50	10111.11
471.68	10230.48
471.86	9949.62
472.04	10356.87
472.22	10141.54
472.40	10104.09
472.58	10286.65
472.77	10186.01
472.95	10410.70
473.13	10656.46
473.31	10342.83
473.49	10567.52
473.67	10567.52
473.85	10712.63
474.03	10658.80
474.21	10614.33
474.39	10853.06
474.57	11061.37
474.75	11035.63
474.93	11318.83
475.12	11021.58
475.30	11304.79
475.48	10998.18
475.66	11417.13
475.84	11281.38
476.02	11269.68
476.20	11499.05
476.38	11419.47
476.56	11637.14
476.74	11854.81
476.92	11864.18
477.10	11836.09
477.28	11845.45
477.46	11726.08
477.64	12198.87
477.82	12301.86
478.00	12343.99
478.18	12432.93
478.36	12582.72
478.54	12641.23
478.72	12582.72
478.90	12774.64
479.08	12898.69
479.26	13046.15
479.44	12975.93
479.62	12898.69
479.80	12999.34
479.98	13343.39
480.16	13467.44
480.34	13804.48
480.52	13497.87
480.70	13968.32
480.88	13488.51
481.06	13839.59
481.24	14038.53
481.41	14181.31
481.59	14391.95
481.77	14406.00
481.95	14473.87
482.13	14640.05
482.31	14747.72
482.49	14941.98
482.67	15218.16
482.85	15091.77
483.03	15311.78
483.21	15513.07
483.39	15623.08
483.57	15644.14
483.74	15779.89
483.92	15901.60
484.10	15791.59
484.28	16056.08
484.46	16276.09
484.64	16425.88
484.82	16177.78
485.00	16318.22
485.18	16889.31
485.35	16835.47
485.53	16992.29
485.71	17362.09
485.89	17387.84
486.07	17324.65
486.25	17345.71
486.43	17493.16
486.61	17806.80
486.78	17872.33
486.96	17902.76
487.14	18139.15
487.32	18242.14
487.50	18544.06
487.68	18567.47
487.85	18771.10
488.03	18738.33
488.21	19290.70
488.39	19293.04
488.57	19248.57
488.75	19435.81
488.92	19833.70
489.10	19793.91
489.28	19831.36
489.46	20152.01
489.64	20088.82
489.81	20435.22
489.99	20444.58
490.17	20629.48
490.35	21308.24
490.53	20786.30
490.70	20732.47
490.88	20882.26
491.06	21083.55
491.24	21479.10
491.41	21640.59
491.59	21923.80
491.77	21788.05
491.95	21963.59
492.13	21951.88
492.30	21727.19
492.48	22164.87
492.66	22312.33
492.84	22391.91
493.01	22750.01
493.19	22792.14
493.37	23159.60
493.54	22944.27
493.72	23440.47
493.90	23297.69
494.08	23805.59
494.25	23854.74
494.43	23840.70
494.61	23796.23
494.79	24119.22
494.96	24159.01
495.14	24732.44
495.32	24666.91
495.49	24329.87
495.67	24821.38
495.85	25238.00
496.02	25153.74
496.20	25230.98
496.38	25046.07
496.55	25633.55
496.73	25923.77
496.91	25757.60
497.09	25701.42
497.26	26017.40
497.44	25596.10
497.62	26120.38
497.79	26405.92
497.97	26679.77
498.14	26504.23
498.32	27171.28
498.50	26792.11
498.67	26923.18
498.85	27136.17
499.03	27108.08
499.20	27674.49
499.38	27515.34
499.56	27604.28
499.73	27452.14
499.91	27892.16
500.08	27960.04
500.26	27742.37
500.44	27983.44
500.61	28561.56
500.79	28409.42
500.97	28528.79
501.14	28538.15
501.32	28481.98
501.49	28613.05
501.67	28765.18
501.84	29144.35
502.02	28968.81
502.20	29242.65
502.37	29244.99
502.55	28893.91
502.72	29455.64
502.90	29443.94
503.07	29406.49
503.25	29956.52
503.43	29418.19
503.60	30148.44
503.78	29797.36
503.95	29979.92
504.13	29916.73
504.30	30146.10
504.48	30272.49
504.65	30359.09
504.83	30352.07
505.01	30773.36
505.18	30756.98
505.36	31101.04
505.53	31019.12
505.71	31065.93
505.88	31222.75
506.06	30675.06
506.23	31587.87
506.41	31512.97
506.58	31608.93
506.76	31828.95
506.93	31700.22
507.11	31543.40
507.28	32280.67
507.46	32198.75
507.63	32306.41
507.81	32074.70
507.98	31906.18
508.16	32493.66
508.33	32341.52
508.50	32723.03
508.68	32856.44
508.85	32708.99
509.03	32912.61
509.20	32926.66
509.38	32755.80
509.55	33151.35
509.73	33373.70
509.90	33558.60
510.08	33834.78
510.25	33589.03
510.42	33677.97
510.60	33638.18
510.77	34089.90
510.95	34029.05
511.12	34113.31
511.30	34068.84
511.47	34672.70
511.64	34466.73
511.82	34476.09
511.99	34637.59
512.17	34520.56
512.34	35070.59
512.51	35136.12
512.69	35285.92
512.86	35054.20
513.04	35323.36
513.21	35323.36
513.38	35304.64
513.56	35475.50
513.73	35580.82
513.90	35311.66
514.08	35793.81
514.25	36009.14
514.43	35929.56
514.60	35821.90
514.77	36290.01
514.95	36020.84
515.12	36135.53
515.29	36238.51
515.47	37097.49
515.64	36858.76
515.81	36652.79
515.99	37024.93
516.16	37064.72
516.33	36818.97
516.51	36900.89
516.68	36627.04
516.85	37104.51
517.03	37560.92
517.20	37647.52
517.37	37036.64
517.54	37621.77
517.72	37385.38
517.89	37368.99
518.06	37483.68
518.24	37621.77
518.41	37476.66
518.58	38124.99
518.75	37794.97
518.93	38068.81
519.10	37776.25
519.27	38080.52
519.45	37818.38
519.62	38621.18
519.79	38597.77
519.96	38286.48
520.14	38497.13
520.31	38431.60
520.48	38230.31
520.65	38410.53
520.83	39285.89
521.00	39433.35
521.17	39344.41
521.34	39098.65
521.52	39129.08
521.69	39075.24
521.86	39730.59
522.03	39552.71
522.20	39892.09
522.38	39938.90
522.55	40013.80
522.72	39878.05
522.89	39943.58
523.07	40102.74
523.24	39772.72
523.41	39959.97
523.58	39704.85
523.75	40226.79
523.92	40299.34
524.10	40189.34
524.27	40914.90
524.44	40882.14
524.61	40917.25
524.78	40942.99
524.96	40432.75
525.13	40933.63
525.30	40933.63
525.47	41556.21
525.64	41186.41
525.81	41598.34
525.98	41663.88
526.16	41282.37
526.33	41294.07
526.50	41680.26
526.67	41422.80
526.84	41638.13
527.01	41776.22
527.18	41881.55
527.36	41649.83
527.53	41900.27
527.70	42319.23
527.87	42014.96
528.04	42279.44
528.21	42302.84
528.38	42277.10
528.55	42337.95
528.72	42384.76
528.89	42136.66
529.07	42197.52
529.24	41968.15
529.41	42443.27
529.58	42541.58
529.75	42733.50
529.92	43239.06
530.09	42745.20
530.26	42677.33
530.43	42880.95
530.60	42635.20
530.77	42890.32
530.94	43049.47
531.11	43147.78
531.28	43489.49
531.46	43335.02
531.63	43620.56
531.80	43494.18
531.97	43470.77
532.14	43508.22
532.31	43749.29
532.48	43782.06
532.65	43842.92
532.82	43636.95
532.99	44177.61
533.16	43721.21
533.33	44067.61
533.50	44184.63
533.67	43805.47
533.84	43697.80
534.01	44451.45
534.18	43985.69
534.35	44437.41
534.52	44406.98
534.69	44903.18
534.86	44907.86
535.03	44657.42
535.20	44435.07
535.37	44594.23
535.54	44959.35
535.71	44856.37
535.88	45099.78
536.05	45167.66
536.22	45460.23
536.38	45092.76
536.55	44626.99
536.72	44952.33
536.89	44818.92
537.06	45071.70
537.23	45375.97
537.40	45474.27
537.57	45535.12
537.74	45469.59
537.91	45432.14
538.08	45471.93
538.25	44886.79
538.42	45322.13
538.59	45860.46
538.75	45705.98
538.92	45827.69
539.09	45961.10
539.26	45914.29
539.43	45874.50
539.60	46005.57
539.77	45577.25
539.94	46080.47
540.11	45930.67
540.28	46138.98
540.44	46672.62
540.61	46129.62
540.78	46422.19
540.95	46590.70
541.12	46122.60
541.29	46693.69
541.46	46302.82
541.62	46312.18
541.79	46485.38
541.96	46148.34
542.13	46557.94
542.30	46759.22
542.47	47019.02
542.63	46665.60
542.80	46930.08
542.97	47056.47
543.14	47655.65
543.31	47419.25
543.48	47580.75
543.64	47648.63
543.81	47686.07
543.98	47461.38
544.15	47494.15
544.32	47620.54
544.48	47828.85
544.65	47711.82
544.82	48002.05
544.99	47690.76
545.16	47569.05
545.32	47337.33
545.49	48285.25
545.66	47821.83
545.83	47753.95
546.00	48259.51
546.16	48090.99
546.33	48023.11
546.50	47892.04
546.67	48100.35
546.83	47805.44
547.00	47859.27
547.17	47821.83
547.34	48271.21
547.50	48348.45
547.67	48364.83
547.84	48559.09
548.00	48493.56
548.17	48980.39
548.34	48718.25
548.51	48729.95
548.67	48865.70
548.84	48367.17
549.01	48456.11
549.18	48416.32
549.34	48364.83
549.51	48790.81
549.68	48739.32
549.84	48994.43
550.01	48989.75
550.18	48746.34
550.34	48886.77
550.51	48992.09
550.68	48903.15
550.84	48711.23
551.01	49158.27
551.18	48706.55
551.34	48617.61
551.51	49366.58
551.68	49111.46
551.84	49130.19
552.01	49099.76
552.18	49167.63
552.34	49090.40
552.51	49279.98
552.68	48917.20
552.84	49701.28
553.01	49593.61
553.18	49755.11
553.34	49783.19
553.51	49481.27
553.67	49610.00
553.84	49507.01
554.01	49649.78
554.17	49382.96
554.34	49579.57
554.51	49806.60
554.67	50248.96
554.84	50108.53
555.00	49717.66
555.17	49818.30
555.33	49956.39
555.50	49553.82
555.67	49956.39
555.83	49654.47
556.00	50052.36
556.16	50454.93
556.33	50396.42
556.50	50604.72
556.66	50466.63
556.83	50127.25
556.99	50344.92
557.16	49970.44
557.32	50309.82
557.49	50440.89
557.65	50717.07
557.82	50422.16
557.98	50466.63
558.15	50358.97
558.32	50417.48
558.48	50365.99
558.65	49998.52
558.81	50363.65
558.98	50302.79
559.14	50246.62
559.31	50234.92
559.47	50693.66
559.64	50712.39
559.80	50913.67
559.97	50990.91
560.13	50518.12
560.30	50618.77
560.46	50564.93
560.63	50653.87
560.79	50855.16
560.96	50635.15
561.12	51030.70
561.29	50660.90
561.45	50906.65
561.61	50920.70
561.78	50784.94
561.94	50855.16
562.11	50951.12
562.27	50705.37
562.44	50742.81
562.60	50986.23
562.77	51023.68
562.93	50810.69
563.10	51131.34
563.26	51262.41
563.42	51517.53
563.59	50642.17
563.75	50461.95
563.92	51173.47
564.08	50693.66
564.24	51241.35
564.41	51229.65
564.57	51019.00
564.74	51255.39
564.90	51299.86
565.07	50953.46
565.23	51388.80
565.39	51033.04
565.56	50979.21
565.72	51178.15
565.88	51241.35
566.05	51199.22
566.21	51384.12
566.38	51398.16
566.54	51276.46
566.70	51554.98
566.87	51540.94
567.03	51220.28
567.19	51393.48
567.36	51379.44
567.52	51192.20
567.68	51463.70
567.85	51325.61
568.01	51295.18
568.17	51606.47
568.34	51423.91
568.50	51536.26
568.66	51049.42
568.83	51224.96
568.99	51606.47
569.15	51395.82
569.32	51554.98
569.48	51550.30
569.64	51491.79
569.81	51559.66
569.97	51601.79
570.13	51430.93
570.30	51585.41
570.46	50986.23
570.62	51517.53
570.78	51419.23
570.95	51175.81
571.11	51667.33
571.27	51372.42
571.43	51824.14
571.60	51845.21
571.76	51285.82
571.92	51267.09
572.09	51454.34
572.25	51697.75
572.41	51763.29
572.57	51592.43
572.74	51889.68
572.90	51959.89
573.06	51915.42
573.22	52048.83
573.38	51852.23
573.55	51655.62
573.71	51789.03
573.87	51803.08
574.03	51330.29
574.20	51777.33
574.36	51674.35
574.52	51714.14
574.68	51718.82
574.84	51835.84
575.01	52032.45
575.17	52215.01
575.33	51805.42
575.49	51482.42
575.65	51915.42
575.82	51648.60
575.98	51845.21
576.14	52060.54
576.30	52023.09
576.46	52069.90
576.62	52217.35
576.79	51866.27
576.95	51508.17
577.11	51751.59
577.27	52222.03
577.43	51835.84
577.59	51915.42
577.75	51732.86
577.92	51447.32
578.08	51622.86
578.24	51997.34
578.40	52261.82
578.56	52238.42
578.72	52112.03
578.88	52168.20
579.04	52121.39
579.21	51943.51
579.37	52147.14
579.53	51854.57
579.69	51875.63
579.85	52306.29
580.01	52296.93
580.17	52037.13
580.33	52294.59
580.49	52069.90
580.65	52224.37
580.82	51969.26
580.98	51875.63
581.14	51948.19
581.30	52175.22
581.46	52172.88
581.62	52266.50
581.78	52100.32
581.94	52095.64
582.10	51798.40
582.26	52189.27
582.42	51835.84
582.58	51983.30
582.74	51995.00
582.90	52161.18
583.06	52226.71
583.22	52114.37
583.38	52423.32
583.54	52027.77
583.70	52339.06
583.86	52224.37
584.02	51868.61
584.18	51889.68
584.34	51952.87
584.50	52149.48
584.66	52336.72
584.82	52046.49
584.98	52128.41
585.14	52116.71
585.30	51976.28
585.46	52226.71
585.62	52280.55
585.78	52399.91
585.94	52161.18
586.10	52102.67
586.26	51620.52
586.42	52074.58
586.58	52002.02
586.74	51803.08
586.90	52032.45
587.06	52009.04
587.22	52449.06
587.38	52182.24
587.54	52708.86
587.70	52341.40
587.86	52215.01
588.02	52343.74
588.18	52247.78
588.34	52229.05
588.49	52170.54
588.65	51962.23
588.81	52624.60
588.97	52399.91
589.13	52580.13
589.29	52451.41
589.45	52645.67
589.61	52231.40
589.77	52491.19
589.93	52629.29
590.08	52090.96
590.24	52378.85
590.40	52624.60
