SpectraSuite Data File
++++++++++++++++++++++++++++++++++++
Date: Tue Oct 01 18:27:26 GMT-05:00 2013
User: stostad
Dark Spectrum Present: No
Reference Spectrum Present: No
Number of Sampled Component Spectra: 1
Spectrometers: USB2+H05261
Integration Time (usec): 100000 (USB2+H05261)
Spectra Averaged: 1 (USB2+H05261)
Boxcar Smoothing: 0 (USB2+H05261)
Correct for Electrical Dark: No (USB2+H05261)
Strobe/Lamp Enabled: No (USB2+H05261)
Correct for Detector Non-linearity: No (USB2+H05261)
Correct for Stray Light: No (USB2+H05261)
Number of Pixels in Processed Spectrum: 2048
>>>>>Begin Processed Spectral Data<<<<<
365.73	72.56
365.92	72.56
366.12	72.56
366.32	0.00
366.52	0.00
366.72	0.00
366.91	0.00
367.11	16.38
367.31	0.00
367.51	0.00
367.70	0.00
367.90	0.00
368.10	0.00
368.30	0.00
368.49	0.00
368.69	2.34
368.89	0.00
369.09	0.00
369.28	0.00
369.48	0.00
369.68	0.00
369.87	0.00
370.07	14.04
370.27	0.00
370.47	98.30
370.66	325.33
370.86	304.27
371.06	386.19
371.25	344.06
371.45	301.93
371.65	334.70
371.84	341.72
372.04	447.04
372.24	351.08
372.44	369.80
372.63	458.74
372.83	404.91
373.03	353.42
373.22	348.74
373.42	414.27
373.62	416.62
373.81	428.32
374.01	433.00
374.21	433.00
374.40	484.49
374.60	503.22
374.79	390.87
374.99	458.74
375.19	346.40
375.38	454.06
375.58	482.15
375.78	519.60
375.97	500.87
376.17	491.51
376.37	535.98
376.56	510.24
376.76	423.64
376.95	421.30
377.15	397.89
377.35	514.92
377.54	512.58
377.74	496.19
377.93	489.17
378.13	454.06
378.33	498.53
378.52	479.81
378.72	564.07
378.91	486.83
379.11	491.51
379.31	545.34
379.50	566.41
379.70	575.77
379.89	561.73
380.09	540.66
380.28	449.38
380.48	545.34
380.68	463.43
380.87	493.85
381.07	564.07
381.26	608.54
381.46	561.73
381.65	505.56
381.85	578.11
382.04	564.07
382.24	531.30
382.43	571.09
382.63	564.07
382.83	545.34
383.02	603.86
383.22	615.56
383.41	580.45
383.61	629.60
383.80	667.05
384.00	641.31
384.19	641.31
384.39	641.31
384.58	622.58
384.78	610.88
384.97	552.37
385.17	615.56
385.36	645.99
385.56	631.94
385.75	615.56
385.95	660.03
386.14	713.86
386.34	601.52
386.53	692.80
386.72	594.50
386.92	645.99
387.11	704.50
387.31	699.82
387.50	660.03
387.70	664.71
387.89	770.04
388.09	641.31
388.28	706.84
388.48	674.07
388.67	830.89
388.86	681.10
389.06	655.35
389.25	716.20
389.45	821.53
389.64	709.18
389.84	765.36
390.03	753.65
390.22	812.17
390.42	800.46
390.61	854.30
390.81	699.82
391.00	821.53
391.19	821.53
391.39	856.64
391.58	826.21
391.78	814.51
391.97	779.40
392.16	830.89
392.36	795.78
392.55	732.59
392.75	837.91
392.94	887.06
393.13	891.74
393.33	746.63
393.52	863.66
393.71	961.96
393.91	894.08
394.10	875.36
394.29	959.62
394.49	973.66
394.68	910.47
394.88	847.27
395.07	929.19
395.26	994.73
395.46	938.55
395.65	1027.50
395.84	971.32
396.04	1036.86
396.23	1076.65
396.42	1008.77
396.62	1060.26
396.81	1029.84
397.00	1041.54
397.19	1083.67
397.39	992.39
397.58	1043.88
397.77	1020.47
397.97	1118.78
398.16	1102.39
398.35	1198.35
398.55	1060.26
398.74	1163.25
398.93	1179.63
399.12	1121.12
399.32	1167.93
399.51	1163.25
399.70	1249.85
399.90	1217.08
400.09	1193.67
400.28	1249.85
400.47	1163.25
400.67	1284.95
400.86	1224.10
401.05	1310.70
401.24	1256.87
401.44	1310.70
401.63	1355.17
401.82	1322.40
402.01	1226.44
402.21	1348.15
402.40	1364.53
402.59	1336.45
402.78	1413.68
402.97	1378.58
403.17	1441.77
403.36	1364.53
403.55	1406.66
403.74	1378.58
403.93	1528.37
404.13	1458.15
404.32	1465.18
404.51	1446.45
404.70	1530.71
404.89	1497.94
405.09	1514.33
405.28	1490.92
405.47	1591.56
405.66	1511.99
405.85	1589.22
406.05	1556.46
406.24	1558.80
406.43	1584.54
406.62	1757.74
406.81	1727.32
407.00	1598.59
407.20	1549.43
407.39	1694.55
407.58	1724.97
407.77	1710.93
407.96	1767.10
408.15	1785.83
408.34	1865.41
408.54	1858.39
408.73	1863.07
408.92	1902.86
409.11	1888.81
409.30	1839.66
409.49	1820.94
409.68	2073.71
409.87	2017.54
410.07	2120.53
410.26	2047.97
410.45	1980.09
410.64	1973.07
410.83	2108.82
411.02	2101.80
411.21	2083.08
411.40	2228.19
411.59	2232.87
411.78	2218.83
411.98	2169.68
412.17	2157.97
412.36	2143.93
412.55	2279.68
412.74	2420.11
412.93	2284.36
413.12	2305.43
413.31	2427.14
413.50	2387.35
413.69	2429.48
413.88	2455.22
414.07	2415.43
414.26	2560.55
414.45	2476.29
414.64	2600.34
414.83	2499.69
415.02	2518.42
415.22	2715.02
415.41	2731.41
415.60	2649.49
415.79	2637.78
415.98	2752.47
416.17	2869.50
416.36	2885.88
416.55	2799.28
416.74	2850.77
416.93	2944.39
417.12	2935.03
417.31	2939.71
417.50	2993.55
417.69	3007.59
417.88	3075.46
418.07	2946.73
418.26	3091.85
418.45	3077.80
418.64	3272.07
418.83	3162.06
419.02	3152.70
419.21	3124.62
419.39	3204.19
419.58	3241.64
419.77	3164.40
419.96	3246.32
420.15	3274.41
420.34	3332.92
420.53	3318.88
420.72	3272.07
420.91	3353.99
421.10	3438.25
421.29	3421.86
421.48	3361.01
421.67	3503.78
421.86	3478.04
422.05	3459.31
422.24	3515.48
422.43	3293.13
422.61	3506.12
422.80	3655.92
422.99	3541.23
423.18	3508.46
423.37	3552.93
423.56	3569.32
423.75	3564.64
423.94	3524.85
424.13	3342.28
424.32	3344.63
424.50	3637.19
424.69	3613.79
424.88	3712.09
425.07	3510.80
425.26	3414.84
425.45	3681.66
425.64	3534.21
425.83	3562.30
426.01	3630.17
426.20	3616.13
426.39	3695.71
426.58	3588.04
426.77	3779.97
426.96	3681.66
427.15	3684.00
427.33	3716.77
427.52	3747.20
427.71	3812.73
427.90	3688.68
428.09	3810.39
428.28	3831.46
428.46	3803.37
428.65	3918.06
428.84	3929.76
429.03	3992.95
429.22	3822.09
429.40	4072.53
429.59	4100.62
429.78	3815.07
429.97	3875.93
430.16	3911.04
430.34	3880.61
430.53	4009.34
430.72	3960.19
430.91	4004.66
431.10	4021.04
431.28	4159.13
431.47	4285.52
431.66	4067.85
431.85	4156.79
432.03	4140.41
432.22	4255.09
432.41	4269.14
432.60	4278.50
432.79	4152.11
432.97	4442.34
433.16	4472.76
433.35	4142.75
433.54	4259.78
433.72	4369.78
433.91	4498.51
434.10	4533.62
434.28	4421.27
434.47	4517.23
434.66	4627.24
434.85	4517.23
435.03	4540.64
435.22	4550.00
435.41	4739.58
435.59	4723.20
435.78	4606.17
435.97	4641.28
436.16	4774.69
436.34	4657.67
436.53	4507.87
436.72	4734.90
436.90	4681.07
437.09	4835.55
437.28	4765.33
437.46	4521.92
437.65	4826.18
437.84	5043.85
438.02	4999.38
438.21	4880.02
438.40	4765.33
438.58	4933.85
438.77	5043.85
438.96	5097.69
439.14	5151.52
439.33	5111.73
439.52	5191.31
439.70	5174.92
439.89	5273.23
440.08	5416.00
440.26	5167.90
440.45	5345.78
440.63	5341.10
440.82	5439.40
441.01	5380.89
441.19	5486.22
441.38	5748.36
441.57	5612.60
441.75	5509.62
441.94	5696.86
442.12	5628.99
442.31	5799.85
442.50	5724.95
442.68	5703.89
442.87	5809.21
443.05	5891.13
443.24	5909.85
443.43	6010.50
443.61	6104.12
443.80	6174.33
443.98	5907.51
444.17	5942.62
444.35	6066.67
444.54	6040.92
444.73	5930.92
444.91	6033.90
445.10	6078.37
445.28	5956.66
445.47	6113.48
445.65	6099.44
445.84	5935.60
446.02	6209.44
446.21	6183.70
446.39	6150.93
446.58	6015.18
446.77	6040.92
446.95	6181.35
447.14	6064.33
447.32	6214.12
447.51	6300.72
447.69	6289.02
447.88	6312.42
448.06	6319.45
448.25	6024.54
448.43	6211.78
448.62	6277.32
448.80	6129.86
448.99	6293.70
449.17	6317.11
449.36	6204.76
449.54	6534.78
449.73	6455.20
449.91	6375.62
450.10	6422.43
450.28	6740.74
450.46	6420.09
450.65	6473.92
450.83	6562.86
451.02	6396.68
451.20	6677.55
451.39	6604.99
451.57	6736.06
451.76	6640.10
451.94	6846.07
452.13	6715.00
452.31	6675.21
452.49	6649.46
452.68	6715.00
452.86	6911.60
453.05	6855.43
453.23	6841.39
453.42	6740.74
453.60	6825.00
453.78	6885.86
453.97	6722.02
454.15	6913.94
454.34	6892.88
454.52	7187.79
454.70	7173.74
454.89	7105.87
455.07	7098.84
455.26	7140.97
455.44	7180.76
455.62	7157.36
455.81	7148.00
455.99	7314.17
456.17	7356.30
456.36	7440.56
456.54	7449.93
456.73	7417.16
456.91	7679.30
457.09	7573.97
457.28	7616.10
457.46	7452.27
457.64	7613.76
457.83	7562.27
458.01	7508.44
458.19	7590.36
458.38	7606.74
458.56	7859.52
458.74	7681.64
458.93	7754.19
459.11	7599.72
459.29	7648.87
459.48	7894.63
459.66	7714.41
459.84	7999.95
460.03	8086.55
460.21	7953.14
460.39	8114.64
460.57	8173.15
460.76	8060.80
460.94	8112.30
461.12	8124.00
461.31	7964.84
461.49	8093.57
461.67	8149.75
461.85	8388.48
462.04	8030.38
462.22	8685.73
462.40	8393.16
462.59	8374.44
462.77	8322.94
462.95	8393.16
463.13	8463.38
463.32	8526.57
463.50	8699.77
463.68	8559.34
463.86	8580.40
464.05	8690.41
464.23	8718.50
464.41	8760.63
464.59	8446.99
464.78	8692.75
464.96	8528.91
465.14	8622.53
465.32	8655.30
465.50	8917.44
465.69	8945.53
465.87	8711.47
466.05	9001.70
466.23	8854.25
466.41	8987.66
466.60	9102.34
466.78	8961.91
466.96	8905.74
467.14	8975.95
467.32	8915.10
467.51	9252.14
467.69	8952.55
467.87	8968.93
468.05	9095.32
468.23	8943.19
468.41	9050.85
468.60	9399.59
468.78	9289.59
468.96	9022.77
469.14	9254.48
469.32	9369.16
469.50	9116.39
469.69	9771.74
469.87	9418.32
470.05	9504.92
470.23	9523.64
470.41	9570.45
470.59	9818.55
470.77	9502.58
470.95	9535.34
471.14	9846.63
471.32	9397.25
471.50	9921.53
471.68	9844.29
471.86	9975.36
472.04	10076.01
472.22	10097.07
472.40	10003.45
472.58	9966.00
472.77	10094.73
472.95	10366.23
473.13	10520.71
473.31	10300.70
473.49	10429.43
473.67	10349.85
473.85	10420.06
474.03	10530.07
474.21	10581.56
474.39	10707.95
474.57	10691.57
474.75	10743.06
474.93	10862.43
475.12	10633.05
475.30	10869.45
475.48	10963.07
475.66	11169.04
475.84	11265.00
476.02	11269.68
476.20	11178.40
476.38	11417.13
476.56	11707.36
476.74	11485.01
476.92	11510.75
477.10	11300.11
477.28	11611.40
477.46	11763.53
477.64	11871.20
477.82	11843.11
478.00	12329.94
478.18	12301.86
478.36	12180.15
478.54	12341.64
478.72	12400.16
478.90	12741.88
479.08	12840.18
479.26	12545.27
479.44	12919.76
479.62	12985.29
479.80	13128.06
479.98	12992.31
480.16	13252.11
480.34	13551.70
480.52	13621.92
480.70	13591.49
480.88	13451.06
481.06	13439.36
481.24	13317.65
481.41	13954.27
481.59	13865.33
481.77	14092.37
481.95	14338.12
482.13	14478.55
482.31	14169.60
482.49	14473.87
482.67	14633.03
482.85	14848.36
483.03	15190.08
483.21	15145.61
483.39	15171.35
483.57	14984.11
483.74	15426.47
483.92	15695.63
484.10	15358.60
484.28	16067.78
484.46	16051.39
484.64	16175.44
484.82	15854.79
485.00	16145.02
485.18	16505.46
485.35	16613.12
485.53	16676.32
485.71	16779.30
485.89	17006.33
486.07	16657.59
486.25	17301.24
486.43	17214.64
486.61	17570.40
486.78	17577.42
486.96	17500.19
487.14	17713.17
487.32	17837.22
487.50	18260.86
487.68	18214.05
487.85	18537.04
488.03	18335.76
488.21	19033.24
488.39	18616.62
488.57	18740.67
488.75	19112.81
488.92	19187.71
489.10	19463.90
489.28	19571.56
489.46	19716.67
489.64	19442.83
489.81	19751.78
489.99	20240.95
490.17	20376.70
490.35	20521.82
490.53	20549.90
490.70	20631.82
490.88	20610.76
491.06	20854.17
491.24	21144.40
491.41	20947.79
491.59	21413.56
491.77	21270.79
491.95	21774.00
492.13	21589.10
492.30	21792.73
492.48	21844.22
492.66	21851.24
492.84	22324.03
493.01	22419.99
493.19	22176.58
493.37	22450.42
493.54	22700.86
493.72	22871.72
493.90	23016.83
494.08	23314.08
494.25	23054.28
494.43	23157.26
494.61	23578.56
494.79	23543.45
494.96	23693.24
495.14	23852.40
495.32	23957.72
495.49	24086.45
495.67	24208.16
495.85	24332.21
496.02	24664.57
496.20	24922.02
496.38	24758.19
496.55	24875.21
496.73	25493.12
496.91	25256.72
497.09	25139.69
497.26	25579.71
497.44	25692.06
497.62	25853.56
497.79	26394.22
497.97	25802.07
498.14	26497.20
498.32	26508.91
498.50	26113.36
498.67	26647.00
498.85	26714.87
499.03	26668.06
499.20	27035.53
499.38	27302.35
499.56	26892.76
499.73	27023.83
499.91	27234.47
500.08	27199.37
500.26	27325.75
500.44	27438.10
500.61	27606.62
500.79	28229.20
500.97	27545.76
501.14	28343.89
501.32	28184.73
501.49	27962.38
501.67	28613.05
501.84	28554.54
502.02	28416.44
502.20	28804.97
502.37	28404.74
502.55	28556.88
502.72	29020.30
502.90	28793.27
503.07	29043.71
503.25	29209.89
503.43	29090.52
503.60	29160.73
503.78	29270.74
503.95	29479.05
504.13	29715.44
504.30	29383.09
504.48	29792.68
504.65	30061.84
504.83	30235.04
505.01	30249.08
505.18	30008.01
505.36	30464.41
505.53	30129.72
505.71	30658.68
505.88	30728.89
506.06	30565.06
506.23	30845.92
506.41	30562.72
506.58	30932.52
506.76	31281.26
506.93	31189.98
507.11	31222.75
507.28	31433.39
507.46	31274.24
507.63	31431.05
507.81	31789.16
507.98	31531.70
508.16	31524.68
508.33	31969.38
508.50	32065.34
508.68	32095.77
508.85	32360.25
509.03	32133.21
509.20	32329.82
509.38	32283.01
509.55	32938.36
509.73	32659.84
509.90	32973.47
510.08	33053.05
510.25	33062.41
510.42	32952.40
510.60	32739.41
510.77	33319.87
510.95	33450.94
511.12	33582.01
511.30	33226.24
511.47	34005.64
511.64	33631.16
511.82	33546.90
511.99	33731.80
512.17	33921.38
512.34	33666.27
512.51	34211.61
512.69	34569.71
512.86	34712.49
513.04	35108.04
513.21	34785.04
513.38	35065.91
513.56	34543.97
513.73	34600.14
513.90	34756.96
514.08	34515.88
514.25	35299.96
514.43	35021.44
514.60	35295.28
514.77	35510.61
514.95	35154.85
515.12	34876.32
515.29	35512.95
515.47	36151.91
515.64	36268.94
515.81	35962.33
515.99	36039.57
516.16	35950.63
516.33	35945.95
516.51	36313.41
516.68	36531.08
516.85	36470.23
517.03	36744.07
517.20	36435.12
517.37	36692.58
517.54	36786.20
517.72	36531.08
517.89	36980.46
518.06	36940.68
518.24	37280.05
518.41	37207.50
518.58	37191.11
518.75	37354.95
518.93	37479.00
519.10	37081.11
519.27	37390.06
519.45	37352.61
519.62	37516.45
519.79	38071.15
519.96	37464.96
520.14	38038.39
520.31	37530.49
520.48	38146.05
520.65	37963.49
520.83	38085.20
521.00	38391.81
521.17	38375.42
521.34	38876.30
521.52	38431.60
521.69	38452.66
521.86	38670.33
522.03	38904.38
522.20	39325.68
522.38	38822.47
522.55	38801.40
522.72	39054.18
522.89	38953.54
523.07	39552.71
523.24	39072.90
523.41	39047.16
523.58	39103.33
523.75	39590.16
523.92	39321.00
524.10	39754.00
524.27	39730.59
524.44	39803.15
524.61	39653.36
524.78	39793.79
524.96	39828.90
525.13	40364.88
525.30	40896.18
525.47	40339.13
525.64	40376.58
525.81	40655.11
525.98	40832.99
526.16	40865.75
526.33	40802.56
526.50	40664.47
526.67	40945.33
526.84	40713.62
527.01	40910.22
527.18	40940.65
527.36	41078.74
527.53	40872.78
527.70	41600.68
527.87	41294.07
528.04	41076.40
528.21	41448.55
528.38	41385.35
528.55	41844.10
528.72	41385.35
528.89	41275.35
529.07	41507.06
529.24	40940.65
529.41	41598.34
529.58	41610.04
529.75	42038.36
529.92	42038.36
530.09	42174.11
530.26	42211.56
530.43	41970.49
530.60	41577.28
530.77	42038.36
530.94	42351.99
531.11	42162.41
531.28	42272.42
531.46	42586.05
531.63	43248.42
531.80	42780.31
531.97	42190.50
532.14	42813.08
532.31	42813.08
532.48	42927.77
532.65	42993.30
532.82	42733.50
532.99	42890.32
533.16	43276.51
533.33	43250.76
533.50	43328.00
533.67	43426.30
533.84	43168.84
534.01	43129.05
534.18	43473.11
534.35	43498.86
534.52	43529.28
534.69	43672.06
534.86	44074.63
535.03	43531.62
535.20	43746.95
535.37	44102.71
535.54	44027.82
535.71	43639.29
535.88	43943.56
536.05	44406.98
536.22	44051.22
536.38	44023.14
536.55	44264.21
536.72	44013.77
536.89	43721.21
537.06	44322.72
537.23	44451.45
537.40	44535.71
537.57	44428.05
537.74	44989.78
537.91	44474.86
538.08	44624.65
538.25	44800.19
538.42	44713.59
538.59	45401.71
538.75	44683.17
538.92	44683.17
539.09	45170.00
539.26	45343.20
539.43	44947.65
539.60	45195.74
539.77	44886.79
539.94	45371.28
540.11	45078.72
540.28	45542.14
540.44	45612.36
540.61	45261.28
540.78	45294.05
540.95	45921.31
541.12	45315.11
541.29	45366.60
541.46	45408.73
541.62	45361.92
541.79	45911.95
541.96	45378.31
542.13	45392.35
542.30	45670.87
542.47	45963.44
542.63	46143.66
542.80	45930.67
542.97	46103.87
543.14	46508.79
543.31	46164.73
543.48	46302.82
543.64	46574.32
543.81	46628.15
543.98	46784.97
544.15	47082.22
544.32	46803.69
544.48	46941.78
544.65	47243.71
544.82	47126.69
544.99	46791.99
545.16	47089.24
545.32	47061.15
545.49	47433.30
545.66	47171.16
545.83	47496.49
546.00	47339.68
546.16	47590.11
546.33	47068.17
546.50	46897.31
546.67	47473.09
546.83	47054.13
547.00	47423.93
547.17	47566.71
547.34	47159.45
547.50	47515.22
547.67	47597.13
547.84	47491.81
548.00	47662.67
548.17	47800.76
548.34	48238.44
548.51	48027.79
548.67	48044.18
548.84	47674.37
549.01	47849.91
549.18	47669.69
549.34	47973.96
549.51	47814.80
549.68	47826.51
549.84	47702.46
550.01	48343.77
550.18	47833.53
550.34	48177.59
550.51	47915.45
550.68	48013.75
550.84	47686.07
551.01	48006.73
551.18	48062.90
551.34	48200.99
551.51	48605.91
551.68	48390.58
551.84	48706.55
552.01	48355.47
552.18	48376.53
552.34	48203.33
552.51	48549.73
552.68	48243.12
552.84	48514.62
553.01	48842.30
553.18	48559.09
553.34	49013.16
553.51	48676.12
553.67	48739.32
553.84	49144.23
554.01	48839.96
554.17	49036.56
554.34	49097.42
554.51	49301.04
554.67	49537.44
554.84	49151.25
555.00	49041.24
555.17	49275.30
555.33	49134.87
555.50	48776.76
555.67	48891.45
555.83	49434.45
556.00	49324.45
556.16	49738.72
556.33	49315.09
556.50	49614.68
556.66	49834.69
556.83	49198.06
556.99	49846.39
557.16	49399.35
557.32	49425.09
557.49	49413.39
557.65	49682.55
557.82	49911.92
557.98	49827.66
558.15	50092.15
558.32	49914.26
558.48	49979.80
558.65	49558.50
558.81	49729.36
558.98	49375.94
559.14	49961.08
559.31	49780.85
559.47	49738.72
559.64	50021.93
559.80	49918.95
559.97	49963.42
560.13	49975.12
560.30	50096.83
560.46	49722.34
560.63	49769.15
560.79	49886.18
560.96	49907.24
561.12	50244.28
561.29	50206.83
561.45	50014.91
561.61	50052.36
561.78	49703.62
561.94	50066.40
562.11	50117.89
562.27	49558.50
562.44	50351.94
562.60	50134.28
562.77	50220.87
562.93	50377.69
563.10	50775.58
563.26	50010.23
563.42	50663.24
563.59	50515.78
563.75	50131.93
563.92	50639.83
564.08	50368.33
564.24	50375.35
564.41	50600.04
564.57	50277.05
564.74	50475.99
564.90	50326.20
565.07	50590.68
565.23	50466.63
565.39	50199.81
565.56	50499.40
565.72	50241.94
565.88	50138.96
566.05	50803.67
566.21	50635.15
566.38	50707.71
566.54	50515.78
566.70	50759.20
566.87	50801.33
567.03	50340.24
567.19	50646.85
567.36	50829.41
567.52	50248.96
567.68	50497.06
567.85	50504.08
568.01	50831.75
568.17	50443.23
568.34	50761.54
568.50	50440.89
568.66	50319.18
568.83	50745.15
568.99	50548.55
569.15	50665.58
569.32	50768.56
569.48	50459.61
569.64	50801.33
569.81	50934.74
569.97	50801.33
570.13	50693.66
570.30	50578.98
570.46	50644.51
570.62	50894.95
570.78	50649.19
570.95	50787.28
571.11	50974.53
571.27	50897.29
571.43	51201.56
571.60	51004.95
571.76	50461.95
571.92	50780.26
572.09	51007.29
572.25	50916.01
572.41	50941.76
572.57	50848.14
572.74	51454.34
572.90	51042.40
573.06	51033.04
573.22	51166.45
573.38	50674.94
573.55	50808.35
573.71	51377.10
573.87	50962.82
574.03	51028.36
574.20	50688.98
574.36	50829.41
574.52	51159.43
574.68	51075.17
574.84	51281.14
575.01	51269.43
575.17	51283.48
575.33	50855.16
575.49	50955.80
575.65	51264.75
575.82	51103.26
575.98	50710.05
576.14	51044.74
576.30	51304.54
576.46	51281.14
576.62	50836.44
576.79	51089.21
576.95	51011.98
577.11	51285.82
577.27	51079.85
577.43	50958.14
577.59	51016.66
577.75	51136.02
577.92	51100.92
578.08	51145.39
578.24	51447.32
578.40	51669.67
578.56	51077.51
578.72	51257.73
578.88	51119.64
579.04	51480.08
579.21	51281.14
579.37	51454.34
579.53	51210.92
579.69	51426.25
579.85	51473.06
580.01	51302.20
580.17	51393.48
580.33	51358.38
580.49	51435.61
580.65	51063.47
580.82	51152.41
580.98	51136.02
581.14	51220.28
581.30	51398.16
581.46	51248.37
581.62	51676.69
581.78	51587.75
581.94	51737.54
582.10	51119.64
582.26	50974.53
582.42	51498.81
582.58	51061.13
582.74	50686.64
582.90	51402.85
583.06	51391.14
583.22	51304.54
583.38	51697.75
583.54	51374.76
583.70	51168.79
583.86	51543.28
584.02	51580.73
584.18	51559.66
584.34	51641.58
584.50	51519.87
584.66	51667.33
584.82	51353.69
584.98	51627.54
585.14	51625.20
585.30	51377.10
585.46	51779.67
585.62	51496.47
585.78	51435.61
585.94	51302.20
586.10	51475.40
586.26	51313.90
586.42	51615.83
586.58	51344.33
586.74	51227.31
586.90	51714.14
587.06	51683.71
587.22	51924.78
587.38	51491.79
587.54	51681.37
587.70	51573.70
587.86	51737.54
588.02	51491.79
588.18	51737.54
588.34	51316.25
588.49	51950.53
588.65	51714.14
588.81	51697.75
588.97	51920.10
589.13	51791.37
589.29	52069.90
589.45	51746.90
589.61	51744.56
589.77	51899.04
589.93	51737.54
590.08	51892.02
590.24	51777.33
590.40	51842.87
590.56	52275.87
