SpectraSuite Data File
++++++++++++++++++++++++++++++++++++
Date: Fri Oct 04 11:39:42 GMT-05:00 2013
User: price-jones
Dark Spectrum Present: No
Reference Spectrum Present: No
Number of Sampled Component Spectra: 1
Spectrometers: USB2+H05261
Integration Time (usec): 100000 (USB2+H05261)
Spectra Averaged: 1 (USB2+H05261)
Boxcar Smoothing: 0 (USB2+H05261)
Correct for Electrical Dark: No (USB2+H05261)
Strobe/Lamp Enabled: No (USB2+H05261)
Correct for Detector Non-linearity: No (USB2+H05261)
Correct for Stray Light: No (USB2+H05261)
Number of Pixels in Processed Spectrum: 2048
>>>>>Begin Processed Spectral Data<<<<<
365.73	18.72
365.92	18.72
366.12	18.72
366.32	0.00
366.52	0.00
366.72	16.38
366.91	30.43
367.11	0.00
367.31	25.75
367.51	0.00
367.70	0.00
367.90	0.00
368.10	0.00
368.30	0.00
368.49	0.00
368.69	30.43
368.89	0.00
369.09	0.00
369.28	25.75
369.48	0.00
369.68	0.00
369.87	2.34
370.07	0.00
370.27	65.54
370.47	81.92
370.66	138.09
370.86	159.16
371.06	131.07
371.25	189.58
371.45	159.16
371.65	168.52
371.84	138.09
372.04	121.71
372.24	126.39
372.44	182.56
372.63	152.13
372.83	266.82
373.03	220.01
373.22	170.86
373.42	245.76
373.62	196.60
373.81	227.03
374.01	266.82
374.21	273.84
374.40	180.22
374.60	271.50
374.79	222.35
374.99	187.24
375.19	266.82
375.38	280.86
375.58	238.73
375.78	241.08
375.97	194.26
376.17	280.86
376.37	215.33
376.56	212.99
376.76	252.78
376.95	269.16
377.15	205.97
377.35	234.05
377.54	166.18
377.74	217.67
377.93	252.78
378.13	187.24
378.33	271.50
378.52	189.58
378.72	257.46
378.91	304.27
379.11	222.35
379.31	245.76
379.50	220.01
379.70	236.39
379.89	222.35
380.09	229.37
380.28	227.03
380.48	191.92
380.68	259.80
380.87	224.69
381.07	229.37
381.26	257.46
381.46	306.61
381.65	290.23
381.85	262.14
382.04	222.35
382.24	290.23
382.43	180.22
382.63	184.90
382.83	208.31
383.02	322.99
383.22	252.78
383.41	278.52
383.61	231.71
383.80	337.04
384.00	217.67
384.19	318.31
384.39	285.55
384.58	243.42
384.78	337.04
384.97	292.57
385.17	262.14
385.36	236.39
385.56	278.52
385.75	273.84
385.95	276.18
386.14	280.86
386.34	297.25
386.53	306.61
386.72	358.10
386.92	334.70
387.11	311.29
387.31	351.08
387.50	234.05
387.70	351.08
387.89	278.52
388.09	280.86
388.28	224.69
388.48	287.89
388.67	318.31
388.86	313.63
389.06	318.31
389.25	322.99
389.45	355.76
389.64	308.95
389.84	217.67
390.03	374.49
390.22	374.49
390.42	294.91
390.61	353.42
390.81	259.80
391.00	304.27
391.19	351.08
391.39	285.55
391.58	315.97
391.78	381.51
391.97	332.36
392.16	308.95
392.36	362.78
392.55	379.17
392.75	332.36
392.94	393.21
393.13	341.72
393.33	383.85
393.52	365.12
393.71	395.55
393.91	374.49
394.10	386.19
394.29	367.46
394.49	358.10
394.68	404.91
394.88	486.83
395.07	461.09
395.26	489.17
395.46	416.62
395.65	374.49
395.84	414.27
396.04	512.58
396.23	425.98
396.42	409.59
396.62	486.83
396.81	496.19
397.00	414.27
397.19	423.64
397.39	472.79
397.58	470.45
397.77	472.79
397.97	531.30
398.16	477.47
398.35	475.13
398.55	493.85
398.74	564.07
398.93	535.98
399.12	503.22
399.32	547.69
399.51	503.22
399.70	498.53
399.90	557.05
400.09	596.84
400.28	615.56
400.47	538.32
400.67	573.43
400.86	580.45
401.05	648.33
401.24	678.76
401.44	706.84
401.63	594.50
401.82	643.65
402.01	631.94
402.21	622.58
402.40	681.10
402.59	617.90
402.78	650.67
402.97	713.86
403.17	706.84
403.36	617.90
403.55	664.71
403.74	685.78
403.93	746.63
404.13	786.42
404.32	840.25
404.51	816.85
404.70	746.63
404.89	683.44
405.09	734.93
405.28	873.02
405.47	772.38
405.66	851.96
405.85	842.59
406.05	884.72
406.24	938.55
406.43	833.23
406.62	830.89
406.81	856.64
407.00	863.66
407.20	889.40
407.39	912.81
407.58	898.77
407.77	968.98
407.96	919.83
408.15	912.81
408.34	964.30
408.54	1001.75
408.73	1004.09
408.92	1046.22
409.11	1137.50
409.30	952.60
409.49	983.02
409.68	1109.41
409.87	1090.69
410.07	1125.80
410.26	1081.33
410.45	1093.03
410.64	1090.69
410.83	1179.63
411.02	1196.01
411.21	1256.87
411.40	1268.57
411.59	1231.12
411.78	1200.69
411.98	1228.78
412.17	1345.81
412.36	1313.04
412.55	1315.38
412.74	1394.96
412.93	1357.51
413.12	1397.30
413.31	1401.98
413.50	1362.19
413.69	1355.17
413.88	1495.60
414.07	1418.36
414.26	1493.26
414.45	1458.15
414.64	1537.73
414.83	1626.67
415.02	1540.07
415.22	1600.93
415.41	1565.82
415.60	1561.14
415.79	1636.03
415.98	1631.35
416.17	1659.44
416.36	1792.85
416.55	1741.36
416.74	1699.23
416.93	1792.85
417.12	1671.14
417.31	1884.13
417.50	1792.85
417.69	1888.81
417.88	1877.11
418.07	1888.81
418.26	1764.76
418.45	1987.11
418.64	1902.86
418.83	1888.81
419.02	1952.01
419.21	1991.80
419.39	1891.15
419.58	1921.58
419.77	1900.52
419.96	1912.22
420.15	2036.27
420.34	2071.37
420.53	2090.10
420.72	2157.97
420.91	2031.58
421.10	2118.18
421.29	2155.63
421.48	2052.65
421.67	2125.21
421.86	2127.55
422.05	2157.97
422.24	2083.08
422.43	2183.72
422.61	2230.53
422.80	2197.76
422.99	2221.17
423.18	2216.49
423.37	2214.15
423.56	2167.34
423.75	2242.23
423.94	2188.40
424.13	2036.27
424.32	2186.06
424.50	2169.68
424.69	2263.30
424.88	2377.98
425.07	2291.38
425.26	2146.27
425.45	2265.64
425.64	2242.23
425.83	2186.06
426.01	2303.09
426.20	2204.78
426.39	2244.57
426.58	2172.02
426.77	2310.11
426.96	2324.15
427.15	2363.94
427.33	2370.96
427.52	2286.70
427.71	2485.65
427.90	2361.60
428.09	2345.22
428.28	2345.22
428.46	2431.82
428.65	2340.54
428.84	2605.02
429.03	2373.30
429.22	2373.30
429.40	2541.82
429.59	2415.43
429.78	2321.81
429.97	2380.32
430.16	2434.16
430.34	2511.39
430.53	2525.44
430.72	2548.84
430.91	2490.33
431.10	2534.80
431.28	2649.49
431.47	2689.28
431.66	2609.70
431.85	2576.93
432.03	2670.55
432.22	2829.71
432.41	2822.69
432.60	2726.72
432.79	2733.75
432.97	2663.53
433.16	2703.32
433.35	2717.36
433.54	2750.13
433.72	2820.35
433.91	2775.88
434.10	2775.88
434.28	2892.90
434.47	2813.32
434.66	2771.19
434.85	2944.39
435.03	2874.18
435.22	3089.51
435.41	3311.86
435.59	3246.32
435.78	3077.80
435.97	3126.96
436.16	2993.55
436.34	2970.14
436.53	2892.90
436.72	2953.76
436.90	2995.89
437.09	3040.36
437.28	3052.06
437.46	2946.73
437.65	2991.20
437.84	3122.27
438.02	3164.40
438.21	3148.02
438.40	3112.91
438.58	3171.43
438.77	3332.92
438.96	3185.47
439.14	3265.05
439.33	3211.22
439.52	3307.18
439.70	3375.05
439.89	3225.26
440.08	3227.60
440.26	3454.63
440.45	3368.03
440.63	3375.05
440.82	3492.08
441.01	3428.88
441.19	3534.21
441.38	3592.72
441.57	3463.99
441.75	3473.36
441.94	3653.58
442.12	3613.79
442.31	3684.00
442.50	3674.64
442.68	3609.11
442.87	3737.84
443.05	3588.04
443.24	3801.03
443.43	3763.58
443.61	3716.77
443.80	3892.31
443.98	3693.37
444.17	3691.02
444.35	3798.69
444.54	3794.01
444.73	3808.05
444.91	3672.30
445.10	3859.54
445.28	3719.11
445.47	3644.21
445.65	3838.48
445.84	3758.90
446.02	3875.93
446.21	3892.31
446.39	3815.07
446.58	3822.09
446.77	3719.11
446.95	3840.82
447.14	3831.46
447.32	3922.74
447.51	3894.65
447.69	3896.99
447.88	3871.25
448.06	3901.67
448.25	3948.48
448.43	3957.85
448.62	4007.00
448.80	3950.82
448.99	3885.29
449.17	3920.40
449.36	4114.66
449.54	4042.11
449.73	4313.61
449.91	4002.32
450.10	4070.19
450.28	4217.65
450.46	4173.18
450.65	4173.18
450.83	4273.82
451.02	4081.89
451.20	4224.67
451.39	4311.27
451.57	4140.41
451.76	4243.39
451.94	4234.03
452.13	4292.54
452.31	4243.39
452.49	4159.13
452.68	4355.74
452.86	4133.39
453.05	4339.35
453.23	4568.73
453.42	4320.63
453.60	4344.03
453.78	4498.51
453.97	4435.32
454.15	4428.29
454.34	4397.87
454.52	4461.06
454.70	4484.47
454.89	4365.10
455.07	4465.74
455.26	4463.40
455.44	4507.87
455.62	4594.47
455.81	4697.46
455.99	4564.04
456.17	4564.04
456.36	4519.57
456.54	4620.22
456.73	4678.73
456.91	4592.13
457.09	4828.53
457.28	4798.10
457.46	4781.71
457.64	4798.10
457.83	4898.74
458.01	4727.88
458.19	4875.34
458.38	4844.91
458.56	4873.00
458.74	4964.28
458.93	4964.28
459.11	4994.70
459.29	4917.47
459.48	4746.61
459.66	4933.85
459.84	4929.17
460.03	5193.65
460.21	5139.82
460.39	5107.05
460.57	4961.94
460.76	4919.81
460.94	5050.88
461.12	5027.47
461.31	4968.96
461.49	5100.03
461.67	5032.15
461.85	5188.97
462.04	5081.30
462.22	5685.16
462.40	5240.46
462.59	5139.82
462.77	5146.84
462.95	5322.38
463.13	5125.77
463.32	5404.30
463.50	5313.02
463.68	5266.21
463.86	5427.70
464.05	5397.28
464.23	5364.51
464.41	5462.81
464.59	5219.39
464.78	5364.51
464.96	5432.38
465.14	5364.51
465.32	5563.45
465.50	5432.38
465.69	5514.30
465.87	5561.11
466.05	5430.04
466.23	5493.24
466.41	5528.35
466.60	5603.24
466.78	5373.87
466.96	5439.40
467.14	5493.24
467.32	5530.69
467.51	5533.03
467.69	5572.82
467.87	5724.95
468.05	5607.92
468.23	5556.43
468.41	5687.50
468.60	5743.67
468.78	5619.63
468.96	5544.73
469.14	5788.14
469.32	5839.64
469.50	5722.61
469.69	5804.53
469.87	5865.38
470.05	5846.66
470.23	5834.96
470.41	5926.24
470.59	5907.51
470.77	5984.75
470.95	6064.33
471.14	5980.07
471.32	5980.07
471.50	5951.98
471.68	5987.09
471.86	6099.44
472.04	5989.43
472.22	6286.68
472.40	6012.84
472.58	6136.88
472.77	6314.77
472.95	6218.80
473.13	6626.06
473.31	6361.58
473.49	6181.35
473.67	6436.47
473.85	6469.24
474.03	6649.46
474.21	6513.71
474.39	6604.99
474.57	6443.49
474.75	6600.31
474.93	6614.35
475.12	6670.53
475.30	6696.27
475.48	6630.74
475.66	6752.45
475.84	6740.74
476.02	6825.00
476.20	6867.13
476.38	6979.48
476.56	7220.55
476.74	7077.78
476.92	7080.12
477.10	7059.06
477.28	7089.48
477.46	7368.01
477.64	7248.64
477.82	7269.70
478.00	7597.38
478.18	7356.30
478.36	7382.05
478.54	7644.19
478.72	7709.72
478.90	7709.72
479.08	7758.88
479.26	7688.66
479.44	7950.80
479.62	7955.48
479.80	8004.63
479.98	8100.59
480.16	8177.83
480.34	7999.95
480.52	8245.71
480.70	8344.01
480.88	8135.70
481.06	8421.25
481.24	8416.57
481.41	8454.02
481.59	8573.38
481.77	8624.87
481.95	8685.73
482.13	8587.43
482.31	8669.34
482.49	8772.33
482.67	8938.51
482.85	9006.38
483.03	9245.12
483.21	9238.09
483.39	9158.52
483.57	9139.79
483.74	9254.48
483.92	9298.95
484.10	9338.74
484.28	9579.81
484.46	9722.59
484.64	9762.37
484.82	9624.28
485.00	9762.37
485.18	10078.35
485.35	9949.62
485.53	10094.73
485.71	10094.73
485.89	10263.25
486.07	10239.84
486.25	10431.77
486.43	10459.85
486.61	10328.78
486.78	10733.70
486.96	10710.29
487.14	10885.83
487.32	10855.40
487.50	10974.77
487.68	11000.52
487.85	10953.71
488.03	11187.76
488.21	11583.31
488.39	11332.87
488.57	11480.33
488.75	11477.99
488.92	11826.73
489.10	11442.88
489.28	11709.70
489.46	12028.01
489.64	11815.02
489.81	12334.62
489.99	12219.94
490.17	12180.15
490.35	12315.90
490.53	12339.30
490.70	12147.38
490.88	12578.04
491.06	12688.04
491.24	12776.98
491.41	12559.31
491.59	12819.11
491.77	13064.87
491.95	12952.52
492.13	13011.04
492.30	13324.67
492.48	13172.54
492.66	13116.36
492.84	13390.20
493.01	13310.63
493.19	13427.65
493.37	13575.11
493.54	13453.40
493.72	13767.03
493.90	13584.47
494.08	13710.86
494.25	14125.13
494.43	14024.49
494.61	14083.00
494.79	14101.73
494.96	14064.28
495.14	14375.57
495.32	14518.34
495.49	14731.33
495.67	14436.42
495.85	14626.01
496.02	14532.39
496.20	14857.72
496.38	14700.90
496.55	14665.80
496.73	15264.97
496.91	15300.08
497.09	15445.20
497.26	15211.14
497.44	15122.20
497.62	15194.76
497.79	15454.56
497.97	15679.25
498.14	15531.80
498.32	15618.39
498.50	15903.94
498.67	15782.23
498.85	15585.63
499.03	15845.43
499.20	15857.13
499.38	15974.16
499.56	16070.12
499.73	16259.70
499.91	16409.50
500.08	16210.55
500.26	16175.44
500.44	16582.70
500.61	16570.99
500.79	16554.61
500.97	16695.04
501.14	17008.67
501.32	16779.30
501.49	16954.84
501.67	16975.91
501.84	16809.73
502.02	17151.45
502.20	17373.80
502.37	17202.94
502.55	17205.28
502.72	17462.74
502.90	17404.22
503.07	17212.30
503.25	17476.78
503.43	17376.14
503.60	17493.16
503.78	17994.04
503.95	17352.73
504.13	17504.87
504.30	17731.90
504.48	17589.13
504.65	17811.48
504.83	17799.77
505.01	18012.76
505.18	17895.74
505.36	18211.71
505.53	17813.82
505.71	17731.90
505.88	18134.47
506.06	18001.06
506.23	18356.82
506.41	18319.37
506.58	18462.15
506.76	18345.12
506.93	18457.46
507.11	18583.85
507.28	18494.91
507.46	18897.49
507.63	18824.93
507.81	19246.23
507.98	18845.99
508.16	18787.48
508.33	18836.63
508.50	19061.32
508.68	18984.09
508.85	19381.98
509.03	19190.05
509.20	19250.91
509.38	19367.93
509.55	19662.84
509.73	19529.43
509.90	19735.40
510.08	19426.45
510.25	19557.52
510.42	19805.61
510.60	19765.82
510.77	20044.35
510.95	20184.78
511.12	19707.31
511.30	19613.69
511.47	19871.15
511.64	20128.61
511.82	20189.46
511.99	20362.66
512.17	20421.17
512.34	20299.47
512.51	20276.06
512.69	20585.01
512.86	20425.86
513.04	20566.29
513.21	20577.99
513.38	20800.34
513.56	20732.47
513.73	20299.47
513.90	20751.19
514.08	20540.54
514.25	21081.21
514.43	21149.08
514.60	21116.31
514.77	21137.38
514.95	21429.94
515.12	21282.49
515.29	20989.92
515.47	21216.96
515.64	21448.67
515.81	21333.98
515.99	21434.63
516.16	21701.45
516.33	21509.52
516.51	21443.99
516.68	21465.05
516.85	21713.15
517.03	21879.33
517.20	21825.50
517.37	21614.85
517.54	21823.16
517.72	22174.24
517.89	21759.96
518.06	22101.68
518.24	22085.30
518.41	21963.59
518.58	22291.26
518.75	22244.45
518.93	22567.45
519.10	22005.72
519.27	22099.34
519.45	22274.88
519.62	22427.01
519.79	22239.77
519.96	22497.23
520.14	22417.65
520.31	22719.58
520.48	22663.41
520.65	22932.57
520.83	23159.60
521.00	22845.97
521.17	22920.87
521.34	22925.55
521.52	23080.02
521.69	23110.45
521.86	23426.42
522.03	23185.35
522.20	23171.30
522.38	22897.46
522.55	23051.94
522.72	23140.88
522.89	23658.14
523.07	23709.63
523.24	23683.88
523.41	23536.43
523.58	23426.42
523.75	23728.35
523.92	23232.16
524.10	23679.20
524.27	23632.39
524.44	24053.69
524.61	23962.40
524.78	23847.72
524.96	24161.35
525.13	23824.31
525.30	24144.97
525.47	24271.36
525.64	24077.09
525.81	24144.97
525.98	24297.10
526.16	24292.42
526.33	24247.95
526.50	24474.98
526.67	23880.49
526.84	24056.03
527.01	24381.36
527.18	24074.75
527.36	24793.29
527.53	24687.97
527.70	24978.20
527.87	24439.87
528.04	24699.67
528.21	24709.04
528.38	24589.67
528.55	25013.31
528.72	24737.12
528.89	24608.39
529.07	24900.96
529.24	24922.02
529.41	25043.73
529.58	24996.92
529.75	25123.31
529.92	24720.74
530.09	25120.97
530.26	24786.27
530.43	24945.43
530.60	25034.37
530.77	25287.15
530.94	25476.73
531.11	25458.01
531.28	25259.06
531.46	25357.36
531.63	25394.81
531.80	25287.15
531.97	25455.67
532.14	25411.20
532.31	25745.89
532.48	25549.29
532.65	25535.24
532.82	25298.85
532.99	25855.90
533.16	25593.76
533.33	25781.00
533.50	25886.32
533.67	26382.52
533.84	25699.08
534.01	25834.83
534.18	26181.23
534.35	25832.49
534.52	25813.77
534.69	26415.29
534.86	26244.43
535.03	25820.79
535.20	26118.04
535.37	26345.07
535.54	26377.84
535.71	25806.75
535.88	26663.38
536.05	26380.18
536.22	26417.63
536.38	26394.22
536.55	26773.39
536.72	26501.89
536.89	26515.93
537.06	26623.59
537.23	26562.74
537.40	26621.25
537.57	26618.91
537.74	26719.56
537.91	26686.79
538.08	27131.49
538.25	27063.61
538.42	27080.00
538.59	27000.42
538.75	26689.13
538.92	26951.27
539.09	27164.26
539.26	27304.69
539.43	26995.74
539.60	27215.75
539.77	27026.17
539.94	27117.45
540.11	27346.82
540.28	27634.71
540.44	27360.86
540.61	27447.46
540.78	27297.67
540.95	27517.68
541.12	27653.43
541.29	28053.66
541.46	27646.41
541.62	27765.78
541.79	27482.57
541.96	27421.72
542.13	27789.18
542.30	27690.88
542.47	28098.13
542.63	28102.81
542.80	28086.43
542.97	28343.89
543.14	28369.63
543.31	27969.40
543.48	28287.71
543.64	28250.27
543.81	28591.98
543.98	28472.62
544.15	27971.74
544.32	28313.46
544.48	28510.07
544.65	28533.47
544.82	28439.85
544.99	28201.11
545.16	28533.47
545.32	28545.17
545.49	28844.76
545.66	29275.42
545.83	29776.30
546.00	29560.97
546.16	28819.02
546.33	28496.02
546.50	28400.06
546.67	28709.01
546.83	28210.48
547.00	28905.62
547.17	28278.35
547.34	28271.33
547.50	29003.92
547.67	28950.09
547.84	28737.10
548.00	28872.85
548.17	28821.36
548.34	28683.27
548.51	29029.66
548.67	28769.86
548.84	29216.91
549.01	29139.67
549.18	28936.04
549.34	28933.70
549.51	28865.83
549.68	28971.15
549.84	28753.48
550.01	29282.44
550.18	28769.86
550.34	29113.92
550.51	28800.29
550.68	29184.14
550.84	28872.85
551.01	29376.06
551.18	29184.14
551.34	28882.21
551.51	29146.69
551.68	29125.63
551.84	29282.44
552.01	29060.09
552.18	29242.65
552.34	29188.82
552.51	29053.07
552.68	29181.80
552.84	29268.40
553.01	28985.19
553.18	29116.26
553.34	29352.66
553.51	29914.39
553.67	29420.53
553.84	29343.30
554.01	29486.07
554.17	29099.88
554.34	29387.77
554.51	29294.14
554.67	29434.58
554.84	29624.16
555.00	29626.50
555.17	29195.84
555.33	29549.26
555.50	29460.32
555.67	29338.62
555.83	29357.34
556.00	29572.67
556.16	29766.93
556.33	29614.80
556.50	29577.35
556.66	29874.60
556.83	29549.26
556.99	29677.99
557.16	29841.83
557.32	30082.91
557.49	29883.96
557.65	29366.70
557.82	29598.41
557.98	29654.59
558.15	30066.52
558.32	29853.53
558.48	29682.67
558.65	30047.80
558.81	30043.12
558.98	29626.50
559.14	29715.44
559.31	29406.49
559.47	29888.64
559.64	29893.32
559.80	29759.91
559.97	30359.09
560.13	29769.27
560.30	29879.28
560.46	29968.22
560.63	29785.66
560.79	30206.95
560.96	30375.47
561.12	29839.49
561.29	30300.58
561.45	30031.41
561.61	29970.56
561.78	30078.22
561.94	29996.31
562.11	29984.60
562.27	29935.45
562.44	29867.58
562.60	29895.66
562.77	30167.16
562.93	29956.52
563.10	30197.59
563.26	29909.71
563.42	30396.54
563.59	30218.66
563.75	29876.94
563.92	30321.64
564.08	29598.41
564.24	30127.38
564.41	30146.10
564.57	29900.34
564.74	30309.94
564.90	30391.86
565.07	30134.40
565.23	30216.32
565.39	30359.09
565.56	30216.32
565.72	30190.57
565.88	30118.01
566.05	29860.55
566.21	29888.64
566.38	30302.92
566.54	30132.06
566.70	30211.64
566.87	30443.35
567.03	30686.76
567.19	30600.16
567.36	30590.80
567.52	30000.99
567.68	30658.68
567.85	30143.76
568.01	30356.75
568.17	30373.13
568.34	30429.30
568.50	30733.57
568.66	30445.69
568.83	30492.50
568.99	30265.47
569.15	30749.96
569.32	30085.25
569.48	30010.35
569.64	30300.58
569.81	30401.22
569.97	30190.57
570.13	30183.55
570.30	30080.56
570.46	30361.43
570.62	30218.66
570.78	30078.22
570.95	30213.98
571.11	30284.19
571.27	30497.18
571.43	30342.70
571.60	30588.46
571.76	30646.97
571.92	30555.69
572.09	30473.78
572.25	30307.60
572.41	30338.02
572.57	30527.61
572.74	30281.85
572.90	30609.53
573.06	30501.86
573.22	30321.64
573.38	30267.81
573.55	30529.95
573.71	31007.42
573.87	30696.13
574.03	30698.47
574.20	30382.49
574.36	30464.41
574.52	30574.42
574.68	30668.04
574.84	30607.19
575.01	30642.29
575.17	30532.29
575.33	30384.83
575.49	30340.36
575.65	30857.62
575.82	30735.92
575.98	30506.54
576.14	30740.60
576.30	30705.49
576.46	30382.49
576.62	30820.17
576.79	30707.83
576.95	30782.73
577.11	30429.30
577.27	30611.87
577.43	30625.91
577.59	30733.57
577.75	30005.67
577.92	30515.90
578.08	30536.97
578.24	30302.92
578.40	30520.59
578.56	30686.76
578.72	31157.21
578.88	30738.26
579.04	30953.58
579.21	30850.60
579.37	30508.88
579.53	30473.78
579.69	30775.70
579.85	30366.11
580.01	30679.74
580.17	30682.08
580.33	30462.07
580.49	30506.54
580.65	30897.41
580.82	30672.72
580.98	30874.01
581.14	30658.68
581.30	30810.81
581.46	30270.15
581.62	30682.08
581.78	30548.67
581.94	30632.93
582.10	30789.75
582.26	30618.89
582.42	30693.79
582.58	30820.17
582.74	30911.46
582.90	30639.95
583.06	30841.24
583.22	30036.09
583.38	30157.80
583.54	30274.83
583.70	30785.07
583.86	30693.79
584.02	30595.48
584.18	30859.96
584.34	30675.06
584.50	30735.92
584.66	30733.57
584.82	30614.21
584.98	30574.42
585.14	30529.95
585.30	30639.95
585.46	30602.50
585.62	30118.01
585.78	30529.95
585.94	30728.89
586.10	30810.81
586.26	30703.15
586.42	30913.80
586.58	30693.79
586.74	30787.41
586.90	30965.29
587.06	30600.16
587.22	30822.51
587.38	30658.68
587.54	31009.76
587.70	30916.14
587.86	31159.55
588.02	30785.07
588.18	31171.25
588.34	30866.98
588.49	30464.41
588.65	30188.23
588.81	30775.70
588.97	30976.99
589.13	31016.78
589.29	30866.98
589.45	31103.38
589.61	31021.46
589.77	31070.61
589.93	31283.60
590.08	31152.53
590.24	30775.70
590.40	30689.10
590.56	31042.53
590.72	30735.92
590.88	30560.37
591.04	30691.44
591.20	31213.38
591.35	31110.40
591.51	31379.56
591.67	30986.35
591.83	30897.41
