SpectraSuite Data File
++++++++++++++++++++++++++++++++++++
Date: Fri Oct 04 11:39:11 GMT-05:00 2013
User: price-jones
Dark Spectrum Present: No
Reference Spectrum Present: No
Number of Sampled Component Spectra: 1
Spectrometers: USB2+H05261
Integration Time (usec): 100000 (USB2+H05261)
Spectra Averaged: 1 (USB2+H05261)
Boxcar Smoothing: 0 (USB2+H05261)
Correct for Electrical Dark: No (USB2+H05261)
Strobe/Lamp Enabled: No (USB2+H05261)
Correct for Detector Non-linearity: No (USB2+H05261)
Correct for Stray Light: No (USB2+H05261)
Number of Pixels in Processed Spectrum: 2048
>>>>>Begin Processed Spectral Data<<<<<
365.73	63.19
365.92	63.19
366.12	63.19
366.32	0.00
366.52	0.00
366.72	0.00
366.91	0.00
367.11	0.00
367.31	0.00
367.51	0.00
367.70	0.00
367.90	0.00
368.10	0.00
368.30	0.00
368.49	0.00
368.69	0.00
368.89	0.00
369.09	0.00
369.28	60.85
369.48	0.00
369.68	7.02
369.87	30.43
370.07	0.00
370.27	42.13
370.47	60.85
370.66	30.43
370.86	21.06
371.06	163.84
371.25	182.56
371.45	114.69
371.65	119.37
371.84	156.82
372.04	121.71
372.24	166.18
372.44	84.26
372.63	189.58
372.83	184.90
373.03	110.01
373.22	198.95
373.42	166.18
373.62	147.45
373.81	238.73
374.01	126.39
374.21	175.54
374.40	117.03
374.60	154.48
374.79	222.35
374.99	212.99
375.19	156.82
375.38	154.48
375.58	266.82
375.78	337.04
375.97	255.12
376.17	191.92
376.37	159.16
376.56	210.65
376.76	124.05
376.95	117.03
377.15	177.88
377.35	191.92
377.54	175.54
377.74	163.84
377.93	128.73
378.13	135.75
378.33	161.50
378.52	168.52
378.72	252.78
378.91	166.18
379.11	133.41
379.31	182.56
379.50	194.26
379.70	177.88
379.89	149.79
380.09	128.73
380.28	152.13
380.48	147.45
380.68	198.95
380.87	156.82
381.07	252.78
381.26	208.31
381.46	231.71
381.65	196.60
381.85	163.84
382.04	184.90
382.24	173.20
382.43	163.84
382.63	131.07
382.83	135.75
383.02	191.92
383.22	287.89
383.41	180.22
383.61	161.50
383.80	208.31
384.00	248.10
384.19	182.56
384.39	229.37
384.58	238.73
384.78	236.39
384.97	250.44
385.17	224.69
385.36	203.63
385.56	173.20
385.75	145.11
385.95	308.95
386.14	175.54
386.34	196.60
386.53	168.52
386.72	191.92
386.92	292.57
387.11	220.01
387.31	255.12
387.50	266.82
387.70	212.99
387.89	259.80
388.09	166.18
388.28	306.61
388.48	187.24
388.67	241.08
388.86	203.63
389.06	170.86
389.25	215.33
389.45	227.03
389.64	187.24
389.84	215.33
390.03	259.80
390.22	191.92
390.42	208.31
390.61	287.89
390.81	187.24
391.00	229.37
391.19	238.73
391.39	212.99
391.58	241.08
391.78	220.01
391.97	255.12
392.16	252.78
392.36	241.08
392.55	238.73
392.75	297.25
392.94	220.01
393.13	210.65
393.33	224.69
393.52	180.22
393.71	287.89
393.91	248.10
394.10	191.92
394.29	208.31
394.49	212.99
394.68	301.93
394.88	241.08
395.07	327.68
395.26	306.61
395.46	313.63
395.65	308.95
395.84	222.35
396.04	376.83
396.23	205.97
396.42	231.71
396.62	285.55
396.81	311.29
397.00	245.76
397.19	241.08
397.39	259.80
397.58	278.52
397.77	271.50
397.97	241.08
398.16	259.80
398.35	250.44
398.55	273.84
398.74	322.99
398.93	266.82
399.12	304.27
399.32	330.02
399.51	322.99
399.70	322.99
399.90	290.23
400.09	290.23
400.28	332.36
400.47	348.74
400.67	308.95
400.86	327.68
401.05	271.50
401.24	306.61
401.44	388.53
401.63	290.23
401.82	320.65
402.01	325.33
402.21	341.72
402.40	358.10
402.59	339.38
402.78	308.95
402.97	299.59
403.17	337.04
403.36	318.31
403.55	299.59
403.74	374.49
403.93	362.78
404.13	390.87
404.32	468.11
404.51	348.74
404.70	393.21
404.89	337.04
405.09	444.70
405.28	308.95
405.47	360.44
405.66	397.89
405.85	421.30
406.05	308.95
406.24	355.76
406.43	362.78
406.62	339.38
406.81	400.23
407.00	339.38
407.20	372.15
407.39	353.42
407.58	437.68
407.77	393.21
407.96	454.06
408.15	365.12
408.34	400.23
408.54	369.80
408.73	470.45
408.92	407.25
409.11	444.70
409.30	442.36
409.49	390.87
409.68	344.06
409.87	411.93
410.07	416.62
410.26	507.90
410.45	496.19
410.64	430.66
410.83	489.17
411.02	465.77
411.21	510.24
411.40	472.79
411.59	435.34
411.78	433.00
411.98	465.77
412.17	528.96
412.36	435.34
412.55	489.17
412.74	550.03
412.93	550.03
413.12	486.83
413.31	545.34
413.50	456.40
413.69	465.77
413.88	550.03
414.07	540.66
414.26	554.71
414.45	526.62
414.64	477.47
414.83	629.60
415.02	498.53
415.22	531.30
415.41	608.54
415.60	486.83
415.79	540.66
415.98	608.54
416.17	528.96
416.36	554.71
416.55	599.18
416.74	610.88
416.93	550.03
417.12	589.82
417.31	601.52
417.50	620.24
417.69	617.90
417.88	650.67
418.07	636.63
418.26	636.63
418.45	650.67
418.64	716.20
418.83	596.84
419.02	674.07
419.21	606.20
419.39	657.69
419.58	667.05
419.77	643.65
419.96	655.35
420.15	599.18
420.34	585.13
420.53	624.92
420.72	596.84
420.91	657.69
421.10	667.05
421.29	622.58
421.48	627.26
421.67	622.58
421.86	711.52
422.05	676.41
422.24	671.73
422.43	664.71
422.61	634.29
422.80	688.12
422.99	706.84
423.18	734.93
423.37	732.59
423.56	622.58
423.75	655.35
423.94	748.97
424.13	660.03
424.32	580.45
424.50	706.84
424.69	688.12
424.88	800.46
425.07	692.80
425.26	648.33
425.45	688.12
425.64	667.05
425.83	753.65
426.01	709.18
426.20	709.18
426.39	645.99
426.58	791.10
426.77	709.18
426.96	662.37
427.15	716.20
427.33	753.65
427.52	720.88
427.71	690.46
427.90	692.80
428.09	702.16
428.28	758.33
428.46	683.44
428.65	676.41
428.84	739.61
429.03	781.74
429.22	791.10
429.40	734.93
429.59	706.84
429.78	737.27
429.97	793.44
430.16	716.20
430.34	681.10
430.53	779.40
430.72	788.76
430.91	739.61
431.10	795.78
431.28	793.44
431.47	870.68
431.66	786.42
431.85	784.08
432.03	791.10
432.22	898.77
432.41	835.57
432.60	809.83
432.79	758.33
432.97	795.78
433.16	877.70
433.35	746.63
433.54	791.10
433.72	844.93
433.91	765.36
434.10	767.70
434.28	805.14
434.47	882.38
434.66	861.32
434.85	800.46
435.03	940.90
435.22	1018.13
435.41	1149.20
435.59	1181.97
435.78	1076.65
435.97	877.70
436.16	936.21
436.34	880.04
436.53	781.74
436.72	903.45
436.90	851.96
437.09	908.13
437.28	1008.77
437.46	861.32
437.65	798.12
437.84	784.08
438.02	880.04
438.21	980.68
438.40	798.12
438.58	875.36
438.77	917.49
438.96	842.59
439.14	966.64
439.33	957.28
439.52	870.68
439.70	957.28
439.89	1029.84
440.08	976.00
440.26	924.51
440.45	961.96
440.63	1011.11
440.82	938.55
441.01	1015.79
441.19	1004.09
441.38	957.28
441.57	1032.18
441.75	1027.50
441.94	1004.09
442.12	1078.99
442.31	1001.75
442.50	1036.86
442.68	1048.56
442.87	1064.94
443.05	1118.78
443.24	1006.43
443.43	1069.62
443.61	1062.60
443.80	1055.58
443.98	957.28
444.17	992.39
444.35	1083.67
444.54	1048.56
444.73	1060.26
444.91	1102.39
445.10	1039.20
445.28	1090.69
445.47	1001.75
445.65	1123.46
445.84	1156.22
446.02	1104.73
446.21	1004.09
446.39	1095.37
446.58	1050.90
446.77	1093.03
446.95	1104.73
447.14	1125.80
447.32	1074.31
447.51	1144.52
447.69	1032.18
447.88	985.37
448.06	1170.27
448.25	1060.26
448.43	1083.67
448.62	1076.65
448.80	1158.57
448.99	1184.31
449.17	1088.35
449.36	1130.48
449.54	1118.78
449.73	1146.86
449.91	1235.80
450.10	1102.39
450.28	1245.16
450.46	1291.98
450.65	1156.22
450.83	1186.65
451.02	1151.54
451.20	1196.01
451.39	1205.38
451.57	1217.08
451.76	1158.57
451.94	1235.80
452.13	1128.14
452.31	1188.99
452.49	1125.80
452.68	1224.10
452.86	1242.82
453.05	1137.50
453.23	1200.69
453.42	1184.31
453.60	1179.63
453.78	1228.78
453.97	1069.62
454.15	1090.69
454.34	1280.27
454.52	1121.12
454.70	1266.23
454.89	1191.33
455.07	1181.97
455.26	1261.55
455.44	1249.85
455.62	1203.04
455.81	1256.87
455.99	1254.53
456.17	1167.93
456.36	1233.46
456.54	1294.32
456.73	1191.33
456.91	1303.68
457.09	1219.42
457.28	1280.27
457.46	1228.78
457.64	1275.59
457.83	1289.64
458.01	1228.78
458.19	1303.68
458.38	1249.85
458.56	1338.79
458.74	1357.51
458.93	1207.72
459.11	1270.91
459.29	1324.74
459.48	1341.13
459.66	1413.68
459.84	1329.42
460.03	1369.21
460.21	1287.29
460.39	1296.66
460.57	1401.98
460.76	1453.47
460.94	1373.89
461.12	1357.51
461.31	1310.70
461.49	1324.74
461.67	1385.60
461.85	1446.45
462.04	1488.58
462.22	1495.60
462.40	1441.77
462.59	1411.34
462.77	1451.13
462.95	1320.06
463.13	1373.89
463.32	1416.02
463.50	1483.90
463.68	1404.32
463.86	1469.86
464.05	1329.42
464.23	1392.62
464.41	1495.60
464.59	1380.92
464.78	1472.20
464.96	1465.18
465.14	1357.51
465.32	1446.45
465.50	1460.49
465.69	1547.09
465.87	1430.07
466.05	1526.03
466.23	1364.53
466.41	1544.75
466.60	1446.45
466.78	1519.01
466.96	1507.30
467.14	1481.56
467.32	1537.73
467.51	1472.20
467.69	1495.60
467.87	1519.01
468.05	1507.30
468.23	1591.56
468.41	1547.09
468.60	1537.73
468.78	1577.52
468.96	1490.92
469.14	1458.15
469.32	1483.90
469.50	1448.79
469.69	1563.48
469.87	1521.35
470.05	1544.75
470.23	1540.07
470.41	1530.71
470.59	1507.30
470.77	1556.46
470.95	1654.76
471.14	1528.37
471.32	1516.67
471.50	1586.88
471.68	1638.38
471.86	1596.25
472.04	1717.95
472.22	1664.12
472.40	1579.86
472.58	1673.48
472.77	1579.86
472.95	1680.50
473.13	1778.81
473.31	1598.59
473.49	1610.29
473.67	1624.33
473.85	1668.80
474.03	1694.55
474.21	1668.80
474.39	1696.89
474.57	1755.40
474.75	1785.83
474.93	1778.81
475.12	1767.10
475.30	1668.80
475.48	1720.29
475.66	1804.55
475.84	1732.00
476.02	1734.34
476.20	1781.15
476.38	1783.49
476.56	1926.26
476.74	1816.26
476.92	1905.20
477.10	1937.96
477.28	1827.96
477.46	1905.20
477.64	1839.66
477.82	1909.88
478.00	2008.18
478.18	1846.68
478.36	1905.20
478.54	1984.77
478.72	1909.88
478.90	2064.35
479.08	1991.80
479.26	2057.33
479.44	1982.43
479.62	2094.78
479.80	2003.50
479.98	2024.56
480.16	1959.03
480.34	2165.00
480.52	2101.80
480.70	2153.29
480.88	2120.53
481.06	2172.02
481.24	2174.36
481.41	2225.85
481.59	2197.76
481.77	2099.46
481.95	2211.81
482.13	2279.68
482.31	2270.32
482.49	2272.66
482.67	2392.03
482.85	2324.15
483.03	2399.05
483.21	2237.55
483.39	2406.07
483.57	2356.92
483.74	2406.07
483.92	2462.24
484.10	2450.54
484.28	2579.27
484.46	2551.18
484.64	2628.42
484.82	2530.12
485.00	2527.78
485.18	2572.25
485.35	2590.97
485.53	2532.46
485.71	2644.81
485.89	2719.70
486.07	2597.99
486.25	2637.78
486.43	2710.34
486.61	2745.45
486.78	2595.65
486.96	2668.21
487.14	2759.49
487.32	2717.36
487.50	2815.66
487.68	2843.75
487.85	2801.62
488.03	2958.44
488.21	2906.95
488.39	2846.09
488.57	2843.75
488.75	2864.82
488.92	3087.17
489.10	2956.10
489.28	2993.55
489.46	2944.39
489.64	2984.18
489.81	3061.42
489.99	2977.16
490.17	2979.50
490.35	3028.65
490.53	3089.51
490.70	3087.17
490.88	3141.00
491.06	3129.30
491.24	3213.56
491.41	3229.94
491.59	3239.30
491.77	3073.12
491.95	3148.02
492.13	3227.60
492.30	3255.69
492.48	3227.60
492.66	3239.30
492.84	3403.14
493.01	3379.73
493.19	3410.16
493.37	3468.67
493.54	3337.60
493.72	3536.55
493.90	3431.23
494.08	3463.99
494.25	3440.59
494.43	3524.85
494.61	3574.00
494.79	3545.91
494.96	3604.42
495.14	3543.57
495.32	3648.90
495.49	3569.32
495.67	3653.58
495.85	3616.13
496.02	3674.64
496.20	3585.70
496.38	3543.57
496.55	3599.74
496.73	3712.09
496.91	3597.40
497.09	3770.60
497.26	3779.97
497.44	3669.96
497.62	3878.27
497.79	3894.65
497.97	3730.81
498.14	3838.48
498.32	3819.75
498.50	3786.99
498.67	3964.87
498.85	3866.56
499.03	3948.48
499.20	3950.82
499.38	3936.78
499.56	4002.32
499.73	3988.27
499.91	4018.70
500.08	3934.44
500.26	4023.38
500.44	3918.06
500.61	4152.11
500.79	4156.79
500.97	4007.00
501.14	4063.17
501.32	4135.73
501.49	3992.95
501.67	4021.04
501.84	4109.98
502.02	4159.13
502.20	4058.49
502.37	4184.88
502.55	4142.75
502.72	4238.71
502.90	4156.79
503.07	4133.39
503.25	4114.66
503.43	4074.87
503.60	4278.50
503.78	4252.75
503.95	4224.67
504.13	4290.20
504.30	4217.65
504.48	4322.97
504.65	4297.22
504.83	4374.46
505.01	4407.23
505.18	4262.12
505.36	4540.64
505.53	4318.29
505.71	4287.86
505.88	4372.12
506.06	4308.93
506.23	4496.17
506.41	4383.82
506.58	4355.74
506.76	4479.79
506.93	4407.23
507.11	4447.02
507.28	4561.70
507.46	4442.34
507.63	4564.04
507.81	4578.09
507.98	4409.57
508.16	4489.15
508.33	4454.04
508.50	4561.70
508.68	4573.41
508.85	4596.81
509.03	4643.62
509.20	4540.64
509.38	4716.18
509.55	4676.39
509.73	4704.48
509.90	4746.61
510.08	4781.71
510.25	4692.77
510.42	4709.16
510.60	4664.69
510.77	4823.84
510.95	4875.34
511.12	4786.40
511.30	4727.88
511.47	4870.65
511.64	4924.49
511.82	4875.34
511.99	4835.55
512.17	4917.47
512.34	4704.48
512.51	4861.29
512.69	5013.43
512.86	4873.00
513.04	4861.29
513.21	4865.97
513.38	4840.23
513.56	5076.62
513.73	4830.87
513.90	4999.38
514.08	4983.00
514.25	5057.90
514.43	5125.77
514.60	4924.49
514.77	4926.83
514.95	5048.54
515.12	5041.51
515.29	5011.09
515.47	5195.99
515.64	5100.03
515.81	5188.97
515.99	5081.30
516.16	5195.99
516.33	5181.95
516.51	5198.33
516.68	5032.15
516.85	5039.17
517.03	5100.03
517.20	5053.22
517.37	5235.78
517.54	5186.63
517.72	5062.58
517.89	5036.83
518.06	5158.54
518.24	5207.69
518.41	5095.35
518.58	5273.23
518.75	5221.74
518.93	5270.89
519.10	5188.97
519.27	5163.22
519.45	5327.06
519.62	5418.34
519.79	5235.78
519.96	5301.31
520.14	5369.19
520.31	5329.40
520.48	5235.78
520.65	5280.25
520.83	5465.15
521.00	5408.98
521.17	5378.55
521.34	5350.46
521.52	5373.87
521.69	5296.63
521.86	5586.86
522.03	5500.26
522.20	5509.62
522.38	5486.22
522.55	5401.96
522.72	5582.18
522.89	5406.64
523.07	5565.79
523.24	5511.96
523.41	5537.71
523.58	5687.50
523.75	5586.86
523.92	5643.03
524.10	5441.75
524.27	5678.14
524.44	5600.90
524.61	5575.16
524.78	5591.54
524.96	5514.30
525.13	5561.11
525.30	5647.71
525.47	5591.54
525.64	5575.16
525.81	5699.20
525.98	5776.44
526.16	5701.54
526.33	5748.36
526.50	5853.68
526.67	5584.52
526.84	5668.78
527.01	5734.31
527.18	5776.44
527.36	5837.30
527.53	5617.29
527.70	5844.32
527.87	5757.72
528.04	5947.30
528.21	5741.33
528.38	5886.45
528.55	5858.36
528.72	5764.74
528.89	5870.06
529.07	5767.08
529.24	5783.46
529.41	5806.87
529.58	5823.25
529.75	5912.19
529.92	5802.19
530.09	5930.92
530.26	5797.51
530.43	5898.15
530.60	5914.53
530.77	5905.17
530.94	5802.19
531.11	6012.84
531.28	5870.06
531.46	6015.18
531.63	5900.49
531.80	5893.47
531.97	6059.65
532.14	6061.99
532.31	6026.88
532.48	6038.58
532.65	5980.07
532.82	5975.39
532.99	6071.35
533.16	6066.67
533.33	6059.65
533.50	6190.72
533.67	6113.48
533.84	6085.39
534.01	6033.90
534.18	6026.88
534.35	5902.83
534.52	6017.52
534.69	6155.61
534.86	5973.05
535.03	6141.57
535.20	6118.16
535.37	6232.85
535.54	6314.77
535.71	6066.67
535.88	6179.01
536.05	6015.18
536.22	6256.25
536.38	6073.69
536.55	6286.68
536.72	6171.99
536.89	6047.94
537.06	6431.79
537.23	6300.72
537.40	6193.06
537.57	6118.16
537.74	6162.63
537.91	6146.25
538.08	6289.02
538.25	6202.42
538.42	6193.06
538.59	6251.57
538.75	6263.27
538.92	6279.66
539.09	6389.66
539.26	6345.19
539.43	6375.62
539.60	6347.53
539.77	6366.26
539.94	6509.03
540.11	6284.34
540.28	6485.62
540.44	6394.34
540.61	6417.75
540.78	6525.41
540.95	6504.35
541.12	6602.65
541.29	6612.01
541.46	6740.74
541.62	6581.59
541.79	6537.12
541.96	6810.96
542.13	6558.18
542.30	6553.50
542.47	6759.47
542.63	6710.32
542.80	6670.53
542.97	6722.02
543.14	6817.98
543.31	6541.80
543.48	6502.01
543.64	6628.40
543.81	6733.72
543.98	6750.10
544.15	6832.02
544.32	6775.85
544.48	6862.45
544.65	6546.48
544.82	6668.19
544.99	6715.00
545.16	6764.15
545.32	6817.98
545.49	7145.66
545.66	7136.29
545.83	7269.70
546.00	7140.97
546.16	6939.69
546.33	6747.76
546.50	6705.63
546.67	6750.10
546.83	6675.21
547.00	6626.06
547.17	6696.27
547.34	6722.02
547.50	6862.45
547.67	6832.02
547.84	6787.55
548.00	6649.46
548.17	6796.92
548.34	6764.15
548.51	6801.60
548.67	6843.73
548.84	6965.43
549.01	6675.21
549.18	6761.81
549.34	6703.29
549.51	6766.49
549.68	6736.06
549.84	6583.93
550.01	6553.50
550.18	6736.06
550.34	6803.94
550.51	6654.14
550.68	6878.83
550.84	6665.85
551.01	6684.57
551.18	6621.38
551.34	6747.76
551.51	6628.40
551.68	6771.17
551.84	6796.92
552.01	6682.23
552.18	6806.28
552.34	6715.00
552.51	6827.34
552.68	6700.95
552.84	6707.98
553.01	6895.22
553.18	6785.21
553.34	6689.25
553.51	6752.45
553.67	6944.37
553.84	6689.25
554.01	6825.00
554.17	6710.32
554.34	6614.35
554.51	6733.72
554.67	6782.87
554.84	6815.64
555.00	6731.38
555.17	6927.99
555.33	6665.85
555.50	6675.21
555.67	6825.00
555.83	6813.30
556.00	6731.38
556.16	6876.49
556.33	6698.61
556.50	6920.96
556.66	6841.39
556.83	6876.49
556.99	6668.19
557.16	6773.51
557.32	6946.71
557.49	6892.88
557.65	6794.58
557.82	6766.49
557.98	6782.87
558.15	6815.64
558.32	6810.96
558.48	6836.70
558.65	6953.73
558.81	6874.15
558.98	6925.65
559.14	6773.51
559.31	6715.00
559.47	6920.96
559.64	6768.83
559.80	6787.55
559.97	6860.11
560.13	6855.43
560.30	6832.02
560.46	6813.30
560.63	6935.01
560.79	6834.36
560.96	6860.11
561.12	6939.69
561.29	6967.77
561.45	7019.27
561.61	6815.64
561.78	7016.93
561.94	6946.71
562.11	6810.96
562.27	6944.37
562.44	6817.98
562.60	6836.70
562.77	6829.68
562.93	6764.15
563.10	6773.51
563.26	6902.24
563.42	6998.20
563.59	6918.62
563.75	6825.00
563.92	6888.20
564.08	6967.77
564.24	6979.48
564.41	7030.97
564.57	6796.92
564.74	7042.67
564.90	6906.92
565.07	7108.21
565.23	6939.69
565.39	6834.36
565.56	6998.20
565.72	6808.62
565.88	6923.30
566.05	6956.07
566.21	6911.60
566.38	6888.20
566.54	6927.99
566.70	6841.39
566.87	7148.00
567.03	6836.70
567.19	7002.88
567.36	6930.33
567.52	6675.21
567.68	6806.28
567.85	6927.99
568.01	6839.05
568.17	6920.96
568.34	6981.82
568.50	7061.40
568.66	6766.49
568.83	7030.97
568.99	6867.13
569.15	6771.17
569.32	6813.30
569.48	6906.92
569.64	6881.18
569.81	6977.14
569.97	6871.81
570.13	6988.84
570.30	6965.43
570.46	6832.02
570.62	7068.42
570.78	6869.47
570.95	6904.58
571.11	7019.27
571.27	7080.12
571.43	6906.92
571.60	6867.13
571.76	7028.63
571.92	6743.08
572.09	7101.19
572.25	6944.37
572.41	7155.02
572.57	6850.75
572.74	6993.52
572.90	6993.52
573.06	6949.05
573.22	7192.47
573.38	6998.20
573.55	6855.43
573.71	6874.15
573.87	6998.20
574.03	6939.69
574.20	6722.02
574.36	6885.86
574.52	6949.05
574.68	6913.94
574.84	6979.48
575.01	6888.20
575.17	6977.14
575.33	7061.40
575.49	7040.33
575.65	7005.22
575.82	6995.86
575.98	7101.19
576.14	6927.99
576.30	6949.05
576.46	6927.99
576.62	7236.94
576.79	6956.07
576.95	7007.56
577.11	6988.84
577.27	6984.16
577.43	7070.76
577.59	7145.66
577.75	7037.99
577.92	6862.45
578.08	6881.18
578.24	6820.32
578.40	6960.75
578.56	7143.32
578.72	7098.84
578.88	7180.76
579.04	7255.66
579.21	6913.94
579.37	7171.40
579.53	7045.01
579.69	6942.03
579.85	7070.76
580.01	7164.38
580.17	6930.33
580.33	6867.13
580.49	7162.04
580.65	7000.54
580.82	7056.72
580.98	6998.20
581.14	7000.54
581.30	7009.90
581.46	6920.96
581.62	7063.74
581.78	7077.78
581.94	7145.66
582.10	6881.18
582.26	6972.46
582.42	7089.48
582.58	7105.87
582.74	7009.90
582.90	6965.43
583.06	6991.18
583.22	7030.97
583.38	7122.25
583.54	6965.43
583.70	7000.54
583.86	7112.89
584.02	6972.46
584.18	7122.25
584.34	7091.82
584.50	6974.80
584.66	6995.86
584.82	6939.69
584.98	6965.43
585.14	6970.12
585.30	7117.57
585.46	7009.90
585.62	7028.63
585.78	7045.01
585.94	6993.52
586.10	7094.16
586.26	7063.74
586.42	7183.10
586.58	7080.12
586.74	6918.62
586.90	7187.79
587.06	6993.52
587.22	7009.90
587.38	6972.46
587.54	6951.39
587.70	7080.12
587.86	6981.82
588.02	7037.99
588.18	7021.61
588.34	6918.62
588.49	6981.82
588.65	7129.27
588.81	6916.28
588.97	6895.22
589.13	6970.12
589.29	6892.88
589.45	7098.84
589.61	6913.94
589.77	7070.76
589.93	6965.43
590.08	6949.05
590.24	7101.19
590.40	6958.41
590.56	7037.99
590.72	6979.48
590.88	6956.07
591.04	7070.76
591.20	6942.03
591.35	6993.52
591.51	7213.53
591.67	7208.85
591.83	7019.27
591.99	6979.48
592.15	6970.12
592.31	7152.68
592.46	7040.33
592.62	6932.67
592.78	6977.14
592.94	6993.52
593.10	6988.84
593.26	6960.75
593.41	6981.82
593.57	6902.24
593.73	7180.76
593.89	7103.53
594.05	6874.15
594.20	7016.93
594.36	7009.90
594.52	6920.96
594.68	6906.92
594.84	7028.63
594.99	6874.15
595.15	7089.48
595.31	7162.04
595.47	7091.82
595.62	7084.80
595.78	7002.88
595.94	7124.59
596.10	7066.08
596.25	7035.65
596.41	7073.10
596.57	6951.39
596.73	7105.87
596.88	6939.69
597.04	7101.19
597.20	7005.22
597.36	7045.01
597.51	7023.95
597.67	7070.76
597.83	7119.91
597.99	6998.20
598.14	6885.86
598.30	6960.75
598.46	6782.87
598.61	7061.40
598.77	7047.35
598.93	7016.93
599.09	6951.39
599.24	6942.03
599.40	7124.59
599.56	7061.40
599.71	6869.47
599.87	6979.48
600.03	7077.78
600.18	6925.65
600.34	6920.96
