SpectraSuite Data File
++++++++++++++++++++++++++++++++++++
Date: Tue Oct 01 18:27:24 GMT-05:00 2013
User: stostad
Dark Spectrum Present: No
Reference Spectrum Present: No
Number of Sampled Component Spectra: 1
Spectrometers: USB2+H05261
Integration Time (usec): 100000 (USB2+H05261)
Spectra Averaged: 1 (USB2+H05261)
Boxcar Smoothing: 0 (USB2+H05261)
Correct for Electrical Dark: No (USB2+H05261)
Strobe/Lamp Enabled: No (USB2+H05261)
Correct for Detector Non-linearity: No (USB2+H05261)
Correct for Stray Light: No (USB2+H05261)
Number of Pixels in Processed Spectrum: 2048
>>>>>Begin Processed Spectral Data<<<<<
365.73	77.24
365.92	77.24
366.12	77.24
366.32	0.00
366.52	0.00
366.72	0.00
366.91	0.00
367.11	44.47
367.31	0.00
367.51	0.00
367.70	28.09
367.90	28.09
368.10	0.00
368.30	0.00
368.49	0.00
368.69	0.00
368.89	0.00
369.09	0.00
369.28	35.11
369.48	0.00
369.68	18.72
369.87	25.75
370.07	74.90
370.27	114.69
370.47	149.79
370.66	248.10
370.86	280.86
371.06	292.57
371.25	395.55
371.45	276.18
371.65	283.20
371.84	365.12
372.04	339.38
372.24	386.19
372.44	379.17
372.63	400.23
372.83	433.00
373.03	407.25
373.22	388.53
373.42	397.89
373.62	435.34
373.81	402.57
374.01	463.43
374.21	458.74
374.40	470.45
374.60	503.22
374.79	479.81
374.99	416.62
375.19	486.83
375.38	421.30
375.58	477.47
375.78	468.11
375.97	444.70
376.17	510.24
376.37	475.13
376.56	486.83
376.76	461.09
376.95	451.72
377.15	479.81
377.35	510.24
377.54	470.45
377.74	456.40
377.93	500.87
378.13	514.92
378.33	489.17
378.52	454.06
378.72	489.17
378.91	524.28
379.11	491.51
379.31	564.07
379.50	458.74
379.70	498.53
379.89	507.90
380.09	519.60
380.28	491.51
380.48	475.13
380.68	547.69
380.87	491.51
381.07	498.53
381.26	557.05
381.46	596.84
381.65	594.50
381.85	538.32
382.04	608.54
382.24	571.09
382.43	648.33
382.63	514.92
382.83	596.84
383.02	629.60
383.22	650.67
383.41	585.13
383.61	643.65
383.80	664.71
384.00	566.41
384.19	596.84
384.39	695.14
384.58	596.84
384.78	660.03
384.97	634.29
385.17	627.26
385.36	683.44
385.56	777.06
385.75	664.71
385.95	634.29
386.14	660.03
386.34	716.20
386.53	657.69
386.72	681.10
386.92	678.76
387.11	732.59
387.31	702.16
387.50	699.82
387.70	842.59
387.89	746.63
388.09	702.16
388.28	713.86
388.48	655.35
388.67	781.74
388.86	709.18
389.06	770.04
389.25	695.14
389.45	739.61
389.64	760.67
389.84	781.74
390.03	814.51
390.22	760.67
390.42	823.87
390.61	805.14
390.81	711.52
391.00	821.53
391.19	767.70
391.39	774.72
391.58	837.91
391.78	861.32
391.97	816.85
392.16	751.31
392.36	912.81
392.55	933.87
392.75	812.17
392.94	849.61
393.13	889.40
393.33	866.00
393.52	861.32
393.71	840.25
393.91	908.13
394.10	905.79
394.29	987.71
394.49	887.06
394.68	971.32
394.88	903.45
395.07	964.30
395.26	945.58
395.46	1013.45
395.65	999.41
395.84	1069.62
396.04	1090.69
396.23	1107.07
396.42	1004.09
396.62	1015.79
396.81	1107.07
397.00	1151.54
397.19	1029.84
397.39	1086.01
397.58	1013.45
397.77	1128.14
397.97	1086.01
398.16	1104.73
398.35	1090.69
398.55	1109.41
398.74	1153.88
398.93	1200.69
399.12	1177.29
399.32	1172.61
399.51	1200.69
399.70	1100.05
399.90	1198.35
400.09	1268.57
400.28	1320.06
400.47	1282.61
400.67	1207.72
400.86	1270.91
401.05	1364.53
401.24	1235.80
401.44	1336.45
401.63	1362.19
401.82	1277.93
402.01	1188.99
402.21	1343.47
402.40	1378.58
402.59	1394.96
402.78	1348.15
402.97	1338.79
403.17	1427.73
403.36	1401.98
403.55	1413.68
403.74	1486.24
403.93	1476.88
404.13	1488.58
404.32	1537.73
404.51	1572.84
404.70	1647.74
404.89	1575.18
405.09	1584.54
405.28	1682.85
405.47	1614.97
405.66	1694.55
405.85	1645.40
406.05	1640.72
406.24	1633.69
406.43	1626.67
406.62	1856.04
406.81	1724.97
407.00	1783.49
407.20	1715.61
407.39	1750.72
407.58	1802.21
407.77	1816.26
407.96	1795.19
408.15	1694.55
408.34	1832.64
408.54	1849.02
408.73	1825.62
408.92	1940.30
409.11	2024.56
409.30	1973.07
409.49	1942.64
409.68	1863.07
409.87	1989.46
410.07	2099.46
410.26	2136.91
410.45	2127.55
410.64	2069.03
410.83	2097.12
411.02	2054.99
411.21	2136.91
411.40	2132.23
411.59	2197.76
411.78	2321.81
411.98	2179.04
412.17	2284.36
412.36	2319.47
412.55	2282.02
412.74	2424.80
412.93	2279.68
413.12	2497.35
413.31	2417.77
413.50	2289.04
413.69	2345.22
413.88	2595.65
414.07	2513.74
414.26	2621.40
414.45	2558.21
414.64	2658.85
414.83	2551.18
415.02	2712.68
415.22	2764.17
415.41	2668.21
415.60	2703.32
415.79	2761.83
415.98	2810.98
416.17	2942.05
416.36	2888.22
416.55	2803.96
416.74	2864.82
416.93	2855.45
417.12	2939.71
417.31	2944.39
417.50	3063.76
417.69	3222.92
417.88	3094.19
418.07	3143.34
418.26	3176.11
418.45	3143.34
418.64	3269.73
418.83	3117.59
419.02	3332.92
419.21	3141.00
419.39	3311.86
419.58	3084.83
419.77	3239.30
419.96	3269.73
420.15	3272.07
420.34	3272.07
420.53	3190.15
420.72	3435.91
420.91	3499.10
421.10	3311.86
421.29	3557.61
421.48	3290.79
421.67	3609.11
421.86	3449.95
422.05	3358.67
422.24	3475.70
422.43	3634.85
422.61	3332.92
422.80	3597.40
422.99	3583.36
423.18	3515.48
423.37	3665.28
423.56	3564.64
423.75	3658.26
423.94	3620.81
424.13	3321.22
424.32	3435.91
424.50	3702.73
424.69	3646.55
424.88	3716.77
425.07	3660.60
425.26	3541.23
425.45	3674.64
425.64	3707.41
425.83	3618.47
426.01	3779.97
426.20	3805.71
426.39	3691.02
426.58	3707.41
426.77	3850.18
426.96	3808.05
427.15	3651.24
427.33	3761.24
427.52	3775.28
427.71	3824.44
427.90	3885.29
428.09	3976.57
428.28	3974.23
428.46	3936.78
428.65	3939.12
428.84	4021.04
429.03	4098.28
429.22	3992.95
429.40	3971.89
429.59	3969.55
429.78	3836.14
429.97	3925.08
430.16	3941.46
430.34	4049.13
430.53	4107.64
430.72	4105.30
430.91	3967.21
431.10	4084.23
431.28	4156.79
431.47	4367.44
431.66	4208.28
431.85	4077.21
432.03	4365.10
432.22	4472.76
432.41	4365.10
432.60	4414.25
432.79	4273.82
432.97	4381.48
433.16	4376.80
433.35	4489.15
433.54	4430.63
433.72	4573.41
433.91	4325.31
434.10	4498.51
434.28	4353.40
434.47	4573.41
434.66	4552.34
434.85	4744.27
435.03	4706.82
435.22	4648.30
435.41	4758.31
435.59	4711.50
435.78	4662.35
435.97	4774.69
436.16	4711.50
436.34	4655.33
436.53	4880.02
436.72	5020.45
436.90	4842.57
437.09	4952.57
437.28	4681.07
437.46	4795.76
437.65	4926.83
437.84	5022.79
438.02	4992.36
438.21	4777.03
438.40	4919.81
438.58	5156.20
438.77	5109.39
438.96	4987.68
439.14	5423.02
439.33	5308.34
439.52	5259.18
439.70	5392.59
439.89	5380.89
440.08	5397.28
440.26	5533.03
440.45	5476.85
440.63	5582.18
440.82	5638.35
441.01	5486.22
441.19	5781.12
441.38	5743.67
441.57	5598.56
441.75	5591.54
441.94	5926.24
442.12	5898.15
442.31	6038.58
442.50	5963.68
442.68	5813.89
442.87	5919.21
443.05	5973.05
443.24	6031.56
443.43	5980.07
443.61	6012.84
443.80	6202.42
443.98	5984.75
444.17	5678.14
444.35	6106.46
444.54	6024.54
444.73	6141.57
444.91	6118.16
445.10	6190.72
445.28	6141.57
445.47	6169.65
445.65	6132.20
445.84	6286.68
446.02	6284.34
446.21	6193.06
446.39	6129.86
446.58	6047.94
446.77	6237.53
446.95	6218.80
447.14	6200.08
447.32	6312.42
447.51	6335.83
447.69	6375.62
447.88	6338.17
448.06	6345.19
448.25	6410.73
448.43	6324.13
448.62	6340.51
448.80	6434.13
448.99	6368.60
449.17	6572.22
449.36	6326.47
449.54	6572.22
449.73	6661.16
449.91	6604.99
450.10	6700.95
450.28	6846.07
450.46	6747.76
450.65	6745.42
450.83	6703.29
451.02	6553.50
451.20	6698.61
451.39	6703.29
451.57	6731.38
451.76	6689.25
451.94	6850.75
452.13	6944.37
452.31	6944.37
452.49	6670.53
452.68	7023.95
452.86	6885.86
453.05	7045.01
453.23	7023.95
453.42	7049.69
453.60	6897.56
453.78	6874.15
453.97	7035.65
454.15	6958.41
454.34	6827.34
454.52	7110.55
454.70	7140.97
454.89	7386.73
455.07	7204.17
455.26	7148.00
455.44	7417.16
455.62	7222.89
455.81	7307.15
455.99	7510.78
456.17	7489.71
456.36	7417.16
456.54	7756.54
456.73	7562.27
456.91	7758.88
457.09	7791.64
457.28	7772.92
457.46	7836.11
457.64	7592.70
457.83	7700.36
458.01	7712.07
458.19	7932.08
458.38	7950.80
458.56	8023.36
458.74	8009.31
458.93	7847.82
459.11	7962.50
459.29	8093.57
459.48	8133.36
459.66	7887.61
459.84	8133.36
460.03	8341.67
460.21	7969.52
460.39	8147.40
460.57	8100.59
460.76	8177.83
460.94	8273.79
461.12	8496.14
461.31	8344.01
461.49	8297.20
461.67	8339.33
461.85	8662.32
462.04	8402.52
462.22	8973.61
462.40	8486.78
462.59	8594.45
462.77	8507.85
462.95	8575.72
463.13	8456.36
463.32	8486.78
463.50	8788.71
463.68	8716.16
463.86	8706.79
464.05	8578.06
464.23	8688.07
464.41	8894.04
464.59	8758.28
464.78	8858.93
464.96	8617.85
465.14	8678.71
465.32	8950.21
465.50	8870.63
465.69	8940.85
465.87	8947.87
466.05	8858.93
466.23	9078.94
466.41	9207.67
466.60	9097.66
466.78	9151.49
466.96	8987.66
467.14	9139.79
467.32	9139.79
467.51	9392.57
467.69	8917.44
467.87	8978.30
468.05	9263.84
468.23	9032.13
468.41	9312.99
468.60	9312.99
468.78	9296.61
468.96	9462.79
469.14	9263.84
469.32	9366.82
469.50	9383.21
469.69	9605.56
469.87	9722.59
470.05	9558.75
470.23	9762.37
470.41	9518.96
470.59	9753.01
470.77	9771.74
470.95	9755.35
471.14	10052.60
471.32	9610.24
471.50	10221.12
471.68	9935.57
471.86	10101.75
472.04	10061.96
472.22	10375.59
472.40	10139.20
472.58	10099.41
472.77	10321.76
472.95	10541.77
473.13	10686.89
473.31	10452.83
473.49	10480.92
473.67	10532.41
473.85	10633.05
474.03	10820.30
474.21	10801.57
474.39	11037.97
474.57	10754.76
474.75	11000.52
474.93	11101.16
475.12	11094.14
475.30	11126.91
475.48	10930.30
475.66	11255.64
475.84	11178.40
476.02	11459.26
476.20	11548.20
476.38	11552.88
476.56	11742.47
476.74	11719.06
476.92	11669.91
477.10	11707.36
477.28	11983.54
477.46	11899.28
477.64	12264.41
477.82	12135.68
478.00	12573.36
478.18	12451.65
478.36	12507.82
478.54	12636.55
478.72	12545.27
478.90	12894.01
479.08	13104.66
479.26	12992.31
479.44	13074.23
479.62	13404.25
479.80	13303.60
479.98	13589.15
480.16	13633.62
480.34	13467.44
480.52	13846.61
480.70	13668.73
480.88	13671.07
481.06	13844.27
481.24	13846.61
481.41	14129.81
481.59	14333.44
481.77	14527.71
481.95	14560.47
482.13	14560.47
482.31	14555.79
482.49	14815.59
482.67	14909.21
482.85	15232.21
483.03	15363.28
483.21	15295.40
483.39	15660.52
483.57	15623.08
483.74	15662.86
483.92	15845.43
484.10	15487.32
484.28	15749.46
484.46	16255.02
484.64	16456.31
484.82	16428.22
485.00	16589.72
485.18	16886.97
485.35	17088.25
485.53	16973.56
485.71	17064.85
485.89	17371.46
486.07	17397.20
486.25	17465.08
486.43	17521.25
486.61	17486.14
486.78	18047.87
486.96	17905.10
487.14	17965.95
487.32	18092.34
487.50	17975.31
487.68	18939.62
487.85	18466.83
488.03	19016.85
488.21	18799.18
488.39	19152.60
488.57	19648.80
488.75	19377.30
488.92	19651.14
489.10	19969.45
489.28	19983.49
489.46	20367.34
489.64	20034.99
489.81	20493.73
489.99	20350.96
490.17	20489.05
490.35	20643.52
490.53	21128.02
490.70	21462.71
490.88	21181.85
491.06	21383.13
491.24	21359.73
491.41	21207.59
491.59	22089.98
491.77	21869.97
491.95	22005.72
492.13	21722.51
492.30	21989.33
492.48	22459.78
492.66	22265.52
492.84	22810.86
493.01	22525.32
493.19	22855.33
493.37	22984.06
493.54	22892.78
493.72	23398.34
493.90	23484.94
494.08	23367.91
494.25	23641.75
494.43	24123.90
494.61	24121.56
494.79	24098.16
494.96	24348.59
495.14	24594.35
495.32	24599.03
495.49	24776.91
495.67	24830.74
495.85	24807.34
496.02	25212.25
496.20	25284.81
496.38	25383.11
496.55	25465.03
496.73	25874.62
496.91	25450.99
497.09	25750.57
497.26	26052.50
497.44	26026.76
497.62	26132.08
497.79	26324.01
497.97	26574.44
498.14	26757.00
498.32	27206.39
498.50	26897.44
498.67	27033.19
498.85	27215.75
499.03	27316.39
499.20	27220.43
499.38	27386.61
499.56	27826.63
499.73	27775.14
499.91	27889.82
500.08	28158.99
500.26	28067.70
500.44	28210.48
500.61	28048.98
500.79	28449.21
500.97	28437.51
501.14	28514.75
501.32	28566.24
501.49	28779.23
501.67	28947.75
501.84	29153.71
502.02	29003.92
502.20	29256.70
502.37	29092.86
502.55	29099.88
502.72	28971.15
502.90	29448.62
503.07	29635.86
503.25	29832.47
503.43	29645.23
503.60	30080.56
503.78	30167.16
503.95	30206.95
504.13	30017.37
504.30	30405.90
504.48	30267.81
504.65	30333.34
504.83	30756.98
505.01	30799.11
505.18	30714.85
505.36	30916.14
505.53	30597.82
505.71	31222.75
505.88	31250.83
506.06	31108.06
506.23	31639.36
506.41	31398.29
506.58	31503.61
506.76	31819.58
506.93	31873.42
507.11	31978.74
507.28	32027.89
507.46	32189.39
507.63	32467.91
507.81	32154.28
507.98	32369.61
508.16	32439.82
508.33	32519.40
508.50	32524.08
508.68	32687.92
508.85	33284.76
509.03	32807.29
509.20	33013.26
509.38	33436.89
509.55	33099.86
509.73	33661.58
509.90	33289.44
510.08	33738.82
510.25	33439.23
510.42	33577.33
510.60	33869.89
510.77	33610.09
510.95	34511.20
511.12	34061.82
511.30	34309.91
511.47	34394.17
511.64	34293.53
511.82	34258.42
511.99	34639.93
512.17	34845.90
512.34	34843.56
512.51	35194.64
512.69	35079.95
512.86	35192.30
513.04	35632.32
513.21	35054.20
513.38	35498.91
513.56	35454.44
513.73	35524.65
513.90	35342.09
514.08	35665.08
514.25	35948.29
514.43	36107.44
514.60	36194.04
514.77	35477.84
514.95	35885.09
515.12	35945.95
515.29	36098.08
515.47	36851.73
515.64	36793.22
515.81	36531.08
515.99	36292.35
516.16	36767.48
516.33	37095.15
516.51	36580.23
516.68	36945.36
516.85	37109.19
517.03	37298.78
517.20	37497.72
517.37	37357.29
517.54	37310.48
517.72	37233.24
517.89	37638.15
518.06	37635.81
518.24	37766.88
518.41	37486.02
518.58	37783.27
518.75	37640.50
518.93	37809.01
519.10	38316.91
519.27	38007.96
519.45	38033.71
519.62	38417.55
519.79	38279.46
519.96	38136.69
520.14	38904.38
520.31	38445.64
520.48	39054.18
520.65	38560.33
520.83	38888.00
521.00	39189.93
521.17	39082.27
521.34	38976.94
521.52	39438.03
521.69	39257.81
521.86	39243.76
522.03	39634.63
522.20	39873.37
522.38	39573.78
522.55	39643.99
522.72	39730.59
522.89	39849.96
523.07	39892.09
523.24	39749.32
523.41	40285.30
523.58	39739.96
523.75	40168.27
523.92	40247.85
524.10	40325.09
524.27	40507.65
524.44	40746.39
524.61	40807.24
524.78	40360.20
524.96	40774.47
525.13	41111.51
525.30	41118.53
525.47	41455.57
525.64	41364.29
525.81	41544.51
525.98	41387.69
526.16	41092.79
526.33	41305.77
526.50	41462.59
526.67	41701.32
526.84	41546.85
527.01	41603.02
527.18	42141.35
527.36	41933.04
527.53	41736.43
527.70	41998.57
527.87	41928.36
528.04	42195.18
528.21	42281.78
528.38	42256.03
528.55	42272.42
528.72	41949.42
528.89	42850.53
529.07	42265.39
529.24	42045.38
529.41	42234.97
529.58	42684.35
529.75	42906.70
529.92	43145.44
530.09	43117.35
530.26	42831.80
530.43	43136.07
530.60	42307.52
530.77	42981.60
530.94	43143.09
531.11	42850.53
531.28	43552.69
531.46	43363.11
531.63	43271.82
531.80	43573.75
531.97	43309.27
532.14	43674.40
532.31	43545.67
532.48	43299.91
532.65	43365.45
532.82	43943.56
532.99	44158.89
533.16	44060.58
533.33	44079.31
533.50	44095.69
533.67	44025.48
533.84	43508.22
534.01	43915.47
534.18	44093.35
534.35	44914.88
534.52	44568.48
534.69	44889.13
534.86	44802.53
535.03	44329.75
535.20	44170.59
535.37	44470.18
535.54	45052.97
535.71	44753.38
535.88	45109.14
536.05	44863.39
536.22	45811.31
536.38	45399.37
536.55	44718.28
536.72	44809.56
536.89	44526.35
537.06	45202.77
537.23	45703.64
537.40	45160.64
537.57	45361.92
537.74	45305.75
537.91	45464.91
538.08	45944.72
538.25	45347.88
538.42	45340.86
538.59	45813.65
538.75	45521.08
538.92	45799.60
539.09	46068.76
539.26	45624.06
539.43	45764.49
539.60	46136.64
539.77	45858.12
539.94	46171.75
540.11	46036.00
540.28	46232.60
540.44	46529.85
540.61	46389.42
540.78	46302.82
540.95	46096.85
541.12	46164.73
541.29	45972.80
541.46	46349.63
541.62	46157.70
541.79	46349.63
541.96	46302.82
542.13	46131.96
542.30	46579.00
542.47	46644.54
542.63	46810.71
542.80	46693.69
542.97	46946.47
543.14	47353.72
543.31	46997.96
543.48	47454.36
543.64	47339.68
543.81	47440.32
543.98	47611.18
544.15	47683.73
544.32	47304.57
544.48	47519.90
544.65	47419.25
544.82	47746.93
544.99	47606.50
545.16	47702.46
545.32	47760.97
545.49	48105.03
545.66	48271.21
545.83	48083.97
546.00	47995.03
546.16	48196.31
546.33	47700.12
546.50	47894.38
546.67	48161.20
546.83	47903.74
547.00	47978.64
547.17	48018.43
547.34	48163.54
547.50	47995.03
547.67	48137.80
547.84	48250.14
548.00	48655.06
548.17	48971.03
548.34	48734.63
548.51	49015.50
548.67	48411.64
548.84	48809.53
549.01	48486.54
549.18	48161.20
549.34	48273.55
549.51	48739.32
549.68	48832.94
549.84	48797.83
550.01	48722.93
550.18	48470.15
550.34	48982.73
550.51	49001.46
550.68	49034.22
550.84	48762.72
551.01	49169.97
551.18	48844.64
551.34	49031.88
551.51	49275.30
551.68	49366.58
551.84	49160.61
552.01	49265.94
552.18	48973.37
552.34	49048.27
552.51	49312.75
552.68	48954.64
552.84	49345.51
553.01	49565.52
553.18	49563.18
553.34	49621.70
553.51	49593.61
553.67	49455.52
553.84	49591.27
554.01	49680.21
554.17	49467.22
554.34	50115.55
554.51	49876.82
554.67	50045.33
554.84	49930.65
555.00	49514.03
555.17	49640.42
555.33	49977.46
555.50	49738.72
555.67	49984.48
555.83	49766.81
556.00	49785.54
556.16	50211.51
556.33	49862.77
556.50	50108.53
556.66	50258.32
556.83	49780.85
556.99	50415.14
557.16	50073.42
557.32	50061.72
557.49	50155.34
557.65	49951.71
557.82	50382.37
557.98	50333.22
558.15	50185.77
558.32	50806.01
558.48	50398.76
558.65	50597.70
558.81	49956.39
558.98	50382.37
559.14	50468.97
559.31	50543.87
559.47	50869.20
559.64	50534.51
559.80	50532.17
559.97	50775.58
560.13	50571.96
560.30	50218.53
560.46	50450.25
560.63	50628.13
560.79	50740.47
560.96	50621.11
561.12	51154.75
561.29	50653.87
561.45	50775.58
561.61	50740.47
561.78	50887.93
561.94	50403.44
562.11	50693.66
562.27	50731.11
562.44	50693.66
562.60	50841.12
562.77	50651.53
562.93	50791.97
563.10	51318.59
563.26	51154.75
563.42	51290.50
563.59	50918.35
563.75	51051.76
563.92	51000.27
564.08	51042.40
564.24	50995.59
564.41	50885.59
564.57	51009.64
564.74	51231.99
564.90	51014.32
565.07	51377.10
565.23	51239.01
565.39	51021.34
565.56	51047.08
565.72	51033.04
565.88	51545.62
566.05	51508.17
566.21	51164.11
566.38	51175.81
566.54	51267.09
566.70	51400.50
566.87	51433.27
567.03	51428.59
567.19	51215.60
567.36	51133.68
567.52	51297.52
567.68	51674.35
567.85	51150.07
568.01	51587.75
568.17	51386.46
568.34	51732.86
568.50	51547.96
568.66	51023.68
568.83	51510.51
568.99	51372.42
569.15	51093.89
569.32	51400.50
569.48	51217.94
569.64	51613.49
569.81	51454.34
569.97	51337.31
570.13	51433.27
570.30	51166.45
570.46	51435.61
570.62	51351.35
570.78	51192.20
570.95	51533.92
571.11	51847.55
571.27	51498.81
571.43	51999.68
571.60	51711.80
571.76	51358.38
571.92	51316.25
572.09	51419.23
572.25	51552.64
572.41	51604.13
572.57	51709.46
572.74	51885.00
572.90	51702.43
573.06	51906.06
573.22	51976.28
573.38	51821.80
573.55	51938.83
573.71	51601.79
573.87	51812.44
574.03	51323.27
574.20	51295.18
574.36	51592.43
574.52	51840.53
574.68	51824.14
574.84	51929.47
575.01	51629.88
575.17	51896.70
575.33	51700.09
575.49	51779.67
575.65	51765.63
575.82	51639.24
575.98	51831.16
576.14	52065.22
576.30	52013.73
576.46	52060.54
576.62	52130.75
576.79	51906.06
576.95	51826.48
577.11	51966.91
577.27	51679.03
577.43	51583.07
577.59	51847.55
577.75	51901.38
577.92	51501.15
578.08	51428.59
578.24	52009.04
578.40	52158.84
578.56	51955.21
578.72	51875.63
578.88	52055.85
579.04	51863.93
579.21	51990.32
579.37	51672.01
579.53	51877.97
579.69	51873.29
579.85	52039.47
580.01	52025.43
580.17	51922.44
580.33	52287.57
580.49	51931.81
580.65	51913.08
580.82	51997.34
580.98	51763.29
581.14	51791.37
581.30	52079.26
581.46	52013.73
581.62	51908.40
581.78	52095.64
581.94	52282.89
582.10	52147.14
582.26	52027.77
582.42	51760.95
582.58	52055.85
582.74	51536.26
582.90	52086.28
583.06	52095.64
583.22	51875.63
583.38	52385.87
583.54	52538.01
583.70	52254.80
583.86	52395.23
584.02	52081.60
584.18	52193.95
584.34	51899.04
584.50	52254.80
584.66	52250.12
584.82	51985.64
584.98	52048.83
585.14	52315.65
585.30	52018.41
585.46	51992.66
585.62	52306.29
585.78	52388.21
585.94	52027.77
586.10	52219.69
586.26	51969.26
586.42	52067.56
586.58	52095.64
586.74	52060.54
586.90	52310.97
587.06	52069.90
587.22	52301.61
587.38	51810.10
587.54	52357.78
587.70	52411.62
587.86	52367.15
588.02	52313.31
588.18	52011.38
588.34	51833.50
588.49	52069.90
588.65	52114.37
588.81	52182.24
588.97	52463.11
589.13	52439.70
589.29	52477.15
589.45	52715.89
589.61	52374.17
589.77	52388.21
589.93	52509.92
590.08	52023.09
590.24	52842.27
590.40	52610.56
