SpectraSuite Data File
++++++++++++++++++++++++++++++++++++
Date: Fri Oct 04 11:39:43 GMT-05:00 2013
User: price-jones
Dark Spectrum Present: No
Reference Spectrum Present: No
Number of Sampled Component Spectra: 1
Spectrometers: USB2+H05261
Integration Time (usec): 100000 (USB2+H05261)
Spectra Averaged: 1 (USB2+H05261)
Boxcar Smoothing: 0 (USB2+H05261)
Correct for Electrical Dark: No (USB2+H05261)
Strobe/Lamp Enabled: No (USB2+H05261)
Correct for Detector Non-linearity: No (USB2+H05261)
Correct for Stray Light: No (USB2+H05261)
Number of Pixels in Processed Spectrum: 2048
>>>>>Begin Processed Spectral Data<<<<<
365.73	42.13
365.92	42.13
366.12	42.13
366.32	0.00
366.52	0.00
366.72	9.36
366.91	0.00
367.11	0.00
367.31	0.00
367.51	0.00
367.70	0.00
367.90	0.00
368.10	0.00
368.30	18.72
368.49	0.00
368.69	0.00
368.89	0.00
369.09	0.00
369.28	0.00
369.48	0.00
369.68	0.00
369.87	0.00
370.07	39.79
370.27	9.36
370.47	201.29
370.66	341.72
370.86	454.06
371.06	493.85
371.25	461.09
371.45	470.45
371.65	503.22
371.84	498.53
372.04	374.49
372.24	582.79
372.44	496.19
372.63	503.22
372.83	599.18
373.03	568.75
373.22	510.24
373.42	568.75
373.62	620.24
373.81	578.11
374.01	634.29
374.21	629.60
374.40	575.77
374.60	713.86
374.79	608.54
374.99	613.22
375.19	716.20
375.38	624.92
375.58	620.24
375.78	671.73
375.97	655.35
376.17	777.06
376.37	690.46
376.56	706.84
376.76	648.33
376.95	681.10
377.15	758.33
377.35	636.63
377.54	713.86
377.74	706.84
377.93	758.33
378.13	781.74
378.33	741.95
378.52	781.74
378.72	744.29
378.91	805.14
379.11	725.57
379.31	772.38
379.50	767.70
379.70	833.23
379.89	823.87
380.09	770.04
380.28	772.38
380.48	807.48
380.68	805.14
380.87	781.74
381.07	781.74
381.26	840.25
381.46	891.74
381.65	779.40
381.85	840.25
382.04	758.33
382.24	861.32
382.43	950.26
382.63	884.72
382.83	940.90
383.02	976.00
383.22	870.68
383.41	905.79
383.61	1015.79
383.80	917.49
384.00	828.55
384.19	924.51
384.39	933.87
384.58	938.55
384.78	983.02
384.97	992.39
385.17	922.17
385.36	931.53
385.56	1060.26
385.75	938.55
385.95	912.81
386.14	1069.62
386.34	1064.94
386.53	1163.25
386.72	966.64
386.92	1121.12
387.11	1074.31
387.31	1015.79
387.50	1083.67
387.70	1067.28
387.89	1139.84
388.09	1107.07
388.28	1041.54
388.48	1102.39
388.67	1116.44
388.86	1064.94
389.06	1095.37
389.25	1144.52
389.45	1181.97
389.64	1137.50
389.84	1188.99
390.03	1123.46
390.22	1263.89
390.42	1125.80
390.61	1252.19
390.81	1226.44
391.00	1231.12
391.19	1301.34
391.39	1256.87
391.58	1254.53
391.78	1273.25
391.97	1341.13
392.16	1287.29
392.36	1324.74
392.55	1401.98
392.75	1329.42
392.94	1296.66
393.13	1399.64
393.33	1277.93
393.52	1373.89
393.71	1430.07
393.91	1392.62
394.10	1413.68
394.29	1479.22
394.49	1416.02
394.68	1483.90
394.88	1411.34
395.07	1455.81
395.26	1575.18
395.46	1521.35
395.65	1495.60
395.84	1502.62
396.04	1519.01
396.23	1605.61
396.42	1460.49
396.62	1671.14
396.81	1565.82
397.00	1593.90
397.19	1582.20
397.39	1661.78
397.58	1673.48
397.77	1713.27
397.97	1785.83
398.16	1666.46
398.35	1832.64
398.55	1774.13
398.74	1720.29
398.93	1806.89
399.12	1823.28
399.32	1818.60
399.51	1792.85
399.70	1764.76
399.90	1923.92
400.09	1919.24
400.28	1935.62
400.47	1919.24
400.67	1996.48
400.86	1935.62
401.05	1902.86
401.24	2026.90
401.44	1912.22
401.63	1909.88
401.82	2001.16
402.01	2003.50
402.21	1935.62
402.40	2101.80
402.59	2024.56
402.78	2111.16
402.97	2132.23
403.17	2139.25
403.36	2195.42
403.55	2129.89
403.74	2115.84
403.93	2209.47
404.13	2321.81
404.32	2263.30
404.51	2349.90
404.70	2326.49
404.89	2275.00
405.09	2263.30
405.28	2293.72
405.47	2324.15
405.66	2324.15
405.85	2349.90
406.05	2406.07
406.24	2401.39
406.43	2499.69
406.62	2485.65
406.81	2572.25
407.00	2462.24
407.20	2523.10
407.39	2532.46
407.58	2520.76
407.77	2569.91
407.96	2539.48
408.15	2616.72
408.34	2605.02
408.54	2820.35
408.73	2782.90
408.92	2750.13
409.11	2761.83
409.30	2869.50
409.49	2778.22
409.68	2715.02
409.87	2836.73
410.07	2768.85
410.26	2902.26
410.45	2855.45
410.64	2883.54
410.83	3098.87
411.02	3038.02
411.21	3049.72
411.40	3030.99
411.59	3206.53
411.78	2928.01
411.98	3056.74
412.17	3251.00
412.36	3253.34
412.55	3192.49
412.74	3297.81
412.93	3405.48
413.12	3363.35
413.31	3555.27
413.50	3522.51
413.69	3482.72
413.88	3531.87
414.07	3545.91
414.26	3574.00
414.45	3630.17
414.64	3686.34
414.83	3735.50
415.02	3754.22
415.22	3698.05
415.41	3786.99
415.60	3747.20
415.79	3812.73
415.98	3901.67
416.17	3925.08
416.36	3927.42
416.55	4007.00
416.74	4042.11
416.93	4105.30
417.12	4058.49
417.31	4210.62
417.50	4046.79
417.69	4313.61
417.88	4182.54
418.07	4215.30
418.26	4184.88
418.45	4381.48
418.64	4587.45
418.83	4505.53
419.02	4308.93
419.21	4489.15
419.39	4617.88
419.58	4500.85
419.77	4461.06
419.96	4608.51
420.15	4629.58
420.34	4709.16
420.53	4662.35
420.72	4594.47
420.91	4840.23
421.10	4800.44
421.29	4971.30
421.48	4713.84
421.67	4821.50
421.86	4772.35
422.05	4875.34
422.24	4983.00
422.43	4774.69
422.61	4840.23
422.80	4924.49
422.99	4924.49
423.18	4854.27
423.37	5078.96
423.56	4964.28
423.75	4924.49
423.94	4898.74
424.13	4774.69
424.32	4821.50
424.50	5036.83
424.69	5013.43
424.88	5090.67
425.07	4884.70
425.26	4959.60
425.45	5022.79
425.64	5060.24
425.83	5097.69
426.01	5240.46
426.20	5081.30
426.39	5217.05
426.58	5130.45
426.77	5249.82
426.96	5352.81
427.15	5186.63
427.33	5139.82
427.52	5219.39
427.71	5371.53
427.90	5376.21
428.09	5441.75
428.28	5528.35
428.46	5528.35
428.65	5619.63
428.84	5636.01
429.03	5521.32
429.22	5521.32
429.40	5582.18
429.59	5579.84
429.78	5277.91
429.97	5439.40
430.16	5547.07
430.34	5722.61
430.53	5753.04
430.72	5757.72
430.91	5654.73
431.10	5717.93
431.28	5849.00
431.47	6015.18
431.66	5839.64
431.85	5980.07
432.03	6069.01
432.22	6071.35
432.41	5980.07
432.60	6080.71
432.79	6047.94
432.97	6193.06
433.16	6141.57
433.35	6033.90
433.54	6382.64
433.72	6277.32
433.91	6314.77
434.10	6363.92
434.28	6251.57
434.47	6396.68
434.66	6319.45
434.85	6499.67
435.03	6471.58
435.22	6527.75
435.41	6951.39
435.59	6883.52
435.78	6930.33
435.97	6609.67
436.16	6654.14
436.34	6562.86
436.53	6764.15
436.72	6829.68
436.90	6703.29
437.09	6839.05
437.28	6710.32
437.46	6916.28
437.65	6822.66
437.84	7021.61
438.02	6925.65
438.21	6904.58
438.40	6923.30
438.58	7253.32
438.77	7208.85
438.96	7166.72
439.14	7119.91
439.33	7173.74
439.52	7494.40
439.70	7433.54
439.89	7438.22
440.08	7480.35
440.26	7559.93
440.45	7581.00
440.63	7723.77
440.82	7761.22
441.01	7700.36
441.19	7962.50
441.38	7995.27
441.57	7978.89
441.75	7955.48
441.94	8131.02
442.12	8084.21
442.31	8205.92
442.50	8196.56
442.68	8091.23
442.87	8287.84
443.05	8477.42
443.24	8475.08
443.43	8348.69
443.61	8388.48
443.80	8800.41
443.98	8472.74
444.17	8081.87
444.35	8667.00
444.54	8788.71
444.73	8741.90
444.91	8400.18
445.10	8627.21
445.28	8468.06
445.47	8510.19
445.65	8512.53
445.84	8662.32
446.02	8800.41
446.21	8601.47
446.39	8514.87
446.58	8723.18
446.77	8624.87
446.95	8636.58
447.14	8535.93
447.32	8865.95
447.51	8879.99
447.69	8648.28
447.88	8739.56
448.06	8695.09
448.25	8727.86
448.43	8959.57
448.62	8966.59
448.80	8872.97
448.99	8861.27
449.17	9022.77
449.36	8889.35
449.54	9060.21
449.73	9083.62
449.91	9373.85
450.10	9015.74
450.28	9261.50
450.46	9380.87
450.65	9439.38
450.83	9483.85
451.02	9256.82
451.20	9441.72
451.39	9472.15
451.57	9266.18
451.76	9420.66
451.94	9570.45
452.13	9713.22
452.31	9593.86
452.49	9586.83
452.68	9628.96
452.86	9563.43
453.05	9757.69
453.23	9916.85
453.42	9825.57
453.60	9579.81
453.78	9806.84
453.97	9577.47
454.15	9891.10
454.34	9867.70
454.52	10228.14
454.70	10120.48
454.89	10115.80
455.07	10171.97
455.26	10029.20
455.44	10504.32
455.62	10087.71
455.81	10139.20
455.99	10310.06
456.17	10235.16
456.36	10359.21
456.54	10314.74
456.73	10588.58
456.91	10834.34
457.09	10963.07
457.28	10782.85
457.46	10743.06
457.64	10930.30
457.83	10834.34
458.01	10909.24
458.19	11180.74
458.38	10810.93
458.56	11154.99
458.74	11094.14
458.93	10911.58
459.11	11044.99
459.29	11016.90
459.48	11037.97
459.66	11157.33
459.84	11260.32
460.03	11438.20
460.21	11236.91
460.39	11426.50
460.57	11272.02
460.76	11473.31
460.94	11585.65
461.12	11578.63
461.31	11573.95
461.49	11695.66
461.67	11590.33
461.85	11782.26
462.04	11735.45
462.22	12351.01
462.40	11847.79
462.59	11644.17
462.77	11742.47
462.95	11901.62
463.13	12032.69
463.32	11885.24
463.50	12166.10
463.68	12053.76
463.86	12290.15
464.05	11964.82
464.23	11971.84
464.41	12470.37
464.59	11922.69
464.78	12575.70
464.96	12292.49
465.14	12229.30
465.32	12432.93
465.50	12629.53
465.69	12627.19
465.87	12250.36
466.05	12461.01
466.23	12486.76
466.41	12643.57
466.60	13107.00
466.78	12709.11
466.96	12458.67
467.14	12613.15
467.32	12748.90
467.51	13083.59
467.69	12716.13
467.87	12882.31
468.05	13046.15
468.23	12807.41
468.41	12826.14
468.60	13137.43
468.78	13280.20
468.96	13041.46
469.14	13371.48
469.32	13661.71
469.50	13074.23
469.69	13252.11
469.87	13626.60
470.05	13441.70
470.23	13621.92
470.41	13619.58
470.59	13593.83
470.77	13645.32
470.95	13717.88
471.14	14045.55
471.32	13720.22
471.50	14438.76
471.68	14017.47
471.86	14319.40
472.04	14253.86
472.22	14398.98
472.40	14169.60
472.58	14476.21
472.77	14644.73
472.95	14607.28
473.13	15131.56
473.31	14466.85
473.49	14810.91
473.67	14778.14
473.85	15115.18
474.03	15190.08
474.21	15140.93
474.39	15211.14
474.57	15318.81
474.75	15480.30
474.93	15541.16
475.12	15536.48
475.30	15484.98
475.48	15817.34
475.66	15693.29
475.84	15829.04
476.02	15955.43
476.20	16006.92
476.38	16477.37
476.56	16669.30
476.74	16442.26
476.92	16493.76
477.10	16505.46
477.28	16901.01
477.46	16617.80
477.64	17025.06
477.82	16987.61
478.00	17387.84
478.18	17621.89
478.36	17748.28
478.54	17687.43
478.72	17851.27
478.90	17975.31
479.08	18038.51
479.26	18092.34
479.44	18436.40
479.62	18768.76
479.80	18941.96
479.98	18895.14
480.16	19253.25
480.34	19000.47
480.52	19470.92
480.70	19325.80
480.88	19566.88
481.06	19356.23
481.24	19515.39
481.41	19611.35
481.59	20219.89
481.77	20353.30
481.95	20617.78
482.13	20489.05
482.31	20666.93
482.49	21008.65
482.67	21109.29
482.85	21256.75
483.03	21523.57
483.21	21649.96
483.39	21790.39
483.57	22066.57
483.74	21781.03
483.92	21975.29
484.10	22324.03
484.28	22951.29
484.46	22768.73
484.64	23183.01
484.82	22998.10
485.00	23208.75
485.18	23580.90
485.35	24149.65
485.53	23894.53
485.71	23772.82
485.89	24540.52
486.07	24215.18
486.25	24416.47
486.43	24826.06
486.61	24781.59
486.78	25275.45
486.96	25551.63
487.14	25694.40
487.32	25582.06
487.50	25982.29
487.68	25872.28
487.85	26422.31
488.03	26672.74
488.21	26960.63
488.39	27037.87
488.57	27243.84
488.75	27215.75
488.92	27566.83
489.10	27995.15
489.28	28175.37
489.46	28402.40
489.64	28273.67
489.81	29099.88
489.99	28821.36
490.17	29153.71
490.35	29511.81
490.53	29439.26
490.70	29565.65
490.88	29600.76
491.06	29778.64
491.24	29996.31
491.41	29996.31
491.59	30637.61
491.77	30658.68
491.95	30881.03
492.13	31026.14
492.30	31590.21
492.48	31442.76
492.66	31321.05
492.84	31412.33
493.01	32161.30
493.19	32137.90
493.37	32259.60
493.54	32320.46
493.72	32882.19
493.90	32678.56
494.08	33315.19
494.25	33418.17
494.43	33809.04
494.61	33996.28
494.79	33919.04
494.96	34038.41
495.14	33888.62
495.32	34382.47
495.49	34646.95
495.67	34876.32
495.85	35056.54
496.02	35236.77
496.20	35894.46
496.38	35526.99
496.55	35889.77
496.73	36334.48
496.91	35819.56
497.09	36645.77
497.26	36493.63
497.44	36360.22
497.62	37022.59
497.79	37305.80
497.97	37057.70
498.14	37361.97
498.32	37439.21
498.50	37734.12
498.67	38394.15
498.85	37687.31
499.03	38230.31
499.20	38120.31
499.38	38555.64
499.56	38312.23
499.73	38883.32
499.91	39103.33
500.08	39122.05
500.26	39274.19
500.44	39372.49
500.61	39552.71
500.79	39531.65
500.97	39782.09
501.14	40271.26
501.32	40360.20
501.49	40137.85
501.67	40079.33
501.84	40046.57
502.02	40128.48
502.20	41273.01
502.37	40996.82
502.55	41020.23
502.72	41514.08
502.90	41134.92
503.07	41015.55
503.25	41614.72
503.43	41640.47
503.60	41888.57
503.78	42012.62
503.95	42024.32
504.13	41944.74
504.30	42323.91
504.48	41963.46
504.65	42265.39
504.83	42700.73
505.01	42906.70
505.18	43072.88
505.36	43103.31
505.53	42878.61
505.71	43115.01
505.88	43473.11
506.06	43091.60
506.23	43695.46
506.41	43590.14
506.58	44109.74
506.76	43543.33
506.93	44081.65
507.11	43924.83
507.28	44514.65
507.46	44432.73
507.63	44657.42
507.81	44879.77
507.98	44554.44
508.16	44854.03
508.33	44996.80
508.50	45010.84
508.68	45705.98
508.85	45773.86
509.03	45485.97
509.20	45773.86
509.38	45717.68
509.55	46270.05
509.73	46185.79
509.90	46426.87
510.08	46548.57
510.25	46504.10
510.42	46827.10
510.60	46955.83
510.77	47040.09
510.95	46658.58
511.12	46609.43
511.30	46824.76
511.47	47285.84
511.64	47885.02
511.82	47728.20
511.99	47555.00
512.17	47461.38
512.34	47625.22
512.51	47875.66
512.69	47976.30
512.86	47885.02
513.04	48179.93
513.21	48404.62
513.38	48229.08
513.56	48545.05
513.73	48353.13
513.90	48655.06
514.08	48540.37
514.25	48868.05
514.43	49134.87
514.60	49106.78
514.77	48994.43
514.95	49310.41
515.12	49226.15
515.29	48971.03
515.47	49602.97
515.64	49591.27
515.81	49729.36
515.99	50190.45
516.16	50078.10
516.33	50197.47
516.51	50195.13
516.68	49876.82
516.85	50417.48
517.03	50342.58
517.20	50312.16
517.37	50637.49
517.54	50719.41
517.72	50855.16
517.89	50726.43
518.06	50696.00
518.24	50777.92
518.41	50506.42
518.58	51079.85
518.75	51028.36
518.93	51210.92
519.10	51103.26
519.27	51255.39
519.45	51072.83
519.62	51271.78
519.79	51138.36
519.96	51562.00
520.14	51943.51
520.31	51643.92
520.48	51901.38
520.65	51690.73
520.83	52154.16
521.00	51934.15
521.17	52018.41
521.34	51856.91
521.52	52102.67
521.69	52364.81
521.86	52315.65
522.03	52704.18
522.20	52671.42
522.38	52556.73
522.55	52566.09
522.72	52676.10
522.89	52629.29
523.07	52940.58
523.24	53212.08
523.41	53277.61
523.58	52818.87
523.75	53151.23
523.92	52846.96
524.10	53116.12
524.27	53183.99
524.44	53392.30
524.61	53862.75
524.78	53722.32
524.96	53598.27
525.13	53631.04
525.30	53591.25
525.47	53982.12
525.64	53750.40
525.81	53902.54
525.98	54148.29
526.16	54075.74
526.33	54120.21
526.50	54295.75
526.67	53914.24
526.84	54358.94
527.01	54167.02
527.18	54265.32
527.36	54543.84
527.53	54670.23
527.70	54817.69
527.87	54410.43
528.04	54443.20
528.21	54653.85
528.38	54499.37
528.55	54726.41
528.72	54487.67
528.89	54700.66
529.07	54726.41
529.24	54719.38
529.41	54770.88
529.58	54789.60
529.75	54749.81
529.92	54986.21
530.09	55341.97
530.26	55051.74
530.43	55159.41
530.60	55100.89
530.77	55103.23
530.94	55241.32
531.11	55028.34
531.28	54972.16
531.46	55405.16
531.63	55140.68
531.80	55770.28
531.97	55627.51
532.14	55454.31
532.31	55648.58
532.48	55767.94
532.65	55721.13
532.82	55793.69
532.99	56074.55
533.16	55847.52
533.33	55987.95
533.50	56170.52
533.67	56240.73
533.84	56030.08
534.01	55786.67
534.18	55653.26
534.35	56236.05
534.52	56191.58
534.69	56292.22
534.86	56226.69
535.03	56552.02
535.20	56388.19
535.37	56540.32
535.54	56594.15
535.71	56287.54
535.88	56423.29
536.05	56388.19
536.22	56704.16
536.38	56713.52
536.55	56706.50
536.72	56535.64
536.89	56645.65
537.06	56690.12
537.23	56760.33
537.40	56645.65
537.57	56963.96
537.74	57043.54
537.91	57123.11
538.08	57284.61
538.25	56938.21
538.42	56889.06
538.59	57293.97
538.75	56910.13
538.92	56863.32
539.09	57242.48
539.26	57560.79
539.43	57403.98
539.60	57408.66
539.77	57415.68
539.94	57574.84
540.11	57474.20
540.28	57499.94
540.44	57506.96
540.61	57408.66
540.78	57621.65
540.95	57944.64
541.12	57925.92
541.29	57602.92
541.46	57851.02
541.62	57715.27
541.79	57790.17
541.96	57921.24
542.13	57839.32
542.30	57827.62
542.47	58274.66
542.63	58145.93
542.80	58220.83
542.97	58356.58
543.14	58230.19
543.31	58239.55
543.48	58155.29
543.64	58585.95
543.81	58429.13
543.98	58515.73
544.15	58454.88
544.32	58693.61
544.48	58494.67
544.65	58305.09
544.82	58445.52
544.99	58253.59
545.16	58419.77
545.32	58419.77
545.49	58911.28
545.66	59178.10
545.83	59168.74
546.00	59423.86
546.16	58812.98
546.33	58838.73
546.50	58560.20
546.67	58684.25
546.83	58534.46
547.00	58911.28
547.17	58906.60
547.34	59002.56
547.50	59166.40
547.67	59025.97
547.84	58796.60
548.00	59049.38
548.17	59065.76
548.34	59040.01
548.51	59044.69
548.67	59302.15
548.84	59075.12
549.01	59196.83
549.18	59000.22
549.34	59199.17
549.51	59107.89
549.68	59150.02
549.84	59281.09
550.01	59337.26
550.18	59040.01
550.34	59475.35
550.51	59543.23
550.68	59559.61
550.84	59201.51
551.01	59529.19
551.18	59377.05
551.34	59276.41
551.51	59554.93
551.68	59547.91
551.84	59655.57
552.01	59597.06
552.18	59669.62
552.34	59395.77
552.51	59671.96
552.68	59454.29
552.84	59648.55
553.01	59756.22
553.18	59966.87
553.34	59798.35
553.51	59767.92
553.67	59985.59
553.84	59929.42
554.01	59931.76
554.17	59971.55
554.34	59889.63
554.51	59824.09
554.67	60093.25
554.84	59898.99
555.00	59866.22
555.17	59973.89
555.33	59889.63
555.50	60013.68
555.67	59969.21
555.83	60142.41
556.00	60156.45
556.16	60259.43
556.33	60074.53
556.50	60296.88
556.66	60168.15
556.83	60261.77
556.99	60360.08
557.16	60254.75
557.32	60280.50
557.49	60430.29
557.65	60186.88
557.82	60383.48
557.98	60186.88
558.15	60498.17
558.32	60367.10
558.48	60376.46
558.65	60470.08
558.81	60645.62
558.98	60528.59
559.14	60364.76
559.31	60413.91
559.47	60324.97
559.64	60507.53
559.80	60505.19
559.97	60830.52
560.13	60261.77
560.30	60680.73
560.46	60844.57
560.63	60631.58
560.79	60519.23
560.96	60729.88
561.12	60547.32
561.29	60470.08
561.45	60769.67
561.61	60725.20
561.78	60968.61
561.94	60793.07
562.11	60767.33
562.27	60795.42
562.44	60711.16
562.60	60575.40
562.77	60837.54
562.93	60526.25
563.10	60697.11
563.26	60699.45
563.42	60823.50
563.59	60882.02
563.75	60970.96
563.92	60811.80
564.08	60851.59
564.24	60867.97
564.41	60753.29
564.57	60818.82
564.74	60893.72
564.90	61013.08
565.07	60973.30
565.23	61190.97
565.39	61130.11
565.56	61305.65
565.72	61027.13
565.88	60947.55
566.05	60891.38
566.21	61031.81
566.38	60739.24
566.54	60975.64
566.70	61221.39
566.87	61179.26
567.03	60992.02
567.19	61235.44
567.36	61258.84
567.52	61099.68
567.68	61305.65
567.85	60903.08
568.01	61038.83
568.17	61139.47
568.34	61214.37
568.50	61202.67
568.66	61132.45
568.83	61345.44
568.99	61268.20
569.15	61207.35
569.32	61057.56
569.48	61240.12
569.64	61216.71
569.81	61207.35
569.97	61279.91
570.13	61368.85
570.30	61226.07
570.46	61296.29
570.62	61104.37
570.78	61137.13
570.95	61291.61
571.11	61233.10
571.27	61146.50
571.43	61312.67
571.60	61214.37
571.76	61050.53
571.92	61303.31
572.09	61277.57
572.25	61593.54
572.41	61478.85
572.57	61483.53
572.74	61453.11
572.90	61315.01
573.06	61628.65
573.22	61375.87
573.38	61382.89
573.55	61392.25
573.71	61736.31
573.87	61595.88
574.03	61237.78
574.20	61605.24
574.36	61352.46
574.52	61434.38
574.68	61661.41
574.84	61581.84
575.01	61607.58
575.17	61490.55
575.33	61455.45
575.49	61279.91
575.65	61656.73
575.82	61399.27
575.98	61427.36
576.14	61607.58
576.30	61731.63
576.46	61614.60
576.62	61242.46
576.79	61609.92
576.95	61263.52
577.11	61528.00
577.27	61556.09
577.43	61647.37
577.59	61607.58
577.75	61645.03
577.92	61453.11
578.08	61406.30
578.24	61696.52
578.40	61626.31
578.56	61740.99
578.72	61598.22
578.88	61780.78
579.04	61797.16
579.21	61614.60
579.37	61792.48
579.53	61867.38
579.69	61345.44
579.85	61513.96
580.01	61701.20
580.17	61630.99
580.33	61642.69
580.49	61759.72
580.65	61895.47
580.82	61630.99
580.98	61668.44
581.14	61630.99
581.30	61717.59
581.46	61518.64
581.62	61549.07
581.78	61546.73
581.94	61904.83
582.10	61724.61
582.26	61776.10
582.42	61659.07
582.58	61893.13
582.74	61829.93
582.90	61893.13
583.06	61743.33
583.22	61553.75
583.38	61638.01
583.54	61607.58
583.70	61764.40
583.86	61509.28
584.02	61520.98
584.18	61619.28
584.34	61722.27
584.50	61733.97
584.66	61853.34
584.82	61682.48
584.98	61984.41
585.14	61661.41
585.30	61602.90
585.46	61464.81
585.62	61544.39
585.78	61808.87
585.94	61551.41
586.10	61839.29
586.26	61783.12
586.42	61937.60
586.58	62087.39
586.74	61712.91
586.90	61684.82
587.06	61717.59
587.22	62005.47
587.38	61806.53
587.54	61935.26
587.70	62183.35
587.86	62021.86
588.02	61886.10
588.18	62155.27
588.34	62066.33
588.49	62054.62
588.65	61738.65
588.81	61970.36
588.97	61951.64
