SpectraSuite Data File
++++++++++++++++++++++++++++++++++++
Date: Fri Oct 04 11:39:54 GMT-05:00 2013
User: price-jones
Dark Spectrum Present: No
Reference Spectrum Present: No
Number of Sampled Component Spectra: 1
Spectrometers: USB2+H05261
Integration Time (usec): 100000 (USB2+H05261)
Spectra Averaged: 1 (USB2+H05261)
Boxcar Smoothing: 0 (USB2+H05261)
Correct for Electrical Dark: No (USB2+H05261)
Strobe/Lamp Enabled: No (USB2+H05261)
Correct for Detector Non-linearity: No (USB2+H05261)
Correct for Stray Light: No (USB2+H05261)
Number of Pixels in Processed Spectrum: 2048
>>>>>Begin Processed Spectral Data<<<<<
365.73	46.81
365.92	46.81
366.12	46.81
366.32	0.00
366.52	0.00
366.72	0.00
366.91	0.00
367.11	4.68
367.31	0.00
367.51	0.00
367.70	0.00
367.90	0.00
368.10	0.00
368.30	0.00
368.49	0.00
368.69	0.00
368.89	14.04
369.09	0.00
369.28	32.77
369.48	39.79
369.68	0.00
369.87	0.00
370.07	0.00
370.27	46.81
370.47	128.73
370.66	77.24
370.86	93.62
371.06	110.01
371.25	154.48
371.45	145.11
371.65	142.77
371.84	119.37
372.04	93.62
372.24	131.07
372.44	140.43
372.63	306.61
372.83	269.16
373.03	215.33
373.22	182.56
373.42	166.18
373.62	280.86
373.81	236.39
374.01	234.05
374.21	184.90
374.40	224.69
374.60	194.26
374.79	203.63
374.99	196.60
375.19	224.69
375.38	198.95
375.58	252.78
375.78	196.60
375.97	210.65
376.17	224.69
376.37	245.76
376.56	257.46
376.76	266.82
376.95	248.10
377.15	276.18
377.35	241.08
377.54	212.99
377.74	231.71
377.93	201.29
378.13	168.52
378.33	262.14
378.52	248.10
378.72	224.69
378.91	245.76
379.11	184.90
379.31	234.05
379.50	245.76
379.70	243.42
379.89	322.99
380.09	236.39
380.28	257.46
380.48	212.99
380.68	156.82
380.87	191.92
381.07	184.90
381.26	257.46
381.46	259.80
381.65	224.69
381.85	243.42
382.04	173.20
382.24	252.78
382.43	182.56
382.63	168.52
382.83	280.86
383.02	248.10
383.22	271.50
383.41	217.67
383.61	315.97
383.80	269.16
384.00	248.10
384.19	285.55
384.39	257.46
384.58	180.22
384.78	198.95
384.97	250.44
385.17	252.78
385.36	177.88
385.56	327.68
385.75	196.60
385.95	220.01
386.14	264.48
386.34	304.27
386.53	245.76
386.72	166.18
386.92	262.14
387.11	229.37
387.31	266.82
387.50	278.52
387.70	231.71
387.89	236.39
388.09	290.23
388.28	266.82
388.48	266.82
388.67	304.27
388.86	313.63
389.06	287.89
389.25	297.25
389.45	341.72
389.64	252.78
389.84	341.72
390.03	322.99
390.22	339.38
390.42	306.61
390.61	278.52
390.81	327.68
391.00	311.29
391.19	299.59
391.39	301.93
391.58	315.97
391.78	313.63
391.97	332.36
392.16	362.78
392.36	388.53
392.55	337.04
392.75	362.78
392.94	360.44
393.13	437.68
393.33	348.74
393.52	360.44
393.71	388.53
393.91	348.74
394.10	304.27
394.29	369.80
394.49	311.29
394.68	372.15
394.88	383.85
395.07	404.91
395.26	404.91
395.46	433.00
395.65	404.91
395.84	369.80
396.04	411.93
396.23	409.59
396.42	440.02
396.62	409.59
396.81	477.47
397.00	369.80
397.19	355.76
397.39	430.66
397.58	486.83
397.77	451.72
397.97	411.93
398.16	430.66
398.35	486.83
398.55	409.59
398.74	486.83
398.93	437.68
399.12	456.40
399.32	416.62
399.51	484.49
399.70	559.39
399.90	486.83
400.09	472.79
400.28	559.39
400.47	582.79
400.67	587.47
400.86	524.28
401.05	505.56
401.24	603.86
401.44	634.29
401.63	573.43
401.82	592.16
402.01	545.34
402.21	606.20
402.40	589.82
402.59	599.18
402.78	627.26
402.97	589.82
403.17	578.11
403.36	699.82
403.55	601.52
403.74	681.10
403.93	610.88
404.13	702.16
404.32	662.37
404.51	739.61
404.70	784.08
404.89	727.91
405.09	758.33
405.28	711.52
405.47	671.73
405.66	723.23
405.85	774.72
406.05	765.36
406.24	814.51
406.43	748.97
406.62	725.57
406.81	830.89
407.00	861.32
407.20	891.74
407.39	835.57
407.58	833.23
407.77	870.68
407.96	868.34
408.15	976.00
408.34	952.60
408.54	943.24
408.73	889.40
408.92	964.30
409.11	924.51
409.30	896.43
409.49	1015.79
409.68	952.60
409.87	957.28
410.07	1022.81
410.26	1050.90
410.45	1074.31
410.64	976.00
410.83	1001.75
411.02	1015.79
411.21	1104.73
411.40	1167.93
411.59	1151.54
411.78	1132.82
411.98	1238.14
412.17	1036.86
412.36	1132.82
412.55	1210.06
412.74	1245.16
412.93	1245.16
413.12	1170.27
413.31	1263.89
413.50	1238.14
413.69	1289.64
413.88	1308.36
414.07	1245.16
414.26	1275.59
414.45	1266.23
414.64	1355.17
414.83	1385.60
415.02	1439.43
415.22	1416.02
415.41	1502.62
415.60	1504.96
415.79	1575.18
415.98	1458.15
416.17	1561.14
416.36	1502.62
416.55	1575.18
416.74	1631.35
416.93	1582.20
417.12	1579.86
417.31	1607.95
417.50	1678.16
417.69	1706.25
417.88	1633.69
418.07	1657.10
418.26	1657.10
418.45	1647.74
418.64	1816.26
418.83	1762.42
419.02	1710.93
419.21	1764.76
419.39	1853.70
419.58	1792.85
419.77	1820.94
419.96	1757.74
420.15	1818.60
420.34	1806.89
420.53	1806.89
420.72	1832.64
420.91	1923.92
421.10	1830.30
421.29	2059.67
421.48	1874.77
421.67	1961.37
421.86	1923.92
422.05	1994.14
422.24	1790.51
422.43	1891.15
422.61	1907.54
422.80	2043.29
422.99	1949.67
423.18	1989.46
423.37	1947.33
423.56	2160.31
423.75	2087.76
423.94	1989.46
424.13	1839.66
424.32	1919.24
424.50	2062.01
424.69	2012.86
424.88	2054.99
425.07	1916.90
425.26	1905.20
425.45	2015.20
425.64	1949.67
425.83	2022.22
426.01	2024.56
426.20	1935.62
426.39	2047.97
426.58	2090.10
426.77	2029.24
426.96	2132.23
427.15	2043.29
427.33	2052.65
427.52	2193.08
427.71	2132.23
427.90	2092.44
428.09	2167.34
428.28	2090.10
428.46	2169.68
428.65	2225.85
428.84	2282.02
429.03	2202.44
429.22	2064.35
429.40	2209.47
429.59	2275.00
429.78	2118.18
429.97	2162.66
430.16	2244.57
430.34	2202.44
430.53	2328.83
430.72	2359.26
430.91	2272.66
431.10	2349.90
431.28	2326.49
431.47	2387.35
431.66	2382.67
431.85	2413.09
432.03	2429.48
432.22	2513.74
432.41	2349.90
432.60	2513.74
432.79	2394.37
432.97	2349.90
433.16	2406.07
433.35	2516.08
433.54	2476.29
433.72	2511.39
433.91	2462.24
434.10	2471.61
434.28	2443.52
434.47	2523.10
434.66	2722.04
434.85	2530.12
435.03	2661.19
435.22	2960.78
435.41	3075.46
435.59	3073.12
435.78	2743.11
435.97	2818.00
436.16	2658.85
436.34	2595.65
436.53	2722.04
436.72	2750.13
436.90	2743.11
437.09	2712.68
437.28	2675.23
437.46	2766.51
437.65	2752.47
437.84	2661.19
438.02	2841.41
438.21	2703.32
438.40	2757.15
438.58	2832.05
438.77	2958.44
438.96	2899.92
439.14	3002.91
439.33	2850.77
439.52	2867.16
439.70	2930.35
439.89	3012.27
440.08	3000.57
440.26	2810.98
440.45	3075.46
440.63	3157.38
440.82	3122.27
441.01	3136.32
441.19	3124.62
441.38	3150.36
441.57	3204.19
441.75	3218.24
441.94	3276.75
442.12	3295.47
442.31	3283.77
442.50	3274.41
442.68	3157.38
442.87	3236.96
443.05	3346.97
443.24	3541.23
443.43	3442.93
443.61	3480.38
443.80	3456.97
443.98	3318.88
444.17	3255.69
444.35	3232.28
444.54	3358.67
444.73	3267.39
444.91	3440.59
445.10	3375.05
445.28	3382.07
445.47	3304.84
445.65	3592.72
445.84	3492.08
446.02	3529.53
446.21	3379.73
446.39	3382.07
446.58	3564.64
446.77	3538.89
446.95	3267.39
447.14	3372.71
447.32	3442.93
447.51	3536.55
447.69	3562.30
447.88	3534.21
448.06	3431.23
448.25	3473.36
448.43	3611.45
448.62	3487.40
448.80	3611.45
448.99	3555.27
449.17	3658.26
449.36	3541.23
449.54	3705.07
449.73	3590.38
449.91	3749.54
450.10	3590.38
450.28	3847.84
450.46	3742.52
450.65	3803.37
450.83	3761.24
451.02	3667.62
451.20	3728.47
451.39	3794.01
451.57	3768.26
451.76	3761.24
451.94	3875.93
452.13	3983.59
452.31	3871.25
452.49	3878.27
452.68	3948.48
452.86	3892.31
453.05	3892.31
453.23	3829.12
453.42	3850.18
453.60	3836.14
453.78	3967.21
453.97	3779.97
454.15	3824.44
454.34	3899.33
454.52	3913.38
454.70	4046.79
454.89	3948.48
455.07	3859.54
455.26	4072.53
455.44	4072.53
455.62	4049.13
455.81	3955.51
455.99	4133.39
456.17	4222.33
456.36	3983.59
456.54	4159.13
456.73	4231.69
456.91	4177.86
457.09	4290.20
457.28	4358.08
457.46	4194.24
457.64	4198.92
457.83	4381.48
458.01	4255.09
458.19	4341.69
458.38	4308.93
458.56	4423.61
458.74	4360.42
458.93	4376.80
459.11	4484.47
459.29	4425.95
459.48	4414.25
459.66	4376.80
459.84	4585.11
460.03	4554.68
460.21	4521.92
460.39	4617.88
460.57	4451.70
460.76	4514.89
460.94	4582.77
461.12	4580.43
461.31	4606.17
461.49	4716.18
461.67	4472.76
461.85	4704.48
462.04	4741.93
462.22	4975.98
462.40	4681.07
462.59	4720.86
462.77	4643.62
462.95	4692.77
463.13	4641.28
463.32	4788.74
463.50	4751.29
463.68	4873.00
463.86	4594.47
464.05	4894.06
464.23	4706.82
464.41	4880.02
464.59	4760.65
464.78	4762.99
464.96	4798.10
465.14	4788.74
465.32	4910.44
465.50	4985.34
465.69	4964.28
465.87	4926.83
466.05	4865.97
466.23	4887.04
466.41	5071.94
466.60	5034.49
466.78	5011.09
466.96	5048.54
467.14	5205.35
467.32	4971.30
467.51	5158.54
467.69	4896.40
467.87	5081.30
468.05	5139.82
468.23	5156.20
468.41	5191.31
468.60	5160.88
468.78	5268.55
468.96	5254.50
469.14	5270.89
469.32	5210.03
469.50	5305.99
469.69	5261.52
469.87	5310.68
470.05	5301.31
470.23	5366.85
470.41	5090.67
470.59	5411.32
470.77	5537.71
470.95	5528.35
471.14	5469.83
471.32	5401.96
471.50	5617.29
471.68	5366.85
471.86	5598.56
472.04	5654.73
472.22	5612.60
472.40	5680.48
472.58	5640.69
472.77	5600.90
472.95	5771.76
473.13	5919.21
473.31	5750.70
473.49	5488.56
473.67	5720.27
473.85	5811.55
474.03	5928.58
474.21	5757.72
474.39	5937.94
474.57	6073.69
474.75	6136.88
474.93	6125.18
475.12	6134.54
475.30	6260.93
475.48	6080.71
475.66	6069.01
475.84	6057.31
476.02	6434.13
476.20	6408.39
476.38	6300.72
476.56	6654.14
476.74	6466.90
476.92	6539.46
477.10	6340.51
477.28	6595.63
477.46	6401.37
477.64	6661.16
477.82	6679.89
478.00	6839.05
478.18	6740.74
478.36	6839.05
478.54	6909.26
478.72	7063.74
478.90	7101.19
479.08	7045.01
479.26	7091.82
479.44	7108.21
479.62	6972.46
479.80	7253.32
479.98	7332.90
480.16	7463.97
480.34	7524.82
480.52	7489.71
480.70	7531.84
480.88	7480.35
481.06	7557.59
481.24	7550.57
481.41	7801.01
481.59	7674.62
481.77	7854.84
481.95	7707.38
482.13	7882.92
482.31	7911.01
482.49	8173.15
482.67	8109.96
482.85	8095.91
483.03	8234.00
483.21	8416.57
483.39	8533.59
483.57	8458.70
483.74	8594.45
483.92	8645.94
484.10	8667.00
484.28	8795.73
484.46	8985.32
484.64	9013.40
484.82	8578.06
485.00	8807.44
485.18	9210.01
485.35	9090.64
485.53	9224.05
485.71	9158.52
485.89	9446.40
486.07	9291.93
486.25	9610.24
486.43	9392.57
486.61	9518.96
486.78	9748.33
486.96	9795.14
487.14	9757.69
487.32	9694.50
487.50	10104.09
487.68	9898.13
487.85	10183.67
488.03	10312.40
488.21	10436.45
488.39	10228.14
488.57	10239.84
488.75	10462.19
488.92	10651.78
489.10	10714.97
489.28	10897.53
489.46	10942.00
489.64	10934.98
489.81	11016.90
489.99	11040.31
490.17	10925.62
490.35	11276.70
490.53	11405.43
490.70	11485.01
490.88	11197.12
491.06	11625.44
491.24	11513.10
491.41	11564.59
491.59	11726.08
491.77	11826.73
491.95	11726.08
492.13	11740.13
492.30	11763.53
492.48	11929.71
492.66	11969.50
492.84	12042.06
493.01	12339.30
493.19	12219.94
493.37	12348.67
493.54	12608.47
493.72	12545.27
493.90	12554.63
494.08	12819.11
494.25	12603.78
494.43	12671.66
494.61	12849.54
494.79	13060.19
494.96	12940.82
495.14	13050.83
495.32	13247.43
495.49	13109.34
495.67	13308.29
495.85	13348.08
496.02	13441.70
496.20	13570.43
496.38	13650.00
496.55	13603.19
496.73	13872.36
496.91	13610.22
497.09	14010.45
497.26	13980.02
497.44	13762.35
497.62	14075.98
497.79	14251.52
497.97	14104.07
498.14	14223.44
498.32	14274.93
498.50	14363.87
498.67	14469.19
498.85	14576.86
499.03	14675.16
499.20	14553.45
499.38	14843.68
499.56	14857.72
499.73	14911.55
499.91	15197.10
500.08	15070.71
500.26	14988.79
500.44	14937.30
500.61	15391.36
500.79	15276.68
500.97	15424.13
501.14	15356.25
501.32	15372.64
501.49	15740.10
501.67	15447.54
501.84	15353.91
502.02	15590.31
502.20	15225.18
502.37	15690.95
502.55	15543.50
502.72	15927.35
502.90	15566.90
503.07	15630.10
503.25	16184.80
503.43	16135.65
503.60	15957.77
503.78	16248.00
503.95	16049.05
504.13	16093.52
504.30	16201.19
504.48	16610.78
504.65	16358.00
504.83	16339.28
505.01	16491.41
505.18	16491.41
505.36	16800.37
505.53	16915.05
505.71	16709.08
505.88	17057.82
506.06	16870.58
506.23	16549.93
506.41	17050.80
506.58	16992.29
506.76	16931.44
506.93	17071.87
507.11	17231.02
507.28	16971.22
507.46	17050.80
507.63	17369.12
507.81	17247.41
507.98	17280.18
508.16	17408.90
508.33	17160.81
508.50	17429.97
508.68	17626.57
508.85	17621.89
509.03	17624.23
509.20	17596.15
509.38	17851.27
509.55	17696.79
509.73	18291.29
509.90	18136.81
510.08	17972.97
510.25	18188.30
510.42	17926.16
510.60	18504.28
510.77	18515.98
510.95	18565.13
511.12	18099.36
511.30	18251.50
511.47	18656.41
511.64	18567.47
511.82	18602.58
511.99	18635.35
512.17	18590.88
512.34	18305.33
512.51	18794.50
512.69	18806.20
512.86	18745.35
513.04	18913.87
513.21	19068.34
513.38	19220.48
513.56	19550.49
513.73	18906.85
513.90	19412.40
514.08	19161.97
514.25	19543.47
514.43	19452.19
514.60	19325.80
514.77	19337.51
514.95	19524.75
515.12	19761.14
515.29	19330.48
515.47	19686.25
515.64	19571.56
515.81	19686.25
515.99	20133.29
516.16	19878.17
516.33	20112.22
516.51	20390.75
516.68	19981.15
516.85	19964.77
517.03	20034.99
517.20	20475.01
517.37	20327.55
517.54	20376.70
517.72	20320.53
517.89	20297.13
518.06	20386.07
518.24	19978.81
518.41	20423.51
518.58	20446.92
518.75	20556.93
518.93	20437.56
519.10	20294.79
519.27	20910.35
519.45	20264.36
519.62	20783.96
519.79	20702.04
519.96	21067.16
520.14	20903.32
520.31	20950.14
520.48	21029.71
520.65	21184.19
520.83	21378.45
521.00	21020.35
521.17	21177.17
521.34	21378.45
521.52	21195.89
521.69	21678.04
521.86	21263.77
522.03	21556.33
522.20	21259.09
522.38	21429.94
522.55	21359.73
522.72	21837.20
522.89	21855.92
523.07	21951.88
523.24	21570.38
523.41	21729.53
523.58	21743.58
523.75	21806.77
523.92	21584.42
524.10	22015.08
524.27	22101.68
524.44	22178.92
524.61	22738.30
524.78	22551.06
524.96	22239.77
525.13	22223.39
525.30	22139.13
525.47	22188.28
525.64	22537.02
525.81	22148.49
525.98	22834.27
526.16	22508.93
526.33	22199.98
526.50	22623.62
526.67	22237.43
526.84	22593.19
527.01	22317.01
527.18	22712.56
527.36	22937.25
527.53	23197.05
527.70	23236.84
527.87	23047.26
528.04	23276.63
528.21	23073.00
528.38	22876.40
528.55	22967.68
528.72	22944.27
528.89	23248.54
529.07	22946.61
529.24	23023.85
529.41	23241.52
529.58	22782.77
529.75	22946.61
529.92	23400.68
530.09	22960.66
530.26	23524.72
530.43	23438.12
530.60	23510.68
530.77	23318.76
530.94	23513.02
531.11	23435.78
531.28	23405.36
531.46	23482.59
531.63	23824.31
531.80	23812.61
531.97	24137.94
532.14	23793.89
532.31	23393.65
532.48	24163.69
532.65	23812.61
532.82	23817.29
532.99	24060.71
533.16	23807.93
533.33	23960.06
533.50	24180.07
533.67	24156.67
533.84	24051.34
534.01	24086.45
534.18	24109.86
534.35	24194.12
534.52	24060.71
534.69	24573.28
534.86	24568.60
535.03	24154.33
535.20	24304.12
535.37	24311.14
535.54	24912.66
535.71	24217.52
535.88	24671.59
536.05	24414.13
536.22	24610.73
536.38	24613.07
536.55	24737.12
536.72	24772.23
536.89	24386.04
537.06	24837.76
537.23	24751.17
537.40	24620.10
537.57	24397.74
537.74	24868.19
537.91	24828.40
538.08	25057.78
538.25	24926.71
538.42	25067.14
538.59	25137.35
538.75	24797.98
538.92	24950.11
539.09	25226.29
539.26	25120.97
539.43	25118.63
539.60	25560.99
539.77	25432.26
539.94	25748.23
540.11	25420.56
540.28	25504.82
540.44	25324.60
540.61	25427.58
540.78	25390.13
540.95	25614.82
541.12	25734.19
541.29	25701.42
541.46	26204.64
541.62	26169.53
541.79	25898.03
541.96	25823.13
542.13	25830.15
542.30	26335.71
542.47	26321.66
542.63	26251.45
542.80	26216.34
542.97	26459.76
543.14	26335.71
543.31	26759.34
543.48	26401.24
543.64	26607.21
543.81	26761.69
543.98	26700.83
544.15	26291.24
544.32	26747.64
544.48	26642.32
544.65	26497.20
544.82	26522.95
544.99	26122.72
545.16	26691.47
545.32	26796.79
545.49	27072.98
545.66	27597.26
545.83	27843.01
546.00	27484.91
546.16	27321.07
546.33	26623.59
546.50	26651.68
546.67	26836.58
546.83	26410.60
547.00	26803.82
547.17	26845.94
547.34	26946.59
547.50	26897.44
547.67	27157.24
547.84	27192.34
548.00	26965.31
548.17	27349.16
548.34	26871.69
548.51	27115.11
548.67	26998.08
548.84	26904.46
549.01	26677.43
549.18	27201.71
549.34	27278.94
549.51	27096.38
549.68	27054.25
549.84	27117.45
550.01	27311.71
550.18	27393.63
550.34	27112.77
550.51	27215.75
550.68	27220.43
550.84	26939.57
551.01	27180.64
551.18	27161.92
551.34	26899.78
551.51	27505.98
551.68	27402.99
551.84	27241.50
552.01	27496.61
552.18	27117.45
552.34	27339.80
552.51	27435.76
552.68	27080.00
552.84	27379.59
553.01	27475.55
553.18	27091.70
553.34	27786.84
553.51	27524.70
553.67	27262.56
553.84	27557.47
554.01	27814.93
554.17	27419.38
554.34	27510.66
554.51	27264.90
554.67	27957.70
554.84	28046.64
555.00	27290.65
555.17	27534.06
555.33	27782.16
555.50	27459.16
555.67	27728.33
555.83	27709.60
556.00	27505.98
556.16	27733.01
556.33	27761.09
556.50	27632.36
556.66	28144.94
556.83	27871.10
556.99	28002.17
557.16	28088.77
557.32	27749.39
557.49	27821.95
557.65	27623.00
557.82	27417.04
557.98	27740.03
558.15	27920.25
558.32	27880.46
558.48	27917.91
558.65	27880.46
558.81	27758.75
558.98	27583.21
559.14	27922.59
559.31	27985.79
559.47	27744.71
559.64	27964.72
559.80	28123.88
559.97	27903.87
560.13	27957.70
560.30	28081.75
560.46	28086.43
560.63	27934.29
560.79	28397.72
560.96	28304.10
561.12	28173.03
561.29	28243.24
561.45	28210.48
561.61	28311.12
561.78	28699.65
561.94	28486.66
562.11	28144.94
562.27	28386.02
562.44	28212.82
562.60	28439.85
562.77	28133.24
562.93	28184.73
563.10	28594.32
563.26	28453.89
563.42	28690.29
563.59	28411.76
563.75	28297.08
563.92	28332.18
564.08	28648.16
564.24	28147.28
564.41	28233.88
564.57	28147.28
564.74	28194.09
564.90	28634.11
565.07	28528.79
565.23	28517.09
565.39	28664.54
565.56	28657.52
565.72	28250.27
565.88	28421.13
566.05	28400.06
566.21	28353.25
566.38	28437.51
566.54	28517.09
566.70	28161.33
566.87	28903.28
567.03	28442.19
567.19	28769.86
567.36	28503.04
567.52	28748.80
567.68	28755.82
567.85	28423.47
568.01	28875.19
568.17	28807.31
568.34	28802.63
568.50	28638.80
568.66	28460.91
568.83	28989.88
568.99	28386.02
569.15	28325.16
569.32	28669.22
569.48	28685.61
569.64	28772.21
569.81	28835.40
569.97	28638.80
570.13	28842.42
570.30	28285.37
570.46	28781.57
570.62	28669.22
570.78	28924.34
570.95	28573.26
571.11	28690.29
571.27	28425.81
571.43	28376.66
571.60	28444.53
571.76	28423.47
571.92	28716.03
572.09	28460.91
572.25	28931.36
572.41	28886.89
572.57	28648.16
572.74	28861.15
572.90	28400.06
573.06	29092.86
573.22	28535.81
573.38	28580.28
573.55	28634.11
573.71	29172.44
573.87	28985.19
574.03	29048.39
574.20	28645.82
574.36	28769.86
574.52	28826.04
574.68	28409.42
574.84	29057.75
575.01	28662.20
575.17	28896.25
575.33	28514.75
575.49	28753.48
575.65	29083.50
575.82	29118.60
575.98	28835.40
576.14	29156.05
576.30	28591.98
576.46	28837.74
576.62	29252.02
576.79	29074.13
576.95	29008.60
577.11	29132.65
577.27	28964.13
577.43	29048.39
577.59	29242.65
577.75	28978.17
577.92	28833.06
578.08	28863.49
578.24	29149.03
578.40	28992.22
578.56	29364.36
578.72	29528.20
578.88	29163.08
579.04	29544.58
579.21	29645.23
579.37	28851.78
579.53	28905.62
579.69	28882.21
579.85	28982.85
580.01	29221.59
580.17	28552.20
580.33	28830.72
580.49	28952.43
580.65	28912.64
580.82	29357.34
580.98	28987.53
581.14	28849.44
581.30	28821.36
581.46	28905.62
581.62	29062.43
581.78	28577.94
581.94	29046.05
582.10	28936.04
582.26	29261.38
582.42	29359.68
582.58	29462.66
582.74	29233.29
582.90	29352.66
583.06	29085.84
583.22	29064.77
583.38	29542.24
583.54	28692.63
583.70	29010.94
583.86	28889.23
584.02	29041.37
584.18	29472.03
584.34	29256.70
584.50	29474.37
584.66	29455.64
584.82	28957.11
584.98	28776.89
585.14	28954.77
585.30	29172.44
585.46	28875.19
585.62	29256.70
585.78	28980.51
585.94	28685.61
586.10	29294.14
586.26	29558.63
586.42	29401.81
586.58	29694.38
586.74	29399.47
586.90	29170.10
587.06	28872.85
587.22	29460.32
587.38	29186.48
587.54	29598.41
587.70	29486.07
587.86	29565.65
588.02	29340.96
588.18	29724.80
588.34	29429.90
588.49	29305.85
588.65	28865.83
588.81	29095.20
588.97	28886.89
589.13	29261.38
589.29	29633.52
589.45	29315.21
589.61	29418.19
589.77	29813.74
589.93	29202.86
590.08	29598.41
590.24	28985.19
590.40	29291.80
590.56	29347.98
590.72	29535.22
590.88	29149.03
591.04	29315.21
591.20	29633.52
591.35	29710.76
591.51	29923.75
591.67	29446.28
591.83	29628.84
591.99	29813.74
