SpectraSuite Data File
++++++++++++++++++++++++++++++++++++
Date: Fri Oct 04 11:39:50 GMT-05:00 2013
User: price-jones
Dark Spectrum Present: No
Reference Spectrum Present: No
Number of Sampled Component Spectra: 1
Spectrometers: USB2+H05261
Integration Time (usec): 100000 (USB2+H05261)
Spectra Averaged: 1 (USB2+H05261)
Boxcar Smoothing: 0 (USB2+H05261)
Correct for Electrical Dark: No (USB2+H05261)
Strobe/Lamp Enabled: No (USB2+H05261)
Correct for Detector Non-linearity: No (USB2+H05261)
Correct for Stray Light: No (USB2+H05261)
Number of Pixels in Processed Spectrum: 2048
>>>>>Begin Processed Spectral Data<<<<<
365.73	28.09
365.92	28.09
366.12	28.09
366.32	0.00
366.52	0.00
366.72	0.00
366.91	0.00
367.11	0.00
367.31	0.00
367.51	0.00
367.70	0.00
367.90	0.00
368.10	4.68
368.30	0.00
368.49	0.00
368.69	0.00
368.89	0.00
369.09	0.00
369.28	0.00
369.48	0.00
369.68	4.68
369.87	37.45
370.07	25.75
370.27	0.00
370.47	0.00
370.66	32.77
370.86	88.94
371.06	107.66
371.25	128.73
371.45	86.60
371.65	119.37
371.84	107.66
372.04	128.73
372.24	154.48
372.44	102.98
372.63	128.73
372.83	182.56
373.03	126.39
373.22	142.77
373.42	133.41
373.62	88.94
373.81	175.54
374.01	140.43
374.21	224.69
374.40	201.29
374.60	163.84
374.79	203.63
374.99	140.43
375.19	93.62
375.38	173.20
375.58	126.39
375.78	166.18
375.97	119.37
376.17	234.05
376.37	152.13
376.56	159.16
376.76	102.98
376.95	131.07
377.15	191.92
377.35	255.12
377.54	112.35
377.74	110.01
377.93	138.09
378.13	180.22
378.33	180.22
378.52	135.75
378.72	117.03
378.91	102.98
379.11	117.03
379.31	145.11
379.50	102.98
379.70	159.16
379.89	98.30
380.09	107.66
380.28	42.13
380.48	135.75
380.68	117.03
380.87	110.01
381.07	175.54
381.26	112.35
381.46	105.32
381.65	121.71
381.85	124.05
382.04	189.58
382.24	133.41
382.43	114.69
382.63	161.50
382.83	133.41
383.02	168.52
383.22	170.86
383.41	72.56
383.61	121.71
383.80	147.45
384.00	138.09
384.19	138.09
384.39	102.98
384.58	95.96
384.78	93.62
384.97	102.98
385.17	105.32
385.36	163.84
385.56	145.11
385.75	149.79
385.95	173.20
386.14	173.20
386.34	88.94
386.53	102.98
386.72	163.84
386.92	163.84
387.11	112.35
387.31	154.48
387.50	93.62
387.70	152.13
387.89	177.88
388.09	79.58
388.28	159.16
388.48	117.03
388.67	168.52
388.86	147.45
389.06	93.62
389.25	112.35
389.45	184.90
389.64	147.45
389.84	194.26
390.03	250.44
390.22	168.52
390.42	138.09
390.61	149.79
390.81	147.45
391.00	145.11
391.19	238.73
391.39	201.29
391.58	208.31
391.78	215.33
391.97	142.77
392.16	215.33
392.36	175.54
392.55	173.20
392.75	175.54
392.94	184.90
393.13	131.07
393.33	227.03
393.52	98.30
393.71	187.24
393.91	133.41
394.10	152.13
394.29	191.92
394.49	126.39
394.68	212.99
394.88	227.03
395.07	184.90
395.26	210.65
395.46	156.82
395.65	201.29
395.84	177.88
396.04	250.44
396.23	198.95
396.42	201.29
396.62	170.86
396.81	196.60
397.00	152.13
397.19	182.56
397.39	222.35
397.58	194.26
397.77	191.92
397.97	152.13
398.16	201.29
398.35	327.68
398.55	205.97
398.74	217.67
398.93	173.20
399.12	212.99
399.32	241.08
399.51	170.86
399.70	212.99
399.90	264.48
400.09	198.95
400.28	238.73
400.47	203.63
400.67	241.08
400.86	234.05
401.05	245.76
401.24	269.16
401.44	252.78
401.63	273.84
401.82	318.31
402.01	222.35
402.21	278.52
402.40	294.91
402.59	189.58
402.78	231.71
402.97	243.42
403.17	325.33
403.36	294.91
403.55	222.35
403.74	297.25
403.93	306.61
404.13	351.08
404.32	444.70
404.51	393.21
404.70	322.99
404.89	322.99
405.09	292.57
405.28	320.65
405.47	280.86
405.66	318.31
405.85	376.83
406.05	287.89
406.24	339.38
406.43	318.31
406.62	369.80
406.81	418.96
407.00	346.40
407.20	273.84
407.39	332.36
407.58	383.85
407.77	362.78
407.96	386.19
408.15	400.23
408.34	372.15
408.54	325.33
408.73	397.89
408.92	365.12
409.11	390.87
409.30	372.15
409.49	339.38
409.68	292.57
409.87	402.57
410.07	379.17
410.26	407.25
410.45	369.80
410.64	418.96
410.83	355.76
411.02	379.17
411.21	489.17
411.40	454.06
411.59	447.04
411.78	358.10
411.98	423.64
412.17	477.47
412.36	517.26
412.55	479.81
412.74	559.39
412.93	559.39
413.12	477.47
413.31	678.76
413.50	489.17
413.69	482.15
413.88	484.49
414.07	540.66
414.26	524.28
414.45	451.72
414.64	547.69
414.83	599.18
415.02	526.62
415.22	594.50
415.41	596.84
415.60	592.16
415.79	526.62
415.98	596.84
416.17	519.60
416.36	493.85
416.55	587.47
416.74	578.11
416.93	617.90
417.12	643.65
417.31	641.31
417.50	624.92
417.69	617.90
417.88	627.26
418.07	685.78
418.26	599.18
418.45	587.47
418.64	664.71
418.83	648.33
419.02	699.82
419.21	578.11
419.39	528.96
419.58	622.58
419.77	695.14
419.96	734.93
420.15	772.38
420.34	734.93
420.53	608.54
420.72	697.48
420.91	779.40
421.10	730.25
421.29	678.76
421.48	748.97
421.67	683.44
421.86	678.76
422.05	746.63
422.24	746.63
422.43	704.50
422.61	662.37
422.80	746.63
422.99	753.65
423.18	751.31
423.37	683.44
423.56	737.27
423.75	732.59
423.94	697.48
424.13	748.97
424.32	734.93
424.50	777.06
424.69	688.12
424.88	851.96
425.07	791.10
425.26	758.33
425.45	734.93
425.64	823.87
425.83	760.67
426.01	793.44
426.20	802.80
426.39	781.74
426.58	739.61
426.77	667.05
426.96	744.29
427.15	779.40
427.33	772.38
427.52	880.04
427.71	816.85
427.90	748.97
428.09	758.33
428.28	791.10
428.46	812.17
428.65	763.01
428.84	875.36
429.03	763.01
429.22	730.25
429.40	821.53
429.59	795.78
429.78	821.53
429.97	821.53
430.16	765.36
430.34	819.19
430.53	774.72
430.72	774.72
430.91	854.30
431.10	826.21
431.28	828.55
431.47	910.47
431.66	943.24
431.85	842.59
432.03	880.04
432.22	901.11
432.41	849.61
432.60	849.61
432.79	917.49
432.97	931.53
433.16	968.98
433.35	905.79
433.54	924.51
433.72	938.55
433.91	940.90
434.10	875.36
434.28	966.64
434.47	854.30
434.66	1004.09
434.85	924.51
435.03	1046.22
435.22	1313.04
435.41	1521.35
435.59	1511.99
435.78	1418.36
435.97	1210.06
436.16	1011.11
436.34	971.32
436.53	936.21
436.72	994.73
436.90	1043.88
437.09	1022.81
437.28	875.36
437.46	924.51
437.65	924.51
437.84	1050.90
438.02	1039.20
438.21	1015.79
438.40	985.37
438.58	1057.92
438.77	1036.86
438.96	1036.86
439.14	999.41
439.33	1039.20
439.52	1022.81
439.70	1039.20
439.89	1104.73
440.08	1022.81
440.26	1069.62
440.45	1095.37
440.63	999.41
440.82	1144.52
441.01	1046.22
441.19	1057.92
441.38	1088.35
441.57	1139.84
441.75	1160.91
441.94	1139.84
442.12	1188.99
442.31	1242.82
442.50	1205.38
442.68	1128.14
442.87	1170.27
443.05	1153.88
443.24	1184.31
443.43	1291.98
443.61	1188.99
443.80	1172.61
443.98	1193.67
444.17	1102.39
444.35	1210.06
444.54	1067.28
444.73	1266.23
444.91	1151.54
445.10	1200.69
445.28	1184.31
445.47	1172.61
445.65	1160.91
445.84	1198.35
446.02	1214.74
446.21	1107.07
446.39	1186.65
446.58	1167.93
446.77	1259.21
446.95	1275.59
447.14	1231.12
447.32	1235.80
447.51	1198.35
447.69	1203.04
447.88	1263.89
448.06	1240.48
448.25	1160.91
448.43	1228.78
448.62	1196.01
448.80	1186.65
448.99	1233.46
449.17	1254.53
449.36	1238.14
449.54	1266.23
449.73	1331.76
449.91	1315.38
450.10	1289.64
450.28	1315.38
450.46	1359.85
450.65	1329.42
450.83	1364.53
451.02	1413.68
451.20	1315.38
451.39	1231.12
451.57	1247.51
451.76	1397.30
451.94	1427.73
452.13	1345.81
452.31	1291.98
452.49	1313.04
452.68	1355.17
452.86	1416.02
453.05	1369.21
453.23	1343.47
453.42	1387.94
453.60	1343.47
453.78	1364.53
453.97	1313.04
454.15	1315.38
454.34	1373.89
454.52	1324.74
454.70	1406.66
454.89	1444.11
455.07	1329.42
455.26	1465.18
455.44	1441.77
455.62	1362.19
455.81	1465.18
455.99	1460.49
456.17	1458.15
456.36	1425.39
456.54	1430.07
456.73	1488.58
456.91	1474.54
457.09	1460.49
457.28	1465.18
457.46	1401.98
457.64	1472.20
457.83	1481.56
458.01	1558.80
458.19	1483.90
458.38	1441.77
458.56	1448.79
458.74	1481.56
458.93	1547.09
459.11	1502.62
459.29	1486.24
459.48	1479.22
459.66	1659.44
459.84	1511.99
460.03	1596.25
460.21	1596.25
460.39	1547.09
460.57	1514.33
460.76	1579.86
460.94	1582.20
461.12	1568.16
461.31	1624.33
461.49	1643.06
461.67	1575.18
461.85	1570.50
462.04	1540.07
462.22	1996.48
462.40	1645.40
462.59	1652.42
462.77	1636.03
462.95	1668.80
463.13	1589.22
463.32	1708.59
463.50	1579.86
463.68	1638.38
463.86	1715.61
464.05	1579.86
464.23	1624.33
464.41	1734.34
464.59	1689.87
464.78	1640.72
464.96	1729.66
465.14	1692.21
465.32	1647.74
465.50	1694.55
465.69	1664.12
465.87	1647.74
466.05	1610.29
466.23	1607.95
466.41	1689.87
466.60	1696.89
466.78	1654.76
466.96	1685.19
467.14	1657.10
467.32	1638.38
467.51	1664.12
467.69	1591.56
467.87	1727.32
468.05	1612.63
468.23	1715.61
468.41	1668.80
468.60	1846.68
468.78	1806.89
468.96	1771.79
469.14	1720.29
469.32	1661.78
469.50	1668.80
469.69	1750.72
469.87	1867.75
470.05	1741.36
470.23	1699.23
470.41	1734.34
470.59	1727.32
470.77	1820.94
470.95	1799.87
471.14	1757.74
471.32	1762.42
471.50	1863.07
471.68	1872.43
471.86	1874.77
472.04	1926.26
472.22	1884.13
472.40	1813.92
472.58	1923.92
472.77	1797.53
472.95	1891.15
473.13	1952.01
473.31	1825.62
473.49	1767.10
473.67	1912.22
473.85	1942.64
474.03	2015.20
474.21	2036.27
474.39	1912.22
474.57	2092.44
474.75	1998.82
474.93	1982.43
475.12	1954.35
475.30	1891.15
475.48	2001.16
475.66	2022.22
475.84	2047.97
476.02	2106.48
476.20	2069.03
476.38	2090.10
476.56	2113.50
476.74	2083.08
476.92	2038.61
477.10	2040.95
477.28	2172.02
477.46	2120.53
477.64	2286.70
477.82	2176.70
478.00	2169.68
478.18	2120.53
478.36	2214.15
478.54	2289.04
478.72	2267.98
478.90	2296.07
479.08	2307.77
479.26	2253.94
479.44	2225.85
479.62	2382.67
479.80	2417.77
479.98	2225.85
480.16	2331.17
480.34	2328.83
480.52	2392.03
480.70	2600.34
480.88	2422.45
481.06	2352.24
481.24	2464.58
481.41	2506.71
481.59	2406.07
481.77	2581.61
481.95	2649.49
482.13	2553.52
482.31	2548.84
482.49	2619.06
482.67	2761.83
482.85	2745.45
483.03	2745.45
483.21	2752.47
483.39	2724.38
483.57	2806.30
483.74	2712.68
483.92	2789.92
484.10	2693.96
484.28	2871.84
484.46	2967.80
484.64	3035.67
484.82	2899.92
485.00	2843.75
485.18	3061.42
485.35	2986.52
485.53	2890.56
485.71	2974.82
485.89	3063.76
486.07	2899.92
486.25	3101.21
486.43	3016.95
486.61	3138.66
486.78	3124.62
486.96	3164.40
487.14	3218.24
487.32	3192.49
487.50	3243.98
487.68	3267.39
487.85	3365.69
488.03	3311.86
488.21	3220.58
488.39	3323.56
488.57	3431.23
488.75	3412.50
488.92	3637.19
489.10	3410.16
489.28	3557.61
489.46	3506.12
489.64	3410.16
489.81	3571.66
489.99	3545.91
490.17	3609.11
490.35	3543.57
490.53	3644.21
490.70	3606.77
490.88	3606.77
491.06	3648.90
491.24	3716.77
491.41	3784.65
491.59	3712.09
491.77	3599.74
491.95	3728.47
492.13	3791.67
492.30	3822.09
492.48	3719.11
492.66	3850.18
492.84	3662.94
493.01	3904.01
493.19	3978.91
493.37	3964.87
493.54	4030.40
493.72	3929.76
493.90	3981.25
494.08	4086.58
494.25	4081.89
494.43	4201.26
494.61	4032.74
494.79	4102.96
494.96	4098.28
495.14	4194.24
495.32	4187.22
495.49	4091.26
495.67	4070.19
495.85	4212.96
496.02	4196.58
496.20	4280.84
496.38	4112.32
496.55	4236.37
496.73	4248.07
496.91	4250.41
497.09	4351.06
497.26	4376.80
497.44	4423.61
497.62	4327.65
497.79	4341.69
497.97	4411.91
498.14	4442.34
498.32	4374.46
498.50	4493.83
498.67	4676.39
498.85	4421.27
499.03	4362.76
499.20	4589.79
499.38	4641.28
499.56	4678.73
499.73	4603.83
499.91	4741.93
500.08	4716.18
500.26	4596.81
500.44	4695.11
500.61	4610.86
500.79	4674.05
500.97	4744.27
501.14	4702.14
501.32	4856.61
501.49	4809.80
501.67	4770.01
501.84	4774.69
502.02	4774.69
502.20	4863.63
502.37	4894.06
502.55	4877.68
502.72	4891.72
502.90	4800.44
503.07	4772.35
503.25	4978.32
503.43	4891.72
503.60	4968.96
503.78	5008.75
503.95	4821.50
504.13	4882.36
504.30	5004.07
504.48	5039.17
504.65	5071.94
504.83	4908.10
505.01	5172.58
505.18	5174.92
505.36	5179.61
505.53	5097.69
505.71	5167.90
505.88	5071.94
506.06	5186.63
506.23	5142.16
506.41	5041.51
506.58	5205.35
506.76	5188.97
506.93	5385.57
507.11	5334.08
507.28	5125.77
507.46	5298.97
507.63	5273.23
507.81	5380.89
507.98	5341.10
508.16	5341.10
508.33	5343.44
508.50	5350.46
508.68	5298.97
508.85	5563.45
509.03	5327.06
509.20	5460.47
509.38	5425.36
509.55	5554.09
509.73	5504.94
509.90	5500.26
510.08	5301.31
510.25	5619.63
510.42	5322.38
510.60	5486.22
510.77	5474.51
510.95	5666.44
511.12	5469.83
511.30	5434.72
511.47	5619.63
511.64	5661.76
511.82	5490.90
511.99	5586.86
512.17	5495.58
512.34	5579.84
512.51	5659.42
512.69	5626.65
512.86	5792.83
513.04	5813.89
513.21	5846.66
513.38	5926.24
513.56	5692.18
513.73	5776.44
513.90	5664.10
514.08	5792.83
514.25	5790.49
514.43	5905.17
514.60	5895.81
514.77	5811.55
514.95	5928.58
515.12	5762.40
515.29	5872.40
515.47	5921.56
515.64	6010.50
515.81	5802.19
515.99	5926.24
516.16	5973.05
516.33	6085.39
516.51	5961.34
516.68	6045.60
516.85	6031.56
517.03	6160.29
517.20	5900.49
517.37	6101.78
517.54	6069.01
517.72	6101.78
517.89	5977.73
518.06	6314.77
518.24	6141.57
518.41	6017.52
518.58	6169.65
518.75	6258.59
518.93	6171.99
519.10	6186.04
519.27	6209.44
519.45	5973.05
519.62	6321.79
519.79	6214.12
519.96	6317.11
520.14	6209.44
520.31	6296.04
520.48	6326.47
520.65	6443.49
520.83	6473.92
521.00	6333.49
521.17	6267.95
521.34	6221.14
521.52	6216.46
521.69	6352.21
521.86	6509.03
522.03	6399.02
522.20	6506.69
522.38	6375.62
522.55	6478.60
522.72	6436.47
522.89	6504.35
523.07	6420.09
523.24	6509.03
523.41	6494.99
523.58	6377.96
523.75	6424.77
523.92	6307.74
524.10	6565.20
524.27	6572.22
524.44	6569.88
524.61	6670.53
524.78	6569.88
524.96	6731.38
525.13	6729.04
525.30	6431.79
525.47	6640.10
525.64	6614.35
525.81	6743.08
525.98	6647.12
526.16	6656.48
526.33	6698.61
526.50	6649.46
526.67	6448.18
526.84	6717.34
527.01	6733.72
527.18	6661.16
527.36	6927.99
527.53	6700.95
527.70	6855.43
527.87	7045.01
528.04	6942.03
528.21	6794.58
528.38	6825.00
528.55	7061.40
528.72	6878.83
528.89	6942.03
529.07	6867.13
529.24	6799.26
529.41	6813.30
529.58	6927.99
529.75	6927.99
529.92	6813.30
530.09	6846.07
530.26	6883.52
530.43	7023.95
530.60	6930.33
530.77	7040.33
530.94	7157.36
531.11	6956.07
531.28	7082.46
531.46	7045.01
531.63	7077.78
531.80	6970.12
531.97	7082.46
532.14	7077.78
532.31	6972.46
532.48	6981.82
532.65	7101.19
532.82	6991.18
532.99	7225.23
533.16	7049.69
533.33	7206.51
533.50	7199.49
533.67	7096.50
533.84	7105.87
534.01	7042.67
534.18	7152.68
534.35	7227.57
534.52	7133.95
534.69	7510.78
534.86	7360.98
535.03	7311.83
535.20	7220.55
535.37	7335.24
535.54	7185.44
535.71	7162.04
535.88	7124.59
536.05	7248.64
536.22	7255.66
536.38	7386.73
536.55	7438.22
536.72	7318.86
536.89	7218.21
537.06	7368.01
537.23	7496.74
537.40	7449.93
537.57	7466.31
537.74	7478.01
537.91	7550.57
538.08	7473.33
538.25	7473.33
538.42	7510.78
538.59	7419.50
538.75	7543.55
538.92	7412.48
539.09	7550.57
539.26	7674.62
539.43	7545.89
539.60	7667.60
539.77	7590.36
539.94	7786.96
540.11	7714.41
540.28	7665.25
540.44	7756.54
540.61	7859.52
540.78	7990.59
540.95	7873.56
541.12	8077.19
541.29	8355.71
541.46	8264.43
541.62	8187.19
541.79	7999.95
541.96	8098.25
542.13	8346.35
542.30	8304.22
542.47	8147.40
542.63	8049.10
542.80	8344.01
542.97	8173.15
543.14	8217.62
543.31	8219.96
543.48	8109.96
543.64	8294.86
543.81	8306.56
543.98	8248.05
544.15	8346.35
544.32	8367.42
544.48	8283.16
544.65	8386.14
544.82	8245.71
544.99	8229.32
545.16	8224.64
545.32	8084.21
545.49	8685.73
545.66	9497.89
545.83	9600.88
546.00	9593.86
546.16	8919.78
546.33	8416.57
546.50	8269.11
546.67	8400.18
546.83	8037.40
547.00	8084.21
547.17	8119.32
547.34	8002.29
547.50	8124.00
547.67	8231.66
547.84	8039.74
548.00	8238.69
548.17	8210.60
548.34	7936.76
548.51	8006.97
548.67	7995.27
548.84	8102.93
549.01	8044.42
549.18	8112.30
549.34	7906.33
549.51	7925.05
549.68	8105.28
549.84	8084.21
550.01	8140.38
550.18	8124.00
550.34	8013.99
550.51	7927.39
550.68	8205.92
550.84	7896.97
551.01	8184.85
551.18	7824.41
551.34	8009.31
551.51	7983.57
551.68	8100.59
551.84	8124.00
552.01	7791.64
552.18	8004.63
552.34	8067.83
552.51	8067.83
552.68	8002.29
552.84	8035.06
553.01	8124.00
553.18	8147.40
553.34	8028.04
553.51	7971.86
553.67	7992.93
553.84	8037.40
554.01	8243.37
554.17	8056.12
554.34	8053.78
554.51	8046.76
554.67	7999.95
554.84	7974.21
555.00	7932.08
555.17	7995.27
555.33	7918.03
555.50	8046.76
555.67	8084.21
555.83	8035.06
556.00	8098.25
556.16	8432.95
556.33	8194.22
556.50	8063.15
556.66	8051.44
556.83	7843.14
556.99	7981.23
557.16	8011.65
557.32	8009.31
557.49	8011.65
557.65	8021.02
557.82	8004.63
557.98	7929.74
558.15	7967.18
558.32	8154.43
558.48	8006.97
558.65	8142.72
558.81	8107.62
558.98	8091.23
559.14	8201.24
559.31	8084.21
559.47	8084.21
559.64	7925.05
559.80	8077.19
559.97	8051.44
560.13	7880.58
560.30	8067.83
560.46	8222.30
560.63	8320.60
560.79	8138.04
560.96	8145.06
561.12	8056.12
561.29	7934.42
561.45	8210.60
561.61	8140.38
561.78	8138.04
561.94	7955.48
562.11	8271.45
562.27	8032.72
562.44	8161.45
562.60	8095.91
562.77	8006.97
562.93	7927.39
563.10	8023.36
563.26	8093.57
563.42	8290.18
563.59	8107.62
563.75	8161.45
563.92	8077.19
564.08	8149.75
564.24	8145.06
564.41	8170.81
564.57	8042.08
564.74	8042.08
564.90	8201.24
565.07	8276.13
565.23	8056.12
565.39	8313.58
565.56	8168.47
565.72	8018.68
565.88	8145.06
566.05	8236.35
566.21	8032.72
566.38	8217.62
566.54	8119.32
566.70	8112.30
566.87	8234.00
567.03	8166.13
567.19	8159.11
567.36	7967.18
567.52	8182.51
567.68	8222.30
567.85	7995.27
568.01	8058.46
568.17	8217.62
568.34	8140.38
568.50	8313.58
568.66	8222.30
568.83	8437.63
568.99	8063.15
569.15	8156.77
569.32	7983.57
569.48	8102.93
569.64	8112.30
569.81	8016.33
569.97	8065.49
570.13	8196.56
570.30	8124.00
570.46	8112.30
570.62	8063.15
570.78	8177.83
570.95	8013.99
571.11	8273.79
571.27	8250.39
571.43	7957.82
571.60	8168.47
571.76	8140.38
571.92	8016.33
572.09	8159.11
572.25	8226.98
572.41	8243.37
572.57	8325.29
572.74	8131.02
572.90	8156.77
573.06	8084.21
573.22	8313.58
573.38	8161.45
573.55	8252.73
573.71	8173.15
573.87	8044.42
574.03	8184.85
574.20	8325.29
574.36	8156.77
574.52	8053.78
574.68	8245.71
574.84	8168.47
575.01	8273.79
575.17	8168.47
575.33	8060.80
575.49	8168.47
575.65	8084.21
575.82	8241.03
575.98	8215.28
576.14	8219.96
576.30	8266.77
576.46	8334.65
576.62	8505.51
576.79	8411.89
576.95	8454.02
577.11	8301.88
577.27	8294.86
577.43	7974.21
577.59	8313.58
577.75	8226.98
577.92	8170.81
578.08	8255.07
578.24	8262.09
578.40	8250.39
578.56	8327.63
578.72	8376.78
578.88	8491.46
579.04	8430.61
579.21	8308.90
579.37	8339.33
579.53	8248.05
579.69	8414.23
579.85	8205.92
580.01	8222.30
580.17	8215.28
580.33	8264.43
580.49	8229.32
580.65	8346.35
580.82	8166.13
580.98	8320.60
581.14	8219.96
581.30	8234.00
581.46	8210.60
581.62	8177.83
581.78	8355.71
581.94	8259.75
582.10	8147.40
582.26	8252.73
582.42	8409.54
582.58	8168.47
582.74	8175.49
582.90	8304.22
583.06	8580.40
583.22	8311.24
583.38	8255.07
583.54	8446.99
583.70	8355.71
583.86	8299.54
584.02	8203.58
584.18	8411.89
584.34	8362.73
584.50	8360.39
584.66	8077.19
584.82	8210.60
584.98	8205.92
585.14	8297.20
585.30	8121.66
585.46	8290.18
585.62	8358.05
585.78	8414.23
585.94	8372.10
586.10	8344.01
586.26	8313.58
586.42	8271.45
586.58	8437.63
586.74	8173.15
586.90	8287.84
587.06	8498.49
587.22	8470.40
587.38	8248.05
587.54	8456.36
587.70	8393.16
587.86	8475.08
588.02	8381.46
588.18	8355.71
588.34	8315.92
588.49	8259.75
588.65	8126.34
588.81	8147.40
588.97	8238.69
589.13	8259.75
589.29	8189.53
589.45	8238.69
589.61	8201.24
589.77	8196.56
589.93	8423.59
590.08	8238.69
590.24	8187.19
590.40	8189.53
590.56	8325.29
590.72	8234.00
590.88	8180.17
591.04	8327.63
591.20	8159.11
591.35	8348.69
591.51	8613.17
591.67	8372.10
591.83	8369.76
591.99	8271.45
592.15	8329.97
592.31	8327.63
592.46	8313.58
592.62	8306.56
592.78	8154.43
592.94	8407.20
593.10	8257.41
593.26	8234.00
593.41	8231.66
593.57	8376.78
593.73	8411.89
593.89	8327.63
594.05	8238.69
594.20	8180.17
594.36	8329.97
594.52	8212.94
594.68	8194.22
594.84	8219.96
594.99	8241.03
595.15	8411.89
595.31	8173.15
595.47	8280.82
595.62	8243.37
595.78	8322.94
595.94	8241.03
596.10	8138.04
596.25	8016.33
596.41	8255.07
596.57	8177.83
596.73	8439.97
596.88	8278.47
597.04	8320.60
597.20	8203.58
597.36	8248.05
597.51	8292.52
597.67	8283.16
597.83	8088.89
597.99	8369.76
598.14	8173.15
598.30	8135.70
598.46	8301.88
598.61	8383.80
598.77	8285.50
598.93	8507.85
599.09	8304.22
599.24	8482.10
599.40	8423.59
599.56	8336.99
599.71	8250.39
599.87	8219.96
600.03	8248.05
600.18	8353.37
