SpectraSuite Data File
++++++++++++++++++++++++++++++++++++
Date: Fri Oct 04 11:39:37 GMT-05:00 2013
User: price-jones
Dark Spectrum Present: No
Reference Spectrum Present: No
Number of Sampled Component Spectra: 1
Spectrometers: USB2+H05261
Integration Time (usec): 100000 (USB2+H05261)
Spectra Averaged: 1 (USB2+H05261)
Boxcar Smoothing: 0 (USB2+H05261)
Correct for Electrical Dark: No (USB2+H05261)
Strobe/Lamp Enabled: No (USB2+H05261)
Correct for Detector Non-linearity: No (USB2+H05261)
Correct for Stray Light: No (USB2+H05261)
Number of Pixels in Processed Spectrum: 2048
>>>>>Begin Processed Spectral Data<<<<<
365.73	46.81
365.92	46.81
366.12	46.81
366.32	0.00
366.52	0.00
366.72	0.00
366.91	0.00
367.11	0.00
367.31	0.00
367.51	11.70
367.70	0.00
367.90	0.00
368.10	0.00
368.30	0.00
368.49	0.00
368.69	14.04
368.89	0.00
369.09	0.00
369.28	0.00
369.48	0.00
369.68	0.00
369.87	28.09
370.07	0.00
370.27	16.38
370.47	117.03
370.66	332.36
370.86	379.17
371.06	386.19
371.25	404.91
371.45	383.85
371.65	393.21
371.84	407.25
372.04	341.72
372.24	362.78
372.44	414.27
372.63	463.43
372.83	454.06
373.03	454.06
373.22	519.60
373.42	472.79
373.62	472.79
373.81	416.62
374.01	535.98
374.21	489.17
374.40	566.41
374.60	510.24
374.79	482.15
374.99	510.24
375.19	519.60
375.38	521.94
375.58	564.07
375.78	559.39
375.97	470.45
376.17	585.13
376.37	491.51
376.56	561.73
376.76	514.92
376.95	554.71
377.15	484.49
377.35	531.30
377.54	559.39
377.74	482.15
377.93	470.45
378.13	538.32
378.33	585.13
378.52	543.00
378.72	655.35
378.91	613.22
379.11	660.03
379.31	603.86
379.50	594.50
379.70	643.65
379.89	669.39
380.09	622.58
380.28	617.90
380.48	685.78
380.68	622.58
380.87	601.52
381.07	650.67
381.26	692.80
381.46	688.12
381.65	634.29
381.85	650.67
382.04	671.73
382.24	723.23
382.43	699.82
382.63	671.73
382.83	711.52
383.02	774.72
383.22	671.73
383.41	737.27
383.61	688.12
383.80	699.82
384.00	791.10
384.19	697.48
384.39	739.61
384.58	718.54
384.78	802.80
384.97	741.95
385.17	681.10
385.36	727.91
385.56	851.96
385.75	767.70
385.95	781.74
386.14	744.29
386.34	748.97
386.53	849.61
386.72	805.14
386.92	889.40
387.11	737.27
387.31	901.11
387.50	903.45
387.70	802.80
387.89	828.55
388.09	826.21
388.28	849.61
388.48	765.36
388.67	861.32
388.86	866.00
389.06	877.70
389.25	880.04
389.45	861.32
389.64	898.77
389.84	830.89
390.03	863.66
390.22	884.72
390.42	910.47
390.61	957.28
390.81	912.81
391.00	882.38
391.19	896.43
391.39	978.34
391.58	1034.52
391.78	936.21
391.97	999.41
392.16	884.72
392.36	1123.46
392.55	1041.54
392.75	1022.81
392.94	1025.15
393.13	1128.14
393.33	1043.88
393.52	1076.65
393.71	1224.10
393.91	1107.07
394.10	1055.58
394.29	1153.88
394.49	1109.41
394.68	1156.22
394.88	1224.10
395.07	1156.22
395.26	1212.40
395.46	1186.65
395.65	1266.23
395.84	1177.29
396.04	1247.51
396.23	1238.14
396.42	1280.27
396.62	1207.72
396.81	1207.72
397.00	1277.93
397.19	1219.42
397.39	1240.48
397.58	1214.74
397.77	1198.35
397.97	1355.17
398.16	1317.72
398.35	1284.95
398.55	1301.34
398.74	1315.38
398.93	1465.18
399.12	1277.93
399.32	1390.28
399.51	1327.08
399.70	1462.83
399.90	1401.98
400.09	1411.34
400.28	1448.79
400.47	1432.41
400.67	1528.37
400.86	1383.26
401.05	1533.05
401.24	1483.90
401.44	1544.75
401.63	1516.67
401.82	1504.96
402.01	1423.05
402.21	1451.13
402.40	1556.46
402.59	1556.46
402.78	1570.50
402.97	1659.44
403.17	1636.03
403.36	1572.84
403.55	1584.54
403.74	1722.63
403.93	1827.96
404.13	1764.76
404.32	1753.06
404.51	1750.72
404.70	1724.97
404.89	1689.87
405.09	1802.21
405.28	1769.44
405.47	1760.08
405.66	1750.72
405.85	1851.36
406.05	1886.47
406.24	1799.87
406.43	1902.86
406.62	1930.94
406.81	1928.60
407.00	1949.67
407.20	1863.07
407.39	1954.35
407.58	2026.90
407.77	1954.35
407.96	2057.33
408.15	2132.23
408.34	1963.71
408.54	2001.16
408.73	2062.01
408.92	1998.82
409.11	2043.29
409.30	2071.37
409.49	1928.60
409.68	2111.16
409.87	2260.96
410.07	2242.23
410.26	2221.17
410.45	2211.81
410.64	2186.06
410.83	2324.15
411.02	2385.01
411.21	2415.43
411.40	2392.03
411.59	2450.54
411.78	2483.31
411.98	2483.31
412.17	2422.45
412.36	2455.22
412.55	2539.48
412.74	2597.99
412.93	2672.89
413.12	2586.29
413.31	2649.49
413.50	2635.44
413.69	2644.81
413.88	2736.09
414.07	2675.23
414.26	2829.71
414.45	2745.45
414.64	2810.98
414.83	2761.83
415.02	2920.99
415.22	2916.31
415.41	2871.84
415.60	2932.69
415.79	3042.70
415.98	3056.74
416.17	2974.82
416.36	3143.34
416.55	3201.85
416.74	3155.04
416.93	3089.51
417.12	3243.98
417.31	3131.64
417.50	3150.36
417.69	3260.37
417.88	3293.13
418.07	3297.81
418.26	3253.34
418.45	3304.84
418.64	3297.81
418.83	3328.24
419.02	3449.95
419.21	3356.33
419.39	3503.78
419.58	3267.39
419.77	3405.48
419.96	3496.76
420.15	3602.08
420.34	3599.74
420.53	3566.98
420.72	3737.84
420.91	3691.02
421.10	3684.00
421.29	3700.39
421.48	3574.00
421.67	3698.05
421.86	3847.84
422.05	3901.67
422.24	3707.41
422.43	3688.68
422.61	3700.39
422.80	3878.27
422.99	3822.09
423.18	3882.95
423.37	3770.60
423.56	3840.82
423.75	3913.38
423.94	3840.82
424.13	3749.54
424.32	3723.79
424.50	3894.65
424.69	3953.16
424.88	3920.40
425.07	3777.62
425.26	3822.09
425.45	3805.71
425.64	3943.80
425.83	3892.31
426.01	4067.85
426.20	4018.70
426.39	3941.46
426.58	4042.11
426.77	3976.57
426.96	4007.00
427.15	4014.02
427.33	3981.25
427.52	4058.49
427.71	4091.26
427.90	4219.99
428.09	4086.58
428.28	4065.51
428.46	4124.02
428.65	4215.30
428.84	4287.86
429.03	4332.33
429.22	4273.82
429.40	4173.18
429.59	4421.27
429.78	4065.51
429.97	4098.28
430.16	4098.28
430.34	4337.01
430.53	4301.90
430.72	4411.91
430.91	4292.54
431.10	4301.90
431.28	4571.07
431.47	4521.92
431.66	4582.77
431.85	4386.16
432.03	4667.03
432.22	4641.28
432.41	4589.79
432.60	4650.64
432.79	4582.77
432.97	4678.73
433.16	4730.22
433.35	4624.90
433.54	4638.94
433.72	4730.22
433.91	4828.53
434.10	4685.75
434.28	4887.04
434.47	4816.82
434.66	4851.93
434.85	4889.38
435.03	4837.89
435.22	5172.58
435.41	5507.28
435.59	5369.19
435.78	5252.16
435.97	5102.37
436.16	4980.66
436.34	5163.22
436.53	4961.94
436.72	5165.56
436.90	4987.68
437.09	5205.35
437.28	4943.21
437.46	5280.25
437.65	5231.10
437.84	5184.29
438.02	5322.38
438.21	5256.84
438.40	5165.56
438.58	5582.18
438.77	5542.39
438.96	5479.19
439.14	5551.75
439.33	5495.58
439.52	5811.55
439.70	5533.03
439.89	5823.25
440.08	5755.38
440.26	5809.21
440.45	5673.46
440.63	5884.11
440.82	5912.19
441.01	5799.85
441.19	6001.13
441.38	5970.71
441.57	5987.09
441.75	6125.18
441.94	6200.08
442.12	6125.18
442.31	6289.02
442.50	6209.44
442.68	6298.38
442.87	6326.47
443.05	6279.66
443.24	6473.92
443.43	6347.53
443.61	6518.39
443.80	6518.39
443.98	6427.11
444.17	6244.55
444.35	6539.46
444.54	6497.33
444.73	6401.37
444.91	6457.54
445.10	6546.48
445.28	6373.28
445.47	6258.59
445.65	6644.78
445.84	6612.01
446.02	6642.44
446.21	6626.06
446.39	6530.09
446.58	6595.63
446.77	6553.50
446.95	6537.12
447.14	6595.63
447.32	6705.63
447.51	6757.13
447.69	6579.25
447.88	6623.72
448.06	6883.52
448.25	6483.28
448.43	6607.33
448.62	6647.12
448.80	6621.38
448.99	6719.68
449.17	6726.70
449.36	6707.98
449.54	6902.24
449.73	6937.35
449.91	6939.69
450.10	7075.44
450.28	6951.39
450.46	6775.85
450.65	7033.31
450.83	7272.04
451.02	7061.40
451.20	7042.67
451.39	6958.41
451.57	7045.01
451.76	6951.39
451.94	7110.55
452.13	7339.92
452.31	7220.55
452.49	7066.08
452.68	7159.70
452.86	7194.81
453.05	7368.01
453.23	7389.07
453.42	7234.60
453.60	7208.85
453.78	7185.44
453.97	7360.98
454.15	7356.30
454.34	7316.51
454.52	7456.95
454.70	7529.50
454.89	7555.25
455.07	7543.55
455.26	7700.36
455.44	7674.62
455.62	7520.14
455.81	7749.51
455.99	7616.10
456.17	7716.75
456.36	7880.58
456.54	7831.43
456.73	7812.71
456.91	7981.23
457.09	8128.68
457.28	8224.64
457.46	7782.28
457.64	8035.06
457.83	8081.87
458.01	7936.76
458.19	8269.11
458.38	8102.93
458.56	8379.12
458.74	8238.69
458.93	8308.90
459.11	8135.70
459.29	8383.80
459.48	8304.22
459.66	8292.52
459.84	8388.48
460.03	8379.12
460.21	8645.94
460.39	8430.61
460.57	8346.35
460.76	8393.16
460.94	8716.16
461.12	8557.00
461.31	8528.91
461.49	8706.79
461.67	8493.80
461.85	8840.20
462.04	8594.45
462.22	8758.28
462.40	8662.32
462.59	8898.72
462.77	8695.09
462.95	9062.55
463.13	8908.08
463.32	8973.61
463.50	8894.04
463.68	8987.66
463.86	9027.45
464.05	8901.06
464.23	8870.63
464.41	8924.46
464.59	8802.75
464.78	9266.18
464.96	9186.60
465.14	8849.57
465.32	8896.38
465.50	9121.07
465.69	9221.71
465.87	9172.56
466.05	9210.01
466.23	9324.69
466.41	9549.39
466.60	9551.73
466.78	9224.05
466.96	9291.93
467.14	9390.23
467.32	9502.58
467.51	9682.80
467.69	9434.70
467.87	9537.68
468.05	9645.35
468.23	9547.05
468.41	9554.07
468.60	9654.71
468.78	9666.41
468.96	9540.02
469.14	9474.49
469.32	9708.54
469.50	9607.90
469.69	9811.53
469.87	9935.57
470.05	9865.36
470.23	10181.33
470.41	10045.58
470.59	10171.97
470.77	10164.95
470.95	9923.87
471.14	10279.63
471.32	9823.23
471.50	10623.69
471.68	10354.53
471.86	10455.17
472.04	10417.72
472.22	10523.05
472.40	10246.87
472.58	10274.95
472.77	10757.10
472.95	10792.21
473.13	10991.16
473.31	10338.15
473.49	10473.90
473.67	10792.21
473.85	10813.28
474.03	11089.46
474.21	10832.00
474.39	11082.44
474.57	11117.54
474.75	11262.66
474.93	11356.28
475.12	11386.71
475.30	11417.13
475.48	11061.37
475.66	11543.52
475.84	11473.31
476.02	11473.31
476.20	11637.14
476.38	11880.56
476.56	12180.15
476.74	11925.03
476.92	11826.73
477.10	12219.94
477.28	12191.85
477.46	12135.68
477.64	12308.88
477.82	12374.41
478.00	12659.96
478.18	12585.06
478.36	12798.05
478.54	12947.84
478.72	12870.61
478.90	12999.34
479.08	13261.48
479.26	13214.66
479.44	13521.27
479.62	13579.79
479.80	13537.66
479.98	13530.64
480.16	13771.71
480.34	13848.95
480.52	13954.27
480.70	13980.02
480.88	14090.02
481.06	14200.03
481.24	14031.51
481.41	14347.48
481.59	14555.79
481.77	14668.14
481.95	14890.49
482.13	14530.05
482.31	14665.80
482.49	15009.86
482.67	15009.86
482.85	15370.30
483.03	15374.98
483.21	15695.63
483.39	15674.57
483.57	15782.23
483.74	16039.69
483.92	15719.04
484.10	16011.60
484.28	16545.25
484.46	16269.06
484.64	16786.32
484.82	16561.63
485.00	16599.08
485.18	17165.49
485.35	17446.35
485.53	17156.13
485.71	17387.84
485.89	17476.78
486.07	17647.64
486.25	17596.15
486.43	17605.51
486.61	18214.05
486.78	17923.82
486.96	18195.32
487.14	18611.94
487.32	18501.93
487.50	18532.36
487.68	18658.75
487.85	19000.47
488.03	19239.20
488.21	19426.45
488.39	19286.01
488.57	19714.33
488.75	19428.79
488.92	19850.08
489.10	20018.60
489.28	19964.77
489.46	20379.04
489.64	20128.61
489.81	20589.69
489.99	20716.08
490.17	20475.01
490.35	21048.44
490.53	21111.63
490.70	21191.21
490.88	21301.22
491.06	21446.33
491.24	21263.77
491.41	21614.85
491.59	21680.38
491.77	21898.05
491.95	22078.27
492.13	22394.25
492.30	22302.96
492.48	22368.50
492.66	22672.77
492.84	23047.26
493.01	23164.28
493.19	22970.02
493.37	23073.00
493.54	23147.90
493.72	23302.37
493.90	23391.31
494.08	23777.50
494.25	24058.37
494.43	23847.72
494.61	24313.48
494.79	24269.01
494.96	24215.18
495.14	24470.30
495.32	24142.63
495.49	24533.50
495.67	24929.05
495.85	24978.20
496.02	24947.77
496.20	25008.62
496.38	25092.88
496.55	25682.70
496.73	25752.91
496.91	25516.52
497.09	26218.68
497.26	26235.06
497.44	25968.24
497.62	26223.36
497.79	26401.24
497.97	26377.84
498.14	26710.19
498.32	27115.11
498.50	26848.29
498.67	27367.88
498.85	27065.96
499.03	26909.14
499.20	27288.31
499.38	27648.75
499.56	27772.80
499.73	27735.35
499.91	27812.59
500.08	27899.19
500.26	27866.42
500.44	27929.61
500.61	28053.66
500.79	28416.44
500.97	28404.74
501.14	28723.05
501.32	28713.69
501.49	28687.95
501.67	28655.18
501.84	29006.26
502.02	28849.44
502.20	29174.78
502.37	29317.55
502.55	29034.35
502.72	29032.00
502.90	29088.18
503.07	29116.26
503.25	29261.38
503.43	29715.44
503.60	29881.62
503.78	30061.84
503.95	29860.55
504.13	29883.96
504.30	29895.66
504.48	29989.28
504.65	30073.54
504.83	30197.59
505.01	30796.77
505.18	30471.43
505.36	30775.70
505.53	30185.89
505.71	30965.29
505.88	30646.97
506.06	30766.34
506.23	30948.90
506.41	30974.65
506.58	31292.96
506.76	31243.81
506.93	31138.49
507.11	31393.61
507.28	31590.21
507.46	31505.95
507.63	31847.67
507.81	32299.39
507.98	32025.55
508.16	31927.25
508.33	32002.14
508.50	31992.78
508.68	32189.39
508.85	32437.48
509.03	32755.80
509.20	32746.44
509.38	32671.54
509.55	32872.82
509.73	33067.09
509.90	33390.08
510.08	32919.63
510.25	33010.92
510.42	33198.16
510.60	33464.98
510.77	33661.58
510.95	34054.79
511.12	33638.18
511.30	33354.97
511.47	33881.60
511.64	33830.10
511.82	34169.48
511.99	33780.95
512.17	34352.04
512.34	34286.51
512.51	34440.98
512.69	34675.04
512.86	34543.97
513.04	34710.14
513.21	34873.98
513.38	35112.72
513.56	34752.27
513.73	34740.57
513.90	34820.15
514.08	34792.06
514.25	35489.54
514.43	35398.26
514.60	35508.27
514.77	35213.36
514.95	35529.33
515.12	35573.80
515.29	35398.26
515.47	35791.47
515.64	36142.55
515.81	35894.46
515.99	35985.74
516.16	36371.92
516.33	36240.86
516.51	36493.63
516.68	36292.35
516.85	36259.58
517.03	36662.15
517.20	37006.21
517.37	36715.98
517.54	36851.73
517.72	36734.71
517.89	36657.47
518.06	36608.32
518.24	36694.92
518.41	36910.25
518.58	37078.77
518.75	37237.92
518.93	37366.65
519.10	37216.86
519.27	37635.81
519.45	37584.32
519.62	37727.10
519.79	37401.76
519.96	37593.68
520.14	37883.91
520.31	38206.90
520.48	37909.66
520.65	37551.56
520.83	38274.78
521.00	38047.75
521.17	38281.80
521.34	38146.05
521.52	38075.84
521.69	38370.74
521.86	39157.16
522.03	38522.88
522.20	38534.58
522.38	38576.71
522.55	38787.36
522.72	39112.69
522.89	39182.91
523.07	39288.23
523.24	39344.41
523.41	39613.57
523.58	38740.55
523.75	39737.62
523.92	39119.71
524.10	39119.71
524.27	39580.80
524.44	39400.58
524.61	40013.80
524.78	40470.20
524.96	39278.87
525.13	39784.43
525.30	40402.33
525.47	40442.12
525.64	40620.00
525.81	40563.82
525.98	40531.06
526.16	40299.34
526.33	40535.74
526.50	40556.80
526.67	40222.11
526.84	40421.05
527.01	40261.90
527.18	40596.59
527.36	40907.88
527.53	40556.80
527.70	41214.49
527.87	40917.25
528.04	40739.36
528.21	40931.29
528.38	40732.34
528.55	41057.68
528.72	41099.81
528.89	41366.63
529.07	41596.00
529.24	41521.10
529.41	41710.69
529.58	41619.41
529.75	41364.29
529.92	41324.50
530.09	41708.35
530.26	41823.03
530.43	41661.54
530.60	41544.51
530.77	41837.08
530.94	41841.76
531.11	41397.06
531.28	41846.44
531.46	41893.25
531.63	42265.39
531.80	41731.75
531.97	42611.79
532.14	42445.62
532.31	42529.87
532.48	42309.86
532.65	42564.98
532.82	42162.41
532.99	42188.16
533.16	42902.02
533.33	43115.01
533.50	42686.69
533.67	43234.38
533.84	42686.69
534.01	42632.86
534.18	42677.33
534.35	43225.01
534.52	43042.45
534.69	43241.40
534.86	43480.13
535.03	42787.33
535.20	43629.93
535.37	43210.97
535.54	43110.33
535.71	43440.34
535.88	43009.68
536.05	43613.54
536.22	43775.04
536.38	43714.19
536.55	43856.96
536.72	43852.28
536.89	43264.80
537.06	43798.44
537.23	43917.81
537.40	43833.55
537.57	43927.17
537.74	43805.47
537.91	44596.57
538.08	44428.05
538.25	44505.29
538.42	44404.64
538.59	44341.45
538.75	43739.93
538.92	44519.33
539.09	44390.60
539.26	44257.19
539.43	44516.99
539.60	44767.43
539.77	44430.39
539.94	44327.41
540.11	44921.90
540.28	44678.49
540.44	44987.44
540.61	44816.58
540.78	45006.16
540.95	44889.13
541.12	44711.25
541.29	45532.78
541.46	45272.98
541.62	45612.36
541.79	45148.93
541.96	45326.81
542.13	45081.06
542.30	45771.52
542.47	45680.24
542.63	45680.24
542.80	45703.64
542.97	45825.35
543.14	45968.12
543.31	45331.50
543.48	45886.20
543.64	46256.01
543.81	46244.30
543.98	45951.74
544.15	45914.29
544.32	45804.28
544.48	46609.43
544.65	46007.91
544.82	46305.16
544.99	45972.80
545.16	46340.27
545.32	46124.94
545.49	46962.85
545.66	47463.72
545.83	47379.46
546.00	47014.34
546.16	46885.61
546.33	46443.25
546.50	46284.09
546.67	46476.02
546.83	46043.02
547.00	46712.41
547.17	46885.61
547.34	46775.61
547.50	47395.85
547.67	47035.41
547.84	46679.64
548.00	46595.38
548.17	46787.31
548.34	46817.74
548.51	47370.10
548.67	46852.84
548.84	47182.86
549.01	47224.99
549.18	46740.50
549.34	47114.98
549.51	47227.33
549.68	46911.36
549.84	47103.28
550.01	46955.83
550.18	47213.29
550.34	47613.52
550.51	47178.18
550.68	47297.55
550.84	46944.12
551.01	47487.13
551.18	47021.36
551.34	47374.78
551.51	47620.54
551.68	47648.63
551.84	46925.40
552.01	47449.68
552.18	47594.79
552.34	47299.89
552.51	47463.72
552.68	47110.30
552.84	47461.38
553.01	47725.86
553.18	47997.37
553.34	47952.90
553.51	48140.14
553.67	47653.31
553.84	48170.57
554.01	47920.13
554.17	48243.12
554.34	47742.25
554.51	48189.29
554.67	48484.20
554.84	47955.24
555.00	47814.80
555.17	47990.34
555.33	47901.40
555.50	48336.74
555.67	47880.34
555.83	48177.59
556.00	47906.08
556.16	48229.08
556.33	48154.18
556.50	47875.66
556.66	47971.62
556.83	48219.72
556.99	48203.33
557.16	48264.19
557.32	48470.15
557.49	48383.55
557.65	47959.92
557.82	48395.26
557.98	48488.88
558.15	48252.48
558.32	48327.38
558.48	48472.49
558.65	48575.48
558.81	48566.12
558.98	48692.50
559.14	48509.94
559.31	48212.70
559.47	48758.04
559.64	48268.87
559.80	48594.20
559.97	48762.72
560.13	48680.80
560.30	48615.27
560.46	48882.09
560.63	49228.49
560.79	48708.89
560.96	48531.01
561.12	48325.04
561.29	48650.38
561.45	48666.76
561.61	48542.71
561.78	48683.14
561.94	48708.89
562.11	49036.56
562.27	48683.14
562.44	48987.41
562.60	48519.31
562.77	48477.18
562.93	48797.83
563.10	49373.60
563.26	49074.01
563.42	49062.31
563.59	48912.52
563.75	48601.22
563.92	49212.10
564.08	48907.83
564.24	48978.05
564.41	48645.69
564.57	49106.78
564.74	49076.35
564.90	49085.72
565.07	48942.94
565.23	49095.08
565.39	48985.07
565.56	49277.64
565.72	48861.02
565.88	49031.88
566.05	49214.44
566.21	48898.47
566.38	49146.57
566.54	48477.18
566.70	49205.08
566.87	49158.27
567.03	49099.76
567.19	49296.36
567.36	49326.79
567.52	49216.78
567.68	49228.49
567.85	48926.56
568.01	48837.62
568.17	48753.36
568.34	49226.15
568.50	49352.54
568.66	49336.15
568.83	49572.55
568.99	49148.91
569.15	48896.13
569.32	48762.72
569.48	48907.83
569.64	49361.90
569.81	49242.53
569.97	49074.01
570.13	49083.37
570.30	49518.71
570.46	49062.31
570.62	49268.28
570.78	48942.94
570.95	49310.41
571.11	49120.82
571.27	48882.09
571.43	49069.33
571.60	49207.42
571.76	49214.44
571.92	49268.28
572.09	49638.08
572.25	49284.66
572.41	49076.35
572.57	49443.82
572.74	49471.90
572.90	48971.03
573.06	49591.27
573.22	49712.98
573.38	49565.52
573.55	49404.03
573.71	49930.65
573.87	49804.26
574.03	49207.42
574.20	49233.17
574.36	49029.54
574.52	49556.16
574.68	49504.67
574.84	49179.34
575.01	49457.86
575.17	49233.17
575.33	49305.73
575.49	49106.78
575.65	49631.06
575.82	49340.83
575.98	49188.70
576.14	49792.56
576.30	49387.64
576.46	49207.42
576.62	49303.38
576.79	49436.80
576.95	49055.29
577.11	49724.68
577.27	49287.00
577.43	49764.47
577.59	49481.27
577.75	49184.02
577.92	49556.16
578.08	49202.74
578.24	49029.54
578.40	49324.45
578.56	49059.97
578.72	49748.09
578.88	49928.31
579.04	49504.67
579.21	49216.78
579.37	49432.11
579.53	49752.77
579.69	49172.31
579.85	49113.80
580.01	49570.21
580.17	49109.12
580.33	49078.69
580.49	49392.33
580.65	49516.37
580.82	49364.24
580.98	49354.88
581.14	49366.58
581.30	49598.29
581.46	49504.67
581.62	49272.96
581.78	49113.80
581.94	49392.33
582.10	49399.35
582.26	49064.65
582.42	49272.96
582.58	49366.58
582.74	49602.97
582.90	49432.11
583.06	49755.11
583.22	49305.73
583.38	49401.69
583.54	49223.81
583.70	49436.80
583.86	49059.97
584.02	49371.26
584.18	49322.11
584.34	49645.10
584.50	49815.96
584.66	49326.79
584.82	49425.09
584.98	49598.29
585.14	49326.79
585.30	49233.17
585.46	49528.08
585.62	49289.34
585.78	49507.01
585.94	49338.49
586.10	49804.26
586.26	49268.28
586.42	49951.71
586.58	49708.30
586.74	49284.66
586.90	49308.07
587.06	49179.34
587.22	49684.89
587.38	49366.58
587.54	49406.37
587.70	49427.43
587.86	49153.59
588.02	49645.10
588.18	50106.19
588.34	49659.15
588.49	49406.37
588.65	49233.17
588.81	49577.23
588.97	49481.27
589.13	49551.48
589.29	49244.87
589.45	49698.94
589.61	49705.96
589.77	50050.02
589.93	49991.50
590.08	49745.75
