SpectraSuite Data File
++++++++++++++++++++++++++++++++++++
Date: Fri Oct 04 11:39:47 GMT-05:00 2013
User: price-jones
Dark Spectrum Present: No
Reference Spectrum Present: No
Number of Sampled Component Spectra: 1
Spectrometers: USB2+H05261
Integration Time (usec): 100000 (USB2+H05261)
Spectra Averaged: 1 (USB2+H05261)
Boxcar Smoothing: 0 (USB2+H05261)
Correct for Electrical Dark: No (USB2+H05261)
Strobe/Lamp Enabled: No (USB2+H05261)
Correct for Detector Non-linearity: No (USB2+H05261)
Correct for Stray Light: No (USB2+H05261)
Number of Pixels in Processed Spectrum: 2048
>>>>>Begin Processed Spectral Data<<<<<
365.73	39.79
365.92	39.79
366.12	39.79
366.32	4.68
366.52	0.00
366.72	0.00
366.91	0.00
367.11	56.17
367.31	0.00
367.51	0.00
367.70	0.00
367.90	0.00
368.10	0.00
368.30	0.00
368.49	0.00
368.69	42.13
368.89	0.00
369.09	0.00
369.28	0.00
369.48	0.00
369.68	0.00
369.87	0.00
370.07	0.00
370.27	81.92
370.47	208.31
370.66	477.47
370.86	510.24
371.06	645.99
371.25	571.09
371.45	596.84
371.65	667.05
371.84	493.85
372.04	685.78
372.24	688.12
372.44	653.01
372.63	676.41
372.83	706.84
373.03	709.18
373.22	657.69
373.42	669.39
373.62	716.20
373.81	760.67
374.01	802.80
374.21	814.51
374.40	793.44
374.60	765.36
374.79	765.36
374.99	809.83
375.19	802.80
375.38	779.40
375.58	844.93
375.78	823.87
375.97	856.64
376.17	912.81
376.37	924.51
376.56	798.12
376.76	875.36
376.95	870.68
377.15	863.66
377.35	924.51
377.54	821.53
377.74	912.81
377.93	915.15
378.13	866.00
378.33	926.85
378.52	987.71
378.72	889.40
378.91	870.68
379.11	858.98
379.31	1032.18
379.50	910.47
379.70	978.34
379.89	1020.47
380.09	985.37
380.28	987.71
380.48	1032.18
380.68	919.83
380.87	999.41
381.07	1011.11
381.26	1093.03
381.46	1036.86
381.65	1121.12
381.85	1095.37
382.04	1034.52
382.24	1076.65
382.43	1149.20
382.63	1111.75
382.83	1109.41
383.02	1123.46
383.22	1142.18
383.41	1083.67
383.61	1088.35
383.80	1121.12
384.00	1081.33
384.19	1181.97
384.39	1198.35
384.58	1193.67
384.78	1167.93
384.97	1256.87
385.17	1191.33
385.36	1196.01
385.56	1139.84
385.75	1226.44
385.95	1270.91
386.14	1214.74
386.34	1188.99
386.53	1224.10
386.72	1291.98
386.92	1397.30
387.11	1270.91
387.31	1401.98
387.50	1327.08
387.70	1205.38
387.89	1247.51
388.09	1378.58
388.28	1378.58
388.48	1291.98
388.67	1364.53
388.86	1350.49
389.06	1390.28
389.25	1446.45
389.45	1486.24
389.64	1439.43
389.84	1493.26
390.03	1554.12
390.22	1526.03
390.42	1500.28
390.61	1483.90
390.81	1497.94
391.00	1570.50
391.19	1509.65
391.39	1577.52
391.58	1568.16
391.78	1547.09
391.97	1577.52
392.16	1575.18
392.36	1687.53
392.55	1666.46
392.75	1657.10
392.94	1577.52
393.13	1668.80
393.33	1633.69
393.52	1678.16
393.71	1741.36
393.91	1757.74
394.10	1732.00
394.29	1790.51
394.49	1736.68
394.68	1727.32
394.88	1813.92
395.07	1809.23
395.26	1816.26
395.46	1895.83
395.65	1837.32
395.84	1837.32
396.04	1930.94
396.23	1944.99
396.42	2022.22
396.62	2015.20
396.81	1998.82
397.00	1984.77
397.19	1991.80
397.39	1952.01
397.58	1956.69
397.77	1984.77
397.97	2029.24
398.16	2047.97
398.35	2153.29
398.55	2106.48
398.74	2134.57
398.93	2195.42
399.12	2125.21
399.32	2223.51
399.51	2160.31
399.70	2275.00
399.90	2211.81
400.09	2349.90
400.28	2326.49
400.47	2469.27
400.67	2424.80
400.86	2319.47
401.05	2263.30
401.24	2441.18
401.44	2523.10
401.63	2466.92
401.82	2342.88
402.01	2455.22
402.21	2420.11
402.40	2504.37
402.59	2593.31
402.78	2504.37
402.97	2415.43
403.17	2548.84
403.36	2738.43
403.55	2605.02
403.74	2644.81
403.93	2672.89
404.13	2747.79
404.32	2867.16
404.51	2738.43
404.70	2890.56
404.89	2822.69
405.09	2848.43
405.28	2787.58
405.47	2810.98
405.66	2935.03
405.85	2846.09
406.05	2963.12
406.24	2946.73
406.43	2942.05
406.62	3021.63
406.81	3101.21
407.00	2972.48
407.20	2946.73
407.39	3059.08
407.58	3080.14
407.77	3220.58
407.96	3234.62
408.15	3152.70
408.34	3082.49
408.54	3255.69
408.73	3309.52
408.92	3314.20
409.11	3363.35
409.30	3328.24
409.49	3290.79
409.68	3328.24
409.87	3414.84
410.07	3454.63
410.26	3520.17
410.45	3529.53
410.64	3606.77
410.83	3527.19
411.02	3527.19
411.21	3691.02
411.40	3698.05
411.59	3791.67
411.78	3758.90
411.98	3637.19
412.17	3850.18
412.36	3754.22
412.55	3904.01
412.74	3967.21
412.93	3925.08
413.12	3990.61
413.31	4081.89
413.50	3974.23
413.69	4109.98
413.88	4196.58
414.07	4243.39
414.26	4301.90
414.45	4428.29
414.64	4292.54
414.83	4482.13
415.02	4418.93
415.22	4482.13
415.41	4643.62
415.60	4641.28
415.79	4596.81
415.98	4645.96
416.17	4688.09
416.36	4762.99
416.55	4931.51
416.74	4830.87
416.93	4830.87
417.12	4987.68
417.31	5046.20
417.50	4898.74
417.69	5149.18
417.88	5177.26
418.07	5083.64
418.26	5015.77
418.45	5097.69
418.64	5329.40
418.83	5123.43
419.02	5376.21
419.21	5284.93
419.39	5373.87
419.58	5261.52
419.77	5437.06
419.96	5528.35
420.15	5282.59
420.34	5430.04
420.53	5502.60
420.72	5596.22
420.91	5687.50
421.10	5673.46
421.29	5701.54
421.48	5408.98
421.67	5823.25
421.86	5650.05
422.05	5781.12
422.24	5657.07
422.43	5741.33
422.61	5795.17
422.80	5820.91
422.99	5970.71
423.18	6010.50
423.37	6080.71
423.56	5820.91
423.75	5792.83
423.94	5788.14
424.13	5542.39
424.32	5544.73
424.50	5921.56
424.69	5973.05
424.88	6174.33
425.07	6005.81
425.26	5820.91
425.45	5963.68
425.64	5877.09
425.83	5984.75
426.01	6038.58
426.20	5891.13
426.39	5987.09
426.58	6153.27
426.77	6104.12
426.96	6319.45
427.15	6218.80
427.33	6204.76
427.52	6258.59
427.71	6228.17
427.90	6188.38
428.09	6218.80
428.28	6373.28
428.46	6333.49
428.65	6462.22
428.84	6553.50
429.03	6619.04
429.22	6384.98
429.40	6689.25
429.59	6651.80
429.78	6413.07
429.97	6492.65
430.16	6492.65
430.34	6761.81
430.53	6766.49
430.72	6647.12
430.91	6761.81
431.10	6651.80
431.28	6974.80
431.47	7089.48
431.66	7173.74
431.85	6853.09
432.03	6974.80
432.22	7208.85
432.41	7211.19
432.60	7213.53
432.79	6970.12
432.97	7330.56
433.16	7321.20
433.35	7389.07
433.54	7325.88
433.72	7382.05
433.91	7269.70
434.10	7379.71
434.28	7262.68
434.47	7517.80
434.66	7557.59
434.85	7428.86
435.03	7538.87
435.22	7885.26
435.41	8273.79
435.59	8053.78
435.78	8098.25
435.97	7939.10
436.16	7887.61
436.34	7782.28
436.53	7681.64
436.72	8095.91
436.90	7843.14
437.09	8049.10
437.28	7772.92
437.46	7962.50
437.65	7983.57
437.84	8301.88
438.02	8051.44
438.21	8301.88
438.40	8102.93
438.58	8411.89
438.77	8521.89
438.96	8571.04
439.14	8793.39
439.33	8627.21
439.52	8636.58
439.70	8681.05
439.89	8957.23
440.08	8966.59
440.26	8557.00
440.45	8915.10
440.63	9032.13
440.82	9193.62
441.01	8954.89
441.19	9226.39
441.38	9390.23
441.57	9303.63
441.75	9312.99
441.94	9928.55
442.12	9666.41
442.31	9659.39
442.50	9771.74
442.68	9776.42
442.87	9900.47
443.05	9806.84
443.24	10050.26
443.43	9944.94
443.61	10015.15
443.80	10274.95
443.98	9820.89
444.17	9853.66
444.35	9980.04
444.54	10258.57
444.73	10207.08
444.91	9827.91
445.10	10087.71
445.28	10284.31
445.47	10083.03
445.65	10267.93
445.84	10281.97
446.02	10200.05
446.21	10012.81
446.39	10384.96
446.58	10352.19
446.77	10296.02
446.95	10120.48
447.14	10228.14
447.32	10471.56
447.51	10452.83
447.69	10375.59
447.88	10361.55
448.06	10319.42
448.25	10457.51
448.43	10429.43
448.62	10525.39
448.80	10438.79
448.99	10736.04
449.17	10623.69
449.36	10670.50
449.54	10860.09
449.73	10693.91
449.91	10993.50
450.10	10960.73
450.28	10937.32
450.46	11009.88
450.65	11286.06
450.83	11197.12
451.02	10949.03
451.20	11131.59
451.39	11337.56
451.57	11026.26
451.76	11215.85
451.94	11433.52
452.13	11492.03
452.31	11440.54
452.49	11323.51
452.68	11513.10
452.86	11447.56
453.05	11543.52
453.23	11698.00
453.42	11737.79
453.60	11487.35
453.78	11730.76
453.97	11580.97
454.15	11634.80
454.34	11815.02
454.52	11934.39
454.70	11871.20
454.89	12107.59
455.07	11875.88
455.26	12184.83
455.44	12395.48
455.62	12105.25
455.81	12149.72
455.99	12278.45
456.17	12201.21
456.36	12257.39
456.54	12704.43
456.73	12599.10
456.91	12999.34
457.09	12706.77
457.28	12922.10
457.46	12751.24
457.64	12894.01
457.83	13011.04
458.01	12807.41
458.19	13289.56
458.38	12886.99
458.56	13390.20
458.74	13137.43
458.93	13142.11
459.11	13238.07
459.29	13132.75
459.48	13383.18
459.66	13439.36
459.84	13591.49
460.03	13778.73
460.21	13652.34
460.39	13561.06
460.57	13231.05
460.76	13556.38
460.94	13909.80
461.12	13844.27
461.31	13879.38
461.49	13671.07
461.67	13855.97
461.85	14363.87
462.04	14181.31
462.22	14836.66
462.40	14185.99
462.59	14347.48
462.77	14377.91
462.95	14398.98
463.13	14281.95
463.32	14340.46
463.50	14333.44
463.68	14258.54
463.86	14520.68
464.05	14345.14
464.23	14450.47
464.41	14883.47
464.59	14321.74
464.78	14588.56
464.96	14759.42
465.14	14822.61
465.32	14932.62
465.50	15243.91
465.69	15023.90
465.87	14780.48
466.05	14806.23
466.23	14904.53
466.41	15007.52
466.60	15403.07
466.78	15199.44
466.96	15227.53
467.14	15311.78
467.32	15351.57
467.51	15683.93
467.69	15152.63
467.87	15412.43
468.05	15360.94
468.23	15389.02
468.41	15344.55
468.60	15641.80
468.78	15789.25
468.96	15534.14
469.14	15836.06
469.32	16133.31
469.50	15405.41
469.69	16137.99
469.87	16152.04
470.05	16070.12
470.23	16421.20
470.41	16187.14
470.59	16556.95
470.77	16060.76
470.95	16507.80
471.14	16809.73
471.32	16343.96
471.50	16769.94
471.68	16772.28
471.86	17006.33
472.04	17048.46
472.22	17642.96
472.40	16872.92
472.58	17123.36
472.77	17198.26
472.95	17558.70
473.13	18204.69
473.31	17605.51
473.49	17366.78
473.67	17607.85
473.85	17507.21
474.03	17949.57
474.21	18150.85
474.39	18312.35
474.57	18345.12
474.75	18333.42
474.93	18817.91
475.12	18630.66
475.30	18499.59
475.48	18979.40
475.66	18831.95
475.84	19042.60
476.02	18960.68
476.20	19286.01
476.38	19932.00
476.56	19831.36
476.74	19843.06
476.92	19606.67
477.10	19812.63
477.28	20161.37
477.46	19826.68
477.64	20187.12
477.82	20563.95
478.00	21062.48
478.18	20760.55
478.36	21275.47
478.54	21390.16
478.72	21570.38
478.90	21451.01
479.08	21685.06
479.26	22122.74
479.44	22551.06
479.62	22129.77
479.80	22623.62
479.98	22796.82
480.16	23016.83
480.34	22930.23
480.52	22944.27
480.70	23330.46
480.88	22677.45
481.06	23484.94
481.24	23192.37
481.41	23814.95
481.59	24245.61
481.77	24229.23
481.95	24273.70
482.13	24762.87
482.31	24786.27
482.49	24723.08
482.67	25233.32
482.85	25439.28
483.03	25678.02
483.21	25769.30
483.39	26192.94
483.57	26115.70
483.74	26471.46
483.92	26366.13
484.10	26841.26
484.28	27019.14
484.46	27339.80
484.64	28013.87
484.82	27503.64
485.00	28030.26
485.18	28503.04
485.35	28603.69
485.53	28280.69
485.71	28685.61
485.89	29689.70
486.07	28854.12
486.25	29200.52
486.43	29514.16
486.61	29743.53
486.78	29905.02
486.96	30462.07
487.14	31494.25
487.32	30679.74
487.50	31101.04
487.68	31133.81
487.85	31548.08
488.03	32435.14
488.21	32395.35
488.39	32444.51
488.57	32533.45
488.75	32395.35
488.92	32870.48
489.10	33392.42
489.28	33577.33
489.46	33684.99
489.64	34087.56
489.81	34628.23
489.99	34281.83
490.17	34794.40
490.35	35447.41
490.53	34827.17
490.70	35840.62
490.88	35606.57
491.06	36013.82
491.24	36074.68
491.41	36512.36
491.59	36701.94
491.77	36493.63
491.95	37109.19
492.13	37275.37
492.30	37600.71
492.48	37574.96
492.66	37558.58
492.84	37984.55
493.01	38293.50
493.19	38658.63
493.37	38597.77
493.54	38829.49
493.72	39220.36
493.90	39175.89
494.08	39409.94
494.25	40041.88
494.43	39826.56
494.61	40409.35
494.79	41184.07
494.96	40547.44
495.14	40430.41
495.32	41163.00
495.49	41132.57
495.67	41277.69
495.85	41834.74
496.02	42160.07
496.20	41867.50
496.38	42462.00
496.55	42473.70
496.73	43035.43
496.91	42869.25
497.09	43051.81
497.26	43531.62
497.44	43517.58
497.62	43496.52
497.79	44271.23
497.97	44163.57
498.14	44591.89
498.32	45144.25
498.50	44769.77
498.67	45331.50
498.85	44718.28
499.03	45406.39
499.20	45542.14
499.38	45776.20
499.56	45776.20
499.73	46092.17
499.91	46623.47
500.08	46579.00
500.26	46258.35
500.44	46480.70
500.61	46595.38
500.79	46967.53
500.97	47093.92
501.14	47564.37
501.32	47590.11
501.49	47447.34
501.67	47693.10
501.84	47606.50
502.02	47971.62
502.20	48062.90
502.37	48439.73
502.55	48446.75
502.72	48643.35
502.90	48715.91
503.07	48418.66
503.25	48423.34
503.43	48587.18
503.60	49165.29
503.78	48959.33
503.95	49357.22
504.13	49432.11
504.30	49469.56
504.48	49333.81
504.65	49518.71
504.83	49818.30
505.01	50253.64
505.18	50333.22
505.36	50703.03
505.53	50487.70
505.71	50157.68
505.88	50431.52
506.06	50316.84
506.23	51084.53
506.41	50955.80
506.58	50951.12
506.76	50918.35
506.93	51288.16
507.11	51203.90
507.28	51274.12
507.46	51531.57
507.63	51711.80
507.81	51859.25
507.98	51770.31
508.16	51517.53
508.33	51948.19
508.50	51835.84
508.68	52172.88
508.85	52472.47
509.03	52563.75
509.20	52603.54
509.38	52853.98
509.55	52839.93
509.73	52968.66
509.90	52722.91
510.08	52999.09
510.25	53022.50
510.42	53258.89
510.60	53361.87
510.77	53619.33
510.95	53942.33
511.12	53488.26
511.30	53518.69
511.47	53750.40
511.64	53869.77
511.82	54010.20
511.99	54066.38
512.17	54066.38
512.34	53961.05
512.51	54368.30
512.69	54555.55
512.86	54492.35
513.04	54728.75
513.21	54672.57
513.38	54777.90
513.56	54930.03
513.73	54534.48
513.90	54658.53
514.08	54937.05
514.25	55002.59
514.43	55131.32
514.60	55313.88
514.77	55014.29
514.95	55592.40
515.12	55077.49
515.29	55653.26
515.47	55494.10
515.64	55585.38
515.81	55646.24
515.99	55707.09
516.16	56076.90
516.33	55966.89
516.51	55882.63
516.68	56060.51
516.85	55831.14
517.03	56123.71
517.20	56411.59
517.37	56411.59
517.54	56355.42
517.72	56264.14
517.89	56339.04
518.06	56458.40
518.24	56418.61
518.41	56236.05
518.58	56591.81
518.75	56563.73
518.93	57097.37
519.10	56790.76
519.27	57265.89
519.45	57020.13
519.62	57092.69
519.79	57027.15
519.96	57165.24
520.14	57146.52
520.31	57190.99
520.48	57441.43
520.65	57495.26
520.83	57499.94
521.00	57577.18
521.17	57476.54
521.34	57499.94
521.52	57544.41
521.69	57567.82
521.86	57958.69
522.03	57993.79
522.20	58176.36
522.38	58010.18
522.55	58042.95
522.72	58120.18
522.89	57991.45
523.07	58597.65
523.24	58298.06
523.41	58354.24
523.58	58244.23
523.75	58410.41
523.92	58539.14
524.10	58328.49
524.27	58653.82
524.44	58838.73
524.61	58848.09
524.78	58712.34
524.96	58775.53
525.13	58714.68
525.30	58770.85
525.47	59084.48
525.64	59011.93
525.81	59318.54
525.98	59168.74
526.16	59098.53
526.33	59264.70
526.50	59395.77
526.67	59126.61
526.84	59313.86
527.01	59016.61
527.18	59367.69
527.36	59456.63
527.53	59669.62
527.70	59838.14
527.87	59704.73
528.04	59536.21
528.21	59622.81
528.38	59604.08
528.55	59737.49
528.72	59716.43
528.89	59749.20
529.07	60009.00
529.24	59962.18
529.41	60058.15
529.58	59901.33
529.75	59903.67
529.92	59955.16
530.09	59950.48
530.26	60210.28
530.43	60388.16
530.60	60168.15
530.77	60046.44
530.94	60266.45
531.11	60142.41
531.28	60456.04
531.46	60130.70
531.63	60385.82
531.80	60647.96
531.97	60701.79
532.14	60631.58
532.31	60647.96
532.48	60793.07
532.65	60776.69
532.82	60493.49
532.99	60704.13
533.16	60725.20
533.33	60931.17
533.50	61111.39
533.67	60842.23
533.84	60811.80
534.01	60811.80
534.18	60807.12
534.35	60889.04
534.52	61034.15
534.69	61233.10
534.86	61427.36
535.03	61272.88
535.20	61317.35
535.37	61303.31
535.54	61366.51
535.71	61296.29
535.88	61467.15
536.05	61289.27
536.22	61652.05
536.38	61687.16
536.55	61635.67
536.72	61722.27
536.89	61506.94
537.06	61696.52
537.23	61593.54
537.40	61535.02
537.57	61602.90
537.74	61654.39
537.91	62003.13
538.08	62000.79
538.25	61886.10
538.42	61883.76
538.59	61937.60
538.75	61705.88
538.92	61951.64
539.09	62131.86
539.26	62148.24
539.43	61977.39
539.60	62262.93
539.77	62033.56
539.94	62344.85
540.11	62424.43
540.28	62152.93
540.44	62265.27
540.61	62265.27
540.78	62347.19
540.95	62396.34
541.12	62351.87
541.29	62482.94
541.46	62417.41
541.62	62564.86
541.79	62709.97
541.96	62211.44
542.13	62630.40
542.30	62688.91
542.47	62915.94
542.63	62773.17
542.80	62887.85
542.97	63126.59
543.14	63152.33
543.31	62913.60
543.48	63126.59
543.64	63072.76
543.81	63100.84
543.98	63196.80
544.15	63180.42
544.32	63402.77
544.48	63395.75
544.65	63222.55
544.82	62990.84
544.99	62988.50
545.16	63252.98
545.32	63217.87
545.49	63723.43
545.66	63622.78
545.83	63702.36
546.00	63964.50
546.16	63529.16
546.33	63477.67
546.50	63245.96
546.67	63428.52
546.83	63128.93
547.00	63575.97
547.17	63482.35
547.34	63599.38
547.50	63744.49
547.67	63803.00
547.84	63917.69
548.00	63702.36
548.17	63803.00
548.34	63821.73
548.51	63765.56
548.67	63831.09
548.84	63915.35
549.01	63992.59
549.18	63966.84
549.34	63894.28
549.51	63894.28
549.68	63732.79
549.84	63777.26
550.01	63749.17
550.18	63817.05
550.34	64109.61
550.51	64095.57
550.68	64130.68
550.84	64177.49
551.01	64055.78
551.18	64137.70
551.34	64170.47
551.51	64069.82
551.68	64203.24
551.84	64154.08
552.01	64179.83
552.18	64395.16
552.34	64472.40
552.51	64441.97
552.68	64282.81
552.84	64418.56
553.01	64488.78
553.18	64413.88
553.34	64420.90
553.51	64626.87
553.67	64584.74
553.84	64907.74
554.01	64898.37
554.17	64718.15
554.34	64453.67
554.51	64467.72
554.67	64881.99
554.84	64729.86
555.00	64708.79
555.17	64711.13
555.33	64743.90
555.50	64624.53
555.67	64757.94
555.83	64753.26
556.00	64690.07
556.16	64793.05
556.33	64853.90
556.50	64924.12
556.66	65010.72
556.83	64816.46
556.99	65087.96
557.16	65118.38
557.32	65055.19
557.49	65155.83
557.65	64856.24
557.82	64963.91
557.98	64963.91
558.15	65013.06
558.32	65141.79
558.48	65162.85
558.65	65158.17
558.81	65190.94
558.98	65350.10
559.14	65148.81
559.31	64999.02
559.47	65125.41
559.64	65347.76
559.80	65228.39
559.97	65485.85
560.13	65380.52
560.30	65354.78
560.46	65314.99
560.63	65338.40
560.79	65352.44
560.96	65387.55
561.12	65261.16
561.29	65256.48
561.45	65373.50
561.61	65336.05
561.78	65462.44
561.94	65535.00
562.11	65527.98
562.27	65432.02
562.44	65535.00
562.60	65516.28
562.77	65535.00
562.93	65422.65
563.10	65535.00
563.26	65457.76
563.42	65535.00
563.59	65535.00
563.75	65535.00
563.92	65535.00
564.08	65535.00
564.24	65410.95
564.41	65476.49
564.57	65535.00
564.74	65535.00
564.90	65535.00
565.07	65535.00
565.23	65535.00
565.39	65535.00
565.56	65535.00
565.72	65535.00
565.88	65535.00
566.05	65535.00
566.21	65535.00
566.38	65535.00
566.54	65535.00
566.70	65535.00
566.87	65535.00
567.03	65535.00
567.19	65535.00
567.36	65535.00
567.52	65535.00
567.68	65535.00
567.85	65535.00
568.01	65535.00
568.17	65535.00
568.34	65535.00
568.50	65535.00
568.66	65535.00
568.83	65535.00
568.99	65535.00
569.15	65535.00
569.32	65535.00
569.48	65535.00
569.64	65535.00
569.81	65535.00
569.97	65535.00
570.13	65535.00
570.30	65535.00
570.46	65535.00
570.62	65535.00
570.78	65535.00
570.95	65535.00
571.11	65535.00
571.27	65535.00
571.43	65535.00
571.60	65535.00
571.76	65535.00
571.92	65535.00
572.09	65535.00
572.25	65535.00
572.41	65535.00
572.57	65535.00
572.74	65535.00
572.90	65535.00
573.06	65535.00
573.22	65535.00
573.38	65535.00
573.55	65535.00
573.71	65535.00
573.87	65535.00
574.03	65535.00
574.20	65535.00
574.36	65535.00
574.52	65535.00
574.68	65535.00
574.84	65535.00
575.01	65535.00
575.17	65535.00
575.33	65535.00
575.49	65535.00
575.65	65535.00
575.82	65535.00
575.98	65535.00
576.14	65535.00
576.30	65535.00
576.46	65535.00
576.62	65535.00
576.79	65535.00
576.95	65535.00
577.11	65535.00
577.27	65535.00
577.43	65535.00
577.59	65535.00
577.75	65535.00
577.92	65535.00
578.08	65535.00
578.24	65535.00
578.40	65535.00
578.56	65535.00
578.72	65535.00
578.88	65535.00
579.04	65535.00
579.21	65535.00
579.37	65535.00
579.53	65535.00
579.69	65535.00
579.85	65535.00
580.01	65535.00
580.17	65535.00
580.33	65535.00
580.49	65535.00
580.65	65535.00
580.82	65535.00
580.98	65535.00
581.14	65535.00
581.30	65535.00
581.46	65535.00
581.62	65535.00
581.78	65535.00
581.94	65535.00
582.10	65535.00
582.26	65535.00
582.42	65535.00
582.58	65535.00
582.74	65535.00
582.90	65535.00
583.06	65535.00
583.22	65535.00
583.38	65535.00
583.54	65535.00
583.70	65535.00
583.86	65535.00
584.02	65535.00
584.18	65535.00
584.34	65535.00
584.50	65535.00
584.66	65535.00
584.82	65535.00
584.98	65535.00
585.14	65535.00
585.30	65535.00
585.46	65535.00
585.62	65535.00
585.78	65535.00
585.94	65535.00
586.10	65535.00
586.26	65535.00
586.42	65535.00
586.58	65535.00
586.74	65535.00
586.90	65535.00
587.06	65535.00
587.22	65535.00
587.38	65535.00
587.54	65535.00
587.70	65535.00
587.86	65535.00
588.02	65535.00
588.18	65535.00
