SpectraSuite Data File
++++++++++++++++++++++++++++++++++++
Date: Fri Oct 04 11:40:02 GMT-05:00 2013
User: price-jones
Dark Spectrum Present: No
Reference Spectrum Present: No
Number of Sampled Component Spectra: 1
Spectrometers: USB2+H05261
Integration Time (usec): 100000 (USB2+H05261)
Spectra Averaged: 1 (USB2+H05261)
Boxcar Smoothing: 0 (USB2+H05261)
Correct for Electrical Dark: No (USB2+H05261)
Strobe/Lamp Enabled: No (USB2+H05261)
Correct for Detector Non-linearity: No (USB2+H05261)
Correct for Stray Light: No (USB2+H05261)
Number of Pixels in Processed Spectrum: 2048
>>>>>Begin Processed Spectral Data<<<<<
365.73	30.43
365.92	30.43
366.12	30.43
366.32	0.00
366.52	0.00
366.72	0.00
366.91	0.00
367.11	0.00
367.31	0.00
367.51	0.00
367.70	0.00
367.90	0.00
368.10	0.00
368.30	23.41
368.49	0.00
368.69	7.02
368.89	0.00
369.09	0.00
369.28	0.00
369.48	0.00
369.68	0.00
369.87	58.51
370.07	0.00
370.27	7.02
370.47	35.11
370.66	0.00
370.86	98.30
371.06	60.85
371.25	121.71
371.45	70.22
371.65	84.26
371.84	114.69
372.04	77.24
372.24	131.07
372.44	110.01
372.63	107.66
372.83	112.35
373.03	112.35
373.22	133.41
373.42	180.22
373.62	161.50
373.81	117.03
374.01	126.39
374.21	105.32
374.40	126.39
374.60	133.41
374.79	95.96
374.99	159.16
375.19	231.71
375.38	105.32
375.58	53.83
375.78	142.77
375.97	149.79
376.17	194.26
376.37	154.48
376.56	175.54
376.76	138.09
376.95	88.94
377.15	147.45
377.35	152.13
377.54	168.52
377.74	56.17
377.93	170.86
378.13	88.94
378.33	107.66
378.52	77.24
378.72	112.35
378.91	135.75
379.11	121.71
379.31	156.82
379.50	182.56
379.70	142.77
379.89	67.88
380.09	112.35
380.28	140.43
380.48	135.75
380.68	131.07
380.87	159.16
381.07	128.73
381.26	102.98
381.46	145.11
381.65	133.41
381.85	124.05
382.04	173.20
382.24	173.20
382.43	156.82
382.63	67.88
382.83	145.11
383.02	138.09
383.22	227.03
383.41	63.19
383.61	117.03
383.80	175.54
384.00	98.30
384.19	145.11
384.39	77.24
384.58	177.88
384.78	159.16
384.97	173.20
385.17	95.96
385.36	133.41
385.56	119.37
385.75	100.64
385.95	140.43
386.14	140.43
386.34	79.58
386.53	107.66
386.72	100.64
386.92	182.56
387.11	170.86
387.31	182.56
387.50	182.56
387.70	163.84
387.89	81.92
388.09	121.71
388.28	93.62
388.48	140.43
388.67	166.18
388.86	177.88
389.06	177.88
389.25	138.09
389.45	135.75
389.64	100.64
389.84	180.22
390.03	154.48
390.22	114.69
390.42	91.28
390.61	154.48
390.81	117.03
391.00	107.66
391.19	142.77
391.39	145.11
391.58	166.18
391.78	159.16
391.97	154.48
392.16	117.03
392.36	70.22
392.55	119.37
392.75	86.60
392.94	100.64
393.13	189.58
393.33	191.92
393.52	166.18
393.71	149.79
393.91	187.24
394.10	91.28
394.29	187.24
394.49	105.32
394.68	194.26
394.88	189.58
395.07	224.69
395.26	220.01
395.46	173.20
395.65	252.78
395.84	138.09
396.04	241.08
396.23	131.07
396.42	142.77
396.62	220.01
396.81	189.58
397.00	133.41
397.19	117.03
397.39	184.90
397.58	241.08
397.77	124.05
397.97	175.54
398.16	208.31
398.35	117.03
398.55	135.75
398.74	107.66
398.93	191.92
399.12	138.09
399.32	149.79
399.51	205.97
399.70	227.03
399.90	173.20
400.09	191.92
400.28	110.01
400.47	170.86
400.67	198.95
400.86	212.99
401.05	248.10
401.24	175.54
401.44	220.01
401.63	191.92
401.82	166.18
402.01	201.29
402.21	215.33
402.40	194.26
402.59	140.43
402.78	196.60
402.97	177.88
403.17	245.76
403.36	236.39
403.55	180.22
403.74	262.14
403.93	241.08
404.13	285.55
404.32	290.23
404.51	297.25
404.70	243.42
404.89	187.24
405.09	276.18
405.28	248.10
405.47	135.75
405.66	236.39
405.85	266.82
406.05	297.25
406.24	131.07
406.43	215.33
406.62	245.76
406.81	304.27
407.00	189.58
407.20	287.89
407.39	280.86
407.58	266.82
407.77	290.23
407.96	217.67
408.15	194.26
408.34	299.59
408.54	285.55
408.73	299.59
408.92	210.65
409.11	236.39
409.30	346.40
409.49	271.50
409.68	280.86
409.87	236.39
410.07	173.20
410.26	259.80
410.45	278.52
410.64	276.18
410.83	318.31
411.02	236.39
411.21	348.74
411.40	327.68
411.59	322.99
411.78	248.10
411.98	318.31
412.17	348.74
412.36	334.70
412.55	299.59
412.74	308.95
412.93	348.74
413.12	355.76
413.31	381.51
413.50	362.78
413.69	280.86
413.88	308.95
414.07	308.95
414.26	292.57
414.45	344.06
414.64	299.59
414.83	341.72
415.02	341.72
415.22	376.83
415.41	327.68
415.60	360.44
415.79	383.85
415.98	421.30
416.17	330.02
416.36	388.53
416.55	308.95
416.74	348.74
416.93	383.85
417.12	409.59
417.31	374.49
417.50	425.98
417.69	388.53
417.88	313.63
418.07	416.62
418.26	379.17
418.45	400.23
418.64	341.72
418.83	468.11
419.02	414.27
419.21	454.06
419.39	393.21
419.58	430.66
419.77	416.62
419.96	444.70
420.15	447.04
420.34	470.45
420.53	416.62
420.72	402.57
420.91	376.83
421.10	486.83
421.29	463.43
421.48	475.13
421.67	444.70
421.86	376.83
422.05	348.74
422.24	493.85
422.43	437.68
422.61	404.91
422.80	440.02
422.99	451.72
423.18	493.85
423.37	510.24
423.56	454.06
423.75	512.58
423.94	461.09
424.13	461.09
424.32	425.98
424.50	461.09
424.69	493.85
424.88	461.09
425.07	423.64
425.26	447.04
425.45	517.26
425.64	503.22
425.83	479.81
426.01	498.53
426.20	512.58
426.39	440.02
426.58	458.74
426.77	505.56
426.96	510.24
427.15	477.47
427.33	484.49
427.52	465.77
427.71	538.32
427.90	528.96
428.09	538.32
428.28	365.12
428.46	500.87
428.65	472.79
428.84	447.04
429.03	566.41
429.22	510.24
429.40	465.77
429.59	435.34
429.78	486.83
429.97	571.09
430.16	465.77
430.34	482.15
430.53	540.66
430.72	554.71
430.91	531.30
431.10	486.83
431.28	507.90
431.47	484.49
431.66	531.30
431.85	547.69
432.03	498.53
432.22	592.16
432.41	531.30
432.60	514.92
432.79	564.07
432.97	622.58
433.16	589.82
433.35	573.43
433.54	519.60
433.72	608.54
433.91	505.56
434.10	613.22
434.28	573.43
434.47	526.62
434.66	627.26
434.85	617.90
435.03	664.71
435.22	1020.47
435.41	1280.27
435.59	1434.75
435.78	1123.46
435.97	866.00
436.16	671.73
436.34	545.34
436.53	629.60
436.72	592.16
436.90	557.05
437.09	624.92
437.28	531.30
437.46	638.97
437.65	627.26
437.84	545.34
438.02	519.60
438.21	592.16
438.40	606.20
438.58	571.09
438.77	571.09
438.96	699.82
439.14	685.78
439.33	662.37
439.52	732.59
439.70	690.46
439.89	538.32
440.08	545.34
440.26	713.86
440.45	685.78
440.63	610.88
440.82	709.18
441.01	622.58
441.19	718.54
441.38	645.99
441.57	657.69
441.75	688.12
441.94	711.52
442.12	650.67
442.31	634.29
442.50	657.69
442.68	697.48
442.87	683.44
443.05	692.80
443.24	674.07
443.43	688.12
443.61	704.50
443.80	725.57
443.98	664.71
444.17	603.86
444.35	664.71
444.54	784.08
444.73	650.67
444.91	685.78
445.10	638.97
445.28	711.52
445.47	765.36
445.65	725.57
445.84	713.86
446.02	727.91
446.21	702.16
446.39	699.82
446.58	669.39
446.77	706.84
446.95	725.57
447.14	725.57
447.32	734.93
447.51	692.80
447.69	770.04
447.88	704.50
448.06	809.83
448.25	767.70
448.43	683.44
448.62	678.76
448.80	723.23
448.99	723.23
449.17	777.06
449.36	697.48
449.54	753.65
449.73	755.99
449.91	791.10
450.10	725.57
450.28	777.06
450.46	812.17
450.65	805.14
450.83	713.86
451.02	826.21
451.20	744.29
451.39	746.63
451.57	748.97
451.76	709.18
451.94	777.06
452.13	800.46
452.31	690.46
452.49	821.53
452.68	765.36
452.86	781.74
453.05	880.04
453.23	777.06
453.42	788.76
453.60	732.59
453.78	774.72
453.97	795.78
454.15	713.86
454.34	751.31
454.52	807.48
454.70	952.60
454.89	826.21
455.07	840.25
455.26	866.00
455.44	802.80
455.62	788.76
455.81	835.57
455.99	809.83
456.17	823.87
456.36	816.85
456.54	821.53
456.73	784.08
456.91	809.83
457.09	840.25
457.28	898.77
457.46	805.14
457.64	856.64
457.83	793.44
458.01	863.66
458.19	957.28
458.38	919.83
458.56	854.30
458.74	868.34
458.93	866.00
459.11	823.87
459.29	781.74
459.48	936.21
459.66	882.38
459.84	926.85
460.03	966.64
460.21	894.08
460.39	924.51
460.57	858.98
460.76	835.57
460.94	917.49
461.12	959.62
461.31	887.06
461.49	908.13
461.67	905.79
461.85	929.19
462.04	924.51
462.22	1453.47
462.40	926.85
462.59	926.85
462.77	898.77
462.95	950.26
463.13	842.59
463.32	884.72
463.50	903.45
463.68	959.62
463.86	940.90
464.05	978.34
464.23	1008.77
464.41	933.87
464.59	950.26
464.78	898.77
464.96	952.60
465.14	933.87
465.32	896.43
465.50	994.73
465.69	1011.11
465.87	945.58
466.05	940.90
466.23	945.58
466.41	1008.77
466.60	1011.11
466.78	987.71
466.96	976.00
467.14	959.62
467.32	1011.11
467.51	1022.81
467.69	952.60
467.87	1041.54
468.05	966.64
468.23	901.11
468.41	1022.81
468.60	1032.18
468.78	936.21
468.96	936.21
469.14	877.70
469.32	964.30
469.50	976.00
469.69	1046.22
469.87	964.30
470.05	947.92
470.23	1022.81
470.41	980.68
470.59	1034.52
470.77	1050.90
470.95	968.98
471.14	1067.28
471.32	1053.24
471.50	1083.67
471.68	1083.67
471.86	1048.56
472.04	1004.09
472.22	1109.41
472.40	1004.09
472.58	1125.80
472.77	1046.22
472.95	1057.92
473.13	1128.14
473.31	1174.95
473.49	1156.22
473.67	1109.41
473.85	1071.97
474.03	1034.52
474.21	1186.65
474.39	1114.10
474.57	1156.22
474.75	1219.42
474.93	1100.05
475.12	1167.93
475.30	1114.10
475.48	1160.91
475.66	1177.29
475.84	1142.18
476.02	1207.72
476.20	1198.35
476.38	1153.88
476.56	1249.85
476.74	1188.99
476.92	1240.48
477.10	1135.16
477.28	1296.66
477.46	1198.35
477.64	1174.95
477.82	1249.85
478.00	1191.33
478.18	1207.72
478.36	1277.93
478.54	1282.61
478.72	1369.21
478.90	1320.06
479.08	1247.51
479.26	1261.55
479.44	1336.45
479.62	1277.93
479.80	1315.38
479.98	1394.96
480.16	1380.92
480.34	1383.26
480.52	1387.94
480.70	1444.11
480.88	1376.24
481.06	1366.87
481.24	1362.19
481.41	1317.72
481.59	1427.73
481.77	1430.07
481.95	1423.05
482.13	1504.96
482.31	1439.43
482.49	1472.20
482.67	1558.80
482.85	1511.99
483.03	1565.82
483.21	1511.99
483.39	1600.93
483.57	1549.43
483.74	1624.33
483.92	1582.20
484.10	1582.20
484.28	1535.39
484.46	1746.04
484.64	1692.21
484.82	1638.38
485.00	1565.82
485.18	1699.23
485.35	1696.89
485.53	1710.93
485.71	1748.38
485.89	1785.83
486.07	1650.08
486.25	1760.08
486.43	1708.59
486.61	1834.98
486.78	1785.83
486.96	1757.74
487.14	1809.23
487.32	1893.49
487.50	1785.83
487.68	1895.83
487.85	1863.07
488.03	1881.79
488.21	1942.64
488.39	1891.15
488.57	1940.30
488.75	2029.24
488.92	2291.38
489.10	1916.90
489.28	2029.24
489.46	1956.69
489.64	2017.54
489.81	2019.88
489.99	1975.41
490.17	1970.73
490.35	2015.20
490.53	2078.40
490.70	2118.18
490.88	2001.16
491.06	2101.80
491.24	2106.48
491.41	2139.25
491.59	2115.84
491.77	2087.76
491.95	2064.35
492.13	2221.17
492.30	2155.63
492.48	2120.53
492.66	2181.38
492.84	2169.68
493.01	2183.72
493.19	2176.70
493.37	2172.02
493.54	2181.38
493.72	2230.53
493.90	2232.87
494.08	2244.57
494.25	2333.51
494.43	2153.29
494.61	2359.26
494.79	2239.89
494.96	2258.62
495.14	2366.28
495.32	2270.32
495.49	2267.98
495.67	2225.85
495.85	2347.56
496.02	2324.15
496.20	2410.75
496.38	2387.35
496.55	2361.60
496.73	2567.57
496.91	2569.91
497.09	2410.75
497.26	2485.65
497.44	2499.69
497.62	2466.92
497.79	2448.20
497.97	2457.56
498.14	2480.97
498.32	2558.21
498.50	2523.10
498.67	2506.71
498.85	2509.05
499.03	2497.35
499.20	2478.63
499.38	2537.14
499.56	2469.27
499.73	2621.40
499.91	2455.22
500.08	2668.21
500.26	2502.03
500.44	2436.50
500.61	2600.34
500.79	2609.70
500.97	2675.23
501.14	2829.71
501.32	2761.83
501.49	2649.49
501.67	2576.93
501.84	2703.32
502.02	2654.17
502.20	2782.90
502.37	2668.21
502.55	2754.81
502.72	2705.66
502.90	2686.94
503.07	2677.57
503.25	2656.51
503.43	2595.65
503.60	2672.89
503.78	2715.02
503.95	2668.21
504.13	2712.68
504.30	2738.43
504.48	2752.47
504.65	2876.52
504.83	2897.58
505.01	2855.45
505.18	2827.37
505.36	2848.43
505.53	2771.19
505.71	2715.02
505.88	2796.94
506.06	2642.46
506.23	2794.60
506.41	2876.52
506.58	2857.79
506.76	2839.07
506.93	2864.82
507.11	2825.03
507.28	2967.80
507.46	2918.65
507.63	2846.09
507.81	2991.20
507.98	3016.95
508.16	2843.75
508.33	2848.43
508.50	2902.26
508.68	3054.40
508.85	2904.60
509.03	3005.25
509.20	3030.99
509.38	3033.33
509.55	3119.93
509.73	3056.74
509.90	3131.64
510.08	3040.36
510.25	2979.50
510.42	2963.12
510.60	3049.72
510.77	3070.78
510.95	2885.88
511.12	3038.02
511.30	2937.37
511.47	3094.19
511.64	3101.21
511.82	3012.27
511.99	3152.70
512.17	3183.13
512.34	3152.70
512.51	3145.68
512.69	3190.15
512.86	3169.09
513.04	3176.11
513.21	3227.60
513.38	3190.15
513.56	3115.25
513.73	3166.74
513.90	3173.77
514.08	3255.69
514.25	3295.47
514.43	3330.58
514.60	3190.15
514.77	3229.94
514.95	3265.05
515.12	3066.10
515.29	3183.13
515.47	3262.71
515.64	3239.30
515.81	3265.05
515.99	3227.60
516.16	3253.34
516.33	3325.90
516.51	3300.16
516.68	3389.10
516.85	3190.15
517.03	3243.98
517.20	3318.88
517.37	3276.75
517.54	3452.29
517.72	3295.47
517.89	3375.05
518.06	3265.05
518.24	3323.56
518.41	3396.12
518.58	3309.52
518.75	3300.16
518.93	3421.86
519.10	3293.13
519.27	3522.51
519.45	3276.75
519.62	3337.60
519.79	3389.10
519.96	3356.33
520.14	3356.33
520.31	3445.27
520.48	3393.78
520.65	3363.35
520.83	3426.54
521.00	3496.76
521.17	3438.25
521.34	3536.55
521.52	3426.54
521.69	3534.21
521.86	3473.36
522.03	3592.72
522.20	3510.80
522.38	3548.25
522.55	3480.38
522.72	3468.67
522.89	3616.13
523.07	3634.85
523.24	3522.51
523.41	3705.07
523.58	3548.25
523.75	3447.61
523.92	3510.80
524.10	3648.90
524.27	3597.40
524.44	3524.85
524.61	3721.45
524.78	3618.47
524.96	3754.22
525.13	3695.71
525.30	3597.40
525.47	3550.59
525.64	3623.15
525.81	3513.14
525.98	3618.47
526.16	3749.54
526.33	3672.30
526.50	3693.37
526.67	3616.13
526.84	3529.53
527.01	3637.19
527.18	3667.62
527.36	3803.37
527.53	3571.66
527.70	3815.07
527.87	3765.92
528.04	3709.75
528.21	3796.35
528.38	3632.51
528.55	3700.39
528.72	3932.10
528.89	3777.62
529.07	3805.71
529.24	3810.39
529.41	3770.60
529.58	3754.22
529.75	3737.84
529.92	3765.92
530.09	3758.90
530.26	3896.99
530.43	3911.04
530.60	3705.07
530.77	3723.79
530.94	3723.79
531.11	3756.56
531.28	3941.46
531.46	3868.91
531.63	3985.93
531.80	3899.33
531.97	3943.80
532.14	3805.71
532.31	3798.69
532.48	3964.87
532.65	3871.25
532.82	3894.65
532.99	3889.97
533.16	3906.35
533.33	3948.48
533.50	3922.74
533.67	3967.21
533.84	3950.82
534.01	3824.44
534.18	4074.87
534.35	3943.80
534.52	3857.20
534.69	4018.70
534.86	4042.11
535.03	3857.20
535.20	3878.27
535.37	3997.64
535.54	3889.97
535.71	3936.78
535.88	3946.14
536.05	3967.21
536.22	3962.53
536.38	3955.51
536.55	3997.64
536.72	4060.83
536.89	4058.49
537.06	4100.62
537.23	3983.59
537.40	4196.58
537.57	4009.34
537.74	4112.32
537.91	4236.37
538.08	4187.22
538.25	4044.45
538.42	4145.09
538.59	4210.62
538.75	4170.83
538.92	4294.88
539.09	4201.26
539.26	4152.11
539.43	4294.88
539.60	4212.96
539.77	4252.75
539.94	4365.10
540.11	4365.10
540.28	4461.06
540.44	4535.96
540.61	4390.84
540.78	4573.41
540.95	4774.69
541.12	4894.06
541.29	4868.31
541.46	5018.11
541.62	4940.87
541.79	4983.00
541.96	4917.47
542.13	4983.00
542.30	4943.21
542.47	4933.85
542.63	4809.80
542.80	4887.04
542.97	4784.06
543.14	4634.26
543.31	4758.31
543.48	4931.51
543.64	5085.98
543.81	4800.44
543.98	4713.84
544.15	4933.85
544.32	4882.36
544.48	4821.50
544.65	4664.69
544.82	4795.76
544.99	4905.76
545.16	4887.04
545.32	4758.31
545.49	5565.79
545.66	6033.90
545.83	6478.60
546.00	6209.44
546.16	5650.05
546.33	5238.12
546.50	4697.46
546.67	4732.56
546.83	4688.09
547.00	4678.73
547.17	4699.80
547.34	4713.84
547.50	4667.03
547.67	4741.93
547.84	4514.89
548.00	4559.36
548.17	4603.83
548.34	4580.43
548.51	4610.86
548.67	4650.64
548.84	4629.58
549.01	4500.85
549.18	4542.98
549.34	4603.83
549.51	4519.57
549.68	4428.29
549.84	4521.92
550.01	4533.62
550.18	4505.53
550.34	4564.04
550.51	4498.51
550.68	4533.62
550.84	4425.95
551.01	4425.95
551.18	4468.08
551.34	4447.02
551.51	4622.56
551.68	4461.06
551.84	4388.50
552.01	4451.70
552.18	4484.47
552.34	4407.23
552.51	4381.48
552.68	4432.97
552.84	4355.74
553.01	4397.87
553.18	4353.40
553.34	4503.19
553.51	4329.99
553.67	4458.72
553.84	4514.89
554.01	4390.84
554.17	4322.97
554.34	4299.56
554.51	4503.19
554.67	4414.25
554.84	4482.13
555.00	4322.97
555.17	4388.50
555.33	4329.99
555.50	4327.65
555.67	4456.38
555.83	4301.90
556.00	4449.36
556.16	4610.86
556.33	4383.82
556.50	4425.95
556.66	4360.42
556.83	4414.25
556.99	4339.35
557.16	4470.42
557.32	4428.29
557.49	4447.02
557.65	4269.14
557.82	4376.80
557.98	4451.70
558.15	4353.40
558.32	4463.40
558.48	4341.69
558.65	4435.32
558.81	4369.78
558.98	4299.56
559.14	4297.22
559.31	4437.66
559.47	4416.59
559.64	4376.80
559.80	4409.57
559.97	4360.42
560.13	4447.02
560.30	4294.88
560.46	4397.87
560.63	4416.59
560.79	4341.69
560.96	4510.21
561.12	4351.06
561.29	4442.34
561.45	4409.57
561.61	4461.06
561.78	4500.85
561.94	4411.91
562.11	4449.36
562.27	4411.91
562.44	4454.04
562.60	4369.78
562.77	4418.93
562.93	4470.42
563.10	4360.42
563.26	4344.03
563.42	4425.95
563.59	4308.93
563.75	4395.53
563.92	4479.79
564.08	4512.55
564.24	4440.00
564.41	4564.04
564.57	4472.76
564.74	4362.76
564.90	4617.88
565.07	4411.91
565.23	4662.35
565.39	4252.75
565.56	4259.78
565.72	4470.42
565.88	4470.42
566.05	4400.21
566.21	4329.99
566.38	4510.21
566.54	4404.89
566.70	4449.36
566.87	4582.77
567.03	4568.73
567.19	4472.76
567.36	4409.57
567.52	4503.19
567.68	4395.53
567.85	4493.83
568.01	4510.21
568.17	4489.15
568.34	4432.97
568.50	4362.76
568.66	4435.32
568.83	4594.47
568.99	4418.93
569.15	4458.72
569.32	4432.97
569.48	4215.30
569.64	4585.11
569.81	4337.01
569.97	4280.84
570.13	4472.76
570.30	4432.97
570.46	4447.02
570.62	4582.77
570.78	4510.21
570.95	4423.61
571.11	4505.53
571.27	4421.27
571.43	4463.40
571.60	4463.40
571.76	4468.08
571.92	4407.23
572.09	4425.95
572.25	4482.13
572.41	4454.04
572.57	4421.27
572.74	4573.41
572.90	4353.40
573.06	4608.51
573.22	4414.25
573.38	4395.53
573.55	4498.51
573.71	4430.63
573.87	4402.55
574.03	4512.55
574.20	4451.70
574.36	4351.06
574.52	4418.93
574.68	4491.49
574.84	4493.83
575.01	4407.23
575.17	4561.70
575.33	4353.40
575.49	4416.59
575.65	4505.53
575.82	4507.87
575.98	4358.08
576.14	4482.13
576.30	4456.38
576.46	4645.96
576.62	4690.43
576.79	4983.00
576.95	4816.82
577.11	4699.80
577.27	4697.46
577.43	4566.39
577.59	4489.15
577.75	4535.96
577.92	4332.33
578.08	4407.23
578.24	4395.53
578.40	4491.49
578.56	4629.58
578.72	4844.91
578.88	4884.70
579.04	4823.84
579.21	4788.74
579.37	4533.62
579.53	4589.79
579.69	4564.04
579.85	4472.76
580.01	4648.30
580.17	4638.94
580.33	4578.09
580.49	4271.48
580.65	4568.73
580.82	4505.53
580.98	4580.43
581.14	4395.53
581.30	4444.68
581.46	4503.19
581.62	4519.57
581.78	4507.87
581.94	4568.73
582.10	4587.45
582.26	4596.81
582.42	4622.56
582.58	4594.47
582.74	4580.43
582.90	4603.83
583.06	4580.43
583.22	4638.94
583.38	4702.14
583.54	4554.68
583.70	4622.56
583.86	4505.53
584.02	4582.77
584.18	4573.41
584.34	4711.50
584.50	4753.63
584.66	4559.36
584.82	4484.47
584.98	4484.47
585.14	4566.39
585.30	4631.92
585.46	4594.47
585.62	4440.00
585.78	4594.47
585.94	4468.08
586.10	4634.26
586.26	4519.57
586.42	4648.30
586.58	4667.03
586.74	4643.62
586.90	4706.82
587.06	4575.75
587.22	4727.88
587.38	4582.77
587.54	4667.03
587.70	4596.81
587.86	4580.43
588.02	4599.15
588.18	4517.23
588.34	4645.96
588.49	4578.09
588.65	4449.36
588.81	4587.45
588.97	4486.81
589.13	4503.19
589.29	4482.13
589.45	4517.23
589.61	4386.16
589.77	4596.81
589.93	4421.27
590.08	4697.46
590.24	4617.88
590.40	4624.90
590.56	4475.10
590.72	4601.49
590.88	4402.55
591.04	4594.47
591.20	4507.87
591.35	4461.06
591.51	4678.73
591.67	4463.40
591.83	4720.86
591.99	4713.84
592.15	4507.87
592.31	4521.92
592.46	4688.09
592.62	4690.43
592.78	4683.41
592.94	4777.03
593.10	4706.82
593.26	4638.94
593.41	4531.28
593.57	4505.53
593.73	4542.98
593.89	4510.21
594.05	4685.75
594.20	4414.25
594.36	4643.62
594.52	4458.72
594.68	4535.96
594.84	4470.42
594.99	4531.28
595.15	4662.35
595.31	4559.36
595.47	4596.81
595.62	4421.27
595.78	4648.30
595.94	4512.55
596.10	4442.34
596.25	4449.36
596.41	4360.42
596.57	4465.74
596.73	4578.09
596.88	4507.87
597.04	4479.79
597.20	4592.13
597.36	4622.56
597.51	4542.98
597.67	4437.66
597.83	4568.73
597.99	4631.92
598.14	4561.70
598.30	4470.42
598.46	4498.51
598.61	4650.64
598.77	4489.15
598.93	4493.83
599.09	4594.47
599.24	4674.05
599.40	4620.22
599.56	4599.15
599.71	4564.04
599.87	4550.00
600.03	4566.39
600.18	4585.11
600.34	4496.17
600.50	4624.90
600.65	4582.77
600.81	4554.68
600.97	4587.45
601.12	4477.44
601.28	4482.13
601.44	4571.07
601.59	4571.07
601.75	4407.23
601.91	4407.23
602.06	4461.06
