SpectraSuite Data File
++++++++++++++++++++++++++++++++++++
Date: Fri Oct 04 11:39:36 GMT-05:00 2013
User: price-jones
Dark Spectrum Present: No
Reference Spectrum Present: No
Number of Sampled Component Spectra: 1
Spectrometers: USB2+H05261
Integration Time (usec): 100000 (USB2+H05261)
Spectra Averaged: 1 (USB2+H05261)
Boxcar Smoothing: 0 (USB2+H05261)
Correct for Electrical Dark: No (USB2+H05261)
Strobe/Lamp Enabled: No (USB2+H05261)
Correct for Detector Non-linearity: No (USB2+H05261)
Correct for Stray Light: No (USB2+H05261)
Number of Pixels in Processed Spectrum: 2048
>>>>>Begin Processed Spectral Data<<<<<
365.73	32.77
365.92	32.77
366.12	32.77
366.32	35.11
366.52	0.00
366.72	0.00
366.91	0.00
367.11	0.00
367.31	0.00
367.51	0.00
367.70	0.00
367.90	0.00
368.10	0.00
368.30	0.00
368.49	0.00
368.69	21.06
368.89	0.00
369.09	0.00
369.28	0.00
369.48	0.00
369.68	9.36
369.87	0.00
370.07	14.04
370.27	0.00
370.47	98.30
370.66	238.73
370.86	304.27
371.06	299.59
371.25	351.08
371.45	276.18
371.65	355.76
371.84	297.25
372.04	372.15
372.24	402.57
372.44	386.19
372.63	372.15
372.83	430.66
373.03	428.32
373.22	400.23
373.42	425.98
373.62	395.55
373.81	437.68
374.01	400.23
374.21	428.32
374.40	447.04
374.60	468.11
374.79	477.47
374.99	524.28
375.19	397.89
375.38	503.22
375.58	573.43
375.78	482.15
375.97	468.11
376.17	479.81
376.37	442.36
376.56	451.72
376.76	496.19
376.95	440.02
377.15	409.59
377.35	484.49
377.54	503.22
377.74	414.27
377.93	465.77
378.13	482.15
378.33	557.05
378.52	580.45
378.72	589.82
378.91	594.50
379.11	479.81
379.31	526.62
379.50	514.92
379.70	545.34
379.89	582.79
380.09	561.73
380.28	498.53
380.48	489.17
380.68	482.15
380.87	535.98
381.07	547.69
381.26	559.39
381.46	550.03
381.65	491.51
381.85	624.92
382.04	521.94
382.24	573.43
382.43	613.22
382.63	543.00
382.83	564.07
383.02	638.97
383.22	638.97
383.41	631.94
383.61	650.67
383.80	650.67
384.00	521.94
384.19	568.75
384.39	606.20
384.58	573.43
384.78	638.97
384.97	660.03
385.17	620.24
385.36	622.58
385.56	620.24
385.75	566.41
385.95	669.39
386.14	704.50
386.34	620.24
386.53	603.86
386.72	704.50
386.92	699.82
387.11	660.03
387.31	631.94
387.50	685.78
387.70	681.10
387.89	711.52
388.09	702.16
388.28	760.67
388.48	746.63
388.67	671.73
388.86	748.97
389.06	704.50
389.25	734.93
389.45	746.63
389.64	676.41
389.84	833.23
390.03	809.83
390.22	781.74
390.42	760.67
390.61	723.23
390.81	791.10
391.00	833.23
391.19	830.89
391.39	777.06
391.58	823.87
391.78	791.10
391.97	854.30
392.16	819.19
392.36	915.15
392.55	954.94
392.75	851.96
392.94	842.59
393.13	856.64
393.33	903.45
393.52	816.85
393.71	1001.75
393.91	905.79
394.10	877.70
394.29	835.57
394.49	863.66
394.68	891.74
394.88	978.34
395.07	987.71
395.26	971.32
395.46	926.85
395.65	1053.24
395.84	901.11
396.04	1083.67
396.23	978.34
396.42	1034.52
396.62	1029.84
396.81	1015.79
397.00	1139.84
397.19	1001.75
397.39	1055.58
397.58	1156.22
397.77	1095.37
397.97	1076.65
398.16	1149.20
398.35	1118.78
398.55	1086.01
398.74	1109.41
398.93	1102.39
399.12	1088.35
399.32	1086.01
399.51	1191.33
399.70	1179.63
399.90	1135.16
400.09	1181.97
400.28	1256.87
400.47	1153.88
400.67	1327.08
400.86	1352.83
401.05	1273.25
401.24	1336.45
401.44	1348.15
401.63	1322.40
401.82	1399.64
402.01	1291.98
402.21	1329.42
402.40	1387.94
402.59	1348.15
402.78	1437.09
402.97	1355.17
403.17	1350.49
403.36	1364.53
403.55	1446.45
403.74	1444.11
403.93	1511.99
404.13	1523.69
404.32	1493.26
404.51	1427.73
404.70	1565.82
404.89	1570.50
405.09	1706.25
405.28	1547.09
405.47	1591.56
405.66	1535.39
405.85	1582.20
406.05	1605.61
406.24	1647.74
406.43	1563.48
406.62	1739.02
406.81	1727.32
407.00	1748.38
407.20	1715.61
407.39	1757.74
407.58	1832.64
407.77	1741.36
407.96	1834.98
408.15	1760.08
408.34	1834.98
408.54	1865.41
408.73	1860.73
408.92	1977.75
409.11	1877.11
409.30	1989.46
409.49	1933.28
409.68	1907.54
409.87	1863.07
410.07	1989.46
410.26	2064.35
410.45	2026.90
410.64	1926.26
410.83	2054.99
411.02	2078.40
411.21	2162.66
411.40	2043.29
411.59	2139.25
411.78	2118.18
411.98	2083.08
412.17	2354.58
412.36	2202.44
412.55	2263.30
412.74	2305.43
412.93	2363.94
413.12	2244.57
413.31	2473.95
413.50	2314.79
413.69	2471.61
413.88	2480.97
414.07	2347.56
414.26	2455.22
414.45	2583.95
414.64	2539.48
414.83	2621.40
415.02	2602.68
415.22	2637.78
415.41	2717.36
415.60	2612.04
415.79	2679.91
415.98	2813.32
416.17	2710.34
416.36	2768.85
416.55	2829.71
416.74	2813.32
416.93	2972.48
417.12	2986.52
417.31	2920.99
417.50	2979.50
417.69	3119.93
417.88	2949.08
418.07	3021.63
418.26	3021.63
418.45	3028.65
418.64	3124.62
418.83	3105.89
419.02	3286.11
419.21	3208.87
419.39	3201.85
419.58	3145.68
419.77	3145.68
419.96	3365.69
420.15	3286.11
420.34	3248.66
420.53	3283.77
420.72	3475.70
420.91	3398.46
421.10	3487.40
421.29	3379.73
421.48	3513.14
421.67	3487.40
421.86	3499.10
422.05	3524.85
422.24	3515.48
422.43	3375.05
422.61	3611.45
422.80	3592.72
422.99	3515.48
423.18	3660.60
423.37	3632.51
423.56	3562.30
423.75	3534.21
423.94	3524.85
424.13	3384.41
424.32	3508.46
424.50	3552.93
424.69	3609.11
424.88	3709.75
425.07	3611.45
425.26	3517.83
425.45	3676.98
425.64	3508.46
425.83	3520.17
426.01	3609.11
426.20	3574.00
426.39	3695.71
426.58	3632.51
426.77	3679.32
426.96	3637.19
427.15	3613.79
427.33	3705.07
427.52	3779.97
427.71	3779.97
427.90	3758.90
428.09	3829.12
428.28	3906.35
428.46	3665.28
428.65	3847.84
428.84	4234.03
429.03	4035.08
429.22	3838.48
429.40	4065.51
429.59	3932.10
429.78	3705.07
429.97	3786.99
430.16	3899.33
430.34	3999.98
430.53	4028.06
430.72	4049.13
430.91	4063.17
431.10	4016.36
431.28	4163.81
431.47	4140.41
431.66	4201.26
431.85	4161.47
432.03	4210.62
432.22	4542.98
432.41	4374.46
432.60	4320.63
432.79	4273.82
432.97	4332.33
433.16	4341.69
433.35	4269.14
433.54	4468.08
433.72	4512.55
433.91	4507.87
434.10	4489.15
434.28	4376.80
434.47	4458.72
434.66	4641.28
434.85	4571.07
435.03	4636.60
435.22	4678.73
435.41	4975.98
435.59	4868.31
435.78	4767.67
435.97	4865.97
436.16	4723.20
436.34	4662.35
436.53	4580.43
436.72	4833.21
436.90	4692.77
437.09	4772.35
437.28	4638.94
437.46	4833.21
437.65	4833.21
437.84	4966.62
438.02	4952.57
438.21	4922.15
438.40	4966.62
438.58	4999.38
438.77	5256.84
438.96	5116.41
439.14	5121.09
439.33	5273.23
439.52	5132.79
439.70	5310.68
439.89	5273.23
440.08	5362.17
440.26	5418.34
440.45	5416.00
440.63	5462.81
440.82	5472.17
441.01	5483.88
441.19	5528.35
441.38	5636.01
441.57	5591.54
441.75	5572.82
441.94	5746.02
442.12	5593.88
442.31	5743.67
442.50	5851.34
442.68	5947.30
442.87	5741.33
443.05	5799.85
443.24	5884.11
443.43	5980.07
443.61	6047.94
443.80	6076.03
443.98	5916.87
444.17	5678.14
444.35	5909.85
444.54	6197.74
444.73	6083.05
444.91	5994.11
445.10	6017.52
445.28	6057.31
445.47	6069.01
445.65	5975.39
445.84	6071.35
446.02	6097.10
446.21	6279.66
446.39	6052.63
446.58	6101.78
446.77	6047.94
446.95	5970.71
447.14	6284.34
447.32	6125.18
447.51	6120.50
447.69	6143.91
447.88	6115.82
448.06	6221.14
448.25	6186.04
448.43	6052.63
448.62	6094.76
448.80	6186.04
448.99	6274.98
449.17	6235.19
449.36	6195.40
449.54	6438.81
449.73	6588.61
449.91	6516.05
450.10	6394.34
450.28	6642.44
450.46	6441.15
450.65	6389.66
450.83	6614.35
451.02	6504.35
451.20	6408.39
451.39	6649.46
451.57	6616.69
451.76	6647.12
451.94	6497.33
452.13	6937.35
452.31	6822.66
452.49	6698.61
452.68	6569.88
452.86	6621.38
453.05	6789.89
453.23	6750.10
453.42	6729.04
453.60	6754.79
453.78	6754.79
453.97	6757.13
454.15	6693.93
454.34	6743.08
454.52	7028.63
454.70	6951.39
454.89	7014.59
455.07	7007.56
455.26	7000.54
455.44	7068.42
455.62	7087.14
455.81	7101.19
455.99	7084.80
456.17	7164.38
456.36	7190.13
456.54	7349.28
456.73	7372.69
456.91	7403.11
457.09	7489.71
457.28	7503.76
457.46	7386.73
457.64	7627.81
457.83	7541.21
458.01	7435.88
458.19	7669.94
458.38	7543.55
458.56	7691.00
458.74	7688.66
458.93	7639.51
459.11	7597.38
459.29	7709.72
459.48	7723.77
459.66	7789.30
459.84	7805.69
460.03	7861.86
460.21	7686.32
460.39	7901.65
460.57	7751.85
460.76	7801.01
460.94	7962.50
461.12	8058.46
461.31	7925.05
461.49	8077.19
461.67	7906.33
461.85	8084.21
462.04	8252.73
462.22	8168.47
462.40	8313.58
462.59	8063.15
462.77	8212.94
462.95	8248.05
463.13	7964.84
463.32	8414.23
463.50	8503.17
463.68	8341.67
463.86	8374.44
464.05	8194.22
464.23	8341.67
464.41	8561.68
464.59	8306.56
464.78	8456.36
464.96	8538.27
465.14	8367.42
465.32	8542.96
465.50	8613.17
465.69	8575.72
465.87	8547.64
466.05	8512.53
466.23	8526.57
466.41	8755.94
466.60	8767.65
466.78	8713.81
466.96	8573.38
467.14	8517.21
467.32	8872.97
467.51	8889.35
467.69	8648.28
467.87	8982.98
468.05	8765.31
468.23	8898.72
468.41	8896.38
468.60	8917.44
468.78	9062.55
468.96	8753.60
469.14	9001.70
469.32	9102.34
469.50	8854.25
469.69	9195.96
469.87	9202.99
470.05	9174.90
470.23	9364.48
470.41	9137.45
470.59	9158.52
470.77	9301.29
470.95	9516.62
471.14	9408.95
471.32	9317.67
471.50	9844.29
471.68	9565.77
471.86	9523.64
472.04	9425.34
472.22	9870.04
472.40	9682.80
472.58	9863.02
472.77	9809.19
472.95	9874.72
473.13	10235.16
473.31	9753.01
473.49	10071.33
473.67	9961.32
473.85	10094.73
474.03	10132.18
474.21	10225.80
474.39	10223.46
474.57	10604.97
474.75	10448.15
474.93	10817.96
475.12	10518.37
475.30	10668.16
475.48	10579.22
475.66	10747.74
475.84	10485.60
476.02	10956.05
476.20	10761.78
476.38	11007.54
476.56	11192.44
476.74	11159.67
476.92	10991.16
477.10	11286.06
477.28	11375.00
477.46	11330.53
477.64	11307.13
477.82	11314.15
478.00	11784.60
478.18	11817.36
478.36	12219.94
478.54	11950.78
478.72	12046.74
478.90	12088.87
479.08	12004.61
479.26	12224.62
479.44	12360.37
479.62	12414.20
479.80	12713.79
479.98	12355.69
480.16	12819.11
480.34	12884.65
480.52	12957.21
480.70	13039.12
480.88	12821.45
481.06	13011.04
481.24	13011.04
481.41	13188.92
481.59	13680.43
481.77	13425.31
481.95	13657.03
482.13	13769.37
482.31	13802.14
482.49	13645.32
482.67	13919.17
482.85	14260.88
483.03	14480.89
483.21	14417.70
483.39	14878.79
483.57	14658.78
483.74	14757.08
483.92	14920.92
484.10	14916.23
484.28	15328.17
484.46	15264.97
484.64	15344.55
484.82	15033.26
485.00	15480.30
485.18	15957.77
485.35	16018.63
485.53	16168.42
485.71	16018.63
485.89	16519.50
486.07	16257.36
486.25	16327.58
486.43	16329.92
486.61	16582.70
486.78	16847.18
486.96	16936.12
487.14	17130.38
487.32	16933.78
487.50	17032.08
487.68	17544.66
487.85	17577.42
488.03	17832.54
488.21	18029.15
488.39	18178.94
488.57	17837.22
488.75	18319.37
488.92	18515.98
489.10	18420.02
489.28	18616.62
489.46	19103.45
489.64	18939.62
489.81	19351.55
489.99	19117.50
490.17	19356.23
490.35	19744.76
490.53	19585.60
490.70	19976.47
490.88	20119.24
491.06	19866.47
491.24	19929.66
491.41	19950.73
491.59	20414.15
491.77	19932.00
491.95	20758.21
492.13	20917.37
492.30	20830.77
492.48	20645.87
492.66	20978.22
492.84	20999.29
493.01	21022.69
493.19	21039.08
493.37	21392.50
493.54	21633.57
493.72	21825.50
493.90	21914.44
494.08	21902.73
494.25	21947.20
494.43	22258.49
494.61	22277.22
494.79	22448.08
494.96	22239.77
495.14	22455.10
495.32	23293.01
495.49	22948.95
495.67	23075.34
495.85	22946.61
496.02	23356.21
496.20	23407.70
496.38	23559.83
496.55	23693.24
496.73	23859.42
496.91	24051.34
497.09	24140.29
497.26	24278.38
497.44	23908.57
497.62	24416.47
497.79	24584.99
497.97	24467.96
498.14	24849.47
498.32	24982.88
498.50	24854.15
498.67	25263.74
498.85	25006.28
499.03	25315.23
499.20	25263.74
499.38	25731.85
499.56	25544.61
499.73	25694.40
499.91	25951.86
500.08	25876.96
500.26	25862.92
500.44	26043.14
500.61	26054.84
500.79	26106.34
500.97	26061.87
501.14	26859.99
501.32	26883.39
501.49	26679.77
501.67	26518.27
501.84	26733.60
502.02	27007.44
502.20	26817.86
502.37	27302.35
502.55	27281.28
502.72	27316.39
502.90	27335.12
503.07	27138.51
503.25	27199.37
503.43	27360.86
503.60	27859.40
503.78	27964.72
503.95	27660.45
504.13	27686.20
504.30	28067.70
504.48	27761.09
504.65	27695.56
504.83	28079.41
505.01	28191.75
505.18	28224.52
505.36	28783.91
505.53	28369.63
505.71	28781.57
505.88	28507.72
506.06	28343.89
506.23	29088.18
506.41	28840.08
506.58	29071.79
506.76	29188.82
506.93	29521.18
507.11	29088.18
507.28	29453.30
507.46	29455.64
507.63	29666.29
507.81	29755.23
507.98	29893.32
508.16	29902.68
508.33	29556.28
508.50	29853.53
508.68	29935.45
508.85	30471.43
509.03	30221.00
509.20	30438.67
509.38	30703.15
509.55	30441.01
509.73	30426.96
509.90	30415.26
510.08	30747.62
510.25	30803.79
510.42	30911.46
510.60	31297.64
510.77	31257.85
510.95	31887.46
511.12	31119.76
511.30	31480.21
511.47	31405.31
511.64	31784.48
511.82	31927.25
511.99	31527.02
512.17	32254.92
512.34	31676.81
512.51	31807.88
512.69	32233.86
512.86	32016.19
513.04	32608.34
513.21	32339.18
513.38	32896.23
513.56	32538.13
513.73	32123.85
513.90	32648.13
514.08	32278.33
514.25	32694.94
514.43	32950.06
514.60	33029.64
514.77	32746.44
514.95	32985.17
515.12	33078.79
515.29	32905.59
515.47	33043.68
515.64	33631.16
515.81	33198.16
515.99	33802.02
516.16	33879.25
516.33	33759.89
516.51	33944.79
516.68	33680.31
516.85	33645.20
517.03	33823.08
517.20	34178.84
517.37	34110.97
517.54	34967.60
517.72	34534.60
517.89	34026.71
518.06	34211.61
518.24	34508.86
518.41	34328.64
518.58	34630.57
518.75	34625.89
518.93	34976.97
519.10	35007.39
519.27	35391.24
519.45	34899.73
519.62	35173.57
519.79	35166.55
519.96	34993.35
520.14	35508.27
520.31	35321.02
520.48	35501.25
520.65	35637.00
520.83	35625.29
521.00	35732.96
521.17	35461.46
521.34	35796.15
521.52	36126.17
521.69	35976.37
521.86	36114.47
522.03	36154.26
522.20	36217.45
522.38	36526.40
522.55	36119.15
522.72	36533.42
522.89	36823.65
523.07	36837.69
523.24	36650.45
523.41	37202.82
523.58	36327.45
523.75	36746.41
523.92	36596.62
524.10	36715.98
524.27	37156.00
524.44	37139.62
524.61	37563.26
524.78	36884.50
524.96	37006.21
525.13	37163.03
525.30	37120.90
525.47	37275.37
525.64	37553.90
525.81	37553.90
525.98	37589.00
526.16	37301.12
526.33	37846.46
526.50	37858.17
526.67	37539.85
526.84	37621.77
527.01	37794.97
527.18	37888.59
527.36	38270.10
527.53	38410.53
527.70	38106.26
527.87	38667.99
528.04	37975.19
528.21	38595.43
528.38	37809.01
528.55	38625.86
528.72	38932.47
528.89	38667.99
529.07	38511.17
529.24	38487.77
529.41	38845.87
529.58	38590.75
529.75	38925.45
529.92	38714.80
530.09	38857.57
530.26	38972.26
530.43	38843.53
530.60	38817.78
530.77	39182.91
530.94	39470.79
531.11	39222.70
531.28	39452.07
531.46	39267.17
531.63	39367.81
531.80	39754.00
531.97	39714.21
532.14	39929.54
532.31	39868.69
532.48	39199.29
532.65	40114.44
532.82	39873.37
532.99	39505.90
533.16	39966.99
533.33	40287.64
533.50	40566.16
533.67	39948.26
533.84	40041.88
534.01	39896.77
534.18	40098.06
534.35	40591.91
534.52	40385.94
534.69	40645.74
534.86	40854.05
535.03	40437.44
535.20	40680.85
535.37	40402.33
535.54	40697.24
535.71	40634.04
535.88	40594.25
536.05	40486.59
536.22	40701.92
536.38	41258.96
536.55	41017.89
536.72	40961.72
536.89	41223.86
537.06	40624.68
537.23	41167.68
537.40	40891.50
537.57	41074.06
537.74	40950.01
537.91	41673.24
538.08	41415.78
538.25	41053.00
538.42	41603.02
538.59	41525.78
538.75	41411.10
538.92	41216.83
539.09	41413.44
539.26	41696.64
539.43	42110.92
539.60	41811.33
539.77	41734.09
539.94	41982.19
540.11	42033.68
540.28	41970.49
540.44	42171.77
540.61	42131.98
540.78	42426.89
540.95	42490.09
541.12	42693.71
541.29	42630.52
541.46	42698.39
541.62	42667.97
541.79	42850.53
541.96	42092.19
542.13	42284.12
542.30	42834.14
542.47	42969.90
542.63	42855.21
542.80	43063.52
542.97	43264.80
543.14	43274.16
543.31	43199.27
543.48	43168.84
543.64	43468.43
543.81	43842.92
543.98	43456.73
544.15	43414.60
544.32	43789.08
544.48	43704.82
544.65	43316.29
544.82	43363.11
544.99	43559.71
545.16	43583.12
545.32	43510.56
545.49	43992.71
545.66	44612.95
545.83	44650.40
546.00	44245.49
546.16	43997.39
546.33	43496.52
546.50	43765.68
546.67	43854.62
546.83	43250.76
547.00	43819.51
547.17	43763.34
547.34	43564.39
547.50	44217.40
547.67	44308.68
547.84	44189.31
548.00	44128.46
548.17	44320.38
548.34	44044.20
548.51	44634.02
548.67	44353.15
548.84	44222.08
549.01	44212.72
549.18	44128.46
549.34	44519.33
549.51	43728.23
549.68	44542.74
549.84	45074.04
550.01	44421.03
550.18	44289.96
550.34	44465.50
550.51	44842.32
550.68	44739.34
550.84	44301.66
551.01	44528.69
551.18	44285.28
551.34	44231.44
551.51	44659.76
551.68	44748.70
551.84	45067.02
552.01	44399.96
552.18	45008.50
552.34	44568.48
552.51	44751.04
552.68	44683.17
552.84	44556.78
553.01	44769.77
553.18	44692.53
553.34	45549.17
553.51	45036.59
553.67	45111.49
553.84	45172.34
554.01	45186.38
554.17	45081.06
554.34	44786.15
554.51	44875.09
554.67	45106.80
554.84	45251.92
555.00	45062.33
555.17	45165.32
555.33	45247.24
555.50	45261.28
555.67	45221.49
555.83	45067.02
556.00	45282.34
556.16	45500.01
556.33	45038.93
556.50	45310.43
556.66	45361.92
556.83	45282.34
556.99	45483.63
557.16	45621.72
557.32	45680.24
557.49	45808.96
557.65	45455.54
557.82	45186.38
557.98	45214.47
558.15	45771.52
558.32	45710.66
558.48	45841.73
558.65	45715.34
558.81	45593.64
558.98	45453.20
559.14	45539.80
559.31	45401.71
559.47	45621.72
559.64	45759.81
559.80	46277.07
559.97	46047.70
560.13	45848.75
560.30	46216.22
560.46	46349.63
560.63	45647.47
560.79	45930.67
560.96	45893.22
561.12	45996.21
561.29	45933.01
561.45	46005.57
561.61	46103.87
561.78	45705.98
561.94	46066.42
562.11	46146.00
562.27	45762.15
562.44	45612.36
562.60	45977.48
562.77	46075.79
562.93	45830.03
563.10	46471.34
563.26	46061.74
563.42	46616.45
563.59	46094.51
563.75	46223.24
563.92	46616.45
564.08	46010.25
564.24	46024.29
564.41	46185.79
564.57	46110.89
564.74	46326.22
564.90	46141.32
565.07	46354.31
565.23	46209.20
565.39	46295.80
565.56	46375.37
565.72	45984.51
565.88	46260.69
566.05	46520.49
566.21	46508.79
566.38	46354.31
566.54	46047.70
566.70	46852.84
566.87	46927.74
567.03	46377.72
567.19	46679.64
567.36	46824.76
567.52	45989.19
567.68	46466.66
567.85	45844.07
568.01	46169.41
568.17	46459.63
568.34	46415.16
568.50	46190.47
568.66	46337.93
568.83	46527.51
568.99	46197.49
569.15	46204.52
569.32	46274.73
569.48	46190.47
569.64	46270.05
569.81	46665.60
569.97	46440.91
570.13	46609.43
570.30	46387.08
570.46	46703.05
570.62	46883.27
570.78	46225.58
570.95	46157.70
571.11	46721.77
571.27	46143.66
571.43	46398.78
571.60	46412.82
571.76	46202.18
571.92	46799.01
572.09	46761.56
572.25	46691.35
572.41	46529.85
572.57	46382.40
572.74	46787.31
572.90	46181.11
573.06	46122.60
573.22	46719.43
573.38	46485.38
573.55	46248.99
573.71	46969.87
573.87	47119.66
574.03	46597.73
574.20	46330.90
574.36	46096.85
574.52	46490.06
574.68	46934.76
574.84	46518.15
575.01	46394.10
575.17	46698.37
575.33	46810.71
575.49	46653.90
575.65	46656.24
575.82	46817.74
575.98	46848.16
576.14	46791.99
576.30	47023.70
576.46	46178.77
576.62	46663.26
576.79	46880.93
576.95	46955.83
577.11	46979.23
577.27	46653.90
577.43	46852.84
577.59	46920.72
577.75	46733.48
577.92	46190.47
578.08	46827.10
578.24	46571.98
578.40	46742.84
578.56	46471.34
578.72	47035.41
578.88	47379.46
579.04	47318.61
579.21	46333.24
579.37	46993.28
579.53	46681.98
579.69	46408.14
579.85	46377.72
580.01	46609.43
580.17	46366.01
580.33	46614.11
580.49	46623.47
580.65	46600.07
580.82	46927.74
580.98	46813.05
581.14	46951.15
581.30	46864.55
581.46	46391.76
581.62	46635.17
581.78	46401.12
581.94	46913.70
582.10	46616.45
582.26	47014.34
582.42	46976.89
582.58	46850.50
582.74	46775.61
582.90	47395.85
583.06	46480.70
583.22	46850.50
583.38	47035.41
583.54	46740.50
583.70	46522.83
583.86	46967.53
584.02	46689.01
584.18	47124.35
584.34	46972.21
584.50	47030.72
584.66	46946.47
584.82	46969.87
584.98	46749.86
585.14	46536.87
585.30	46576.66
585.46	46756.88
585.62	46295.80
585.78	46588.36
585.94	46539.21
586.10	46911.36
586.26	46794.33
586.42	46923.06
586.58	47292.86
586.74	46532.19
586.90	46754.54
587.06	46363.67
587.22	46787.31
587.38	46609.43
587.54	46763.90
587.70	46747.52
587.86	46897.31
588.02	46756.88
588.18	47129.03
588.34	46703.05
588.49	46508.79
588.65	46749.86
588.81	46796.67
588.97	46827.10
589.13	46827.10
589.29	46948.81
589.45	47339.68
589.61	46815.40
589.77	46845.82
589.93	47133.71
590.08	47103.28
590.24	47232.01
590.40	47152.43
590.56	47267.12
