SpectraSuite Data File
++++++++++++++++++++++++++++++++++++
Date: Fri Oct 04 11:39:59 GMT-05:00 2013
User: price-jones
Dark Spectrum Present: No
Reference Spectrum Present: No
Number of Sampled Component Spectra: 1
Spectrometers: USB2+H05261
Integration Time (usec): 100000 (USB2+H05261)
Spectra Averaged: 1 (USB2+H05261)
Boxcar Smoothing: 0 (USB2+H05261)
Correct for Electrical Dark: No (USB2+H05261)
Strobe/Lamp Enabled: No (USB2+H05261)
Correct for Detector Non-linearity: No (USB2+H05261)
Correct for Stray Light: No (USB2+H05261)
Number of Pixels in Processed Spectrum: 2048
>>>>>Begin Processed Spectral Data<<<<<
365.73	23.41
365.92	23.41
366.12	23.41
366.32	0.00
366.52	0.00
366.72	0.00
366.91	0.00
367.11	4.68
367.31	0.00
367.51	0.00
367.70	0.00
367.90	0.00
368.10	0.00
368.30	0.00
368.49	0.00
368.69	0.00
368.89	0.00
369.09	0.00
369.28	0.00
369.48	0.00
369.68	0.00
369.87	0.00
370.07	4.68
370.27	0.00
370.47	30.43
370.66	65.54
370.86	91.28
371.06	102.98
371.25	119.37
371.45	67.88
371.65	105.32
371.84	65.54
372.04	102.98
372.24	98.30
372.44	145.11
372.63	112.35
372.83	93.62
373.03	86.60
373.22	72.56
373.42	170.86
373.62	112.35
373.81	138.09
374.01	126.39
374.21	140.43
374.40	147.45
374.60	191.92
374.79	140.43
374.99	93.62
375.19	147.45
375.38	88.94
375.58	140.43
375.78	126.39
375.97	110.01
376.17	217.67
376.37	210.65
376.56	93.62
376.76	44.47
376.95	67.88
377.15	117.03
377.35	100.64
377.54	177.88
377.74	121.71
377.93	95.96
378.13	140.43
378.33	177.88
378.52	67.88
378.72	100.64
378.91	145.11
379.11	182.56
379.31	126.39
379.50	107.66
379.70	154.48
379.89	149.79
380.09	30.43
380.28	74.90
380.48	168.52
380.68	173.20
380.87	86.60
381.07	58.51
381.26	107.66
381.46	161.50
381.65	168.52
381.85	114.69
382.04	117.03
382.24	131.07
382.43	105.32
382.63	70.22
382.83	70.22
383.02	98.30
383.22	121.71
383.41	16.38
383.61	67.88
383.80	114.69
384.00	128.73
384.19	88.94
384.39	135.75
384.58	156.82
384.78	102.98
384.97	117.03
385.17	159.16
385.36	84.26
385.56	154.48
385.75	25.75
385.95	112.35
386.14	60.85
386.34	58.51
386.53	145.11
386.72	156.82
386.92	156.82
387.11	93.62
387.31	102.98
387.50	25.75
387.70	112.35
387.89	135.75
388.09	142.77
388.28	117.03
388.48	128.73
388.67	88.94
388.86	140.43
389.06	142.77
389.25	131.07
389.45	149.79
389.64	138.09
389.84	227.03
390.03	133.41
390.22	128.73
390.42	149.79
390.61	114.69
390.81	124.05
391.00	161.50
391.19	154.48
391.39	135.75
391.58	128.73
391.78	121.71
391.97	131.07
392.16	39.79
392.36	180.22
392.55	215.33
392.75	110.01
392.94	81.92
393.13	121.71
393.33	72.56
393.52	187.24
393.71	131.07
393.91	79.58
394.10	49.15
394.29	138.09
394.49	154.48
394.68	128.73
394.88	81.92
395.07	201.29
395.26	112.35
395.46	93.62
395.65	177.88
395.84	177.88
396.04	205.97
396.23	170.86
396.42	145.11
396.62	138.09
396.81	170.86
397.00	152.13
397.19	180.22
397.39	175.54
397.58	196.60
397.77	133.41
397.97	220.01
398.16	147.45
398.35	93.62
398.55	112.35
398.74	133.41
398.93	238.73
399.12	77.24
399.32	128.73
399.51	121.71
399.70	79.58
399.90	163.84
400.09	177.88
400.28	126.39
400.47	95.96
400.67	194.26
400.86	79.58
401.05	72.56
401.24	184.90
401.44	177.88
401.63	152.13
401.82	128.73
402.01	142.77
402.21	175.54
402.40	168.52
402.59	159.16
402.78	102.98
402.97	154.48
403.17	175.54
403.36	168.52
403.55	133.41
403.74	175.54
403.93	215.33
404.13	287.89
404.32	330.02
404.51	266.82
404.70	308.95
404.89	166.18
405.09	248.10
405.28	114.69
405.47	201.29
405.66	208.31
405.85	140.43
406.05	170.86
406.24	105.32
406.43	166.18
406.62	142.77
406.81	227.03
407.00	266.82
407.20	133.41
407.39	215.33
407.58	163.84
407.77	159.16
407.96	212.99
408.15	238.73
408.34	210.65
408.54	145.11
408.73	212.99
408.92	203.63
409.11	191.92
409.30	198.95
409.49	163.84
409.68	248.10
409.87	147.45
410.07	203.63
410.26	203.63
410.45	243.42
410.64	212.99
410.83	212.99
411.02	210.65
411.21	196.60
411.40	210.65
411.59	238.73
411.78	142.77
411.98	191.92
412.17	262.14
412.36	163.84
412.55	245.76
412.74	205.97
412.93	208.31
413.12	156.82
413.31	264.48
413.50	231.71
413.69	259.80
413.88	245.76
414.07	301.93
414.26	227.03
414.45	278.52
414.64	198.95
414.83	229.37
415.02	285.55
415.22	250.44
415.41	220.01
415.60	234.05
415.79	227.03
415.98	287.89
416.17	276.18
416.36	245.76
416.55	252.78
416.74	208.31
416.93	301.93
417.12	297.25
417.31	234.05
417.50	224.69
417.69	311.29
417.88	299.59
418.07	245.76
418.26	189.58
418.45	194.26
418.64	325.33
418.83	294.91
419.02	250.44
419.21	280.86
419.39	271.50
419.58	117.03
419.77	287.89
419.96	248.10
420.15	313.63
420.34	283.20
420.53	280.86
420.72	280.86
420.91	325.33
421.10	339.38
421.29	231.71
421.48	315.97
421.67	290.23
421.86	278.52
422.05	203.63
422.24	304.27
422.43	311.29
422.61	255.12
422.80	320.65
422.99	236.39
423.18	259.80
423.37	381.51
423.56	273.84
423.75	276.18
423.94	278.52
424.13	273.84
424.32	313.63
424.50	360.44
424.69	278.52
424.88	294.91
425.07	217.67
425.26	283.20
425.45	259.80
425.64	262.14
425.83	280.86
426.01	287.89
426.20	262.14
426.39	320.65
426.58	266.82
426.77	344.06
426.96	351.08
427.15	257.46
427.33	257.46
427.52	311.29
427.71	332.36
427.90	280.86
428.09	255.12
428.28	290.23
428.46	259.80
428.65	330.02
428.84	283.20
429.03	308.95
429.22	227.03
429.40	315.97
429.59	294.91
429.78	400.23
429.97	255.12
430.16	273.84
430.34	273.84
430.53	320.65
430.72	250.44
430.91	294.91
431.10	264.48
431.28	294.91
431.47	372.15
431.66	379.17
431.85	311.29
432.03	273.84
432.22	337.04
432.41	348.74
432.60	311.29
432.79	292.57
432.97	269.16
433.16	266.82
433.35	301.93
433.54	311.29
433.72	360.44
433.91	315.97
434.10	278.52
434.28	407.25
434.47	407.25
434.66	360.44
434.85	332.36
435.03	465.77
435.22	744.29
435.41	1081.33
435.59	1132.82
435.78	919.83
435.97	650.67
436.16	365.12
436.34	372.15
436.53	397.89
436.72	407.25
436.90	444.70
437.09	374.49
437.28	414.27
437.46	362.78
437.65	299.59
437.84	379.17
438.02	341.72
438.21	358.10
438.40	390.87
438.58	318.31
438.77	341.72
438.96	351.08
439.14	381.51
439.33	374.49
439.52	346.40
439.70	353.42
439.89	425.98
440.08	330.02
440.26	369.80
440.45	365.12
440.63	341.72
440.82	315.97
441.01	374.49
441.19	414.27
441.38	360.44
441.57	430.66
441.75	444.70
441.94	376.83
442.12	386.19
442.31	311.29
442.50	318.31
442.68	386.19
442.87	353.42
443.05	381.51
443.24	409.59
443.43	414.27
443.61	409.59
443.80	388.53
443.98	383.85
444.17	440.02
444.35	407.25
444.54	411.93
444.73	383.85
444.91	463.43
445.10	472.79
445.28	454.06
445.47	500.87
445.65	425.98
445.84	404.91
446.02	433.00
446.21	402.57
446.39	411.93
446.58	414.27
446.77	372.15
446.95	348.74
447.14	489.17
447.32	430.66
447.51	379.17
447.69	374.49
447.88	430.66
448.06	484.49
448.25	456.40
448.43	430.66
448.62	461.09
448.80	400.23
448.99	414.27
449.17	383.85
449.36	489.17
449.54	442.36
449.73	468.11
449.91	491.51
450.10	418.96
450.28	547.69
450.46	372.15
450.65	491.51
450.83	461.09
451.02	353.42
451.20	475.13
451.39	433.00
451.57	390.87
451.76	430.66
451.94	461.09
452.13	521.94
452.31	468.11
452.49	477.47
452.68	400.23
452.86	454.06
453.05	416.62
453.23	411.93
453.42	374.49
453.60	463.43
453.78	458.74
453.97	428.32
454.15	491.51
454.34	521.94
454.52	397.89
454.70	430.66
454.89	479.81
455.07	524.28
455.26	472.79
455.44	468.11
455.62	407.25
455.81	491.51
455.99	428.32
456.17	512.58
456.36	484.49
456.54	479.81
456.73	470.45
456.91	461.09
457.09	540.66
457.28	519.60
457.46	601.52
457.64	512.58
457.83	582.79
458.01	547.69
458.19	538.32
458.38	507.90
458.56	472.79
458.74	465.77
458.93	533.64
459.11	486.83
459.29	514.92
459.48	486.83
459.66	531.30
459.84	578.11
460.03	496.19
460.21	547.69
460.39	491.51
460.57	519.60
460.76	477.47
460.94	512.58
461.12	603.86
461.31	528.96
461.49	514.92
461.67	493.85
461.85	514.92
462.04	465.77
462.22	926.85
462.40	543.00
462.59	472.79
462.77	500.87
462.95	610.88
463.13	477.47
463.32	524.28
463.50	578.11
463.68	503.22
463.86	475.13
464.05	505.56
464.23	543.00
464.41	514.92
464.59	491.51
464.78	437.68
464.96	507.90
465.14	547.69
465.32	564.07
465.50	533.64
465.69	545.34
465.87	503.22
466.05	599.18
466.23	524.28
466.41	514.92
466.60	498.53
466.78	519.60
466.96	479.81
467.14	638.97
467.32	617.90
467.51	564.07
467.69	580.45
467.87	613.22
468.05	526.62
468.23	613.22
468.41	575.77
468.60	608.54
468.78	554.71
468.96	580.45
469.14	524.28
469.32	528.96
469.50	458.74
469.69	624.92
469.87	582.79
470.05	627.26
470.23	564.07
470.41	507.90
470.59	634.29
470.77	505.56
470.95	592.16
471.14	578.11
471.32	578.11
471.50	606.20
471.68	564.07
471.86	578.11
472.04	603.86
472.22	624.92
472.40	559.39
472.58	592.16
472.77	573.43
472.95	589.82
473.13	683.44
473.31	589.82
473.49	603.86
473.67	521.94
473.85	585.13
474.03	669.39
474.21	613.22
474.39	657.69
474.57	617.90
474.75	650.67
474.93	655.35
475.12	697.48
475.30	653.01
475.48	606.20
475.66	585.13
475.84	596.84
476.02	674.07
476.20	634.29
476.38	573.43
476.56	723.23
476.74	643.65
476.92	685.78
477.10	676.41
477.28	697.48
477.46	683.44
477.64	671.73
477.82	688.12
478.00	641.31
478.18	669.39
478.36	615.56
478.54	702.16
478.72	741.95
478.90	655.35
479.08	833.23
479.26	695.14
479.44	709.18
479.62	770.04
479.80	748.97
479.98	674.07
480.16	770.04
480.34	777.06
480.52	828.55
480.70	711.52
480.88	760.67
481.06	793.44
481.24	758.33
481.41	751.31
481.59	737.27
481.77	772.38
481.95	784.08
482.13	814.51
482.31	805.14
482.49	758.33
482.67	767.70
482.85	861.32
483.03	800.46
483.21	877.70
483.39	856.64
483.57	809.83
483.74	926.85
483.92	877.70
484.10	819.19
484.28	922.17
484.46	1011.11
484.64	814.51
484.82	873.02
485.00	945.58
485.18	950.26
485.35	926.85
485.53	784.08
485.71	983.02
485.89	964.30
486.07	1053.24
486.25	1029.84
486.43	1015.79
486.61	1034.52
486.78	954.94
486.96	1004.09
487.14	1060.26
487.32	1064.94
487.50	1029.84
487.68	980.68
487.85	1114.10
488.03	1039.20
488.21	1095.37
488.39	943.24
488.57	1064.94
488.75	1043.88
488.92	1254.53
489.10	1015.79
489.28	1142.18
489.46	1008.77
489.64	990.05
489.81	1067.28
489.99	1055.58
490.17	1146.86
490.35	1142.18
490.53	1132.82
490.70	1048.56
490.88	1196.01
491.06	1191.33
491.24	1104.73
491.41	1128.14
491.59	1132.82
491.77	1121.12
491.95	1130.48
492.13	1116.44
492.30	1193.67
492.48	1104.73
492.66	1167.93
492.84	1165.59
493.01	1200.69
493.19	1231.12
493.37	1181.97
493.54	1207.72
493.72	1210.06
493.90	1193.67
494.08	1132.82
494.25	1207.72
494.43	1219.42
494.61	1172.61
494.79	1231.12
494.96	1128.14
495.14	1149.20
495.32	1214.74
495.49	1198.35
495.67	1200.69
495.85	1193.67
496.02	1226.44
496.20	1200.69
496.38	1268.57
496.55	1167.93
496.73	1268.57
496.91	1320.06
497.09	1266.23
497.26	1240.48
497.44	1266.23
497.62	1299.00
497.79	1233.46
497.97	1277.93
498.14	1306.02
498.32	1252.19
498.50	1226.44
498.67	1277.93
498.85	1343.47
499.03	1359.85
499.20	1336.45
499.38	1284.95
499.56	1390.28
499.73	1373.89
499.91	1406.66
500.08	1423.05
500.26	1357.51
500.44	1324.74
500.61	1331.76
500.79	1256.87
500.97	1383.26
501.14	1427.73
501.32	1273.25
501.49	1409.00
501.67	1338.79
501.84	1366.87
502.02	1287.29
502.20	1423.05
502.37	1455.81
502.55	1331.76
502.72	1313.04
502.90	1366.87
503.07	1420.71
503.25	1334.11
503.43	1416.02
503.60	1313.04
503.78	1544.75
503.95	1460.49
504.13	1355.17
504.30	1483.90
504.48	1441.77
504.65	1472.20
504.83	1364.53
505.01	1448.79
505.18	1387.94
505.36	1394.96
505.53	1387.94
505.71	1446.45
505.88	1427.73
506.06	1483.90
506.23	1483.90
506.41	1401.98
506.58	1432.41
506.76	1467.52
506.93	1490.92
507.11	1425.39
507.28	1401.98
507.46	1399.64
507.63	1519.01
507.81	1411.34
507.98	1469.86
508.16	1497.94
508.33	1596.25
508.50	1502.62
508.68	1439.43
508.85	1502.62
509.03	1563.48
509.20	1521.35
509.38	1425.39
509.55	1549.43
509.73	1462.83
509.90	1556.46
510.08	1418.36
510.25	1519.01
510.42	1469.86
510.60	1640.72
510.77	1523.69
510.95	1500.28
511.12	1511.99
511.30	1561.14
511.47	1584.54
511.64	1643.06
511.82	1563.48
511.99	1600.93
512.17	1600.93
512.34	1596.25
512.51	1495.60
512.69	1460.49
512.86	1565.82
513.04	1621.99
513.21	1624.33
513.38	1579.86
513.56	1561.14
513.73	1701.57
513.90	1617.31
514.08	1561.14
514.25	1678.16
514.43	1713.27
514.60	1724.97
514.77	1570.50
514.95	1664.12
515.12	1614.97
515.29	1586.88
515.47	1610.29
515.64	1652.42
515.81	1612.63
515.99	1710.93
516.16	1614.97
516.33	1715.61
516.51	1598.59
516.68	1621.99
516.85	1647.74
517.03	1661.78
517.20	1671.14
517.37	1614.97
517.54	1661.78
517.72	1680.50
517.89	1647.74
518.06	1671.14
518.24	1657.10
518.41	1636.03
518.58	1692.21
518.75	1659.44
518.93	1769.44
519.10	1703.91
519.27	1650.08
519.45	1673.48
519.62	1724.97
519.79	1645.40
519.96	1750.72
520.14	1600.93
520.31	1795.19
520.48	1802.21
520.65	1774.13
520.83	1834.98
521.00	1799.87
521.17	1739.02
521.34	1746.04
521.52	1790.51
521.69	1767.10
521.86	1748.38
522.03	1820.94
522.20	1790.51
522.38	1820.94
522.55	1750.72
522.72	1722.63
522.89	1830.30
523.07	1790.51
523.24	1699.23
523.41	1722.63
523.58	1732.00
523.75	1872.43
523.92	1668.80
524.10	1856.04
524.27	1818.60
524.44	1842.00
524.61	1741.36
524.78	1853.70
524.96	1839.66
525.13	1792.85
525.30	1755.40
525.47	1895.83
525.64	1846.68
525.81	1895.83
525.98	1827.96
526.16	1926.26
526.33	1858.39
526.50	1811.57
526.67	1757.74
526.84	1748.38
527.01	1844.34
527.18	1846.68
527.36	1956.69
527.53	1760.08
527.70	1940.30
527.87	1865.41
528.04	1893.49
528.21	1881.79
528.38	1947.33
528.55	1816.26
528.72	1842.00
528.89	1977.75
529.07	1813.92
529.24	1844.34
529.41	1935.62
529.58	1872.43
529.75	1877.11
529.92	2012.86
530.09	1959.03
530.26	1879.45
530.43	1888.81
530.60	1907.54
530.77	1827.96
530.94	2026.90
531.11	1937.96
531.28	1907.54
531.46	1935.62
531.63	2012.86
531.80	1888.81
531.97	1914.56
532.14	1980.09
532.31	1998.82
532.48	1909.88
532.65	1907.54
532.82	1870.09
532.99	1970.73
533.16	1987.11
533.33	2071.37
533.50	1984.77
533.67	2040.95
533.84	1984.77
534.01	2003.50
534.18	1928.60
534.35	1977.75
534.52	2038.61
534.69	2024.56
534.86	2031.58
535.03	2085.42
535.20	2024.56
535.37	2064.35
535.54	2157.97
535.71	2008.18
535.88	2022.22
536.05	2001.16
536.22	2022.22
536.38	1937.96
536.55	2029.24
536.72	2108.82
536.89	2057.33
537.06	2092.44
537.23	2069.03
537.40	2062.01
537.57	2113.50
537.74	2141.59
537.91	2195.42
538.08	2150.95
538.25	2258.62
538.42	2179.04
538.59	2118.18
538.75	2076.06
538.92	2153.29
539.09	2085.42
539.26	2235.21
539.43	2239.89
539.60	2293.72
539.77	2253.94
539.94	2385.01
540.11	2258.62
540.28	2413.09
540.44	2408.41
540.61	2361.60
540.78	2485.65
540.95	2607.36
541.12	2740.77
541.29	2733.75
541.46	2935.03
541.62	2937.37
541.79	2829.71
541.96	2860.13
542.13	2895.24
542.30	2965.46
542.47	3049.72
542.63	2764.17
542.80	2836.73
542.97	2724.38
543.14	2871.84
543.31	2752.47
543.48	2834.39
543.64	2815.66
543.81	2796.94
543.98	2782.90
544.15	2686.94
544.32	2871.84
544.48	2853.11
544.65	2778.22
544.82	2780.56
544.99	2773.53
545.16	2818.00
545.32	2888.22
545.49	3297.81
545.66	4091.26
545.83	4152.11
546.00	4053.81
546.16	3353.99
546.33	3038.02
546.50	2738.43
546.67	2715.02
546.83	2679.91
547.00	2487.99
547.17	2539.48
547.34	2394.37
547.50	2520.76
547.67	2520.76
547.84	2469.27
548.00	2581.61
548.17	2359.26
548.34	2445.86
548.51	2532.46
548.67	2448.20
548.84	2492.67
549.01	2492.67
549.18	2455.22
549.34	2434.16
549.51	2548.84
549.68	2394.37
549.84	2356.92
550.01	2415.43
550.18	2345.22
550.34	2401.39
550.51	2399.05
550.68	2452.88
550.84	2387.35
551.01	2275.00
551.18	2312.45
551.34	2307.77
551.51	2286.70
551.68	2260.96
551.84	2303.09
552.01	2260.96
552.18	2338.20
552.34	2286.70
552.51	2267.98
552.68	2408.41
552.84	2326.49
553.01	2270.32
553.18	2331.17
553.34	2284.36
553.51	2221.17
553.67	2260.96
553.84	2342.88
554.01	2244.57
554.17	2167.34
554.34	2399.05
554.51	2207.13
554.67	2256.28
554.84	2207.13
555.00	2207.13
555.17	2115.84
555.33	2361.60
555.50	2143.93
555.67	2296.07
555.83	2148.61
556.00	2232.87
556.16	2410.75
556.33	2179.04
556.50	2218.83
556.66	2228.19
556.83	2293.72
556.99	2209.47
557.16	2200.10
557.32	2190.74
557.49	2139.25
557.65	2223.51
557.82	2169.68
557.98	2169.68
558.15	2289.04
558.32	2129.89
558.48	2115.84
558.65	2235.21
558.81	2293.72
558.98	2125.21
559.14	2113.50
559.31	2200.10
559.47	2237.55
559.64	2169.68
559.80	2162.66
559.97	2160.31
560.13	2256.28
560.30	2195.42
560.46	2195.42
560.63	2218.83
560.79	2183.72
560.96	2258.62
561.12	2218.83
561.29	2195.42
561.45	2167.34
561.61	2076.06
561.78	2221.17
561.94	2120.53
562.11	2256.28
562.27	2228.19
562.44	2244.57
562.60	2174.36
562.77	2228.19
562.93	2218.83
563.10	2218.83
563.26	2188.40
563.42	2284.36
563.59	2258.62
563.75	2136.91
563.92	2385.01
564.08	2202.44
564.24	2202.44
564.41	2216.49
564.57	2146.27
564.74	2120.53
564.90	2347.56
565.07	2106.48
565.23	2104.14
565.39	2083.08
565.56	2239.89
565.72	2204.78
565.88	2270.32
566.05	2125.21
566.21	2260.96
566.38	2244.57
566.54	2303.09
566.70	2078.40
566.87	2340.54
567.03	2099.46
567.19	2298.41
567.36	2349.90
567.52	2172.02
567.68	2242.23
567.85	2160.31
568.01	2104.14
568.17	2148.61
568.34	2097.12
568.50	2260.96
568.66	2284.36
568.83	2373.30
568.99	2160.31
569.15	2162.66
569.32	2176.70
569.48	2230.53
569.64	2129.89
569.81	2256.28
569.97	2181.38
570.13	2183.72
570.30	2200.10
570.46	2242.23
570.62	2139.25
570.78	2139.25
570.95	2221.17
571.11	2153.29
571.27	2122.87
571.43	2267.98
571.60	2242.23
571.76	2211.81
571.92	2277.34
572.09	2317.13
572.25	2277.34
572.41	2242.23
572.57	2195.42
572.74	2314.79
572.90	2251.60
573.06	2375.64
573.22	2237.55
573.38	2197.76
573.55	2286.70
573.71	2335.85
573.87	2209.47
574.03	2155.63
574.20	2265.64
574.36	2207.13
574.52	2275.00
574.68	2242.23
574.84	2251.60
575.01	2242.23
575.17	2270.32
575.33	2211.81
575.49	2167.34
575.65	2321.81
575.82	2286.70
575.98	2289.04
576.14	2246.91
576.30	2179.04
576.46	2436.50
576.62	2630.76
576.79	2588.63
576.95	2530.12
577.11	2490.33
577.27	2265.64
577.43	2253.94
577.59	2286.70
577.75	2368.62
577.92	2331.17
578.08	2335.85
578.24	2204.78
578.40	2352.24
578.56	2527.78
578.72	2640.12
578.88	2740.77
579.04	2438.84
579.21	2422.45
579.37	2277.34
579.53	2335.85
579.69	2249.25
579.85	2370.96
580.01	2272.66
580.17	2356.92
580.33	2385.01
580.49	2438.84
580.65	2218.83
580.82	2380.32
580.98	2267.98
581.14	2333.51
581.30	2340.54
581.46	2338.20
581.62	2260.96
581.78	2406.07
581.94	2375.64
582.10	2235.21
582.26	2394.37
582.42	2380.32
582.58	2408.41
582.74	2249.25
582.90	2443.52
583.06	2366.28
583.22	2375.64
583.38	2436.50
583.54	2417.77
583.70	2377.98
583.86	2361.60
584.02	2415.43
584.18	2490.33
584.34	2347.56
584.50	2415.43
584.66	2324.15
584.82	2413.09
584.98	2429.48
585.14	2195.42
585.30	2361.60
585.46	2312.45
585.62	2307.77
585.78	2401.39
585.94	2385.01
586.10	2462.24
586.26	2462.24
586.42	2408.41
586.58	2335.85
586.74	2485.65
586.90	2530.12
587.06	2562.89
587.22	2609.70
587.38	2553.52
587.54	2457.56
587.70	2495.01
587.86	2370.96
588.02	2429.48
588.18	2345.22
588.34	2352.24
588.49	2326.49
588.65	2345.22
588.81	2300.75
588.97	2282.02
589.13	2143.93
589.29	2263.30
589.45	2321.81
589.61	2265.64
589.77	2424.80
589.93	2352.24
590.08	2200.10
590.24	2380.32
590.40	2314.79
590.56	2338.20
590.72	2321.81
590.88	2382.67
591.04	2307.77
591.20	2349.90
591.35	2403.73
591.51	2265.64
591.67	2326.49
591.83	2361.60
591.99	2321.81
592.15	2452.88
592.31	2504.37
592.46	2356.92
592.62	2340.54
592.78	2469.27
592.94	2408.41
593.10	2434.16
593.26	2441.18
593.41	2406.07
593.57	2359.26
593.73	2427.14
593.89	2324.15
594.05	2279.68
594.20	2270.32
594.36	2338.20
594.52	2282.02
594.68	2218.83
594.84	2214.15
594.99	2321.81
595.15	2335.85
595.31	2324.15
595.47	2342.88
595.62	2286.70
595.78	2246.91
595.94	2258.62
596.10	2296.07
596.25	2204.78
596.41	2270.32
596.57	2296.07
596.73	2296.07
596.88	2214.15
597.04	2207.13
597.20	2345.22
597.36	2242.23
597.51	2317.13
597.67	2284.36
597.83	2289.04
597.99	2420.11
598.14	2307.77
598.30	2342.88
598.46	2354.58
598.61	2296.07
598.77	2401.39
598.93	2202.44
599.09	2441.18
599.24	2401.39
599.40	2345.22
599.56	2310.11
599.71	2289.04
599.87	2324.15
600.03	2387.35
600.18	2321.81
600.34	2216.49
600.50	2267.98
600.65	2223.51
600.81	2342.88
600.97	2209.47
601.12	2218.83
601.28	2230.53
601.44	2265.64
601.59	2286.70
601.75	2415.43
601.91	2354.58
602.06	2270.32
602.22	2380.32
602.37	2186.06
602.53	2272.66
602.69	2359.26
602.84	2251.60
603.00	2136.91
603.16	2265.64
603.31	2399.05
