SpectraSuite Data File
++++++++++++++++++++++++++++++++++++
Date: Fri Oct 04 11:39:13 GMT-05:00 2013
User: price-jones
Dark Spectrum Present: No
Reference Spectrum Present: No
Number of Sampled Component Spectra: 1
Spectrometers: USB2+H05261
Integration Time (usec): 100000 (USB2+H05261)
Spectra Averaged: 1 (USB2+H05261)
Boxcar Smoothing: 0 (USB2+H05261)
Correct for Electrical Dark: No (USB2+H05261)
Strobe/Lamp Enabled: No (USB2+H05261)
Correct for Detector Non-linearity: No (USB2+H05261)
Correct for Stray Light: No (USB2+H05261)
Number of Pixels in Processed Spectrum: 2048
>>>>>Begin Processed Spectral Data<<<<<
365.73	88.94
365.92	88.94
366.12	88.94
366.32	9.36
366.52	0.00
366.72	0.00
366.91	0.00
367.11	0.00
367.31	0.00
367.51	0.00
367.70	0.00
367.90	0.00
368.10	0.00
368.30	0.00
368.49	0.00
368.69	0.00
368.89	0.00
369.09	0.00
369.28	0.00
369.48	0.00
369.68	0.00
369.87	21.06
370.07	58.51
370.27	39.79
370.47	91.28
370.66	128.73
370.86	135.75
371.06	166.18
371.25	250.44
371.45	203.63
371.65	217.67
371.84	180.22
372.04	175.54
372.24	140.43
372.44	208.31
372.63	262.14
372.83	294.91
373.03	229.37
373.22	196.60
373.42	215.33
373.62	191.92
373.81	229.37
374.01	297.25
374.21	304.27
374.40	224.69
374.60	238.73
374.79	250.44
374.99	208.31
375.19	264.48
375.38	372.15
375.58	290.23
375.78	320.65
375.97	266.82
376.17	215.33
376.37	236.39
376.56	285.55
376.76	250.44
376.95	283.20
377.15	353.42
377.35	304.27
377.54	241.08
377.74	238.73
377.93	248.10
378.13	203.63
378.33	262.14
378.52	264.48
378.72	241.08
378.91	355.76
379.11	280.86
379.31	241.08
379.50	271.50
379.70	344.06
379.89	348.74
380.09	210.65
380.28	269.16
380.48	301.93
380.68	304.27
380.87	255.12
381.07	255.12
381.26	280.86
381.46	287.89
381.65	280.86
381.85	292.57
382.04	290.23
382.24	245.76
382.43	365.12
382.63	313.63
382.83	304.27
383.02	287.89
383.22	294.91
383.41	339.38
383.61	402.57
383.80	337.04
384.00	318.31
384.19	341.72
384.39	330.02
384.58	278.52
384.78	315.97
384.97	369.80
385.17	243.42
385.36	262.14
385.56	386.19
385.75	290.23
385.95	337.04
386.14	409.59
386.34	308.95
386.53	346.40
386.72	379.17
386.92	374.49
387.11	332.36
387.31	395.55
387.50	320.65
387.70	341.72
387.89	346.40
388.09	369.80
388.28	390.87
388.48	358.10
388.67	383.85
388.86	337.04
389.06	367.46
389.25	346.40
389.45	325.33
389.64	461.09
389.84	386.19
390.03	362.78
390.22	400.23
390.42	369.80
390.61	421.30
390.81	418.96
391.00	383.85
391.19	440.02
391.39	313.63
391.58	306.61
391.78	397.89
391.97	372.15
392.16	400.23
392.36	386.19
392.55	456.40
392.75	456.40
392.94	346.40
393.13	440.02
393.33	507.90
393.52	395.55
393.71	451.72
393.91	461.09
394.10	486.83
394.29	437.68
394.49	451.72
394.68	472.79
394.88	442.36
395.07	470.45
395.26	507.90
395.46	482.15
395.65	493.85
395.84	437.68
396.04	528.96
396.23	449.38
396.42	519.60
396.62	503.22
396.81	505.56
397.00	505.56
397.19	482.15
397.39	482.15
397.58	526.62
397.77	468.11
397.97	514.92
398.16	547.69
398.35	552.37
398.55	526.62
398.74	475.13
398.93	535.98
399.12	526.62
399.32	521.94
399.51	531.30
399.70	486.83
399.90	479.81
400.09	512.58
400.28	610.88
400.47	589.82
400.67	575.77
400.86	580.45
401.05	521.94
401.24	608.54
401.44	557.05
401.63	575.77
401.82	622.58
402.01	594.50
402.21	615.56
402.40	627.26
402.59	655.35
402.78	650.67
402.97	573.43
403.17	636.63
403.36	631.94
403.55	589.82
403.74	617.90
403.93	678.76
404.13	699.82
404.32	767.70
404.51	678.76
404.70	748.97
404.89	660.03
405.09	634.29
405.28	671.73
405.47	697.48
405.66	732.59
405.85	755.99
406.05	699.82
406.24	697.48
406.43	709.18
406.62	685.78
406.81	737.27
407.00	788.76
407.20	748.97
407.39	800.46
407.58	737.27
407.77	751.31
407.96	807.48
408.15	739.61
408.34	833.23
408.54	758.33
408.73	847.27
408.92	671.73
409.11	868.34
409.30	868.34
409.49	823.87
409.68	844.93
409.87	800.46
410.07	814.51
410.26	784.08
410.45	929.19
410.64	908.13
410.83	903.45
411.02	760.67
411.21	957.28
411.40	873.02
411.59	917.49
411.78	997.07
411.98	873.02
412.17	938.55
412.36	922.17
412.55	973.66
412.74	973.66
412.93	1006.43
413.12	999.41
413.31	1088.35
413.50	1067.28
413.69	968.98
413.88	976.00
414.07	987.71
414.26	1081.33
414.45	1090.69
414.64	1097.71
414.83	1179.63
415.02	1135.16
415.22	1116.44
415.41	1109.41
415.60	1060.26
415.79	1142.18
415.98	1172.61
416.17	1193.67
416.36	1165.59
416.55	1193.67
416.74	1247.51
416.93	1177.29
417.12	1191.33
417.31	1240.48
417.50	1167.93
417.69	1263.89
417.88	1296.66
418.07	1226.44
418.26	1263.89
418.45	1277.93
418.64	1259.21
418.83	1327.08
419.02	1261.55
419.21	1320.06
419.39	1366.87
419.58	1212.40
419.77	1336.45
419.96	1441.77
420.15	1343.47
420.34	1320.06
420.53	1338.79
420.72	1392.62
420.91	1458.15
421.10	1432.41
421.29	1420.71
421.48	1329.42
421.67	1453.47
421.86	1446.45
422.05	1404.32
422.24	1394.96
422.43	1488.58
422.61	1392.62
422.80	1500.28
422.99	1409.00
423.18	1355.17
423.37	1533.05
423.56	1467.52
423.75	1469.86
423.94	1451.13
424.13	1385.60
424.32	1390.28
424.50	1423.05
424.69	1598.59
424.88	1561.14
425.07	1554.12
425.26	1444.11
425.45	1455.81
425.64	1509.65
425.83	1488.58
426.01	1572.84
426.20	1511.99
426.39	1504.96
426.58	1556.46
426.77	1495.60
426.96	1584.54
427.15	1479.22
427.33	1530.71
427.52	1504.96
427.71	1554.12
427.90	1607.95
428.09	1621.99
428.28	1453.47
428.46	1511.99
428.65	1596.25
428.84	1584.54
429.03	1652.42
429.22	1570.50
429.40	1621.99
429.59	1619.65
429.78	1579.86
429.97	1724.97
430.16	1516.67
430.34	1605.61
430.53	1610.29
430.72	1643.06
430.91	1769.44
431.10	1610.29
431.28	1802.21
431.47	1692.21
431.66	1783.49
431.85	1741.36
432.03	1785.83
432.22	1823.28
432.41	1685.19
432.60	1802.21
432.79	1757.74
432.97	1741.36
433.16	1839.66
433.35	1732.00
433.54	1706.25
433.72	1905.20
433.91	1739.02
434.10	1778.81
434.28	1802.21
434.47	1860.73
434.66	1724.97
434.85	1823.28
435.03	2062.01
435.22	2148.61
435.41	2113.50
435.59	2148.61
435.78	2001.16
435.97	2040.95
436.16	1961.37
436.34	1952.01
436.53	1987.11
436.72	1973.07
436.90	1858.39
437.09	2001.16
437.28	1872.43
437.46	1947.33
437.65	1973.07
437.84	2008.18
438.02	1961.37
438.21	1935.62
438.40	2001.16
438.58	2054.99
438.77	2012.86
438.96	1970.73
439.14	2111.16
439.33	2092.44
439.52	2064.35
439.70	2190.74
439.89	2047.97
440.08	2181.38
440.26	2265.64
440.45	2118.18
440.63	2174.36
440.82	2242.23
441.01	2179.04
441.19	2155.63
441.38	2232.87
441.57	2228.19
441.75	2195.42
441.94	2335.85
442.12	2225.85
442.31	2349.90
442.50	2312.45
442.68	2324.15
442.87	2249.25
443.05	2368.62
443.24	2569.91
443.43	2408.41
443.61	2459.90
443.80	2623.74
443.98	2356.92
444.17	2284.36
444.35	2349.90
444.54	2392.03
444.73	2420.11
444.91	2352.24
445.10	2370.96
445.28	2392.03
445.47	2478.63
445.65	2417.77
445.84	2377.98
446.02	2431.82
446.21	2487.99
446.39	2576.93
446.58	2476.29
446.77	2401.39
446.95	2340.54
447.14	2565.23
447.32	2408.41
447.51	2590.97
447.69	2466.92
447.88	2541.82
448.06	2567.57
448.25	2385.01
448.43	2342.88
448.62	2518.42
448.80	2490.33
448.99	2527.78
449.17	2490.33
449.36	2459.90
449.54	2642.46
449.73	2569.91
449.91	2562.89
450.10	2642.46
450.28	2567.57
450.46	2651.83
450.65	2609.70
450.83	2605.02
451.02	2621.40
451.20	2616.72
451.39	2616.72
451.57	2579.27
451.76	2635.44
451.94	2663.53
452.13	2738.43
452.31	2738.43
452.49	2637.78
452.68	2651.83
452.86	2612.04
453.05	2918.65
453.23	2801.62
453.42	2644.81
453.60	2689.28
453.78	2677.57
453.97	2761.83
454.15	2686.94
454.34	2733.75
454.52	2738.43
454.70	2752.47
454.89	2796.94
455.07	2850.77
455.26	2876.52
455.44	2965.46
455.62	2789.92
455.81	2876.52
455.99	2977.16
456.17	2888.22
456.36	2909.29
456.54	2939.71
456.73	2920.99
456.91	2951.42
457.09	2913.97
457.28	2946.73
457.46	2967.80
457.64	3122.27
457.83	3066.10
458.01	2944.39
458.19	3052.06
458.38	2951.42
458.56	3068.44
458.74	3021.63
458.93	3091.85
459.11	3148.02
459.29	3028.65
459.48	3171.43
459.66	3073.12
459.84	3253.34
460.03	3162.06
460.21	3068.44
460.39	3162.06
460.57	3187.81
460.76	3246.32
460.94	3155.04
461.12	3194.83
461.31	3241.64
461.49	3234.62
461.67	3159.72
461.85	3281.43
462.04	3199.51
462.22	3356.33
462.40	3267.39
462.59	3356.33
462.77	3372.71
462.95	3330.58
463.13	3288.45
463.32	3283.77
463.50	3286.11
463.68	3297.81
463.86	3297.81
464.05	3384.41
464.23	3421.86
464.41	3424.20
464.59	3361.01
464.78	3410.16
464.96	3407.82
465.14	3447.61
465.32	3417.18
465.50	3431.23
465.69	3344.63
465.87	3379.73
466.05	3445.27
466.23	3581.02
466.41	3489.74
466.60	3499.10
466.78	3431.23
466.96	3545.91
467.14	3407.82
467.32	3555.27
467.51	3585.70
467.69	3438.25
467.87	3466.33
468.05	3588.04
468.23	3538.89
468.41	3550.59
468.60	3555.27
468.78	3653.58
468.96	3494.42
469.14	3625.49
469.32	3658.26
469.50	3473.36
469.69	3676.98
469.87	3674.64
470.05	3904.01
470.23	3730.81
470.41	3564.64
470.59	3772.94
470.77	3695.71
470.95	3817.41
471.14	3700.39
471.32	3681.66
471.50	3901.67
471.68	3918.06
471.86	3915.72
472.04	3761.24
472.22	3889.97
472.40	3941.46
472.58	3915.72
472.77	4044.45
472.95	3894.65
473.13	4065.51
473.31	3974.23
473.49	3960.19
473.67	4053.81
473.85	4067.85
474.03	4161.47
474.21	4067.85
474.39	4196.58
474.57	4252.75
474.75	4236.37
474.93	4227.01
475.12	4121.68
475.30	4255.09
475.48	4175.52
475.66	4175.52
475.84	4280.84
476.02	4337.01
476.20	4259.78
476.38	4475.10
476.56	4500.85
476.74	4386.16
476.92	4437.66
477.10	4482.13
477.28	4564.04
477.46	4421.27
477.64	4561.70
477.82	4657.67
478.00	4732.56
478.18	4748.95
478.36	4648.30
478.54	4755.97
478.72	4779.37
478.90	4819.16
479.08	4938.53
479.26	4919.81
479.44	4887.04
479.62	4926.83
479.80	5018.11
479.98	5043.85
480.16	5041.51
480.34	5036.83
480.52	5090.67
480.70	5015.77
480.88	5231.10
481.06	5308.34
481.24	5046.20
481.41	5217.05
481.59	5249.82
481.77	5465.15
481.95	5446.43
482.13	5369.19
482.31	5411.32
482.49	5701.54
482.67	5760.06
482.85	5809.21
483.03	5820.91
483.21	5755.38
483.39	5722.61
483.57	5755.38
483.74	5907.51
483.92	5942.62
484.10	5933.26
484.28	6083.05
484.46	6094.76
484.64	6134.54
484.82	6050.28
485.00	6209.44
485.18	6370.94
485.35	6401.37
485.53	6284.34
485.71	6183.70
485.89	6555.84
486.07	6436.47
486.25	6473.92
486.43	6455.20
486.61	6579.25
486.78	6427.11
486.96	6724.36
487.14	6633.08
487.32	6672.87
487.50	6801.60
487.68	6864.79
487.85	7108.21
488.03	7056.72
488.21	7136.29
488.39	7047.35
488.57	6965.43
488.75	7410.14
488.92	7480.35
489.10	7131.61
489.28	7290.77
489.46	7290.77
489.64	7405.46
489.81	7597.38
489.99	7473.33
490.17	7456.95
490.35	7698.02
490.53	7847.82
490.70	7810.37
490.88	7693.34
491.06	7824.41
491.24	7784.62
491.41	8011.65
491.59	7831.43
491.77	7995.27
491.95	8058.46
492.13	8102.93
492.30	8077.19
492.48	8145.06
492.66	8271.45
492.84	8194.22
493.01	8322.94
493.19	8264.43
493.37	8620.19
493.54	8549.98
493.72	8503.17
493.90	8444.65
494.08	8711.47
494.25	8613.17
494.43	8861.27
494.61	8821.48
494.79	9015.74
494.96	8856.59
495.14	8922.12
495.32	8980.64
495.49	8990.00
495.67	9170.22
495.85	9158.52
496.02	9064.89
496.20	9165.54
496.38	9170.22
496.55	9186.60
496.73	9298.95
496.91	9533.00
497.09	9554.07
497.26	9612.58
497.44	9497.89
497.62	9472.15
497.79	9504.92
497.97	9500.23
498.14	9881.74
498.32	9870.04
498.50	9804.50
498.67	9940.26
498.85	9792.80
499.03	10118.14
499.20	10090.05
499.38	9837.27
499.56	10031.54
499.73	9776.42
499.91	10092.39
500.08	10235.16
500.26	10326.44
500.44	10267.93
500.61	10139.20
500.79	10347.51
500.97	10209.42
501.14	10246.87
501.32	10429.43
501.49	10464.54
501.67	10296.02
501.84	10560.50
502.02	10441.13
502.20	10775.83
502.37	10675.18
502.55	10689.23
502.72	10546.45
502.90	10717.31
503.07	10633.05
503.25	10832.00
503.43	10778.17
503.60	10794.55
503.78	10946.69
503.95	10881.15
504.13	10897.53
504.30	10956.05
504.48	10906.90
504.65	11126.91
504.83	11052.01
505.01	11098.82
505.18	11147.97
505.36	11096.48
505.53	11253.30
505.71	11098.82
505.88	11190.10
506.06	11026.26
506.23	11442.88
506.41	11384.37
506.58	11435.86
506.76	11386.71
506.93	11492.03
507.11	11372.66
507.28	11470.97
507.46	11557.57
507.63	11548.20
507.81	11770.55
507.98	11719.06
508.16	11925.03
508.33	11964.82
508.50	11667.57
508.68	11686.29
508.85	11829.07
509.03	11763.53
509.20	12013.97
509.38	12191.85
509.55	12077.16
509.73	11918.01
509.90	12037.38
510.08	12025.67
510.25	12102.91
510.42	12198.87
510.60	12187.17
510.77	12376.75
510.95	12238.66
511.12	12081.85
511.30	12351.01
511.47	12442.29
511.64	12741.88
511.82	12681.02
511.99	12505.48
512.17	12599.10
512.34	12313.56
512.51	12594.42
512.69	12702.09
512.86	12716.13
513.04	12779.32
513.21	12699.75
513.38	12924.44
513.56	12758.26
513.73	12741.88
513.90	12603.78
514.08	13097.64
514.25	13064.87
514.43	12989.97
514.60	13118.70
514.77	12884.65
514.95	13048.49
515.12	12919.76
515.29	12910.40
515.47	13039.12
515.64	13205.30
515.81	13043.81
515.99	13247.43
516.16	13266.16
516.33	13619.58
516.51	13434.68
516.68	13240.41
516.85	13200.62
517.03	13434.68
517.20	13542.34
517.37	13624.26
517.54	13266.16
517.72	13596.17
517.89	13465.10
518.06	13399.57
518.24	13425.31
518.41	13551.70
518.58	13792.78
518.75	13525.96
518.93	13799.80
519.10	13720.22
519.27	13738.94
519.45	13860.65
519.62	14092.37
519.79	14050.24
519.96	13991.72
520.14	13921.51
520.31	13830.23
520.48	13912.14
520.65	14057.26
520.83	13912.14
521.00	13973.00
521.17	14080.66
521.34	14033.85
521.52	13958.96
521.69	14347.48
521.86	14075.98
522.03	14469.19
522.20	14518.34
522.38	14492.60
522.55	14586.22
522.72	13996.40
522.89	14523.02
523.07	14817.93
523.24	14537.07
523.41	14359.19
523.58	14806.23
523.75	14490.26
523.92	14518.34
524.10	14670.48
524.27	14483.24
524.44	14656.43
524.61	14710.27
524.78	14693.88
524.96	14860.06
525.13	14686.86
525.30	14789.85
525.47	14895.17
525.64	14764.10
525.81	14892.83
525.98	15082.41
526.16	14771.12
526.33	14970.07
526.50	15180.71
526.67	14932.62
526.84	14972.41
527.01	15218.16
527.18	14979.43
527.36	15005.17
527.53	15021.56
527.70	15283.70
527.87	15393.70
528.04	15016.88
528.21	15117.52
528.38	15178.37
528.55	15159.65
528.72	15562.22
528.89	15213.48
529.07	15166.67
529.24	15346.89
529.41	15667.55
529.58	15569.24
529.75	15454.56
529.92	15515.41
530.09	15475.62
530.26	15482.64
530.43	15484.98
530.60	15428.81
530.77	15630.10
530.94	15690.95
531.11	15721.38
531.28	15569.24
531.46	15475.62
531.63	15625.42
531.80	16042.03
531.97	15742.44
532.14	15866.49
532.31	15864.15
532.48	15716.70
532.65	15770.53
532.82	15632.44
532.99	16030.33
533.16	15843.09
533.33	16109.91
533.50	15906.28
533.67	15964.79
533.84	15894.58
534.01	16128.63
534.18	16086.50
534.35	16037.35
534.52	15826.70
534.69	16278.43
534.86	16201.19
535.03	15889.90
535.20	16332.26
535.37	16105.23
535.54	16388.43
535.71	16077.14
535.88	16573.33
536.05	16386.09
536.22	16453.97
536.38	16381.41
536.55	16547.59
536.72	16442.26
536.89	16255.02
537.06	16353.32
537.23	16339.28
537.40	16259.70
537.57	16081.82
537.74	16325.24
537.91	16393.11
538.08	16702.06
538.25	16458.65
538.42	16468.01
538.59	16540.57
538.75	16526.52
538.92	16507.80
539.09	16568.65
539.26	16655.25
539.43	16746.53
539.60	16922.07
539.77	16664.61
539.94	16975.91
540.11	16901.01
540.28	16737.17
540.44	17090.59
540.61	17006.33
540.78	16912.71
540.95	17305.92
541.12	17177.19
541.29	17111.66
541.46	17135.06
541.62	17460.40
541.79	17352.73
541.96	17102.29
542.13	17137.40
542.30	17287.20
542.47	17511.89
542.63	17385.50
542.80	17289.54
542.97	17532.95
543.14	17722.54
543.31	17444.01
543.48	17455.72
543.64	17607.85
543.81	17488.48
543.98	17734.24
544.15	17713.17
544.32	17764.67
544.48	17530.61
544.65	17331.67
544.82	17673.39
544.99	17652.32
545.16	17605.51
545.32	17755.30
545.49	17963.61
545.66	18207.03
545.83	18520.66
546.00	18171.92
546.16	18054.89
546.33	17788.07
546.50	17528.27
546.67	17495.50
546.83	17413.59
547.00	17933.18
547.17	17647.64
547.34	18010.42
547.50	17743.60
547.67	17867.65
547.84	17933.18
548.00	17951.91
548.17	17731.90
548.34	17991.70
548.51	18047.87
548.67	17994.04
548.84	18169.58
549.01	17905.10
549.18	17813.82
549.34	17802.11
549.51	18017.44
549.68	17738.92
549.84	18015.10
550.01	18036.17
550.18	18394.27
550.34	18022.12
550.51	18113.41
550.68	18054.89
550.84	17703.81
551.01	18097.02
551.18	17975.31
551.34	17481.46
551.51	18139.15
551.68	18036.17
551.84	18244.48
552.01	18218.73
552.18	18122.77
552.34	18071.28
552.51	18373.21
552.68	18073.62
552.84	18164.90
553.01	18221.07
553.18	18097.02
553.34	17935.53
553.51	18188.30
553.67	18249.16
553.84	18604.92
554.01	18520.66
554.17	18202.35
554.34	17921.48
554.51	18246.82
554.67	18459.81
554.84	18113.41
555.00	18349.80
555.17	18272.56
555.33	18389.59
555.50	18043.19
555.67	18277.24
555.83	18197.67
556.00	18373.21
556.16	18682.16
556.33	18408.31
556.50	18324.05
556.66	18546.40
556.83	18228.09
556.99	18738.33
557.16	18724.29
557.32	18572.15
557.49	18597.90
557.65	18569.81
557.82	18326.39
557.98	18569.81
558.15	18272.56
558.32	18441.08
558.48	18546.40
558.65	18548.75
558.81	18452.78
558.98	18544.06
559.14	18668.11
559.31	18555.77
559.47	18733.65
559.64	18848.33
559.80	18787.48
559.97	18937.27
560.13	18810.89
560.30	18803.86
560.46	18569.81
560.63	18848.33
560.79	18640.03
560.96	18668.11
561.12	18658.75
561.29	18700.88
561.45	18967.70
561.61	18831.95
561.78	18998.13
561.94	18820.25
562.11	18906.85
562.27	19049.62
562.44	18616.62
562.60	18560.45
562.77	18291.29
562.93	18555.77
563.10	18820.25
563.26	18717.26
563.42	18904.51
563.59	19070.68
563.75	19030.90
563.92	19007.49
564.08	18850.67
564.24	18841.31
564.41	18845.99
564.57	18869.40
564.74	18735.99
564.90	18822.59
565.07	18665.77
565.23	19281.33
565.39	18902.17
565.56	19222.82
565.72	18913.87
565.88	18824.93
566.05	19098.77
566.21	18927.91
566.38	18857.70
566.54	18867.06
566.70	19372.61
566.87	19271.97
567.03	19054.30
567.19	19094.09
567.36	18911.53
567.52	19157.28
567.68	19028.56
567.85	19089.41
568.01	18867.06
568.17	19028.56
568.34	19278.99
568.50	19091.75
568.66	19080.05
568.83	19019.19
568.99	19150.26
569.15	19087.07
569.32	18792.16
569.48	18768.76
569.64	19161.97
569.81	18740.67
569.97	19124.52
570.13	18911.53
570.30	19159.63
570.46	19089.41
570.62	19094.09
570.78	19190.05
570.95	19185.37
571.11	19136.22
571.27	19005.15
571.43	19009.83
571.60	18902.17
571.76	19070.68
571.92	19159.63
572.09	19178.35
572.25	19215.80
572.41	19206.44
572.57	19311.76
572.74	19154.94
572.90	18941.96
573.06	19115.16
573.22	19339.85
573.38	19253.25
573.55	19358.57
573.71	19510.71
573.87	19349.21
574.03	19154.94
574.20	19337.51
574.36	19227.50
574.52	19232.18
574.68	19049.62
574.84	19105.79
575.01	19016.85
575.17	19779.87
575.33	19194.73
575.49	19033.24
575.65	19307.08
575.82	19215.80
575.98	19206.44
576.14	19543.47
576.30	19325.80
576.46	19171.33
576.62	19124.52
576.79	19274.31
576.95	19405.38
577.11	19491.98
577.27	19309.42
577.43	19440.49
577.59	19190.05
577.75	19229.84
577.92	19178.35
578.08	19346.87
578.24	19154.94
578.40	19410.06
578.56	19403.04
578.72	19690.93
578.88	19335.17
579.04	19676.88
579.21	19389.00
579.37	19484.96
579.53	19311.76
579.69	19255.59
579.85	19337.51
580.01	19257.93
580.17	19449.85
580.33	19356.23
580.49	19192.39
580.65	19604.33
580.82	19253.25
580.98	19473.26
581.14	19379.64
581.30	19461.55
581.46	19400.70
581.62	19311.76
581.78	19257.93
581.94	19419.42
582.10	19225.16
582.26	19522.41
582.42	19115.16
582.58	19311.76
582.74	19314.10
582.90	19253.25
583.06	19346.87
583.22	19328.14
583.38	19398.36
583.54	19290.70
583.70	19330.48
583.86	19623.05
584.02	19508.37
584.18	19646.46
584.34	19257.93
584.50	19609.01
584.66	19087.07
584.82	19522.41
584.98	19866.47
585.14	19580.92
585.30	19618.37
585.46	19311.76
585.62	19278.99
585.78	19187.71
585.94	19105.79
586.10	19480.28
586.26	19573.90
586.42	19393.68
586.58	19403.04
586.74	19293.04
586.90	19475.60
587.06	19346.87
587.22	19634.75
587.38	19398.36
587.54	19606.67
587.70	19424.11
587.86	19407.72
588.02	19693.27
588.18	19658.16
588.34	19597.31
588.49	19480.28
588.65	19452.19
588.81	19522.41
588.97	19126.86
589.13	19393.68
589.29	19594.96
589.45	19974.13
589.61	19323.46
589.77	19770.51
589.93	19686.25
590.08	19440.49
590.24	19737.74
590.40	19697.95
590.56	19625.39
590.72	19389.00
590.88	19391.34
591.04	19136.22
591.20	19679.22
591.35	19908.60
591.51	19943.70
591.67	19857.10
591.83	19854.76
591.99	19892.21
592.15	19765.82
592.31	19583.26
592.46	19435.81
592.62	19630.07
592.78	19536.45
592.94	19711.99
