SpectraSuite Data File
++++++++++++++++++++++++++++++++++++
Date: Fri Oct 04 11:39:12 GMT-05:00 2013
User: price-jones
Dark Spectrum Present: No
Reference Spectrum Present: No
Number of Sampled Component Spectra: 1
Spectrometers: USB2+H05261
Integration Time (usec): 100000 (USB2+H05261)
Spectra Averaged: 1 (USB2+H05261)
Boxcar Smoothing: 0 (USB2+H05261)
Correct for Electrical Dark: No (USB2+H05261)
Strobe/Lamp Enabled: No (USB2+H05261)
Correct for Detector Non-linearity: No (USB2+H05261)
Correct for Stray Light: No (USB2+H05261)
Number of Pixels in Processed Spectrum: 2048
>>>>>Begin Processed Spectral Data<<<<<
365.73	37.45
365.92	37.45
366.12	37.45
366.32	0.00
366.52	0.00
366.72	23.41
366.91	0.00
367.11	0.00
367.31	0.00
367.51	0.00
367.70	0.00
367.90	0.00
368.10	0.00
368.30	0.00
368.49	0.00
368.69	0.00
368.89	0.00
369.09	0.00
369.28	0.00
369.48	9.36
369.68	0.00
369.87	79.58
370.07	0.00
370.27	46.81
370.47	72.56
370.66	63.19
370.86	84.26
371.06	229.37
371.25	196.60
371.45	98.30
371.65	145.11
371.84	140.43
372.04	191.92
372.24	135.75
372.44	212.99
372.63	248.10
372.83	182.56
373.03	269.16
373.22	135.75
373.42	145.11
373.62	208.31
373.81	203.63
374.01	196.60
374.21	236.39
374.40	234.05
374.60	203.63
374.79	194.26
374.99	234.05
375.19	166.18
375.38	224.69
375.58	229.37
375.78	276.18
375.97	187.24
376.17	301.93
376.37	294.91
376.56	283.20
376.76	203.63
376.95	163.84
377.15	241.08
377.35	271.50
377.54	182.56
377.74	203.63
377.93	196.60
378.13	212.99
378.33	217.67
378.52	252.78
378.72	224.69
378.91	250.44
379.11	191.92
379.31	217.67
379.50	163.84
379.70	259.80
379.89	250.44
380.09	184.90
380.28	198.95
380.48	243.42
380.68	198.95
380.87	212.99
381.07	126.39
381.26	173.20
381.46	217.67
381.65	191.92
381.85	208.31
382.04	257.46
382.24	259.80
382.43	205.97
382.63	205.97
382.83	224.69
383.02	227.03
383.22	292.57
383.41	215.33
383.61	276.18
383.80	234.05
384.00	224.69
384.19	187.24
384.39	269.16
384.58	220.01
384.78	269.16
384.97	287.89
385.17	208.31
385.36	269.16
385.56	241.08
385.75	241.08
385.95	290.23
386.14	287.89
386.34	241.08
386.53	287.89
386.72	308.95
386.92	250.44
387.11	245.76
387.31	294.91
387.50	241.08
387.70	304.27
387.89	257.46
388.09	299.59
388.28	346.40
388.48	241.08
388.67	266.82
388.86	315.97
389.06	257.46
389.25	299.59
389.45	280.86
389.64	301.93
389.84	344.06
390.03	283.20
390.22	320.65
390.42	280.86
390.61	266.82
390.81	325.33
391.00	250.44
391.19	311.29
391.39	262.14
391.58	334.70
391.78	318.31
391.97	297.25
392.16	290.23
392.36	362.78
392.55	278.52
392.75	278.52
392.94	346.40
393.13	351.08
393.33	229.37
393.52	236.39
393.71	283.20
393.91	264.48
394.10	259.80
394.29	262.14
394.49	376.83
394.68	280.86
394.88	341.72
395.07	327.68
395.26	283.20
395.46	259.80
395.65	334.70
395.84	337.04
396.04	395.55
396.23	308.95
396.42	297.25
396.62	306.61
396.81	339.38
397.00	407.25
397.19	379.17
397.39	369.80
397.58	414.27
397.77	353.42
397.97	330.02
398.16	421.30
398.35	337.04
398.55	318.31
398.74	428.32
398.93	379.17
399.12	400.23
399.32	353.42
399.51	379.17
399.70	404.91
399.90	372.15
400.09	386.19
400.28	379.17
400.47	435.34
400.67	395.55
400.86	411.93
401.05	461.09
401.24	433.00
401.44	393.21
401.63	456.40
401.82	442.36
402.01	400.23
402.21	374.49
402.40	365.12
402.59	414.27
402.78	477.47
402.97	374.49
403.17	411.93
403.36	428.32
403.55	421.30
403.74	362.78
403.93	521.94
404.13	519.60
404.32	500.87
404.51	479.81
404.70	484.49
404.89	440.02
405.09	543.00
405.28	540.66
405.47	454.06
405.66	524.28
405.85	514.92
406.05	519.60
406.24	472.79
406.43	421.30
406.62	477.47
406.81	554.71
407.00	503.22
407.20	477.47
407.39	540.66
407.58	557.05
407.77	557.05
407.96	561.73
408.15	514.92
408.34	585.13
408.54	580.45
408.73	573.43
408.92	519.60
409.11	606.20
409.30	641.31
409.49	526.62
409.68	545.34
409.87	589.82
410.07	531.30
410.26	531.30
410.45	589.82
410.64	573.43
410.83	631.94
411.02	643.65
411.21	685.78
411.40	704.50
411.59	681.10
411.78	627.26
411.98	643.65
412.17	681.10
412.36	568.75
412.55	634.29
412.74	664.71
412.93	648.33
413.12	615.56
413.31	678.76
413.50	709.18
413.69	648.33
413.88	650.67
414.07	741.95
414.26	704.50
414.45	779.40
414.64	709.18
414.83	763.01
415.02	723.23
415.22	828.55
415.41	791.10
415.60	777.06
415.79	758.33
415.98	828.55
416.17	734.93
416.36	828.55
416.55	791.10
416.74	805.14
416.93	847.27
417.12	814.51
417.31	856.64
417.50	880.04
417.69	847.27
417.88	873.02
418.07	842.59
418.26	870.68
418.45	802.80
418.64	931.53
418.83	884.72
419.02	851.96
419.21	856.64
419.39	880.04
419.58	760.67
419.77	835.57
419.96	847.27
420.15	908.13
420.34	875.36
420.53	891.74
420.72	947.92
420.91	926.85
421.10	903.45
421.29	1057.92
421.48	854.30
421.67	973.66
421.86	971.32
422.05	1015.79
422.24	1027.50
422.43	940.90
422.61	1001.75
422.80	1004.09
422.99	882.38
423.18	924.51
423.37	987.71
423.56	1074.31
423.75	1041.54
423.94	945.58
424.13	936.21
424.32	1025.15
424.50	945.58
424.69	1001.75
424.88	985.37
425.07	997.07
425.26	959.62
425.45	992.39
425.64	905.79
425.83	1048.56
426.01	1083.67
426.20	980.68
426.39	1078.99
426.58	950.26
426.77	1001.75
426.96	1027.50
427.15	1008.77
427.33	1046.22
427.52	973.66
427.71	1097.71
427.90	1071.97
428.09	1050.90
428.28	1036.86
428.46	1078.99
428.65	1008.77
428.84	1121.12
429.03	1078.99
429.22	1032.18
429.40	1142.18
429.59	1043.88
429.78	990.05
429.97	1050.90
430.16	931.53
430.34	1071.97
430.53	1086.01
430.72	1078.99
430.91	1055.58
431.10	1081.33
431.28	1156.22
431.47	1125.80
431.66	1076.65
431.85	1123.46
432.03	1137.50
432.22	1193.67
432.41	1083.67
432.60	1240.48
432.79	1172.61
432.97	1170.27
433.16	1123.46
433.35	1078.99
433.54	1128.14
433.72	1212.40
433.91	1193.67
434.10	1163.25
434.28	1249.85
434.47	1219.42
434.66	1125.80
434.85	1224.10
435.03	1306.02
435.22	1500.28
435.41	1568.16
435.59	1526.03
435.78	1502.62
435.97	1313.04
436.16	1296.66
436.34	1233.46
436.53	1324.74
436.72	1273.25
436.90	1322.40
437.09	1235.80
437.28	1221.76
437.46	1287.29
437.65	1233.46
437.84	1280.27
438.02	1343.47
438.21	1322.40
438.40	1324.74
438.58	1284.95
438.77	1394.96
438.96	1357.51
439.14	1446.45
439.33	1341.13
439.52	1387.94
439.70	1369.21
439.89	1390.28
440.08	1392.62
440.26	1409.00
440.45	1488.58
440.63	1383.26
440.82	1434.75
441.01	1320.06
441.19	1469.86
441.38	1476.88
441.57	1444.11
441.75	1523.69
441.94	1495.60
442.12	1584.54
442.31	1547.09
442.50	1507.30
442.68	1479.22
442.87	1357.51
443.05	1605.61
443.24	1502.62
443.43	1537.73
443.61	1600.93
443.80	1645.40
443.98	1535.39
444.17	1462.83
444.35	1521.35
444.54	1605.61
444.73	1577.52
444.91	1547.09
445.10	1540.07
445.28	1605.61
445.47	1558.80
445.65	1596.25
445.84	1598.59
446.02	1554.12
446.21	1437.09
446.39	1582.20
446.58	1671.14
446.77	1629.01
446.95	1575.18
447.14	1673.48
447.32	1680.50
447.51	1600.93
447.69	1584.54
447.88	1533.05
448.06	1633.69
448.25	1486.24
448.43	1621.99
448.62	1600.93
448.80	1612.63
448.99	1619.65
449.17	1652.42
449.36	1617.31
449.54	1666.46
449.73	1659.44
449.91	1645.40
450.10	1781.15
450.28	1755.40
450.46	1846.68
450.65	1729.66
450.83	1788.17
451.02	1767.10
451.20	1762.42
451.39	1790.51
451.57	1685.19
451.76	1741.36
451.94	1724.97
452.13	1678.16
452.31	1664.12
452.49	1717.95
452.68	1696.89
452.86	1785.83
453.05	1746.04
453.23	1778.81
453.42	1739.02
453.60	1682.85
453.78	1818.60
453.97	1750.72
454.15	1788.17
454.34	1748.38
454.52	1900.52
454.70	1722.63
454.89	1802.21
455.07	1816.26
455.26	1722.63
455.44	1905.20
455.62	1870.09
455.81	1877.11
455.99	1856.04
456.17	1837.32
456.36	1792.85
456.54	1940.30
456.73	1942.64
456.91	1947.33
457.09	1968.39
457.28	1893.49
457.46	2005.84
457.64	2026.90
457.83	1860.73
458.01	1935.62
458.19	2003.50
458.38	2059.67
458.56	1947.33
458.74	1963.71
458.93	2029.24
459.11	1930.94
459.29	1944.99
459.48	1921.58
459.66	1996.48
459.84	1968.39
460.03	2122.87
460.21	2033.93
460.39	2015.20
460.57	1989.46
460.76	2022.22
460.94	2136.91
461.12	2076.06
461.31	2092.44
461.49	2015.20
461.67	2071.37
461.85	2073.71
462.04	2108.82
462.22	2258.62
462.40	2052.65
462.59	2139.25
462.77	2071.37
462.95	2094.78
463.13	2148.61
463.32	2139.25
463.50	2106.48
463.68	2087.76
463.86	2228.19
464.05	2087.76
464.23	1989.46
464.41	2279.68
464.59	2188.40
464.78	2204.78
464.96	2193.08
465.14	2232.87
465.32	2118.18
465.50	2270.32
465.69	2122.87
465.87	2190.74
466.05	2216.49
466.23	2085.42
466.41	2085.42
466.60	2186.06
466.78	2169.68
466.96	2197.76
467.14	2190.74
467.32	2242.23
467.51	2291.38
467.69	2146.27
467.87	2270.32
468.05	2277.34
468.23	2256.28
468.41	2331.17
468.60	2225.85
468.78	2314.79
468.96	2349.90
469.14	2347.56
469.32	2263.30
469.50	2209.47
469.69	2303.09
469.87	2317.13
470.05	2272.66
470.23	2307.77
470.41	2228.19
470.59	2335.85
470.77	2438.84
470.95	2286.70
471.14	2375.64
471.32	2267.98
471.50	2450.54
471.68	2483.31
471.86	2532.46
472.04	2441.18
472.22	2436.50
472.40	2509.05
472.58	2480.97
472.77	2546.50
472.95	2612.04
473.13	2586.29
473.31	2572.25
473.49	2541.82
473.67	2532.46
473.85	2567.57
474.03	2654.17
474.21	2457.56
474.39	2642.46
474.57	2593.31
474.75	2656.51
474.93	2705.66
475.12	2597.99
475.30	2677.57
475.48	2654.17
475.66	2771.19
475.84	2668.21
476.02	2605.02
476.20	2642.46
476.38	2778.22
476.56	2738.43
476.74	2766.51
476.92	2717.36
477.10	2810.98
477.28	2848.43
477.46	2752.47
477.64	2949.08
477.82	2906.95
478.00	2960.78
478.18	2869.50
478.36	3038.02
478.54	3075.46
478.72	3070.78
478.90	3094.19
479.08	2965.46
479.26	3012.27
479.44	3220.58
479.62	3040.36
479.80	2970.14
479.98	3166.74
480.16	3279.09
480.34	3251.00
480.52	3187.81
480.70	3232.28
480.88	3311.86
481.06	3351.65
481.24	3304.84
481.41	3251.00
481.59	3358.67
481.77	3318.88
481.95	3410.16
482.13	3424.20
482.31	3419.52
482.49	3487.40
482.67	3475.70
482.85	3538.89
483.03	3595.06
483.21	3655.92
483.39	3590.38
483.57	3676.98
483.74	3681.66
483.92	3744.86
484.10	3599.74
484.28	3742.52
484.46	3946.14
484.64	3824.44
484.82	3955.51
485.00	3723.79
485.18	3896.99
485.35	3906.35
485.53	3908.69
485.71	3992.95
485.89	4095.94
486.07	3995.29
486.25	3990.61
486.43	4032.74
486.61	4117.00
486.78	4074.87
486.96	4182.54
487.14	4255.09
487.32	4117.00
487.50	4203.60
487.68	4409.57
487.85	4411.91
488.03	4418.93
488.21	4503.19
488.39	4407.23
488.57	4442.34
488.75	4381.48
488.92	4772.35
489.10	4608.51
489.28	4753.63
489.46	4542.98
489.64	4624.90
489.81	4660.01
489.99	4624.90
490.17	4702.14
490.35	4835.55
490.53	4835.55
490.70	4938.53
490.88	4842.57
491.06	4896.40
491.24	4954.91
491.41	4973.64
491.59	4994.70
491.77	5020.45
491.95	5109.39
492.13	5018.11
492.30	5184.29
492.48	5095.35
492.66	4990.02
492.84	5114.07
493.01	5153.86
493.19	5217.05
493.37	5394.93
493.54	5310.68
493.72	5205.35
493.90	5336.42
494.08	5336.42
494.25	5327.06
494.43	5369.19
494.61	5596.22
494.79	5430.04
494.96	5411.32
495.14	5446.43
495.32	5575.16
495.49	5731.97
495.67	5628.99
495.85	5645.37
496.02	5612.60
496.20	5652.39
496.38	5792.83
496.55	5867.72
496.73	6052.63
496.91	5778.78
497.09	5682.82
497.26	5729.63
497.44	5877.09
497.62	5834.96
497.79	5659.42
497.97	6022.20
498.14	5996.45
498.32	6043.26
498.50	6071.35
498.67	5982.41
498.85	6036.24
499.03	6092.41
499.20	6171.99
499.38	6216.46
499.56	6347.53
499.73	6265.61
499.91	6221.14
500.08	6331.15
500.26	6129.86
500.44	6375.62
500.61	6183.70
500.79	6319.45
500.97	6319.45
501.14	6380.30
501.32	6382.64
501.49	6464.56
501.67	6237.53
501.84	6485.62
502.02	6417.75
502.20	6736.06
502.37	6731.38
502.55	6548.82
502.72	6551.16
502.90	6455.20
503.07	6499.67
503.25	6612.01
503.43	6534.78
503.60	6719.68
503.78	6707.98
503.95	6654.14
504.13	6846.07
504.30	6593.29
504.48	6949.05
504.65	6836.70
504.83	6661.16
505.01	6757.13
505.18	6963.09
505.36	6820.32
505.53	6747.76
505.71	6927.99
505.88	6935.01
506.06	6855.43
506.23	6906.92
506.41	6967.77
506.58	6991.18
506.76	7002.88
506.93	6935.01
507.11	7056.72
507.28	7136.29
507.46	7033.31
507.63	7070.76
507.81	7059.06
507.98	7037.99
508.16	7089.48
508.33	7061.40
508.50	7307.15
508.68	7157.36
508.85	7281.41
509.03	7258.00
509.20	7419.50
509.38	7503.76
509.55	7344.60
509.73	7442.90
509.90	7227.57
510.08	7503.76
510.25	7222.89
510.42	7578.65
510.60	7470.99
510.77	7585.68
510.95	7590.36
511.12	7492.05
511.30	7478.01
511.47	7655.89
511.64	7620.78
511.82	7744.83
511.99	7810.37
512.17	7782.28
512.34	7534.18
512.51	7651.21
512.69	7854.84
512.86	7749.51
513.04	7906.33
513.21	7721.43
513.38	7672.28
513.56	7861.86
513.73	7714.41
513.90	7786.96
514.08	7744.83
514.25	7875.90
514.43	7871.22
514.60	7906.33
514.77	7829.09
514.95	7983.57
515.12	8032.72
515.29	8018.68
515.47	8205.92
515.64	8259.75
515.81	8070.17
515.99	8102.93
516.16	8194.22
516.33	8222.30
516.51	8079.53
516.68	8177.83
516.85	7990.59
517.03	8189.53
517.20	8248.05
517.37	8201.24
517.54	8182.51
517.72	8021.02
517.89	8159.11
518.06	8128.68
518.24	8121.66
518.41	8344.01
518.58	8205.92
518.75	8486.78
518.93	8430.61
519.10	8351.03
519.27	8472.74
519.45	8418.91
519.62	8386.14
519.79	8547.64
519.96	8355.71
520.14	8561.68
520.31	8528.91
520.48	8540.61
520.65	8486.78
520.83	8585.08
521.00	8383.80
521.17	8442.31
521.34	8519.55
521.52	8753.60
521.69	8650.62
521.86	8830.84
522.03	8681.05
522.20	8718.50
522.38	8875.31
522.55	8697.43
522.72	8603.81
522.89	8905.74
523.07	9006.38
523.24	8816.80
523.41	8784.03
523.58	8636.58
523.75	8858.93
523.92	8702.11
524.10	8762.97
524.27	8879.99
524.44	8877.65
524.61	9048.51
524.78	9029.79
524.96	9076.60
525.13	8919.78
525.30	9102.34
525.47	8959.57
525.64	8924.46
525.81	9018.08
525.98	9107.02
526.16	9111.71
526.33	8940.85
526.50	9050.85
526.67	8978.30
526.84	9252.14
527.01	8943.19
527.18	8819.14
527.36	9249.80
527.53	9217.03
527.70	9413.63
527.87	9441.72
528.04	9242.78
528.21	9137.45
528.38	9205.33
528.55	9144.47
528.72	9174.90
528.89	9397.25
529.07	9004.04
529.24	9362.14
529.41	9247.46
529.58	9369.16
529.75	9240.44
529.92	9423.00
530.09	9357.46
530.26	9467.47
530.43	9397.25
530.60	9324.69
530.77	9476.83
530.94	9544.70
531.11	9514.28
531.28	9348.10
531.46	9455.76
531.63	9369.16
531.80	9568.11
531.97	9748.33
532.14	9661.73
532.31	9497.89
532.48	9486.19
532.65	9710.88
532.82	9673.43
532.99	9582.15
533.16	9523.64
533.33	9628.96
533.50	9680.46
533.67	9863.02
533.84	9734.29
534.01	9694.50
534.18	9598.54
534.35	9617.26
534.52	9411.29
534.69	9809.19
534.86	9757.69
535.03	9973.02
535.20	9743.65
535.37	9685.14
535.54	9846.63
535.71	9525.98
535.88	9816.21
536.05	9837.27
536.22	9895.78
536.38	9774.08
536.55	10033.88
536.72	9942.60
536.89	9788.12
537.06	9823.23
537.23	10005.79
537.40	9856.00
537.57	9912.17
537.74	9811.53
537.91	10047.92
538.08	10033.88
538.25	9884.08
538.42	10052.60
538.59	10001.11
538.75	10076.01
538.92	10031.54
539.09	10071.33
539.26	10071.33
539.43	10036.22
539.60	10228.14
539.77	10195.37
539.94	10429.43
540.11	10108.77
540.28	10033.88
540.44	10368.57
540.61	10270.27
540.78	10410.70
540.95	10384.96
541.12	10443.47
541.29	10483.26
541.46	10579.22
541.62	10443.47
541.79	10387.30
541.96	10485.60
542.13	10457.51
542.30	10464.54
542.47	10597.95
542.63	10686.89
542.80	10651.78
542.97	10597.95
543.14	10537.09
543.31	10822.64
543.48	10630.71
543.64	10963.07
543.81	10824.98
543.98	10714.97
544.15	10628.37
544.32	10806.25
544.48	10532.41
544.65	10698.59
544.82	10644.76
544.99	10443.47
545.16	10813.28
545.32	10768.80
545.49	11042.65
545.66	11178.40
545.83	11485.01
546.00	11365.64
546.16	10920.94
546.33	10995.84
546.50	10696.25
546.67	10565.18
546.83	10654.12
547.00	10813.28
547.17	10630.71
547.34	10471.56
547.50	10644.76
547.67	10883.49
547.84	10707.95
548.00	10743.06
548.17	10609.65
548.34	10773.49
548.51	10768.80
548.67	10813.28
548.84	10839.02
549.01	10757.10
549.18	10920.94
549.34	10778.17
549.51	10860.09
549.68	10806.25
549.84	10679.86
550.01	10782.85
550.18	10930.30
550.34	10827.32
550.51	10726.68
550.68	11052.01
550.84	10817.96
551.01	10736.04
551.18	10698.59
551.34	10949.03
551.51	10726.68
551.68	10892.85
551.84	10930.30
552.01	10974.77
552.18	10829.66
552.34	10808.59
552.51	11044.99
552.68	10867.11
552.84	10918.60
553.01	10993.50
553.18	11070.73
553.34	11133.93
553.51	10696.25
553.67	10876.47
553.84	11197.12
554.01	10951.37
554.17	10920.94
554.34	11028.60
554.51	11112.86
554.67	11199.46
554.84	10913.92
555.00	11014.56
555.17	10792.21
555.33	10820.30
555.50	10883.49
555.67	11091.80
555.83	10927.96
556.00	10874.13
556.16	10927.96
556.33	10960.73
556.50	10853.06
556.66	11026.26
556.83	11030.94
556.99	10988.82
557.16	11115.20
557.32	11129.25
557.49	11180.74
557.65	10986.47
557.82	10885.83
557.98	11007.54
558.15	11040.31
558.32	11232.23
558.48	11222.87
558.65	11075.42
558.81	11119.89
558.98	11073.07
559.14	10918.60
559.31	11234.57
559.47	11002.86
559.64	11192.44
559.80	11192.44
559.97	11201.80
560.13	11145.63
560.30	11042.65
560.46	11159.67
560.63	11234.57
560.79	11246.27
560.96	10979.45
561.12	11185.42
561.29	11213.51
561.45	11140.95
561.61	11140.95
561.78	11501.39
561.94	11185.42
562.11	11201.80
562.27	11126.91
562.44	10855.40
562.60	11152.65
562.77	11084.78
562.93	11089.46
563.10	10930.30
563.26	11089.46
563.42	11393.73
563.59	11398.41
563.75	11190.10
563.92	11346.92
564.08	11335.21
564.24	11328.19
564.41	11400.75
564.57	11026.26
564.74	11309.47
564.90	11382.03
565.07	11480.33
565.23	11339.90
565.39	11248.61
565.56	11166.70
565.72	11391.39
565.88	11375.00
566.05	11243.93
566.21	10965.41
566.38	11187.76
566.54	11178.40
566.70	11321.17
566.87	11290.74
567.03	11267.34
567.19	11482.67
567.36	11454.58
567.52	11115.20
567.68	11286.06
567.85	11084.78
568.01	11372.66
568.17	11211.17
568.34	11400.75
568.50	11449.90
568.66	11087.12
568.83	11609.06
568.99	11391.39
569.15	11433.52
569.32	11426.50
569.48	11162.01
569.64	11417.13
569.81	11269.68
569.97	11243.93
570.13	11393.73
570.30	11389.05
570.46	11136.27
570.62	11197.12
570.78	11229.89
570.95	11403.09
571.11	11447.56
571.27	11335.21
571.43	11101.16
571.60	11447.56
571.76	11389.05
571.92	11585.65
572.09	11218.19
572.25	11489.69
572.41	11260.32
572.57	11262.66
572.74	11269.68
572.90	11367.98
573.06	11548.20
573.22	11187.76
573.38	11089.46
573.55	11440.54
573.71	11660.55
573.87	11302.45
574.03	11190.10
574.20	11344.58
574.36	11323.51
574.52	11288.40
574.68	11449.90
574.84	11398.41
575.01	11456.92
575.17	11403.09
575.33	11215.85
575.49	11281.38
575.65	11592.67
575.82	11485.01
575.98	11290.74
576.14	11318.83
576.30	11618.42
576.46	11618.42
576.62	11379.68
576.79	11428.84
576.95	11346.92
577.11	11499.05
577.27	11548.20
577.43	11286.06
577.59	11433.52
577.75	11253.30
577.92	11536.50
578.08	11311.81
578.24	11265.00
578.40	11286.06
578.56	11571.61
578.72	11702.68
578.88	11585.65
579.04	11658.21
579.21	11267.34
579.37	11407.77
579.53	11431.18
579.69	11304.79
579.85	11293.08
580.01	11510.75
580.17	11424.15
580.33	11414.79
580.49	11477.99
580.65	11552.88
580.82	11910.99
580.98	11632.46
581.14	11669.91
581.30	11578.63
581.46	11410.11
581.62	11508.41
581.78	11332.87
581.94	11719.06
582.10	11250.96
582.26	11520.12
582.42	11527.14
582.58	11480.33
582.74	11698.00
582.90	11281.38
583.06	11496.71
583.22	11445.22
583.38	11641.82
583.54	11442.88
583.70	11623.10
583.86	11499.05
584.02	11473.31
584.18	11485.01
584.34	11545.86
584.50	11468.62
584.66	11501.39
584.82	11463.94
584.98	11438.20
585.14	11482.67
585.30	11580.97
585.46	11194.78
585.62	11524.80
585.78	11623.10
585.94	11356.28
586.10	11602.04
586.26	11597.35
586.42	11552.88
586.58	11559.91
586.74	11634.80
586.90	11463.94
587.06	11623.10
587.22	11587.99
587.38	11599.70
587.54	11644.17
587.70	11576.29
587.86	11700.34
588.02	11637.14
588.18	11447.56
588.34	11576.29
588.49	11449.90
588.65	11669.91
588.81	11288.40
588.97	11499.05
589.13	11463.94
589.29	11410.11
589.45	11620.76
589.61	11676.93
589.77	11412.45
589.93	11482.67
590.08	11639.48
590.24	11573.95
590.40	11527.14
590.56	11646.51
590.72	11477.99
590.88	11524.80
591.04	11751.83
591.20	11716.72
591.35	11744.81
591.51	11609.06
591.67	11662.89
591.83	11583.31
591.99	11611.40
592.15	11630.12
592.31	11669.91
592.46	11566.93
592.62	11510.75
592.78	11578.63
592.94	11353.94
593.10	11651.19
593.26	11499.05
593.41	11431.18
593.57	11763.53
593.73	11779.92
593.89	11587.99
594.05	11721.40
594.20	11648.85
594.36	11435.86
594.52	11543.52
594.68	11442.88
594.84	11522.46
594.99	11452.24
595.15	11634.80
595.31	11705.02
595.47	11506.07
595.62	11655.87
