SpectraSuite Data File
++++++++++++++++++++++++++++++++++++
Date: Fri Oct 04 11:39:28 GMT-05:00 2013
User: price-jones
Dark Spectrum Present: No
Reference Spectrum Present: No
Number of Sampled Component Spectra: 1
Spectrometers: USB2+H05261
Integration Time (usec): 100000 (USB2+H05261)
Spectra Averaged: 1 (USB2+H05261)
Boxcar Smoothing: 0 (USB2+H05261)
Correct for Electrical Dark: No (USB2+H05261)
Strobe/Lamp Enabled: No (USB2+H05261)
Correct for Detector Non-linearity: No (USB2+H05261)
Correct for Stray Light: No (USB2+H05261)
Number of Pixels in Processed Spectrum: 2048
>>>>>Begin Processed Spectral Data<<<<<
365.73	18.72
365.92	18.72
366.12	18.72
366.32	0.00
366.52	0.00
366.72	0.00
366.91	0.00
367.11	0.00
367.31	0.00
367.51	0.00
367.70	0.00
367.90	0.00
368.10	0.00
368.30	2.34
368.49	0.00
368.69	0.00
368.89	0.00
369.09	0.00
369.28	0.00
369.48	0.00
369.68	0.00
369.87	14.04
370.07	9.36
370.27	4.68
370.47	0.00
370.66	124.05
370.86	110.01
371.06	110.01
371.25	159.16
371.45	126.39
371.65	215.33
371.84	140.43
372.04	159.16
372.24	241.08
372.44	175.54
372.63	203.63
372.83	170.86
373.03	126.39
373.22	182.56
373.42	168.52
373.62	227.03
373.81	229.37
374.01	259.80
374.21	194.26
374.40	255.12
374.60	238.73
374.79	250.44
374.99	142.77
375.19	234.05
375.38	107.66
375.58	236.39
375.78	255.12
375.97	280.86
376.17	325.33
376.37	245.76
376.56	287.89
376.76	187.24
376.95	224.69
377.15	215.33
377.35	229.37
377.54	271.50
377.74	262.14
377.93	227.03
378.13	205.97
378.33	257.46
378.52	184.90
378.72	198.95
378.91	250.44
379.11	276.18
379.31	227.03
379.50	234.05
379.70	208.31
379.89	203.63
380.09	250.44
380.28	135.75
380.48	259.80
380.68	191.92
380.87	234.05
381.07	194.26
381.26	203.63
381.46	271.50
381.65	285.55
381.85	269.16
382.04	330.02
382.24	318.31
382.43	278.52
382.63	191.92
382.83	229.37
383.02	234.05
383.22	299.59
383.41	273.84
383.61	290.23
383.80	299.59
384.00	220.01
384.19	243.42
384.39	191.92
384.58	208.31
384.78	287.89
384.97	327.68
385.17	280.86
385.36	182.56
385.56	304.27
385.75	236.39
385.95	234.05
386.14	325.33
386.34	238.73
386.53	283.20
386.72	252.78
386.92	264.48
387.11	294.91
387.31	311.29
387.50	304.27
387.70	229.37
387.89	306.61
388.09	255.12
388.28	308.95
388.48	299.59
388.67	297.25
388.86	290.23
389.06	332.36
389.25	308.95
389.45	348.74
389.64	245.76
389.84	304.27
390.03	285.55
390.22	346.40
390.42	332.36
390.61	297.25
390.81	229.37
391.00	313.63
391.19	383.85
391.39	360.44
391.58	383.85
391.78	353.42
391.97	337.04
392.16	386.19
392.36	390.87
392.55	376.83
392.75	390.87
392.94	339.38
393.13	423.64
393.33	365.12
393.52	330.02
393.71	414.27
393.91	402.57
394.10	376.83
394.29	451.72
394.49	341.72
394.68	463.43
394.88	444.70
395.07	390.87
395.26	400.23
395.46	414.27
395.65	374.49
395.84	472.79
396.04	465.77
396.23	442.36
396.42	442.36
396.62	421.30
396.81	451.72
397.00	503.22
397.19	514.92
397.39	418.96
397.58	449.38
397.77	407.25
397.97	477.47
398.16	456.40
398.35	496.19
398.55	524.28
398.74	505.56
398.93	540.66
399.12	524.28
399.32	547.69
399.51	519.60
399.70	521.94
399.90	557.05
400.09	521.94
400.28	552.37
400.47	552.37
400.67	554.71
400.86	491.51
401.05	535.98
401.24	587.47
401.44	669.39
401.63	606.20
401.82	582.79
402.01	645.99
402.21	578.11
402.40	622.58
402.59	606.20
402.78	655.35
402.97	627.26
403.17	692.80
403.36	645.99
403.55	627.26
403.74	671.73
403.93	791.10
404.13	828.55
404.32	765.36
404.51	741.95
404.70	758.33
404.89	746.63
405.09	847.27
405.28	753.65
405.47	791.10
405.66	828.55
405.85	847.27
406.05	800.46
406.24	880.04
406.43	851.96
406.62	940.90
406.81	973.66
407.00	910.47
407.20	889.40
407.39	868.34
407.58	891.74
407.77	837.91
407.96	985.37
408.15	875.36
408.34	940.90
408.54	990.05
408.73	912.81
408.92	1029.84
409.11	1004.09
409.30	1027.50
409.49	1034.52
409.68	976.00
409.87	1050.90
410.07	1078.99
410.26	1034.52
410.45	1104.73
410.64	1090.69
410.83	1200.69
411.02	1160.91
411.21	1125.80
411.40	1095.37
411.59	1114.10
411.78	1249.85
411.98	1242.82
412.17	1221.76
412.36	1263.89
412.55	1214.74
412.74	1273.25
412.93	1284.95
413.12	1315.38
413.31	1383.26
413.50	1362.19
413.69	1369.21
413.88	1472.20
414.07	1378.58
414.26	1427.73
414.45	1427.73
414.64	1425.39
414.83	1544.75
415.02	1451.13
415.22	1526.03
415.41	1481.56
415.60	1507.30
415.79	1537.73
415.98	1661.78
416.17	1640.72
416.36	1652.42
416.55	1631.35
416.74	1673.48
416.93	1675.82
417.12	1659.44
417.31	1774.13
417.50	1804.55
417.69	1769.44
417.88	1729.66
418.07	1783.49
418.26	1802.21
418.45	1830.30
418.64	1921.58
418.83	1818.60
419.02	1823.28
419.21	1980.09
419.39	1914.56
419.58	1870.09
419.77	1898.17
419.96	1933.28
420.15	1909.88
420.34	1942.64
420.53	2045.63
420.72	2092.44
420.91	2045.63
421.10	2022.22
421.29	2031.58
421.48	2078.40
421.67	2113.50
421.86	2031.58
422.05	2071.37
422.24	1975.41
422.43	2115.84
422.61	2172.02
422.80	2057.33
422.99	2078.40
423.18	2172.02
423.37	2265.64
423.56	2122.87
423.75	2155.63
423.94	2101.80
424.13	2022.22
424.32	2062.01
424.50	2136.91
424.69	2207.13
424.88	2385.01
425.07	2136.91
425.26	2047.97
425.45	2165.00
425.64	2221.17
425.83	2113.50
426.01	2230.53
426.20	2183.72
426.39	2235.21
426.58	2200.10
426.77	2211.81
426.96	2317.13
427.15	2165.00
427.33	2289.04
427.52	2202.44
427.71	2415.43
427.90	2333.51
428.09	2305.43
428.28	2326.49
428.46	2403.73
428.65	2385.01
428.84	2401.39
429.03	2502.03
429.22	2303.09
429.40	2452.88
429.59	2420.11
429.78	2303.09
429.97	2438.84
430.16	2495.01
430.34	2567.57
430.53	2480.97
430.72	2464.58
430.91	2511.39
431.10	2420.11
431.28	2574.59
431.47	2597.99
431.66	2569.91
431.85	2523.10
432.03	2628.42
432.22	2700.98
432.41	2654.17
432.60	2698.64
432.79	2605.02
432.97	2747.79
433.16	2719.70
433.35	2693.96
433.54	2764.17
433.72	2729.06
433.91	2757.15
434.10	2691.62
434.28	2827.37
434.47	2733.75
434.66	2818.00
434.85	2864.82
435.03	2836.73
435.22	2949.08
435.41	3222.92
435.59	3047.38
435.78	3101.21
435.97	3030.99
436.16	2958.44
436.34	2932.69
436.53	2869.50
436.72	3019.29
436.90	2867.16
437.09	2843.75
437.28	2932.69
437.46	2939.71
437.65	2972.48
437.84	3002.91
438.02	2869.50
438.21	2979.50
438.40	3068.44
438.58	2963.12
438.77	2958.44
438.96	3122.27
439.14	3070.78
439.33	3157.38
439.52	3246.32
439.70	3159.72
439.89	3096.53
440.08	3183.13
440.26	3208.87
440.45	3197.17
440.63	3297.81
440.82	3321.22
441.01	3349.31
441.19	3232.28
441.38	3543.57
441.57	3478.04
441.75	3496.76
441.94	3576.34
442.12	3611.45
442.31	3604.42
442.50	3562.30
442.68	3541.23
442.87	3548.25
443.05	3665.28
443.24	3784.65
443.43	3712.09
443.61	3719.11
443.80	3756.56
443.98	3604.42
444.17	3480.38
444.35	3630.17
444.54	3719.11
444.73	3620.81
444.91	3684.00
445.10	3763.58
445.28	3695.71
445.47	3719.11
445.65	3641.87
445.84	3655.92
446.02	3861.88
446.21	3730.81
446.39	3728.47
446.58	3810.39
446.77	3822.09
446.95	3669.96
447.14	3763.58
447.32	3936.78
447.51	3805.71
447.69	3871.25
447.88	3747.20
448.06	3667.62
448.25	3786.99
448.43	3864.22
448.62	3847.84
448.80	3791.67
448.99	3719.11
449.17	3866.56
449.36	3878.27
449.54	3868.91
449.73	3967.21
449.91	3906.35
450.10	4014.02
450.28	4147.43
450.46	3929.76
450.65	3950.82
450.83	4023.38
451.02	4079.55
451.20	4156.79
451.39	4032.74
451.57	4086.58
451.76	4023.38
451.94	4079.55
452.13	4117.00
452.31	4138.07
452.49	4032.74
452.68	4030.40
452.86	4018.70
453.05	4322.97
453.23	4100.62
453.42	4163.81
453.60	4168.49
453.78	4236.37
453.97	4105.30
454.15	4128.70
454.34	4152.11
454.52	4372.12
454.70	4362.76
454.89	4308.93
455.07	4287.86
455.26	4215.30
455.44	4428.29
455.62	4489.15
455.81	4393.19
455.99	4402.55
456.17	4379.14
456.36	4554.68
456.54	4463.40
456.73	4573.41
456.91	4531.28
457.09	4526.60
457.28	4793.42
457.46	4407.23
457.64	4844.91
457.83	4650.64
458.01	4496.17
458.19	4587.45
458.38	4676.39
458.56	4631.92
458.74	4608.51
458.93	4667.03
459.11	4468.08
459.29	4720.86
459.48	4751.29
459.66	4676.39
459.84	4748.95
460.03	4929.17
460.21	4938.53
460.39	4943.21
460.57	4870.65
460.76	5027.47
460.94	5078.96
461.12	5025.13
461.31	4915.12
461.49	4990.02
461.67	4847.25
461.85	5125.77
462.04	5018.11
462.22	5174.92
462.40	5104.71
462.59	5102.37
462.77	4978.32
462.95	5029.81
463.13	5036.83
463.32	5008.75
463.50	5198.33
463.68	5036.83
463.86	5095.35
464.05	5046.20
464.23	5118.75
464.41	5233.44
464.59	5064.92
464.78	5233.44
464.96	5207.69
465.14	5317.70
465.32	5303.65
465.50	5275.57
465.69	5418.34
465.87	5181.95
466.05	5275.57
466.23	5338.76
466.41	5221.74
466.60	5486.22
466.78	5275.57
466.96	5432.38
467.14	5301.31
467.32	5334.08
467.51	5383.23
467.69	5301.31
467.87	5397.28
468.05	5455.79
468.23	5366.85
468.41	5408.98
468.60	5507.28
468.78	5493.24
468.96	5626.65
469.14	5624.31
469.32	5638.35
469.50	5427.70
469.69	5680.48
469.87	5760.06
470.05	5617.29
470.23	5771.76
470.41	5619.63
470.59	5743.67
470.77	5645.37
470.95	5507.28
471.14	5968.37
471.32	5748.36
471.50	5846.66
471.68	5856.02
471.86	5886.45
472.04	5813.89
472.22	5961.34
472.40	5949.64
472.58	6059.65
472.77	5914.53
472.95	6282.00
473.13	6352.21
473.31	6237.53
473.49	6125.18
473.67	6188.38
473.85	6312.42
474.03	6232.85
474.21	6342.85
474.39	6277.32
474.57	6581.59
474.75	6661.16
474.93	6710.32
475.12	6607.33
475.30	6492.65
475.48	6560.52
475.66	6518.39
475.84	6509.03
476.02	6593.29
476.20	6801.60
476.38	6698.61
476.56	6953.73
476.74	6883.52
476.92	6857.77
477.10	6881.18
477.28	6984.16
477.46	6925.65
477.64	7061.40
477.82	7098.84
478.00	7360.98
478.18	7468.65
478.36	7386.73
478.54	7419.50
478.72	7262.68
478.90	7506.10
479.08	7475.67
479.26	7569.29
479.44	7702.70
479.62	7817.39
479.80	7660.57
479.98	7817.39
480.16	7779.94
480.34	7969.52
480.52	8168.47
480.70	8191.88
480.88	8065.49
481.06	8217.62
481.24	7960.16
481.41	8051.44
481.59	8271.45
481.77	8308.90
481.95	8248.05
482.13	8477.42
482.31	8280.82
482.49	8524.23
482.67	8678.71
482.85	9046.17
483.03	8730.20
483.21	8802.75
483.39	8854.25
483.57	8957.23
483.74	8922.12
483.92	9202.99
484.10	9090.64
484.28	9516.62
484.46	9643.01
484.64	9671.09
484.82	9254.48
485.00	9523.64
485.18	10029.20
485.35	9874.72
485.53	9486.19
485.71	9975.36
485.89	10010.47
486.07	10066.64
486.25	10043.24
486.43	10092.39
486.61	10157.92
486.78	10382.62
486.96	10478.58
487.14	10413.04
487.32	10658.80
487.50	10623.69
487.68	10621.35
487.85	10712.63
488.03	10892.85
488.21	10918.60
488.39	10832.00
488.57	11005.20
488.75	11056.69
488.92	11461.60
489.10	11136.27
489.28	11225.21
489.46	11609.06
489.64	11513.10
489.81	11726.08
489.99	11765.87
490.17	11840.77
490.35	12163.76
490.53	12009.29
490.70	11936.73
490.88	11885.24
491.06	12208.23
491.24	12208.23
491.41	12271.43
491.59	12362.71
491.77	12533.57
491.95	12617.83
492.13	12379.09
492.30	12758.26
492.48	12746.56
492.66	12662.30
492.84	12734.85
493.01	12816.77
493.19	13050.83
493.37	13378.50
493.54	13280.20
493.72	13418.29
493.90	13359.78
494.08	13310.63
494.25	13434.68
494.43	13687.45
494.61	13783.41
494.79	13914.48
494.96	13949.59
495.14	13767.03
495.32	14029.17
495.49	14073.64
495.67	14111.09
495.85	14099.39
496.02	14387.27
496.20	14256.20
496.38	14260.88
496.55	14443.45
496.73	14366.21
496.91	14466.85
497.09	14789.85
497.26	14766.44
497.44	14555.79
497.62	14740.69
497.79	14981.77
497.97	14848.36
498.14	15279.02
498.32	15295.40
498.50	15257.95
498.67	15428.81
498.85	15012.20
499.03	15365.62
499.20	15452.22
499.38	15552.86
499.56	15852.45
499.73	15819.68
499.91	15639.46
500.08	16079.48
500.26	15817.34
500.44	15777.55
500.61	15868.83
500.79	16074.80
500.97	15967.13
501.14	16231.62
501.32	16236.30
501.49	16161.40
501.67	16418.86
501.84	16341.62
502.02	16456.31
502.20	16723.13
502.37	16863.56
502.55	16620.14
502.72	16711.42
502.90	16681.00
503.07	16849.52
503.25	16957.18
503.43	16655.25
503.60	16800.37
503.78	16987.61
503.95	16922.07
504.13	17062.51
504.30	16875.26
504.48	17165.49
504.65	17277.83
504.83	17287.20
505.01	17776.37
505.18	17509.55
505.36	17628.92
505.53	17525.93
505.71	17469.76
505.88	17474.44
506.06	17362.09
506.23	18036.17
506.41	17788.07
506.58	17949.57
506.76	17722.54
506.93	17755.30
507.11	17996.38
507.28	18045.53
507.46	17933.18
507.63	18202.35
507.81	18160.22
507.98	18279.58
508.16	18293.63
508.33	18537.04
508.50	18445.76
508.68	18747.69
508.85	18499.59
509.03	18314.69
509.20	18775.78
509.38	18890.46
509.55	18902.17
509.73	18890.46
509.90	18963.02
510.08	19082.39
510.25	18853.02
510.42	19183.03
510.60	19033.24
510.77	19152.60
510.95	19054.30
511.12	19108.13
511.30	19506.02
511.47	19171.33
511.64	19620.71
511.82	19538.79
511.99	19323.46
512.17	19807.95
512.34	19452.19
512.51	19637.09
512.69	19674.54
512.86	19873.49
513.04	19765.82
513.21	20095.84
513.38	19885.19
513.56	19960.09
513.73	20259.68
513.90	20009.24
514.08	19992.86
514.25	20233.93
514.43	20486.71
514.60	20484.37
514.77	20463.30
514.95	20327.55
515.12	20641.18
515.29	20414.15
515.47	20734.81
515.64	20683.31
515.81	20767.57
515.99	20933.75
516.16	21032.05
516.33	20947.79
516.51	20982.90
516.68	20924.39
516.85	20961.84
517.03	21123.33
517.20	21060.14
517.37	21097.59
517.54	21167.80
517.72	21181.85
517.89	21235.68
518.06	21195.89
518.24	21228.66
518.41	21387.82
518.58	21631.23
518.75	21488.46
518.93	21771.66
519.10	21678.04
519.27	21589.10
519.45	21369.09
519.62	22029.12
519.79	21598.46
519.96	21542.29
520.14	21965.93
520.31	21682.72
520.48	22017.42
520.65	22089.98
520.83	22223.39
521.00	21989.33
521.17	22284.24
521.34	22160.19
521.52	22384.88
521.69	22256.15
521.86	22656.39
522.03	22548.72
522.20	22532.34
522.38	22483.19
522.55	22707.88
522.72	22394.25
522.89	22733.62
523.07	23180.67
523.24	22707.88
523.41	22654.05
523.58	22419.99
523.75	22817.88
523.92	22778.09
524.10	23016.83
524.27	23026.19
524.44	22855.33
524.61	23531.75
524.78	22810.86
524.96	23058.96
525.13	23592.60
525.30	23276.63
525.47	23435.78
525.64	23173.64
525.81	23330.46
525.98	23431.10
526.16	23274.29
526.33	23616.01
526.50	23616.01
526.67	23606.64
526.84	23342.16
527.01	23442.81
527.18	23494.30
527.36	23885.17
527.53	23868.78
527.70	24081.77
527.87	24020.92
528.04	24027.94
528.21	23920.28
528.38	23861.76
528.55	24116.88
528.72	24173.05
528.89	24442.21
529.07	24252.63
529.24	24002.19
529.41	24313.48
529.58	24102.84
529.75	24261.99
529.92	24531.15
530.09	24261.99
530.26	24411.79
530.43	24336.89
530.60	24519.45
530.77	24219.86
530.94	24526.47
531.11	24414.13
531.28	24332.21
531.46	24130.92
531.63	24339.23
531.80	24774.57
531.97	24610.73
532.14	25247.36
532.31	24774.57
532.48	25036.71
532.65	25034.37
532.82	24617.75
532.99	24805.00
533.16	24954.79
533.33	25212.25
533.50	25448.64
533.67	25245.02
533.84	25015.65
534.01	25060.12
534.18	25151.40
534.35	25345.66
534.52	25167.78
534.69	25362.04
534.86	25486.09
535.03	25493.12
535.20	25298.85
535.37	25621.84
535.54	25572.69
535.71	25214.59
535.88	25479.07
536.05	25675.68
536.22	25462.69
536.38	26162.51
536.55	25940.16
536.72	25340.98
536.89	25675.68
537.06	25659.29
537.23	25745.89
537.40	25858.24
537.57	25858.24
537.74	25811.43
537.91	26111.02
538.08	26218.68
538.25	25888.67
538.42	25572.69
538.59	25923.77
538.75	25832.49
538.92	25989.31
539.09	26113.36
539.26	26373.16
539.43	26272.51
539.60	26160.17
539.77	26139.10
539.94	26852.97
540.11	26370.82
540.28	26478.48
540.44	26314.64
540.61	26450.39
540.78	25998.67
540.95	26934.88
541.12	27122.13
541.29	27175.96
541.46	26799.13
541.62	26684.45
541.79	27222.77
541.96	26513.59
542.13	26972.33
542.30	27190.00
542.47	27288.31
542.63	27292.99
542.80	27365.54
542.97	27243.84
543.14	27587.89
543.31	27585.55
543.48	27115.11
543.64	27419.38
543.81	27735.35
543.98	27522.36
544.15	27470.87
544.32	27225.11
544.48	27641.73
544.65	27372.57
544.82	27725.99
544.99	27466.19
545.16	27707.26
545.32	27597.26
545.49	28402.40
545.66	29055.41
545.83	28896.25
546.00	28879.87
546.16	28137.92
546.33	27833.65
546.50	27391.29
546.67	28053.66
546.83	27669.81
547.00	27754.07
547.17	28009.19
547.34	27946.00
547.50	28004.51
547.67	28077.07
547.84	27999.83
548.00	27920.25
548.17	28009.19
548.34	27889.82
548.51	28175.37
548.67	28261.97
548.84	28292.40
549.01	27936.63
549.18	27908.55
549.34	28210.48
549.51	27810.25
549.68	28294.74
549.84	27817.27
550.01	28048.98
550.18	28158.99
550.34	28341.55
550.51	28320.48
550.68	28634.11
550.84	27974.08
551.01	28257.29
551.18	28245.58
551.34	27995.15
551.51	28151.96
551.68	28507.72
551.84	28046.64
552.01	28577.94
552.18	28060.68
552.34	28496.02
552.51	28524.11
552.68	28004.51
552.84	28196.43
553.01	28393.04
553.18	28512.41
553.34	28371.97
553.51	28643.48
553.67	28821.36
553.84	28758.16
554.01	28308.78
554.17	28189.41
554.34	28526.45
554.51	28479.64
554.67	28376.66
554.84	28315.80
555.00	28561.56
555.17	28580.28
555.33	28240.90
555.50	28563.90
555.67	28376.66
555.83	28591.98
556.00	28620.07
556.16	28943.06
556.33	28357.93
556.50	28748.80
556.66	28814.34
556.83	28699.65
556.99	28854.12
557.16	28964.13
557.32	28741.78
557.49	29062.43
557.65	28610.71
557.82	28620.07
557.98	28535.81
558.15	28858.81
558.32	29017.96
558.48	28788.59
558.65	28999.24
558.81	28804.97
558.98	29034.35
559.14	29123.29
559.31	28833.06
559.47	28774.55
559.64	29081.16
559.80	28879.87
559.97	29144.35
560.13	28950.09
560.30	28797.95
560.46	29017.96
560.63	29083.50
560.79	29390.11
560.96	28978.17
561.12	28992.22
561.29	28634.11
561.45	28886.89
561.61	29006.26
561.78	28978.17
561.94	29167.76
562.11	29127.97
562.27	28683.27
562.44	29214.57
562.60	29001.58
562.77	29186.48
562.93	29174.78
563.10	29067.11
563.26	29497.77
563.42	29635.86
563.59	28973.49
563.75	29343.30
563.92	29436.92
564.08	29205.20
564.24	29097.54
564.41	29125.63
564.57	28828.38
564.74	29226.27
564.90	29481.39
565.07	28914.98
565.23	29518.84
565.39	29518.84
565.56	29427.56
565.72	29240.31
565.88	29486.07
566.05	29188.82
566.21	29261.38
566.38	29399.47
566.54	29305.85
566.70	29523.52
566.87	29544.58
567.03	29539.90
567.19	29380.74
567.36	29673.31
567.52	29273.08
567.68	29212.23
567.85	29556.28
568.01	29502.45
568.17	29233.29
568.34	29256.70
568.50	29809.06
568.66	29579.69
568.83	29467.34
568.99	29270.74
569.15	29137.33
569.32	28952.43
569.48	29226.27
569.64	29315.21
569.81	29415.85
569.97	29450.96
570.13	29663.95
570.30	29221.59
570.46	29355.00
570.62	29509.47
570.78	29696.72
570.95	29254.36
571.11	29551.60
571.27	29074.13
571.43	29036.69
571.60	29701.40
571.76	29560.97
571.92	29490.75
572.09	29404.15
572.25	29600.76
572.41	29567.99
572.57	29383.09
572.74	29504.79
572.90	29476.71
573.06	29289.46
573.22	29780.98
573.38	29387.77
573.55	29656.93
573.71	29378.40
573.87	29900.34
574.03	29474.37
574.20	29495.43
574.36	28999.24
574.52	29460.32
574.68	29769.27
574.84	29752.89
575.01	29783.32
575.17	30003.33
575.33	29448.62
575.49	29605.44
575.65	29673.31
575.82	29640.54
575.98	29687.36
576.14	29736.51
576.30	29612.46
576.46	29720.12
576.62	29441.60
576.79	29633.52
576.95	29893.32
577.11	29823.11
577.27	29502.45
577.43	29727.14
577.59	29876.94
577.75	29661.61
577.92	29509.47
578.08	29359.68
578.24	29352.66
578.40	29560.97
578.56	29591.39
578.72	29713.10
578.88	29972.90
579.04	30309.94
579.21	29799.70
579.37	29731.83
579.53	29443.94
579.69	29371.38
579.85	29713.10
580.01	29972.90
580.17	29102.22
580.33	29907.37
580.49	29816.08
580.65	29776.30
580.82	30202.27
580.98	29481.39
581.14	29532.88
581.30	29961.20
581.46	29223.93
581.62	29450.96
581.78	29706.08
581.94	29900.34
582.10	29490.75
582.26	29979.92
582.42	29481.39
582.58	29708.42
582.74	29991.62
582.90	29727.14
583.06	29867.58
583.22	29570.33
583.38	29572.67
583.54	29795.02
583.70	29465.00
583.86	29862.90
584.02	29666.29
584.18	29862.90
584.34	29867.58
584.50	29874.60
584.66	29694.38
584.82	29731.83
584.98	29841.83
585.14	29582.03
585.30	29687.36
585.46	29439.26
585.62	29493.09
585.78	30141.42
585.94	29418.19
586.10	29998.65
586.26	29792.68
586.42	29905.02
586.58	30031.41
586.74	29788.00
586.90	29846.51
587.06	29504.79
587.22	29825.45
587.38	29722.46
587.54	29802.04
587.70	29940.13
587.86	29710.76
588.02	30143.76
588.18	30129.72
588.34	29947.15
588.49	29666.29
588.65	29465.00
588.81	30059.50
588.97	29682.67
589.13	29563.31
589.29	29647.57
589.45	29848.85
589.61	30045.46
589.77	29455.64
589.93	30462.07
590.08	29883.96
590.24	29860.55
590.40	29900.34
590.56	30169.51
590.72	29720.12
590.88	29851.19
591.04	29745.87
591.20	30139.08
591.35	29977.58
591.51	30218.66
591.67	30134.40
591.83	30115.67
