SpectraSuite Data File
++++++++++++++++++++++++++++++++++++
Date: Tue Oct 01 18:27:28 GMT-05:00 2013
User: stostad
Dark Spectrum Present: No
Reference Spectrum Present: No
Number of Sampled Component Spectra: 1
Spectrometers: USB2+H05261
Integration Time (usec): 100000 (USB2+H05261)
Spectra Averaged: 1 (USB2+H05261)
Boxcar Smoothing: 0 (USB2+H05261)
Correct for Electrical Dark: No (USB2+H05261)
Strobe/Lamp Enabled: No (USB2+H05261)
Correct for Detector Non-linearity: No (USB2+H05261)
Correct for Stray Light: No (USB2+H05261)
Number of Pixels in Processed Spectrum: 2048
>>>>>Begin Processed Spectral Data<<<<<
365.73	163.84
365.92	163.84
366.12	163.84
366.32	0.00
366.52	4.68
366.72	0.00
366.91	25.75
367.11	0.00
367.31	23.41
367.51	0.00
367.70	0.00
367.90	11.70
368.10	0.00
368.30	0.00
368.49	0.00
368.69	44.47
368.89	9.36
369.09	0.00
369.28	0.00
369.48	0.00
369.68	0.00
369.87	58.51
370.07	49.15
370.27	51.49
370.47	140.43
370.66	294.91
370.86	259.80
371.06	294.91
371.25	428.32
371.45	311.29
371.65	402.57
371.84	304.27
372.04	341.72
372.24	362.78
372.44	362.78
372.63	425.98
372.83	449.38
373.03	351.08
373.22	428.32
373.42	507.90
373.62	423.64
373.81	489.17
374.01	416.62
374.21	472.79
374.40	468.11
374.60	510.24
374.79	428.32
374.99	489.17
375.19	461.09
375.38	479.81
375.58	416.62
375.78	451.72
375.97	465.77
376.17	442.36
376.37	430.66
376.56	425.98
376.76	456.40
376.95	538.32
377.15	458.74
377.35	489.17
377.54	456.40
377.74	486.83
377.93	578.11
378.13	498.53
378.33	503.22
378.52	479.81
378.72	533.64
378.91	482.15
379.11	507.90
379.31	461.09
379.50	517.26
379.70	505.56
379.89	514.92
380.09	540.66
380.28	517.26
380.48	484.49
380.68	519.60
380.87	620.24
381.07	472.79
381.26	526.62
381.46	559.39
381.65	589.82
381.85	521.94
382.04	468.11
382.24	524.28
382.43	648.33
382.63	566.41
382.83	599.18
383.02	601.52
383.22	615.56
383.41	568.75
383.61	631.94
383.80	641.31
384.00	594.50
384.19	543.00
384.39	601.52
384.58	571.09
384.78	617.90
384.97	587.47
385.17	575.77
385.36	636.63
385.56	641.31
385.75	566.41
385.95	601.52
386.14	650.67
386.34	603.86
386.53	610.88
386.72	589.82
386.92	648.33
387.11	664.71
387.31	653.01
387.50	660.03
387.70	683.44
387.89	643.65
388.09	702.16
388.28	648.33
388.48	648.33
388.67	697.48
388.86	763.01
389.06	678.76
389.25	793.44
389.45	753.65
389.64	641.31
389.84	763.01
390.03	760.67
390.22	711.52
390.42	730.25
390.61	706.84
390.81	692.80
391.00	737.27
391.19	767.70
391.39	763.01
391.58	695.14
391.78	737.27
391.97	753.65
392.16	727.91
392.36	777.06
392.55	842.59
392.75	875.36
392.94	774.72
393.13	812.17
393.33	830.89
393.52	894.08
393.71	938.55
393.91	809.83
394.10	891.74
394.29	819.19
394.49	901.11
394.68	861.32
394.88	863.66
395.07	978.34
395.26	971.32
395.46	912.81
395.65	952.60
395.84	933.87
396.04	992.39
396.23	1015.79
396.42	966.64
396.62	940.90
396.81	940.90
397.00	1013.45
397.19	999.41
397.39	1008.77
397.58	1074.31
397.77	1029.84
397.97	1050.90
398.16	1046.22
398.35	1057.92
398.55	1142.18
398.74	1121.12
398.93	1146.86
399.12	1060.26
399.32	1114.10
399.51	1104.73
399.70	1207.72
399.90	1146.86
400.09	1245.16
400.28	1219.42
400.47	1247.51
400.67	1191.33
400.86	1240.48
401.05	1273.25
401.24	1170.27
401.44	1228.78
401.63	1221.76
401.82	1266.23
402.01	1268.57
402.21	1308.36
402.40	1275.59
402.59	1249.85
402.78	1327.08
402.97	1355.17
403.17	1362.19
403.36	1310.70
403.55	1362.19
403.74	1366.87
403.93	1371.55
404.13	1418.36
404.32	1523.69
404.51	1460.49
404.70	1437.09
404.89	1488.58
405.09	1519.01
405.28	1530.71
405.47	1437.09
405.66	1666.46
405.85	1495.60
406.05	1598.59
406.24	1579.86
406.43	1636.03
406.62	1713.27
406.81	1603.27
407.00	1589.22
407.20	1584.54
407.39	1652.42
407.58	1778.81
407.77	1664.12
407.96	1764.76
408.15	1781.15
408.34	1797.53
408.54	1713.27
408.73	1753.06
408.92	1724.97
409.11	1858.39
409.30	1863.07
409.49	1870.09
409.68	1933.28
409.87	1928.60
410.07	1982.43
410.26	2015.20
410.45	1933.28
410.64	1942.64
410.83	2064.35
411.02	2050.31
411.21	2106.48
411.40	1991.80
411.59	2108.82
411.78	2176.70
411.98	2179.04
412.17	2150.95
412.36	2122.87
412.55	2209.47
412.74	2303.09
412.93	2303.09
413.12	2209.47
413.31	2347.56
413.50	2300.75
413.69	2413.09
413.88	2427.14
414.07	2335.85
414.26	2537.14
414.45	2490.33
414.64	2485.65
414.83	2658.85
415.02	2576.93
415.22	2581.61
415.41	2672.89
415.60	2647.15
415.79	2668.21
415.98	2715.02
416.17	2668.21
416.36	2658.85
416.55	2726.72
416.74	2862.48
416.93	2743.11
417.12	2775.88
417.31	2928.01
417.50	2808.64
417.69	2960.78
417.88	3016.95
418.07	2956.10
418.26	3117.59
418.45	3082.49
418.64	3201.85
418.83	3115.25
419.02	3220.58
419.21	3000.57
419.39	2970.14
419.58	3045.04
419.77	3075.46
419.96	3103.55
420.15	3194.83
420.34	3133.98
420.53	3330.58
420.72	3178.45
420.91	3253.34
421.10	3211.22
421.29	3281.43
421.48	3370.37
421.67	3316.54
421.86	3370.37
422.05	3325.90
422.24	3431.23
422.43	3344.63
422.61	3410.16
422.80	3337.60
422.99	3503.78
423.18	3339.94
423.37	3487.40
423.56	3478.04
423.75	3449.95
423.94	3555.27
424.13	3353.99
424.32	3307.18
424.50	3499.10
424.69	3574.00
424.88	3478.04
425.07	3407.82
425.26	3431.23
425.45	3424.20
425.64	3487.40
425.83	3588.04
426.01	3534.21
426.20	3545.91
426.39	3569.32
426.58	3452.29
426.77	3597.40
426.96	3576.34
427.15	3517.83
427.33	3520.17
427.52	3623.15
427.71	3599.74
427.90	3590.38
428.09	3758.90
428.28	3688.68
428.46	3908.69
428.65	3845.50
428.84	3772.94
429.03	3887.63
429.22	3660.60
429.40	3913.38
429.59	3864.22
429.78	3779.97
429.97	3688.68
430.16	3840.82
430.34	3920.40
430.53	4018.70
430.72	3969.55
430.91	3754.22
431.10	3936.78
431.28	4049.13
431.47	4119.34
431.66	4039.76
431.85	3978.91
432.03	4142.75
432.22	4163.81
432.41	4208.28
432.60	4273.82
432.79	4168.49
432.97	4175.52
433.16	4100.62
433.35	4124.02
433.54	4180.20
433.72	4367.44
433.91	4311.27
434.10	4372.12
434.28	4411.91
434.47	4381.48
434.66	4514.89
434.85	4409.57
435.03	4517.23
435.22	4341.69
435.41	4587.45
435.59	4465.74
435.78	4454.04
435.97	4477.44
436.16	4617.88
436.34	4444.68
436.53	4517.23
436.72	4704.48
436.90	4521.92
437.09	4559.36
437.28	4526.60
437.46	4631.92
437.65	4526.60
437.84	4664.69
438.02	4739.58
438.21	4849.59
438.40	4847.25
438.58	4908.10
438.77	4870.65
438.96	4891.72
439.14	5029.81
439.33	5160.88
439.52	5228.76
439.70	5114.07
439.89	5085.98
440.08	5114.07
440.26	5235.78
440.45	5275.57
440.63	5427.70
440.82	5261.52
441.01	5205.35
441.19	5331.74
441.38	5352.81
441.57	5490.90
441.75	5483.88
441.94	5624.31
442.12	5551.75
442.31	5628.99
442.50	5790.49
442.68	5584.52
442.87	5673.46
443.05	5832.62
443.24	5813.89
443.43	5731.97
443.61	5706.23
443.80	5867.72
443.98	5760.06
444.17	5603.24
444.35	5944.96
444.54	5996.45
444.73	5818.57
444.91	5804.53
445.10	5830.27
445.28	5923.90
445.47	5879.43
445.65	5788.14
445.84	5865.38
446.02	5823.25
446.21	5963.68
446.39	5975.39
446.58	5982.41
446.77	6076.03
446.95	5837.30
447.14	5888.79
447.32	5987.09
447.51	6221.14
447.69	6085.39
447.88	6167.31
448.06	6146.25
448.25	6129.86
448.43	6064.33
448.62	6076.03
448.80	6120.50
448.99	6125.18
449.17	5996.45
449.36	6197.74
449.54	6303.06
449.73	6293.70
449.91	6338.17
450.10	6265.61
450.28	6387.32
450.46	6232.85
450.65	6331.15
450.83	6504.35
451.02	6382.64
451.20	6434.13
451.39	6506.69
451.57	6459.88
451.76	6392.00
451.94	6403.71
452.13	6771.17
452.31	6539.46
452.49	6565.20
452.68	6558.18
452.86	6647.12
453.05	6670.53
453.23	6663.51
453.42	6478.60
453.60	6698.61
453.78	6745.42
453.97	6663.51
454.15	6874.15
454.34	6672.87
454.52	6942.03
454.70	6986.50
454.89	6953.73
455.07	6986.50
455.26	7047.35
455.44	6867.13
455.62	6949.05
455.81	6951.39
455.99	7040.33
456.17	7066.08
456.36	7145.66
456.54	7152.68
456.73	7155.02
456.91	7304.81
457.09	7386.73
457.28	7407.80
457.46	7353.96
457.64	7428.86
457.83	7176.08
458.01	7220.55
458.19	7515.46
458.38	7389.07
458.56	7618.44
458.74	7613.76
458.93	7506.10
459.11	7531.84
459.29	7557.59
459.48	7793.98
459.66	7808.03
459.84	7667.60
460.03	7852.50
460.21	7868.88
460.39	7658.23
460.57	7655.89
460.76	7798.66
460.94	7967.18
461.12	7733.13
461.31	7999.95
461.49	8002.29
461.67	7798.66
461.85	8299.54
462.04	8135.70
462.22	8580.40
462.40	8173.15
462.59	8039.74
462.77	8194.22
462.95	8205.92
463.13	8322.94
463.32	8131.02
463.50	8245.71
463.68	8404.86
463.86	8271.45
464.05	8292.52
464.23	8180.17
464.41	8446.99
464.59	8271.45
464.78	8538.27
464.96	8498.49
465.14	8252.73
465.32	8442.31
465.50	8482.10
465.69	8620.19
465.87	8552.32
466.05	8610.83
466.23	8613.17
466.41	8514.87
466.60	8847.22
466.78	8573.38
466.96	8582.74
467.14	8784.03
467.32	8732.54
467.51	8945.53
467.69	8624.87
467.87	8652.96
468.05	8772.33
468.23	8879.99
468.41	8872.97
468.60	8954.89
468.78	9048.51
468.96	9006.38
469.14	9006.38
469.32	9090.64
469.50	9029.79
469.69	9315.33
469.87	9188.94
470.05	9296.61
470.23	9137.45
470.41	9025.11
470.59	9114.05
470.77	9341.08
470.95	9455.76
471.14	9551.73
471.32	9378.53
471.50	9745.99
471.68	9514.28
471.86	9619.60
472.04	9872.38
472.22	9778.76
472.40	9558.75
472.58	9888.76
472.77	9734.29
472.95	9781.10
473.13	10422.41
473.31	10040.90
473.49	9958.98
473.67	9935.57
473.85	9963.66
474.03	10312.40
474.21	10359.21
474.39	10415.38
474.57	10494.96
474.75	10597.95
474.93	10576.88
475.12	10534.75
475.30	10806.25
475.48	10534.75
475.66	10712.63
475.84	10785.19
476.02	10822.64
476.20	10911.58
476.38	11169.04
476.56	11220.53
476.74	11440.54
476.92	11314.15
477.10	10951.37
477.28	11353.94
477.46	11398.41
477.64	11543.52
477.82	11510.75
478.00	11887.58
478.18	11903.96
478.36	12154.40
478.54	11866.52
478.72	11962.48
478.90	12257.39
479.08	12376.75
479.26	12325.26
479.44	12720.81
479.62	12739.54
479.80	12638.89
479.98	12854.22
480.16	13064.87
480.34	13083.59
480.52	13207.64
480.70	13387.86
480.88	12926.78
481.06	13228.71
481.24	13329.35
481.41	13610.22
481.59	13640.64
481.77	13886.40
481.95	13853.63
482.13	13879.38
482.31	14143.86
482.49	14108.75
482.67	14347.48
482.85	14548.77
483.03	14656.43
483.21	14759.42
483.39	14686.86
483.57	14607.28
483.74	15005.17
483.92	15108.16
484.10	14949.00
484.28	15185.40
484.46	15314.13
484.64	15609.03
484.82	15377.32
485.00	15822.02
485.18	15988.20
485.35	16020.97
485.53	16318.22
485.71	16294.81
485.89	16545.25
486.07	16545.25
486.25	16519.50
486.43	16833.13
486.61	16884.62
486.78	16929.09
486.96	16926.75
487.14	17383.16
487.32	17399.54
487.50	17668.70
487.68	17528.27
487.85	17813.82
488.03	18146.17
488.21	18422.36
488.39	18534.70
488.57	18651.73
488.75	18581.51
488.92	18986.43
489.10	19208.78
489.28	19047.28
489.46	19171.33
489.64	19103.45
489.81	19566.88
489.99	19779.87
490.17	19440.49
490.35	20079.46
490.53	19864.13
490.70	19910.94
490.88	20215.21
491.06	20465.64
491.24	20306.49
491.41	20407.13
491.59	20723.10
491.77	20519.48
491.95	20961.84
492.13	20919.71
492.30	21429.94
492.48	21076.52
492.66	21378.45
492.84	21177.17
493.01	21891.03
493.19	22101.68
493.37	21874.65
493.54	22286.58
493.72	22295.94
493.90	22277.22
494.08	22916.19
494.25	22422.33
494.43	23164.28
494.61	23154.92
494.79	23126.83
494.96	23061.30
495.14	23688.56
495.32	23789.20
495.49	23473.23
495.67	23978.79
495.85	23726.01
496.02	24041.98
496.20	24252.63
496.38	24182.42
496.55	24416.47
496.73	24739.46
496.91	24505.41
497.09	24493.71
497.26	24673.93
497.44	24718.40
497.62	25256.72
497.79	25455.67
497.97	25315.23
498.14	25752.91
498.32	25479.07
498.50	25570.35
498.67	25619.50
498.85	25891.01
499.03	25958.88
499.20	26167.19
499.38	26167.19
499.56	26464.44
499.73	26541.68
499.91	26434.01
500.08	26705.51
500.26	26597.85
500.44	26794.45
500.61	27133.83
500.79	26668.06
500.97	26962.97
501.14	27407.67
501.32	27452.14
501.49	27391.29
501.67	27538.74
501.84	27740.03
502.02	27826.63
502.20	27758.75
502.37	28154.30
502.55	27917.91
502.72	27718.96
502.90	28147.28
503.07	27995.15
503.25	28566.24
503.43	28084.09
503.60	28610.71
503.78	28772.21
503.95	28662.20
504.13	28687.95
504.30	28779.23
504.48	29130.31
504.65	29156.05
504.83	29200.52
505.01	29427.56
505.18	29109.24
505.36	29443.94
505.53	29329.25
505.71	29575.01
505.88	29937.79
506.06	29752.89
506.23	30513.56
506.41	29848.85
506.58	30286.53
506.76	30174.19
506.93	30157.80
507.11	30298.23
507.28	30654.00
507.46	30888.05
507.63	30471.43
507.81	30639.95
507.98	30689.10
508.16	31070.61
508.33	31236.79
508.50	31267.22
508.68	31253.17
508.85	31622.98
509.03	31278.92
509.20	31332.75
509.38	31569.15
509.55	32151.94
509.73	31840.65
509.90	32060.66
510.08	31744.69
510.25	32304.07
510.42	32016.19
510.60	32254.92
510.77	32280.67
510.95	32432.80
511.12	32917.29
511.30	32409.40
511.47	33053.05
511.64	32893.89
511.82	32776.86
511.99	32671.54
512.17	33287.10
512.34	33390.08
512.51	33450.94
512.69	33228.59
512.86	33696.69
513.04	33635.84
513.21	34244.38
513.38	33649.88
513.56	33872.23
513.73	33546.90
513.90	34019.69
514.08	33710.74
514.25	34665.67
514.43	34808.45
514.60	34085.22
514.77	34080.54
514.95	34522.90
515.12	34581.42
515.29	34581.42
515.47	35138.46
515.64	35028.46
515.81	34759.30
515.99	34501.84
516.16	35253.15
516.33	35278.89
516.51	35173.57
516.68	35370.18
516.85	35480.18
517.03	35938.93
517.20	35721.26
517.37	35477.84
517.54	35871.05
517.72	35742.32
517.89	35611.25
518.06	35676.79
518.24	35639.34
518.41	35840.62
518.58	36093.40
518.75	35854.67
518.93	36474.91
519.10	35957.65
519.27	36547.47
519.45	36280.64
519.62	36786.20
519.79	36615.34
519.96	36865.78
520.14	36772.16
520.31	36715.98
520.48	37237.92
520.65	37038.98
520.83	37556.24
521.00	37532.83
521.17	36999.19
521.34	37600.71
521.52	38005.62
521.69	37340.91
521.86	37390.06
522.03	38024.34
522.20	37865.19
522.38	38096.90
522.55	37869.87
522.72	37876.89
522.89	38249.03
523.07	38403.51
523.24	38134.35
523.41	38464.36
523.58	38356.70
523.75	38438.62
523.92	38607.14
524.10	38567.35
524.27	38658.63
524.44	38693.74
524.61	38873.96
524.78	38827.15
524.96	38937.15
525.13	39129.08
525.30	39398.24
525.47	39569.10
525.64	39145.46
525.81	39435.69
525.98	39751.66
526.16	39519.95
526.33	39218.02
526.50	39906.13
526.67	39470.79
526.84	39564.42
527.01	39669.74
527.18	40055.93
527.36	40048.91
527.53	39948.26
527.70	40294.66
527.87	39751.66
528.04	40322.75
528.21	40601.27
528.38	40376.58
528.55	40554.46
528.72	40383.60
528.89	40671.49
529.07	40130.83
529.24	40495.95
529.41	40428.07
529.58	40446.80
529.75	40655.11
529.92	41113.85
530.09	41064.70
530.26	40797.88
530.43	40837.67
530.60	41228.54
530.77	41130.23
530.94	41258.96
531.11	41322.16
531.28	41277.69
531.46	41727.07
531.63	41542.17
531.80	41284.71
531.97	41287.05
532.14	41680.26
532.31	41354.93
532.48	41846.44
532.65	41797.29
532.82	41687.28
532.99	42340.29
533.16	42103.90
533.33	42216.24
533.50	42157.73
533.67	42120.28
533.84	42064.11
534.01	42443.27
534.18	42288.80
534.35	42623.50
534.52	42405.83
534.69	42873.93
534.86	42586.05
535.03	42148.37
535.20	42457.32
535.37	42263.05
535.54	42995.64
535.71	42522.85
535.88	43168.84
536.05	43143.09
536.22	43234.38
536.38	43164.16
536.55	43173.52
536.72	42759.25
536.89	42904.36
537.06	43122.03
537.23	43622.90
537.40	43658.01
537.57	43393.53
537.74	43388.85
537.91	43545.67
538.08	43477.79
538.25	43220.33
538.42	43295.23
538.59	43810.15
538.75	43845.26
538.92	43501.20
539.09	43885.04
539.26	43955.26
539.43	43908.45
539.60	44130.80
539.77	43821.85
539.94	44112.08
540.11	44334.43
540.28	44250.17
540.44	44142.50
540.61	44217.40
540.78	44236.12
540.95	44563.80
541.12	44032.50
541.29	44549.76
541.46	44383.58
541.62	44704.23
541.79	44708.91
541.96	44554.44
542.13	44879.77
542.30	45165.32
542.47	44893.82
542.63	45034.25
542.80	44957.01
542.97	44863.39
543.14	45581.93
543.31	45490.65
543.48	45277.66
543.64	45968.12
543.81	45773.86
543.98	45600.66
544.15	45359.58
544.32	45591.30
544.48	45804.28
544.65	45996.21
544.82	46050.04
544.99	45872.16
545.16	46181.11
545.32	45911.95
545.49	46417.50
545.66	46438.57
545.83	46108.55
546.00	46101.53
546.16	45748.11
546.33	45909.61
546.50	46153.02
546.67	46581.34
546.83	45755.13
547.00	46101.53
547.17	46174.09
547.34	46199.83
547.50	46415.16
547.67	46394.10
547.84	46358.99
548.00	46639.86
548.17	47168.82
548.34	46777.95
548.51	47084.56
548.67	46717.09
548.84	46644.54
549.01	46256.01
549.18	46499.42
549.34	46738.16
549.51	47016.68
549.68	46955.83
549.84	46934.76
550.01	47075.19
550.18	46906.68
550.34	47042.43
550.51	47208.61
550.68	47028.38
550.84	46705.39
551.01	47098.60
551.18	46995.62
551.34	46939.44
551.51	47547.98
551.68	47318.61
551.84	47430.96
552.01	47196.90
552.18	47496.49
552.34	47147.75
552.51	47564.37
552.68	47709.48
552.84	47508.19
553.01	47751.61
553.18	48004.39
553.34	48039.50
553.51	47971.62
553.67	47749.27
553.84	47543.30
554.01	48182.27
554.17	47571.39
554.34	47887.36
554.51	48208.01
554.67	48121.41
554.84	48378.87
555.00	47952.90
555.17	48215.04
555.33	47723.52
555.50	47833.53
555.67	47622.88
555.83	47906.08
556.00	47866.30
556.16	49041.24
556.33	48343.77
556.50	48350.79
556.66	48678.46
556.83	48179.93
556.99	48694.85
557.16	47786.72
557.32	48425.68
557.49	48704.21
557.65	48493.56
557.82	48701.87
557.98	49029.54
558.15	48683.14
558.32	48875.07
558.48	48669.10
558.65	48655.06
558.81	48339.08
558.98	48378.87
559.14	48638.67
559.31	48645.69
559.47	48570.80
559.64	49134.87
559.80	48863.36
559.97	49071.67
560.13	48659.74
560.30	48268.87
560.46	48954.64
560.63	48732.29
560.79	48854.00
560.96	48945.28
561.12	49251.89
561.29	49209.76
561.45	49322.11
561.61	48884.43
561.78	48809.53
561.94	48545.05
562.11	49069.33
562.27	49062.31
562.44	48795.49
562.60	49169.97
562.77	49289.34
562.93	49099.76
563.10	49315.09
563.26	49083.37
563.42	49523.40
563.59	48875.07
563.75	48964.01
563.92	49237.85
564.08	49066.99
564.24	49202.74
564.41	49291.68
564.57	49373.60
564.74	49237.85
564.90	49345.51
565.07	49270.62
565.23	49387.64
565.39	49474.24
565.56	49324.45
565.72	49389.98
565.88	49467.22
566.05	49523.40
566.21	49392.33
566.38	49474.24
566.54	49537.44
566.70	49502.33
566.87	49478.92
567.03	49319.77
567.19	49621.70
567.36	49556.16
567.52	49361.90
567.68	49495.31
567.85	49272.96
568.01	49944.69
568.17	49546.80
568.34	49488.29
568.50	49511.69
568.66	49560.84
568.83	49530.42
568.99	49031.88
569.15	49298.70
569.32	49780.85
569.48	49684.89
569.64	50080.44
569.81	49221.47
569.97	50017.25
570.13	49511.69
570.30	49375.94
570.46	49698.94
570.62	49769.15
570.78	49996.18
570.95	49745.75
571.11	49759.79
571.27	50050.02
571.43	50035.97
571.60	49869.79
571.76	49549.14
571.92	49757.45
572.09	49822.98
572.25	50131.93
572.41	49944.69
572.57	49888.52
572.74	50227.90
572.90	50042.99
573.06	49982.14
573.22	49958.73
573.38	50155.34
573.55	50183.43
573.71	50087.46
573.87	49790.22
574.03	49722.34
574.20	50028.95
574.36	49563.18
574.52	50129.59
574.68	50021.93
574.84	50155.34
575.01	50328.54
575.17	50447.91
575.33	50209.17
575.49	49570.21
575.65	50150.66
575.82	50117.89
575.98	50057.04
576.14	50148.32
576.30	49872.14
576.46	50248.96
576.62	49944.69
576.79	50127.25
576.95	50328.54
577.11	50129.59
577.27	50239.60
577.43	50068.74
577.59	49982.14
577.75	49914.26
577.92	49848.73
578.08	50075.76
578.24	50066.40
578.40	50468.97
578.56	50365.99
578.72	50120.23
578.88	50188.11
579.04	50485.36
579.21	49776.17
579.37	50258.32
579.53	50234.92
579.69	50052.36
579.85	50148.32
580.01	50667.92
580.17	50061.72
580.33	50487.70
580.49	49813.62
580.65	50405.78
580.82	50267.69
580.98	49998.52
581.14	50028.95
581.30	50225.56
581.46	50279.39
581.62	50298.11
581.78	50241.94
581.94	50639.83
582.10	50330.88
582.26	50710.05
582.42	50387.05
582.58	50398.76
582.74	49729.36
582.90	50185.77
583.06	50298.11
583.22	50335.56
583.38	50515.78
583.54	50347.26
583.70	50431.52
583.86	50494.72
584.02	50326.20
584.18	50948.78
584.34	50475.99
584.50	50637.49
584.66	50494.72
584.82	50096.83
584.98	50183.43
585.14	50403.44
585.30	49993.84
585.46	50511.10
585.62	50508.76
585.78	50131.93
585.94	50127.25
586.10	50307.47
586.26	49907.24
586.42	50094.49
586.58	50728.77
586.74	50145.98
586.90	50403.44
587.06	50614.08
587.22	50892.61
587.38	50864.52
587.54	50688.98
587.70	50749.84
587.86	50960.48
588.02	50501.74
588.18	50600.04
588.34	50281.73
588.49	50721.75
588.65	50628.13
588.81	50866.86
588.97	50820.05
589.13	50717.07
589.29	50770.90
589.45	51054.11
589.61	50686.64
589.77	50923.04
589.93	50752.18
590.08	50602.38
590.24	50483.01
590.40	50829.41
590.56	50864.52
