SpectraSuite Data File
++++++++++++++++++++++++++++++++++++
Date: Fri Oct 04 11:39:50 GMT-05:00 2013
User: price-jones
Dark Spectrum Present: No
Reference Spectrum Present: No
Number of Sampled Component Spectra: 1
Spectrometers: USB2+H05261
Integration Time (usec): 100000 (USB2+H05261)
Spectra Averaged: 1 (USB2+H05261)
Boxcar Smoothing: 0 (USB2+H05261)
Correct for Electrical Dark: No (USB2+H05261)
Strobe/Lamp Enabled: No (USB2+H05261)
Correct for Detector Non-linearity: No (USB2+H05261)
Correct for Stray Light: No (USB2+H05261)
Number of Pixels in Processed Spectrum: 2048
>>>>>Begin Processed Spectral Data<<<<<
365.73	138.09
365.92	138.09
366.12	138.09
366.32	0.00
366.52	0.00
366.72	0.00
366.91	0.00
367.11	0.00
367.31	0.00
367.51	0.00
367.70	9.36
367.90	0.00
368.10	0.00
368.30	0.00
368.49	0.00
368.69	0.00
368.89	0.00
369.09	0.00
369.28	0.00
369.48	0.00
369.68	0.00
369.87	0.00
370.07	0.00
370.27	9.36
370.47	37.45
370.66	72.56
370.86	32.77
371.06	161.50
371.25	95.96
371.45	35.11
371.65	102.98
371.84	67.88
372.04	44.47
372.24	135.75
372.44	77.24
372.63	149.79
372.83	177.88
373.03	74.90
373.22	84.26
373.42	84.26
373.62	117.03
373.81	177.88
374.01	215.33
374.21	107.66
374.40	60.85
374.60	133.41
374.79	128.73
374.99	159.16
375.19	140.43
375.38	133.41
375.58	117.03
375.78	222.35
375.97	175.54
376.17	128.73
376.37	110.01
376.56	163.84
376.76	81.92
376.95	95.96
377.15	135.75
377.35	117.03
377.54	79.58
377.74	98.30
377.93	147.45
378.13	42.13
378.33	198.95
378.52	110.01
378.72	147.45
378.91	117.03
379.11	77.24
379.31	70.22
379.50	21.06
379.70	166.18
379.89	131.07
380.09	95.96
380.28	112.35
380.48	163.84
380.68	124.05
380.87	53.83
381.07	203.63
381.26	117.03
381.46	112.35
381.65	135.75
381.85	117.03
382.04	124.05
382.24	100.64
382.43	166.18
382.63	126.39
382.83	93.62
383.02	107.66
383.22	121.71
383.41	121.71
383.61	102.98
383.80	145.11
384.00	77.24
384.19	114.69
384.39	91.28
384.58	114.69
384.78	147.45
384.97	84.26
385.17	53.83
385.36	72.56
385.56	147.45
385.75	128.73
385.95	56.17
386.14	210.65
386.34	138.09
386.53	86.60
386.72	128.73
386.92	180.22
387.11	145.11
387.31	117.03
387.50	110.01
387.70	166.18
387.89	135.75
388.09	210.65
388.28	124.05
388.48	152.13
388.67	72.56
388.86	117.03
389.06	93.62
389.25	147.45
389.45	131.07
389.64	39.79
389.84	86.60
390.03	114.69
390.22	161.50
390.42	79.58
390.61	126.39
390.81	159.16
391.00	46.81
391.19	131.07
391.39	131.07
391.58	149.79
391.78	110.01
391.97	67.88
392.16	112.35
392.36	102.98
392.55	170.86
392.75	91.28
392.94	119.37
393.13	133.41
393.33	100.64
393.52	51.49
393.71	133.41
393.91	88.94
394.10	95.96
394.29	110.01
394.49	91.28
394.68	156.82
394.88	119.37
395.07	145.11
395.26	126.39
395.46	161.50
395.65	124.05
395.84	100.64
396.04	184.90
396.23	161.50
396.42	117.03
396.62	114.69
396.81	84.26
397.00	131.07
397.19	70.22
397.39	152.13
397.58	203.63
397.77	168.52
397.97	128.73
398.16	126.39
398.35	74.90
398.55	142.77
398.74	184.90
398.93	234.05
399.12	95.96
399.32	187.24
399.51	177.88
399.70	163.84
399.90	107.66
400.09	140.43
400.28	53.83
400.47	131.07
400.67	124.05
400.86	177.88
401.05	166.18
401.24	182.56
401.44	159.16
401.63	124.05
401.82	159.16
402.01	117.03
402.21	133.41
402.40	159.16
402.59	79.58
402.78	135.75
402.97	93.62
403.17	138.09
403.36	156.82
403.55	124.05
403.74	91.28
403.93	191.92
404.13	278.52
404.32	299.59
404.51	294.91
404.70	191.92
404.89	147.45
405.09	180.22
405.28	184.90
405.47	138.09
405.66	212.99
405.85	166.18
406.05	168.52
406.24	156.82
406.43	191.92
406.62	126.39
406.81	229.37
407.00	238.73
407.20	138.09
407.39	102.98
407.58	184.90
407.77	201.29
407.96	217.67
408.15	145.11
408.34	212.99
408.54	166.18
408.73	191.92
408.92	215.33
409.11	175.54
409.30	222.35
409.49	112.35
409.68	198.95
409.87	243.42
410.07	163.84
410.26	156.82
410.45	107.66
410.64	175.54
410.83	91.28
411.02	208.31
411.21	222.35
411.40	238.73
411.59	140.43
411.78	231.71
411.98	166.18
412.17	100.64
412.36	131.07
412.55	142.77
412.74	163.84
412.93	299.59
413.12	163.84
413.31	187.24
413.50	196.60
413.69	177.88
413.88	184.90
414.07	135.75
414.26	220.01
414.45	95.96
414.64	196.60
414.83	189.58
415.02	205.97
415.22	152.13
415.41	215.33
415.60	180.22
415.79	184.90
415.98	189.58
416.17	149.79
416.36	154.48
416.55	198.95
416.74	163.84
416.93	180.22
417.12	142.77
417.31	255.12
417.50	175.54
417.69	297.25
417.88	184.90
418.07	180.22
418.26	177.88
418.45	311.29
418.64	222.35
418.83	205.97
419.02	156.82
419.21	243.42
419.39	227.03
419.58	189.58
419.77	168.52
419.96	222.35
420.15	259.80
420.34	191.92
420.53	212.99
420.72	154.48
420.91	191.92
421.10	241.08
421.29	173.20
421.48	264.48
421.67	248.10
421.86	163.84
422.05	205.97
422.24	180.22
422.43	217.67
422.61	243.42
422.80	285.55
422.99	177.88
423.18	250.44
423.37	203.63
423.56	163.84
423.75	138.09
423.94	201.29
424.13	248.10
424.32	142.77
424.50	133.41
424.69	133.41
424.88	210.65
425.07	166.18
425.26	166.18
425.45	229.37
425.64	189.58
425.83	212.99
426.01	147.45
426.20	205.97
426.39	159.16
426.58	182.56
426.77	212.99
426.96	250.44
427.15	262.14
427.33	229.37
427.52	194.26
427.71	220.01
427.90	245.76
428.09	248.10
428.28	140.43
428.46	248.10
428.65	257.46
428.84	252.78
429.03	205.97
429.22	201.29
429.40	215.33
429.59	224.69
429.78	229.37
429.97	227.03
430.16	234.05
430.34	208.31
430.53	170.86
430.72	278.52
430.91	217.67
431.10	217.67
431.28	222.35
431.47	241.08
431.66	220.01
431.85	241.08
432.03	166.18
432.22	255.12
432.41	229.37
432.60	212.99
432.79	194.26
432.97	205.97
433.16	229.37
433.35	198.95
433.54	198.95
433.72	283.20
433.91	238.73
434.10	217.67
434.28	259.80
434.47	224.69
434.66	187.24
434.85	257.46
435.03	397.89
435.22	664.71
435.41	1132.82
435.59	1259.21
435.78	926.85
435.97	552.37
436.16	379.17
436.34	243.42
436.53	264.48
436.72	290.23
436.90	231.71
437.09	243.42
437.28	166.18
437.46	287.89
437.65	231.71
437.84	304.27
438.02	189.58
438.21	245.76
438.40	238.73
438.58	257.46
438.77	229.37
438.96	290.23
439.14	262.14
439.33	276.18
439.52	222.35
439.70	208.31
439.89	229.37
440.08	222.35
440.26	210.65
440.45	287.89
440.63	257.46
440.82	194.26
441.01	217.67
441.19	306.61
441.38	266.82
441.57	278.52
441.75	306.61
441.94	330.02
442.12	222.35
442.31	257.46
442.50	278.52
442.68	222.35
442.87	266.82
443.05	266.82
443.24	236.39
443.43	255.12
443.61	341.72
443.80	327.68
443.98	262.14
444.17	191.92
444.35	339.38
444.54	259.80
444.73	248.10
444.91	241.08
445.10	252.78
445.28	238.73
445.47	229.37
445.65	259.80
445.84	166.18
446.02	271.50
446.21	222.35
446.39	306.61
446.58	220.01
446.77	280.86
446.95	196.60
447.14	210.65
447.32	257.46
447.51	259.80
447.69	372.15
447.88	264.48
448.06	297.25
448.25	273.84
448.43	196.60
448.62	248.10
448.80	262.14
448.99	299.59
449.17	276.18
449.36	264.48
449.54	292.57
449.73	315.97
449.91	318.31
450.10	339.38
450.28	353.42
450.46	255.12
450.65	248.10
450.83	280.86
451.02	252.78
451.20	327.68
451.39	334.70
451.57	257.46
451.76	262.14
451.94	269.16
452.13	313.63
452.31	238.73
452.49	290.23
452.68	250.44
452.86	292.57
453.05	330.02
453.23	241.08
453.42	229.37
453.60	273.84
453.78	318.31
453.97	283.20
454.15	299.59
454.34	304.27
454.52	231.71
454.70	283.20
454.89	327.68
455.07	318.31
455.26	334.70
455.44	245.76
455.62	271.50
455.81	313.63
455.99	376.83
456.17	339.38
456.36	283.20
456.54	318.31
456.73	292.57
456.91	318.31
457.09	290.23
457.28	285.55
457.46	327.68
457.64	376.83
457.83	245.76
458.01	315.97
458.19	285.55
458.38	283.20
458.56	304.27
458.74	266.82
458.93	278.52
459.11	245.76
459.29	220.01
459.48	271.50
459.66	236.39
459.84	287.89
460.03	374.49
460.21	322.99
460.39	304.27
460.57	325.33
460.76	285.55
460.94	381.51
461.12	358.10
461.31	280.86
461.49	278.52
461.67	308.95
461.85	318.31
462.04	308.95
462.22	765.36
462.40	308.95
462.59	262.14
462.77	292.57
462.95	362.78
463.13	374.49
463.32	271.50
463.50	245.76
463.68	334.70
463.86	278.52
464.05	285.55
464.23	264.48
464.41	278.52
464.59	287.89
464.78	290.23
464.96	299.59
465.14	404.91
465.32	280.86
465.50	327.68
465.69	322.99
465.87	276.18
466.05	353.42
466.23	259.80
466.41	344.06
466.60	369.80
466.78	327.68
466.96	362.78
467.14	386.19
467.32	386.19
467.51	280.86
467.69	330.02
467.87	325.33
468.05	318.31
468.23	315.97
468.41	367.46
468.60	355.76
468.78	386.19
468.96	287.89
469.14	318.31
469.32	236.39
469.50	365.12
469.69	287.89
469.87	313.63
470.05	337.04
470.23	337.04
470.41	372.15
470.59	297.25
470.77	341.72
470.95	306.61
471.14	379.17
471.32	355.76
471.50	348.74
471.68	341.72
471.86	313.63
472.04	276.18
472.22	351.08
472.40	346.40
472.58	318.31
472.77	327.68
472.95	369.80
473.13	404.91
473.31	430.66
473.49	346.40
473.67	381.51
473.85	358.10
474.03	360.44
474.21	400.23
474.39	315.97
474.57	421.30
474.75	383.85
474.93	344.06
475.12	297.25
475.30	311.29
475.48	290.23
475.66	344.06
475.84	322.99
476.02	369.80
476.20	360.44
476.38	390.87
476.56	395.55
476.74	285.55
476.92	353.42
477.10	369.80
477.28	334.70
477.46	369.80
477.64	367.46
477.82	327.68
478.00	379.17
478.18	304.27
478.36	348.74
478.54	437.68
478.72	348.74
478.90	416.62
479.08	353.42
479.26	393.21
479.44	379.17
479.62	416.62
479.80	339.38
479.98	407.25
480.16	355.76
480.34	383.85
480.52	297.25
480.70	353.42
480.88	348.74
481.06	376.83
481.24	381.51
481.41	470.45
481.59	423.64
481.77	416.62
481.95	435.34
482.13	510.24
482.31	404.91
482.49	372.15
482.67	484.49
482.85	444.70
483.03	461.09
483.21	444.70
483.39	386.19
483.57	454.06
483.74	498.53
483.92	442.36
484.10	479.81
484.28	538.32
484.46	624.92
484.64	482.15
484.82	486.83
485.00	538.32
485.18	517.26
485.35	477.47
485.53	521.94
485.71	519.60
485.89	514.92
486.07	582.79
486.25	667.05
486.43	535.98
486.61	505.56
486.78	540.66
486.96	580.45
487.14	538.32
487.32	491.51
487.50	578.11
487.68	589.82
487.85	566.41
488.03	561.73
488.21	667.05
488.39	603.86
488.57	582.79
488.75	491.51
488.92	814.51
489.10	655.35
489.28	603.86
489.46	517.26
489.64	552.37
489.81	461.09
489.99	589.82
490.17	568.75
490.35	582.79
490.53	645.99
490.70	664.71
490.88	580.45
491.06	589.82
491.24	650.67
491.41	615.56
491.59	655.35
491.77	545.34
491.95	620.24
492.13	732.59
492.30	603.86
492.48	559.39
492.66	571.09
492.84	550.03
493.01	533.64
493.19	615.56
493.37	653.01
493.54	552.37
493.72	561.73
493.90	587.47
494.08	585.13
494.25	739.61
494.43	573.43
494.61	620.24
494.79	615.56
494.96	594.50
495.14	589.82
495.32	580.45
495.49	603.86
495.67	704.50
495.85	620.24
496.02	608.54
496.20	676.41
496.38	575.77
496.55	655.35
496.73	599.18
496.91	641.31
497.09	606.20
497.26	622.58
497.44	606.20
497.62	620.24
497.79	674.07
497.97	587.47
498.14	671.73
498.32	561.73
498.50	617.90
498.67	627.26
498.85	631.94
499.03	667.05
499.20	620.24
499.38	580.45
499.56	655.35
499.73	660.03
499.91	615.56
500.08	662.37
500.26	634.29
500.44	643.65
500.61	601.52
500.79	692.80
500.97	631.94
501.14	643.65
501.32	631.94
501.49	653.01
501.67	664.71
501.84	617.90
502.02	608.54
502.20	589.82
502.37	669.39
502.55	664.71
502.72	641.31
502.90	631.94
503.07	573.43
503.25	624.92
503.43	564.07
503.60	601.52
503.78	557.05
503.95	620.24
504.13	631.94
504.30	641.31
504.48	617.90
504.65	615.56
504.83	711.52
505.01	641.31
505.18	568.75
505.36	688.12
505.53	568.75
505.71	660.03
505.88	662.37
506.06	706.84
506.23	622.58
506.41	648.33
506.58	606.20
506.76	751.31
506.93	671.73
507.11	699.82
507.28	603.86
507.46	582.79
507.63	660.03
507.81	674.07
507.98	723.23
508.16	587.47
508.33	697.48
508.50	662.37
508.68	645.99
508.85	709.18
509.03	669.39
509.20	678.76
509.38	631.94
509.55	692.80
509.73	667.05
509.90	732.59
510.08	723.23
510.25	734.93
510.42	720.88
510.60	690.46
510.77	643.65
510.95	676.41
511.12	690.46
511.30	727.91
511.47	746.63
511.64	751.31
511.82	622.58
511.99	739.61
512.17	653.01
512.34	725.57
512.51	653.01
512.69	720.88
512.86	786.42
513.04	699.82
513.21	741.95
513.38	615.56
513.56	727.91
513.73	650.67
513.90	688.12
514.08	791.10
514.25	664.71
514.43	784.08
514.60	695.14
514.77	695.14
514.95	732.59
515.12	711.52
515.29	648.33
515.47	746.63
515.64	727.91
515.81	704.50
515.99	798.12
516.16	711.52
516.33	763.01
516.51	720.88
516.68	688.12
516.85	741.95
517.03	695.14
517.20	723.23
517.37	730.25
517.54	741.95
517.72	695.14
517.89	683.44
518.06	699.82
518.24	653.01
518.41	772.38
518.58	739.61
518.75	802.80
518.93	688.12
519.10	791.10
519.27	784.08
519.45	718.54
519.62	732.59
519.79	788.76
519.96	746.63
520.14	798.12
520.31	835.57
520.48	751.31
520.65	828.55
520.83	744.29
521.00	774.72
521.17	786.42
521.34	767.70
521.52	753.65
521.69	791.10
521.86	716.20
522.03	781.74
522.20	739.61
522.38	777.06
522.55	793.44
522.72	786.42
522.89	812.17
523.07	884.72
523.24	772.38
523.41	856.64
523.58	767.70
523.75	786.42
523.92	826.21
524.10	779.40
524.27	842.59
524.44	760.67
524.61	816.85
524.78	835.57
524.96	800.46
525.13	779.40
525.30	866.00
525.47	835.57
525.64	744.29
525.81	720.88
525.98	737.27
526.16	809.83
526.33	819.19
526.50	779.40
526.67	809.83
526.84	805.14
527.01	770.04
527.18	779.40
527.36	791.10
527.53	755.99
527.70	765.36
527.87	767.70
528.04	812.17
528.21	734.93
528.38	798.12
528.55	751.31
528.72	765.36
528.89	819.19
529.07	784.08
529.24	833.23
529.41	777.06
529.58	851.96
529.75	844.93
529.92	812.17
530.09	821.53
530.26	819.19
530.43	842.59
530.60	833.23
530.77	826.21
530.94	791.10
531.11	758.33
531.28	744.29
531.46	767.70
531.63	812.17
531.80	730.25
531.97	814.51
532.14	830.89
532.31	870.68
532.48	844.93
532.65	819.19
532.82	854.30
532.99	875.36
533.16	896.43
533.33	880.04
533.50	835.57
533.67	816.85
533.84	868.34
534.01	889.40
534.18	880.04
534.35	833.23
534.52	833.23
534.69	854.30
534.86	856.64
535.03	774.72
535.20	821.53
535.37	863.66
535.54	922.17
535.71	917.49
535.88	800.46
536.05	971.32
536.22	863.66
536.38	816.85
536.55	908.13
536.72	870.68
536.89	816.85
537.06	924.51
537.23	884.72
537.40	1020.47
537.57	877.70
537.74	957.28
537.91	1018.13
538.08	985.37
538.25	1032.18
538.42	1078.99
538.59	952.60
538.75	929.19
538.92	1062.60
539.09	1036.86
539.26	1111.75
539.43	1039.20
539.60	1170.27
539.77	1170.27
539.94	1170.27
540.11	1191.33
540.28	1338.79
540.44	1359.85
540.61	1282.61
540.78	1394.96
540.95	1434.75
541.12	1703.91
541.29	1778.81
541.46	1790.51
541.62	1867.75
541.79	1727.32
541.96	1839.66
542.13	1720.29
542.30	1760.08
542.47	1720.29
542.63	1703.91
542.80	1631.35
542.97	1708.59
543.14	1839.66
543.31	1673.48
543.48	1619.65
543.64	1638.38
543.81	1678.16
543.98	1710.93
544.15	1657.10
544.32	1694.55
544.48	1736.68
544.65	1624.33
544.82	1577.52
544.99	1526.03
545.16	1629.01
545.32	1607.95
545.49	2202.44
545.66	3012.27
545.83	3721.45
546.00	3192.49
546.16	2499.69
546.33	1928.60
546.50	1664.12
546.67	1533.05
546.83	1418.36
547.00	1343.47
547.17	1469.86
547.34	1336.45
547.50	1320.06
547.67	1315.38
547.84	1242.82
548.00	1418.36
548.17	1221.76
548.34	1207.72
548.51	1324.74
548.67	1282.61
548.84	1198.35
549.01	1172.61
549.18	1224.10
549.34	1219.42
549.51	1123.46
549.68	1174.95
549.84	1219.42
550.01	1203.04
550.18	1205.38
550.34	1130.48
550.51	1093.03
550.68	1121.12
550.84	1097.71
551.01	1046.22
551.18	1165.59
551.34	994.73
551.51	1111.75
551.68	1088.35
551.84	1015.79
552.01	1067.28
552.18	1071.97
552.34	1020.47
552.51	1020.47
552.68	1027.50
552.84	978.34
553.01	950.26
553.18	1055.58
553.34	1025.15
553.51	994.73
553.67	1004.09
553.84	1008.77
554.01	1015.79
554.17	968.98
554.34	954.94
554.51	905.79
554.67	954.94
554.84	943.24
555.00	938.55
555.17	880.04
555.33	889.40
555.50	905.79
555.67	936.21
555.83	884.72
556.00	866.00
556.16	1039.20
556.33	917.49
556.50	1011.11
556.66	908.13
556.83	870.68
556.99	947.92
557.16	851.96
557.32	973.66
557.49	858.98
557.65	849.61
557.82	856.64
557.98	851.96
558.15	805.14
558.32	896.43
558.48	835.57
558.65	854.30
558.81	887.06
558.98	891.74
559.14	947.92
559.31	926.85
559.47	887.06
559.64	863.66
559.80	990.05
559.97	884.72
560.13	873.02
560.30	924.51
560.46	919.83
560.63	830.89
560.79	802.80
560.96	833.23
561.12	842.59
561.29	866.00
561.45	812.17
561.61	868.34
561.78	931.53
561.94	849.61
562.11	915.15
562.27	842.59
562.44	866.00
562.60	884.72
562.77	870.68
562.93	978.34
563.10	901.11
563.26	891.74
563.42	1006.43
563.59	929.19
563.75	966.64
563.92	947.92
564.08	866.00
564.24	912.81
564.41	961.96
564.57	870.68
564.74	905.79
564.90	854.30
565.07	837.91
565.23	901.11
565.39	910.47
565.56	954.94
565.72	868.34
565.88	847.27
566.05	835.57
566.21	784.08
566.38	835.57
566.54	830.89
566.70	795.78
566.87	812.17
567.03	741.95
567.19	875.36
567.36	861.32
567.52	842.59
567.68	931.53
567.85	891.74
568.01	905.79
568.17	952.60
568.34	873.02
568.50	926.85
568.66	833.23
568.83	887.06
568.99	898.77
569.15	828.55
569.32	858.98
569.48	854.30
569.64	866.00
569.81	901.11
569.97	828.55
570.13	814.51
570.30	861.32
570.46	819.19
570.62	800.46
570.78	837.91
570.95	809.83
571.11	912.81
571.27	945.58
571.43	828.55
571.60	868.34
571.76	915.15
571.92	877.70
572.09	875.36
572.25	814.51
572.41	842.59
572.57	866.00
572.74	976.00
572.90	931.53
573.06	940.90
573.22	877.70
573.38	861.32
573.55	840.25
573.71	940.90
573.87	828.55
574.03	873.02
574.20	880.04
574.36	858.98
574.52	826.21
574.68	880.04
574.84	837.91
575.01	875.36
575.17	894.08
575.33	931.53
575.49	854.30
575.65	854.30
575.82	819.19
575.98	936.21
576.14	919.83
576.30	905.79
576.46	1071.97
576.62	1291.98
576.79	1434.75
576.95	1184.31
577.11	997.07
577.27	875.36
577.43	1029.84
577.59	940.90
577.75	910.47
577.92	826.21
578.08	896.43
578.24	901.11
578.40	997.07
578.56	1193.67
578.72	1324.74
578.88	1266.23
579.04	1294.32
579.21	1067.28
579.37	940.90
579.53	1015.79
579.69	1067.28
579.85	973.66
580.01	983.02
580.17	1083.67
580.33	1067.28
580.49	938.55
580.65	985.37
580.82	961.96
580.98	987.71
581.14	877.70
581.30	919.83
581.46	954.94
581.62	1034.52
581.78	945.58
581.94	1022.81
582.10	910.47
582.26	1029.84
582.42	1018.13
582.58	1034.52
582.74	968.98
582.90	1137.50
583.06	1083.67
583.22	1064.94
583.38	1125.80
583.54	978.34
583.70	1062.60
583.86	973.66
584.02	1118.78
584.18	1081.33
584.34	978.34
584.50	1004.09
584.66	1069.62
584.82	1022.81
584.98	1032.18
585.14	1004.09
585.30	1036.86
585.46	924.51
585.62	1013.45
585.78	1071.97
585.94	1036.86
586.10	1011.11
586.26	929.19
586.42	940.90
586.58	1100.05
586.74	1219.42
586.90	1221.76
587.06	1160.91
587.22	1207.72
587.38	1170.27
587.54	1121.12
587.70	1210.06
587.86	1081.33
588.02	994.73
588.18	919.83
588.34	954.94
588.49	898.77
588.65	931.53
588.81	898.77
588.97	903.45
589.13	931.53
589.29	842.59
589.45	990.05
589.61	983.02
589.77	936.21
589.93	889.40
590.08	990.05
590.24	952.60
590.40	922.17
590.56	961.96
590.72	980.68
590.88	966.64
591.04	945.58
591.20	877.70
591.35	1027.50
591.51	968.98
591.67	1004.09
591.83	1006.43
591.99	966.64
592.15	1086.01
592.31	978.34
592.46	1053.24
592.62	1034.52
592.78	1055.58
592.94	1062.60
593.10	1043.88
593.26	1053.24
593.41	1015.79
593.57	1060.26
593.73	992.39
593.89	882.38
594.05	1039.20
594.20	924.51
594.36	929.19
594.52	968.98
594.68	812.17
594.84	856.64
594.99	985.37
595.15	973.66
595.31	884.72
595.47	910.47
595.62	901.11
595.78	894.08
595.94	922.17
596.10	894.08
596.25	940.90
596.41	884.72
596.57	1013.45
596.73	1020.47
596.88	854.30
597.04	945.58
597.20	894.08
597.36	877.70
597.51	917.49
597.67	983.02
597.83	936.21
597.99	898.77
598.14	894.08
598.30	973.66
598.46	933.87
598.61	992.39
598.77	938.55
598.93	952.60
599.09	922.17
599.24	1025.15
599.40	1074.31
599.56	1036.86
599.71	891.74
599.87	971.32
600.03	968.98
600.18	922.17
600.34	959.62
600.50	905.79
600.65	966.64
600.81	1006.43
600.97	1013.45
601.12	917.49
601.28	940.90
601.44	798.12
601.59	922.17
601.75	858.98
601.91	847.27
602.06	868.34
602.22	884.72
602.37	959.62
602.53	936.21
602.69	947.92
602.84	856.64
603.00	851.96
603.16	912.81
603.31	931.53
603.47	912.81
603.62	868.34
603.78	912.81
603.94	891.74
604.09	828.55
604.25	952.60
604.40	894.08
604.56	884.72
604.71	945.58
604.87	851.96
605.03	873.02
605.18	891.74
605.34	952.60
605.49	903.45
605.65	887.06
605.80	812.17
605.96	854.30
606.12	933.87
606.27	950.26
606.43	875.36
606.58	931.53
606.74	901.11
606.89	922.17
607.05	943.24
607.20	889.40
607.36	957.28
607.51	931.53
607.67	1013.45
607.82	973.66
607.98	952.60
608.13	994.73
608.29	971.32
608.44	1121.12
608.60	1046.22
608.75	1086.01
608.91	1025.15
609.06	1142.18
609.22	1135.16
