SpectraSuite Data File
++++++++++++++++++++++++++++++++++++
Date: Fri Oct 04 11:39:27 GMT-05:00 2013
User: price-jones
Dark Spectrum Present: No
Reference Spectrum Present: No
Number of Sampled Component Spectra: 1
Spectrometers: USB2+H05261
Integration Time (usec): 100000 (USB2+H05261)
Spectra Averaged: 1 (USB2+H05261)
Boxcar Smoothing: 0 (USB2+H05261)
Correct for Electrical Dark: No (USB2+H05261)
Strobe/Lamp Enabled: No (USB2+H05261)
Correct for Detector Non-linearity: No (USB2+H05261)
Correct for Stray Light: No (USB2+H05261)
Number of Pixels in Processed Spectrum: 2048
>>>>>Begin Processed Spectral Data<<<<<
365.73	60.85
365.92	60.85
366.12	60.85
366.32	0.00
366.52	0.00
366.72	0.00
366.91	0.00
367.11	0.00
367.31	0.00
367.51	0.00
367.70	0.00
367.90	9.36
368.10	0.00
368.30	4.68
368.49	0.00
368.69	32.77
368.89	0.00
369.09	0.00
369.28	0.00
369.48	23.41
369.68	32.77
369.87	35.11
370.07	0.00
370.27	21.06
370.47	81.92
370.66	117.03
370.86	149.79
371.06	212.99
371.25	234.05
371.45	156.82
371.65	227.03
371.84	170.86
372.04	220.01
372.24	201.29
372.44	245.76
372.63	269.16
372.83	292.57
373.03	264.48
373.22	250.44
373.42	301.93
373.62	245.76
373.81	304.27
374.01	290.23
374.21	339.38
374.40	292.57
374.60	322.99
374.79	264.48
374.99	273.84
375.19	334.70
375.38	308.95
375.58	337.04
375.78	327.68
375.97	276.18
376.17	308.95
376.37	269.16
376.56	301.93
376.76	294.91
376.95	248.10
377.15	306.61
377.35	322.99
377.54	266.82
377.74	278.52
377.93	278.52
378.13	287.89
378.33	290.23
378.52	341.72
378.72	383.85
378.91	306.61
379.11	308.95
379.31	355.76
379.50	388.53
379.70	301.93
379.89	402.57
380.09	290.23
380.28	285.55
380.48	266.82
380.68	327.68
380.87	285.55
381.07	337.04
381.26	353.42
381.46	358.10
381.65	360.44
381.85	322.99
382.04	365.12
382.24	388.53
382.43	301.93
382.63	362.78
382.83	367.46
383.02	337.04
383.22	339.38
383.41	330.02
383.61	301.93
383.80	407.25
384.00	273.84
384.19	395.55
384.39	341.72
384.58	374.49
384.78	372.15
384.97	388.53
385.17	442.36
385.36	315.97
385.56	435.34
385.75	311.29
385.95	372.15
386.14	418.96
386.34	430.66
386.53	484.49
386.72	409.59
386.92	397.89
387.11	440.02
387.31	369.80
387.50	397.89
387.70	367.46
387.89	435.34
388.09	402.57
388.28	402.57
388.48	437.68
388.67	484.49
388.86	404.91
389.06	435.34
389.25	507.90
389.45	458.74
389.64	393.21
389.84	472.79
390.03	486.83
390.22	449.38
390.42	458.74
390.61	400.23
390.81	475.13
391.00	409.59
391.19	479.81
391.39	447.04
391.58	442.36
391.78	514.92
391.97	421.30
392.16	484.49
392.36	484.49
392.55	449.38
392.75	465.77
392.94	519.60
393.13	472.79
393.33	472.79
393.52	589.82
393.71	564.07
393.91	552.37
394.10	578.11
394.29	519.60
394.49	517.26
394.68	561.73
394.88	517.26
395.07	514.92
395.26	535.98
395.46	697.48
395.65	617.90
395.84	606.20
396.04	587.47
396.23	641.31
396.42	620.24
396.62	610.88
396.81	685.78
397.00	566.41
397.19	613.22
397.39	671.73
397.58	650.67
397.77	608.54
397.97	638.97
398.16	718.54
398.35	676.41
398.55	573.43
398.74	669.39
398.93	648.33
399.12	660.03
399.32	655.35
399.51	765.36
399.70	727.91
399.90	676.41
400.09	711.52
400.28	791.10
400.47	718.54
400.67	760.67
400.86	730.25
401.05	660.03
401.24	861.32
401.44	823.87
401.63	858.98
401.82	833.23
402.01	802.80
402.21	830.89
402.40	774.72
402.59	842.59
402.78	840.25
402.97	851.96
403.17	875.36
403.36	1053.24
403.55	891.74
403.74	973.66
403.93	978.34
404.13	950.26
404.32	987.71
404.51	926.85
404.70	1008.77
404.89	968.98
405.09	1008.77
405.28	1078.99
405.47	983.02
405.66	973.66
405.85	1043.88
406.05	1041.54
406.24	1011.11
406.43	1137.50
406.62	1142.18
406.81	1210.06
407.00	1139.84
407.20	1086.01
407.39	1118.78
407.58	1144.52
407.77	1226.44
407.96	1212.40
408.15	1156.22
408.34	1238.14
408.54	1228.78
408.73	1247.51
408.92	1245.16
409.11	1378.58
409.30	1322.40
409.49	1240.48
409.68	1277.93
409.87	1282.61
410.07	1373.89
410.26	1299.00
410.45	1366.87
410.64	1446.45
410.83	1366.87
411.02	1467.52
411.21	1455.81
411.40	1507.30
411.59	1540.07
411.78	1511.99
411.98	1500.28
412.17	1523.69
412.36	1493.26
412.55	1586.88
412.74	1607.95
412.93	1600.93
413.12	1577.52
413.31	1687.53
413.50	1636.03
413.69	1664.12
413.88	1717.95
414.07	1715.61
414.26	1701.57
414.45	1795.19
414.64	1881.79
414.83	1839.66
415.02	1851.36
415.22	1753.06
415.41	1849.02
415.60	1923.92
415.79	1984.77
415.98	1893.49
416.17	1914.56
416.36	1870.09
416.55	2031.58
416.74	1980.09
416.93	2099.46
417.12	2033.93
417.31	2097.12
417.50	2104.14
417.69	2172.02
417.88	2118.18
418.07	2186.06
418.26	2125.21
418.45	2207.13
418.64	2326.49
418.83	2291.38
419.02	2235.21
419.21	2253.94
419.39	2380.32
419.58	2197.76
419.77	2214.15
419.96	2303.09
420.15	2354.58
420.34	2394.37
420.53	2406.07
420.72	2382.67
420.91	2352.24
421.10	2434.16
421.29	2497.35
421.48	2424.80
421.67	2661.19
421.86	2473.95
422.05	2525.44
422.24	2363.94
422.43	2509.05
422.61	2537.14
422.80	2469.27
422.99	2527.78
423.18	2605.02
423.37	2616.72
423.56	2520.76
423.75	2576.93
423.94	2609.70
424.13	2413.09
424.32	2509.05
424.50	2593.31
424.69	2689.28
424.88	2754.81
425.07	2600.34
425.26	2558.21
425.45	2513.74
425.64	2684.59
425.83	2534.80
426.01	2579.27
426.20	2686.94
426.39	2616.72
426.58	2668.21
426.77	2670.55
426.96	2747.79
427.15	2785.24
427.33	2705.66
427.52	2787.58
427.71	2609.70
427.90	2832.05
428.09	2691.62
428.28	2853.11
428.46	2787.58
428.65	2902.26
428.84	2925.67
429.03	2869.50
429.22	2867.16
429.40	2951.42
429.59	2930.35
429.78	2841.41
429.97	2757.15
430.16	2946.73
430.34	2843.75
430.53	3059.08
430.72	2960.78
430.91	2970.14
431.10	2942.05
431.28	3047.38
431.47	3049.72
431.66	3152.70
431.85	2993.55
432.03	3103.55
432.22	3260.37
432.41	3251.00
432.60	3183.13
432.79	3105.89
432.97	3227.60
433.16	3197.17
433.35	3171.43
433.54	3171.43
433.72	3295.47
433.91	3206.53
434.10	3288.45
434.28	3136.32
434.47	3236.96
434.66	3375.05
434.85	3342.28
435.03	3368.03
435.22	3595.06
435.41	3777.62
435.59	3861.88
435.78	3632.51
435.97	3332.92
436.16	3471.01
436.34	3414.84
436.53	3410.16
436.72	3548.25
436.90	3316.54
437.09	3508.46
437.28	3445.27
437.46	3351.65
437.65	3632.51
437.84	3508.46
438.02	3606.77
438.21	3627.83
438.40	3550.59
438.58	3707.41
438.77	3777.62
438.96	3763.58
439.14	3770.60
439.33	3826.78
439.52	3911.04
439.70	3808.05
439.89	3822.09
440.08	3960.19
440.26	3906.35
440.45	3960.19
440.63	3878.27
440.82	3983.59
441.01	3929.76
441.19	4025.72
441.38	4168.49
441.57	4145.09
441.75	4159.13
441.94	4297.22
442.12	4201.26
442.31	4287.86
442.50	4271.48
442.68	4276.16
442.87	4287.86
443.05	4161.47
443.24	4205.94
443.43	4355.74
443.61	4397.87
443.80	4437.66
443.98	4241.05
444.17	4222.33
444.35	4470.42
444.54	4475.10
444.73	4477.44
444.91	4528.94
445.10	4255.09
445.28	4271.48
445.47	4442.34
445.65	4369.78
445.84	4486.81
446.02	4402.55
446.21	4479.79
446.39	4526.60
446.58	4465.74
446.77	4451.70
446.95	4535.96
447.14	4557.02
447.32	4477.44
447.51	4498.51
447.69	4402.55
447.88	4395.53
448.06	4650.64
448.25	4297.22
448.43	4533.62
448.62	4425.95
448.80	4442.34
448.99	4524.26
449.17	4533.62
449.36	4528.94
449.54	4585.11
449.73	4755.97
449.91	4709.16
450.10	4819.16
450.28	4795.76
450.46	4800.44
450.65	4723.20
450.83	4919.81
451.02	4781.71
451.20	4877.68
451.39	4954.91
451.57	4613.20
451.76	4718.52
451.94	4854.27
452.13	4931.51
452.31	4905.76
452.49	4903.42
452.68	4940.87
452.86	4865.97
453.05	4908.10
453.23	5093.01
453.42	4917.47
453.60	4961.94
453.78	5083.64
453.97	4957.25
454.15	5027.47
454.34	5018.11
454.52	5067.26
454.70	4987.68
454.89	5205.35
455.07	5050.88
455.26	5371.53
455.44	5146.84
455.62	5210.03
455.81	5317.70
455.99	5341.10
456.17	5184.29
456.36	5261.52
456.54	5420.68
456.73	5458.13
456.91	5621.97
457.09	5427.70
457.28	5518.98
457.46	5364.51
457.64	5710.91
457.83	5549.41
458.01	5488.56
458.19	5584.52
458.38	5448.77
458.56	5694.52
458.74	5490.90
458.93	5650.05
459.11	5558.77
459.29	5689.84
459.48	5760.06
459.66	5701.54
459.84	5708.57
460.03	5930.92
460.21	5706.23
460.39	5685.16
460.57	5659.42
460.76	5846.66
460.94	5898.15
461.12	5949.64
461.31	5811.55
461.49	5816.23
461.67	5771.76
461.85	6001.13
462.04	5991.77
462.22	5977.73
462.40	6108.80
462.59	5982.41
462.77	5921.56
462.95	6078.37
463.13	5820.91
463.32	6064.33
463.50	6122.84
463.68	6106.46
463.86	6076.03
464.05	6143.91
464.23	6258.59
464.41	6015.18
464.59	5907.51
464.78	6380.30
464.96	6129.86
465.14	6197.74
465.32	6338.17
465.50	6300.72
465.69	6394.34
465.87	6370.94
466.05	6286.68
466.23	6277.32
466.41	6356.90
466.60	6689.25
466.78	6373.28
466.96	6457.54
467.14	6354.55
467.32	6445.84
467.51	6590.95
467.69	6361.58
467.87	6590.95
468.05	6693.93
468.23	6590.95
468.41	6633.08
468.60	6661.16
468.78	6494.99
468.96	6525.41
469.14	6703.29
469.32	6551.16
469.50	6649.46
469.69	6775.85
469.87	6705.63
470.05	6750.10
470.23	6820.32
470.41	7030.97
470.59	6785.21
470.77	6827.34
470.95	7023.95
471.14	6867.13
471.32	6794.58
471.50	7033.31
471.68	7075.44
471.86	7014.59
472.04	7124.59
472.22	7155.02
472.40	6974.80
472.58	7206.51
472.77	7225.23
472.95	7276.73
473.13	7454.61
473.31	7321.20
473.49	7342.26
473.67	7414.82
473.85	7585.68
474.03	7375.03
474.21	7541.21
474.39	7630.15
474.57	7737.81
474.75	7747.17
474.93	7815.05
475.12	7674.62
475.30	7688.66
475.48	7779.94
475.66	7761.22
475.84	7859.52
476.02	8021.02
476.20	8028.04
476.38	7957.82
476.56	8243.37
476.74	8091.23
476.92	8243.37
477.10	8297.20
477.28	8313.58
477.46	8320.60
477.64	8386.14
477.82	8255.07
478.00	8477.42
478.18	8739.56
478.36	8730.20
478.54	8762.97
478.72	8777.01
478.90	8760.63
479.08	8851.91
479.26	8971.27
479.44	9008.72
479.62	9090.64
479.80	9125.75
479.98	9369.16
480.16	9619.60
480.34	9415.98
480.52	9509.60
480.70	9631.30
480.88	9430.02
481.06	9387.89
481.24	9708.54
481.41	9933.23
481.59	9818.55
481.77	10024.51
481.95	9813.87
482.13	10090.05
482.31	10085.37
482.49	10127.50
482.67	10377.94
482.85	10457.51
483.03	10679.86
483.21	10712.63
483.39	10848.38
483.57	10871.79
483.74	10832.00
483.92	10808.59
484.10	11052.01
484.28	10956.05
484.46	11068.39
484.64	11257.98
484.82	11211.17
485.00	11342.24
485.18	11557.57
485.35	11810.34
485.53	11723.74
485.71	11728.42
485.89	12016.31
486.07	12084.19
486.25	12194.19
486.43	12028.01
486.61	12285.47
486.78	12217.60
486.96	12388.46
487.14	12725.49
487.32	12526.55
487.50	12697.41
487.68	12912.74
487.85	12982.95
488.03	13074.23
488.21	13224.03
488.39	13149.13
488.57	13338.71
488.75	13380.84
488.92	13792.78
489.10	13441.70
489.28	13610.22
489.46	13558.72
489.64	13654.69
489.81	14286.63
489.99	14272.59
490.17	13949.59
490.35	14225.78
490.53	14225.78
490.70	14483.24
490.88	14586.22
491.06	14607.28
491.24	14551.11
491.41	14754.74
491.59	14913.89
491.77	14719.63
491.95	15143.27
492.13	15344.55
492.30	15215.82
492.48	15073.05
492.66	15365.62
492.84	15360.94
493.01	15477.96
493.19	15473.28
493.37	15672.23
493.54	15812.66
493.72	15983.52
493.90	16037.35
494.08	16208.21
494.25	16191.83
494.43	16456.31
494.61	16236.30
494.79	16594.40
494.96	16856.54
495.14	16676.32
495.32	16720.79
495.49	16776.96
495.67	16865.90
495.85	17088.25
496.02	17235.70
496.20	17118.68
496.38	17305.92
496.55	17193.58
496.73	17717.86
496.91	17596.15
497.09	17483.80
497.26	17998.72
497.44	17617.21
497.62	17767.01
497.79	18225.75
497.97	18134.47
498.14	18043.19
498.32	18017.44
498.50	18338.10
498.67	18302.99
498.85	18623.64
499.03	18611.94
499.20	18508.96
499.38	18530.02
499.56	18874.08
499.73	18700.88
499.91	18932.59
500.08	18986.43
500.26	19089.41
500.44	19066.00
500.61	19103.45
500.79	19168.99
500.97	19260.27
501.14	19793.91
501.32	19637.09
501.49	19449.85
501.67	19775.19
501.84	19807.95
502.02	19520.07
502.20	19913.28
502.37	20042.01
502.55	20011.58
502.72	19557.52
502.90	19709.65
503.07	19929.66
503.25	19948.39
503.43	20365.00
503.60	20109.88
503.78	20482.03
503.95	20390.75
504.13	20627.14
504.30	20641.18
504.48	20156.69
504.65	20662.25
504.83	20896.30
505.01	20950.14
505.18	20903.32
505.36	20999.29
505.53	21069.50
505.71	21142.06
505.88	21291.85
506.06	20999.29
506.23	21123.33
506.41	21125.68
506.58	21406.54
506.76	21092.91
506.93	21483.78
507.11	21348.03
507.28	21647.61
507.46	21458.03
507.63	21745.92
507.81	22066.57
507.98	21722.51
508.16	21652.30
508.33	22040.82
508.50	22122.74
508.68	22242.11
508.85	22408.29
509.03	22253.81
509.20	22022.10
509.38	22726.60
509.55	22740.64
509.73	22773.41
509.90	22642.34
510.08	22738.30
510.25	22574.47
510.42	23105.77
510.60	23204.07
510.77	23208.75
510.95	23190.03
511.12	23087.04
511.30	23044.91
511.47	23234.50
511.64	23585.58
511.82	23585.58
511.99	23524.72
512.17	23620.69
512.34	23445.15
512.51	23845.38
512.69	23847.72
512.86	23779.84
513.04	24109.86
513.21	23915.59
513.38	23931.98
513.56	24254.97
513.73	23828.99
513.90	23934.32
514.08	24093.47
514.25	24395.40
514.43	24470.30
514.60	24421.15
514.77	24584.99
514.95	24533.50
515.12	24018.58
515.29	24357.96
515.47	24570.94
515.64	24783.93
515.81	24524.13
515.99	24748.82
516.16	25153.74
516.33	24980.54
516.51	24865.85
516.68	24617.75
516.85	25399.49
517.03	25202.89
517.20	25153.74
517.37	25198.21
517.54	25252.04
517.72	25127.99
517.89	25481.41
518.06	25294.17
518.24	25376.09
518.41	25364.39
518.58	25504.82
518.75	25401.83
518.93	25654.61
519.10	25886.32
519.27	25942.50
519.45	26031.44
519.62	26178.89
519.79	26087.61
519.96	26019.74
520.14	26045.48
520.31	25986.97
520.48	26242.09
520.65	26422.31
520.83	26625.93
521.00	26749.98
521.17	26389.54
521.34	26728.92
521.52	26284.22
521.69	26656.36
521.86	26714.87
522.03	26906.80
522.20	26953.61
522.38	26623.59
522.55	26962.97
522.72	27108.08
522.89	26909.14
523.07	27241.50
523.24	27058.93
523.41	27164.26
523.58	27136.17
523.75	27351.50
523.92	27190.00
524.10	27190.00
524.27	27449.80
524.44	27307.03
524.61	27796.20
524.78	27777.48
524.96	27768.12
525.13	27763.43
525.30	27494.27
525.47	27742.37
525.64	28018.55
525.81	28098.13
525.98	27866.42
526.16	27934.29
526.33	27765.78
526.50	28039.62
526.67	27838.33
526.84	28081.75
527.01	28201.11
527.18	28297.08
527.36	28161.33
527.53	28271.33
527.70	28929.02
527.87	28648.16
528.04	28215.16
528.21	28418.78
528.38	28713.69
528.55	28790.93
528.72	28606.03
528.89	28772.21
529.07	28470.28
529.24	28968.81
529.41	28922.00
529.58	28526.45
529.75	28830.72
529.92	29085.84
530.09	29125.63
530.26	29282.44
530.43	29230.95
530.60	29167.76
530.77	28985.19
530.94	29291.80
531.11	29256.70
531.28	29376.06
531.46	29572.67
531.63	29516.50
531.80	29420.53
531.97	29717.78
532.14	29621.82
532.31	29404.15
532.48	29273.08
532.65	29500.11
532.82	29659.27
532.99	29598.41
533.16	29694.38
533.33	30127.38
533.50	30075.88
533.67	29851.19
533.84	29895.66
534.01	30132.06
534.18	29706.08
534.35	30333.34
534.52	30040.78
534.69	30380.15
534.86	30129.72
535.03	30223.34
535.20	30314.62
535.37	30298.23
535.54	30195.25
535.71	30183.55
535.88	30445.69
536.05	30031.41
536.22	30567.40
536.38	31007.42
536.55	30483.14
536.72	30494.84
536.89	30323.98
537.06	30595.48
537.23	30405.90
537.40	30712.51
537.57	30665.70
537.74	30962.95
537.91	31295.30
538.08	30995.71
538.25	30780.39
538.42	31037.84
538.59	31180.62
538.75	30682.08
538.92	31360.84
539.09	31288.28
539.26	31096.36
539.43	31192.32
539.60	31342.11
539.77	30927.84
539.94	31353.82
540.11	31536.38
540.28	31449.78
540.44	31484.89
540.61	31601.91
540.78	31323.39
540.95	32133.21
541.12	31971.72
541.29	31976.40
541.46	32198.75
541.62	31903.84
541.79	31765.75
541.96	31985.76
542.13	31887.46
542.30	31913.20
542.47	31936.61
542.63	31882.78
542.80	32411.74
542.97	32348.54
543.14	32430.46
543.31	32400.04
543.48	32416.42
543.64	32774.52
543.81	32421.10
543.98	32496.00
544.15	32938.36
544.32	32704.31
544.48	32662.18
544.65	32463.23
544.82	32797.93
544.99	32570.90
545.16	32823.67
545.32	32687.92
545.49	33415.83
545.66	33926.07
545.83	33986.92
546.00	34244.38
546.16	33745.84
546.33	33017.94
546.50	32451.53
546.67	32921.98
546.83	32863.46
547.00	32587.28
547.17	32786.22
547.34	33310.50
547.50	33284.76
547.67	33322.21
547.84	32849.42
548.00	33383.06
548.17	33296.46
548.34	33039.00
548.51	33324.55
548.67	33240.29
548.84	33390.08
549.01	33387.74
549.18	32851.76
549.34	32996.87
549.51	33467.32
549.68	33645.20
549.84	33649.88
550.01	33226.24
550.18	33263.69
550.34	33727.12
550.51	33373.70
550.68	33605.41
550.84	33207.52
551.01	33872.23
551.18	33376.04
551.34	33202.84
551.51	33397.10
551.68	33675.63
551.84	33589.03
552.01	33158.37
552.18	33954.15
552.34	33322.21
552.51	34057.14
552.68	33572.64
552.84	33701.37
553.01	33516.47
553.18	33727.12
553.34	33886.28
553.51	34007.98
553.67	33958.83
553.84	34024.37
554.01	34244.38
554.17	33277.74
554.34	33951.81
554.51	33745.84
554.67	34333.32
554.84	34136.71
555.00	34122.67
555.17	34101.61
555.33	34054.79
555.50	34022.03
555.67	33975.22
555.83	34417.58
556.00	34108.63
556.16	34223.31
556.33	34174.16
556.50	33670.95
556.66	34188.21
556.83	34644.61
556.99	34677.38
557.16	34293.53
557.32	34235.02
557.49	34284.17
557.65	33989.26
557.82	34073.52
557.98	34164.80
558.15	34391.83
558.32	34169.48
558.48	34148.42
558.65	34429.28
558.81	34265.44
558.98	34045.43
559.14	34611.84
559.31	34429.28
559.47	34305.23
559.64	34710.14
559.80	34330.98
559.97	34768.66
560.13	34478.43
560.30	34408.22
560.46	34672.70
560.63	34717.17
560.79	34319.28
560.96	34649.29
561.12	34548.65
561.29	34387.15
561.45	34433.96
561.61	35129.10
561.78	34309.91
561.94	34766.32
562.11	34665.67
562.27	34635.25
562.44	34293.53
562.60	34967.60
562.77	34763.98
562.93	34660.99
563.10	34782.70
563.26	34429.28
563.42	34815.47
563.59	34696.10
563.75	35056.54
563.92	35077.61
564.08	35108.04
564.24	34808.45
564.41	34759.30
564.57	34419.92
564.74	34801.43
564.90	35194.64
565.07	35026.12
565.23	35021.44
565.39	35061.22
565.56	34881.00
565.72	34806.11
565.88	34979.31
566.05	34639.93
566.21	34618.86
566.38	34543.97
566.54	34979.31
566.70	35379.54
566.87	35173.57
567.03	35180.59
567.19	35388.90
567.36	35058.88
567.52	35063.57
567.68	34972.28
567.85	35035.48
568.01	34955.90
568.17	34609.50
568.34	34897.39
568.50	34920.79
568.66	35185.27
568.83	35166.55
568.99	35171.23
569.15	34991.01
569.32	34878.66
569.48	34366.09
569.64	35241.45
569.81	34974.63
569.97	35093.99
570.13	35599.55
570.30	34855.26
570.46	35110.38
570.62	35072.93
570.78	35030.80
570.95	34913.77
571.11	35229.74
571.27	35131.44
571.43	34546.31
571.60	35075.27
571.76	35445.07
571.92	35299.96
572.09	35054.20
572.25	35000.37
572.41	34888.03
572.57	34859.94
572.74	35274.21
572.90	34897.39
573.06	34885.68
573.22	34962.92
573.38	35124.42
573.55	35302.30
573.71	35995.10
573.87	35360.81
574.03	35236.77
574.20	35702.53
574.36	34979.31
574.52	34925.47
574.68	34831.85
574.84	34888.03
575.01	35033.14
575.17	35306.98
575.33	35143.14
575.49	34969.94
575.65	35323.36
575.82	35309.32
575.98	35178.25
576.14	35182.93
576.30	35019.10
576.46	35515.29
576.62	35154.85
576.79	35512.95
576.95	35129.10
577.11	35204.00
577.27	35887.43
577.43	35356.13
577.59	34998.03
577.75	35412.31
577.92	34958.24
578.08	35021.44
578.24	35126.76
578.40	35400.60
578.56	35606.57
578.72	35491.88
578.88	35314.00
579.04	35662.74
579.21	35522.31
579.37	35405.28
579.53	35922.54
579.69	35079.95
579.85	35503.59
580.01	35421.67
580.17	35323.36
580.33	35398.26
580.49	35091.65
580.65	35175.91
580.82	35412.31
580.98	34958.24
581.14	35325.71
581.30	35447.41
581.46	34824.83
581.62	35056.54
581.78	35033.14
581.94	35529.33
582.10	35367.84
582.26	35660.40
582.42	35288.26
582.58	35440.39
582.74	35646.36
582.90	35412.31
583.06	35339.75
583.22	35281.24
583.38	35428.69
583.54	35388.90
583.70	35290.60
583.86	35042.50
584.02	35555.08
584.18	35592.53
584.34	35770.41
584.50	35351.45
584.66	35477.84
584.82	35283.58
584.98	35232.08
585.14	35522.31
585.30	35220.38
585.46	35204.00
585.62	35246.13
585.78	35311.66
585.94	35278.89
586.10	35431.03
586.26	35054.20
586.42	35761.05
586.58	35452.09
586.74	35559.76
586.90	35091.65
587.06	35220.38
587.22	35435.71
587.38	35318.68
587.54	35739.98
587.70	35454.44
587.86	35426.35
588.02	35239.11
588.18	35655.72
588.34	35604.23
588.49	35370.18
588.65	34937.18
588.81	35281.24
588.97	35494.22
589.13	35398.26
589.29	35604.23
589.45	35775.09
589.61	35325.71
589.77	35751.68
589.93	35463.80
590.08	35969.35
590.24	35641.68
590.40	35847.64
590.56	35559.76
590.72	35840.62
590.88	35449.75
591.04	35749.34
591.20	35945.95
591.35	35744.66
