SpectraSuite Data File
++++++++++++++++++++++++++++++++++++
Date: Fri Oct 04 11:39:40 GMT-05:00 2013
User: price-jones
Dark Spectrum Present: No
Reference Spectrum Present: No
Number of Sampled Component Spectra: 1
Spectrometers: USB2+H05261
Integration Time (usec): 100000 (USB2+H05261)
Spectra Averaged: 1 (USB2+H05261)
Boxcar Smoothing: 0 (USB2+H05261)
Correct for Electrical Dark: No (USB2+H05261)
Strobe/Lamp Enabled: No (USB2+H05261)
Correct for Detector Non-linearity: No (USB2+H05261)
Correct for Stray Light: No (USB2+H05261)
Number of Pixels in Processed Spectrum: 2048
>>>>>Begin Processed Spectral Data<<<<<
365.73	138.09
365.92	138.09
366.12	138.09
366.32	0.00
366.52	0.00
366.72	51.49
366.91	0.00
367.11	0.00
367.31	0.00
367.51	0.00
367.70	0.00
367.90	0.00
368.10	0.00
368.30	0.00
368.49	0.00
368.69	21.06
368.89	7.02
369.09	65.54
369.28	37.45
369.48	0.00
369.68	0.00
369.87	0.00
370.07	0.00
370.27	0.00
370.47	95.96
370.66	250.44
370.86	344.06
371.06	344.06
371.25	386.19
371.45	308.95
371.65	283.20
371.84	411.93
372.04	369.80
372.24	383.85
372.44	365.12
372.63	409.59
372.83	430.66
373.03	409.59
373.22	416.62
373.42	463.43
373.62	442.36
373.81	461.09
374.01	409.59
374.21	442.36
374.40	465.77
374.60	498.53
374.79	444.70
374.99	514.92
375.19	524.28
375.38	540.66
375.58	430.66
375.78	470.45
375.97	484.49
376.17	475.13
376.37	454.06
376.56	559.39
376.76	510.24
376.95	491.51
377.15	589.82
377.35	521.94
377.54	547.69
377.74	557.05
377.93	543.00
378.13	514.92
378.33	571.09
378.52	587.47
378.72	601.52
378.91	493.85
379.11	535.98
379.31	540.66
379.50	505.56
379.70	585.13
379.89	613.22
380.09	535.98
380.28	538.32
380.48	620.24
380.68	613.22
380.87	561.73
381.07	538.32
381.26	662.37
381.46	603.86
381.65	716.20
381.85	706.84
382.04	617.90
382.24	622.58
382.43	690.46
382.63	608.54
382.83	617.90
383.02	685.78
383.22	624.92
383.41	655.35
383.61	631.94
383.80	671.73
384.00	662.37
384.19	657.69
384.39	697.48
384.58	617.90
384.78	676.41
384.97	685.78
385.17	650.67
385.36	713.86
385.56	671.73
385.75	730.25
385.95	615.56
386.14	657.69
386.34	711.52
386.53	709.18
386.72	739.61
386.92	727.91
387.11	725.57
387.31	777.06
387.50	748.97
387.70	667.05
387.89	692.80
388.09	741.95
388.28	713.86
388.48	779.40
388.67	816.85
388.86	849.61
389.06	772.38
389.25	882.38
389.45	795.78
389.64	793.44
389.84	931.53
390.03	821.53
390.22	854.30
390.42	791.10
390.61	884.72
390.81	784.08
391.00	889.40
391.19	870.68
391.39	816.85
391.58	903.45
391.78	870.68
391.97	868.34
392.16	910.47
392.36	980.68
392.55	898.77
392.75	992.39
392.94	922.17
393.13	938.55
393.33	910.47
393.52	976.00
393.71	976.00
393.91	1008.77
394.10	943.24
394.29	952.60
394.49	990.05
394.68	1001.75
394.88	1011.11
395.07	943.24
395.26	1032.18
395.46	1043.88
395.65	1146.86
395.84	1093.03
396.04	1170.27
396.23	1057.92
396.42	1139.84
396.62	1121.12
396.81	1118.78
397.00	1121.12
397.19	1046.22
397.39	1200.69
397.58	1104.73
397.77	1132.82
397.97	1238.14
398.16	1118.78
398.35	1137.50
398.55	1177.29
398.74	1254.53
398.93	1327.08
399.12	1219.42
399.32	1107.07
399.51	1158.57
399.70	1270.91
399.90	1306.02
400.09	1270.91
400.28	1306.02
400.47	1338.79
400.67	1380.92
400.86	1350.49
401.05	1336.45
401.24	1275.59
401.44	1448.79
401.63	1380.92
401.82	1411.34
402.01	1462.83
402.21	1399.64
402.40	1483.90
402.59	1444.11
402.78	1373.89
402.97	1584.54
403.17	1479.22
403.36	1453.47
403.55	1582.20
403.74	1570.50
403.93	1537.73
404.13	1638.38
404.32	1540.07
404.51	1549.43
404.70	1589.22
404.89	1577.52
405.09	1621.99
405.28	1650.08
405.47	1624.33
405.66	1671.14
405.85	1668.80
406.05	1689.87
406.24	1783.49
406.43	1748.38
406.62	1872.43
406.81	1767.10
407.00	1776.47
407.20	1767.10
407.39	1858.39
407.58	1907.54
407.77	1856.04
407.96	1933.28
408.15	1907.54
408.34	1811.57
408.54	1994.14
408.73	1980.09
408.92	1881.79
409.11	1973.07
409.30	1937.96
409.49	2052.65
409.68	2036.27
409.87	2064.35
410.07	2052.65
410.26	2125.21
410.45	2106.48
410.64	2125.21
410.83	2265.64
411.02	2083.08
411.21	2197.76
411.40	2256.28
411.59	2256.28
411.78	2277.34
411.98	2305.43
412.17	2267.98
412.36	2141.59
412.55	2385.01
412.74	2394.37
412.93	2504.37
413.12	2417.77
413.31	2345.22
413.50	2469.27
413.69	2457.56
413.88	2614.38
414.07	2523.10
414.26	2438.84
414.45	2567.57
414.64	2635.44
414.83	2803.96
415.02	2782.90
415.22	2675.23
415.41	2846.09
415.60	2871.84
415.79	2815.66
415.98	2860.13
416.17	2801.62
416.36	2986.52
416.55	2939.71
416.74	3030.99
416.93	2857.79
417.12	2904.60
417.31	3070.78
417.50	3084.83
417.69	3143.34
417.88	3176.11
418.07	3197.17
418.26	3295.47
418.45	3241.64
418.64	3328.24
418.83	3300.16
419.02	3346.97
419.21	3435.91
419.39	3332.92
419.58	3286.11
419.77	3293.13
419.96	3353.99
420.15	3431.23
420.34	3389.10
420.53	3368.03
420.72	3510.80
420.91	3424.20
421.10	3588.04
421.29	3592.72
421.48	3442.93
421.67	3611.45
421.86	3646.55
422.05	3667.62
422.24	3538.89
422.43	3562.30
422.61	3686.34
422.80	3819.75
422.99	3686.34
423.18	3644.21
423.37	3590.38
423.56	3698.05
423.75	3627.83
423.94	3632.51
424.13	3520.17
424.32	3646.55
424.50	3786.99
424.69	3765.92
424.88	3838.48
425.07	3702.73
425.26	3805.71
425.45	3744.86
425.64	3796.35
425.83	3735.50
426.01	3765.92
426.20	3751.88
426.39	3740.18
426.58	3726.13
426.77	3782.31
426.96	3904.01
427.15	3808.05
427.33	3936.78
427.52	3901.67
427.71	3934.44
427.90	3992.95
428.09	3950.82
428.28	3948.48
428.46	3950.82
428.65	3899.33
428.84	4142.75
429.03	4091.26
429.22	3990.61
429.40	4142.75
429.59	4170.83
429.78	4093.60
429.97	3857.20
430.16	4060.83
430.34	4280.84
430.53	4229.35
430.72	4325.31
430.91	4329.99
431.10	4145.09
431.28	4304.25
431.47	4383.82
431.66	4465.74
431.85	4280.84
432.03	4468.08
432.22	4472.76
432.41	4393.19
432.60	4496.17
432.79	4337.01
432.97	4421.27
433.16	4454.04
433.35	4631.92
433.54	4643.62
433.72	4538.30
433.91	4599.15
434.10	4540.64
434.28	4592.13
434.47	4739.58
434.66	4580.43
434.85	4739.58
435.03	4800.44
435.22	5057.90
435.41	5151.52
435.59	5233.44
435.78	5083.64
435.97	4997.04
436.16	4786.40
436.34	4912.78
436.53	4798.10
436.72	5039.17
436.90	4786.40
437.09	4978.32
437.28	4877.68
437.46	4896.40
437.65	5004.07
437.84	5107.05
438.02	5053.22
438.21	4978.32
438.40	5151.52
438.58	5268.55
438.77	5364.51
438.96	5188.97
439.14	5221.74
439.33	5390.25
439.52	5453.45
439.70	5530.69
439.89	5509.62
440.08	5572.82
440.26	5383.23
440.45	5577.50
440.63	5736.65
440.82	5640.69
441.01	5746.02
441.19	5753.04
441.38	5923.90
441.57	5797.51
441.75	5818.57
441.94	5724.95
442.12	5959.00
442.31	5984.75
442.50	5930.92
442.68	6003.47
442.87	6113.48
443.05	6139.23
443.24	6289.02
443.43	5937.94
443.61	6160.29
443.80	6375.62
443.98	6127.52
444.17	6045.60
444.35	6040.92
444.54	6469.24
444.73	6277.32
444.91	6230.51
445.10	6160.29
445.28	6225.82
445.47	6190.72
445.65	6155.61
445.84	6279.66
446.02	6424.77
446.21	6314.77
446.39	6221.14
446.58	6394.34
446.77	6354.55
446.95	6363.92
447.14	6420.09
447.32	6516.05
447.51	6462.22
447.69	6347.53
447.88	6499.67
448.06	6305.40
448.25	6420.09
448.43	6319.45
448.62	6312.42
448.80	6604.99
448.99	6633.08
449.17	6415.41
449.36	6420.09
449.54	6642.44
449.73	6768.83
449.91	6637.76
450.10	6764.15
450.28	6813.30
450.46	6654.14
450.65	6553.50
450.83	6789.89
451.02	6654.14
451.20	6967.77
451.39	7033.31
451.57	6834.36
451.76	6691.59
451.94	6733.72
452.13	6902.24
452.31	6979.48
452.49	6743.08
452.68	7105.87
452.86	6923.30
453.05	7021.61
453.23	7080.12
453.42	7075.44
453.60	6984.16
453.78	7183.10
453.97	6958.41
454.15	7124.59
454.34	7171.40
454.52	7115.23
454.70	7297.79
454.89	7283.75
455.07	7321.20
455.26	7274.38
455.44	7485.03
455.62	7318.86
455.81	7335.24
455.99	7339.92
456.17	7382.05
456.36	7536.52
456.54	7557.59
456.73	7543.55
456.91	7829.09
457.09	7733.13
457.28	7838.45
457.46	7744.83
457.64	7758.88
457.83	7742.49
458.01	7719.09
458.19	7899.31
458.38	7789.30
458.56	7988.25
458.74	7953.14
458.93	8053.78
459.11	7983.57
459.29	8086.55
459.48	8009.31
459.66	7988.25
459.84	8079.53
460.03	8269.11
460.21	8051.44
460.39	8243.37
460.57	7981.23
460.76	8149.75
460.94	8072.51
461.12	8182.51
461.31	8294.86
461.49	8224.64
461.67	8414.23
461.85	8425.93
462.04	8217.62
462.22	9057.87
462.40	8435.29
462.59	8596.79
462.77	8608.49
462.95	8418.91
463.13	8540.61
463.32	8582.74
463.50	8889.35
463.68	8709.13
463.86	8737.22
464.05	8564.02
464.23	8655.30
464.41	8723.18
464.59	8554.66
464.78	8769.99
464.96	8587.43
465.14	8814.46
465.32	9004.04
465.50	8940.85
465.69	8910.42
465.87	8868.29
466.05	8919.78
466.23	8821.48
466.41	8990.00
466.60	9296.61
466.78	9090.64
466.96	8945.53
467.14	9114.05
467.32	8954.89
467.51	9198.31
467.69	9011.06
467.87	9081.28
468.05	9390.23
468.23	9107.02
468.41	8971.27
468.60	9118.73
468.78	9254.48
468.96	9282.56
469.14	9334.06
469.32	9509.60
469.50	9200.65
469.69	9626.62
469.87	9643.01
470.05	9753.01
470.23	9434.70
470.41	9504.92
470.59	9724.93
470.77	9699.18
470.95	9713.22
471.14	9832.59
471.32	9638.33
471.50	9928.55
471.68	10092.39
471.86	10029.20
472.04	9980.04
472.22	10120.48
472.40	10008.13
472.58	10284.31
472.77	10244.52
472.95	10186.01
473.13	10583.90
473.31	10265.59
473.49	10274.95
473.67	10258.57
473.85	10338.15
474.03	10654.12
474.21	10377.94
474.39	10562.84
474.57	10523.05
474.75	10736.04
474.93	10946.69
475.12	10881.15
475.30	11096.48
475.48	10925.62
475.66	11122.23
475.84	11171.38
476.02	11077.76
476.20	11262.66
476.38	11487.35
476.56	11613.74
476.74	11702.68
476.92	11496.71
477.10	11632.46
477.28	11700.34
477.46	11658.21
477.64	11681.61
477.82	12102.91
478.00	11901.62
478.18	12318.24
478.36	12400.16
478.54	12414.20
478.72	12510.16
478.90	12617.83
479.08	12685.70
479.26	12718.47
479.44	12931.46
479.62	12912.74
479.80	13125.72
479.98	13329.35
480.16	13118.70
480.34	13294.24
480.52	13406.59
480.70	13661.71
480.88	13383.18
481.06	13642.98
481.24	13540.00
481.41	13837.25
481.59	14092.37
481.77	14029.17
481.95	14249.18
482.13	14478.55
482.31	14061.94
482.49	14569.83
482.67	14754.74
482.85	14801.55
483.03	15147.95
483.21	15110.50
483.39	15297.74
483.57	14909.21
483.74	15351.57
483.92	15428.81
484.10	15353.91
484.28	15873.51
484.46	16168.42
484.64	16145.02
484.82	15721.38
485.00	15939.05
485.18	16482.05
485.35	16842.50
485.53	16753.55
485.71	16610.78
485.89	16805.05
486.07	17186.55
486.25	17043.78
486.43	17170.17
486.61	17287.20
486.78	17420.61
486.96	17605.51
487.14	17921.48
487.32	17851.27
487.50	18045.53
487.68	17958.93
487.85	18312.35
488.03	18647.05
488.21	18691.52
488.39	18750.03
488.57	18721.95
488.75	18845.99
488.92	19126.86
489.10	19283.67
489.28	19470.92
489.46	19611.35
489.64	19559.86
489.81	19941.36
489.99	19913.28
490.17	19599.65
490.35	20257.34
490.53	20018.60
490.70	20339.26
490.88	20652.89
491.06	20812.04
491.24	20772.25
491.41	20966.52
491.59	21062.48
491.77	21266.11
491.95	21083.55
492.13	21511.86
492.30	21589.10
492.48	21511.86
492.66	21525.91
492.84	21565.70
493.01	21949.54
493.19	21970.61
493.37	22298.28
493.54	22370.84
493.72	22314.67
493.90	22532.34
494.08	22499.57
494.25	23150.24
494.43	23077.68
494.61	23557.49
494.79	23660.48
494.96	23112.79
495.14	23463.87
495.32	23634.73
495.49	23962.40
495.67	23885.17
495.85	24437.53
496.02	24067.73
496.20	24222.20
496.38	24217.52
496.55	24552.22
496.73	25085.86
496.91	24533.50
497.09	25008.62
497.26	25132.67
497.44	25249.70
497.62	25029.69
497.79	25481.41
497.97	25619.50
498.14	25750.57
498.32	25984.63
498.50	25841.85
498.67	26183.57
498.85	26033.78
499.03	25954.20
499.20	26106.34
499.38	26518.27
499.56	26792.11
499.73	26911.48
499.91	26977.01
500.08	27098.72
500.26	26700.83
500.44	26962.97
500.61	27260.22
500.79	27288.31
500.97	27468.53
501.14	27562.15
501.32	27395.97
501.49	27395.97
501.67	27297.67
501.84	27648.75
502.02	27487.25
502.20	27850.03
502.37	28233.88
502.55	27981.10
502.72	28151.96
502.90	28250.27
503.07	28444.53
503.25	28355.59
503.43	28299.42
503.60	28507.72
503.78	28549.85
503.95	28690.29
504.13	29001.58
504.30	28746.46
504.48	28847.10
504.65	29090.52
504.83	29221.59
505.01	29640.54
505.18	29890.98
505.36	29930.77
505.53	29584.37
505.71	29797.36
505.88	29825.45
506.06	29706.08
506.23	30223.34
506.41	30026.73
506.58	29881.62
506.76	29867.58
506.93	30546.33
507.11	30188.23
507.28	30082.91
507.46	30487.82
507.63	30670.38
507.81	31136.15
507.98	30635.27
508.16	30785.07
508.33	30939.54
508.50	31028.48
508.68	31299.98
508.85	31110.40
509.03	31323.39
509.20	31271.90
509.38	31885.12
509.55	31845.33
509.73	31618.30
509.90	31655.75
510.08	31597.23
510.25	32158.96
510.42	31824.26
510.60	32526.42
510.77	32292.37
510.95	32121.51
511.12	32144.92
511.30	32163.64
511.47	32540.47
511.64	32460.89
511.82	33062.41
511.99	32790.91
512.17	33106.88
512.34	33184.12
512.51	33151.35
512.69	33259.01
512.86	33308.16
513.04	34082.88
513.21	33404.13
513.38	33415.83
513.56	33275.40
513.73	33123.26
513.90	33567.96
514.08	33362.00
514.25	33619.46
514.43	34115.65
514.60	34445.66
514.77	34326.30
514.95	34251.40
515.12	34171.82
515.29	34017.35
515.47	34354.38
515.64	34522.90
515.81	34150.76
515.99	34834.19
516.16	34712.49
516.33	34595.46
516.51	34902.07
516.68	35098.67
516.85	34487.79
517.03	35344.43
517.20	35098.67
517.37	35431.03
517.54	35241.45
517.72	35737.64
517.89	35192.30
518.06	35330.39
518.24	35337.41
518.41	35821.90
518.58	35910.84
518.75	35714.23
518.93	36077.02
519.10	35732.96
519.27	36299.37
519.45	36222.13
519.62	35983.40
519.79	36156.60
519.96	36584.91
520.14	36671.51
520.31	36142.55
520.48	36968.76
520.65	36397.67
520.83	36875.14
521.00	36561.51
521.17	36879.82
521.34	36856.42
521.52	37163.03
521.69	37076.43
521.86	37500.06
522.03	37652.20
522.20	37460.27
522.38	37076.43
522.55	37261.33
522.72	37699.01
522.89	37495.38
523.07	37834.76
523.24	37720.07
523.41	38328.61
523.58	37659.22
523.75	38314.57
523.92	37858.17
524.10	38115.62
524.27	37935.40
524.44	38073.49
524.61	38450.32
524.78	38471.39
524.96	38494.79
525.13	38593.09
525.30	38251.38
525.47	38553.30
525.64	38675.01
525.81	38880.98
525.98	39033.11
526.16	38953.54
526.33	38775.66
526.50	39262.49
526.67	38958.22
526.84	38827.15
527.01	39023.75
527.18	38995.67
527.36	39178.23
527.53	39185.25
527.70	39241.42
527.87	39913.16
528.04	39550.37
528.21	40004.44
528.38	39531.65
528.55	39543.35
528.72	40069.97
528.89	39782.09
529.07	39363.13
529.24	39922.52
529.41	40191.68
529.58	39517.60
529.75	40030.18
529.92	40091.04
530.09	40158.91
530.26	40105.08
530.43	40559.14
530.60	39959.97
530.77	40664.47
530.94	40837.67
531.11	40392.97
531.28	40612.98
531.46	40809.58
531.63	40802.56
531.80	40582.55
531.97	40861.07
532.14	40978.10
532.31	40973.42
532.48	41172.36
532.65	40577.87
532.82	40725.32
532.99	41397.06
533.16	41118.53
533.33	40952.35
533.50	41729.41
533.67	41619.41
533.84	41270.67
534.01	41509.40
534.18	41146.62
534.35	41390.03
534.52	41390.03
534.69	41659.20
534.86	41752.82
535.03	41581.96
535.20	41874.52
535.37	41766.86
535.54	41661.54
535.71	41808.99
535.88	41764.52
536.05	41563.23
536.22	42232.63
536.38	42171.77
536.55	41766.86
536.72	41823.03
536.89	41961.12
537.06	41886.23
537.23	42131.98
537.40	42234.97
537.57	41958.78
537.74	42426.89
537.91	42789.67
538.08	42876.27
538.25	42831.80
538.42	42777.97
538.59	43035.43
538.75	42579.03
538.92	42600.09
539.09	43084.58
539.26	42946.49
539.43	43438.00
539.60	43103.31
539.77	42607.11
539.94	43349.06
540.11	43150.12
540.28	43456.73
540.44	43075.22
540.61	43122.03
540.78	43072.88
540.95	43648.65
541.12	43522.26
541.29	43620.56
541.46	43938.88
541.62	43828.87
541.79	43840.57
541.96	43793.76
542.13	43634.61
542.30	43622.90
542.47	43941.22
542.63	44105.06
542.80	44296.98
542.97	44493.58
543.14	44509.97
543.31	44182.29
543.48	44493.58
543.64	45111.49
543.81	44619.97
543.98	44919.56
544.15	44512.31
544.32	45137.23
544.48	44884.45
544.65	44451.45
544.82	45027.23
544.99	44275.91
545.16	45071.70
545.32	44535.71
545.49	45521.08
545.66	45855.78
545.83	46199.83
546.00	46370.69
546.16	45666.19
546.33	44891.48
546.50	44348.47
546.67	44842.32
546.83	44584.86
547.00	45301.07
547.17	45050.63
547.34	45134.89
547.50	44933.60
547.67	45497.67
547.84	44816.58
548.00	45591.30
548.17	45467.25
548.34	45277.66
548.51	45694.28
548.67	45460.23
548.84	45385.33
549.01	45738.75
549.18	45357.24
549.34	45801.94
549.51	45485.97
549.68	46043.02
549.84	45600.66
550.01	45670.87
550.18	45380.65
550.34	46120.26
550.51	45500.01
550.68	45858.12
550.84	45790.24
551.01	46003.23
551.18	45659.17
551.34	45591.30
551.51	46277.07
551.68	45874.50
551.84	46014.93
552.01	45680.24
552.18	45872.16
552.34	45853.44
552.51	46380.06
552.68	45998.55
552.84	46099.19
553.01	46146.00
553.18	45947.06
553.34	46239.62
553.51	46305.16
553.67	46298.14
553.84	46703.05
554.01	46349.63
554.17	46389.42
554.34	46003.23
554.51	46227.92
554.67	46597.73
554.84	46667.94
555.00	46089.83
555.17	46204.52
555.33	46483.04
555.50	46806.03
555.67	46305.16
555.83	46368.35
556.00	46312.18
556.16	46831.78
556.33	46422.19
556.50	46305.16
556.66	46871.57
556.83	46740.50
556.99	46934.76
557.16	46962.85
557.32	46902.00
557.49	46850.50
557.65	46768.58
557.82	46639.86
557.98	47152.43
558.15	46752.20
558.32	46876.25
558.48	46520.49
558.65	46955.83
558.81	46934.76
558.98	47058.81
559.14	46873.91
559.31	46459.63
559.47	46756.88
559.64	47119.66
559.80	47028.38
559.97	47353.72
560.13	46899.65
560.30	47012.00
560.46	47028.38
560.63	47285.84
560.79	46707.73
560.96	47023.70
561.12	47187.54
561.29	46848.16
561.45	47267.12
561.61	47253.08
561.78	47234.35
561.94	47625.22
562.11	47627.56
562.27	47243.71
562.44	46782.63
562.60	47201.58
562.77	47271.80
562.93	47503.51
563.10	47393.51
563.26	47522.24
563.42	47620.54
563.59	47260.10
563.75	47400.53
563.92	48093.33
564.08	47334.99
564.24	47512.88
564.41	47152.43
564.57	47124.35
564.74	47377.12
564.90	47842.89
565.07	47271.80
565.23	47517.56
565.39	47384.15
565.56	47632.24
565.72	47201.58
565.88	47386.49
566.05	47133.71
566.21	47716.50
566.38	47075.19
566.54	47639.26
566.70	47592.45
566.87	47805.44
567.03	47632.24
567.19	48109.71
567.36	47779.70
567.52	47643.94
567.68	47454.36
567.85	47562.03
568.01	47578.41
568.17	47217.97
568.34	47510.53
568.50	47849.91
568.66	47632.24
568.83	48334.40
568.99	47363.08
569.15	47318.61
569.32	47449.68
569.48	47576.07
569.64	47838.21
569.81	47903.74
569.97	47461.38
570.13	47962.26
570.30	47461.38
570.46	47639.26
570.62	47653.31
570.78	47665.01
570.95	47606.50
571.11	47777.36
571.27	47241.37
571.43	47636.92
571.60	47901.40
571.76	47643.94
571.92	47592.45
572.09	47826.51
572.25	47938.85
572.41	48079.28
572.57	47929.49
572.74	47721.18
572.90	47358.40
573.06	47812.46
573.22	47980.98
573.38	47889.70
573.55	47796.08
573.71	48296.95
573.87	48116.73
574.03	47608.84
574.20	47859.27
574.36	47863.96
574.52	47428.62
574.68	47608.84
574.84	47723.52
575.01	48037.16
575.17	48292.27
575.33	47641.60
575.49	47821.83
575.65	48299.30
575.82	47913.11
575.98	47662.67
576.14	47721.18
576.30	47594.79
576.46	48025.45
576.62	47819.49
576.79	48161.20
576.95	47587.77
577.11	48271.21
577.27	47875.66
577.43	47665.01
577.59	47821.83
577.75	48025.45
577.92	47903.74
578.08	48109.71
578.24	47854.59
578.40	47700.12
578.56	47826.51
578.72	47744.59
578.88	48240.78
579.04	48179.93
579.21	48053.54
579.37	47990.34
579.53	48011.41
579.69	47758.63
579.85	47718.84
580.01	47927.15
580.17	47667.35
580.33	47562.03
580.49	48006.73
580.65	47920.13
580.82	48168.22
580.98	48046.52
581.14	47908.43
581.30	47964.60
581.46	47721.18
581.62	47606.50
581.78	47728.20
581.94	47922.47
582.10	47789.06
582.26	47938.85
582.42	48004.39
582.58	48320.36
582.74	47943.53
582.90	48388.24
583.06	47819.49
583.22	47962.26
583.38	47772.67
583.54	47955.24
583.70	47639.26
583.86	47894.38
584.02	47973.96
584.18	48245.46
584.34	48495.90
584.50	48133.12
584.66	47728.20
584.82	47386.49
584.98	48069.92
585.14	48034.81
585.30	47660.33
585.46	47796.08
585.62	47665.01
585.78	48163.54
585.94	47760.97
586.10	47934.17
586.26	48044.18
586.42	48217.38
586.58	48095.67
586.74	48217.38
586.90	47442.66
587.06	47847.57
587.22	47653.31
587.38	48114.39
587.54	48247.80
587.70	48343.77
587.86	47999.71
588.02	48488.88
588.18	48119.07
588.34	48465.47
588.49	47901.40
588.65	47599.47
588.81	48032.47
588.97	48037.16
589.13	48102.69
589.29	48116.73
589.45	48156.52
589.61	48116.73
589.77	48289.93
589.93	48500.58
590.08	48383.55
590.24	48341.42
