SpectraSuite Data File
++++++++++++++++++++++++++++++++++++
Date: Fri Oct 04 11:39:27 GMT-05:00 2013
User: price-jones
Dark Spectrum Present: No
Reference Spectrum Present: No
Number of Sampled Component Spectra: 1
Spectrometers: USB2+H05261
Integration Time (usec): 100000 (USB2+H05261)
Spectra Averaged: 1 (USB2+H05261)
Boxcar Smoothing: 0 (USB2+H05261)
Correct for Electrical Dark: No (USB2+H05261)
Strobe/Lamp Enabled: No (USB2+H05261)
Correct for Detector Non-linearity: No (USB2+H05261)
Correct for Stray Light: No (USB2+H05261)
Number of Pixels in Processed Spectrum: 2048
>>>>>Begin Processed Spectral Data<<<<<
365.73	88.94
365.92	88.94
366.12	88.94
366.32	0.00
366.52	0.00
366.72	35.11
366.91	0.00
367.11	0.00
367.31	0.00
367.51	0.00
367.70	0.00
367.90	0.00
368.10	0.00
368.30	0.00
368.49	0.00
368.69	0.00
368.89	0.00
369.09	0.00
369.28	0.00
369.48	0.00
369.68	0.00
369.87	0.00
370.07	0.00
370.27	0.00
370.47	28.09
370.66	37.45
370.86	110.01
371.06	147.45
371.25	138.09
371.45	140.43
371.65	245.76
371.84	110.01
372.04	201.29
372.24	173.20
372.44	180.22
372.63	182.56
372.83	236.39
373.03	212.99
373.22	231.71
373.42	212.99
373.62	222.35
373.81	264.48
374.01	290.23
374.21	196.60
374.40	231.71
374.60	262.14
374.79	166.18
374.99	271.50
375.19	222.35
375.38	205.97
375.58	205.97
375.78	299.59
375.97	163.84
376.17	294.91
376.37	217.67
376.56	236.39
376.76	234.05
376.95	142.77
377.15	262.14
377.35	250.44
377.54	283.20
377.74	222.35
377.93	241.08
378.13	269.16
378.33	222.35
378.52	271.50
378.72	276.18
378.91	175.54
379.11	259.80
379.31	248.10
379.50	194.26
379.70	255.12
379.89	229.37
380.09	203.63
380.28	212.99
380.48	248.10
380.68	222.35
380.87	252.78
381.07	292.57
381.26	245.76
381.46	339.38
381.65	292.57
381.85	241.08
382.04	292.57
382.24	229.37
382.43	243.42
382.63	234.05
382.83	266.82
383.02	301.93
383.22	287.89
383.41	248.10
383.61	304.27
383.80	285.55
384.00	264.48
384.19	297.25
384.39	273.84
384.58	227.03
384.78	322.99
384.97	294.91
385.17	299.59
385.36	287.89
385.56	304.27
385.75	203.63
385.95	341.72
386.14	280.86
386.34	252.78
386.53	339.38
386.72	322.99
386.92	362.78
387.11	325.33
387.31	341.72
387.50	360.44
387.70	365.12
387.89	353.42
388.09	248.10
388.28	315.97
388.48	264.48
388.67	353.42
388.86	341.72
389.06	297.25
389.25	320.65
389.45	332.36
389.64	365.12
389.84	252.78
390.03	397.89
390.22	367.46
390.42	477.47
390.61	409.59
390.81	360.44
391.00	346.40
391.19	421.30
391.39	379.17
391.58	411.93
391.78	386.19
391.97	355.76
392.16	369.80
392.36	437.68
392.55	395.55
392.75	430.66
392.94	362.78
393.13	397.89
393.33	440.02
393.52	428.32
393.71	489.17
393.91	383.85
394.10	484.49
394.29	407.25
394.49	416.62
394.68	477.47
394.88	390.87
395.07	571.09
395.26	447.04
395.46	444.70
395.65	454.06
395.84	461.09
396.04	526.62
396.23	341.72
396.42	496.19
396.62	531.30
396.81	493.85
397.00	449.38
397.19	507.90
397.39	514.92
397.58	493.85
397.77	531.30
397.97	545.34
398.16	559.39
398.35	514.92
398.55	547.69
398.74	465.77
398.93	543.00
399.12	589.82
399.32	585.13
399.51	568.75
399.70	594.50
399.90	573.43
400.09	566.41
400.28	613.22
400.47	610.88
400.67	608.54
400.86	636.63
401.05	615.56
401.24	638.97
401.44	732.59
401.63	620.24
401.82	688.12
402.01	589.82
402.21	655.35
402.40	674.07
402.59	667.05
402.78	650.67
402.97	727.91
403.17	727.91
403.36	788.76
403.55	688.12
403.74	725.57
403.93	713.86
404.13	800.46
404.32	816.85
404.51	800.46
404.70	791.10
404.89	753.65
405.09	898.77
405.28	807.48
405.47	781.74
405.66	835.57
405.85	837.91
406.05	866.00
406.24	898.77
406.43	929.19
406.62	1006.43
406.81	938.55
407.00	915.15
407.20	926.85
407.39	924.51
407.58	959.62
407.77	978.34
407.96	1011.11
408.15	1053.24
408.34	1071.97
408.54	987.71
408.73	1074.31
408.92	1090.69
409.11	1100.05
409.30	1100.05
409.49	1041.54
409.68	1076.65
409.87	1097.71
410.07	1081.33
410.26	1193.67
410.45	1130.48
410.64	1179.63
410.83	1139.84
411.02	1228.78
411.21	1207.72
411.40	1179.63
411.59	1240.48
411.78	1254.53
411.98	1261.55
412.17	1254.53
412.36	1259.21
412.55	1273.25
412.74	1481.56
412.93	1406.66
413.12	1380.92
413.31	1528.37
413.50	1465.18
413.69	1472.20
413.88	1401.98
414.07	1533.05
414.26	1401.98
414.45	1575.18
414.64	1507.30
414.83	1591.56
415.02	1629.01
415.22	1582.20
415.41	1671.14
415.60	1643.06
415.79	1715.61
415.98	1687.53
416.17	1748.38
416.36	1724.97
416.55	1659.44
416.74	1820.94
416.93	1675.82
417.12	1783.49
417.31	1696.89
417.50	1788.17
417.69	1877.11
417.88	1776.47
418.07	1858.39
418.26	1865.41
418.45	1865.41
418.64	1944.99
418.83	1863.07
419.02	1947.33
419.21	1874.77
419.39	1968.39
419.58	2012.86
419.77	1884.13
419.96	2038.61
420.15	2031.58
420.34	1989.46
420.53	2092.44
420.72	2076.06
420.91	2097.12
421.10	2129.89
421.29	2143.93
421.48	2153.29
421.67	2232.87
421.86	2122.87
422.05	2155.63
422.24	2153.29
422.43	2197.76
422.61	2155.63
422.80	2326.49
422.99	2190.74
423.18	2239.89
423.37	2464.58
423.56	2204.78
423.75	2347.56
423.94	2167.34
424.13	2064.35
424.32	2069.03
424.50	2228.19
424.69	2333.51
424.88	2317.13
425.07	2242.23
425.26	2270.32
425.45	2165.00
425.64	2270.32
425.83	2176.70
426.01	2368.62
426.20	2289.04
426.39	2321.81
426.58	2342.88
426.77	2317.13
426.96	2260.96
427.15	2340.54
427.33	2471.61
427.52	2422.45
427.71	2413.09
427.90	2445.86
428.09	2417.77
428.28	2455.22
428.46	2485.65
428.65	2431.82
428.84	2565.23
429.03	2607.36
429.22	2392.03
429.40	2448.20
429.59	2476.29
429.78	2312.45
429.97	2518.42
430.16	2495.01
430.34	2478.63
430.53	2579.27
430.72	2640.12
430.91	2544.16
431.10	2619.06
431.28	2670.55
431.47	2619.06
431.66	2605.02
431.85	2665.87
432.03	2717.36
432.22	2743.11
432.41	2647.15
432.60	2719.70
432.79	2761.83
432.97	2904.60
433.16	2682.25
433.35	2689.28
433.54	2846.09
433.72	2726.72
433.91	2810.98
434.10	2782.90
434.28	2878.86
434.47	2916.31
434.66	2897.58
434.85	2857.79
435.03	2918.65
435.22	3056.74
435.41	3461.65
435.59	3375.05
435.78	3187.81
435.97	3066.10
436.16	3105.89
436.34	3030.99
436.53	2977.16
436.72	3145.68
436.90	3035.67
437.09	3077.80
437.28	2972.48
437.46	2953.76
437.65	3052.06
437.84	3243.98
438.02	3098.87
438.21	3222.92
438.40	3138.66
438.58	3108.23
438.77	3098.87
438.96	3159.72
439.14	3309.52
439.33	3269.73
439.52	3372.71
439.70	3309.52
439.89	3363.35
440.08	3438.25
440.26	3311.86
440.45	3391.44
440.63	3466.33
440.82	3435.91
441.01	3487.40
441.19	3489.74
441.38	3513.14
441.57	3637.19
441.75	3641.87
441.94	3672.30
442.12	3632.51
442.31	3660.60
442.50	3702.73
442.68	3707.41
442.87	3604.42
443.05	3775.28
443.24	3768.26
443.43	3749.54
443.61	3709.75
443.80	4023.38
443.98	3754.22
444.17	3658.26
444.35	3817.41
444.54	3779.97
444.73	3779.97
444.91	3861.88
445.10	3817.41
445.28	3875.93
445.47	3740.18
445.65	3721.45
445.84	3756.56
446.02	4060.83
446.21	3899.33
446.39	3887.63
446.58	3941.46
446.77	3754.22
446.95	3672.30
447.14	3786.99
447.32	3915.72
447.51	3932.10
447.69	3840.82
447.88	3875.93
448.06	4044.45
448.25	3772.94
448.43	3906.35
448.62	3925.08
448.80	3943.80
448.99	3962.53
449.17	4039.76
449.36	3948.48
449.54	4131.05
449.73	4044.45
449.91	4084.23
450.10	4173.18
450.28	4161.47
450.46	4016.36
450.65	4056.15
450.83	4145.09
451.02	4053.81
451.20	4173.18
451.39	4168.49
451.57	4173.18
451.76	4166.15
451.94	4163.81
452.13	4329.99
452.31	4369.78
452.49	4236.37
452.68	4327.65
452.86	4315.95
453.05	4299.56
453.23	4320.63
453.42	4290.20
453.60	4194.24
453.78	4348.72
453.97	4308.93
454.15	4285.52
454.34	4166.15
454.52	4404.89
454.70	4437.66
454.89	4327.65
455.07	4521.92
455.26	4463.40
455.44	4538.30
455.62	4681.07
455.81	4463.40
455.99	4547.66
456.17	4784.06
456.36	4657.67
456.54	4758.31
456.73	4702.14
456.91	4709.16
457.09	4706.82
457.28	4781.71
457.46	4634.26
457.64	4840.23
457.83	4634.26
458.01	4716.18
458.19	4791.08
458.38	4870.65
458.56	4856.61
458.74	4863.63
458.93	4880.02
459.11	4868.31
459.29	4798.10
459.48	4833.21
459.66	5060.24
459.84	4945.55
460.03	4945.55
460.21	5071.94
460.39	5048.54
460.57	4997.04
460.76	5048.54
460.94	5074.28
461.12	5177.26
461.31	5219.39
461.49	5046.20
461.67	4882.36
461.85	5371.53
462.04	5104.71
462.22	5303.65
462.40	5282.59
462.59	5308.34
462.77	5071.94
462.95	5224.08
463.13	5219.39
463.32	5366.85
463.50	5408.98
463.68	5451.11
463.86	5418.34
464.05	5350.46
464.23	5533.03
464.41	5359.83
464.59	5273.23
464.78	5364.51
464.96	5376.21
465.14	5322.38
465.32	5416.00
465.50	5591.54
465.69	5277.91
465.87	5418.34
466.05	5425.36
466.23	5439.40
466.41	5518.98
466.60	5673.46
466.78	5448.77
466.96	5366.85
467.14	5729.63
467.32	5605.58
467.51	5633.67
467.69	5488.56
467.87	5610.26
468.05	5636.01
468.23	5596.22
468.41	5724.95
468.60	5680.48
468.78	5757.72
468.96	5771.76
469.14	5671.12
469.32	5912.19
469.50	5687.50
469.69	5738.99
469.87	5870.06
470.05	5907.51
470.23	5846.66
470.41	5940.28
470.59	5968.37
470.77	5944.96
470.95	5872.40
471.14	6146.25
471.32	5987.09
471.50	6228.17
471.68	6061.99
471.86	6099.44
472.04	6132.20
472.22	6305.40
472.40	6069.01
472.58	6223.48
472.77	6361.58
472.95	6380.30
473.13	6668.19
473.31	6401.37
473.49	6293.70
473.67	6511.37
473.85	6443.49
474.03	6469.24
474.21	6424.77
474.39	6525.41
474.57	6558.18
474.75	6684.57
474.93	6827.34
475.12	6738.40
475.30	6452.86
475.48	6738.40
475.66	6935.01
475.84	6815.64
476.02	6780.53
476.20	6874.15
476.38	6867.13
476.56	7084.80
476.74	7007.56
476.92	7115.23
477.10	7070.76
477.28	7117.57
477.46	7215.87
477.64	7293.11
477.82	7396.09
478.00	7588.02
478.18	7517.80
478.36	7478.01
478.54	7515.46
478.72	7648.87
478.90	7639.51
479.08	7796.32
479.26	7831.43
479.44	7971.86
479.62	7878.24
479.80	8002.29
479.98	7981.23
480.16	8009.31
480.34	8126.34
480.52	8334.65
480.70	8226.98
480.88	8184.85
481.06	8231.66
481.24	8297.20
481.41	8418.91
481.59	8418.91
481.77	8538.27
481.95	8645.94
482.13	8678.71
482.31	8552.32
482.49	8910.42
482.67	8908.08
482.85	9022.77
483.03	9305.97
483.21	9153.84
483.39	9425.34
483.57	9380.87
483.74	9537.68
483.92	9364.48
484.10	9331.72
484.28	9563.43
484.46	9935.57
484.64	9951.96
484.82	9811.53
485.00	10001.11
485.18	10153.24
485.35	10260.91
485.53	10202.40
485.71	10221.12
485.89	10413.04
486.07	10303.04
486.25	10277.29
486.43	10516.03
486.61	10663.48
486.78	10541.77
486.96	10717.31
487.14	11005.20
487.32	11044.99
487.50	10850.72
487.68	11002.86
487.85	11297.77
488.03	11470.97
488.21	11475.65
488.39	11506.07
488.57	11559.91
488.75	11552.88
488.92	11948.43
489.10	11826.73
489.28	11852.47
489.46	11985.88
489.64	11686.29
489.81	12257.39
489.99	12318.24
490.17	12194.19
490.35	12627.19
490.53	12343.99
490.70	12468.03
490.88	12669.32
491.06	12519.53
491.24	12699.75
491.41	12769.96
491.59	12912.74
491.77	12648.26
491.95	13083.59
492.13	13085.94
492.30	13247.43
492.48	13109.34
492.66	13221.69
492.84	13163.17
493.01	13261.48
493.19	13509.57
493.37	13645.32
493.54	13799.80
493.72	13949.59
493.90	13818.52
494.08	14012.79
494.25	13928.53
494.43	14083.00
494.61	14033.85
494.79	14394.29
494.96	14260.88
495.14	14277.27
495.32	14391.95
495.49	14707.93
495.67	14726.65
495.85	14574.52
496.02	14705.59
496.20	14754.74
496.38	14810.91
496.55	14801.55
496.73	15356.25
496.91	15089.43
497.09	15129.22
497.26	15206.46
497.44	15232.21
497.62	15356.25
497.79	15555.20
497.97	15482.64
498.14	15653.50
498.32	16006.92
498.50	16070.12
498.67	15723.72
498.85	15815.00
499.03	16025.65
499.20	15990.54
499.38	15948.41
499.56	16191.83
499.73	16311.19
499.91	16451.63
500.08	16606.10
500.26	16348.64
500.44	16624.83
500.61	16456.31
500.79	16372.05
500.97	16936.12
501.14	16835.47
501.32	16865.90
501.49	17078.89
501.67	16954.84
501.84	16875.26
502.02	17043.78
502.20	17308.26
502.37	17322.30
502.55	17418.27
502.72	17280.18
502.90	17186.55
503.07	17514.23
503.25	17291.88
503.43	17336.35
503.60	17537.63
503.78	17319.96
503.95	17415.93
504.13	17577.42
504.30	17547.00
504.48	17785.73
504.65	17998.72
504.83	18293.63
505.01	18513.64
505.18	18078.30
505.36	18256.18
505.53	18071.28
505.71	18466.83
505.88	18256.18
506.06	18026.81
506.23	18515.98
506.41	18492.57
506.58	18382.57
506.76	18410.65
506.93	18724.29
507.11	18658.75
507.28	18625.98
507.46	18602.58
507.63	18869.40
507.81	19035.58
507.98	19084.73
508.16	19047.28
508.33	18633.00
508.50	18939.62
508.68	19206.44
508.85	19297.72
509.03	19082.39
509.20	19286.01
509.38	19538.79
509.55	19737.74
509.73	19482.62
509.90	19875.83
510.08	19655.82
510.25	19688.59
510.42	19587.94
510.60	19709.65
510.77	19894.55
510.95	20072.43
511.12	19709.65
511.30	19875.83
511.47	20079.46
511.64	20273.72
511.82	20259.68
511.99	20126.27
512.17	20531.18
512.34	20308.83
512.51	20329.89
512.69	20833.11
512.86	20629.48
513.04	20566.29
513.21	20734.81
513.38	20666.93
513.56	20877.58
513.73	20835.45
513.90	20868.22
514.08	20868.22
514.25	20891.62
514.43	21020.35
514.60	21184.19
514.77	21067.16
514.95	21212.28
515.12	21106.95
515.29	21076.52
515.47	21106.95
515.64	21439.31
515.81	21516.54
515.99	21738.90
516.16	21699.11
516.33	21486.12
516.51	21509.52
516.68	21671.02
516.85	21654.64
517.03	21579.74
517.20	21867.63
517.37	22139.13
517.54	21895.71
517.72	21961.25
517.89	22024.44
518.06	21900.39
518.24	22185.94
518.41	22174.24
518.58	21865.28
518.75	22129.77
518.93	22324.03
519.10	22382.54
519.27	22501.91
519.45	22455.10
519.62	22548.72
519.79	22403.61
519.96	22644.68
520.14	22471.48
520.31	22541.70
520.48	22904.48
520.65	22733.62
520.83	23075.34
521.00	22991.08
521.17	23110.45
521.34	23407.70
521.52	23094.07
521.69	23063.64
521.86	23201.73
522.03	23276.63
522.20	23112.79
522.38	23424.08
522.55	23012.15
522.72	23384.29
522.89	23260.24
523.07	23580.90
523.24	23634.73
523.41	23630.05
523.58	23239.18
523.75	23648.77
523.92	23534.09
524.10	23695.58
524.27	23690.90
524.44	24182.42
524.61	24397.74
524.78	24006.87
524.96	23917.93
525.13	23845.38
525.30	24020.92
525.47	23995.17
525.64	24261.99
525.81	24002.19
525.98	24212.84
526.16	24238.59
526.33	24217.52
526.50	24208.16
526.67	24327.53
526.84	24208.16
527.01	24023.26
527.18	24505.41
527.36	24540.52
527.53	24568.60
527.70	24943.09
527.87	24814.36
528.04	24746.48
528.21	24992.24
528.38	24849.47
528.55	24739.46
528.72	24819.04
528.89	25057.78
529.07	24947.77
529.24	25261.40
529.41	25078.84
529.58	24713.72
529.75	24849.47
529.92	25252.04
530.09	25022.67
530.26	25228.63
530.43	25357.36
530.60	24968.84
530.77	25303.53
530.94	25303.53
531.11	25324.60
531.28	25687.38
531.46	25432.26
531.63	25357.36
531.80	25450.99
531.97	25432.26
532.14	25647.59
532.31	25624.18
532.48	25404.17
532.65	25909.73
532.82	25472.05
532.99	25771.64
533.16	25776.32
533.33	25916.75
533.50	25916.75
533.67	26050.16
533.84	25813.77
534.01	25921.43
534.18	25830.15
534.35	25972.92
534.52	26017.40
534.69	26087.61
534.86	26272.51
535.03	26031.44
535.20	26202.30
535.37	26417.63
535.54	26401.24
535.71	26003.35
535.88	26410.60
536.05	26134.42
536.22	26150.81
536.38	26862.33
536.55	26555.72
536.72	26731.26
536.89	26558.06
537.06	26209.32
537.23	26553.38
537.40	26485.50
537.57	26450.39
537.74	26700.83
537.91	26761.69
538.08	27297.67
538.25	26455.08
538.42	26803.82
538.59	26876.37
538.75	26623.59
538.92	26948.93
539.09	26822.54
539.26	27126.81
539.43	26998.08
539.60	27489.59
539.77	27543.42
539.94	27316.39
540.11	27271.92
540.28	27480.23
540.44	27358.52
540.61	27164.26
540.78	27236.81
540.95	28093.45
541.12	27838.33
541.29	27768.12
541.46	27707.26
541.62	27765.78
541.79	27875.78
541.96	27571.51
542.13	27908.55
542.30	27805.56
542.47	27985.79
542.63	27924.93
542.80	28025.57
542.97	28240.90
543.14	27814.93
543.31	28144.94
543.48	27887.48
543.64	28212.82
543.81	28505.38
543.98	28606.03
544.15	28542.83
544.32	28549.85
544.48	28542.83
544.65	28606.03
544.82	28709.01
544.99	28203.46
545.16	28421.13
545.32	28718.37
545.49	29069.45
545.66	29640.54
545.83	29663.95
546.00	29610.12
546.16	29083.50
546.33	28725.39
546.50	28507.72
546.67	28858.81
546.83	28414.10
547.00	28493.68
547.17	28800.29
547.34	28402.40
547.50	28912.64
547.67	29205.20
547.84	28830.72
548.00	29188.82
548.17	29156.05
548.34	28699.65
548.51	29020.30
548.67	28793.27
548.84	28713.69
549.01	28952.43
549.18	29008.60
549.34	28800.29
549.51	29060.09
549.68	28872.85
549.84	28638.80
550.01	29205.20
550.18	28657.52
550.34	28790.93
550.51	29139.67
550.68	29593.73
550.84	28947.75
551.01	28828.38
551.18	29022.64
551.34	28872.85
551.51	29188.82
551.68	29174.78
551.84	29493.09
552.01	29350.32
552.18	29256.70
552.34	29383.09
552.51	29507.13
552.68	28961.79
552.84	29291.80
553.01	29266.06
553.18	29427.56
553.34	29418.19
553.51	29317.55
553.67	29628.84
553.84	29596.07
554.01	29855.87
554.17	29355.00
554.34	29277.76
554.51	29172.44
554.67	29256.70
554.84	29479.05
555.00	29715.44
555.17	29483.73
555.33	29542.24
555.50	29345.64
555.67	29432.24
555.83	29680.33
556.00	29577.35
556.16	30286.53
556.33	29586.71
556.50	29413.51
556.66	29591.39
556.83	29268.40
556.99	29731.83
557.16	29692.04
557.32	29818.42
557.49	29603.10
557.65	29497.77
557.82	29315.21
557.98	29542.24
558.15	29469.69
558.32	30174.19
558.48	29703.74
558.65	29898.00
558.81	29869.92
558.98	29972.90
559.14	29670.97
559.31	29890.98
559.47	29537.56
559.64	29865.24
559.80	29972.90
559.97	30129.72
560.13	29680.33
560.30	29984.60
560.46	29902.68
560.63	30419.94
560.79	30331.00
560.96	30033.75
561.12	29926.09
561.29	30110.99
561.45	30134.40
561.61	30239.72
561.78	30174.19
561.94	29919.07
562.11	30551.01
562.27	30000.99
562.44	29893.32
562.60	29699.06
562.77	29954.18
562.93	29900.34
563.10	30122.69
563.26	30249.08
563.42	30773.36
563.59	30209.29
563.75	29912.05
563.92	30536.97
564.08	29876.94
564.24	30162.48
564.41	29738.85
564.57	30253.76
564.74	29930.77
564.90	29982.26
565.07	30188.23
565.23	30274.83
565.39	29993.97
565.56	30658.68
565.72	30096.95
565.88	30277.17
566.05	30202.27
566.21	30059.50
566.38	30000.99
566.54	30321.64
566.70	30546.33
566.87	30501.86
567.03	30302.92
567.19	30525.27
567.36	30169.51
567.52	30429.30
567.68	30244.40
567.85	30118.01
568.01	30520.59
568.17	30235.04
568.34	30426.96
568.50	30373.13
568.66	30251.42
568.83	30586.12
568.99	30263.13
569.15	30281.85
569.32	30288.87
569.48	30068.86
569.64	30321.64
569.81	30190.57
569.97	30433.99
570.13	30623.57
570.30	30267.81
570.46	30677.40
570.62	30120.35
570.78	30490.16
570.95	30092.27
571.11	30595.48
571.27	30256.11
571.43	30052.48
571.60	30560.37
571.76	30717.19
571.92	30412.92
572.09	30778.04
572.25	30415.26
572.41	30237.38
572.57	29989.28
572.74	30609.53
572.90	30244.40
573.06	30396.54
573.22	30211.64
573.38	30410.58
573.55	30768.68
573.71	30778.04
573.87	30906.77
574.03	30543.99
574.20	30586.12
574.36	29989.28
574.52	30827.20
574.68	30206.95
574.84	30405.90
575.01	30663.36
575.17	30361.43
575.33	30539.31
575.49	30541.65
575.65	30719.53
575.82	30539.31
575.98	30178.87
576.14	30637.61
576.30	30485.48
576.46	30845.92
576.62	30843.58
576.79	30787.41
576.95	30756.98
577.11	30993.37
577.27	30733.57
577.43	30684.42
577.59	30644.63
577.75	30370.79
577.92	30466.75
578.08	30527.61
578.24	30333.34
578.40	30501.86
578.56	30721.87
578.72	30836.56
578.88	31278.92
579.04	31220.41
579.21	30967.63
579.37	30944.22
579.53	30693.79
579.69	30635.27
579.85	30745.28
580.01	30909.11
580.17	30759.32
580.33	30562.72
580.49	30890.39
580.65	30487.82
580.82	30824.86
580.98	30338.02
581.14	30293.55
581.30	30637.61
581.46	30394.20
581.62	30525.27
581.78	30066.52
581.94	30581.44
582.10	30441.01
582.26	30862.30
582.42	30616.55
582.58	30455.05
582.74	30422.28
582.90	30866.98
583.06	30738.26
583.22	30979.33
583.38	30799.11
583.54	30747.62
583.70	30504.20
583.86	30455.05
584.02	30551.01
584.18	30749.96
584.34	30937.20
584.50	30782.73
584.66	30487.82
584.82	30611.87
584.98	30593.14
585.14	30637.61
585.30	30733.57
585.46	30871.67
585.62	30632.93
585.78	30878.69
585.94	30235.04
586.10	30710.17
586.26	30499.52
586.42	31033.16
586.58	30712.51
586.74	30890.39
586.90	30637.61
587.06	30682.08
587.22	31007.42
587.38	30700.81
587.54	31262.54
587.70	30813.15
587.86	31005.08
588.02	30597.82
588.18	31325.73
588.34	30534.63
588.49	31082.31
588.65	30721.87
588.81	30831.88
588.97	30576.76
589.13	30703.15
589.29	30661.02
589.45	30742.94
589.61	31154.87
589.77	31030.82
589.93	31187.64
590.08	31021.46
590.24	30955.93
590.40	30775.70
590.56	31309.35
590.72	31049.55
590.88	30628.25
591.04	30794.43
591.20	31056.57
591.35	31182.96
591.51	31042.53
591.67	31110.40
591.83	30859.96
