SpectraSuite Data File
++++++++++++++++++++++++++++++++++++
Date: Fri Oct 04 11:39:17 GMT-05:00 2013
User: price-jones
Dark Spectrum Present: No
Reference Spectrum Present: No
Number of Sampled Component Spectra: 1
Spectrometers: USB2+H05261
Integration Time (usec): 100000 (USB2+H05261)
Spectra Averaged: 1 (USB2+H05261)
Boxcar Smoothing: 0 (USB2+H05261)
Correct for Electrical Dark: No (USB2+H05261)
Strobe/Lamp Enabled: No (USB2+H05261)
Correct for Detector Non-linearity: No (USB2+H05261)
Correct for Stray Light: No (USB2+H05261)
Number of Pixels in Processed Spectrum: 2048
>>>>>Begin Processed Spectral Data<<<<<
365.73	30.43
365.92	30.43
366.12	30.43
366.32	14.04
366.52	0.00
366.72	0.00
366.91	0.00
367.11	0.00
367.31	0.00
367.51	0.00
367.70	0.00
367.90	0.00
368.10	0.00
368.30	0.00
368.49	0.00
368.69	0.00
368.89	0.00
369.09	0.00
369.28	0.00
369.48	0.00
369.68	0.00
369.87	0.00
370.07	0.00
370.27	63.19
370.47	72.56
370.66	135.75
370.86	257.46
371.06	315.97
371.25	311.29
371.45	306.61
371.65	304.27
371.84	283.20
372.04	241.08
372.24	304.27
372.44	292.57
372.63	351.08
372.83	379.17
373.03	362.78
373.22	330.02
373.42	341.72
373.62	341.72
373.81	404.91
374.01	381.51
374.21	447.04
374.40	362.78
374.60	367.46
374.79	332.36
374.99	327.68
375.19	325.33
375.38	390.87
375.58	407.25
375.78	454.06
375.97	344.06
376.17	449.38
376.37	411.93
376.56	421.30
376.76	409.59
376.95	383.85
377.15	402.57
377.35	376.83
377.54	402.57
377.74	372.15
377.93	418.96
378.13	435.34
378.33	381.51
378.52	423.64
378.72	346.40
378.91	395.55
379.11	449.38
379.31	437.68
379.50	402.57
379.70	468.11
379.89	482.15
380.09	444.70
380.28	355.76
380.48	500.87
380.68	505.56
380.87	461.09
381.07	531.30
381.26	463.43
381.46	486.83
381.65	461.09
381.85	437.68
382.04	442.36
382.24	573.43
382.43	524.28
382.63	514.92
382.83	514.92
383.02	552.37
383.22	498.53
383.41	573.43
383.61	514.92
383.80	484.49
384.00	472.79
384.19	533.64
384.39	510.24
384.58	578.11
384.78	496.19
384.97	547.69
385.17	517.26
385.36	470.45
385.56	575.77
385.75	554.71
385.95	528.96
386.14	566.41
386.34	573.43
386.53	517.26
386.72	491.51
386.92	564.07
387.11	545.34
387.31	564.07
387.50	589.82
387.70	622.58
387.89	655.35
388.09	571.09
388.28	601.52
388.48	636.63
388.67	667.05
388.86	601.52
389.06	624.92
389.25	650.67
389.45	589.82
389.64	636.63
389.84	697.48
390.03	585.13
390.22	650.67
390.42	568.75
390.61	587.47
390.81	629.60
391.00	645.99
391.19	737.27
391.39	704.50
391.58	718.54
391.78	683.44
391.97	746.63
392.16	751.31
392.36	774.72
392.55	720.88
392.75	695.14
392.94	704.50
393.13	763.01
393.33	713.86
393.52	791.10
393.71	807.48
393.91	767.70
394.10	765.36
394.29	774.72
394.49	753.65
394.68	788.76
394.88	837.91
395.07	793.44
395.26	837.91
395.46	779.40
395.65	884.72
395.84	870.68
396.04	922.17
396.23	863.66
396.42	823.87
396.62	835.57
396.81	788.76
397.00	868.34
397.19	835.57
397.39	847.27
397.58	971.32
397.77	901.11
397.97	889.40
398.16	947.92
398.35	947.92
398.55	929.19
398.74	1039.20
398.93	1011.11
399.12	983.02
399.32	938.55
399.51	964.30
399.70	1041.54
399.90	915.15
400.09	952.60
400.28	964.30
400.47	950.26
400.67	1060.26
400.86	1086.01
401.05	1153.88
401.24	1095.37
401.44	1123.46
401.63	1118.78
401.82	1172.61
402.01	1160.91
402.21	1100.05
402.40	1137.50
402.59	1123.46
402.78	1158.57
402.97	1196.01
403.17	1268.57
403.36	1231.12
403.55	1172.61
403.74	1254.53
403.93	1299.00
404.13	1226.44
404.32	1308.36
404.51	1387.94
404.70	1329.42
404.89	1331.76
405.09	1296.66
405.28	1280.27
405.47	1322.40
405.66	1315.38
405.85	1434.75
406.05	1409.00
406.24	1371.55
406.43	1416.02
406.62	1420.71
406.81	1521.35
407.00	1357.51
407.20	1409.00
407.39	1392.62
407.58	1507.30
407.77	1469.86
407.96	1626.67
408.15	1633.69
408.34	1547.09
408.54	1500.28
408.73	1617.31
408.92	1589.22
409.11	1661.78
409.30	1617.31
409.49	1675.82
409.68	1570.50
409.87	1626.67
410.07	1703.91
410.26	1687.53
410.45	1809.23
410.64	1739.02
410.83	1778.81
411.02	1799.87
411.21	1886.47
411.40	1788.17
411.59	1853.70
411.78	1912.22
411.98	1893.49
412.17	1886.47
412.36	1980.09
412.55	1884.13
412.74	2043.29
412.93	1977.75
413.12	1926.26
413.31	1998.82
413.50	2059.67
413.69	1968.39
413.88	2139.25
414.07	2059.67
414.26	2165.00
414.45	2195.42
414.64	2235.21
414.83	2083.08
415.02	2174.36
415.22	2256.28
415.41	2338.20
415.60	2324.15
415.79	2265.64
415.98	2228.19
416.17	2401.39
416.36	2382.67
416.55	2462.24
416.74	2504.37
416.93	2408.41
417.12	2523.10
417.31	2541.82
417.50	2394.37
417.69	2637.78
417.88	2551.18
418.07	2569.91
418.26	2717.36
418.45	2586.29
418.64	2787.58
418.83	2553.52
419.02	2775.88
419.21	2679.91
419.39	2768.85
419.58	2785.24
419.77	2722.04
419.96	2892.90
420.15	2796.94
420.34	2829.71
420.53	2736.09
420.72	2923.33
420.91	2904.60
421.10	2953.76
421.29	3021.63
421.48	2883.54
421.67	2981.84
421.86	2906.95
422.05	3040.36
422.24	3023.97
422.43	2909.29
422.61	3080.14
422.80	3143.34
422.99	3038.02
423.18	3087.17
423.37	3014.61
423.56	3012.27
423.75	3042.70
423.94	2937.37
424.13	2796.94
424.32	2878.86
424.50	3047.38
424.69	3159.72
424.88	3126.96
425.07	3021.63
425.26	3162.06
425.45	3014.61
425.64	3183.13
425.83	3105.89
426.01	3169.09
426.20	3145.68
426.39	3145.68
426.58	3143.34
426.77	3339.94
426.96	3229.94
427.15	3176.11
427.33	3194.83
427.52	3239.30
427.71	3211.22
427.90	3213.56
428.09	3255.69
428.28	3382.07
428.46	3421.86
428.65	3370.37
428.84	3393.78
429.03	3447.61
429.22	3316.54
429.40	3424.20
429.59	3485.06
429.78	3424.20
429.97	3321.22
430.16	3286.11
430.34	3466.33
430.53	3552.93
430.72	3599.74
430.91	3543.57
431.10	3487.40
431.28	3541.23
431.47	3625.49
431.66	3691.02
431.85	3686.34
432.03	3616.13
432.22	3922.74
432.41	3676.98
432.60	3810.39
432.79	3719.11
432.97	3794.01
433.16	3719.11
433.35	3824.44
433.54	3871.25
433.72	3791.67
433.91	3815.07
434.10	3943.80
434.28	3775.28
434.47	3779.97
434.66	3925.08
434.85	3955.51
435.03	3950.82
435.22	4114.66
435.41	4367.44
435.59	4395.53
435.78	4308.93
435.97	4227.01
436.16	4133.39
436.34	4018.70
436.53	4133.39
436.72	4182.54
436.90	3999.98
437.09	4184.88
437.28	4243.39
437.46	4112.32
437.65	4227.01
437.84	4161.47
438.02	4222.33
438.21	4311.27
438.40	4248.07
438.58	4498.51
438.77	4351.06
438.96	4425.95
439.14	4329.99
439.33	4304.25
439.52	4561.70
439.70	4652.98
439.89	4573.41
440.08	4788.74
440.26	4617.88
440.45	4629.58
440.63	4814.48
440.82	4774.69
441.01	4807.46
441.19	4774.69
441.38	4744.27
441.57	5027.47
441.75	4905.76
441.94	5008.75
442.12	4903.42
442.31	5207.69
442.50	5029.81
442.68	5034.49
442.87	5177.26
443.05	5210.03
443.24	5231.10
443.43	5205.35
443.61	5177.26
443.80	5345.78
443.98	5074.28
444.17	5217.05
444.35	5186.63
444.54	5235.78
444.73	5245.14
444.91	5238.12
445.10	5191.31
445.28	5357.49
445.47	5334.08
445.65	5294.29
445.84	5270.89
446.02	5504.94
446.21	5270.89
446.39	5327.06
446.58	5359.83
446.77	5273.23
446.95	5308.34
447.14	5235.78
447.32	5249.82
447.51	5310.68
447.69	5497.92
447.88	5432.38
448.06	5341.10
448.25	5289.61
448.43	5263.86
448.62	5338.76
448.80	5359.83
448.99	5458.13
449.17	5411.32
449.36	5406.64
449.54	5722.61
449.73	5647.71
449.91	5678.14
450.10	5678.14
450.28	5757.72
450.46	5753.04
450.65	5729.63
450.83	5767.08
451.02	5816.23
451.20	5830.27
451.39	5834.96
451.57	5834.96
451.76	5762.40
451.94	5720.27
452.13	5935.60
452.31	5816.23
452.49	5750.70
452.68	5947.30
452.86	5865.38
453.05	6010.50
453.23	6052.63
453.42	6036.24
453.60	5856.02
453.78	6127.52
453.97	5776.44
454.15	6033.90
454.34	5977.73
454.52	6204.76
454.70	6092.41
454.89	6118.16
455.07	5891.13
455.26	6200.08
455.44	6162.63
455.62	6211.78
455.81	6417.75
455.99	6394.34
456.17	6183.70
456.36	6438.81
456.54	6576.91
456.73	6471.58
456.91	6445.84
457.09	6567.54
457.28	6612.01
457.46	6551.16
457.64	6726.70
457.83	6520.73
458.01	6668.19
458.19	6607.33
458.38	6754.79
458.56	6813.30
458.74	6700.95
458.93	6658.82
459.11	6750.10
459.29	6771.17
459.48	6729.04
459.66	6801.60
459.84	6839.05
460.03	6981.82
460.21	7047.35
460.39	6904.58
460.57	6981.82
460.76	6986.50
460.94	6850.75
461.12	7021.61
461.31	7126.93
461.49	7213.53
461.67	7021.61
461.85	7220.55
462.04	7157.36
462.22	7667.60
462.40	7258.00
462.59	7215.87
462.77	6918.62
462.95	7323.54
463.13	7349.28
463.32	7314.17
463.50	7314.17
463.68	7559.93
463.86	7407.80
464.05	7110.55
464.23	7368.01
464.41	7609.08
464.59	7143.32
464.78	7499.08
464.96	7461.63
465.14	7454.61
465.32	7620.78
465.50	7524.82
465.69	7728.45
465.87	7606.74
466.05	7662.91
466.23	7463.97
466.41	7630.15
466.60	7882.92
466.78	7693.34
466.96	7651.21
467.14	7576.31
467.32	7815.05
467.51	8046.76
467.69	7667.60
467.87	8016.33
468.05	7934.42
468.23	7744.83
468.41	7974.21
468.60	7810.37
468.78	7915.69
468.96	7988.25
469.14	8021.02
469.32	8145.06
469.50	7866.54
469.69	8159.11
469.87	8184.85
470.05	8161.45
470.23	8224.64
470.41	8236.35
470.59	8348.69
470.77	8351.03
470.95	8423.59
471.14	8491.46
471.32	8283.16
471.50	8578.06
471.68	8493.80
471.86	8479.76
472.04	8545.30
472.22	8858.93
472.40	8498.49
472.58	8514.87
472.77	8559.34
472.95	8772.33
473.13	9071.92
473.31	9107.02
473.49	8751.26
473.67	8971.27
473.85	8915.10
474.03	9062.55
474.21	9151.49
474.39	9050.85
474.57	9320.01
474.75	9275.54
474.93	9518.96
475.12	9334.06
475.30	9612.58
475.48	9413.63
475.66	9423.00
475.84	9497.89
476.02	9776.42
476.20	9748.33
476.38	9961.32
476.56	9963.66
476.74	9921.53
476.92	10083.03
477.10	9980.04
477.28	10136.86
477.46	9774.08
477.64	10335.81
477.82	10312.40
478.00	10408.36
478.18	10607.31
478.36	10607.31
478.54	10764.12
478.72	10736.04
478.90	10789.87
479.08	10764.12
479.26	10920.94
479.44	11049.67
479.62	11239.25
479.80	11337.56
479.98	11297.77
480.16	11470.97
480.34	11410.11
480.52	11655.87
480.70	11632.46
480.88	11559.91
481.06	11824.39
481.24	11793.96
481.41	12028.01
481.59	11810.34
481.77	12105.25
481.95	12395.48
482.13	12196.53
482.31	12290.15
482.49	12556.97
482.67	12493.78
482.85	12681.02
483.03	12898.69
483.21	12989.97
483.39	13069.55
483.57	13158.49
483.74	13057.85
483.92	13301.26
484.10	13151.47
484.28	13633.62
484.46	13757.67
484.64	13956.61
484.82	13605.53
485.00	14071.30
485.18	14204.71
485.35	14370.89
485.53	14305.35
485.71	14445.79
485.89	14532.39
486.07	14593.24
486.25	14590.90
486.43	14686.86
486.61	14747.72
486.78	15033.26
486.96	15215.82
487.14	15335.19
487.32	15241.57
487.50	15667.55
487.68	15749.46
487.85	15639.46
488.03	16095.86
488.21	16161.40
488.39	16259.70
488.57	16287.79
488.75	16517.16
488.92	16908.03
489.10	16505.46
489.28	16840.15
489.46	17015.69
489.64	16889.31
489.81	17240.39
489.99	17184.21
490.17	17146.76
490.35	17626.57
490.53	17675.73
490.70	17781.05
490.88	17558.70
491.06	17879.35
491.24	17914.46
491.41	17972.97
491.59	18511.30
491.77	18628.32
491.95	18691.52
492.13	18806.20
492.30	18721.95
492.48	18953.66
492.66	18871.74
492.84	18941.96
493.01	19115.16
493.19	19225.16
493.37	19817.32
493.54	19365.59
493.72	19674.54
493.90	19604.33
494.08	19833.70
494.25	20025.62
494.43	20210.53
494.61	20393.09
494.79	20779.28
494.96	20294.79
495.14	20526.50
495.32	20720.76
495.49	20816.72
495.67	20936.09
495.85	20926.73
496.02	20992.26
496.20	21135.04
496.38	21408.88
496.55	21322.28
496.73	21572.72
496.91	21886.35
497.09	21867.63
497.26	21825.50
497.44	21947.20
497.62	22045.51
497.79	22190.62
497.97	22108.70
498.14	22405.95
498.32	22443.40
498.50	22487.87
498.67	22937.25
498.85	22810.86
499.03	22654.05
499.20	22946.61
499.38	23117.47
499.56	23393.65
499.73	23665.16
499.91	23557.49
500.08	23424.08
500.26	23370.25
500.44	23585.58
500.61	23789.20
500.79	23557.49
500.97	24056.03
501.14	24552.22
501.32	24191.78
501.49	24407.11
501.67	24170.71
501.84	24381.36
502.02	24063.05
502.20	24620.10
502.37	24964.15
502.55	24559.24
502.72	24744.14
502.90	24938.41
503.07	24542.86
503.25	24931.39
503.43	24765.21
503.60	24865.85
503.78	25238.00
503.95	25432.26
504.13	25521.20
504.30	25228.63
504.48	25256.72
504.65	25631.21
504.83	25598.44
505.01	25799.73
505.18	25975.27
505.36	26274.85
505.53	25979.95
505.71	26239.75
505.88	26464.44
506.06	25860.58
506.23	26218.68
506.41	26548.70
506.58	26651.68
506.76	26401.24
506.93	26536.99
507.11	26808.50
507.28	26785.09
507.46	27049.57
507.63	27225.11
507.81	27185.32
507.98	27152.55
508.16	27138.51
508.33	27335.12
508.50	27344.48
508.68	27524.70
508.85	27627.68
509.03	27576.19
509.20	27388.95
509.38	28063.02
509.55	28063.02
509.73	28437.51
509.90	28208.14
510.08	28009.19
510.25	27981.10
510.42	28727.74
510.60	28830.72
510.77	28622.41
510.95	28727.74
511.12	28442.19
511.30	28893.91
511.47	28912.64
511.64	29097.54
511.82	28879.87
511.99	28966.47
512.17	29338.62
512.34	28659.86
512.51	29312.87
512.69	29582.03
512.86	29500.11
513.04	29647.57
513.21	29832.47
513.38	29720.12
513.56	29722.46
513.73	29553.94
513.90	29682.67
514.08	29762.25
514.25	29731.83
514.43	30410.58
514.60	30115.67
514.77	30118.01
514.95	30532.29
515.12	30225.68
515.29	30513.56
515.47	30438.67
515.64	30981.67
515.81	30263.13
515.99	31005.08
516.16	31042.53
516.33	31377.22
516.51	31243.81
516.68	30927.84
516.85	31131.47
517.03	31344.45
517.20	31395.95
517.37	31274.24
517.54	31608.93
517.72	31597.23
517.89	31714.26
518.06	31740.00
518.24	31541.06
518.41	31344.45
518.58	31859.37
518.75	31625.32
518.93	31807.88
519.10	32114.49
519.27	32137.90
519.45	32058.32
519.62	32170.66
519.79	32250.24
519.96	32402.38
520.14	32701.96
520.31	32538.13
520.48	32538.13
520.65	32521.74
520.83	33008.58
521.00	32774.52
521.17	32758.14
521.34	32978.15
521.52	33104.54
521.69	33055.39
521.86	33528.17
522.03	33401.79
522.20	33326.89
522.38	32992.19
522.55	33420.51
522.72	33249.65
522.89	33759.89
523.07	33612.43
523.24	34052.45
523.41	34120.33
523.58	33532.86
523.75	33965.85
523.92	34134.37
524.10	33813.72
524.27	34134.37
524.44	34293.53
524.61	34279.49
524.78	34417.58
524.96	34436.30
525.13	34553.33
525.30	34731.21
525.47	34450.35
525.64	34330.98
525.81	34948.88
525.98	35016.75
526.16	35035.48
526.33	34478.43
526.50	35398.26
526.67	34813.13
526.84	34869.30
527.01	34927.81
527.18	35461.46
527.36	35466.14
527.53	35594.87
527.70	35690.83
527.87	36114.47
528.04	35267.19
528.21	35566.78
528.38	35435.71
528.55	36163.62
528.72	35763.39
528.89	35913.18
529.07	36098.08
529.24	35594.87
529.41	35976.37
529.58	35721.26
529.75	35569.12
529.92	36151.91
530.09	36180.00
530.26	36154.26
530.43	36603.64
530.60	36046.59
530.77	36210.43
530.94	36439.80
531.11	36304.05
531.28	36294.69
531.46	36287.67
531.63	36102.76
531.80	36395.33
531.97	36388.31
532.14	36905.57
532.31	36720.66
532.48	36802.58
532.65	37116.22
532.82	36605.98
532.99	36940.68
533.16	36865.78
533.33	37364.31
533.50	37516.45
533.67	37256.65
533.84	37083.45
534.01	37043.66
534.18	36921.95
534.35	37394.74
534.52	37324.52
534.69	37631.13
534.86	37565.60
535.03	37654.54
535.20	37715.39
535.37	37584.32
535.54	37865.19
535.71	37610.07
535.88	38174.14
536.05	38110.94
536.22	37975.19
536.38	38050.09
536.55	38483.09
536.72	38717.14
536.89	38082.86
537.06	38230.31
537.23	38382.45
537.40	38197.54
537.57	38036.05
537.74	38490.11
537.91	39021.41
538.08	38785.02
538.25	38525.22
538.42	38712.46
538.59	38457.34
538.75	38572.03
538.92	39267.17
539.09	38869.28
539.26	38749.91
539.43	38719.48
539.60	39105.67
539.77	39199.29
539.94	39276.53
540.11	39435.69
540.28	38813.10
540.44	39089.29
540.61	38939.49
540.78	39669.74
540.95	39868.69
541.12	40006.78
541.29	39798.47
541.46	39866.34
541.62	40184.66
541.79	39948.26
541.96	39248.44
542.13	39924.86
542.30	40123.80
542.47	40252.53
542.63	40020.82
542.80	40479.57
542.97	40559.14
543.14	40832.99
543.31	40222.11
543.48	40407.01
543.64	40751.07
543.81	40840.01
543.98	41184.07
544.15	40802.56
544.32	40935.97
544.48	41291.73
544.65	40643.40
544.82	40486.59
544.99	40584.89
545.16	40987.46
545.32	41034.27
545.49	41612.38
545.66	42017.30
545.83	42485.40
546.00	41998.57
546.16	41603.02
546.33	40879.80
546.50	40741.71
546.67	41596.00
546.83	40744.05
547.00	41057.68
547.17	40835.33
547.34	41375.99
547.50	41254.28
547.67	41619.41
547.84	41322.16
548.00	41415.78
548.17	41567.91
548.34	41251.94
548.51	41916.65
548.67	41647.49
548.84	41865.16
549.01	41443.87
549.18	41635.79
549.34	41537.49
549.51	42260.71
549.68	42071.13
549.84	41624.09
550.01	42351.99
550.18	42136.66
550.34	42274.76
550.51	41806.65
550.68	42288.80
550.84	41570.25
551.01	42155.39
551.18	41897.93
551.34	41991.55
551.51	41696.64
551.68	41731.75
551.84	42038.36
552.01	42284.12
552.18	42223.26
552.34	42082.83
552.51	42223.26
552.68	42260.71
552.84	42391.78
553.01	42651.58
553.18	42431.57
553.34	42281.78
553.51	42871.59
553.67	42857.55
553.84	42660.94
554.01	42864.57
554.17	42637.54
554.34	42497.11
554.51	42389.44
554.67	42581.37
554.84	42564.98
555.00	42766.27
555.17	42707.76
555.33	42792.01
555.50	42789.67
555.67	42939.47
555.83	43098.62
556.00	42969.90
556.16	43154.80
556.33	42997.98
556.50	43400.55
556.66	43047.13
556.83	42876.27
556.99	43648.65
557.16	43421.62
557.32	43068.20
557.49	43335.02
557.65	43159.48
557.82	43051.81
557.98	42986.28
558.15	43100.97
558.32	43309.27
558.48	43217.99
558.65	43257.78
558.81	43538.65
558.98	43622.90
559.14	43749.29
559.31	43222.67
559.47	43976.33
559.64	43566.73
559.80	43318.64
559.97	43700.14
560.13	43667.37
560.30	43777.38
560.46	43955.26
560.63	43482.47
560.79	43765.68
560.96	44163.57
561.12	43927.17
561.29	43812.49
561.45	43697.80
561.61	43650.99
561.78	43805.47
561.94	43863.98
562.11	43313.95
562.27	43578.43
562.44	44252.51
562.60	44179.95
562.77	43955.26
562.93	43931.86
563.10	44367.20
563.26	43508.22
563.42	44189.31
563.59	43833.55
563.75	43880.36
563.92	44133.14
564.08	43948.24
564.24	44458.48
564.41	44257.19
564.57	43880.36
564.74	43978.67
564.90	43922.49
565.07	43973.98
565.23	44201.02
565.39	44142.50
565.56	44102.71
565.72	43655.67
565.88	44156.55
566.05	44222.08
566.21	44044.20
566.38	44039.52
566.54	44224.42
566.70	44772.11
566.87	44641.04
567.03	44662.10
567.19	44940.63
567.36	44481.88
567.52	44308.68
567.68	44559.12
567.85	44289.96
568.01	43786.74
568.17	44491.24
568.34	44376.56
568.50	44425.71
568.66	44617.63
568.83	44519.33
568.99	44030.16
569.15	44460.82
569.32	44311.02
569.48	44135.48
569.64	44130.80
569.81	44360.17
569.97	44652.74
570.13	44685.51
570.30	44669.12
570.46	44758.06
570.62	44350.81
570.78	44416.35
570.95	44823.60
571.11	44769.77
571.27	44467.84
571.43	44547.42
571.60	44484.22
571.76	44575.50
571.92	44612.95
572.09	44748.70
572.25	44573.16
572.41	44563.80
572.57	44802.53
572.74	44921.90
572.90	44498.26
573.06	44570.82
573.22	44175.27
573.38	44870.41
573.55	44863.39
573.71	45177.02
573.87	44905.52
574.03	44617.63
574.20	44554.44
574.36	44666.78
574.52	44460.82
574.68	44935.95
574.84	44559.12
575.01	44905.52
575.17	45249.58
575.33	45111.49
575.49	44652.74
575.65	45162.98
575.82	45146.59
575.98	44961.69
576.14	45120.85
576.30	44814.24
576.46	45427.46
576.62	44746.36
576.79	45303.41
576.95	44952.33
577.11	45162.98
577.27	45015.52
577.43	45228.51
577.59	45270.64
577.75	44608.27
577.92	45139.57
578.08	44818.92
578.24	44694.87
578.40	44942.97
578.56	45188.72
578.72	45081.06
578.88	45492.99
579.04	45338.52
579.21	45118.51
579.37	45357.24
579.53	45237.87
579.69	44594.23
579.85	44914.88
580.01	45015.52
580.17	45017.86
580.33	44776.79
580.49	45092.76
580.65	45261.28
580.82	45446.18
580.98	45361.92
581.14	45155.96
581.30	45099.78
581.46	44928.92
581.62	45158.30
581.78	45017.86
581.94	45052.97
582.10	45202.77
582.26	45392.35
582.42	45301.07
582.58	45427.46
582.74	45361.92
582.90	45247.24
583.06	45638.11
583.22	45177.02
583.38	45385.33
583.54	45326.81
583.70	45420.44
583.86	45333.84
584.02	44753.38
584.18	45556.19
584.34	45399.37
584.50	45223.83
584.66	45074.04
584.82	45090.42
584.98	45132.55
585.14	45240.21
585.30	44797.85
585.46	45067.02
585.62	44954.67
585.78	45230.85
585.94	45191.06
586.10	45525.76
586.26	45184.04
586.42	45280.00
586.58	45399.37
586.74	45294.05
586.90	45303.41
587.06	44985.10
587.22	45652.15
587.38	45436.82
587.54	45296.39
587.70	45270.64
587.86	45680.24
588.02	45474.27
588.18	45963.44
588.34	45481.29
588.49	45930.67
588.65	45401.71
588.81	45441.50
588.97	45539.80
589.13	45729.39
589.29	45177.02
589.45	45989.19
589.61	45794.92
589.77	45834.71
589.93	45521.08
590.08	46052.38
590.24	45338.52
590.40	45925.99
590.56	45600.66
590.72	45537.46
590.88	45593.64
