SpectraSuite Data File
++++++++++++++++++++++++++++++++++++
Date: Fri Oct 04 11:39:12 GMT-05:00 2013
User: price-jones
Dark Spectrum Present: No
Reference Spectrum Present: No
Number of Sampled Component Spectra: 1
Spectrometers: USB2+H05261
Integration Time (usec): 100000 (USB2+H05261)
Spectra Averaged: 1 (USB2+H05261)
Boxcar Smoothing: 0 (USB2+H05261)
Correct for Electrical Dark: No (USB2+H05261)
Strobe/Lamp Enabled: No (USB2+H05261)
Correct for Detector Non-linearity: No (USB2+H05261)
Correct for Stray Light: No (USB2+H05261)
Number of Pixels in Processed Spectrum: 2048
>>>>>Begin Processed Spectral Data<<<<<
365.73	46.81
365.92	46.81
366.12	46.81
366.32	0.00
366.52	0.00
366.72	0.00
366.91	0.00
367.11	0.00
367.31	0.00
367.51	0.00
367.70	39.79
367.90	0.00
368.10	2.34
368.30	0.00
368.49	0.00
368.69	0.00
368.89	21.06
369.09	0.00
369.28	0.00
369.48	0.00
369.68	0.00
369.87	21.06
370.07	25.75
370.27	105.32
370.47	7.02
370.66	86.60
370.86	84.26
371.06	98.30
371.25	138.09
371.45	70.22
371.65	105.32
371.84	154.48
372.04	105.32
372.24	184.90
372.44	161.50
372.63	168.52
372.83	170.86
373.03	124.05
373.22	112.35
373.42	163.84
373.62	208.31
373.81	234.05
374.01	203.63
374.21	217.67
374.40	161.50
374.60	191.92
374.79	149.79
374.99	152.13
375.19	149.79
375.38	184.90
375.58	224.69
375.78	250.44
375.97	231.71
376.17	269.16
376.37	145.11
376.56	236.39
376.76	163.84
376.95	173.20
377.15	189.58
377.35	201.29
377.54	227.03
377.74	166.18
377.93	161.50
378.13	166.18
378.33	257.46
378.52	255.12
378.72	159.16
378.91	241.08
379.11	177.88
379.31	191.92
379.50	201.29
379.70	191.92
379.89	257.46
380.09	222.35
380.28	203.63
380.48	203.63
380.68	231.71
380.87	252.78
381.07	208.31
381.26	299.59
381.46	184.90
381.65	234.05
381.85	173.20
382.04	248.10
382.24	189.58
382.43	159.16
382.63	203.63
382.83	252.78
383.02	187.24
383.22	252.78
383.41	182.56
383.61	243.42
383.80	198.95
384.00	248.10
384.19	231.71
384.39	205.97
384.58	227.03
384.78	271.50
384.97	182.56
385.17	191.92
385.36	250.44
385.56	276.18
385.75	177.88
385.95	198.95
386.14	212.99
386.34	315.97
386.53	245.76
386.72	215.33
386.92	315.97
387.11	224.69
387.31	229.37
387.50	313.63
387.70	245.76
387.89	262.14
388.09	222.35
388.28	250.44
388.48	154.48
388.67	304.27
388.86	238.73
389.06	280.86
389.25	308.95
389.45	259.80
389.64	205.97
389.84	241.08
390.03	257.46
390.22	327.68
390.42	315.97
390.61	322.99
390.81	301.93
391.00	301.93
391.19	255.12
391.39	327.68
391.58	297.25
391.78	299.59
391.97	252.78
392.16	205.97
392.36	355.76
392.55	264.48
392.75	287.89
392.94	283.20
393.13	304.27
393.33	257.46
393.52	308.95
393.71	337.04
393.91	280.86
394.10	297.25
394.29	294.91
394.49	337.04
394.68	355.76
394.88	355.76
395.07	311.29
395.26	404.91
395.46	334.70
395.65	283.20
395.84	278.52
396.04	311.29
396.23	292.57
396.42	276.18
396.62	301.93
396.81	269.16
397.00	355.76
397.19	337.04
397.39	271.50
397.58	325.33
397.77	290.23
397.97	311.29
398.16	337.04
398.35	292.57
398.55	294.91
398.74	290.23
398.93	418.96
399.12	386.19
399.32	320.65
399.51	381.51
399.70	362.78
399.90	372.15
400.09	416.62
400.28	365.12
400.47	365.12
400.67	325.33
400.86	381.51
401.05	313.63
401.24	411.93
401.44	442.36
401.63	449.38
401.82	414.27
402.01	393.21
402.21	404.91
402.40	395.55
402.59	414.27
402.78	344.06
402.97	472.79
403.17	379.17
403.36	388.53
403.55	402.57
403.74	418.96
403.93	472.79
404.13	477.47
404.32	447.04
404.51	454.06
404.70	463.43
404.89	486.83
405.09	528.96
405.28	512.58
405.47	409.59
405.66	514.92
405.85	418.96
406.05	423.64
406.24	465.77
406.43	510.24
406.62	451.72
406.81	491.51
407.00	507.90
407.20	425.98
407.39	472.79
407.58	507.90
407.77	535.98
407.96	521.94
408.15	510.24
408.34	435.34
408.54	454.06
408.73	552.37
408.92	500.87
409.11	526.62
409.30	493.85
409.49	533.64
409.68	517.26
409.87	507.90
410.07	461.09
410.26	538.32
410.45	571.09
410.64	528.96
410.83	606.20
411.02	573.43
411.21	521.94
411.40	587.47
411.59	543.00
411.78	624.92
411.98	561.73
412.17	557.05
412.36	587.47
412.55	613.22
412.74	650.67
412.93	634.29
413.12	603.86
413.31	627.26
413.50	617.90
413.69	608.54
413.88	627.26
414.07	709.18
414.26	671.73
414.45	727.91
414.64	741.95
414.83	767.70
415.02	631.94
415.22	699.82
415.41	702.16
415.60	751.31
415.79	772.38
415.98	704.50
416.17	725.57
416.36	716.20
416.55	667.05
416.74	746.63
416.93	676.41
417.12	758.33
417.31	753.65
417.50	765.36
417.69	767.70
417.88	744.29
418.07	770.04
418.26	821.53
418.45	781.74
418.64	802.80
418.83	842.59
419.02	765.36
419.21	788.76
419.39	835.57
419.58	826.21
419.77	791.10
419.96	887.06
420.15	847.27
420.34	805.14
420.53	908.13
420.72	868.34
420.91	849.61
421.10	837.91
421.29	922.17
421.48	823.87
421.67	877.70
421.86	844.93
422.05	847.27
422.24	826.21
422.43	917.49
422.61	898.77
422.80	856.64
422.99	908.13
423.18	966.64
423.37	880.04
423.56	910.47
423.75	898.77
423.94	849.61
424.13	847.27
424.32	805.14
424.50	861.32
424.69	987.71
424.88	868.34
425.07	891.74
425.26	931.53
425.45	861.32
425.64	929.19
425.83	863.66
426.01	924.51
426.20	889.40
426.39	971.32
426.58	912.81
426.77	940.90
426.96	945.58
427.15	926.85
427.33	933.87
427.52	931.53
427.71	917.49
427.90	922.17
428.09	889.40
428.28	912.81
428.46	966.64
428.65	957.28
428.84	968.98
429.03	1081.33
429.22	964.30
429.40	1006.43
429.59	1001.75
429.78	983.02
429.97	976.00
430.16	968.98
430.34	966.64
430.53	938.55
430.72	992.39
430.91	1043.88
431.10	1036.86
431.28	1043.88
431.47	1050.90
431.66	1090.69
431.85	994.73
432.03	1067.28
432.22	1153.88
432.41	1083.67
432.60	1142.18
432.79	987.71
432.97	1041.54
433.16	1081.33
433.35	1125.80
433.54	1109.41
433.72	1076.65
433.91	1086.01
434.10	1100.05
434.28	1111.75
434.47	1142.18
434.66	1130.48
434.85	1095.37
435.03	1179.63
435.22	1385.60
435.41	1453.47
435.59	1427.73
435.78	1301.34
435.97	1224.10
436.16	1198.35
436.34	1181.97
436.53	1102.39
436.72	1193.67
436.90	1165.59
437.09	1139.84
437.28	1212.40
437.46	1165.59
437.65	1186.65
437.84	1252.19
438.02	1217.08
438.21	1205.38
438.40	1179.63
438.58	1186.65
438.77	1181.97
438.96	1270.91
439.14	1299.00
439.33	1322.40
439.52	1254.53
439.70	1210.06
439.89	1303.68
440.08	1287.29
440.26	1198.35
440.45	1233.46
440.63	1348.15
440.82	1256.87
441.01	1362.19
441.19	1317.72
441.38	1315.38
441.57	1259.21
441.75	1401.98
441.94	1406.66
442.12	1376.24
442.31	1376.24
442.50	1345.81
442.68	1378.58
442.87	1387.94
443.05	1385.60
443.24	1467.52
443.43	1406.66
443.61	1497.94
443.80	1481.56
443.98	1362.19
444.17	1336.45
444.35	1439.43
444.54	1500.28
444.73	1455.81
444.91	1472.20
445.10	1467.52
445.28	1376.24
445.47	1420.71
445.65	1444.11
445.84	1423.05
446.02	1540.07
446.21	1317.72
446.39	1448.79
446.58	1483.90
446.77	1544.75
446.95	1329.42
447.14	1416.02
447.32	1497.94
447.51	1432.41
447.69	1453.47
447.88	1523.69
448.06	1490.92
448.25	1528.37
448.43	1444.11
448.62	1497.94
448.80	1493.26
448.99	1514.33
449.17	1502.62
449.36	1451.13
449.54	1472.20
449.73	1460.49
449.91	1572.84
450.10	1540.07
450.28	1647.74
450.46	1561.14
450.65	1586.88
450.83	1643.06
451.02	1516.67
451.20	1528.37
451.39	1514.33
451.57	1584.54
451.76	1554.12
451.94	1572.84
452.13	1664.12
452.31	1596.25
452.49	1603.27
452.68	1638.38
452.86	1631.35
453.05	1661.78
453.23	1577.52
453.42	1556.46
453.60	1629.01
453.78	1781.15
453.97	1582.20
454.15	1687.53
454.34	1481.56
454.52	1696.89
454.70	1661.78
454.89	1699.23
455.07	1600.93
455.26	1682.85
455.44	1678.16
455.62	1732.00
455.81	1675.82
455.99	1795.19
456.17	1710.93
456.36	1645.40
456.54	1612.63
456.73	1729.66
456.91	1825.62
457.09	1764.76
457.28	1771.79
457.46	1825.62
457.64	1806.89
457.83	1748.38
458.01	1633.69
458.19	1790.51
458.38	1750.72
458.56	1750.72
458.74	1703.91
458.93	1736.68
459.11	1774.13
459.29	1717.95
459.48	1863.07
459.66	1820.94
459.84	1746.04
460.03	1952.01
460.21	1783.49
460.39	1834.98
460.57	1825.62
460.76	1914.56
460.94	1867.75
461.12	1863.07
461.31	1884.13
461.49	1806.89
461.67	1877.11
461.85	1881.79
462.04	1879.45
462.22	2008.18
462.40	1944.99
462.59	2038.61
462.77	2012.86
462.95	1860.73
463.13	1921.58
463.32	1900.52
463.50	1895.83
463.68	1884.13
463.86	1926.26
464.05	1867.75
464.23	1881.79
464.41	2033.93
464.59	1966.05
464.78	1963.71
464.96	1966.05
465.14	1942.64
465.32	2019.88
465.50	2008.18
465.69	2085.42
465.87	1912.22
466.05	2003.50
466.23	1975.41
466.41	2022.22
466.60	2078.40
466.78	1973.07
466.96	1996.48
467.14	1923.92
467.32	2094.78
467.51	2188.40
467.69	1940.30
467.87	2031.58
468.05	2083.08
468.23	2054.99
468.41	2069.03
468.60	2031.58
468.78	2047.97
468.96	2111.16
469.14	2090.10
469.32	2076.06
469.50	2052.65
469.69	2078.40
469.87	2167.34
470.05	2118.18
470.23	2150.95
470.41	2092.44
470.59	2038.61
470.77	2050.31
470.95	2162.66
471.14	2193.08
471.32	2165.00
471.50	2162.66
471.68	2120.53
471.86	2232.87
472.04	2253.94
472.22	2289.04
472.40	2136.91
472.58	2277.34
472.77	2078.40
472.95	2310.11
473.13	2349.90
473.31	2338.20
473.49	2253.94
473.67	2272.66
473.85	2370.96
474.03	2511.39
474.21	2303.09
474.39	2377.98
474.57	2293.72
474.75	2326.49
474.93	2279.68
475.12	2331.17
475.30	2455.22
475.48	2459.90
475.66	2471.61
475.84	2396.71
476.02	2490.33
476.20	2567.57
476.38	2558.21
476.56	2668.21
476.74	2509.05
476.92	2476.29
477.10	2483.31
477.28	2541.82
477.46	2665.87
477.64	2609.70
477.82	2691.62
478.00	2722.04
478.18	2682.25
478.36	2595.65
478.54	2787.58
478.72	2785.24
478.90	2715.02
479.08	2764.17
479.26	2883.54
479.44	2874.18
479.62	2918.65
479.80	2806.30
479.98	2878.86
480.16	2841.41
480.34	3021.63
480.52	2925.67
480.70	3049.72
480.88	2998.23
481.06	2909.29
481.24	2906.95
481.41	2899.92
481.59	3194.83
481.77	3087.17
481.95	3023.97
482.13	3227.60
482.31	3073.12
482.49	3124.62
482.67	3033.33
482.85	3258.03
483.03	3150.36
483.21	3325.90
483.39	3295.47
483.57	3492.08
483.74	3293.13
483.92	3300.16
484.10	3300.16
484.28	3382.07
484.46	3520.17
484.64	3595.06
484.82	3468.67
485.00	3520.17
485.18	3669.96
485.35	3599.74
485.53	3541.23
485.71	3602.08
485.89	3653.58
486.07	3611.45
486.25	3709.75
486.43	3798.69
486.61	3754.22
486.78	3833.80
486.96	3791.67
487.14	3845.50
487.32	3894.65
487.50	3714.43
487.68	3896.99
487.85	3878.27
488.03	3929.76
488.21	4081.89
488.39	4039.76
488.57	4028.06
488.75	3995.29
488.92	4322.97
489.10	4056.15
489.28	4121.68
489.46	4070.19
489.64	4152.11
489.81	4318.29
489.99	4297.22
490.17	4341.69
490.35	4381.48
490.53	4283.18
490.70	4287.86
490.88	4318.29
491.06	4622.56
491.24	4500.85
491.41	4493.83
491.59	4423.61
491.77	4411.91
491.95	4493.83
492.13	4578.09
492.30	4557.02
492.48	4631.92
492.66	4711.50
492.84	4601.49
493.01	4711.50
493.19	4617.88
493.37	4770.01
493.54	4704.48
493.72	4727.88
493.90	4730.22
494.08	4681.07
494.25	4887.04
494.43	4840.23
494.61	4898.74
494.79	4873.00
494.96	4891.72
495.14	5057.90
495.32	4966.62
495.49	5001.72
495.67	5083.64
495.85	5123.43
496.02	5142.16
496.20	5102.37
496.38	5163.22
496.55	5245.14
496.73	5277.91
496.91	5083.64
497.09	5121.09
497.26	5331.74
497.44	5350.46
497.62	5242.80
497.79	5245.14
497.97	5282.59
498.14	5479.19
498.32	5270.89
498.50	5509.62
498.67	5540.05
498.85	5500.26
499.03	5404.30
499.20	5441.75
499.38	5558.77
499.56	5416.00
499.73	5558.77
499.91	5584.52
500.08	5593.88
500.26	5598.56
500.44	5636.01
500.61	5621.97
500.79	5755.38
500.97	5823.25
501.14	5844.32
501.32	5647.71
501.49	5741.33
501.67	5851.34
501.84	5802.19
502.02	5710.91
502.20	5926.24
502.37	5968.37
502.55	5980.07
502.72	5912.19
502.90	5872.40
503.07	5902.83
503.25	6012.84
503.43	5933.26
503.60	6160.29
503.78	6061.99
503.95	5886.45
504.13	6054.97
504.30	6120.50
504.48	6099.44
504.65	6204.76
504.83	6181.35
505.01	6253.91
505.18	6289.02
505.36	6279.66
505.53	6125.18
505.71	6207.10
505.88	6239.87
506.06	6155.61
506.23	6246.89
506.41	6190.72
506.58	6193.06
506.76	6331.15
506.93	6284.34
507.11	6403.71
507.28	6333.49
507.46	6471.58
507.63	6530.09
507.81	6392.00
507.98	6490.31
508.16	6434.13
508.33	6408.39
508.50	6537.12
508.68	6511.37
508.85	6574.56
509.03	6691.59
509.20	6494.99
509.38	6583.93
509.55	6602.65
509.73	6689.25
509.90	6745.42
510.08	6555.84
510.25	6789.89
510.42	6541.80
510.60	6815.64
510.77	6684.57
510.95	6841.39
511.12	6771.17
511.30	6932.67
511.47	6942.03
511.64	6881.18
511.82	6916.28
511.99	6834.36
512.17	6792.23
512.34	6895.22
512.51	6942.03
512.69	6747.76
512.86	6935.01
513.04	7012.24
513.21	7126.93
513.38	7112.89
513.56	6974.80
513.73	6916.28
513.90	7075.44
514.08	7080.12
514.25	7129.27
514.43	7178.42
514.60	7150.34
514.77	7045.01
514.95	7332.90
515.12	6979.48
515.29	7131.61
515.47	7143.32
515.64	7349.28
515.81	7407.80
515.99	7410.14
516.16	7318.86
516.33	7349.28
516.51	7192.47
516.68	7293.11
516.85	7323.54
517.03	7286.09
517.20	7543.55
517.37	7332.90
517.54	7407.80
517.72	7466.31
517.89	7379.71
518.06	7473.33
518.24	7304.81
518.41	7396.09
518.58	7463.97
518.75	7494.40
518.93	7506.10
519.10	7276.73
519.27	7742.49
519.45	7583.34
519.62	7421.84
519.79	7480.35
519.96	7763.56
520.14	7611.42
520.31	7616.10
520.48	7672.28
520.65	7714.41
520.83	7691.00
521.00	7630.15
521.17	7665.25
521.34	7674.62
521.52	7698.02
521.69	7719.09
521.86	7911.01
522.03	7847.82
522.20	7632.49
522.38	7702.70
522.55	7817.39
522.72	7988.25
522.89	7786.96
523.07	8245.71
523.24	7927.39
523.41	7903.99
523.58	7866.54
523.75	7911.01
523.92	7873.56
524.10	7997.61
524.27	7845.48
524.44	8154.43
524.61	8154.43
524.78	8039.74
524.96	8016.33
525.13	8065.49
525.30	8121.66
525.47	8091.23
525.64	8028.04
525.81	8271.45
525.98	8138.04
526.16	7906.33
526.33	8025.70
526.50	8152.09
526.67	8046.76
526.84	8028.04
527.01	8086.55
527.18	8336.99
527.36	8262.09
527.53	8215.28
527.70	8292.52
527.87	8074.85
528.04	8500.83
528.21	8222.30
528.38	8329.97
528.55	8173.15
528.72	8432.95
528.89	8351.03
529.07	8505.51
529.24	8341.67
529.41	8231.66
529.58	8318.26
529.75	8325.29
529.92	8341.67
530.09	8411.89
530.26	8454.02
530.43	8468.06
530.60	8313.58
530.77	8454.02
530.94	8475.08
531.11	8365.07
531.28	8304.22
531.46	8531.25
531.63	8521.89
531.80	8606.15
531.97	8521.89
532.14	8454.02
532.31	8697.43
532.48	8596.79
532.65	8620.19
532.82	8512.53
532.99	8437.63
533.16	8762.97
533.33	8484.44
533.50	8678.71
533.67	8844.88
533.84	8636.58
534.01	8725.52
534.18	8512.53
534.35	8526.57
534.52	8772.33
534.69	8767.65
534.86	8716.16
535.03	8538.27
535.20	8706.79
535.37	8877.65
535.54	8889.35
535.71	8833.18
535.88	8840.20
536.05	8690.41
536.22	8823.82
536.38	8676.37
536.55	9004.04
536.72	8901.06
536.89	8910.42
537.06	8774.67
537.23	8891.70
537.40	8837.86
537.57	8924.46
537.74	8912.76
537.91	8980.64
538.08	8854.25
538.25	9048.51
538.42	9036.81
538.59	9041.49
538.75	9011.06
538.92	9041.49
539.09	9076.60
539.26	9104.68
539.43	9135.11
539.60	9163.20
539.77	9039.15
539.94	9200.65
540.11	9179.58
540.28	9050.85
540.44	9256.82
540.61	9139.79
540.78	9043.83
540.95	9418.32
541.12	9261.50
541.29	9359.80
541.46	9448.74
541.62	9202.99
541.79	9530.66
541.96	9547.05
542.13	9530.66
542.30	9465.13
542.47	9497.89
542.63	9504.92
542.80	9488.53
542.97	9462.79
543.14	9308.31
543.31	9734.29
543.48	9678.12
543.64	9591.52
543.81	9467.47
543.98	9558.75
544.15	9738.97
544.32	9701.52
544.48	9561.09
544.65	9638.33
544.82	9263.84
544.99	9741.31
545.16	9598.54
545.32	9528.32
545.49	10012.81
545.66	10296.02
545.83	10251.55
546.00	10068.98
546.16	9666.41
546.33	9673.43
546.50	9596.20
546.67	9598.54
546.83	9465.13
547.00	9390.23
547.17	9572.79
547.34	9589.17
547.50	9544.70
547.67	9624.28
547.84	9671.09
548.00	9699.18
548.17	9689.82
548.34	9708.54
548.51	9750.67
548.67	9764.72
548.84	9813.87
549.01	9671.09
549.18	9682.80
549.34	9647.69
549.51	9680.46
549.68	9722.59
549.84	9570.45
550.01	9699.18
550.18	9703.86
550.34	9813.87
550.51	9757.69
550.68	9895.78
550.84	9745.99
551.01	9900.47
551.18	9909.83
551.34	9764.72
551.51	9614.92
551.68	9841.95
551.84	9841.95
552.01	9750.67
552.18	9757.69
552.34	9647.69
552.51	9816.21
552.68	9666.41
552.84	9853.66
553.01	9764.72
553.18	9949.62
553.34	9774.08
553.51	9621.94
553.67	9909.83
553.84	10054.94
554.01	9738.97
554.17	9851.31
554.34	9643.01
554.51	9638.33
554.67	9966.00
554.84	9944.94
555.00	9975.36
555.17	9708.54
555.33	9841.95
555.50	9799.82
555.67	9561.09
555.83	9919.19
556.00	9947.28
556.16	9956.64
556.33	9806.84
556.50	9898.13
556.66	9977.70
556.83	9916.85
556.99	9956.64
557.16	9689.82
557.32	9926.21
557.49	9818.55
557.65	9905.15
557.82	9935.57
557.98	9813.87
558.15	9745.99
558.32	9839.61
558.48	10097.07
558.65	9844.29
558.81	9933.23
558.98	9951.96
559.14	10038.56
559.31	9734.29
559.47	9825.57
559.64	9966.00
559.80	10073.67
559.97	9888.76
560.13	9923.87
560.30	9984.73
560.46	9977.70
560.63	9867.70
560.79	9961.32
560.96	10036.22
561.12	9865.36
561.29	9895.78
561.45	9987.07
561.61	10160.27
561.78	10106.43
561.94	9907.49
562.11	10066.64
562.27	10052.60
562.44	9977.70
562.60	9987.07
562.77	9874.72
562.93	9966.00
563.10	10017.49
563.26	9907.49
563.42	10050.26
563.59	10076.01
563.75	10186.01
563.92	10242.18
564.08	10087.71
564.24	10136.86
564.41	10218.78
564.57	9940.26
564.74	9816.21
564.90	9949.62
565.07	10150.90
565.23	10132.18
565.39	9961.32
565.56	9973.02
565.72	9888.76
565.88	9933.23
566.05	9980.04
566.21	9827.91
566.38	10017.49
566.54	10090.05
566.70	10094.73
566.87	10232.82
567.03	10225.80
567.19	10176.65
567.36	10178.99
567.52	10115.80
567.68	10005.79
567.85	9970.68
568.01	10101.75
568.17	9947.28
568.34	10141.54
568.50	10195.37
568.66	10038.56
568.83	10253.89
568.99	10167.29
569.15	10293.68
569.32	10181.33
569.48	9914.51
569.64	10026.86
569.81	10017.49
569.97	10129.84
570.13	10003.45
570.30	10174.31
570.46	10031.54
570.62	10115.80
570.78	10132.18
570.95	9940.26
571.11	10251.55
571.27	10068.98
571.43	9975.36
571.60	10097.07
571.76	10167.29
571.92	10207.08
572.09	10228.14
572.25	10293.68
572.41	10293.68
572.57	10045.58
572.74	10190.69
572.90	10181.33
573.06	10164.95
573.22	10225.80
573.38	10181.33
573.55	9963.66
573.71	10389.64
573.87	10303.04
574.03	9930.89
574.20	10036.22
574.36	10125.16
574.52	10019.83
574.68	10160.27
574.84	10071.33
575.01	10054.94
575.17	10281.97
575.33	10104.09
575.49	10155.58
575.65	10286.65
575.82	10181.33
575.98	10134.52
576.14	10118.14
576.30	10230.48
576.46	10363.89
576.62	10291.34
576.79	10328.78
576.95	10251.55
577.11	10209.42
577.27	10312.40
577.43	10490.28
577.59	10338.15
577.75	10143.88
577.92	10171.97
578.08	10125.16
578.24	10253.89
578.40	10331.12
578.56	10352.19
578.72	10382.62
578.88	10462.19
579.04	10391.98
579.21	10394.32
579.37	10373.25
579.53	10286.65
579.69	10356.87
579.85	10249.21
580.01	10155.58
580.17	10129.84
580.33	9996.43
580.49	9914.51
580.65	10363.89
580.82	10499.64
580.98	10431.77
581.14	10122.82
581.30	10223.46
581.46	10115.80
581.62	10228.14
581.78	10242.18
581.94	10242.18
582.10	10300.70
582.26	10230.48
582.42	10071.33
582.58	10277.29
582.74	10415.38
582.90	10190.69
583.06	10406.02
583.22	10225.80
583.38	10214.10
583.54	10223.46
583.70	10202.40
583.86	10396.66
584.02	10401.34
584.18	10356.87
584.34	10359.21
584.50	10366.23
584.66	10331.12
584.82	10244.52
584.98	10396.66
585.14	10375.59
585.30	10272.61
585.46	10251.55
585.62	10249.21
585.78	10380.28
585.94	10321.76
586.10	10239.84
586.26	10197.71
586.42	10490.28
586.58	10258.57
586.74	10246.87
586.90	10090.05
587.06	10284.31
587.22	10324.10
587.38	10317.08
587.54	10490.28
587.70	10513.69
587.86	10289.00
588.02	10258.57
588.18	10443.47
588.34	10321.76
588.49	10265.59
588.65	10026.86
588.81	10317.08
588.97	10296.02
589.13	10546.45
589.29	10307.72
589.45	10366.23
589.61	10197.71
589.77	10352.19
589.93	10076.01
590.08	10134.52
590.24	10211.76
590.40	10324.10
590.56	10471.56
590.72	10321.76
590.88	10246.87
591.04	10246.87
591.20	10354.53
591.35	10375.59
591.51	10277.29
591.67	10590.92
591.83	10448.15
591.99	10406.02
592.15	10139.20
592.31	10319.42
592.46	10483.26
592.62	10424.75
592.78	10162.61
592.94	10260.91
593.10	10232.82
593.26	10394.32
593.41	10375.59
593.57	10347.51
593.73	10377.94
593.89	10368.57
594.05	10246.87
594.20	10319.42
594.36	10045.58
594.52	10190.69
594.68	10160.27
594.84	10090.05
594.99	10160.27
595.15	10242.18
595.31	10258.57
595.47	10403.68
595.62	10485.60
595.78	10225.80
595.94	10448.15
596.10	10342.83
596.25	10333.47
596.41	10157.92
596.57	10024.51
596.73	10237.50
596.88	10162.61
597.04	10413.04
597.20	10235.16
597.36	10340.49
597.51	10260.91
