SpectraSuite Data File
++++++++++++++++++++++++++++++++++++
Date: Fri Oct 04 11:39:29 GMT-05:00 2013
User: price-jones
Dark Spectrum Present: No
Reference Spectrum Present: No
Number of Sampled Component Spectra: 1
Spectrometers: USB2+H05261
Integration Time (usec): 100000 (USB2+H05261)
Spectra Averaged: 1 (USB2+H05261)
Boxcar Smoothing: 0 (USB2+H05261)
Correct for Electrical Dark: No (USB2+H05261)
Strobe/Lamp Enabled: No (USB2+H05261)
Correct for Detector Non-linearity: No (USB2+H05261)
Correct for Stray Light: No (USB2+H05261)
Number of Pixels in Processed Spectrum: 2048
>>>>>Begin Processed Spectral Data<<<<<
365.73	7.02
365.92	7.02
366.12	7.02
366.32	0.00
366.52	0.00
366.72	0.00
366.91	0.00
367.11	0.00
367.31	0.00
367.51	0.00
367.70	0.00
367.90	0.00
368.10	0.00
368.30	0.00
368.49	0.00
368.69	25.75
368.89	0.00
369.09	0.00
369.28	0.00
369.48	0.00
369.68	0.00
369.87	28.09
370.07	14.04
370.27	46.81
370.47	0.00
370.66	98.30
370.86	124.05
371.06	163.84
371.25	152.13
371.45	119.37
371.65	149.79
371.84	74.90
372.04	100.64
372.24	198.95
372.44	133.41
372.63	70.22
372.83	184.90
373.03	196.60
373.22	220.01
373.42	205.97
373.62	173.20
373.81	187.24
374.01	173.20
374.21	229.37
374.40	133.41
374.60	271.50
374.79	124.05
374.99	173.20
375.19	147.45
375.38	273.84
375.58	110.01
375.78	301.93
375.97	255.12
376.17	276.18
376.37	210.65
376.56	236.39
376.76	212.99
376.95	170.86
377.15	102.98
377.35	220.01
377.54	184.90
377.74	201.29
377.93	126.39
378.13	140.43
378.33	166.18
378.52	264.48
378.72	210.65
378.91	159.16
379.11	149.79
379.31	189.58
379.50	191.92
379.70	278.52
379.89	215.33
380.09	161.50
380.28	135.75
380.48	215.33
380.68	128.73
380.87	168.52
381.07	212.99
381.26	241.08
381.46	187.24
381.65	259.80
381.85	229.37
382.04	236.39
382.24	217.67
382.43	234.05
382.63	142.77
382.83	248.10
383.02	224.69
383.22	334.70
383.41	191.92
383.61	222.35
383.80	262.14
384.00	229.37
384.19	189.58
384.39	154.48
384.58	159.16
384.78	173.20
384.97	234.05
385.17	255.12
385.36	264.48
385.56	255.12
385.75	283.20
385.95	294.91
386.14	180.22
386.34	229.37
386.53	208.31
386.72	271.50
386.92	313.63
387.11	217.67
387.31	259.80
387.50	250.44
387.70	203.63
387.89	205.97
388.09	231.71
388.28	229.37
388.48	229.37
388.67	220.01
388.86	138.09
389.06	248.10
389.25	262.14
389.45	306.61
389.64	259.80
389.84	212.99
390.03	341.72
390.22	264.48
390.42	250.44
390.61	220.01
390.81	229.37
391.00	269.16
391.19	294.91
391.39	262.14
391.58	212.99
391.78	280.86
391.97	292.57
392.16	243.42
392.36	262.14
392.55	257.46
392.75	341.72
392.94	297.25
393.13	322.99
393.33	341.72
393.52	301.93
393.71	311.29
393.91	269.16
394.10	311.29
394.29	337.04
394.49	318.31
394.68	294.91
394.88	372.15
395.07	383.85
395.26	330.02
395.46	341.72
395.65	322.99
395.84	355.76
396.04	451.72
396.23	341.72
396.42	374.49
396.62	416.62
396.81	381.51
397.00	360.44
397.19	381.51
397.39	418.96
397.58	423.64
397.77	430.66
397.97	435.34
398.16	358.10
398.35	468.11
398.55	425.98
398.74	482.15
398.93	451.72
399.12	395.55
399.32	545.34
399.51	433.00
399.70	360.44
399.90	477.47
400.09	491.51
400.28	580.45
400.47	435.34
400.67	533.64
400.86	409.59
401.05	489.17
401.24	493.85
401.44	472.79
401.63	472.79
401.82	423.64
402.01	535.98
402.21	580.45
402.40	564.07
402.59	409.59
402.78	545.34
402.97	533.64
403.17	552.37
403.36	543.00
403.55	636.63
403.74	615.56
403.93	720.88
404.13	681.10
404.32	641.31
404.51	650.67
404.70	688.12
404.89	734.93
405.09	610.88
405.28	688.12
405.47	627.26
405.66	720.88
405.85	720.88
406.05	688.12
406.24	730.25
406.43	739.61
406.62	821.53
406.81	786.42
407.00	798.12
407.20	718.54
407.39	774.72
407.58	744.29
407.77	720.88
407.96	807.48
408.15	821.53
408.34	919.83
408.54	844.93
408.73	847.27
408.92	889.40
409.11	940.90
409.30	931.53
409.49	891.74
409.68	919.83
409.87	868.34
410.07	905.79
410.26	943.24
410.45	858.98
410.64	924.51
410.83	964.30
411.02	1006.43
411.21	1034.52
411.40	1102.39
411.59	1036.86
411.78	1015.79
411.98	1107.07
412.17	1001.75
412.36	1088.35
412.55	1029.84
412.74	1167.93
412.93	1238.14
413.12	1170.27
413.31	1217.08
413.50	1167.93
413.69	1256.87
413.88	1249.85
414.07	1289.64
414.26	1301.34
414.45	1247.51
414.64	1362.19
414.83	1308.36
415.02	1327.08
415.22	1378.58
415.41	1504.96
415.60	1376.24
415.79	1291.98
415.98	1495.60
416.17	1378.58
416.36	1465.18
416.55	1451.13
416.74	1511.99
416.93	1427.73
417.12	1483.90
417.31	1533.05
417.50	1500.28
417.69	1600.93
417.88	1605.61
418.07	1488.58
418.26	1614.97
418.45	1619.65
418.64	1671.14
418.83	1650.08
419.02	1689.87
419.21	1708.59
419.39	1713.27
419.58	1584.54
419.77	1666.46
419.96	1694.55
420.15	1764.76
420.34	1797.53
420.53	1820.94
420.72	1750.72
420.91	1788.17
421.10	1781.15
421.29	1834.98
421.48	1767.10
421.67	1832.64
421.86	1837.32
422.05	1811.57
422.24	1724.97
422.43	1914.56
422.61	1769.44
422.80	1949.67
422.99	1902.86
423.18	1874.77
423.37	1856.04
423.56	1989.46
423.75	1884.13
423.94	1802.21
424.13	1757.74
424.32	1792.85
424.50	1966.05
424.69	2008.18
424.88	1839.66
425.07	1980.09
425.26	1928.60
425.45	1970.73
425.64	1909.88
425.83	1879.45
426.01	1998.82
426.20	1834.98
426.39	1952.01
426.58	1998.82
426.77	2015.20
426.96	1905.20
427.15	1961.37
427.33	1900.52
427.52	1989.46
427.71	1991.80
427.90	2099.46
428.09	2064.35
428.28	2143.93
428.46	2183.72
428.65	2113.50
428.84	2167.34
429.03	2193.08
429.22	2022.22
429.40	2111.16
429.59	2153.29
429.78	2064.35
429.97	2015.20
430.16	2073.71
430.34	2209.47
430.53	2202.44
430.72	2172.02
430.91	2150.95
431.10	2190.74
431.28	2272.66
431.47	2310.11
431.66	2209.47
431.85	2260.96
432.03	2300.75
432.22	2537.14
432.41	2312.45
432.60	2310.11
432.79	2265.64
432.97	2450.54
433.16	2359.26
433.35	2429.48
433.54	2385.01
433.72	2497.35
433.91	2462.24
434.10	2317.13
434.28	2457.56
434.47	2476.29
434.66	2572.25
434.85	2495.01
435.03	2469.27
435.22	2691.62
435.41	3033.33
435.59	2850.77
435.78	2789.92
435.97	2764.17
436.16	2614.38
436.34	2569.91
436.53	2590.97
436.72	2656.51
436.90	2736.09
437.09	2689.28
437.28	2616.72
437.46	2649.49
437.65	2661.19
437.84	2684.59
438.02	2729.06
438.21	2719.70
438.40	2677.57
438.58	2609.70
438.77	2686.94
438.96	2740.77
439.14	2818.00
439.33	2832.05
439.52	2839.07
439.70	2832.05
439.89	2825.03
440.08	2984.18
440.26	2731.41
440.45	3030.99
440.63	2895.24
440.82	3002.91
441.01	2913.97
441.19	2946.73
441.38	3030.99
441.57	3192.49
441.75	3108.23
441.94	3108.23
442.12	3096.53
442.31	3206.53
442.50	3007.59
442.68	3040.36
442.87	3185.47
443.05	3059.08
443.24	3281.43
443.43	3227.60
443.61	3222.92
443.80	3361.01
443.98	3176.11
444.17	3136.32
444.35	3260.37
444.54	3255.69
444.73	3243.98
444.91	3150.36
445.10	3173.77
445.28	3309.52
445.47	3251.00
445.65	3248.66
445.84	3279.09
446.02	3288.45
446.21	3405.48
446.39	3281.43
446.58	3318.88
446.77	3473.36
446.95	3281.43
447.14	3368.03
447.32	3452.29
447.51	3300.16
447.69	3349.31
447.88	3325.90
448.06	3403.14
448.25	3433.57
448.43	3426.54
448.62	3386.76
448.80	3393.78
448.99	3447.61
449.17	3471.01
449.36	3241.64
449.54	3574.00
449.73	3552.93
449.91	3566.98
450.10	3630.17
450.28	3581.02
450.46	3620.81
450.65	3468.67
450.83	3550.59
451.02	3595.06
451.20	3716.77
451.39	3543.57
451.57	3641.87
451.76	3632.51
451.94	3616.13
452.13	3627.83
452.31	3674.64
452.49	3529.53
452.68	3569.32
452.86	3606.77
453.05	3878.27
453.23	3824.44
453.42	3733.15
453.60	3543.57
453.78	3735.50
453.97	3613.79
454.15	3742.52
454.34	3712.09
454.52	3826.78
454.70	3824.44
454.89	3843.16
455.07	3817.41
455.26	3822.09
455.44	3922.74
455.62	3819.75
455.81	3911.04
455.99	3999.98
456.17	3911.04
456.36	3939.12
456.54	3992.95
456.73	3950.82
456.91	4095.94
457.09	4039.76
457.28	4133.39
457.46	4095.94
457.64	4023.38
457.83	4035.08
458.01	4004.66
458.19	4086.58
458.38	4109.98
458.56	4278.50
458.74	4283.18
458.93	4133.39
459.11	4283.18
459.29	4117.00
459.48	4297.22
459.66	4217.65
459.84	4290.20
460.03	4322.97
460.21	4374.46
460.39	4348.72
460.57	4208.28
460.76	4346.37
460.94	4313.61
461.12	4381.48
461.31	4313.61
461.49	4245.73
461.67	4187.22
461.85	4554.68
462.04	4477.44
462.22	4617.88
462.40	4379.14
462.59	4355.74
462.77	4510.21
462.95	4608.51
463.13	4442.34
463.32	4432.97
463.50	4671.71
463.68	4542.98
463.86	4596.81
464.05	4599.15
464.23	4554.68
464.41	4741.93
464.59	4493.83
464.78	4690.43
464.96	4706.82
465.14	4521.92
465.32	4767.67
465.50	4826.18
465.69	4713.84
465.87	4690.43
466.05	4662.35
466.23	4739.58
466.41	4664.69
466.60	4697.46
466.78	4844.91
466.96	4730.22
467.14	4643.62
467.32	4788.74
467.51	4882.36
467.69	4774.69
467.87	4901.08
468.05	4966.62
468.23	4772.35
468.41	4973.64
468.60	4877.68
468.78	4919.81
468.96	4837.89
469.14	5018.11
469.32	5053.22
469.50	4980.66
469.69	5083.64
469.87	5146.84
470.05	4933.85
470.23	4973.64
470.41	5076.62
470.59	5207.69
470.77	4957.25
470.95	5184.29
471.14	5184.29
471.32	4975.98
471.50	5296.63
471.68	5277.91
471.86	5163.22
472.04	5301.31
472.22	5411.32
472.40	5219.39
472.58	5551.75
472.77	5313.02
472.95	5497.92
473.13	5671.12
473.31	5612.60
473.49	5444.09
473.67	5411.32
473.85	5486.22
474.03	5722.61
474.21	5483.88
474.39	5633.67
474.57	5729.63
474.75	5841.98
474.93	5778.78
475.12	5806.87
475.30	5830.27
475.48	5820.91
475.66	5753.04
475.84	5827.93
476.02	6071.35
476.20	5940.28
476.38	5916.87
476.56	6155.61
476.74	5951.98
476.92	6242.21
477.10	6242.21
477.28	6370.94
477.46	6129.86
477.64	6324.13
477.82	6335.83
478.00	6417.75
478.18	6424.77
478.36	6626.06
478.54	6649.46
478.72	6593.29
478.90	6693.93
479.08	6623.72
479.26	6832.02
479.44	6803.94
479.62	6696.27
479.80	6733.72
479.98	6944.37
480.16	7035.65
480.34	7204.17
480.52	7026.29
480.70	7112.89
480.88	7035.65
481.06	7243.96
481.24	7178.42
481.41	7276.73
481.59	7307.15
481.77	7382.05
481.95	7499.08
482.13	7531.84
482.31	7583.34
482.49	7798.66
482.67	7686.32
482.85	7765.90
483.03	7829.09
483.21	7960.16
483.39	8051.44
483.57	8018.68
483.74	7899.31
483.92	8107.62
484.10	8222.30
484.28	8353.37
484.46	8521.89
484.64	8435.29
484.82	8404.86
485.00	8496.14
485.18	8594.45
485.35	8793.39
485.53	8865.95
485.71	8861.27
485.89	8943.19
486.07	8681.05
486.25	8982.98
486.43	8868.29
486.61	9041.49
486.78	9214.69
486.96	9195.96
487.14	9221.71
487.32	9256.82
487.50	9343.42
487.68	9359.80
487.85	9483.85
488.03	9570.45
488.21	9673.43
488.39	9645.35
488.57	9921.53
488.75	9762.37
488.92	10303.04
489.10	9937.91
489.28	10230.48
489.46	10047.92
489.64	10118.14
489.81	10326.44
489.99	10466.88
490.17	10656.46
490.35	10635.39
490.53	10607.31
490.70	10792.21
490.88	10600.29
491.06	10888.17
491.24	10965.41
491.41	11056.69
491.59	10974.77
491.77	11089.46
491.95	11295.43
492.13	11358.62
492.30	11136.27
492.48	11349.26
492.66	11365.64
492.84	11421.81
493.01	11485.01
493.19	11522.46
493.37	11637.14
493.54	11761.19
493.72	11910.99
493.90	11590.33
494.08	11868.86
494.25	12086.53
494.43	11948.43
494.61	12320.58
494.79	12105.25
494.96	12152.06
495.14	12182.49
495.32	12524.21
495.49	12205.89
495.67	12430.59
495.85	12358.03
496.02	12690.38
496.20	12622.51
496.38	12645.91
496.55	12910.40
496.73	13174.88
496.91	12989.97
497.09	12837.84
497.26	13195.94
497.44	13064.87
497.62	12940.82
497.79	13437.02
497.97	13329.35
498.14	13221.69
498.32	13582.13
498.50	13600.85
498.67	13563.40
498.85	13734.26
499.03	13984.70
499.20	13853.63
499.38	13743.63
499.56	13994.06
499.73	14115.77
499.91	14218.75
500.08	13928.53
500.26	13965.98
500.44	14148.54
500.61	14429.40
500.79	14211.73
500.97	14443.45
501.14	14204.71
501.32	14459.83
501.49	14516.00
501.67	14410.68
501.84	14607.28
502.02	14527.71
502.20	14340.46
502.37	14527.71
502.55	14719.63
502.72	14733.67
502.90	14986.45
503.07	14745.38
503.25	14909.21
503.43	15021.56
503.60	15044.96
503.78	15066.03
503.95	14941.98
504.13	15166.67
504.30	15150.29
504.48	15068.37
504.65	15419.45
504.83	15508.39
505.01	15447.54
505.18	15524.77
505.36	15384.34
505.53	15515.41
505.71	15344.55
505.88	15683.93
506.06	15449.88
506.23	15775.21
506.41	15683.93
506.58	15875.85
506.76	15908.62
506.93	16025.65
507.11	15791.59
507.28	15880.53
507.46	15960.11
507.63	16191.83
507.81	16313.53
507.98	16414.18
508.16	16161.40
508.33	16208.21
508.50	16451.63
508.68	16636.53
508.85	16589.72
509.03	16650.57
509.20	16755.90
509.38	16744.19
509.55	16901.01
509.73	16718.45
509.90	16992.29
510.08	16755.90
510.25	17015.69
510.42	16725.47
510.60	17252.09
510.77	17022.72
510.95	17324.65
511.12	16947.82
511.30	17085.91
511.47	17111.66
511.64	17415.93
511.82	17399.54
511.99	17563.38
512.17	17614.87
512.34	17411.25
512.51	17401.88
512.69	17858.29
512.86	17722.54
513.04	17563.38
513.21	17593.81
513.38	17858.29
513.56	17872.33
513.73	17476.78
513.90	17837.22
514.08	17989.36
514.25	17961.27
514.43	17710.83
514.60	18218.73
514.77	18183.62
514.95	18459.81
515.12	18064.25
515.29	18214.05
515.47	18452.78
515.64	18504.28
515.81	18274.90
515.99	18560.45
516.16	18682.16
516.33	18672.79
516.51	18682.16
516.68	18588.53
516.85	18541.72
517.03	18808.54
517.20	19166.65
517.37	18616.62
517.54	18633.00
517.72	18717.26
517.89	18731.31
518.06	18740.67
518.24	19030.90
518.41	18752.37
518.58	18977.06
518.75	19150.26
518.93	19204.10
519.10	19220.48
519.27	19335.17
519.45	19201.76
519.62	19494.32
519.79	19281.33
519.96	19447.51
520.14	19536.45
520.31	19470.92
520.48	19623.05
520.65	19470.92
520.83	19716.67
521.00	19892.21
521.17	19627.73
521.34	19529.43
521.52	19632.41
521.69	19936.68
521.86	19814.98
522.03	20086.48
522.20	20142.65
522.38	19861.79
522.55	19796.25
522.72	20013.92
522.89	20130.95
523.07	20308.83
523.24	20226.91
523.41	20156.69
523.58	19822.00
523.75	20568.63
523.92	20357.98
524.10	20301.81
524.27	20362.66
524.44	20676.29
524.61	20568.63
524.78	20479.69
524.96	20428.20
525.13	20475.01
525.30	20823.75
525.47	20435.22
525.64	20833.11
525.81	21055.46
525.98	20594.37
526.16	20671.61
526.33	20758.21
526.50	21226.32
526.67	21048.44
526.84	20945.45
527.01	20961.84
527.18	21221.64
527.36	20952.48
527.53	21500.16
527.70	21675.70
527.87	21443.99
528.04	21376.11
528.21	21329.30
528.38	20994.61
528.55	21539.95
528.72	21125.68
528.89	21553.99
529.07	21551.65
529.24	21493.14
529.41	21624.21
529.58	21476.76
529.75	21287.17
529.92	21465.05
530.09	21525.91
530.26	21425.26
530.43	21659.32
530.60	21635.91
530.77	21619.53
530.94	21816.13
531.11	21422.92
531.28	21593.78
531.46	21928.48
531.63	21706.13
531.80	22031.46
531.97	21832.52
532.14	22211.68
532.31	21956.57
532.48	22071.25
532.65	21940.18
532.82	22052.53
532.99	21935.50
533.16	21935.50
533.33	22375.52
533.50	22705.54
533.67	22515.95
533.84	22335.73
534.01	22345.09
534.18	22382.54
534.35	22434.03
534.52	22059.55
534.69	22492.55
534.86	22937.25
535.03	22607.23
535.20	22649.36
535.37	22780.43
535.54	22796.82
535.71	22237.43
535.88	22691.49
536.05	22757.03
536.22	22932.57
536.38	23042.57
536.55	22845.97
536.72	23030.87
536.89	22656.39
537.06	22984.06
537.23	23030.87
537.40	22981.72
537.57	22836.61
537.74	22773.41
537.91	23393.65
538.08	23283.65
538.25	22813.20
538.42	22841.29
538.59	23438.12
538.75	23274.29
538.92	23152.58
539.09	23634.73
539.26	23344.50
539.43	23442.81
539.60	23426.42
539.77	23379.61
539.94	23594.94
540.11	23445.15
540.28	23644.09
540.44	23592.60
540.61	23360.89
540.78	23885.17
540.95	23524.72
541.12	23901.55
541.29	24173.05
541.46	24205.82
541.62	23964.75
541.79	24151.99
541.96	23854.74
542.13	23896.87
542.30	24240.93
542.47	24353.27
542.63	24407.11
542.80	24376.68
542.97	24142.63
543.14	24716.06
543.31	24379.02
543.48	24521.79
543.64	24606.05
543.81	24772.23
543.98	24444.56
544.15	24821.38
544.32	24404.77
544.48	25029.69
544.65	24624.78
544.82	24580.31
544.99	24430.51
545.16	24985.22
545.32	24673.93
545.49	25193.53
545.66	25717.81
545.83	25970.58
546.00	25996.33
546.16	25198.21
546.33	24772.23
546.50	24575.62
546.67	24666.91
546.83	24453.92
547.00	24376.68
547.17	24765.21
547.34	24519.45
547.50	24739.46
547.67	25195.87
547.84	24442.21
548.00	24774.57
548.17	24692.65
548.34	24868.19
548.51	25366.73
548.67	24973.52
548.84	24975.86
549.01	24819.04
549.18	24982.88
549.34	24940.75
549.51	25001.60
549.68	24945.43
549.84	25092.88
550.01	25160.76
550.18	24781.59
550.34	24926.71
550.51	25027.35
550.68	25106.93
550.84	25165.44
551.01	25097.56
551.18	25092.88
551.34	24872.87
551.51	24671.59
551.68	24994.58
551.84	25149.06
552.01	25429.92
552.18	25436.94
552.34	24760.53
552.51	25319.92
552.68	25106.93
552.84	25289.49
553.01	25165.44
553.18	25235.66
553.34	25369.07
553.51	25291.83
553.67	25568.01
553.84	25795.04
554.01	25792.70
554.17	25296.51
554.34	25530.56
554.51	25422.90
554.67	25252.04
554.84	25500.14
555.00	25289.49
555.17	25263.74
555.33	25458.01
555.50	25465.03
555.67	25303.53
555.83	25493.12
556.00	25467.37
556.16	25626.53
556.33	25317.57
556.50	25383.11
556.66	25422.90
556.83	25460.35
556.99	25811.43
557.16	25928.45
557.32	25813.77
557.49	25680.36
557.65	25443.96
557.82	25614.82
557.98	25668.66
558.15	25481.41
558.32	25923.77
558.48	25699.08
558.65	25535.24
558.81	25376.09
558.98	25841.85
559.14	25635.89
559.31	25523.54
559.47	25591.42
559.64	25799.73
559.80	25827.81
559.97	25874.62
560.13	25584.40
560.30	25436.94
560.46	25893.35
560.63	25998.67
560.79	26113.36
560.96	25965.90
561.12	25916.75
561.29	25640.57
561.45	25984.63
561.61	26103.99
561.78	26120.38
561.94	26019.74
562.11	26061.87
562.27	25989.31
562.44	25804.41
562.60	25989.31
562.77	25881.64
562.93	26043.14
563.10	25710.78
563.26	25799.73
563.42	26089.95
563.59	25954.20
563.75	26010.37
563.92	26281.88
564.08	26092.29
564.24	25905.05
564.41	25998.67
564.57	25883.98
564.74	26015.05
564.90	26120.38
565.07	26237.41
565.23	26230.38
565.39	26314.64
565.56	26340.39
565.72	26054.84
565.88	25804.41
566.05	26089.95
566.21	25879.30
566.38	25993.99
566.54	26073.57
566.70	26167.19
566.87	26457.42
567.03	26139.10
567.19	26438.69
567.36	25963.56
567.52	26038.46
567.68	26115.70
567.85	26080.59
568.01	26015.05
568.17	25951.86
568.34	26403.58
568.50	26221.02
568.66	26426.99
568.83	26204.64
568.99	26218.68
569.15	26188.25
569.32	26148.46
569.48	25991.65
569.64	26363.79
569.81	26197.62
569.97	26089.95
570.13	26260.81
570.30	26436.35
570.46	26338.05
570.62	26122.72
570.78	26113.36
570.95	25790.36
571.11	26167.19
571.27	26036.12
571.43	25979.95
571.60	26202.30
571.76	26066.55
571.92	26167.19
572.09	26654.02
572.25	26256.13
572.41	26656.36
572.57	25919.09
572.74	26522.95
572.90	26492.52
573.06	26218.68
573.22	26370.82
573.38	26192.94
573.55	26108.68
573.71	26450.39
573.87	26380.18
574.03	25979.95
574.20	26307.62
574.36	25942.50
574.52	26401.24
574.68	25979.95
574.84	26532.31
575.01	26415.29
575.17	25919.09
575.33	26094.63
575.49	26246.77
575.65	26483.16
575.82	26649.34
575.98	26504.23
576.14	26366.13
576.30	26251.45
576.46	26513.59
576.62	26319.32
576.79	26419.97
576.95	26321.66
577.11	26448.05
577.27	26293.58
577.43	26665.72
577.59	26333.37
577.75	26214.00
577.92	26359.11
578.08	26160.17
578.24	26141.44
578.40	26136.76
578.56	26412.95
578.72	26522.95
578.88	27110.43
579.04	26843.60
579.21	26644.66
579.37	26260.81
579.53	26623.59
579.69	26202.30
579.85	26001.01
580.01	26195.28
580.17	26312.30
580.33	26141.44
580.49	26321.66
580.65	26623.59
580.82	26735.94
580.98	26443.37
581.14	26314.64
581.30	26939.57
581.46	26555.72
581.62	26424.65
581.78	26424.65
581.94	26506.57
582.10	26403.58
582.26	26724.24
582.42	26115.70
582.58	26492.52
582.74	26405.92
582.90	26714.87
583.06	26562.74
583.22	26223.36
583.38	26668.06
583.54	26548.70
583.70	26462.10
583.86	26562.74
584.02	26558.06
584.18	26391.88
584.34	26483.16
584.50	26492.52
584.66	26490.18
584.82	26572.10
584.98	26733.60
585.14	26319.32
585.30	26185.91
585.46	26551.04
585.62	26504.23
585.78	26389.54
585.94	26508.91
586.10	26546.36
586.26	26244.43
586.42	26426.99
586.58	26576.78
586.74	26363.79
586.90	26349.75
587.06	26595.51
587.22	26590.83
587.38	26473.80
587.54	26707.85
587.70	26551.04
587.86	26782.75
588.02	26766.37
588.18	26527.63
588.34	26700.83
588.49	26359.11
588.65	26309.96
588.81	26319.32
588.97	26731.26
589.13	26246.77
589.29	26464.44
589.45	27075.32
589.61	26333.37
589.77	26829.56
589.93	26967.65
590.08	26586.15
590.24	26845.94
590.40	26967.65
590.56	26761.69
590.72	26445.71
590.88	26792.11
591.04	26511.25
591.20	27077.66
591.35	26803.82
591.51	27136.17
591.67	26934.88
591.83	26733.60
591.99	26710.19
592.15	26494.86
