SpectraSuite Data File
++++++++++++++++++++++++++++++++++++
Date: Fri Oct 04 11:39:25 GMT-05:00 2013
User: price-jones
Dark Spectrum Present: No
Reference Spectrum Present: No
Number of Sampled Component Spectra: 1
Spectrometers: USB2+H05261
Integration Time (usec): 100000 (USB2+H05261)
Spectra Averaged: 1 (USB2+H05261)
Boxcar Smoothing: 0 (USB2+H05261)
Correct for Electrical Dark: No (USB2+H05261)
Strobe/Lamp Enabled: No (USB2+H05261)
Correct for Detector Non-linearity: No (USB2+H05261)
Correct for Stray Light: No (USB2+H05261)
Number of Pixels in Processed Spectrum: 2048
>>>>>Begin Processed Spectral Data<<<<<
365.73	0.00
365.92	0.00
366.12	0.00
366.32	0.00
366.52	0.00
366.72	9.36
366.91	0.00
367.11	0.00
367.31	0.00
367.51	0.00
367.70	0.00
367.90	0.00
368.10	0.00
368.30	0.00
368.49	0.00
368.69	9.36
368.89	0.00
369.09	0.00
369.28	0.00
369.48	0.00
369.68	0.00
369.87	0.00
370.07	0.00
370.27	35.11
370.47	7.02
370.66	170.86
370.86	234.05
371.06	290.23
371.25	313.63
371.45	229.37
371.65	297.25
371.84	205.97
372.04	306.61
372.24	273.84
372.44	184.90
372.63	304.27
372.83	353.42
373.03	313.63
373.22	271.50
373.42	348.74
373.62	372.15
373.81	344.06
374.01	397.89
374.21	416.62
374.40	346.40
374.60	334.70
374.79	360.44
374.99	337.04
375.19	442.36
375.38	262.14
375.58	266.82
375.78	381.51
375.97	299.59
376.17	514.92
376.37	365.12
376.56	374.49
376.76	327.68
376.95	346.40
377.15	337.04
377.35	395.55
377.54	430.66
377.74	372.15
377.93	344.06
378.13	369.80
378.33	388.53
378.52	444.70
378.72	346.40
378.91	376.83
379.11	428.32
379.31	348.74
379.50	360.44
379.70	404.91
379.89	390.87
380.09	386.19
380.28	369.80
380.48	437.68
380.68	411.93
380.87	442.36
381.07	437.68
381.26	468.11
381.46	440.02
381.65	428.32
381.85	379.17
382.04	369.80
382.24	355.76
382.43	374.49
382.63	454.06
382.83	416.62
383.02	477.47
383.22	418.96
383.41	425.98
383.61	454.06
383.80	524.28
384.00	465.77
384.19	451.72
384.39	461.09
384.58	442.36
384.78	456.40
384.97	514.92
385.17	444.70
385.36	472.79
385.56	519.60
385.75	416.62
385.95	444.70
386.14	491.51
386.34	521.94
386.53	456.40
386.72	543.00
386.92	517.26
387.11	458.74
387.31	594.50
387.50	484.49
387.70	585.13
387.89	484.49
388.09	510.24
388.28	512.58
388.48	575.77
388.67	489.17
388.86	559.39
389.06	578.11
389.25	636.63
389.45	535.98
389.64	566.41
389.84	540.66
390.03	578.11
390.22	512.58
390.42	631.94
390.61	521.94
390.81	599.18
391.00	589.82
391.19	650.67
391.39	629.60
391.58	575.77
391.78	622.58
391.97	657.69
392.16	519.60
392.36	678.76
392.55	667.05
392.75	624.92
392.94	669.39
393.13	662.37
393.33	674.07
393.52	718.54
393.71	692.80
393.91	620.24
394.10	660.03
394.29	664.71
394.49	615.56
394.68	767.70
394.88	723.23
395.07	746.63
395.26	734.93
395.46	763.01
395.65	805.14
395.84	697.48
396.04	784.08
396.23	716.20
396.42	760.67
396.62	746.63
396.81	760.67
397.00	758.33
397.19	683.44
397.39	709.18
397.58	814.51
397.77	800.46
397.97	830.89
398.16	800.46
398.35	781.74
398.55	823.87
398.74	812.17
398.93	842.59
399.12	896.43
399.32	919.83
399.51	788.76
399.70	929.19
399.90	933.87
400.09	875.36
400.28	929.19
400.47	994.73
400.67	999.41
400.86	1032.18
401.05	894.08
401.24	868.34
401.44	987.71
401.63	997.07
401.82	992.39
402.01	936.21
402.21	1036.86
402.40	1088.35
402.59	1081.33
402.78	1004.09
402.97	1032.18
403.17	1062.60
403.36	1114.10
403.55	1095.37
403.74	1095.37
403.93	1149.20
404.13	1179.63
404.32	1135.16
404.51	1228.78
404.70	1228.78
404.89	1219.42
405.09	1235.80
405.28	1174.95
405.47	1174.95
405.66	1289.64
405.85	1261.55
406.05	1247.51
406.24	1315.38
406.43	1270.91
406.62	1315.38
406.81	1416.02
407.00	1331.76
407.20	1369.21
407.39	1322.40
407.58	1390.28
407.77	1439.43
407.96	1460.49
408.15	1397.30
408.34	1500.28
408.54	1451.13
408.73	1586.88
408.92	1509.65
409.11	1497.94
409.30	1486.24
409.49	1462.83
409.68	1598.59
409.87	1654.76
410.07	1671.14
410.26	1561.14
410.45	1626.67
410.64	1572.84
410.83	1629.01
411.02	1706.25
411.21	1645.40
411.40	1748.38
411.59	1699.23
411.78	1689.87
411.98	1647.74
412.17	1825.62
412.36	1839.66
412.55	1898.17
412.74	1860.73
412.93	1900.52
413.12	1870.09
413.31	1959.03
413.50	2022.22
413.69	2127.55
413.88	2118.18
414.07	1989.46
414.26	2099.46
414.45	2003.50
414.64	2080.74
414.83	2071.37
415.02	2155.63
415.22	2235.21
415.41	2244.57
415.60	2260.96
415.79	2186.06
415.98	2328.83
416.17	2422.45
416.36	2347.56
416.55	2359.26
416.74	2284.36
416.93	2385.01
417.12	2450.54
417.31	2457.56
417.50	2459.90
417.69	2441.18
417.88	2459.90
418.07	2434.16
418.26	2523.10
418.45	2600.34
418.64	2672.89
418.83	2647.15
419.02	2609.70
419.21	2642.46
419.39	2619.06
419.58	2665.87
419.77	2544.16
419.96	2619.06
420.15	2827.37
420.34	2729.06
420.53	2803.96
420.72	2775.88
420.91	2789.92
421.10	2822.69
421.29	2895.24
421.48	2731.41
421.67	2977.16
421.86	2867.16
422.05	2972.48
422.24	2855.45
422.43	2885.88
422.61	2923.33
422.80	2993.55
422.99	2846.09
423.18	2991.20
423.37	2949.08
423.56	2979.50
423.75	3005.25
423.94	2902.26
424.13	2869.50
424.32	2860.13
424.50	3028.65
424.69	3052.06
424.88	3047.38
425.07	2881.20
425.26	2885.88
425.45	3040.36
425.64	3002.91
425.83	3019.29
426.01	2937.37
426.20	3066.10
426.39	2977.16
426.58	2967.80
426.77	3061.42
426.96	3129.30
427.15	3105.89
427.33	3190.15
427.52	3061.42
427.71	3056.74
427.90	3260.37
428.09	3215.90
428.28	3197.17
428.46	3138.66
428.65	3225.26
428.84	3225.26
429.03	3325.90
429.22	3309.52
429.40	3302.50
429.59	3328.24
429.78	3234.62
429.97	3145.68
430.16	3353.99
430.34	3452.29
430.53	3529.53
430.72	3468.67
430.91	3459.31
431.10	3442.93
431.28	3562.30
431.47	3440.59
431.66	3473.36
431.85	3520.17
432.03	3583.36
432.22	3679.32
432.41	3499.10
432.60	3665.28
432.79	3590.38
432.97	3658.26
433.16	3634.85
433.35	3585.70
433.54	3566.98
433.72	3838.48
433.91	3578.68
434.10	3805.71
434.28	3620.81
434.47	3634.85
434.66	3803.37
434.85	3957.85
435.03	4011.68
435.22	4112.32
435.41	4255.09
435.59	4175.52
435.78	4297.22
435.97	4030.40
436.16	4023.38
436.34	3974.23
436.53	4016.36
436.72	4051.47
436.90	3875.93
437.09	3918.06
437.28	4063.17
437.46	4014.02
437.65	4037.42
437.84	4184.88
438.02	4131.05
438.21	4152.11
438.40	4018.70
438.58	4189.56
438.77	4259.78
438.96	4241.05
439.14	4234.03
439.33	4269.14
439.52	4498.51
439.70	4435.32
439.89	4379.14
440.08	4531.28
440.26	4381.48
440.45	4512.55
440.63	4507.87
440.82	4674.05
441.01	4573.41
441.19	4645.96
441.38	4655.33
441.57	4608.51
441.75	4826.18
441.94	4863.63
442.12	4865.97
442.31	5008.75
442.50	4926.83
442.68	4800.44
442.87	4915.12
443.05	5013.43
443.24	4985.34
443.43	4931.51
443.61	4964.28
443.80	5200.67
443.98	4987.68
444.17	4767.67
444.35	5060.24
444.54	5130.45
444.73	5053.22
444.91	4985.34
445.10	5069.60
445.28	4975.98
445.47	5039.17
445.65	5263.86
445.84	5039.17
446.02	5179.61
446.21	5247.48
446.39	4957.25
446.58	5247.48
446.77	5275.57
446.95	5111.73
447.14	5022.79
447.32	5184.29
447.51	5027.47
447.69	5165.56
447.88	5275.57
448.06	5191.31
448.25	5296.63
448.43	5219.39
448.62	5301.31
448.80	5345.78
448.99	5280.25
449.17	5378.55
449.36	5214.71
449.54	5418.34
449.73	5408.98
449.91	5364.51
450.10	5521.32
450.28	5380.89
450.46	5472.17
450.65	5427.70
450.83	5657.07
451.02	5533.03
451.20	5547.07
451.39	5537.71
451.57	5490.90
451.76	5685.16
451.94	5692.18
452.13	5568.13
452.31	5645.37
452.49	5680.48
452.68	5591.54
452.86	5720.27
453.05	5699.20
453.23	5636.01
453.42	5694.52
453.60	5673.46
453.78	5797.51
453.97	5816.23
454.15	5856.02
454.34	5764.74
454.52	5905.17
454.70	5998.79
454.89	6092.41
455.07	5841.98
455.26	5937.94
455.44	6076.03
455.62	6005.81
455.81	6003.47
455.99	6188.38
456.17	6150.93
456.36	5968.37
456.54	6071.35
456.73	6277.32
456.91	6464.56
457.09	6272.64
457.28	6452.86
457.46	6312.42
457.64	6361.58
457.83	6331.15
458.01	6326.47
458.19	6441.15
458.38	6310.08
458.56	6478.60
458.74	6431.79
458.93	6450.52
459.11	6431.79
459.29	6696.27
459.48	6679.89
459.66	6642.44
459.84	6541.80
460.03	6729.04
460.21	6710.32
460.39	6637.76
460.57	6637.76
460.76	6726.70
460.94	6787.55
461.12	6740.74
461.31	6740.74
461.49	6766.49
461.67	6729.04
461.85	6960.75
462.04	6832.02
462.22	6991.18
462.40	7255.66
462.59	6984.16
462.77	6956.07
462.95	7054.37
463.13	6820.32
463.32	7227.57
463.50	7229.91
463.68	7204.17
463.86	7098.84
464.05	6909.26
464.23	7162.04
464.41	7197.15
464.59	7007.56
464.78	7213.53
464.96	7077.78
465.14	7176.08
465.32	7197.15
465.50	7473.33
465.69	7265.02
465.87	7311.83
466.05	7262.68
466.23	7225.23
466.41	7325.88
466.60	7592.70
466.78	7473.33
466.96	7363.33
467.14	7119.91
467.32	7672.28
467.51	7644.19
467.69	7339.92
467.87	7534.18
468.05	7583.34
468.23	7440.56
468.41	7309.49
468.60	7482.69
468.78	7641.85
468.96	7602.06
469.14	7613.76
469.32	7641.85
469.50	7456.95
469.69	7934.42
469.87	7843.14
470.05	7873.56
470.23	8002.29
470.41	7843.14
470.59	7871.22
470.77	7784.62
470.95	7791.64
471.14	8180.17
471.32	7824.41
471.50	8315.92
471.68	8142.72
471.86	8049.10
472.04	8362.73
472.22	8383.80
472.40	8339.33
472.58	8315.92
472.77	8425.93
472.95	8423.59
473.13	8662.32
473.31	8365.07
473.49	8306.56
473.67	8435.29
473.85	8671.68
474.03	8835.52
474.21	8510.19
474.39	8856.59
474.57	8823.82
474.75	8999.36
474.93	8945.53
475.12	9095.32
475.30	9074.26
475.48	8980.64
475.66	9198.31
475.84	9139.79
476.02	9277.88
476.20	9322.35
476.38	9516.62
476.56	9380.87
476.74	9261.50
476.92	9530.66
477.10	9689.82
477.28	9617.26
477.46	9476.83
477.64	9769.40
477.82	9834.93
478.00	10136.86
478.18	10127.50
478.36	10122.82
478.54	10132.18
478.72	10246.87
478.90	10260.91
479.08	10333.47
479.26	10487.94
479.44	10441.13
479.62	10626.03
479.80	10759.44
479.98	10906.90
480.16	10871.79
480.34	11019.24
480.52	11073.07
480.70	11063.71
480.88	10881.15
481.06	11250.96
481.24	11075.42
481.41	11353.94
481.59	11548.20
481.77	11686.29
481.95	11442.88
482.13	11660.55
482.31	11587.99
482.49	12013.97
482.67	12135.68
482.85	12121.63
483.03	12271.43
483.21	12418.88
483.39	12531.23
483.57	12510.16
483.74	12886.99
483.92	12929.12
484.10	12652.94
484.28	12861.24
484.46	12996.99
484.64	13446.38
484.82	13132.75
485.00	13242.75
485.18	13516.59
485.35	13900.44
485.53	13441.70
485.71	13797.46
485.89	14139.18
486.07	13664.05
486.25	13907.46
486.43	13748.31
486.61	14115.77
486.78	14455.15
486.96	14621.33
487.14	14647.07
487.32	14586.22
487.50	14953.68
487.68	14595.58
487.85	14939.64
488.03	15321.15
488.21	15330.51
488.39	15126.88
488.57	15360.94
488.75	15594.99
488.92	15686.27
489.10	16086.50
489.28	15751.81
489.46	16006.92
489.64	16081.82
489.81	16601.42
489.99	16109.91
490.17	16549.93
490.35	16697.38
490.53	16755.90
490.70	17043.78
490.88	16774.62
491.06	17200.60
491.24	16837.81
491.41	17104.64
491.59	17626.57
491.77	17408.90
491.95	17376.14
492.13	17802.11
492.30	17846.58
492.48	17752.96
492.66	17968.29
492.84	17757.64
493.01	18295.97
493.19	17996.38
493.37	18295.97
493.54	18480.87
493.72	18427.04
493.90	18675.13
494.08	19096.43
494.25	18867.06
494.43	18930.25
494.61	19183.03
494.79	19257.93
494.96	18906.85
495.14	19421.77
495.32	19601.99
495.49	19389.00
495.67	19609.01
495.85	19894.55
496.02	20081.80
496.20	20184.78
496.38	20116.90
496.55	20325.21
496.73	20346.28
496.91	20620.12
497.09	20409.47
497.26	20891.62
497.44	20807.36
497.62	21029.71
497.79	20889.28
497.97	21170.15
498.14	21055.46
498.32	21453.35
498.50	21664.00
498.67	21305.90
498.85	21205.25
499.03	21394.84
499.20	21729.53
499.38	21792.73
499.56	21930.82
499.73	22349.78
499.91	22134.45
500.08	22089.98
500.26	21977.63
500.44	22295.94
500.61	22462.12
500.79	22354.46
500.97	22895.12
501.14	22885.76
501.32	22750.01
501.49	22750.01
501.67	22899.80
501.84	22906.82
502.02	22920.87
502.20	23002.78
502.37	23311.74
502.55	23438.12
502.72	23583.24
502.90	23498.98
503.07	23349.18
503.25	23931.98
503.43	23791.55
503.60	23901.55
503.78	23796.23
503.95	23601.96
504.13	23885.17
504.30	24114.54
504.48	23864.10
504.65	24231.57
504.83	24393.06
505.01	24388.38
505.18	24533.50
505.36	24790.95
505.53	24428.17
505.71	24472.64
505.88	25008.62
506.06	24325.19
506.23	25191.19
506.41	25057.78
506.58	25076.50
506.76	25188.85
506.93	25483.75
507.11	24566.26
507.28	25165.44
507.46	25535.24
507.63	25619.50
507.81	25708.44
507.98	25404.17
508.16	25696.74
508.33	25495.46
508.50	25921.43
508.68	26162.51
508.85	26160.17
509.03	25724.83
509.20	26008.03
509.38	26246.77
509.55	26670.40
509.73	26314.64
509.90	26260.81
510.08	26544.02
510.25	26443.37
510.42	26993.40
510.60	26962.97
510.77	27372.57
510.95	27311.71
511.12	27014.46
511.30	27054.25
511.47	27075.32
511.64	27040.21
511.82	27211.07
511.99	27346.82
512.17	27510.66
512.34	27534.06
512.51	27576.19
512.69	27639.39
512.86	28367.29
513.04	28261.97
513.21	28163.67
513.38	28268.99
513.56	27580.87
513.73	28074.73
513.90	28449.21
514.08	27826.63
514.25	28247.93
514.43	28369.63
514.60	28505.38
514.77	28531.13
514.95	29053.07
515.12	28341.55
515.29	28584.96
515.47	28615.39
515.64	29195.84
515.81	28776.89
515.99	29001.58
516.16	29638.20
516.33	29113.92
516.51	29551.60
516.68	29371.38
516.85	29244.99
517.03	29095.20
517.20	29593.73
517.37	29795.02
517.54	29757.57
517.72	29869.92
517.89	29759.91
518.06	29670.97
518.24	29675.65
518.41	29715.44
518.58	29851.19
518.75	30033.75
518.93	30178.87
519.10	29806.72
519.27	30471.43
519.45	30089.93
519.62	30558.03
519.79	30277.17
519.96	30408.24
520.14	30682.08
520.31	30609.53
520.48	30719.53
520.65	30731.23
520.83	31545.74
521.00	30904.43
521.17	31143.17
521.34	30810.81
521.52	31227.43
521.69	31161.89
521.86	31234.45
522.03	31222.75
522.20	31723.62
522.38	31508.29
522.55	31276.58
522.72	31683.83
522.89	31452.12
523.07	31768.09
523.24	31538.72
523.41	31641.70
523.58	31534.04
523.75	31784.48
523.92	31936.61
524.10	31714.26
524.27	32240.88
524.44	32453.87
524.61	32334.50
524.78	32577.92
524.96	32465.57
525.13	32275.99
525.30	32577.92
525.47	32711.33
525.64	32285.35
525.81	32690.26
525.98	32872.82
526.16	32788.56
526.33	32664.52
526.50	32964.10
526.67	32807.29
526.84	32966.45
527.01	32711.33
527.18	32849.42
527.36	33097.52
527.53	33235.61
527.70	33537.54
527.87	33329.23
528.04	33392.42
528.21	33813.72
528.38	33259.01
528.55	33741.16
528.72	33450.94
528.89	33684.99
529.07	33640.52
529.24	33535.20
529.41	33883.94
529.58	34024.37
529.75	33820.74
529.92	33750.52
530.09	34000.96
530.26	33802.02
530.43	34270.12
530.60	34586.10
530.77	34122.67
530.94	34319.28
531.11	34249.06
531.28	33757.55
531.46	34031.39
531.63	34801.43
531.80	34843.56
531.97	34827.17
532.14	34909.09
532.31	34483.11
532.48	34665.67
532.65	34873.98
532.82	34614.18
532.99	34651.63
533.16	34859.94
533.33	34829.51
533.50	34932.50
533.67	34838.87
533.84	35093.99
534.01	34848.24
534.18	34668.02
534.35	35257.83
534.52	34731.21
534.69	35496.56
534.86	35550.40
535.03	35290.60
535.20	35723.60
535.37	35330.39
535.54	35880.41
535.71	35150.17
535.88	35700.19
536.05	35405.28
536.22	36081.70
536.38	36018.50
536.55	35978.72
536.72	36060.63
536.89	35742.32
537.06	35674.45
537.23	35927.22
537.40	36009.14
537.57	36240.86
537.74	36261.92
537.91	36627.04
538.08	36154.26
538.25	35988.08
538.42	36395.33
538.59	36610.66
538.75	36187.02
538.92	36285.33
539.09	36900.89
539.26	36369.58
539.43	36641.09
539.60	36917.27
539.77	36828.33
539.94	36802.58
540.11	36701.94
540.28	37076.43
540.44	36800.24
540.61	37088.13
540.78	36914.93
540.95	37099.83
541.12	37282.39
541.29	37516.45
541.46	37244.94
541.62	37469.64
541.79	37565.60
541.96	37202.82
542.13	37619.43
542.30	37357.29
542.47	37809.01
542.63	38085.20
542.80	37949.45
542.97	38005.62
543.14	38155.41
543.31	37797.31
543.48	37837.10
543.64	38003.28
543.81	38319.25
543.98	38258.40
544.15	38345.00
544.32	38330.95
544.48	38543.94
544.65	38405.85
544.82	38017.32
544.99	37872.21
545.16	38295.85
545.32	38085.20
545.49	39100.99
545.66	39475.48
545.83	39849.96
546.00	39922.52
546.16	39234.40
546.33	38347.34
546.50	38167.12
546.67	38436.28
546.83	38099.24
547.00	38883.32
547.17	38113.28
547.34	38625.86
547.50	38703.10
547.67	39096.31
547.84	38480.75
548.00	38981.62
548.17	38925.45
548.34	38785.02
548.51	39033.11
548.67	38768.63
548.84	38850.55
549.01	38923.11
549.18	39152.48
549.34	39208.65
549.51	38944.17
549.68	39042.48
549.84	39161.84
550.01	39426.32
550.18	39115.03
550.34	39182.91
550.51	39707.19
550.68	39250.78
550.84	38836.51
551.01	39501.22
551.18	39370.15
551.34	39229.72
551.51	39089.29
551.68	39370.15
551.84	39707.19
552.01	39571.44
552.18	39505.90
552.34	39358.45
552.51	39388.88
552.68	39398.24
552.84	39550.37
553.01	39629.95
553.18	39681.44
553.34	39868.69
553.51	39517.60
553.67	39936.56
553.84	39852.30
554.01	39941.24
554.17	39501.22
554.34	39746.98
554.51	39882.73
554.67	39929.54
554.84	40168.27
555.00	39700.17
555.17	39784.43
555.33	39927.20
555.50	39786.77
555.67	40390.62
555.83	39976.35
556.00	39885.07
556.16	40395.31
556.33	39555.05
556.50	40226.79
556.66	40275.94
556.83	39901.45
556.99	40322.75
557.16	40830.65
557.32	40690.21
557.49	40772.13
557.65	39768.04
557.82	40261.90
557.98	40243.17
558.15	40533.40
558.32	40617.66
558.48	40685.53
558.65	40568.51
558.81	40474.88
558.98	40407.01
559.14	40636.38
559.31	40563.82
559.47	40215.08
559.64	40739.36
559.80	40538.08
559.97	40935.97
560.13	40568.51
560.30	40680.85
560.46	40797.88
560.63	40694.89
560.79	40519.35
560.96	40767.45
561.12	40666.81
561.29	40531.06
561.45	40680.85
561.61	40713.62
561.78	41235.56
561.94	41031.93
562.11	41324.50
562.27	40645.74
562.44	40582.55
562.60	40952.35
562.77	40650.42
562.93	40788.52
563.10	41223.86
563.26	41074.06
563.42	41249.60
563.59	40704.26
563.75	41170.02
563.92	40942.99
564.08	40402.33
564.24	40959.38
564.41	40559.14
564.57	41247.26
564.74	41104.49
564.90	41163.00
565.07	41373.65
565.23	41392.37
565.39	41184.07
565.56	40882.14
565.72	40847.03
565.88	41043.63
566.05	40919.59
566.21	40641.06
566.38	40931.29
566.54	40875.12
566.70	41390.03
566.87	41380.67
567.03	41219.17
567.19	41757.50
567.36	41385.35
567.52	41130.23
567.68	41560.89
567.85	41076.40
568.01	41092.79
568.17	41043.63
568.34	41605.36
568.50	41268.33
568.66	41083.42
568.83	41996.23
568.99	41216.83
569.15	41111.51
569.32	41001.50
569.48	40566.16
569.64	41141.94
569.81	41441.53
569.97	41586.64
570.13	41024.91
570.30	41483.66
570.46	40870.43
570.62	41298.75
570.78	40954.69
570.95	41134.92
571.11	41254.28
571.27	40975.76
571.43	41368.97
571.60	41036.61
571.76	41509.40
571.92	41427.48
572.09	41247.26
572.25	41591.32
572.41	41486.00
572.57	41361.95
572.74	41586.64
572.90	41600.68
573.06	41247.26
573.22	41722.39
573.38	41490.68
573.55	41347.90
573.71	41834.74
573.87	41497.70
574.03	41844.10
574.20	41661.54
574.36	41523.44
574.52	41385.35
574.68	41518.76
574.84	41188.75
575.01	41844.10
575.17	41497.70
575.33	41617.07
575.49	41450.89
575.65	41518.76
575.82	41708.35
575.98	41731.75
576.14	41099.81
576.30	41434.50
576.46	41476.63
576.62	41420.46
576.79	41729.41
576.95	41427.48
577.11	41642.81
577.27	41799.63
577.43	41670.90
577.59	41422.80
577.75	41944.74
577.92	41406.42
578.08	41706.01
578.24	41478.97
578.40	41481.31
578.56	41982.19
578.72	41984.53
578.88	42234.97
579.04	42211.56
579.21	41965.81
579.37	41780.90
579.53	41879.21
579.69	41713.03
579.85	42225.60
580.01	41670.90
580.17	41825.37
580.33	41537.49
580.49	42171.77
580.65	42014.96
580.82	42244.33
580.98	42007.94
581.14	41745.80
581.30	42155.39
581.46	41354.93
581.62	41750.48
581.78	41851.12
581.94	41626.43
582.10	41759.84
582.26	41448.55
582.42	41734.09
582.58	41965.81
582.74	42021.98
582.90	41935.38
583.06	42122.62
583.22	41757.50
583.38	41874.52
583.54	41876.86
583.70	41460.25
583.86	41801.97
584.02	41706.01
584.18	42195.18
584.34	41984.53
584.50	42155.39
584.66	42068.79
584.82	41488.34
584.98	42075.81
585.14	41415.78
585.30	41729.41
585.46	41904.95
585.62	41799.63
585.78	42307.52
585.94	42162.41
586.10	41935.38
586.26	41670.90
586.42	42349.65
586.58	41886.23
586.74	42108.58
586.90	41600.68
587.06	41713.03
587.22	41628.77
587.38	41996.23
587.54	41907.29
587.70	42106.24
587.86	41961.12
588.02	41956.44
588.18	42007.94
588.34	41900.27
588.49	41661.54
588.65	41816.01
588.81	42206.88
588.97	41790.27
589.13	41776.22
589.29	42167.09
589.45	42389.44
589.61	42583.71
589.77	42258.37
589.93	42108.58
590.08	42396.46
590.24	42241.99
590.40	42059.43
590.56	42120.28
590.72	41893.25
590.88	41464.93
591.04	42333.27
591.20	42642.22
