SpectraSuite Data File
++++++++++++++++++++++++++++++++++++
Date: Fri Oct 04 11:39:42 GMT-05:00 2013
User: price-jones
Dark Spectrum Present: No
Reference Spectrum Present: No
Number of Sampled Component Spectra: 1
Spectrometers: USB2+H05261
Integration Time (usec): 100000 (USB2+H05261)
Spectra Averaged: 1 (USB2+H05261)
Boxcar Smoothing: 0 (USB2+H05261)
Correct for Electrical Dark: No (USB2+H05261)
Strobe/Lamp Enabled: No (USB2+H05261)
Correct for Detector Non-linearity: No (USB2+H05261)
Correct for Stray Light: No (USB2+H05261)
Number of Pixels in Processed Spectrum: 2048
>>>>>Begin Processed Spectral Data<<<<<
365.73	14.04
365.92	14.04
366.12	14.04
366.32	0.00
366.52	0.00
366.72	0.00
366.91	0.00
367.11	0.00
367.31	0.00
367.51	23.41
367.70	0.00
367.90	0.00
368.10	0.00
368.30	0.00
368.49	0.00
368.69	0.00
368.89	0.00
369.09	0.00
369.28	0.00
369.48	0.00
369.68	0.00
369.87	0.00
370.07	0.00
370.27	70.22
370.47	18.72
370.66	65.54
370.86	79.58
371.06	117.03
371.25	156.82
371.45	194.26
371.65	86.60
371.84	166.18
372.04	128.73
372.24	159.16
372.44	149.79
372.63	215.33
372.83	175.54
373.03	131.07
373.22	84.26
373.42	205.97
373.62	222.35
373.81	187.24
374.01	187.24
374.21	255.12
374.40	140.43
374.60	187.24
374.79	262.14
374.99	173.20
375.19	128.73
375.38	210.65
375.58	220.01
375.78	147.45
375.97	196.60
376.17	262.14
376.37	203.63
376.56	231.71
376.76	163.84
376.95	154.48
377.15	236.39
377.35	203.63
377.54	154.48
377.74	191.92
377.93	234.05
378.13	210.65
378.33	182.56
378.52	182.56
378.72	222.35
378.91	236.39
379.11	156.82
379.31	241.08
379.50	159.16
379.70	234.05
379.89	210.65
380.09	163.84
380.28	133.41
380.48	124.05
380.68	175.54
380.87	189.58
381.07	222.35
381.26	131.07
381.46	217.67
381.65	276.18
381.85	126.39
382.04	198.95
382.24	154.48
382.43	203.63
382.63	196.60
382.83	168.52
383.02	168.52
383.22	224.69
383.41	149.79
383.61	145.11
383.80	252.78
384.00	229.37
384.19	187.24
384.39	224.69
384.58	217.67
384.78	217.67
384.97	250.44
385.17	241.08
385.36	194.26
385.56	264.48
385.75	189.58
385.95	264.48
386.14	217.67
386.34	259.80
386.53	229.37
386.72	180.22
386.92	257.46
387.11	245.76
387.31	259.80
387.50	283.20
387.70	238.73
387.89	252.78
388.09	269.16
388.28	198.95
388.48	264.48
388.67	285.55
388.86	257.46
389.06	313.63
389.25	297.25
389.45	245.76
389.64	149.79
389.84	358.10
390.03	210.65
390.22	250.44
390.42	299.59
390.61	250.44
390.81	280.86
391.00	290.23
391.19	229.37
391.39	210.65
391.58	266.82
391.78	257.46
391.97	285.55
392.16	245.76
392.36	360.44
392.55	327.68
392.75	383.85
392.94	306.61
393.13	325.33
393.33	257.46
393.52	358.10
393.71	292.57
393.91	330.02
394.10	311.29
394.29	339.38
394.49	383.85
394.68	421.30
394.88	306.61
395.07	372.15
395.26	306.61
395.46	334.70
395.65	393.21
395.84	407.25
396.04	437.68
396.23	456.40
396.42	372.15
396.62	386.19
396.81	397.89
397.00	369.80
397.19	393.21
397.39	409.59
397.58	416.62
397.77	414.27
397.97	390.87
398.16	379.17
398.35	425.98
398.55	416.62
398.74	437.68
398.93	416.62
399.12	449.38
399.32	409.59
399.51	360.44
399.70	442.36
399.90	442.36
400.09	479.81
400.28	524.28
400.47	390.87
400.67	482.15
400.86	472.79
401.05	482.15
401.24	533.64
401.44	458.74
401.63	416.62
401.82	526.62
402.01	550.03
402.21	540.66
402.40	517.26
402.59	519.60
402.78	437.68
402.97	587.47
403.17	575.77
403.36	580.45
403.55	578.11
403.74	648.33
403.93	648.33
404.13	582.79
404.32	622.58
404.51	622.58
404.70	631.94
404.89	685.78
405.09	758.33
405.28	678.76
405.47	744.29
405.66	739.61
405.85	685.78
406.05	723.23
406.24	683.44
406.43	723.23
406.62	765.36
406.81	774.72
407.00	692.80
407.20	653.01
407.39	697.48
407.58	800.46
407.77	833.23
407.96	826.21
408.15	847.27
408.34	858.98
408.54	760.67
408.73	849.61
408.92	840.25
409.11	863.66
409.30	954.94
409.49	816.85
409.68	978.34
409.87	866.00
410.07	861.32
410.26	856.64
410.45	917.49
410.64	947.92
410.83	1022.81
411.02	912.81
411.21	1006.43
411.40	1048.56
411.59	1090.69
411.78	1170.27
411.98	1111.75
412.17	1153.88
412.36	1100.05
412.55	1118.78
412.74	1146.86
412.93	1142.18
413.12	1160.91
413.31	1259.21
413.50	1174.95
413.69	1184.31
413.88	1284.95
414.07	1184.31
414.26	1242.82
414.45	1217.08
414.64	1245.16
414.83	1259.21
415.02	1385.60
415.22	1439.43
415.41	1320.06
415.60	1282.61
415.79	1437.09
415.98	1483.90
416.17	1420.71
416.36	1397.30
416.55	1432.41
416.74	1523.69
416.93	1544.75
417.12	1504.96
417.31	1598.59
417.50	1509.65
417.69	1507.30
417.88	1598.59
418.07	1504.96
418.26	1561.14
418.45	1579.86
418.64	1582.20
418.83	1526.03
419.02	1589.22
419.21	1715.61
419.39	1757.74
419.58	1694.55
419.77	1678.16
419.96	1734.34
420.15	1739.02
420.34	1785.83
420.53	1678.16
420.72	1898.17
420.91	1860.73
421.10	1778.81
421.29	1853.70
421.48	1685.19
421.67	1856.04
421.86	1820.94
422.05	1856.04
422.24	1865.41
422.43	1872.43
422.61	1872.43
422.80	1886.47
422.99	1842.00
423.18	1767.10
423.37	1994.14
423.56	1806.89
423.75	1963.71
423.94	1825.62
424.13	1715.61
424.32	1741.36
424.50	1982.43
424.69	2005.84
424.88	1968.39
425.07	1879.45
425.26	1942.64
425.45	1874.77
425.64	1987.11
425.83	1921.58
426.01	1996.48
426.20	1996.48
426.39	2017.54
426.58	2015.20
426.77	1886.47
426.96	2012.86
427.15	1961.37
427.33	2003.50
427.52	2073.71
427.71	2066.69
427.90	1916.90
428.09	2017.54
428.28	1973.07
428.46	2129.89
428.65	2054.99
428.84	2090.10
429.03	2104.14
429.22	1994.14
429.40	2054.99
429.59	2064.35
429.78	2062.01
429.97	2005.84
430.16	2186.06
430.34	2054.99
430.53	2310.11
430.72	2314.79
430.91	2218.83
431.10	2207.13
431.28	2223.51
431.47	2275.00
431.66	2338.20
431.85	2331.17
432.03	2209.47
432.22	2445.86
432.41	2279.68
432.60	2260.96
432.79	2270.32
432.97	2347.56
433.16	2359.26
433.35	2359.26
433.54	2476.29
433.72	2532.46
433.91	2396.71
434.10	2296.07
434.28	2457.56
434.47	2422.45
434.66	2438.84
434.85	2548.84
435.03	2623.74
435.22	2689.28
435.41	2918.65
435.59	2899.92
435.78	2773.53
435.97	2614.38
436.16	2595.65
436.34	2560.55
436.53	2593.31
436.72	2612.04
436.90	2588.63
437.09	2654.17
437.28	2509.05
437.46	2579.27
437.65	2635.44
437.84	2565.23
438.02	2609.70
438.21	2642.46
438.40	2633.10
438.58	2700.98
438.77	2675.23
438.96	2733.75
439.14	2766.51
439.33	2794.60
439.52	2801.62
439.70	2815.66
439.89	2867.16
440.08	2939.71
440.26	2829.71
440.45	2839.07
440.63	2878.86
440.82	3035.67
441.01	2920.99
441.19	3066.10
441.38	2984.18
441.57	2963.12
441.75	3117.59
441.94	3150.36
442.12	3052.06
442.31	3206.53
442.50	3157.38
442.68	3157.38
442.87	3183.13
443.05	3197.17
443.24	3143.34
443.43	3243.98
443.61	3283.77
443.80	3405.48
443.98	3187.81
444.17	2986.52
444.35	3293.13
444.54	3344.63
444.73	3213.56
444.91	3145.68
445.10	3335.26
445.28	3164.40
445.47	3222.92
445.65	3206.53
445.84	3309.52
446.02	3393.78
446.21	3265.05
446.39	3234.62
446.58	3389.10
446.77	3197.17
446.95	3295.47
447.14	3241.64
447.32	3286.11
447.51	3215.90
447.69	3304.84
447.88	3403.14
448.06	3215.90
448.25	3300.16
448.43	3276.75
448.62	3279.09
448.80	3396.12
448.99	3449.95
449.17	3363.35
449.36	3431.23
449.54	3520.17
449.73	3510.80
449.91	3522.51
450.10	3393.78
450.28	3681.66
450.46	3536.55
450.65	3428.88
450.83	3510.80
451.02	3499.10
451.20	3543.57
451.39	3529.53
451.57	3449.95
451.76	3494.42
451.94	3529.53
452.13	3686.34
452.31	3770.60
452.49	3510.80
452.68	3726.13
452.86	3454.63
453.05	3688.68
453.23	3709.75
453.42	3646.55
453.60	3674.64
453.78	3786.99
453.97	3712.09
454.15	3691.02
454.34	3723.79
454.52	3669.96
454.70	3796.35
454.89	3688.68
455.07	3751.88
455.26	3850.18
455.44	3990.61
455.62	3838.48
455.81	3737.84
455.99	3920.40
456.17	3953.16
456.36	3899.33
456.54	3920.40
456.73	3957.85
456.91	4021.04
457.09	4016.36
457.28	4081.89
457.46	3936.78
457.64	4117.00
457.83	3992.95
458.01	4126.36
458.19	4126.36
458.38	4138.07
458.56	4273.82
458.74	4079.55
458.93	4128.70
459.11	4107.64
459.29	4173.18
459.48	4140.41
459.66	4191.90
459.84	4217.65
460.03	4348.72
460.21	4119.34
460.39	4168.49
460.57	4163.81
460.76	4325.31
460.94	4329.99
461.12	4325.31
461.31	4367.44
461.49	4322.97
461.67	4299.56
461.85	4369.78
462.04	4294.88
462.22	4840.23
462.40	4489.15
462.59	4374.46
462.77	4510.21
462.95	4451.70
463.13	4479.79
463.32	4463.40
463.50	4580.43
463.68	4683.41
463.86	4610.86
464.05	4421.27
464.23	4648.30
464.41	4638.94
464.59	4435.32
464.78	4573.41
464.96	4709.16
465.14	4564.04
465.32	4650.64
465.50	4683.41
465.69	4723.20
465.87	4706.82
466.05	4667.03
466.23	4692.77
466.41	4748.95
466.60	4767.67
466.78	4880.02
466.96	4842.57
467.14	4657.67
467.32	4802.78
467.51	4805.12
467.69	4727.88
467.87	4889.38
468.05	4762.99
468.23	4683.41
468.41	4819.16
468.60	4842.57
468.78	4856.61
468.96	4791.08
469.14	5032.15
469.32	4952.57
469.50	4851.93
469.69	4961.94
469.87	5008.75
470.05	5020.45
470.23	4959.60
470.41	5008.75
470.59	4978.32
470.77	4961.94
470.95	5135.14
471.14	5135.14
471.32	5050.88
471.50	5376.21
471.68	5097.69
471.86	5315.36
472.04	5373.87
472.22	5336.42
472.40	5221.74
472.58	5308.34
472.77	5453.45
472.95	5345.78
473.13	5650.05
473.31	5305.99
473.49	5383.23
473.67	5584.52
473.85	5441.75
474.03	5624.31
474.21	5579.84
474.39	5549.41
474.57	5397.28
474.75	5846.66
474.93	5804.53
475.12	5788.14
475.30	5657.07
475.48	5710.91
475.66	5771.76
475.84	5860.70
476.02	5820.91
476.20	6078.37
476.38	5870.06
476.56	6181.35
476.74	6024.54
476.92	6183.70
477.10	6200.08
477.28	6115.82
477.46	6164.97
477.64	6225.82
477.82	6221.14
478.00	6279.66
478.18	6544.14
478.36	6422.43
478.54	6560.52
478.72	6607.33
478.90	6586.27
479.08	6726.70
479.26	6607.33
479.44	6719.68
479.62	6689.25
479.80	6881.18
479.98	6836.70
480.16	6939.69
480.34	7070.76
480.52	7063.74
480.70	7035.65
480.88	7030.97
481.06	7126.93
481.24	7148.00
481.41	7187.79
481.59	7197.15
481.77	7258.00
481.95	7393.75
482.13	7417.16
482.31	7358.64
482.49	7569.29
482.67	7555.25
482.85	7712.07
483.03	7913.35
483.21	8035.06
483.39	7894.63
483.57	7934.42
483.74	8004.63
483.92	8180.17
484.10	8021.02
484.28	8182.51
484.46	8407.20
484.64	8669.34
484.82	8262.09
485.00	8409.54
485.18	8542.96
485.35	8580.40
485.53	8723.18
485.71	8699.77
485.89	8720.84
486.07	8657.64
486.25	8746.58
486.43	8905.74
486.61	8894.04
486.78	9097.66
486.96	9179.58
487.14	9085.96
487.32	9289.59
487.50	9320.01
487.68	9511.94
487.85	9434.70
488.03	9638.33
488.21	9664.07
488.39	9687.48
488.57	9877.06
488.75	9834.93
488.92	10045.58
489.10	9982.38
489.28	10101.75
489.46	9991.75
489.64	10085.37
489.81	10661.14
489.99	10537.09
490.17	10384.96
490.35	10429.43
490.53	10457.51
490.70	10649.44
490.88	10649.44
491.06	11000.52
491.24	10527.73
491.41	10881.15
491.59	10813.28
491.77	10967.75
491.95	11215.85
492.13	11087.12
492.30	11087.12
492.48	11154.99
492.66	11115.20
492.84	11370.32
493.01	11440.54
493.19	11421.81
493.37	11672.25
493.54	11665.23
493.72	11517.78
493.90	11676.93
494.08	11878.22
494.25	11761.19
494.43	12030.35
494.61	12077.16
494.79	12355.69
494.96	12095.89
495.14	12133.34
495.32	12107.59
495.49	12318.24
495.67	12617.83
495.85	12732.51
496.02	12484.42
496.20	12552.29
496.38	12559.31
496.55	12739.54
496.73	13029.76
496.91	12594.42
497.09	12828.48
497.26	13090.62
497.44	12905.71
497.62	13074.23
497.79	13521.27
497.97	13378.50
498.14	13289.56
498.32	13467.44
498.50	13308.29
498.67	13561.06
498.85	13465.10
499.03	13652.34
499.20	13612.56
499.38	13385.52
499.56	13696.82
499.73	13781.07
499.91	13973.00
500.08	13965.98
500.26	13877.04
500.44	13912.14
500.61	14256.20
500.79	13886.40
500.97	14216.41
501.14	14586.22
501.32	14373.23
501.49	14422.38
501.67	14293.65
501.84	14171.94
502.02	14466.85
502.20	15000.49
502.37	14565.15
502.55	14670.48
502.72	14600.26
502.90	14609.62
503.07	14731.33
503.25	15019.22
503.43	15002.83
503.60	14761.76
503.78	14965.39
503.95	14860.06
504.13	15042.62
504.30	15035.60
504.48	15239.23
504.65	15049.64
504.83	15468.60
505.01	15353.91
505.18	15302.42
505.36	15358.60
505.53	15428.81
505.71	15468.60
505.88	15398.38
506.06	15541.16
506.23	15651.16
506.41	15630.10
506.58	15693.29
506.76	15676.91
506.93	16109.91
507.11	15960.11
507.28	15995.22
507.46	15466.26
507.63	16175.44
507.81	15971.82
507.98	16013.95
508.16	16035.01
508.33	15913.30
508.50	15852.45
508.68	16589.72
508.85	16425.88
509.03	16407.16
509.20	16322.90
509.38	16425.88
509.55	16367.37
509.73	16652.91
509.90	16662.27
510.08	16765.26
510.25	16704.40
510.42	16627.17
510.60	17003.99
510.77	16807.39
510.95	16987.61
511.12	17088.25
511.30	17034.42
511.47	16994.63
511.64	17027.40
511.82	17343.37
511.99	17160.81
512.17	17408.90
512.34	17247.41
512.51	17549.34
512.69	17177.19
512.86	17565.72
513.04	17568.06
513.21	17937.87
513.38	17694.45
513.56	17575.08
513.73	17504.87
513.90	17767.01
514.08	17790.41
514.25	18008.08
514.43	17694.45
514.60	18075.96
514.77	17972.97
514.95	18118.09
515.12	17788.07
515.29	17851.27
515.47	18200.01
515.64	18019.78
515.81	17977.65
515.99	18026.81
516.16	18382.57
516.33	18485.55
516.51	18525.34
516.68	18319.37
516.85	18195.32
517.03	18555.77
517.20	18836.63
517.37	18574.49
517.54	18462.15
517.72	18953.66
517.89	18583.85
518.06	18389.59
518.24	18560.45
518.41	18747.69
518.58	18911.53
518.75	18691.52
518.93	19098.77
519.10	18995.79
519.27	18984.09
519.45	18764.07
519.62	18838.97
519.79	18993.45
519.96	19489.64
520.14	19119.84
520.31	19770.51
520.48	19506.02
520.65	19316.44
520.83	19550.49
521.00	19463.90
521.17	19543.47
521.34	19494.32
521.52	19618.37
521.69	19761.14
521.86	19580.92
522.03	19932.00
522.20	19758.80
522.38	19716.67
522.55	19854.76
522.72	19836.04
522.89	20016.26
523.07	20400.11
523.24	20025.62
523.41	20226.91
523.58	20051.37
523.75	20189.46
523.92	20201.16
524.10	19969.45
524.27	20175.42
524.44	20421.17
524.61	20262.02
524.78	20493.73
524.96	20299.47
525.13	20460.96
525.30	20919.71
525.47	20517.14
525.64	20264.36
525.81	20613.10
525.98	20695.02
526.16	20798.00
526.33	20542.88
526.50	20814.38
526.67	20648.21
526.84	20641.18
527.01	20603.74
527.18	20910.35
527.36	20996.95
527.53	21029.71
527.70	21273.13
527.87	21333.98
528.04	20973.54
528.21	21284.83
528.38	21078.86
528.55	21266.11
528.72	21418.24
528.89	21216.96
529.07	21057.80
529.24	21350.37
529.41	21249.72
529.58	21378.45
529.75	21212.28
529.92	21149.08
530.09	21380.79
530.26	21399.52
530.43	21556.33
530.60	21266.11
530.77	21280.15
530.94	21708.47
531.11	21539.95
531.28	21886.35
531.46	21633.57
531.63	21781.03
531.80	21589.10
531.97	22132.11
532.14	21743.58
532.31	21748.26
532.48	21764.64
532.65	22455.10
532.82	21727.19
532.99	21930.82
533.16	21954.22
533.33	22022.10
533.50	22443.40
533.67	22349.78
533.84	22148.49
534.01	22017.42
534.18	22012.74
534.35	22223.39
534.52	22057.21
534.69	22661.07
534.86	22256.15
535.03	22328.71
535.20	22235.09
535.37	22696.17
535.54	22684.47
535.71	22249.13
535.88	22726.60
536.05	22480.85
536.22	22696.17
536.38	22485.53
536.55	22579.15
536.72	22831.93
536.89	22581.49
537.06	22548.72
537.23	22544.04
537.40	22647.02
537.57	22719.58
537.74	22637.66
537.91	22920.87
538.08	22920.87
538.25	22572.13
538.42	22871.72
538.59	22862.35
538.75	22843.63
538.92	23080.02
539.09	23129.17
539.26	22995.76
539.43	23126.83
539.60	22824.90
539.77	22923.21
539.94	23157.26
540.11	23510.68
540.28	23131.51
540.44	23360.89
540.61	23683.88
540.78	23187.69
540.95	23718.99
541.12	23569.19
541.29	23527.06
541.46	23997.51
541.62	23892.19
541.79	23686.22
541.96	23716.65
542.13	23967.09
542.30	23901.55
542.47	24126.24
542.63	23873.46
542.80	23962.40
542.97	24278.38
543.14	24308.80
543.31	24175.39
543.48	24294.76
543.64	24224.54
543.81	24423.49
543.98	24458.60
544.15	24243.27
544.32	24372.00
544.48	24929.05
544.65	24472.64
544.82	24507.75
544.99	24201.14
545.16	24599.03
545.32	24318.17
545.49	25205.23
545.66	25607.80
545.83	25582.06
546.00	25165.44
546.16	24891.60
546.33	24720.74
546.50	24266.67
546.67	24566.26
546.83	24112.20
547.00	24505.41
547.17	24477.32
547.34	24858.83
547.50	24531.15
547.67	24713.72
547.84	24847.13
548.00	24404.77
548.17	24372.00
548.34	24716.06
548.51	24587.33
548.67	25146.72
548.84	24470.30
549.01	24496.05
549.18	24737.12
549.34	24697.33
549.51	24858.83
549.68	24903.30
549.84	24627.12
550.01	24779.25
550.18	24629.46
550.34	24416.47
550.51	24615.41
550.68	25308.21
550.84	24645.84
551.01	24924.36
551.18	25020.33
551.34	24805.00
551.51	24634.14
551.68	25221.61
551.84	24931.39
552.01	24854.15
552.18	25041.39
552.34	24706.70
552.51	25029.69
552.68	24893.94
552.84	25036.71
553.01	24964.15
553.18	25036.71
553.34	24694.99
553.51	24861.17
553.67	25322.26
553.84	25570.35
554.01	25481.41
554.17	25095.22
554.34	25689.72
554.51	24886.92
554.67	25146.72
554.84	25095.22
555.00	25006.28
555.17	25092.88
555.33	25326.94
555.50	25467.37
555.67	25144.38
555.83	25528.22
556.00	25053.09
556.16	25652.27
556.33	25504.82
556.50	25081.18
556.66	25376.09
556.83	25043.73
556.99	25656.95
557.16	25827.81
557.32	25565.67
557.49	25694.40
557.65	25123.31
557.82	25113.95
557.98	25308.21
558.15	25661.63
558.32	25649.93
558.48	25387.79
558.65	25413.54
558.81	25635.89
558.98	25120.97
559.14	25333.96
559.31	25563.33
559.47	25095.22
559.64	25462.69
559.80	25865.26
559.97	25727.17
560.13	25659.29
560.30	25495.46
560.46	25610.14
560.63	25467.37
560.79	25701.42
560.96	25469.71
561.12	25514.18
561.29	25422.90
561.45	25659.29
561.61	25891.01
561.78	25773.98
561.94	25589.08
562.11	25898.03
562.27	25991.65
562.44	25504.82
562.60	25474.39
562.77	25862.92
562.93	25692.06
563.10	26068.89
563.26	25806.75
563.42	25832.49
563.59	25792.70
563.75	25745.89
563.92	25834.83
564.08	25736.53
564.24	25961.22
564.41	25792.70
564.57	25443.96
564.74	25633.55
564.90	26043.14
565.07	25745.89
565.23	25979.95
565.39	25481.41
565.56	25989.31
565.72	25797.38
565.88	25500.14
566.05	25493.12
566.21	25750.57
566.38	25642.91
566.54	25919.09
566.70	25825.47
566.87	26169.53
567.03	25991.65
567.19	26256.13
567.36	26106.34
567.52	26050.16
567.68	25654.61
567.85	25792.70
568.01	25610.14
568.17	25678.02
568.34	26059.52
568.50	26363.79
568.66	25921.43
568.83	26047.82
568.99	26012.71
569.15	25989.31
569.32	25902.71
569.48	25528.22
569.64	25687.38
569.81	25764.62
569.97	26272.51
570.13	26040.80
570.30	25937.82
570.46	25858.24
570.62	26202.30
570.78	26354.43
570.95	25699.08
571.11	25933.14
571.27	25766.96
571.43	25846.54
571.60	25823.13
571.76	25963.56
571.92	26169.53
572.09	26389.54
572.25	26089.95
572.41	26113.36
572.57	25984.63
572.74	26024.42
572.90	26043.14
573.06	26089.95
573.22	26103.99
573.38	25991.65
573.55	25949.52
573.71	26307.62
573.87	25972.92
574.03	25778.66
574.20	25858.24
574.36	26232.72
574.52	26143.78
574.68	25895.69
574.84	25975.27
575.01	25937.82
575.17	26178.89
575.33	25900.37
575.49	26251.45
575.65	26242.09
575.82	26263.15
575.98	25956.54
576.14	26089.95
576.30	26141.44
576.46	26300.60
576.62	26462.10
576.79	26249.11
576.95	26108.68
577.11	26150.81
577.27	26298.26
577.43	26391.88
577.59	26242.09
577.75	25738.87
577.92	25830.15
578.08	25797.38
578.24	25832.49
578.40	26263.15
578.56	26277.19
578.72	26438.69
578.88	26548.70
579.04	26551.04
579.21	26295.92
579.37	26536.99
579.53	26396.56
579.69	26118.04
579.85	26448.05
580.01	26363.79
580.17	26106.34
580.33	26019.74
580.49	26412.95
580.65	25989.31
580.82	26595.51
580.98	25944.84
581.14	26204.64
581.30	26157.83
581.46	26043.14
581.62	26085.27
581.78	26024.42
581.94	25907.39
582.10	25942.50
582.26	26335.71
582.42	26335.71
582.58	26462.10
582.74	26188.25
582.90	26134.42
583.06	26462.10
583.22	26396.56
583.38	26169.53
583.54	26075.91
583.70	26139.10
583.86	26228.04
584.02	26066.55
584.18	26136.76
584.34	26419.97
584.50	26595.51
584.66	26139.10
584.82	25851.22
584.98	26527.63
585.14	26558.06
585.30	25846.54
585.46	26160.17
585.62	25867.60
585.78	26436.35
585.94	26127.40
586.10	26319.32
586.26	26668.06
586.42	26398.90
586.58	26448.05
586.74	25979.95
586.90	26412.95
587.06	26113.36
587.22	26703.17
587.38	26160.17
587.54	26445.71
587.70	26223.36
587.86	26647.00
588.02	26354.43
588.18	26579.12
588.34	26305.28
588.49	26139.10
588.65	26368.48
588.81	26225.70
588.97	26204.64
589.13	26352.09
589.29	26267.83
589.45	26672.74
589.61	26363.79
589.77	26501.89
589.93	26611.89
590.08	26204.64
590.24	26483.16
590.40	26403.58
590.56	26714.87
590.72	26792.11
590.88	26118.04
591.04	26195.28
591.20	26625.93
591.35	26630.62
591.51	26508.91
591.67	26890.41
591.83	26651.68
591.99	26251.45
592.15	26345.07
