SpectraSuite Data File
++++++++++++++++++++++++++++++++++++
Date: Fri Oct 04 11:39:45 GMT-05:00 2013
User: price-jones
Dark Spectrum Present: No
Reference Spectrum Present: No
Number of Sampled Component Spectra: 1
Spectrometers: USB2+H05261
Integration Time (usec): 100000 (USB2+H05261)
Spectra Averaged: 1 (USB2+H05261)
Boxcar Smoothing: 0 (USB2+H05261)
Correct for Electrical Dark: No (USB2+H05261)
Strobe/Lamp Enabled: No (USB2+H05261)
Correct for Detector Non-linearity: No (USB2+H05261)
Correct for Stray Light: No (USB2+H05261)
Number of Pixels in Processed Spectrum: 2048
>>>>>Begin Processed Spectral Data<<<<<
365.73	7.02
365.92	7.02
366.12	7.02
366.32	0.00
366.52	0.00
366.72	0.00
366.91	0.00
367.11	0.00
367.31	0.00
367.51	0.00
367.70	0.00
367.90	7.02
368.10	0.00
368.30	21.06
368.49	0.00
368.69	0.00
368.89	21.06
369.09	0.00
369.28	4.68
369.48	30.43
369.68	0.00
369.87	21.06
370.07	0.00
370.27	39.79
370.47	173.20
370.66	444.70
370.86	514.92
371.06	533.64
371.25	615.56
371.45	458.74
371.65	484.49
371.84	500.87
372.04	519.60
372.24	571.09
372.44	629.60
372.63	643.65
372.83	615.56
373.03	615.56
373.22	606.20
373.42	601.52
373.62	629.60
373.81	653.01
374.01	657.69
374.21	634.29
374.40	688.12
374.60	645.99
374.79	699.82
374.99	770.04
375.19	725.57
375.38	793.44
375.58	713.86
375.78	720.88
375.97	692.80
376.17	875.36
376.37	713.86
376.56	770.04
376.76	699.82
376.95	739.61
377.15	807.48
377.35	737.27
377.54	786.42
377.74	779.40
377.93	725.57
378.13	866.00
378.33	858.98
378.52	699.82
378.72	828.55
378.91	763.01
379.11	812.17
379.31	826.21
379.50	819.19
379.70	870.68
379.89	954.94
380.09	905.79
380.28	807.48
380.48	922.17
380.68	861.32
380.87	905.79
381.07	847.27
381.26	945.58
381.46	954.94
381.65	910.47
381.85	931.53
382.04	973.66
382.24	929.19
382.43	1027.50
382.63	987.71
382.83	1006.43
383.02	978.34
383.22	964.30
383.41	926.85
383.61	1053.24
383.80	1018.13
384.00	1015.79
384.19	999.41
384.39	1137.50
384.58	1123.46
384.78	1088.35
384.97	1093.03
385.17	1153.88
385.36	1130.48
385.56	1013.45
385.75	1153.88
385.95	1067.28
386.14	1135.16
386.34	1128.14
386.53	1114.10
386.72	1153.88
386.92	1156.22
387.11	1146.86
387.31	1156.22
387.50	1174.95
387.70	1196.01
387.89	1153.88
388.09	1153.88
388.28	1196.01
388.48	1242.82
388.67	1158.57
388.86	1104.73
389.06	1275.59
389.25	1322.40
389.45	1324.74
389.64	1291.98
389.84	1268.57
390.03	1322.40
390.22	1303.68
390.42	1397.30
390.61	1252.19
390.81	1329.42
391.00	1352.83
391.19	1444.11
391.39	1380.92
391.58	1420.71
391.78	1483.90
391.97	1521.35
392.16	1437.09
392.36	1425.39
392.55	1474.54
392.75	1448.79
392.94	1444.11
393.13	1558.80
393.33	1528.37
393.52	1640.72
393.71	1652.42
393.91	1483.90
394.10	1593.90
394.29	1488.58
394.49	1600.93
394.68	1671.14
394.88	1626.67
395.07	1685.19
395.26	1643.06
395.46	1708.59
395.65	1668.80
395.84	1741.36
396.04	1790.51
396.23	1795.19
396.42	1748.38
396.62	1820.94
396.81	1846.68
397.00	1813.92
397.19	1795.19
397.39	1846.68
397.58	1858.39
397.77	1830.30
397.97	1877.11
398.16	1973.07
398.35	1923.92
398.55	1870.09
398.74	1820.94
398.93	1973.07
399.12	1952.01
399.32	1909.88
399.51	1963.71
399.70	2019.88
399.90	1998.82
400.09	2022.22
400.28	2080.74
400.47	2162.66
400.67	2132.23
400.86	2165.00
401.05	2139.25
401.24	2218.83
401.44	2267.98
401.63	2317.13
401.82	2183.72
402.01	2216.49
402.21	2214.15
402.40	2232.87
402.59	2317.13
402.78	2307.77
402.97	2267.98
403.17	2424.80
403.36	2352.24
403.55	2298.41
403.74	2291.38
403.93	2492.67
404.13	2626.08
404.32	2497.35
404.51	2532.46
404.70	2450.54
404.89	2373.30
405.09	2588.63
405.28	2588.63
405.47	2644.81
405.66	2658.85
405.85	2644.81
406.05	2583.95
406.24	2752.47
406.43	2607.36
406.62	2719.70
406.81	2841.41
407.00	2787.58
407.20	2614.38
407.39	2719.70
407.58	2796.94
407.77	2834.39
407.96	2899.92
408.15	2822.69
408.34	2904.60
408.54	2988.86
408.73	2885.88
408.92	2878.86
409.11	3047.38
409.30	3176.11
409.49	3021.63
409.68	3138.66
409.87	3173.77
410.07	3110.57
410.26	3290.79
410.45	3251.00
410.64	3150.36
410.83	3307.18
411.02	3243.98
411.21	3225.26
411.40	3382.07
411.59	3463.99
411.78	3620.81
411.98	3456.97
412.17	3435.91
412.36	3592.72
412.55	3616.13
412.74	3630.17
412.93	3667.62
413.12	3485.06
413.31	3831.46
413.50	3770.60
413.69	3812.73
413.88	3889.97
414.07	3845.50
414.26	3796.35
414.45	3995.29
414.64	3913.38
414.83	4051.47
415.02	4124.02
415.22	4173.18
415.41	4131.05
415.60	4063.17
415.79	4189.56
415.98	4285.52
416.17	4283.18
416.36	4177.86
416.55	4262.12
416.74	4353.40
416.93	4440.00
417.12	4388.50
417.31	4519.57
417.50	4526.60
417.69	4552.34
417.88	4435.32
418.07	4582.77
418.26	4617.88
418.45	4723.20
418.64	4781.71
418.83	4943.21
419.02	4674.05
419.21	4917.47
419.39	4936.19
419.58	4910.44
419.77	4770.01
419.96	4744.27
420.15	4887.04
420.34	5060.24
420.53	5081.30
420.72	5233.44
420.91	5111.73
421.10	5076.62
421.29	5217.05
421.48	5158.54
421.67	5214.71
421.86	5193.65
422.05	5338.76
422.24	5193.65
422.43	5266.21
422.61	5195.99
422.80	5474.51
422.99	5390.25
423.18	5352.81
423.37	5404.30
423.56	5423.02
423.75	5301.31
423.94	5376.21
424.13	5191.31
424.32	5238.12
424.50	5572.82
424.69	5788.14
424.88	5533.03
425.07	5469.83
425.26	5408.98
425.45	5310.68
425.64	5476.85
425.83	5493.24
426.01	5467.49
426.20	5533.03
426.39	5500.26
426.58	5556.43
426.77	5528.35
426.96	5713.25
427.15	5610.26
427.33	5392.59
427.52	5654.73
427.71	5675.80
427.90	5748.36
428.09	5870.06
428.28	5888.79
428.46	5900.49
428.65	5886.45
428.84	6012.84
429.03	6134.54
429.22	5856.02
429.40	6171.99
429.59	6017.52
429.78	5776.44
429.97	5764.74
430.16	5966.03
430.34	6136.88
430.53	6132.20
430.72	6136.88
430.91	6267.95
431.10	6284.34
431.28	6368.60
431.47	6349.87
431.66	6537.12
431.85	6300.72
432.03	6541.80
432.22	6642.44
432.41	6537.12
432.60	6586.27
432.79	6450.52
432.97	6532.44
433.16	6679.89
433.35	6541.80
433.54	6766.49
433.72	6768.83
433.91	6757.13
434.10	6740.74
434.28	6661.16
434.47	6801.60
434.66	6995.86
434.85	6911.60
435.03	7045.01
435.22	7311.83
435.41	7487.37
435.59	7283.75
435.78	7279.07
435.97	7063.74
436.16	7302.47
436.34	7115.23
436.53	7300.13
436.72	7171.40
436.90	7129.27
437.09	7417.16
437.28	7243.96
437.46	7304.81
437.65	7513.12
437.84	7508.44
438.02	7403.11
438.21	7393.75
438.40	7379.71
438.58	7648.87
438.77	7719.09
438.96	7679.30
439.14	7868.88
439.33	8011.65
439.52	8037.40
439.70	7906.33
439.89	8173.15
440.08	8021.02
440.26	8035.06
440.45	8271.45
440.63	8344.01
440.82	8381.46
441.01	8369.76
441.19	8358.05
441.38	8528.91
441.57	8702.11
441.75	8793.39
441.94	8786.37
442.12	8872.97
442.31	9179.58
442.50	8779.35
442.68	8795.73
442.87	8779.35
443.05	8821.48
443.24	9109.36
443.43	8982.98
443.61	9067.24
443.80	9441.72
443.98	8985.32
444.17	8982.98
444.35	9298.95
444.54	9418.32
444.73	9179.58
444.91	9095.32
445.10	9490.87
445.28	9170.22
445.47	9226.39
445.65	9242.78
445.84	9460.45
446.02	9479.17
446.21	9324.69
446.39	9362.14
446.58	9383.21
446.77	9551.73
446.95	9247.46
447.14	9418.32
447.32	9441.72
447.51	9287.25
447.69	9486.19
447.88	9343.42
448.06	9502.58
448.25	9366.82
448.43	9603.22
448.62	9458.10
448.80	9547.05
448.99	9767.06
449.17	9678.12
449.36	9626.62
449.54	9930.89
449.73	9928.55
449.91	10120.48
450.10	10022.17
450.28	10120.48
450.46	10239.84
450.65	10230.48
450.83	10422.41
451.02	10022.17
451.20	10162.61
451.39	10251.55
451.57	9958.98
451.76	10249.21
451.94	10277.29
452.13	10532.41
452.31	10518.37
452.49	10249.21
452.68	10513.69
452.86	10539.43
453.05	10745.40
453.23	10731.36
453.42	10731.36
453.60	10626.03
453.78	10576.88
453.97	10544.11
454.15	10558.16
454.34	10691.57
454.52	10895.19
454.70	10792.21
454.89	11094.14
455.07	10956.05
455.26	10956.05
455.44	11321.17
455.62	11075.42
455.81	11171.38
455.99	11171.38
456.17	11115.20
456.36	11070.73
456.54	11573.95
456.73	11536.50
456.91	11655.87
457.09	11796.30
457.28	11543.52
457.46	11562.25
457.64	11719.06
457.83	11875.88
458.01	11735.45
458.19	11742.47
458.38	11740.13
458.56	12105.25
458.74	12044.40
458.93	11866.52
459.11	11810.34
459.29	11974.18
459.48	12086.53
459.66	12152.06
459.84	12067.80
460.03	12145.04
460.21	12395.48
460.39	12257.39
460.57	12173.13
460.76	12526.55
460.94	12507.82
461.12	12402.50
461.31	12596.76
461.49	12573.36
461.67	12311.22
461.85	12854.22
462.04	12837.84
462.22	13310.63
462.40	12992.31
462.59	12889.33
462.77	13048.49
462.95	13181.90
463.13	12964.23
463.32	13135.09
463.50	13128.06
463.68	13308.29
463.86	13153.81
464.05	13060.19
464.23	13109.34
464.41	13387.86
464.59	12992.31
464.78	13540.00
464.96	13355.10
465.14	13411.27
465.32	13745.97
465.50	13530.64
465.69	13504.89
465.87	13434.68
466.05	13600.85
466.23	13731.92
466.41	13778.73
466.60	14113.43
466.78	13664.05
466.96	13973.00
467.14	13706.18
467.32	14101.73
467.51	14235.14
467.69	13923.85
467.87	13825.54
468.05	14122.79
468.23	13933.21
468.41	14038.53
468.60	14125.13
468.78	14480.89
468.96	14265.57
469.14	14244.50
469.32	14787.50
469.50	14003.43
469.69	14597.92
469.87	14637.71
470.05	14871.76
470.23	14717.29
470.41	14829.63
470.59	14721.97
470.77	14635.37
470.95	14668.14
471.14	15213.48
471.32	14548.77
471.50	15534.14
471.68	15311.78
471.86	15330.51
472.04	15613.71
472.22	15768.19
472.40	15501.37
472.58	15859.47
472.77	15812.66
472.95	15878.19
473.13	16240.98
473.31	15679.25
473.49	15960.11
473.67	16255.02
473.85	16393.11
474.03	16159.06
474.21	16402.47
474.39	16608.44
474.57	16512.48
474.75	16671.64
474.93	17305.92
475.12	16959.52
475.30	17015.69
475.48	16954.84
475.66	17312.94
475.84	16982.93
476.02	17348.05
476.20	17474.44
476.38	17750.62
476.56	18167.24
476.74	18092.34
476.92	17844.24
477.10	17989.36
477.28	18190.64
477.46	18134.47
477.64	18300.65
477.82	18675.13
478.00	19201.76
478.18	18948.98
478.36	19260.27
478.54	19459.21
478.72	19667.52
478.90	19564.54
479.08	19721.35
479.26	19941.36
479.44	20301.81
479.62	20233.93
479.80	20439.90
479.98	20456.28
480.16	21041.42
480.34	20514.80
480.52	20905.66
480.70	21125.68
480.88	20779.28
481.06	21308.24
481.24	21432.29
481.41	21649.96
481.59	22047.85
481.77	22040.82
481.95	22045.51
482.13	22649.36
482.31	22583.83
482.49	22803.84
482.67	22499.57
482.85	23054.28
483.03	23417.06
483.21	23749.42
483.39	23655.79
483.57	23765.80
483.74	24306.46
483.92	24226.89
484.10	24088.79
484.28	24620.10
484.46	25088.20
484.64	25778.66
484.82	24709.04
485.00	25294.17
485.18	25589.08
485.35	26040.80
485.53	25914.41
485.71	26274.85
485.89	26635.30
486.07	26766.37
486.25	26529.97
486.43	26892.76
486.61	27126.81
486.78	27388.95
486.96	27498.95
487.14	27854.72
487.32	28203.46
487.50	28236.22
487.68	28837.74
487.85	28704.33
488.03	28959.45
488.21	29244.99
488.39	29359.68
488.57	29813.74
488.75	30010.35
488.92	30199.93
489.10	30511.22
489.28	30623.57
489.46	30785.07
489.64	30513.56
489.81	31473.18
489.99	31480.21
490.17	31489.57
490.35	31847.67
490.53	31924.91
490.70	32573.24
490.88	32128.53
491.06	32765.16
491.24	32929.00
491.41	32872.82
491.59	33165.39
491.77	33413.49
491.95	33804.36
492.13	34171.82
492.30	34204.59
492.48	33886.28
492.66	33996.28
492.84	34211.61
493.01	34843.56
493.19	34799.08
493.37	35281.24
493.54	35512.95
493.72	35491.88
493.90	35913.18
494.08	35892.12
494.25	36266.60
494.43	36673.85
494.61	37099.83
494.79	36952.38
494.96	37326.86
495.14	36884.50
495.32	37745.82
495.49	37820.72
495.67	37848.80
495.85	38162.43
496.02	38499.47
496.20	38829.49
496.38	38380.10
496.55	38483.09
496.73	39395.90
496.91	39093.97
497.09	39428.66
497.26	39779.74
497.44	39522.29
497.62	39997.41
497.79	40243.17
497.97	40250.19
498.14	40992.14
498.32	40966.40
498.50	41291.73
498.67	41422.80
498.85	41383.01
499.03	41003.85
499.20	41310.46
499.38	41584.30
499.56	41914.31
499.73	42319.23
499.91	42284.12
500.08	42658.60
500.26	42532.22
500.44	42930.11
500.61	42209.22
500.79	42703.07
500.97	43543.33
501.14	43665.03
501.32	43948.24
501.49	43391.19
501.67	43899.09
501.84	44114.42
502.02	43901.43
502.20	44069.95
502.37	44339.11
502.55	44521.67
502.72	44669.12
502.90	44074.63
503.07	44196.34
503.25	45001.48
503.43	44765.09
503.60	45507.04
503.78	45116.17
503.95	45476.61
504.13	45563.21
504.30	45413.41
504.48	45539.80
504.65	46377.72
504.83	46087.49
505.01	46581.34
505.18	46487.72
505.36	46775.61
505.53	46731.14
505.71	46412.82
505.88	46681.98
506.06	46454.95
506.23	47316.27
506.41	47114.98
506.58	47665.01
506.76	47643.94
506.93	47372.44
507.11	47489.47
507.28	47636.92
507.46	47674.37
507.63	48081.63
507.81	48409.30
507.98	48165.88
508.16	48079.28
508.33	48451.43
508.50	48367.17
508.68	48486.54
508.85	49177.00
509.03	48666.76
509.20	49188.70
509.38	49483.61
509.55	49406.37
509.73	49743.41
509.90	49565.52
510.08	49563.18
510.25	49654.47
510.42	49535.10
510.60	50255.98
510.77	50387.05
510.95	50014.91
511.12	49977.46
511.30	50136.62
511.47	50169.38
511.64	50490.04
511.82	51255.39
511.99	50939.42
512.17	51063.47
512.34	50967.51
512.51	50934.74
512.69	51075.17
512.86	51253.05
513.04	51454.34
513.21	51887.34
513.38	51613.49
513.56	51693.07
513.73	51580.73
513.90	51695.41
514.08	51774.99
514.25	52041.81
514.43	52215.01
514.60	52006.70
514.77	52053.51
514.95	52638.65
515.12	52074.58
515.29	52243.10
515.47	52636.31
515.64	52500.56
515.81	52533.32
515.99	52722.91
516.16	52823.55
516.33	53090.37
516.51	53249.53
516.68	52891.43
516.85	52928.87
517.03	53099.73
517.20	53139.52
517.37	53247.19
517.54	53420.39
517.72	53734.02
517.89	53516.35
518.06	53607.63
518.24	53757.42
518.41	53408.68
518.58	53844.02
518.75	53881.47
518.93	54150.63
519.10	54337.88
519.27	54115.53
519.45	54073.40
519.62	53808.92
519.79	54003.18
519.96	54380.01
520.14	54534.48
520.31	54595.34
520.48	54557.89
520.65	54714.70
520.83	54801.30
521.00	54901.95
521.17	54422.14
521.34	54529.80
521.52	54993.23
521.69	54960.46
521.86	55231.96
522.03	55248.35
522.20	55180.47
522.38	55185.15
522.55	55337.29
522.72	55051.74
522.89	55526.87
523.07	55767.94
523.24	55550.27
523.41	55798.37
523.58	55337.29
523.75	55688.37
523.92	55622.83
524.10	55807.73
524.27	56130.73
524.44	56109.66
524.61	56336.69
524.78	56114.34
524.96	55966.89
525.13	56261.80
525.30	56210.31
525.47	56481.81
525.64	56193.92
525.81	56603.52
525.98	56399.89
526.16	56631.60
526.33	56502.87
526.50	56800.12
526.67	56570.75
526.84	56502.87
527.01	56280.52
527.18	56750.97
527.36	57010.77
527.53	57106.73
527.70	57221.42
527.87	57315.04
528.04	56835.23
528.21	57167.58
528.38	57165.24
528.55	56982.68
528.72	57146.52
528.89	57382.91
529.07	57270.57
529.24	57198.01
529.41	57448.45
529.58	57509.30
529.75	57322.06
529.92	57518.67
530.09	57345.47
530.26	57474.20
530.43	57705.91
530.60	57425.04
530.77	57769.10
530.94	57914.22
531.11	57666.12
531.28	57705.91
531.46	57776.12
531.63	57982.09
531.80	58078.05
531.97	58049.97
532.14	58155.29
532.31	58101.46
532.48	58007.84
532.65	58241.89
532.82	58122.52
532.99	58394.03
533.16	58188.06
533.33	58625.74
533.50	58660.85
533.67	58665.53
533.84	58246.57
534.01	58387.00
534.18	58272.32
534.35	58763.83
534.52	58602.33
534.69	58784.90
534.86	58459.56
535.03	58702.98
535.20	58871.49
535.37	58784.90
535.54	58848.09
535.71	58721.70
535.88	58794.26
536.05	58859.79
536.22	59105.55
536.38	59152.36
536.55	59070.44
536.72	59154.70
536.89	58965.12
537.06	59206.19
537.23	59196.83
537.40	59068.10
537.57	59154.70
537.74	59224.92
537.91	59421.52
538.08	59440.24
538.25	59346.62
538.42	59409.82
538.59	59512.80
538.75	59145.34
538.92	59178.10
539.09	59440.24
539.26	59725.79
539.43	59707.07
539.60	59805.37
539.77	59564.29
539.94	59728.13
540.11	59554.93
540.28	59833.46
540.44	59849.84
540.61	59735.15
540.78	59765.58
540.95	60102.62
541.12	60247.73
541.29	60107.30
541.46	60205.60
541.62	59976.23
541.79	60203.26
541.96	60055.81
542.13	59917.71
542.30	60266.45
542.47	60343.69
542.63	60456.04
542.80	60505.19
542.97	60662.00
543.14	60556.68
543.31	60350.71
543.48	60463.06
543.64	60687.75
543.81	60760.31
543.98	60762.65
544.15	60858.61
544.32	61080.96
544.48	61048.19
544.65	60722.86
544.82	60776.69
544.99	60762.65
545.16	60952.23
545.32	60896.06
545.49	61207.35
545.66	61446.08
545.83	61520.98
546.00	61455.45
546.16	61298.63
546.33	60982.66
546.50	61006.06
546.67	60926.49
546.83	60797.76
547.00	61106.71
547.17	61125.43
547.34	61340.76
547.50	61233.10
547.67	61462.47
547.84	61364.17
548.00	61399.27
548.17	61310.33
548.34	61020.11
548.51	61418.00
548.67	61446.08
548.84	61418.00
549.01	61490.55
549.18	61474.17
549.34	61462.47
549.51	61354.80
549.68	61464.81
549.84	61436.72
550.01	61492.89
550.18	61488.21
550.34	61694.18
550.51	61790.14
550.68	61869.72
550.84	61586.52
551.01	61666.09
551.18	61563.11
551.34	61696.52
551.51	61865.04
551.68	61769.08
551.84	62028.88
552.01	61918.87
552.18	61949.30
552.34	61989.09
552.51	62059.30
552.68	61904.83
552.84	61752.69
553.01	61867.38
553.18	62038.24
553.34	62138.88
553.51	62307.40
553.67	62056.96
553.84	62375.28
554.01	62368.26
554.17	62398.68
554.34	62190.37
554.51	62099.09
554.67	62326.13
554.84	62206.76
555.00	62206.76
555.17	62260.59
555.33	62159.95
555.50	62410.38
555.67	62422.09
555.83	62382.30
556.00	62440.81
556.16	62489.96
556.33	62436.13
556.50	62422.09
556.66	62326.13
556.83	62508.69
556.99	62738.06
557.16	62543.80
557.32	62541.45
557.49	62560.18
557.65	62443.15
557.82	62550.82
557.98	62489.96
558.15	62578.90
558.32	62796.57
558.48	62824.66
558.65	62651.46
558.81	62688.91
558.98	62789.55
559.14	62728.70
559.31	62597.63
559.47	62590.61
559.64	62707.63
559.80	62667.84
559.97	62941.69
560.13	62824.66
560.30	62803.59
560.46	62843.38
560.63	62922.96
560.79	62939.35
560.96	63164.04
561.12	62981.48
561.29	63049.35
561.45	63051.69
561.61	63002.54
561.78	63175.74
561.94	63103.18
562.11	63103.18
562.27	62939.35
562.44	62899.56
562.60	63208.51
562.77	62899.56
562.93	63025.95
563.10	63208.51
563.26	63035.31
563.42	63437.88
563.59	63304.47
563.75	63295.11
563.92	63220.21
564.08	63147.65
564.24	63164.04
564.41	63007.22
564.57	63192.12
564.74	63201.49
564.90	63386.39
565.07	63337.24
565.23	63238.93
565.39	63147.65
565.56	63348.94
565.72	63131.27
565.88	63269.36
566.05	63426.18
566.21	63128.93
566.38	63281.06
566.54	63402.77
566.70	63402.77
566.87	63641.51
567.03	63442.56
567.19	63655.55
567.36	63475.33
567.52	63318.51
567.68	63475.33
567.85	63203.83
568.01	63323.19
568.17	63135.95
568.34	63433.20
568.50	63561.93
568.66	63487.03
568.83	63550.23
568.99	63597.04
569.15	63468.31
569.32	63494.05
569.48	63290.43
569.64	63489.37
569.81	63704.70
569.97	63426.18
570.13	63667.25
570.30	63433.20
570.46	63671.93
570.62	63543.20
570.78	63381.71
570.95	63288.09
571.11	63604.06
571.27	63461.29
571.43	63505.76
571.60	63510.44
571.76	63494.05
571.92	63707.04
572.09	63840.45
572.25	63763.21
572.41	63643.85
572.57	63636.83
572.74	63716.40
572.90	63664.91
573.06	63625.12
573.22	63676.61
573.38	63678.96
573.55	63632.14
573.71	64008.97
573.87	63952.80
574.03	63662.57
574.20	63943.44
574.36	63554.91
574.52	63611.08
574.68	63657.89
574.84	63854.50
575.01	63824.07
575.17	63877.90
575.33	63618.10
575.49	63716.40
575.65	63938.75
575.82	64030.04
575.98	63690.66
576.14	63863.86
576.30	63908.33
576.46	63814.71
576.62	63800.66
576.79	63777.26
576.95	63777.26
577.11	64041.74
577.27	64079.19
577.43	63795.98
577.59	63833.43
577.75	63788.96
577.92	63788.96
578.08	63678.96
578.24	63889.60
578.40	63957.48
578.56	63753.85
578.72	63891.94
578.88	64076.85
579.04	63938.75
579.21	63887.26
579.37	64107.27
579.53	64006.63
579.69	63842.79
579.85	64158.76
580.01	64020.67
580.17	63931.73
580.33	63735.13
580.49	64020.67
580.65	64104.93
580.82	64018.33
580.98	63863.86
581.14	64039.40
581.30	64198.55
581.46	63819.39
581.62	63840.45
581.78	63730.45
581.94	64081.53
582.10	63980.88
582.26	64025.35
582.42	64027.70
582.58	64147.06
582.74	64130.68
582.90	64287.49
583.06	63990.25
583.22	64020.67
583.38	63861.52
583.54	64088.55
583.70	64006.63
583.86	64006.63
584.02	64118.98
584.18	64046.42
584.34	64182.17
584.50	64266.43
584.66	64118.98
584.82	63929.39
584.98	64069.82
585.14	64093.23
585.30	64151.74
585.46	64086.21
585.62	64011.31
585.78	64175.15
585.94	63856.84
586.10	64055.78
586.26	63976.20
586.42	64198.55
586.58	64128.34
586.74	64151.74
586.90	64060.46
587.06	64090.89
587.22	64168.13
587.38	64011.31
587.54	64324.94
587.70	64259.41
587.86	64306.22
588.02	64247.71
588.18	64355.37
588.34	64231.32
588.49	64264.09
588.65	64090.89
