SpectraSuite Data File
++++++++++++++++++++++++++++++++++++
Date: Fri Oct 04 11:40:06 GMT-05:00 2013
User: price-jones
Dark Spectrum Present: No
Reference Spectrum Present: No
Number of Sampled Component Spectra: 1
Spectrometers: USB2+H05261
Integration Time (usec): 100000 (USB2+H05261)
Spectra Averaged: 1 (USB2+H05261)
Boxcar Smoothing: 0 (USB2+H05261)
Correct for Electrical Dark: No (USB2+H05261)
Strobe/Lamp Enabled: No (USB2+H05261)
Correct for Detector Non-linearity: No (USB2+H05261)
Correct for Stray Light: No (USB2+H05261)
Number of Pixels in Processed Spectrum: 2048
>>>>>Begin Processed Spectral Data<<<<<
365.73	51.49
365.92	51.49
366.12	51.49
366.32	0.00
366.52	0.00
366.72	2.34
366.91	0.00
367.11	0.00
367.31	0.00
367.51	0.00
367.70	0.00
367.90	0.00
368.10	0.00
368.30	0.00
368.49	0.00
368.69	0.00
368.89	0.00
369.09	0.00
369.28	0.00
369.48	0.00
369.68	0.00
369.87	0.00
370.07	23.41
370.27	49.15
370.47	119.37
370.66	440.02
370.86	631.94
371.06	638.97
371.25	695.14
371.45	601.52
371.65	571.09
371.84	449.38
372.04	475.13
372.24	582.79
372.44	587.47
372.63	634.29
372.83	554.71
373.03	531.30
373.22	489.17
373.42	461.09
373.62	545.34
373.81	550.03
374.01	587.47
374.21	557.05
374.40	573.43
374.60	653.01
374.79	603.86
374.99	702.16
375.19	692.80
375.38	744.29
375.58	631.94
375.78	734.93
375.97	678.76
376.17	688.12
376.37	720.88
376.56	751.31
376.76	702.16
376.95	720.88
377.15	833.23
377.35	880.04
377.54	837.91
377.74	858.98
377.93	854.30
378.13	1011.11
378.33	793.44
378.52	793.44
378.72	798.12
378.91	688.12
379.11	674.07
379.31	720.88
379.50	690.46
379.70	746.63
379.89	788.76
380.09	828.55
380.28	858.98
380.48	880.04
380.68	809.83
380.87	847.27
381.07	786.42
381.26	758.33
381.46	795.78
381.65	685.78
381.85	613.22
382.04	620.24
382.24	575.77
382.43	648.33
382.63	463.43
382.83	543.00
383.02	533.64
383.22	587.47
383.41	507.90
383.61	545.34
383.80	685.78
384.00	683.44
384.19	748.97
384.39	870.68
384.58	786.42
384.78	851.96
384.97	887.06
385.17	718.54
385.36	751.31
385.56	753.65
385.75	802.80
385.95	812.17
386.14	856.64
386.34	788.76
386.53	786.42
386.72	753.65
386.92	795.78
387.11	847.27
387.31	814.51
387.50	847.27
387.70	819.19
387.89	758.33
388.09	833.23
388.28	880.04
388.48	880.04
388.67	961.96
388.86	997.07
389.06	990.05
389.25	994.73
389.45	1057.92
389.64	1160.91
389.84	1029.84
390.03	1004.09
390.22	1039.20
390.42	1111.75
390.61	1128.14
390.81	1095.37
391.00	1282.61
391.19	1146.86
391.39	1181.97
391.58	1128.14
391.78	1011.11
391.97	1095.37
392.16	887.06
392.36	884.72
392.55	748.97
392.75	688.12
392.94	479.81
393.13	557.05
393.33	554.71
393.52	744.29
393.71	814.51
393.91	880.04
394.10	1048.56
394.29	1074.31
394.49	1093.03
394.68	1156.22
394.88	1259.21
395.07	1324.74
395.26	1270.91
395.46	1284.95
395.65	1184.31
395.84	1102.39
396.04	1048.56
396.23	826.21
396.42	622.58
396.62	732.59
396.81	791.10
397.00	943.24
397.19	1046.22
397.39	1310.70
397.58	1444.11
397.77	1528.37
397.97	1561.14
398.16	1476.88
398.35	1530.71
398.55	1612.63
398.74	1715.61
398.93	1790.51
399.12	1570.50
399.32	1645.40
399.51	1640.72
399.70	1647.74
399.90	1799.87
400.09	1743.70
400.28	1710.93
400.47	1710.93
400.67	1884.13
400.86	1797.53
401.05	1858.39
401.24	1788.17
401.44	1818.60
401.63	1947.33
401.82	1839.66
402.01	1909.88
402.21	1851.36
402.40	1928.60
402.59	1760.08
402.78	1734.34
402.97	1682.85
403.17	1757.74
403.36	1858.39
403.55	1984.77
403.74	1947.33
403.93	1874.77
404.13	1928.60
404.32	1797.53
404.51	1816.26
404.70	1984.77
404.89	1930.94
405.09	1942.64
405.28	1802.21
405.47	1818.60
405.66	1797.53
405.85	1792.85
406.05	1741.36
406.24	1860.73
406.43	1853.70
406.62	1907.54
406.81	1956.69
407.00	1888.81
407.20	1799.87
407.39	1823.28
407.58	1902.86
407.77	2108.82
407.96	2001.16
408.15	1987.11
408.34	2057.33
408.54	2101.80
408.73	2127.55
408.92	2062.01
409.11	2026.90
409.30	2050.31
409.49	1893.49
409.68	1902.86
409.87	1640.72
410.07	1813.92
410.26	1893.49
410.45	2113.50
410.64	2094.78
410.83	2127.55
411.02	2148.61
411.21	2265.64
411.40	2275.00
411.59	2230.53
411.78	2286.70
411.98	2214.15
412.17	2272.66
412.36	2183.72
412.55	2319.47
412.74	2282.02
412.93	2134.57
413.12	2045.63
413.31	2396.71
413.50	2310.11
413.69	2438.84
413.88	2342.88
414.07	2251.60
414.26	2342.88
414.45	2298.41
414.64	2267.98
414.83	2373.30
415.02	2232.87
415.22	2370.96
415.41	2431.82
415.60	2373.30
415.79	2417.77
415.98	2677.57
416.17	2600.34
416.36	2478.63
416.55	2375.64
416.74	2406.07
416.93	2401.39
417.12	2324.15
417.31	2326.49
417.50	2527.78
417.69	2560.55
417.88	2438.84
418.07	2495.01
418.26	2448.20
418.45	2434.16
418.64	2511.39
418.83	2677.57
419.02	2574.59
419.21	2511.39
419.39	2656.51
419.58	2366.28
419.77	2347.56
419.96	2373.30
420.15	2579.27
420.34	2574.59
420.53	2602.68
420.72	2738.43
420.91	2682.25
421.10	2733.75
421.29	2719.70
421.48	2614.38
421.67	2635.44
421.86	2619.06
422.05	2485.65
422.24	2246.91
422.43	2188.40
422.61	2499.69
422.80	2562.89
422.99	2555.86
423.18	2530.12
423.37	2396.71
423.56	2345.22
423.75	2483.31
423.94	2487.99
424.13	2368.62
424.32	2375.64
424.50	2377.98
424.69	2530.12
424.88	2471.61
425.07	2523.10
425.26	2483.31
425.45	2417.77
425.64	2338.20
425.83	2375.64
426.01	2595.65
426.20	2553.52
426.39	2537.14
426.58	2359.26
426.77	2282.02
426.96	2228.19
427.15	2165.00
427.33	2251.60
427.52	2502.03
427.71	2492.67
427.90	2476.29
428.09	2452.88
428.28	2354.58
428.46	2239.89
428.65	2298.41
428.84	2385.01
429.03	2352.24
429.22	2118.18
429.40	2115.84
429.59	1961.37
429.78	1762.42
429.97	1776.47
430.16	1741.36
430.34	1802.21
430.53	1839.66
430.72	1778.81
430.91	1877.11
431.10	2270.32
431.28	2595.65
431.47	2771.19
431.66	2897.58
431.85	2593.31
432.03	2401.39
432.22	2459.90
432.41	2380.32
432.60	2731.41
432.79	2600.34
432.97	2803.96
433.16	2766.51
433.35	2527.78
433.54	2338.20
433.72	2312.45
433.91	2307.77
434.10	2504.37
434.28	2569.91
434.47	2586.29
434.66	2581.61
434.85	2619.06
435.03	2668.21
435.22	2946.73
435.41	3138.66
435.59	3082.49
435.78	3138.66
435.97	2963.12
436.16	2904.60
436.34	2871.84
436.53	2881.20
436.72	2963.12
436.90	2761.83
437.09	2698.64
437.28	2712.68
437.46	2794.60
437.65	2848.43
437.84	2600.34
438.02	2410.75
438.21	2509.05
438.40	2523.10
438.58	2649.49
438.77	2733.75
438.96	2834.39
439.14	2958.44
439.33	3056.74
439.52	3108.23
439.70	3056.74
439.89	2906.95
440.08	2904.60
440.26	2885.88
440.45	2780.56
440.63	3033.33
440.82	3262.71
441.01	3143.34
441.19	3204.19
441.38	3206.53
441.57	3321.22
441.75	3410.16
441.94	3375.05
442.12	3353.99
442.31	3417.18
442.50	3304.84
442.68	3386.76
442.87	3384.41
443.05	3267.39
443.24	3386.76
443.43	3480.38
443.61	3342.28
443.80	3426.54
443.98	3414.84
444.17	3325.90
444.35	3400.80
444.54	3407.82
444.73	3492.08
444.91	3337.60
445.10	3190.15
445.28	3129.30
445.47	3087.17
445.65	3122.27
445.84	3260.37
446.02	3262.71
446.21	3353.99
446.39	3241.64
446.58	3234.62
446.77	3365.69
446.95	3412.50
447.14	3489.74
447.32	3510.80
447.51	3400.80
447.69	3372.71
447.88	3337.60
448.06	3332.92
448.25	3417.18
448.43	3288.45
448.62	3431.23
448.80	3419.52
448.99	3442.93
449.17	3433.57
449.36	3480.38
449.54	3623.15
449.73	3548.25
449.91	3597.40
450.10	3721.45
450.28	3882.95
450.46	3733.15
450.65	3716.77
450.83	3662.94
451.02	3644.21
451.20	3634.85
451.39	3709.75
451.57	3637.19
451.76	3611.45
451.94	3501.44
452.13	3550.59
452.31	3456.97
452.49	3356.33
452.68	3286.11
452.86	3337.60
453.05	3286.11
453.23	3370.37
453.42	3424.20
453.60	3583.36
453.78	3543.57
453.97	3475.70
454.15	3534.21
454.34	3478.04
454.52	3400.80
454.70	3442.93
454.89	3407.82
455.07	3424.20
455.26	3712.09
455.44	3648.90
455.62	3779.97
455.81	3578.68
455.99	3597.40
456.17	3571.66
456.36	3534.21
456.54	3676.98
456.73	3691.02
456.91	3655.92
457.09	3770.60
457.28	3899.33
457.46	3852.52
457.64	3887.63
457.83	3637.19
458.01	3522.51
458.19	3552.93
458.38	3698.05
458.56	3749.54
458.74	3758.90
458.93	3742.52
459.11	3871.25
459.29	3726.13
459.48	3747.20
459.66	3676.98
459.84	3763.58
460.03	3861.88
460.21	3864.22
460.39	3904.01
460.57	3941.46
460.76	3922.74
460.94	3889.97
461.12	3817.41
461.31	3854.86
461.49	3798.69
461.67	3786.99
461.85	3999.98
462.04	3801.03
462.22	4358.08
462.40	3896.99
462.59	3932.10
462.77	3871.25
462.95	4016.36
463.13	3981.25
463.32	3779.97
463.50	3819.75
463.68	3815.07
463.86	3786.99
464.05	3784.65
464.23	3728.47
464.41	3726.13
464.59	3721.45
464.78	3761.24
464.96	3658.26
465.14	3812.73
465.32	3770.60
465.50	4042.11
465.69	3880.61
465.87	3786.99
466.05	3866.56
466.23	3676.98
466.41	3574.00
466.60	3702.73
466.78	3658.26
466.96	3765.92
467.14	3763.58
467.32	3845.50
467.51	3815.07
467.69	3786.99
467.87	3672.30
468.05	3838.48
468.23	3838.48
468.41	3843.16
468.60	3791.67
468.78	3819.75
468.96	3784.65
469.14	3857.20
469.32	3920.40
469.50	3660.60
469.69	3772.94
469.87	3578.68
470.05	3758.90
470.23	3630.17
470.41	3669.96
470.59	3581.02
470.77	3627.83
470.95	3861.88
471.14	3941.46
471.32	3833.80
471.50	4131.05
471.68	4077.21
471.86	4131.05
472.04	4067.85
472.22	4222.33
472.40	3997.64
472.58	3911.04
472.77	3934.44
472.95	3873.59
473.13	4025.72
473.31	4070.19
473.49	3885.29
473.67	3974.23
473.85	3992.95
474.03	4163.81
474.21	4098.28
474.39	4140.41
474.57	4297.22
474.75	4023.38
474.93	4126.36
475.12	4086.58
475.30	4077.21
475.48	4032.74
475.66	4241.05
475.84	4138.07
476.02	4046.79
476.20	4025.72
476.38	4088.92
476.56	4191.90
476.74	4245.73
476.92	4201.26
477.10	4294.88
477.28	4470.42
477.46	4400.21
477.64	4606.17
477.82	4599.15
478.00	4369.78
478.18	4484.47
478.36	4510.21
478.54	4409.57
478.72	4559.36
478.90	4681.07
479.08	4723.20
479.26	4631.92
479.44	4732.56
479.62	4718.52
479.80	4762.99
479.98	4697.46
480.16	4975.98
480.34	4842.57
480.52	4933.85
480.70	4961.94
480.88	4840.23
481.06	4835.55
481.24	4851.93
481.41	5238.12
481.59	5186.63
481.77	5156.20
481.95	5160.88
482.13	5151.52
482.31	5048.54
482.49	5036.83
482.67	5149.18
482.85	5130.45
483.03	5181.95
483.21	5350.46
483.39	5380.89
483.57	5282.59
483.74	5181.95
483.92	5123.43
484.10	5210.03
484.28	5362.17
484.46	5420.68
484.64	5387.91
484.82	5254.50
485.00	5359.83
485.18	4901.08
485.35	5001.72
485.53	4784.06
485.71	4524.26
485.89	4264.46
486.07	4358.08
486.25	4880.02
486.43	4954.91
486.61	5289.61
486.78	5198.33
486.96	5179.61
487.14	5458.13
487.32	5507.28
487.50	5483.88
487.68	5774.10
487.85	5788.14
488.03	5762.40
488.21	5795.17
488.39	5577.50
488.57	5547.07
488.75	5462.81
488.92	6008.16
489.10	5865.38
489.28	6291.36
489.46	6256.25
489.64	6354.55
489.81	6387.32
489.99	6286.68
490.17	6387.32
490.35	6284.34
490.53	6282.00
490.70	6122.84
490.88	6321.79
491.06	6253.91
491.24	6534.78
491.41	6263.27
491.59	5895.81
491.77	5713.25
491.95	5809.21
492.13	6216.46
492.30	6321.79
492.48	6729.04
492.66	6881.18
492.84	6612.01
493.01	6548.82
493.19	6729.04
493.37	6565.20
493.54	6431.79
493.72	6597.97
493.90	6693.93
494.08	6855.43
494.25	6967.77
494.43	7133.95
494.61	7023.95
494.79	7178.42
494.96	7110.55
495.14	6946.71
495.32	6707.98
495.49	6626.06
495.67	6869.47
495.85	7190.13
496.02	7227.57
496.20	7241.62
496.38	7007.56
496.55	7087.14
496.73	7206.51
496.91	7138.63
497.09	7192.47
497.26	7459.29
497.44	7393.75
497.62	7218.21
497.79	7045.01
497.97	6677.55
498.14	6740.74
498.32	6944.37
498.50	7166.72
498.67	7183.10
498.85	7148.00
499.03	7190.13
499.20	7478.01
499.38	7513.12
499.56	7239.28
499.73	7260.34
499.91	7295.45
500.08	6984.16
500.26	6888.20
500.44	6705.63
500.61	7140.97
500.79	7035.65
500.97	6839.05
501.14	6864.79
501.32	6902.24
501.49	6857.77
501.67	6970.12
501.84	6981.82
502.02	7248.64
502.20	7281.41
502.37	7393.75
502.55	7000.54
502.72	7197.15
502.90	7417.16
503.07	7197.15
503.25	7159.70
503.43	6841.39
503.60	6778.19
503.78	6558.18
503.95	6583.93
504.13	7000.54
504.30	7133.95
504.48	7262.68
504.65	7178.42
504.83	7243.96
505.01	7426.52
505.18	7513.12
505.36	7571.63
505.53	7716.75
505.71	7735.47
505.88	7742.49
506.06	7604.40
506.23	7527.16
506.41	7269.70
506.58	7382.05
506.76	7665.25
506.93	7225.23
507.11	7323.54
507.28	7368.01
507.46	7360.98
507.63	7307.15
507.81	7204.17
507.98	6897.56
508.16	7503.76
508.33	7405.46
508.50	7545.89
508.68	7726.11
508.85	7934.42
509.03	7765.90
509.20	7604.40
509.38	7768.24
509.55	7353.96
509.73	7435.88
509.90	7456.95
510.08	7555.25
510.25	7588.02
510.42	7604.40
510.60	7581.00
510.77	7578.65
510.95	7737.81
511.12	7845.48
511.30	7948.46
511.47	7777.60
511.64	8060.80
511.82	7901.65
511.99	7604.40
512.17	7662.91
512.34	7449.93
512.51	7482.69
512.69	7473.33
512.86	7674.62
513.04	7793.98
513.21	7822.07
513.38	7716.75
513.56	7562.27
513.73	7302.47
513.90	7314.17
514.08	7508.44
514.25	7262.68
514.43	7431.20
514.60	7683.98
514.77	7573.97
514.95	7669.94
515.12	7552.91
515.29	7712.07
515.47	7815.05
515.64	7836.11
515.81	7815.05
515.99	7545.89
516.16	7424.18
516.33	6738.40
516.51	6382.64
516.68	6232.85
516.85	6282.00
517.03	6162.63
517.20	6513.71
517.37	7229.91
517.54	7501.42
517.72	7513.12
517.89	6995.86
518.06	6581.59
518.24	6436.47
518.41	6967.77
518.58	7197.15
518.75	7368.01
518.93	7389.07
519.10	7391.41
519.27	7548.23
519.45	7590.36
519.62	7695.68
519.79	7981.23
519.96	7892.29
520.14	7801.01
520.31	7431.20
520.48	7229.91
520.65	7403.11
520.83	7782.28
521.00	7798.66
521.17	7960.16
521.34	7658.23
521.52	7604.40
521.69	8028.04
521.86	8025.70
522.03	8004.63
522.20	7758.88
522.38	7314.17
522.55	7410.14
522.72	7482.69
522.89	7590.36
523.07	7660.57
523.24	7733.13
523.41	7793.98
523.58	7698.02
523.75	8203.58
523.92	7803.35
524.10	8187.19
524.27	7995.27
524.44	8189.53
524.61	7946.12
524.78	8037.40
524.96	7892.29
525.13	7662.91
525.30	8011.65
525.47	8140.38
525.64	8060.80
525.81	7997.61
525.98	7740.15
526.16	7016.93
526.33	6745.42
526.50	6796.92
526.67	6745.42
526.84	6803.94
527.01	7140.97
527.18	7520.14
527.36	7569.29
527.53	7740.15
527.70	7836.11
527.87	7789.30
528.04	7751.85
528.21	7761.22
528.38	8037.40
528.55	8177.83
528.72	8037.40
528.89	8341.67
529.07	8145.06
529.24	8084.21
529.41	7920.37
529.58	7691.00
529.75	7630.15
529.92	7786.96
530.09	7868.88
530.26	8128.68
530.43	8255.07
530.60	8205.92
530.77	8156.77
530.94	8128.68
531.11	8175.49
531.28	7997.61
531.46	8006.97
531.63	7899.31
531.80	7988.25
531.97	7826.75
532.14	7644.19
532.31	7501.42
532.48	7391.41
532.65	7194.81
532.82	7349.28
532.99	7683.98
533.16	7948.46
533.33	8053.78
533.50	7885.26
533.67	7889.95
533.84	7674.62
534.01	7831.43
534.18	7712.07
534.35	7850.16
534.52	7889.95
534.69	7829.09
534.86	7824.41
535.03	8002.29
535.20	7976.55
535.37	8063.15
535.54	8266.77
535.71	8187.19
535.88	8039.74
536.05	7854.84
536.22	7786.96
536.38	7688.66
536.55	7620.78
536.72	7534.18
536.89	7440.56
537.06	7585.68
537.23	7665.25
537.40	8112.30
537.57	7875.90
537.74	8170.81
537.91	7978.89
538.08	7819.73
538.25	7885.26
538.42	7810.37
538.59	7852.50
538.75	7578.65
538.92	7609.08
539.09	7538.87
539.26	7648.87
539.43	7573.97
539.60	7616.10
539.77	7527.16
539.94	7487.37
540.11	7400.77
540.28	7386.73
540.44	7372.69
540.61	7344.60
540.78	7342.26
540.95	7520.14
541.12	7672.28
541.29	7740.15
541.46	7744.83
541.62	7868.88
541.79	7765.90
541.96	7602.06
542.13	7602.06
542.30	7688.66
542.47	7812.71
542.63	7840.79
542.80	7543.55
542.97	7740.15
543.14	7573.97
543.31	7531.84
543.48	7627.81
543.64	8039.74
543.81	8245.71
543.98	8367.42
544.15	7786.96
544.32	7779.94
544.48	7637.17
544.65	7826.75
544.82	7906.33
544.99	7859.52
545.16	7822.07
545.32	7623.12
545.49	7836.11
545.66	8461.04
545.83	8521.89
546.00	8386.14
546.16	7990.59
546.33	7918.03
546.50	7541.21
546.67	7854.84
546.83	7829.09
547.00	7831.43
547.17	7529.50
547.34	7403.11
547.50	7503.76
547.67	7475.67
547.84	7623.12
548.00	7548.23
548.17	7702.70
548.34	7751.85
548.51	7714.41
548.67	7688.66
548.84	7618.44
549.01	7623.12
549.18	7545.89
549.34	7335.24
549.51	7506.10
549.68	7480.35
549.84	7651.21
550.01	7566.95
550.18	7604.40
550.34	7611.42
550.51	7475.67
550.68	7485.03
550.84	7536.52
551.01	7307.15
551.18	7501.42
551.34	7482.69
551.51	7602.06
551.68	7599.72
551.84	7749.51
552.01	7604.40
552.18	7611.42
552.34	7508.44
552.51	7133.95
552.68	7351.62
552.84	7250.98
553.01	7386.73
553.18	7442.90
553.34	7332.90
553.51	7403.11
553.67	7623.12
553.84	7653.55
554.01	7482.69
554.17	7536.52
554.34	7438.22
554.51	7590.36
554.67	7683.98
554.84	7456.95
555.00	7440.56
555.17	7435.88
555.33	7431.20
555.50	7356.30
555.67	7398.43
555.83	7323.54
556.00	7220.55
556.16	7384.39
556.33	7005.22
556.50	7307.15
556.66	7169.06
556.83	6927.99
556.99	7007.56
557.16	7094.16
557.32	7133.95
557.49	7218.21
557.65	7206.51
557.82	7248.64
557.98	7176.08
558.15	7377.37
558.32	6888.20
558.48	6792.23
558.65	6810.96
558.81	6881.18
558.98	6827.34
559.14	6927.99
559.31	6757.13
559.47	6925.65
559.64	6794.58
559.80	6916.28
559.97	6850.75
560.13	6782.87
560.30	7194.81
560.46	7239.28
560.63	7290.77
560.79	7274.38
560.96	7187.79
561.12	6995.86
561.29	6970.12
561.45	6738.40
561.61	7005.22
561.78	6958.41
561.94	7040.33
562.11	6939.69
562.27	6839.05
562.44	6768.83
562.60	7000.54
562.77	7019.27
562.93	7066.08
563.10	7148.00
563.26	6991.18
563.42	7033.31
563.59	6963.09
563.75	6729.04
563.92	6888.20
564.08	6897.56
564.24	6820.32
564.41	6853.09
564.57	6927.99
564.74	6972.46
564.90	6787.55
565.07	6766.49
565.23	6881.18
565.39	6703.29
565.56	6731.38
565.72	6560.52
565.88	6604.99
566.05	6546.48
566.21	6602.65
566.38	6502.01
566.54	6640.10
566.70	6869.47
566.87	6853.09
567.03	6712.66
567.19	6864.79
567.36	6913.94
567.52	6787.55
567.68	6546.48
567.85	6588.61
568.01	6307.74
568.17	6382.64
568.34	6134.54
568.50	6347.53
568.66	6389.66
568.83	6569.88
568.99	6272.64
569.15	6349.87
569.32	6218.80
569.48	6319.45
569.64	6286.68
569.81	6225.82
569.97	6326.47
570.13	6356.90
570.30	6331.15
570.46	6307.74
570.62	6188.38
570.78	5926.24
570.95	6218.80
571.11	6155.61
571.27	6253.91
571.43	6324.13
571.60	6244.55
571.76	6244.55
571.92	6471.58
572.09	6455.20
572.25	6399.02
572.41	6349.87
572.57	6274.98
572.74	6480.94
572.90	6389.66
573.06	6305.40
573.22	6333.49
573.38	6401.37
573.55	6118.16
573.71	6532.44
573.87	6249.23
574.03	6270.30
574.20	6333.49
574.36	6139.23
574.52	6235.19
574.68	6167.31
574.84	6258.59
575.01	5996.45
575.17	5987.09
575.33	6101.78
575.49	6071.35
575.65	6143.91
575.82	6153.27
575.98	6202.42
576.14	5944.96
576.30	6232.85
576.46	6382.64
576.62	6424.77
576.79	6237.53
576.95	6221.14
577.11	5951.98
577.27	6101.78
577.43	6090.07
577.59	5980.07
577.75	6087.73
577.92	5944.96
578.08	5865.38
578.24	5874.74
578.40	6005.81
578.56	6031.56
578.72	6141.57
578.88	6342.85
579.04	6171.99
579.21	6101.78
579.37	6253.91
579.53	6179.01
579.69	6153.27
579.85	6078.37
580.01	6303.06
580.17	6237.53
580.33	6097.10
580.49	6045.60
580.65	6134.54
580.82	6090.07
580.98	6209.44
581.14	5956.66
581.30	6078.37
581.46	6104.12
581.62	6129.86
581.78	6223.48
581.94	6237.53
582.10	6022.20
582.26	6200.08
582.42	6237.53
582.58	6345.19
582.74	6314.77
582.90	6211.78
583.06	6317.11
583.22	6061.99
583.38	6038.58
583.54	6253.91
583.70	6108.80
583.86	6382.64
584.02	6328.81
584.18	6251.57
584.34	6036.24
584.50	5989.43
584.66	5937.94
584.82	5973.05
584.98	6050.28
585.14	5977.73
585.30	5764.74
585.46	5809.21
585.62	5832.62
585.78	5706.23
585.94	5984.75
586.10	5984.75
586.26	5771.76
586.42	5942.62
586.58	5849.00
586.74	5776.44
586.90	5956.66
587.06	5849.00
587.22	5858.36
587.38	5734.31
587.54	5790.49
587.70	5397.28
587.86	5394.93
588.02	5366.85
588.18	5320.04
588.34	5015.77
588.49	4559.36
588.65	4421.27
588.81	4283.18
588.97	4367.44
589.13	4355.74
589.29	4348.72
589.45	4517.23
589.61	4454.04
589.77	4568.73
589.93	4772.35
590.08	4840.23
590.24	4961.94
590.40	5015.77
590.56	5067.26
590.72	5104.71
590.88	4910.44
591.04	5006.41
591.20	5015.77
591.35	4964.28
591.51	4931.51
591.67	4774.69
591.83	4844.91
591.99	4889.38
592.15	4903.42
592.31	5095.35
592.46	5146.84
592.62	5142.16
592.78	5181.95
592.94	5268.55
593.10	5205.35
593.26	5305.99
593.41	5385.57
593.57	5226.42
593.73	5238.12
593.89	5067.26
594.05	4889.38
594.20	4667.03
594.36	4547.66
594.52	4505.53
594.68	4578.09
594.84	4741.93
594.99	5097.69
595.15	5128.11
595.31	5048.54
595.47	4903.42
595.62	5090.67
595.78	5083.64
595.94	5238.12
596.10	5228.76
596.25	5132.79
596.41	5069.60
596.57	4833.21
596.73	5055.56
596.88	5102.37
597.04	5078.96
597.20	5025.13
597.36	4844.91
597.51	5011.09
