SpectraSuite Data File
++++++++++++++++++++++++++++++++++++
Date: Fri Oct 04 11:39:26 GMT-05:00 2013
User: price-jones
Dark Spectrum Present: No
Reference Spectrum Present: No
Number of Sampled Component Spectra: 1
Spectrometers: USB2+H05261
Integration Time (usec): 100000 (USB2+H05261)
Spectra Averaged: 1 (USB2+H05261)
Boxcar Smoothing: 0 (USB2+H05261)
Correct for Electrical Dark: No (USB2+H05261)
Strobe/Lamp Enabled: No (USB2+H05261)
Correct for Detector Non-linearity: No (USB2+H05261)
Correct for Stray Light: No (USB2+H05261)
Number of Pixels in Processed Spectrum: 2048
>>>>>Begin Processed Spectral Data<<<<<
365.73	77.24
365.92	77.24
366.12	77.24
366.32	9.36
366.52	0.00
366.72	0.00
366.91	28.09
367.11	16.38
367.31	0.00
367.51	0.00
367.70	0.00
367.90	0.00
368.10	0.00
368.30	0.00
368.49	0.00
368.69	0.00
368.89	25.75
369.09	0.00
369.28	49.15
369.48	0.00
369.68	44.47
369.87	11.70
370.07	0.00
370.27	18.72
370.47	74.90
370.66	191.92
370.86	170.86
371.06	259.80
371.25	229.37
371.45	220.01
371.65	203.63
371.84	173.20
372.04	238.73
372.24	308.95
372.44	245.76
372.63	201.29
372.83	311.29
373.03	257.46
373.22	285.55
373.42	266.82
373.62	266.82
373.81	348.74
374.01	388.53
374.21	315.97
374.40	297.25
374.60	346.40
374.79	311.29
374.99	262.14
375.19	299.59
375.38	355.76
375.58	301.93
375.78	376.83
375.97	334.70
376.17	379.17
376.37	318.31
376.56	358.10
376.76	332.36
376.95	301.93
377.15	339.38
377.35	322.99
377.54	339.38
377.74	348.74
377.93	308.95
378.13	435.34
378.33	397.89
378.52	379.17
378.72	334.70
378.91	376.83
379.11	393.21
379.31	327.68
379.50	353.42
379.70	423.64
379.89	367.46
380.09	388.53
380.28	376.83
380.48	355.76
380.68	442.36
380.87	341.72
381.07	416.62
381.26	360.44
381.46	425.98
381.65	379.17
381.85	351.08
382.04	421.30
382.24	447.04
382.43	362.78
382.63	341.72
382.83	358.10
383.02	402.57
383.22	428.32
383.41	400.23
383.61	416.62
383.80	479.81
384.00	447.04
384.19	470.45
384.39	514.92
384.58	374.49
384.78	430.66
384.97	435.34
385.17	533.64
385.36	416.62
385.56	547.69
385.75	409.59
385.95	397.89
386.14	409.59
386.34	327.68
386.53	393.21
386.72	435.34
386.92	517.26
387.11	379.17
387.31	428.32
387.50	414.27
387.70	433.00
387.89	489.17
388.09	472.79
388.28	510.24
388.48	468.11
388.67	491.51
388.86	447.04
389.06	440.02
389.25	571.09
389.45	442.36
389.64	521.94
389.84	458.74
390.03	475.13
390.22	550.03
390.42	484.49
390.61	498.53
390.81	458.74
391.00	470.45
391.19	596.84
391.39	578.11
391.58	552.37
391.78	587.47
391.97	552.37
392.16	454.06
392.36	543.00
392.55	564.07
392.75	533.64
392.94	606.20
393.13	667.05
393.33	613.22
393.52	648.33
393.71	615.56
393.91	610.88
394.10	582.79
394.29	571.09
394.49	575.77
394.68	636.63
394.88	648.33
395.07	620.24
395.26	645.99
395.46	648.33
395.65	667.05
395.84	718.54
396.04	711.52
396.23	641.31
396.42	688.12
396.62	718.54
396.81	751.31
397.00	643.65
397.19	688.12
397.39	748.97
397.58	692.80
397.77	781.74
397.97	716.20
398.16	725.57
398.35	753.65
398.55	763.01
398.74	758.33
398.93	849.61
399.12	753.65
399.32	748.97
399.51	802.80
399.70	744.29
399.90	725.57
400.09	784.08
400.28	896.43
400.47	866.00
400.67	807.48
400.86	922.17
401.05	894.08
401.24	816.85
401.44	957.28
401.63	919.83
401.82	973.66
402.01	901.11
402.21	866.00
402.40	861.32
402.59	894.08
402.78	980.68
402.97	990.05
403.17	1008.77
403.36	1032.18
403.55	999.41
403.74	1062.60
403.93	1036.86
404.13	1013.45
404.32	1139.84
404.51	1104.73
404.70	1149.20
404.89	1076.65
405.09	1186.65
405.28	1196.01
405.47	1114.10
405.66	1095.37
405.85	1076.65
406.05	1334.11
406.24	1074.31
406.43	1142.18
406.62	1231.12
406.81	1306.02
407.00	1263.89
407.20	1219.42
407.39	1273.25
407.58	1249.85
407.77	1352.83
407.96	1331.76
408.15	1252.19
408.34	1256.87
408.54	1455.81
408.73	1350.49
408.92	1416.02
409.11	1418.36
409.30	1373.89
409.49	1420.71
409.68	1387.94
409.87	1462.83
410.07	1537.73
410.26	1497.94
410.45	1502.62
410.64	1476.88
410.83	1577.52
411.02	1551.78
411.21	1547.09
411.40	1643.06
411.59	1739.02
411.78	1661.78
411.98	1720.29
412.17	1748.38
412.36	1631.35
412.55	1785.83
412.74	1771.79
412.93	1764.76
413.12	1748.38
413.31	1888.81
413.50	1743.70
413.69	1919.24
413.88	1907.54
414.07	1781.15
414.26	1909.88
414.45	1944.99
414.64	1853.70
414.83	2071.37
415.02	1949.67
415.22	2043.29
415.41	2193.08
415.60	2005.84
415.79	2076.06
415.98	2186.06
416.17	2160.31
416.36	2228.19
416.55	2179.04
416.74	2279.68
416.93	2183.72
417.12	2303.09
417.31	2258.62
417.50	2279.68
417.69	2347.56
417.88	2450.54
418.07	2462.24
418.26	2352.24
418.45	2478.63
418.64	2537.14
418.83	2457.56
419.02	2377.98
419.21	2478.63
419.39	2544.16
419.58	2534.80
419.77	2544.16
419.96	2534.80
420.15	2471.61
420.34	2567.57
420.53	2504.37
420.72	2595.65
420.91	2619.06
421.10	2595.65
421.29	2661.19
421.48	2609.70
421.67	2696.30
421.86	2733.75
422.05	2708.00
422.24	2654.17
422.43	2700.98
422.61	2780.56
422.80	2822.69
422.99	2771.19
423.18	2810.98
423.37	2855.45
423.56	2874.18
423.75	2766.51
423.94	2841.41
424.13	2705.66
424.32	2815.66
424.50	2883.54
424.69	2834.39
424.88	2841.41
425.07	2860.13
425.26	2853.11
425.45	2712.68
425.64	2733.75
425.83	2808.64
426.01	2963.12
426.20	2736.09
426.39	2904.60
426.58	2752.47
426.77	2773.53
426.96	2864.82
427.15	2963.12
427.33	2862.48
427.52	2995.89
427.71	2974.82
427.90	2972.48
428.09	3143.34
428.28	2977.16
428.46	3105.89
428.65	3089.51
428.84	3159.72
429.03	3110.57
429.22	3021.63
429.40	3152.70
429.59	3119.93
429.78	3005.25
429.97	2965.46
430.16	3164.40
430.34	3112.91
430.53	3236.96
430.72	3185.47
430.91	3185.47
431.10	3115.25
431.28	3246.32
431.47	3365.69
431.66	3419.52
431.85	3281.43
432.03	3440.59
432.22	3468.67
432.41	3435.91
432.60	3410.16
432.79	3337.60
432.97	3606.77
433.16	3515.48
433.35	3431.23
433.54	3456.97
433.72	3473.36
433.91	3454.63
434.10	3471.01
434.28	3440.59
434.47	3482.72
434.66	3541.23
434.85	3637.19
435.03	3679.32
435.22	3726.13
435.41	4124.02
435.59	4128.70
435.78	3875.93
435.97	3791.67
436.16	3833.80
436.34	3754.22
436.53	3679.32
436.72	3845.50
436.90	3581.02
437.09	3845.50
437.28	3730.81
437.46	3726.13
437.65	3854.86
437.84	3845.50
438.02	3815.07
438.21	3948.48
438.40	3735.50
438.58	3971.89
438.77	4037.42
438.96	3978.91
439.14	3985.93
439.33	4112.32
439.52	4135.73
439.70	4222.33
439.89	4205.94
440.08	4236.37
440.26	4271.48
440.45	4255.09
440.63	4273.82
440.82	4304.25
441.01	4496.17
441.19	4187.22
441.38	4374.46
441.57	4510.21
441.75	4496.17
441.94	4557.02
442.12	4624.90
442.31	4643.62
442.50	4507.87
442.68	4482.13
442.87	4528.94
443.05	4514.89
443.24	4671.71
443.43	4777.03
443.61	4678.73
443.80	4814.48
443.98	4624.90
444.17	4573.41
444.35	4772.35
444.54	4772.35
444.73	4868.31
444.91	4648.30
445.10	4779.37
445.28	4770.01
445.47	4732.56
445.65	4660.01
445.84	4863.63
446.02	4844.91
446.21	4854.27
446.39	4812.14
446.58	4786.40
446.77	4851.93
446.95	4835.55
447.14	4985.34
447.32	4968.96
447.51	5041.51
447.69	4964.28
447.88	4816.82
448.06	4905.76
448.25	4858.95
448.43	4894.06
448.62	4929.17
448.80	4779.37
448.99	4882.36
449.17	4915.12
449.36	4957.25
449.54	5055.56
449.73	4999.38
449.91	5060.24
450.10	5179.61
450.28	5308.34
450.46	5294.29
450.65	5111.73
450.83	5142.16
451.02	5252.16
451.20	5408.98
451.39	5284.93
451.57	5039.17
451.76	5235.78
451.94	5287.27
452.13	5455.79
452.31	5448.77
452.49	5160.88
452.68	5504.94
452.86	5296.63
453.05	5331.74
453.23	5334.08
453.42	5416.00
453.60	5364.51
453.78	5373.87
453.97	5518.98
454.15	5493.24
454.34	5408.98
454.52	5490.90
454.70	5493.24
454.89	5706.23
455.07	5467.49
455.26	5748.36
455.44	5570.48
455.62	5556.43
455.81	5776.44
455.99	5619.63
456.17	5643.03
456.36	5844.32
456.54	5795.17
456.73	5797.51
456.91	6019.86
457.09	6010.50
457.28	5994.11
457.46	5998.79
457.64	6012.84
457.83	6153.27
458.01	5799.85
458.19	6216.46
458.38	5865.38
458.56	6012.84
458.74	6038.58
458.93	6087.73
459.11	6282.00
459.29	6094.76
459.48	6221.14
459.66	6211.78
459.84	6260.93
460.03	6244.55
460.21	6209.44
460.39	6179.01
460.57	6069.01
460.76	6352.21
460.94	6436.47
461.12	6370.94
461.31	6300.72
461.49	6377.96
461.67	6333.49
461.85	6502.01
462.04	6546.48
462.22	6710.32
462.40	6541.80
462.59	6668.19
462.77	6572.22
462.95	6794.58
463.13	6612.01
463.32	6647.12
463.50	6726.70
463.68	6670.53
463.86	6682.23
464.05	6520.73
464.23	6576.91
464.41	6724.36
464.59	6719.68
464.78	6766.49
464.96	6778.19
465.14	6700.95
465.32	6801.60
465.50	6817.98
465.69	6977.14
465.87	6768.83
466.05	6729.04
466.23	6820.32
466.41	6885.86
466.60	7023.95
466.78	6747.76
466.96	6841.39
467.14	7070.76
467.32	6963.09
467.51	7124.59
467.69	6895.22
467.87	7105.87
468.05	7077.78
468.23	7243.96
468.41	7126.93
468.60	7164.38
468.78	7087.14
468.96	7112.89
469.14	7115.23
469.32	7192.47
469.50	7049.69
469.69	7253.32
469.87	7342.26
470.05	7368.01
470.23	7384.39
470.41	7377.37
470.59	7515.46
470.77	7403.11
470.95	7480.35
471.14	7658.23
471.32	7618.44
471.50	7552.91
471.68	7723.77
471.86	7709.72
472.04	7681.64
472.22	7719.09
472.40	7896.97
472.58	7681.64
472.77	7822.07
472.95	7929.74
473.13	8217.62
473.31	7859.52
473.49	7873.56
473.67	7971.86
473.85	7988.25
474.03	8152.09
474.21	8229.32
474.39	8409.54
474.57	8088.89
474.75	8184.85
474.93	8535.93
475.12	8367.42
475.30	8542.96
475.48	8498.49
475.66	8685.73
475.84	8454.02
476.02	8753.60
476.20	8685.73
476.38	8910.42
476.56	8990.00
476.74	8868.29
476.92	8863.61
477.10	9071.92
477.28	9179.58
477.46	9008.72
477.64	9130.43
477.82	9252.14
478.00	9469.81
478.18	9460.45
478.36	9481.51
478.54	9607.90
478.72	9521.30
478.90	9554.07
479.08	9947.28
479.26	9844.29
479.44	9809.19
479.62	10153.24
479.80	10031.54
479.98	10017.49
480.16	10272.61
480.34	10326.44
480.52	10497.30
480.70	10560.50
480.88	10415.38
481.06	10246.87
481.24	10338.15
481.41	10574.54
481.59	10616.67
481.77	10696.25
481.95	10857.75
482.13	10963.07
482.31	11059.03
482.49	11176.06
482.67	11396.07
482.85	11250.96
483.03	11742.47
483.21	11400.75
483.39	11714.38
483.57	11775.24
483.74	11798.64
483.92	12070.14
484.10	11896.94
484.28	12016.31
484.46	12304.20
484.64	12250.36
484.82	12166.10
485.00	12608.47
485.18	12329.94
485.35	12650.60
485.53	12830.82
485.71	13036.78
485.89	12961.89
486.07	13055.51
486.25	13327.01
486.43	13231.05
486.61	13338.71
486.78	13355.10
486.96	13568.09
487.14	13635.96
487.32	13528.30
487.50	13776.39
487.68	14026.83
487.85	13809.16
488.03	14132.15
488.21	14459.83
488.39	14689.20
488.57	14544.09
488.75	14204.71
488.92	15054.33
489.10	15077.73
489.28	14644.73
489.46	15351.57
489.64	15082.41
489.81	15477.96
489.99	15550.52
490.17	15304.76
490.35	15686.27
490.53	15817.34
490.70	15943.73
490.88	15585.63
491.06	16180.12
491.24	15948.41
491.41	16238.64
491.59	16290.13
491.77	16580.36
491.95	16329.92
492.13	16404.81
492.30	16702.06
492.48	16540.57
492.66	16760.58
492.84	16800.37
493.01	17158.47
493.19	17025.06
493.37	17214.64
493.54	17081.23
493.72	17362.09
493.90	17607.85
494.08	17415.93
494.25	17750.62
494.43	17832.54
494.61	17797.43
494.79	18200.01
494.96	18050.21
495.14	17994.04
495.32	18384.91
495.49	18239.79
495.67	18464.49
495.85	18895.14
496.02	18429.38
496.20	18633.00
496.38	18972.38
496.55	18937.27
496.73	19030.90
496.91	19145.58
497.09	19541.13
497.26	19683.91
497.44	19384.32
497.62	19637.09
497.79	19789.23
497.97	19810.29
498.14	19742.42
498.32	20369.68
498.50	20189.46
498.67	20152.01
498.85	20088.82
499.03	20334.57
499.20	20243.29
499.38	20592.03
499.56	20627.14
499.73	20879.92
499.91	20664.59
500.08	21085.89
500.26	21050.78
500.44	20989.92
500.61	20847.15
500.79	20889.28
500.97	20996.95
501.14	21486.12
501.32	21504.84
501.49	21558.67
501.67	21177.17
501.84	21392.50
502.02	21776.34
502.20	22064.23
502.37	21867.63
502.55	21605.49
502.72	21846.56
502.90	21975.29
503.07	21771.66
503.25	21802.09
503.43	21806.77
503.60	22162.53
503.78	22171.89
503.95	22441.06
504.13	22429.35
504.30	22209.34
504.48	22511.27
504.65	22548.72
504.83	22689.15
505.01	23082.36
505.18	22785.12
505.36	23101.09
505.53	22654.05
505.71	23353.87
505.88	23199.39
506.06	22974.70
506.23	23438.12
506.41	23159.60
506.58	23672.18
506.76	23625.37
506.93	23372.59
507.11	23480.25
507.28	23531.75
507.46	23800.91
507.63	23943.68
507.81	23939.00
507.98	23768.14
508.16	24107.52
508.33	24074.75
508.50	24063.05
508.68	24610.73
508.85	24020.92
509.03	24589.67
509.20	24446.90
509.38	24772.23
509.55	25230.98
509.73	25015.65
509.90	25032.03
510.08	24685.63
510.25	24744.14
510.42	25298.85
510.60	25305.87
510.77	25308.21
510.95	25429.92
511.12	24989.90
511.30	25308.21
511.47	25378.43
511.64	25216.93
511.82	26003.35
511.99	25497.80
512.17	25766.96
512.34	25757.60
512.51	25441.62
512.69	26080.59
512.86	26129.74
513.04	26015.05
513.21	26314.64
513.38	25912.07
513.56	26576.78
513.73	26155.49
513.90	26206.98
514.08	26464.44
514.25	26607.21
514.43	26824.88
514.60	26712.53
514.77	26927.86
514.95	26960.63
515.12	26789.77
515.29	26827.22
515.47	27058.93
515.64	27129.15
515.81	27171.28
515.99	27211.07
516.16	27349.16
516.33	27484.91
516.51	27358.52
516.68	27316.39
516.85	27255.54
517.03	27637.05
517.20	27882.80
517.37	27789.18
517.54	27971.74
517.72	27737.69
517.89	27819.61
518.06	27784.50
518.24	28067.70
518.41	28048.98
518.58	28067.70
518.75	27810.25
518.93	28156.64
519.10	28226.86
519.27	28470.28
519.45	28189.41
519.62	28430.49
519.79	28226.86
519.96	28453.89
520.14	28533.47
520.31	28463.25
520.48	29125.63
520.65	28709.01
520.83	28835.40
521.00	28716.03
521.17	29144.35
521.34	28655.18
521.52	29254.36
521.69	29462.66
521.86	29425.22
522.03	28872.85
522.20	29343.30
522.38	29359.68
522.55	29596.07
522.72	29633.52
522.89	29563.31
523.07	30036.09
523.24	29780.98
523.41	30005.67
523.58	29694.38
523.75	30143.76
523.92	29919.07
524.10	29958.86
524.27	30190.57
524.44	30373.13
524.61	30239.72
524.78	30281.85
524.96	30263.13
525.13	30309.94
525.30	30572.08
525.47	30150.78
525.64	30171.85
525.81	30836.56
525.98	30625.91
526.16	30658.68
526.33	30558.03
526.50	30705.49
526.67	30494.84
526.84	30670.38
527.01	30862.30
527.18	30883.37
527.36	31161.89
527.53	30932.52
527.70	31426.37
527.87	31227.43
528.04	31543.40
528.21	31323.39
528.38	31079.97
528.55	31335.09
528.72	31494.25
528.89	31559.78
529.07	31447.44
529.24	31271.90
529.41	31896.82
529.58	31583.19
529.75	31477.86
529.92	31601.91
530.09	31775.11
530.26	31665.11
530.43	32058.32
530.60	31943.63
530.77	31676.81
530.94	31730.64
531.11	32009.17
531.28	32041.93
531.46	32285.35
531.63	31978.74
531.80	32098.11
531.97	32346.20
532.14	32240.88
532.31	32435.14
532.48	32297.05
532.65	32388.33
532.82	32479.61
532.99	32549.83
533.16	32212.79
533.33	32863.46
533.50	32975.81
533.67	32996.87
533.84	32453.87
534.01	33064.75
534.18	32615.37
534.35	33181.77
534.52	32985.17
534.69	33221.56
534.86	33376.04
535.03	33181.77
535.20	33099.86
535.37	33137.30
535.54	33179.43
535.71	32418.76
535.88	33153.69
536.05	33249.65
536.22	33706.05
536.38	33535.20
536.55	33497.75
536.72	33603.07
536.89	33448.60
537.06	33441.57
537.23	34174.16
537.40	33659.24
537.57	33191.14
537.74	33584.35
537.91	34440.98
538.08	34185.86
538.25	33607.75
538.42	34113.31
538.59	33893.30
538.75	33731.80
538.92	33464.98
539.09	34293.53
539.26	34113.31
539.43	34120.33
539.60	34513.54
539.77	34258.42
539.94	34735.89
540.11	34396.51
540.28	34841.21
540.44	34445.66
540.61	34450.35
540.78	34906.75
540.95	34918.45
541.12	34831.85
541.29	34471.41
541.46	35278.89
541.62	35000.37
541.79	35328.05
541.96	34590.78
542.13	34960.58
542.30	35201.66
542.47	35323.36
542.63	35445.07
542.80	35536.35
542.97	35662.74
543.14	35505.93
543.31	35676.79
543.48	34824.83
543.64	35737.64
543.81	35672.10
543.98	36065.31
544.15	35786.79
544.32	36100.42
544.48	36053.61
544.65	35716.58
544.82	35648.70
544.99	35651.04
545.16	35852.33
545.32	35985.74
545.49	36699.60
545.66	37160.69
545.83	37240.26
546.00	37003.87
546.16	36332.14
546.33	35945.95
546.50	35950.63
546.67	36072.34
546.83	35697.85
547.00	35744.66
547.17	36332.14
547.34	35695.51
547.50	36112.13
547.67	36662.15
547.84	36449.16
548.00	36479.59
548.17	36402.35
548.34	36201.07
548.51	36662.15
548.67	36715.98
548.84	36201.07
549.01	36238.51
549.18	36481.93
549.34	36620.02
549.51	36423.42
549.68	36432.78
549.84	36437.46
550.01	36643.43
550.18	36484.27
550.34	36243.20
550.51	36591.94
550.68	36741.73
550.84	36549.81
551.01	36706.62
551.18	36488.95
551.34	36301.71
551.51	36966.42
551.68	37214.52
551.84	36467.89
552.01	36521.72
552.18	36783.86
552.34	36931.31
552.51	37158.34
552.68	36545.12
552.84	36879.82
553.01	37401.76
553.18	37001.53
553.34	37392.40
553.51	36996.85
553.67	37380.70
553.84	37474.32
554.01	37567.94
554.17	37280.05
554.34	37017.91
554.51	37219.20
554.67	37745.82
554.84	37219.20
555.00	37254.31
555.17	37003.87
555.33	37581.98
555.50	37144.30
555.67	37193.45
555.83	36940.68
556.00	37258.99
556.16	37682.62
556.33	37008.55
556.50	37549.21
556.66	37731.78
556.83	37418.14
556.99	38237.33
557.16	37951.79
557.32	38054.77
557.49	37591.34
557.65	37378.36
557.82	37273.03
557.98	37741.14
558.15	37542.19
558.32	37687.31
558.48	37923.70
558.65	37652.20
558.81	37996.26
558.98	37675.60
559.14	37441.55
559.31	37214.52
559.47	37713.05
559.64	38185.84
559.80	38223.29
559.97	38204.56
560.13	37439.21
560.30	37846.46
560.46	37762.20
560.63	38157.75
560.79	37940.08
560.96	37940.08
561.12	38197.54
561.29	37993.92
561.45	37879.23
561.61	38022.00
561.78	38323.93
561.94	38211.59
562.11	38089.88
562.27	38122.65
562.44	38405.85
562.60	38036.05
562.77	37909.66
562.93	38195.20
563.10	38078.18
563.26	38436.28
563.42	38630.54
563.59	38251.38
563.75	38316.91
563.92	38333.29
564.08	38078.18
564.24	38010.30
564.41	37897.95
564.57	37902.64
564.74	38333.29
564.90	38316.91
565.07	38316.91
565.23	38628.20
565.39	38302.87
565.56	38190.52
565.72	38295.85
565.88	38258.40
566.05	38251.38
566.21	38490.11
566.38	38312.23
566.54	38288.82
566.70	38412.87
566.87	38595.43
567.03	38188.18
567.19	38904.38
567.36	38335.63
567.52	38256.06
567.68	38759.27
567.85	38326.27
568.01	38483.09
568.17	38401.17
568.34	38574.37
568.50	38279.46
568.66	38326.27
568.83	38731.18
568.99	38244.35
569.15	38352.02
569.32	38043.07
569.48	38361.38
569.64	38525.22
569.81	38455.00
569.97	38600.12
570.13	38319.25
570.30	38237.33
570.46	38869.28
570.62	38424.57
570.78	38122.65
570.95	38513.52
571.11	38724.16
571.27	38471.39
571.43	38553.30
571.60	38653.95
571.76	38696.08
571.92	38511.17
572.09	38543.94
572.25	38766.29
572.41	38883.32
572.57	38857.57
572.74	38766.29
572.90	38569.69
573.06	38209.25
573.22	38295.85
573.38	38752.25
573.55	39089.29
573.71	39023.75
573.87	39393.56
574.03	38946.51
574.20	38909.07
574.36	38440.96
574.52	38789.70
574.68	38543.94
574.84	38780.34
575.01	38700.76
575.17	38525.22
575.33	38499.47
575.49	38555.64
575.65	38888.00
575.82	39033.11
575.98	38815.44
576.14	39005.03
576.30	38761.61
576.46	38667.99
576.62	38749.91
576.79	39061.20
576.95	38576.71
577.11	39175.89
577.27	39189.93
577.43	38707.78
577.59	39161.84
577.75	38974.60
577.92	38630.54
578.08	38686.71
578.24	38630.54
578.40	38632.88
578.56	38752.25
578.72	39187.59
578.88	39154.82
579.04	39445.05
579.21	39133.76
579.37	38822.47
579.53	38883.32
579.69	38632.88
579.85	39021.41
580.01	39016.73
580.17	38930.13
580.33	38852.89
580.49	39028.43
580.65	38775.66
580.82	38857.57
580.98	39023.75
581.14	39124.40
581.30	38459.68
581.46	39145.46
581.62	38646.93
581.78	38595.43
581.94	39248.44
582.10	38656.29
582.26	38806.08
582.42	39185.25
582.58	39175.89
582.74	39253.12
582.90	38883.32
583.06	39133.76
583.22	39016.73
583.38	39152.48
583.54	39009.71
583.70	38555.64
583.86	38859.91
584.02	38529.90
584.18	39185.25
584.34	39508.24
584.50	39466.11
584.66	39189.93
584.82	39175.89
584.98	38810.76
585.14	39281.21
585.30	38532.24
585.46	38712.46
585.62	38768.63
585.78	39089.29
585.94	38302.87
586.10	39143.12
586.26	38810.76
586.42	39129.08
586.58	39164.18
586.74	39367.81
586.90	38948.85
587.06	38672.67
587.22	38794.38
587.38	38630.54
587.54	39175.89
587.70	39061.20
587.86	39016.73
588.02	38979.28
588.18	39690.80
588.34	39257.81
588.49	39159.50
588.65	39021.41
588.81	39208.65
588.97	39299.94
589.13	39063.54
589.29	39126.74
589.45	39136.10
589.61	39028.43
589.77	39269.51
589.93	39093.97
590.08	39119.71
590.24	39246.10
590.40	39239.08
590.56	39494.20
590.72	39051.84
590.88	39180.57
591.04	39367.81
591.20	39613.57
