SpectraSuite Data File
++++++++++++++++++++++++++++++++++++
Date: Fri Oct 04 11:40:01 GMT-05:00 2013
User: price-jones
Dark Spectrum Present: No
Reference Spectrum Present: No
Number of Sampled Component Spectra: 1
Spectrometers: USB2+H05261
Integration Time (usec): 100000 (USB2+H05261)
Spectra Averaged: 1 (USB2+H05261)
Boxcar Smoothing: 0 (USB2+H05261)
Correct for Electrical Dark: No (USB2+H05261)
Strobe/Lamp Enabled: No (USB2+H05261)
Correct for Detector Non-linearity: No (USB2+H05261)
Correct for Stray Light: No (USB2+H05261)
Number of Pixels in Processed Spectrum: 2048
>>>>>Begin Processed Spectral Data<<<<<
365.73	7.02
365.92	7.02
366.12	7.02
366.32	0.00
366.52	37.45
366.72	0.00
366.91	0.00
367.11	0.00
367.31	0.00
367.51	16.38
367.70	0.00
367.90	0.00
368.10	0.00
368.30	28.09
368.49	0.00
368.69	0.00
368.89	0.00
369.09	0.00
369.28	0.00
369.48	28.09
369.68	14.04
369.87	0.00
370.07	0.00
370.27	25.75
370.47	100.64
370.66	98.30
370.86	114.69
371.06	131.07
371.25	250.44
371.45	201.29
371.65	180.22
371.84	168.52
372.04	252.78
372.24	241.08
372.44	191.92
372.63	278.52
372.83	280.86
373.03	243.42
373.22	325.33
373.42	257.46
373.62	332.36
373.81	308.95
374.01	337.04
374.21	348.74
374.40	285.55
374.60	348.74
374.79	269.16
374.99	231.71
375.19	283.20
375.38	358.10
375.58	327.68
375.78	245.76
375.97	337.04
376.17	325.33
376.37	348.74
376.56	304.27
376.76	292.57
376.95	262.14
377.15	322.99
377.35	318.31
377.54	393.21
377.74	358.10
377.93	308.95
378.13	372.15
378.33	283.20
378.52	297.25
378.72	334.70
378.91	362.78
379.11	313.63
379.31	276.18
379.50	327.68
379.70	332.36
379.89	355.76
380.09	208.31
380.28	262.14
380.48	315.97
380.68	351.08
380.87	341.72
381.07	397.89
381.26	346.40
381.46	313.63
381.65	407.25
381.85	348.74
382.04	330.02
382.24	318.31
382.43	367.46
382.63	386.19
382.83	351.08
383.02	379.17
383.22	393.21
383.41	372.15
383.61	423.64
383.80	393.21
384.00	388.53
384.19	397.89
384.39	337.04
384.58	351.08
384.78	388.53
384.97	348.74
385.17	447.04
385.36	341.72
385.56	372.15
385.75	388.53
385.95	388.53
386.14	383.85
386.34	339.38
386.53	407.25
386.72	360.44
386.92	367.46
387.11	461.09
387.31	407.25
387.50	353.42
387.70	381.51
387.89	390.87
388.09	430.66
388.28	444.70
388.48	463.43
388.67	430.66
388.86	465.77
389.06	447.04
389.25	465.77
389.45	444.70
389.64	477.47
389.84	543.00
390.03	507.90
390.22	486.83
390.42	416.62
390.61	519.60
390.81	451.72
391.00	519.60
391.19	547.69
391.39	498.53
391.58	552.37
391.78	505.56
391.97	526.62
392.16	510.24
392.36	519.60
392.55	543.00
392.75	475.13
392.94	573.43
393.13	512.58
393.33	564.07
393.52	559.39
393.71	610.88
393.91	552.37
394.10	552.37
394.29	564.07
394.49	629.60
394.68	667.05
394.88	596.84
395.07	592.16
395.26	599.18
395.46	578.11
395.65	624.92
395.84	645.99
396.04	653.01
396.23	657.69
396.42	601.52
396.62	702.16
396.81	681.10
397.00	660.03
397.19	674.07
397.39	648.33
397.58	690.46
397.77	627.26
397.97	725.57
398.16	732.59
398.35	798.12
398.55	730.25
398.74	812.17
398.93	744.29
399.12	763.01
399.32	737.27
399.51	702.16
399.70	788.76
399.90	798.12
400.09	800.46
400.28	870.68
400.47	746.63
400.67	844.93
400.86	777.06
401.05	727.91
401.24	765.36
401.44	821.53
401.63	947.92
401.82	938.55
402.01	833.23
402.21	877.70
402.40	910.47
402.59	912.81
402.78	894.08
402.97	945.58
403.17	884.72
403.36	903.45
403.55	1034.52
403.74	971.32
403.93	1004.09
404.13	1093.03
404.32	1083.67
404.51	1069.62
404.70	1078.99
404.89	1081.33
405.09	1018.13
405.28	1081.33
405.47	1055.58
405.66	1095.37
405.85	1137.50
406.05	1107.07
406.24	1088.35
406.43	1081.33
406.62	1196.01
406.81	1210.06
407.00	1240.48
407.20	1067.28
407.39	1142.18
407.58	1170.27
407.77	1266.23
407.96	1282.61
408.15	1245.16
408.34	1210.06
408.54	1348.15
408.73	1310.70
408.92	1376.24
409.11	1425.39
409.30	1341.13
409.49	1359.85
409.68	1327.08
409.87	1355.17
410.07	1343.47
410.26	1425.39
410.45	1516.67
410.64	1544.75
410.83	1455.81
411.02	1469.86
411.21	1523.69
411.40	1479.22
411.59	1556.46
411.78	1509.65
411.98	1614.97
412.17	1617.31
412.36	1699.23
412.55	1605.61
412.74	1717.95
412.93	1722.63
413.12	1668.80
413.31	1678.16
413.50	1795.19
413.69	1764.76
413.88	1865.41
414.07	1832.64
414.26	1830.30
414.45	1891.15
414.64	1818.60
414.83	1874.77
415.02	1933.28
415.22	2031.58
415.41	2019.88
415.60	2083.08
415.79	1928.60
415.98	2176.70
416.17	2101.80
416.36	2073.71
416.55	2139.25
416.74	2108.82
416.93	2064.35
417.12	2155.63
417.31	2221.17
417.50	2214.15
417.69	2277.34
417.88	2296.07
418.07	2284.36
418.26	2237.55
418.45	2340.54
418.64	2263.30
418.83	2387.35
419.02	2333.51
419.21	2394.37
419.39	2417.77
419.58	2300.75
419.77	2277.34
419.96	2464.58
420.15	2495.01
420.34	2422.45
420.53	2495.01
420.72	2459.90
420.91	2616.72
421.10	2438.84
421.29	2541.82
421.48	2511.39
421.67	2597.99
421.86	2450.54
422.05	2644.81
422.24	2630.76
422.43	2612.04
422.61	2553.52
422.80	2637.78
422.99	2740.77
423.18	2710.34
423.37	2733.75
423.56	2616.72
423.75	2647.15
423.94	2612.04
424.13	2619.06
424.32	2619.06
424.50	2651.83
424.69	2825.03
424.88	2724.38
425.07	2719.70
425.26	2740.77
425.45	2675.23
425.64	2841.41
425.83	2771.19
426.01	2818.00
426.20	2696.30
426.39	2827.37
426.58	2609.70
426.77	2860.13
426.96	2820.35
427.15	2822.69
427.33	2986.52
427.52	2867.16
427.71	2794.60
427.90	2928.01
428.09	2944.39
428.28	2841.41
428.46	2932.69
428.65	3005.25
428.84	2977.16
429.03	3049.72
429.22	3009.93
429.40	3005.25
429.59	3082.49
429.78	2981.84
429.97	2876.52
430.16	3014.61
430.34	3066.10
430.53	3166.74
430.72	3082.49
430.91	3075.46
431.10	3033.33
431.28	3302.50
431.47	3143.34
431.66	3300.16
431.85	3192.49
432.03	3131.64
432.22	3342.28
432.41	3218.24
432.60	3258.03
432.79	3225.26
432.97	3241.64
433.16	3332.92
433.35	3258.03
433.54	3255.69
433.72	3461.65
433.91	3410.16
434.10	3440.59
434.28	3417.18
434.47	3412.50
434.66	3370.37
434.85	3520.17
435.03	3550.59
435.22	3775.28
435.41	4030.40
435.59	3957.85
435.78	3847.84
435.97	3777.62
436.16	3487.40
436.34	3630.17
436.53	3527.19
436.72	3627.83
436.90	3576.34
437.09	3688.68
437.28	3688.68
437.46	3705.07
437.65	3845.50
437.84	3662.94
438.02	3604.42
438.21	3789.33
438.40	3777.62
438.58	3936.78
438.77	3847.84
438.96	3896.99
439.14	3913.38
439.33	3915.72
439.52	4039.76
439.70	3775.28
439.89	3971.89
440.08	3974.23
440.26	4028.06
440.45	4037.42
440.63	4053.81
440.82	4198.92
441.01	4124.02
441.19	4196.58
441.38	4358.08
441.57	4196.58
441.75	4290.20
441.94	4294.88
442.12	4374.46
442.31	4428.29
442.50	4472.76
442.68	4444.68
442.87	4475.10
443.05	4407.23
443.24	4594.47
443.43	4486.81
443.61	4557.02
443.80	4723.20
443.98	4423.61
444.17	4503.19
444.35	4578.09
444.54	4727.88
444.73	4582.77
444.91	4528.94
445.10	4596.81
445.28	4636.60
445.47	4627.24
445.65	4723.20
445.84	4774.69
446.02	4697.46
446.21	4578.09
446.39	4676.39
446.58	4650.64
446.77	4821.50
446.95	4552.34
447.14	4669.37
447.32	4823.84
447.51	4571.07
447.69	4648.30
447.88	4767.67
448.06	4788.74
448.25	4608.51
448.43	4674.05
448.62	4655.33
448.80	4755.97
448.99	4821.50
449.17	4709.16
449.36	4617.88
449.54	4870.65
449.73	4940.87
449.91	4931.51
450.10	4861.29
450.28	5095.35
450.46	5046.20
450.65	5097.69
450.83	4990.02
451.02	4952.57
451.20	5146.84
451.39	5163.22
451.57	5039.17
451.76	4959.60
451.94	5146.84
452.13	5191.31
452.31	5240.46
452.49	4992.36
452.68	5160.88
452.86	5282.59
453.05	5308.34
453.23	5240.46
453.42	5245.14
453.60	5184.29
453.78	5465.15
453.97	5322.38
454.15	5291.95
454.34	5212.37
454.52	5270.89
454.70	5392.59
454.89	5291.95
455.07	5394.93
455.26	5416.00
455.44	5467.49
455.62	5556.43
455.81	5458.13
455.99	5453.45
456.17	5535.37
456.36	5650.05
456.54	5643.03
456.73	5579.84
456.91	5692.18
457.09	5741.33
457.28	5926.24
457.46	5727.29
457.64	6052.63
457.83	5893.47
458.01	5738.99
458.19	5914.53
458.38	5820.91
458.56	5900.49
458.74	5987.09
458.93	5902.83
459.11	5930.92
459.29	5902.83
459.48	5996.45
459.66	5968.37
459.84	6101.78
460.03	6153.27
460.21	6071.35
460.39	6129.86
460.57	6069.01
460.76	6008.16
460.94	6026.88
461.12	6097.10
461.31	6097.10
461.49	6036.24
461.67	6232.85
461.85	6155.61
462.04	6230.51
462.22	6612.01
462.40	6441.15
462.59	6303.06
462.77	6314.77
462.95	6420.09
463.13	6314.77
463.32	6478.60
463.50	6424.77
463.68	6380.30
463.86	6462.22
464.05	6366.26
464.23	6354.55
464.41	6420.09
464.59	6380.30
464.78	6635.42
464.96	6647.12
465.14	6626.06
465.32	6490.31
465.50	6729.04
465.69	6696.27
465.87	6628.40
466.05	6658.82
466.23	6700.95
466.41	6670.53
466.60	6771.17
466.78	6633.08
466.96	6693.93
467.14	6640.10
467.32	6710.32
467.51	6834.36
467.69	6595.63
467.87	6801.60
468.05	6895.22
468.23	6614.35
468.41	6951.39
468.60	6803.94
468.78	7033.31
468.96	7035.65
469.14	6998.20
469.32	6832.02
469.50	6981.82
469.69	7204.17
469.87	7300.13
470.05	7190.13
470.23	7166.72
470.41	7162.04
470.59	7248.64
470.77	7232.26
470.95	7281.41
471.14	7379.71
471.32	7419.50
471.50	7323.54
471.68	7351.62
471.86	7592.70
472.04	7475.67
472.22	7665.25
472.40	7349.28
472.58	7772.92
472.77	7585.68
472.95	7538.87
473.13	7915.69
473.31	7676.96
473.49	7672.28
473.67	7754.19
473.85	7861.86
474.03	7946.12
474.21	7850.16
474.39	7992.93
474.57	8147.40
474.75	7962.50
474.93	8212.94
475.12	8084.21
475.30	8140.38
475.48	7967.18
475.66	8088.89
475.84	8184.85
476.02	8486.78
476.20	8402.52
476.38	8650.62
476.56	8762.97
476.74	8765.31
476.92	8624.87
477.10	8676.37
477.28	8713.81
477.46	8692.75
477.64	8868.29
477.82	8940.85
478.00	9055.53
478.18	9022.77
478.36	9247.46
478.54	9188.94
478.72	9444.06
478.90	9397.25
479.08	9380.87
479.26	9640.67
479.44	9411.29
479.62	9596.20
479.80	9668.75
479.98	9640.67
480.16	9916.85
480.34	9853.66
480.52	10207.08
480.70	10076.01
480.88	9668.75
481.06	10167.29
481.24	10040.90
481.41	10349.85
481.59	10691.57
481.77	10375.59
481.95	10420.06
482.13	10897.53
482.31	10630.71
482.49	10829.66
482.67	10815.62
482.85	11178.40
483.03	11145.63
483.21	11009.88
483.39	11569.27
483.57	11218.19
483.74	11417.13
483.92	11550.54
484.10	11531.82
484.28	11709.70
484.46	11974.18
484.64	12210.57
484.82	11716.72
485.00	12081.85
485.18	12341.64
485.35	12360.37
485.53	11978.86
485.71	12355.69
485.89	12416.54
486.07	12636.55
486.25	12568.68
486.43	12648.26
486.61	12727.83
486.78	13060.19
486.96	13275.52
487.14	13355.10
487.32	12910.40
487.50	13359.78
487.68	13355.10
487.85	13657.03
488.03	13937.89
488.21	14141.52
488.39	13813.84
488.57	13935.55
488.75	14193.01
488.92	14567.49
489.10	14281.95
489.28	14071.30
489.46	14710.27
489.64	14597.92
489.81	14864.74
489.99	15063.69
490.17	14752.40
490.35	15187.74
490.53	15384.34
490.70	15513.07
490.88	15143.27
491.06	15510.73
491.24	15424.13
491.41	15669.89
491.59	15765.85
491.77	15772.87
491.95	15845.43
492.13	15880.53
492.30	16105.23
492.48	15913.30
492.66	16135.65
492.84	16222.25
493.01	16521.84
493.19	16549.93
493.37	16561.63
493.54	16428.22
493.72	16725.47
493.90	16807.39
494.08	16945.48
494.25	17343.37
494.43	17500.19
494.61	17214.64
494.79	17172.51
494.96	17280.18
495.14	17460.40
495.32	17776.37
495.49	17710.83
495.67	17853.61
495.85	18068.94
496.02	18120.43
496.20	18216.39
496.38	18480.87
496.55	18602.58
496.73	18630.66
496.91	18368.52
497.09	18703.22
497.26	18567.47
497.44	18693.86
497.62	18913.87
497.79	19096.43
497.97	18775.78
498.14	19161.97
498.32	19110.47
498.50	19356.23
498.67	19522.41
498.85	19482.62
499.03	19543.47
499.20	19374.95
499.38	19632.41
499.56	19541.13
499.73	20123.93
499.91	19943.70
500.08	20123.93
500.26	19885.19
500.44	20060.73
500.61	20266.70
500.79	20372.02
500.97	20407.13
501.14	20828.43
501.32	20535.86
501.49	20636.50
501.67	20514.80
501.84	20737.15
502.02	20891.62
502.20	20957.16
502.37	21128.02
502.55	21170.15
502.72	21245.04
502.90	21111.63
503.07	20950.14
503.25	21319.94
503.43	21298.88
503.60	21565.70
503.78	21338.66
503.95	21532.93
504.13	21771.66
504.30	21675.70
504.48	21954.22
504.65	21673.36
504.83	22071.25
505.01	22148.49
505.18	22216.36
505.36	22382.54
505.53	22094.66
505.71	22162.53
505.88	22349.78
506.06	22438.72
506.23	22576.81
506.41	22679.79
506.58	22586.17
506.76	22471.48
506.93	22590.85
507.11	22661.07
507.28	22527.66
507.46	22944.27
507.63	23285.99
507.81	23503.66
507.98	23117.47
508.16	23506.00
508.33	23171.30
508.50	23459.19
508.68	23321.10
508.85	23571.54
509.03	23384.29
509.20	23239.18
509.38	24247.95
509.55	24013.90
509.73	24112.20
509.90	24018.58
510.08	24217.52
510.25	24142.63
510.42	24252.63
510.60	24334.55
510.77	24208.16
510.95	24414.13
511.12	23943.68
511.30	24367.32
511.47	24442.21
511.64	24676.27
511.82	24847.13
511.99	24863.51
512.17	24945.43
512.34	24907.98
512.51	25170.12
512.69	25322.26
512.86	25170.12
513.04	25092.88
513.21	25446.30
513.38	25486.09
513.56	25465.03
513.73	24987.56
513.90	25450.99
514.08	25696.74
514.25	25621.84
514.43	25689.72
514.60	25745.89
514.77	25603.12
514.95	25947.18
515.12	25979.95
515.29	26010.37
515.47	26103.99
515.64	26235.06
515.81	26199.96
515.99	26338.05
516.16	26338.05
516.33	26305.28
516.51	26448.05
516.68	26583.80
516.85	26331.03
517.03	26417.63
517.20	27089.36
517.37	26864.67
517.54	27047.23
517.72	26658.70
517.89	26728.92
518.06	26864.67
518.24	27054.25
518.41	27030.85
518.58	26939.57
518.75	27138.51
518.93	27688.54
519.10	27201.71
519.27	27393.63
519.45	27363.20
519.62	27817.27
519.79	27377.25
519.96	27618.32
520.14	27871.10
520.31	27803.22
520.48	27789.18
520.65	27470.87
520.83	27936.63
521.00	27995.15
521.17	28114.52
521.34	27971.74
521.52	28121.54
521.69	27992.81
521.86	28294.74
522.03	28355.59
522.20	28521.77
522.38	28135.58
522.55	28863.49
522.72	28400.06
522.89	28596.67
523.07	28933.70
523.24	28755.82
523.41	28849.44
523.58	28701.99
523.75	28744.12
523.92	28821.36
524.10	29078.82
524.27	28748.80
524.44	29186.48
524.61	29806.72
524.78	29448.62
524.96	29116.26
525.13	29532.88
525.30	29546.92
525.47	29457.98
525.64	29575.01
525.81	29406.49
525.98	30162.48
526.16	29860.55
526.33	29511.81
526.50	29986.94
526.67	29390.11
526.84	29755.23
527.01	29734.17
527.18	30059.50
527.36	29778.64
527.53	29802.04
527.70	30099.29
527.87	30555.69
528.04	30075.88
528.21	30178.87
528.38	30080.56
528.55	30485.48
528.72	30485.48
528.89	30565.06
529.07	30733.57
529.24	30408.24
529.41	30604.84
529.58	30232.70
529.75	30426.96
529.92	30895.07
530.09	30958.27
530.26	30663.36
530.43	30806.13
530.60	30391.86
530.77	30714.85
530.94	30913.80
531.11	31096.36
531.28	31150.19
531.46	31019.12
531.63	31438.08
531.80	30827.20
531.97	31236.79
532.14	31365.52
532.31	31108.06
532.48	31559.78
532.65	31721.28
532.82	31264.88
532.99	31536.38
533.16	31543.40
533.33	31922.57
533.50	32315.78
533.67	31779.79
533.84	31037.84
534.01	31255.51
534.18	31309.35
534.35	31981.08
534.52	31653.40
534.69	32105.13
534.86	32233.86
535.03	31945.97
535.20	32100.45
535.37	32016.19
535.54	32299.39
535.71	32109.81
535.88	32128.53
536.05	32142.58
536.22	32442.17
536.38	32254.92
536.55	32297.05
536.72	32400.04
536.89	32409.40
537.06	32196.41
537.23	32573.24
537.40	32355.57
537.57	32563.87
537.74	32900.91
537.91	33235.61
538.08	33275.40
538.25	33013.26
538.42	32669.20
538.59	33099.86
538.75	32723.03
538.92	33043.68
539.09	33401.79
539.26	33099.86
539.43	33195.82
539.60	33165.39
539.77	33046.02
539.94	33109.22
540.11	33336.25
540.28	33621.80
540.44	33434.55
540.61	33364.34
540.78	33701.37
540.95	33930.75
541.12	33586.69
541.29	33696.69
541.46	33968.19
541.62	33586.69
541.79	33883.94
541.96	33851.17
542.13	33565.62
542.30	34110.97
542.47	34127.35
542.63	34019.69
542.80	34326.30
542.97	34485.45
543.14	34125.01
543.31	34448.00
543.48	34445.66
543.64	34642.27
543.81	34618.86
543.98	34321.62
544.15	34586.10
544.32	34691.42
544.48	34761.64
544.65	34625.89
544.82	34653.97
544.99	34319.28
545.16	34274.80
545.32	34532.26
545.49	35601.89
545.66	35709.55
545.83	35920.20
546.00	35847.64
546.16	35306.98
546.33	34717.17
546.50	34176.50
546.67	34913.77
546.83	34778.02
547.00	34656.31
547.17	35260.17
547.34	34822.49
547.50	35164.21
547.67	35676.79
547.84	34637.59
548.00	34951.22
548.17	35470.82
548.34	34873.98
548.51	35419.33
548.67	35257.83
548.84	35358.47
549.01	35236.77
549.18	35220.38
549.34	35309.32
549.51	34806.11
549.68	35283.58
549.84	35491.88
550.01	35882.75
550.18	35091.65
550.34	35529.33
550.51	35718.92
550.68	35721.26
550.84	35505.93
551.01	35819.56
551.18	35295.28
551.34	35613.59
551.51	35515.29
551.68	35346.77
551.84	35498.91
552.01	35686.15
552.18	35653.38
552.34	35660.40
552.51	35424.01
552.68	35335.07
552.84	35318.68
553.01	35356.13
553.18	35906.16
553.34	35634.66
553.51	36121.49
553.67	35978.72
553.84	36297.03
554.01	36105.10
554.17	36112.13
554.34	35852.33
554.51	35854.67
554.67	35854.67
554.84	36196.38
555.00	35922.54
555.17	36407.03
555.33	36278.30
555.50	35812.54
555.67	35927.22
555.83	35716.58
556.00	36053.61
556.16	36521.72
556.33	36526.40
556.50	36102.76
556.66	36290.01
556.83	36524.06
556.99	36226.81
557.16	36662.15
557.32	36435.12
557.49	36631.72
557.65	36318.09
557.82	36463.21
557.98	36500.65
558.15	36573.21
558.32	36451.50
558.48	36140.21
558.65	36781.52
558.81	36407.03
558.98	36114.47
559.14	36519.38
559.31	36467.89
559.47	36425.76
559.64	36435.12
559.80	36627.04
559.97	36708.96
560.13	36657.47
560.30	37088.13
560.46	36701.94
560.63	36748.75
560.79	36659.81
560.96	36741.73
561.12	36247.88
561.29	36868.12
561.45	37172.39
561.61	36854.08
561.78	36748.75
561.94	36690.24
562.11	36790.88
562.27	36594.28
562.44	36779.18
562.60	36795.56
562.77	36966.42
562.93	36783.86
563.10	37242.60
563.26	36818.97
563.42	37102.17
563.59	36910.25
563.75	36538.10
563.92	37074.09
564.08	36715.98
564.24	37064.72
564.41	36767.48
564.57	36634.06
564.74	36975.78
564.90	36999.19
565.07	37251.97
565.23	37095.15
565.39	37340.91
565.56	37057.70
565.72	36662.15
565.88	36669.17
566.05	36669.17
566.21	36762.79
566.38	37249.63
566.54	37097.49
566.70	37235.58
566.87	37574.96
567.03	37013.23
567.19	37553.90
567.36	37095.15
567.52	37193.45
567.68	37376.01
567.85	37024.93
568.01	37544.53
568.17	37172.39
568.34	37607.73
568.50	37254.31
568.66	37439.21
568.83	37216.86
568.99	37069.40
569.15	37315.16
569.32	36985.15
569.48	36968.76
569.64	37249.63
569.81	37181.75
569.97	37277.71
570.13	37383.04
570.30	37373.67
570.46	37596.03
570.62	37376.01
570.78	36769.82
570.95	37067.06
571.11	37008.55
571.27	37038.98
571.43	37338.57
571.60	37324.52
571.76	37235.58
571.92	37301.12
572.09	37392.40
572.25	37591.34
572.41	37418.14
572.57	37090.47
572.74	37315.16
572.90	37373.67
573.06	37734.12
573.22	37156.00
573.38	37202.82
573.55	37647.52
573.71	36964.08
573.87	37640.50
574.03	37518.79
574.20	37198.13
574.36	37151.32
574.52	37324.52
574.68	36935.99
574.84	37013.23
575.01	37500.06
575.17	37317.50
575.33	37188.77
575.49	37476.66
575.65	37434.53
575.82	37724.75
575.98	37048.34
576.14	37560.92
576.30	37741.14
576.46	37394.74
576.62	37024.93
576.79	37457.93
576.95	37303.46
577.11	37755.18
577.27	37724.75
577.43	37851.14
577.59	37607.73
577.75	37539.85
577.92	37436.87
578.08	37146.64
578.24	37015.57
578.40	37125.58
578.56	37357.29
578.72	37408.78
578.88	37776.25
579.04	37912.00
579.21	37525.81
579.37	37479.00
579.53	38012.64
579.69	37343.25
579.85	37148.98
580.01	37567.94
580.17	37420.48
580.33	37163.03
580.49	37813.70
580.65	37418.14
580.82	37993.92
580.98	37762.20
581.14	37818.38
581.30	37565.60
581.46	37366.65
581.62	37195.79
581.78	37067.06
581.94	37500.06
582.10	37228.56
582.26	37324.52
582.42	37930.72
582.58	37464.96
582.74	37607.73
582.90	37972.85
583.06	37455.59
583.22	37537.51
583.38	37586.66
583.54	37811.35
583.70	37408.78
583.86	37308.14
584.02	37617.09
584.18	37689.65
584.34	37748.16
584.50	37696.67
584.66	37804.33
584.82	37163.03
584.98	37937.74
585.14	37474.32
585.30	37535.17
585.46	37886.25
585.62	37804.33
585.78	37727.10
585.94	37354.95
586.10	37530.49
586.26	37476.66
586.42	37556.24
586.58	37841.78
586.74	37666.24
586.90	37368.99
587.06	37806.67
587.22	37888.59
587.38	37551.56
587.54	37916.68
587.70	37532.83
587.86	37919.02
588.02	37752.84
588.18	38029.02
588.34	37907.32
588.49	37577.30
588.65	37560.92
588.81	37507.08
588.97	37546.87
589.13	37249.63
589.29	37755.18
589.45	37652.20
589.61	37977.53
589.77	38050.09
589.93	38003.28
590.08	37869.87
590.24	37916.68
590.40	37862.85
590.56	37944.76
590.72	37563.26
590.88	37701.35
591.04	37757.52
591.20	38298.19
591.35	38047.75
