SpectraSuite Data File
++++++++++++++++++++++++++++++++++++
Date: Fri Oct 04 11:39:30 GMT-05:00 2013
User: price-jones
Dark Spectrum Present: No
Reference Spectrum Present: No
Number of Sampled Component Spectra: 1
Spectrometers: USB2+H05261
Integration Time (usec): 100000 (USB2+H05261)
Spectra Averaged: 1 (USB2+H05261)
Boxcar Smoothing: 0 (USB2+H05261)
Correct for Electrical Dark: No (USB2+H05261)
Strobe/Lamp Enabled: No (USB2+H05261)
Correct for Detector Non-linearity: No (USB2+H05261)
Correct for Stray Light: No (USB2+H05261)
Number of Pixels in Processed Spectrum: 2048
>>>>>Begin Processed Spectral Data<<<<<
365.73	133.41
365.92	133.41
366.12	133.41
366.32	0.00
366.52	21.06
366.72	0.00
366.91	0.00
367.11	0.00
367.31	0.00
367.51	0.00
367.70	0.00
367.90	7.02
368.10	0.00
368.30	0.00
368.49	0.00
368.69	0.00
368.89	30.43
369.09	0.00
369.28	0.00
369.48	0.00
369.68	14.04
369.87	0.00
370.07	0.00
370.27	30.43
370.47	93.62
370.66	100.64
370.86	166.18
371.06	215.33
371.25	245.76
371.45	86.60
371.65	170.86
371.84	98.30
372.04	95.96
372.24	152.13
372.44	112.35
372.63	117.03
372.83	203.63
373.03	180.22
373.22	208.31
373.42	154.48
373.62	154.48
373.81	156.82
374.01	203.63
374.21	182.56
374.40	161.50
374.60	124.05
374.79	159.16
374.99	217.67
375.19	294.91
375.38	149.79
375.58	217.67
375.78	159.16
375.97	205.97
376.17	234.05
376.37	191.92
376.56	245.76
376.76	93.62
376.95	163.84
377.15	142.77
377.35	220.01
377.54	205.97
377.74	196.60
377.93	215.33
378.13	191.92
378.33	198.95
378.52	189.58
378.72	180.22
378.91	224.69
379.11	163.84
379.31	208.31
379.50	229.37
379.70	166.18
379.89	191.92
380.09	196.60
380.28	278.52
380.48	245.76
380.68	259.80
380.87	107.66
381.07	159.16
381.26	248.10
381.46	161.50
381.65	231.71
381.85	180.22
382.04	238.73
382.24	252.78
382.43	133.41
382.63	168.52
382.83	234.05
383.02	269.16
383.22	306.61
383.41	257.46
383.61	191.92
383.80	198.95
384.00	234.05
384.19	248.10
384.39	227.03
384.58	243.42
384.78	243.42
384.97	210.65
385.17	154.48
385.36	220.01
385.56	224.69
385.75	212.99
385.95	215.33
386.14	229.37
386.34	215.33
386.53	222.35
386.72	203.63
386.92	278.52
387.11	276.18
387.31	166.18
387.50	276.18
387.70	173.20
387.89	159.16
388.09	290.23
388.28	306.61
388.48	278.52
388.67	245.76
388.86	283.20
389.06	203.63
389.25	280.86
389.45	280.86
389.64	222.35
389.84	271.50
390.03	266.82
390.22	287.89
390.42	241.08
390.61	283.20
390.81	248.10
391.00	271.50
391.19	278.52
391.39	304.27
391.58	252.78
391.78	257.46
391.97	248.10
392.16	264.48
392.36	346.40
392.55	332.36
392.75	318.31
392.94	264.48
393.13	280.86
393.33	292.57
393.52	369.80
393.71	313.63
393.91	308.95
394.10	283.20
394.29	292.57
394.49	362.78
394.68	407.25
394.88	360.44
395.07	262.14
395.26	383.85
395.46	409.59
395.65	360.44
395.84	255.12
396.04	395.55
396.23	322.99
396.42	290.23
396.62	353.42
396.81	397.89
397.00	390.87
397.19	367.46
397.39	390.87
397.58	395.55
397.77	369.80
397.97	409.59
398.16	376.83
398.35	353.42
398.55	365.12
398.74	369.80
398.93	482.15
399.12	449.38
399.32	479.81
399.51	489.17
399.70	428.32
399.90	442.36
400.09	463.43
400.28	470.45
400.47	470.45
400.67	493.85
400.86	447.04
401.05	526.62
401.24	437.68
401.44	552.37
401.63	519.60
401.82	514.92
402.01	475.13
402.21	507.90
402.40	496.19
402.59	484.49
402.78	543.00
402.97	554.71
403.17	601.52
403.36	514.92
403.55	592.16
403.74	533.64
403.93	578.11
404.13	648.33
404.32	512.58
404.51	643.65
404.70	653.01
404.89	655.35
405.09	617.90
405.28	599.18
405.47	620.24
405.66	697.48
405.85	669.39
406.05	713.86
406.24	723.23
406.43	681.10
406.62	753.65
406.81	690.46
407.00	753.65
407.20	725.57
407.39	751.31
407.58	662.37
407.77	716.20
407.96	847.27
408.15	887.06
408.34	800.46
408.54	725.57
408.73	844.93
408.92	882.38
409.11	861.32
409.30	791.10
409.49	917.49
409.68	926.85
409.87	816.85
410.07	898.77
410.26	968.98
410.45	929.19
410.64	1001.75
410.83	964.30
411.02	961.96
411.21	992.39
411.40	1036.86
411.59	1118.78
411.78	1116.44
411.98	971.32
412.17	1067.28
412.36	1039.20
412.55	1107.07
412.74	1125.80
412.93	1109.41
413.12	1100.05
413.31	1191.33
413.50	1111.75
413.69	1196.01
413.88	1282.61
414.07	1146.86
414.26	1233.46
414.45	1224.10
414.64	1291.98
414.83	1268.57
415.02	1259.21
415.22	1315.38
415.41	1390.28
415.60	1231.12
415.79	1364.53
415.98	1448.79
416.17	1439.43
416.36	1369.21
416.55	1511.99
416.74	1469.86
416.93	1390.28
417.12	1432.41
417.31	1558.80
417.50	1474.54
417.69	1488.58
417.88	1533.05
418.07	1465.18
418.26	1554.12
418.45	1521.35
418.64	1596.25
418.83	1631.35
419.02	1523.69
419.21	1584.54
419.39	1661.78
419.58	1675.82
419.77	1577.52
419.96	1605.61
420.15	1675.82
420.34	1673.48
420.53	1661.78
420.72	1760.08
420.91	1764.76
421.10	1764.76
421.29	1748.38
421.48	1685.19
421.67	1846.68
421.86	1743.70
422.05	1806.89
422.24	1797.53
422.43	1792.85
422.61	1753.06
422.80	1729.66
422.99	1816.26
423.18	1898.17
423.37	1926.26
423.56	1928.60
423.75	1898.17
423.94	1872.43
424.13	1776.47
424.32	1792.85
424.50	1895.83
424.69	1905.20
424.88	2003.50
425.07	1853.70
425.26	1837.32
425.45	1970.73
425.64	1823.28
425.83	1898.17
426.01	1912.22
426.20	1895.83
426.39	1898.17
426.58	1987.11
426.77	1944.99
426.96	1947.33
427.15	1933.28
427.33	1947.33
427.52	1937.96
427.71	2073.71
427.90	2026.90
428.09	2043.29
428.28	1980.09
428.46	2094.78
428.65	1935.62
428.84	2246.91
429.03	2052.65
429.22	2036.27
429.40	2054.99
429.59	2101.80
429.78	2052.65
429.97	2026.90
430.16	2029.24
430.34	2094.78
430.53	2176.70
430.72	2256.28
430.91	2193.08
431.10	2092.44
431.28	2172.02
431.47	2244.57
431.66	2202.44
431.85	2115.84
432.03	2244.57
432.22	2303.09
432.41	2319.47
432.60	2321.81
432.79	2293.72
432.97	2361.60
433.16	2265.64
433.35	2321.81
433.54	2375.64
433.72	2235.21
433.91	2335.85
434.10	2387.35
434.28	2253.94
434.47	2380.32
434.66	2307.77
434.85	2448.20
435.03	2485.65
435.22	2457.56
435.41	2862.48
435.59	2789.92
435.78	2668.21
435.97	2619.06
436.16	2656.51
436.34	2441.18
436.53	2499.69
436.72	2602.68
436.90	2452.88
437.09	2602.68
437.28	2581.61
437.46	2452.88
437.65	2464.58
437.84	2635.44
438.02	2546.50
438.21	2602.68
438.40	2544.16
438.58	2696.30
438.77	2642.46
438.96	2724.38
439.14	2733.75
439.33	2691.62
439.52	2677.57
439.70	2710.34
439.89	2771.19
440.08	2829.71
440.26	2703.32
440.45	2806.30
440.63	2794.60
440.82	2869.50
441.01	3056.74
441.19	2906.95
441.38	3028.65
441.57	2953.76
441.75	3066.10
441.94	3077.80
442.12	2949.08
442.31	3084.83
442.50	3019.29
442.68	2988.86
442.87	3112.91
443.05	3136.32
443.24	3042.70
443.43	3290.79
443.61	3159.72
443.80	3229.94
443.98	3098.87
444.17	3002.91
444.35	3225.26
444.54	3222.92
444.73	3129.30
444.91	3349.31
445.10	3141.00
445.28	3148.02
445.47	3190.15
445.65	3171.43
445.84	3061.42
446.02	3300.16
446.21	3190.15
446.39	3269.73
446.58	3208.87
446.77	3225.26
446.95	3400.80
447.14	3112.91
447.32	3309.52
447.51	3276.75
447.69	3220.58
447.88	3084.83
448.06	3363.35
448.25	3335.26
448.43	3248.66
448.62	3243.98
448.80	3279.09
448.99	3300.16
449.17	3258.03
449.36	3190.15
449.54	3410.16
449.73	3405.48
449.91	3428.88
450.10	3426.54
450.28	3571.66
450.46	3342.28
450.65	3349.31
450.83	3529.53
451.02	3522.51
451.20	3534.21
451.39	3496.76
451.57	3517.83
451.76	3442.93
451.94	3531.87
452.13	3559.95
452.31	3618.47
452.49	3576.34
452.68	3585.70
452.86	3569.32
453.05	3632.51
453.23	3597.40
453.42	3517.83
453.60	3644.21
453.78	3576.34
453.97	3508.46
454.15	3775.28
454.34	3595.06
454.52	3712.09
454.70	3669.96
454.89	3688.68
455.07	3702.73
455.26	3740.18
455.44	3812.73
455.62	3791.67
455.81	3728.47
455.99	3801.03
456.17	3901.67
456.36	3854.86
456.54	3873.59
456.73	3868.91
456.91	3920.40
457.09	3962.53
457.28	4128.70
457.46	3892.31
457.64	4095.94
457.83	3967.21
458.01	4018.70
458.19	4152.11
458.38	3908.69
458.56	4159.13
458.74	4140.41
458.93	4077.21
459.11	4095.94
459.29	4084.23
459.48	4105.30
459.66	4060.83
459.84	4070.19
460.03	4407.23
460.21	4264.46
460.39	4189.56
460.57	4023.38
460.76	4074.87
460.94	4248.07
461.12	4229.35
461.31	4297.22
461.49	4152.11
461.67	4227.01
461.85	4327.65
462.04	4432.97
462.22	4514.89
462.40	4430.63
462.59	4423.61
462.77	4353.40
462.95	4550.00
463.13	4365.10
463.32	4327.65
463.50	4482.13
463.68	4430.63
463.86	4367.44
464.05	4278.50
464.23	4468.08
464.41	4454.04
464.59	4531.28
464.78	4482.13
464.96	4379.14
465.14	4348.72
465.32	4542.98
465.50	4648.30
465.69	4535.96
465.87	4423.61
466.05	4533.62
466.23	4489.15
466.41	4535.96
466.60	4851.93
466.78	4540.64
466.96	4599.15
467.14	4617.88
467.32	4713.84
467.51	4711.50
467.69	4550.00
467.87	4748.95
468.05	4638.94
468.23	4748.95
468.41	4674.05
468.60	4762.99
468.78	4784.06
468.96	4716.18
469.14	4847.25
469.32	5008.75
469.50	4833.21
469.69	4908.10
469.87	4933.85
470.05	4966.62
470.23	4964.28
470.41	4901.08
470.59	5027.47
470.77	5097.69
470.95	5011.09
471.14	5130.45
471.32	4931.51
471.50	5277.91
471.68	5109.39
471.86	5151.52
472.04	5104.71
472.22	5294.29
472.40	5233.44
472.58	5303.65
472.77	5334.08
472.95	5355.15
473.13	5528.35
473.31	5200.67
473.49	5181.95
473.67	5252.16
473.85	5334.08
474.03	5596.22
474.21	5479.19
474.39	5465.15
474.57	5383.23
474.75	5696.86
474.93	5717.93
475.12	5565.79
475.30	5577.50
475.48	5654.73
475.66	5865.38
475.84	5722.61
476.02	5621.97
476.20	5802.19
476.38	5830.27
476.56	5853.68
476.74	5795.17
476.92	5886.45
477.10	5799.85
477.28	6012.84
477.46	6073.69
477.64	6071.35
477.82	6099.44
478.00	6279.66
478.18	6221.14
478.36	6335.83
478.54	6270.30
478.72	6406.05
478.90	6530.09
479.08	6558.18
479.26	6532.44
479.44	6469.24
479.62	6455.20
479.80	6633.08
479.98	6698.61
480.16	6722.02
480.34	6956.07
480.52	6963.09
480.70	6937.35
480.88	6888.20
481.06	6951.39
481.24	7014.59
481.41	7110.55
481.59	7157.36
481.77	7164.38
481.95	7473.33
482.13	7384.39
482.31	7375.03
482.49	7478.01
482.67	7454.61
482.85	7721.43
483.03	7702.70
483.21	7770.58
483.39	7709.72
483.57	7417.16
483.74	7726.11
483.92	7747.17
484.10	7864.20
484.28	7885.26
484.46	8079.53
484.64	8285.50
484.82	8215.28
485.00	8344.01
485.18	8397.84
485.35	8521.89
485.53	8322.94
485.71	8578.06
485.89	8540.61
486.07	8585.08
486.25	8496.14
486.43	8493.80
486.61	8896.38
486.78	9022.77
486.96	9151.49
487.14	9060.21
487.32	9160.86
487.50	9205.33
487.68	9116.39
487.85	9191.28
488.03	9350.44
488.21	9544.70
488.39	9430.02
488.57	9376.19
488.75	9830.25
488.92	9942.60
489.10	9844.29
489.28	9886.42
489.46	9874.72
489.64	9874.72
489.81	10228.14
489.99	10176.65
490.17	10239.84
490.35	10352.19
490.53	10429.43
490.70	10714.97
490.88	10319.42
491.06	10581.56
491.24	10745.40
491.41	10541.77
491.59	10813.28
491.77	10616.67
491.95	10979.45
492.13	11117.54
492.30	11012.22
492.48	10981.79
492.66	11110.52
492.84	10974.77
493.01	11131.59
493.19	11154.99
493.37	11468.62
493.54	11288.40
493.72	11630.12
493.90	11314.15
494.08	11740.13
494.25	11901.62
494.43	11681.61
494.61	11646.51
494.79	11840.77
494.96	11852.47
495.14	11808.00
495.32	12142.70
495.49	11955.46
495.67	12248.02
495.85	12126.32
496.02	12484.42
496.20	12287.81
496.38	12322.92
496.55	12236.32
496.73	12697.41
496.91	12622.51
497.09	12641.23
497.26	12863.58
497.44	12592.08
497.62	12601.44
497.79	12992.31
497.97	12952.52
498.14	13184.24
498.32	13217.01
498.50	13170.19
498.67	13338.71
498.85	13252.11
499.03	13441.70
499.20	13338.71
499.38	13256.79
499.56	13472.12
499.73	13827.88
499.91	13525.96
500.08	13664.05
500.26	13659.37
500.44	13790.44
500.61	13804.48
500.79	13921.51
500.97	13879.38
501.14	13956.61
501.32	13998.74
501.49	13987.04
501.67	13965.98
501.84	13965.98
502.02	14167.26
502.20	14363.87
502.37	14239.82
502.55	14317.06
502.72	14485.58
502.90	14469.19
503.07	14331.10
503.25	14427.06
503.43	14434.08
503.60	14427.06
503.78	14909.21
503.95	14764.10
504.13	14759.42
504.30	14663.46
504.48	14656.43
504.65	14902.19
504.83	15007.52
505.01	15290.72
505.18	15122.20
505.36	15187.74
505.53	15138.58
505.71	15049.64
505.88	15204.12
506.06	14883.47
506.23	15468.60
506.41	15459.24
506.58	15559.88
506.76	15227.53
506.93	15332.85
507.11	15445.20
507.28	15281.36
507.46	15562.22
507.63	15513.07
507.81	15775.21
507.98	15728.40
508.16	15695.63
508.33	15749.46
508.50	15953.09
508.68	16046.71
508.85	15983.52
509.03	16145.02
509.20	16226.93
509.38	16027.99
509.55	16360.34
509.73	16177.78
509.90	16531.20
510.08	16030.33
510.25	16451.63
510.42	16276.09
510.60	16730.15
510.77	16847.18
510.95	16620.14
511.12	16690.36
511.30	16704.40
511.47	16744.19
511.64	16802.71
511.82	17144.42
511.99	16828.45
512.17	17146.76
512.34	16926.75
512.51	17200.60
512.69	17074.21
512.86	16828.45
513.04	17436.99
513.21	17338.69
513.38	17261.45
513.56	17556.36
513.73	17172.51
513.90	17111.66
514.08	17465.08
514.25	17687.43
514.43	17446.35
514.60	17432.31
514.77	17703.81
514.95	17921.48
515.12	17666.36
515.29	17364.43
515.47	17752.96
515.64	18008.08
515.81	18204.69
515.99	18040.85
516.16	18015.10
516.33	17818.50
516.51	18523.00
516.68	17980.00
516.85	17949.57
517.03	18101.70
517.20	18319.37
517.37	18377.89
517.54	18544.06
517.72	18242.14
517.89	18230.43
518.06	18202.35
518.24	18824.93
518.41	18347.46
518.58	18640.03
518.75	18368.52
518.93	18735.99
519.10	18754.71
519.27	18932.59
519.45	18457.46
519.62	18305.33
519.79	18677.48
519.96	19012.17
520.14	19056.64
520.31	18986.43
520.48	19269.63
520.65	18948.98
520.83	18869.40
521.00	19183.03
521.17	19346.87
521.34	18951.32
521.52	19339.85
521.69	19281.33
521.86	19339.85
522.03	19482.62
522.20	19534.11
522.38	19627.73
522.55	19548.15
522.72	19414.74
522.89	19644.12
523.07	19674.54
523.24	19548.15
523.41	19335.17
523.58	19524.75
523.75	20011.58
523.92	19641.78
524.10	19768.16
524.27	19976.47
524.44	20070.09
524.61	20013.92
524.78	20538.20
524.96	20109.88
525.13	20142.65
525.30	20264.36
525.47	20262.02
525.64	19997.54
525.81	20238.61
525.98	20194.14
526.16	20421.17
526.33	19969.45
526.50	20437.56
526.67	20411.81
526.84	20130.95
527.01	20224.57
527.18	20140.31
527.36	20423.51
527.53	20449.26
527.70	20842.47
527.87	20767.57
528.04	20453.94
528.21	20505.43
528.38	20524.16
528.55	20755.87
528.72	20690.34
528.89	21109.29
529.07	20697.36
529.24	20538.20
529.41	20809.70
529.58	20854.17
529.75	20861.19
529.92	20800.34
530.09	20915.03
530.26	20971.20
530.43	21172.49
530.60	20915.03
530.77	21146.74
530.94	21071.84
531.11	21060.14
531.28	21376.11
531.46	21308.24
531.63	21619.53
531.80	21345.69
531.97	21001.63
532.14	21329.30
532.31	21097.59
532.48	21427.60
532.65	21167.80
532.82	21474.42
532.99	21596.12
533.16	21743.58
533.33	21656.98
533.50	21898.05
533.67	21626.55
533.84	21486.12
534.01	21172.49
534.18	21947.20
534.35	21989.33
534.52	21830.18
534.69	21991.67
534.86	21886.35
535.03	22033.80
535.20	22214.02
535.37	22134.45
535.54	21776.34
535.71	21689.74
535.88	22424.67
536.05	21886.35
536.22	22345.09
536.38	22471.48
536.55	22312.33
536.72	22534.68
536.89	21869.97
537.06	22183.60
537.23	22347.44
537.40	22356.80
537.57	22089.98
537.74	22312.33
537.91	22499.57
538.08	22583.83
538.25	22389.56
538.42	22686.81
538.59	22581.49
538.75	22384.88
538.92	22565.10
539.09	22689.15
539.26	22590.85
539.43	22885.76
539.60	22852.99
539.77	22932.57
539.94	22909.16
540.11	22934.91
540.28	23030.87
540.44	22932.57
540.61	23047.26
540.78	22972.36
540.95	23236.84
541.12	23318.76
541.29	23477.91
541.46	23470.89
541.62	23213.43
541.79	23115.13
541.96	23269.61
542.13	23309.40
542.30	23370.25
542.47	23761.12
542.63	23388.97
542.80	23342.16
542.97	23630.05
543.14	23859.42
543.31	23709.63
543.48	23667.50
543.64	24016.24
543.81	23765.80
543.98	23981.13
544.15	23889.85
544.32	24142.63
544.48	24070.07
544.65	23967.09
544.82	23564.51
544.99	23676.86
545.16	24151.99
545.32	23735.37
545.49	24556.90
545.66	24900.96
545.83	24910.32
546.00	24577.97
546.16	25006.28
546.33	24041.98
546.50	23791.55
546.67	24009.22
546.83	23667.50
547.00	24121.56
547.17	24011.56
547.34	24334.55
547.50	23976.45
547.67	24372.00
547.84	24112.20
548.00	24500.73
548.17	23789.20
548.34	24093.47
548.51	24020.92
548.67	24070.07
548.84	23950.70
549.01	24301.78
549.18	24479.66
549.34	24496.05
549.51	24437.53
549.68	24252.63
549.84	24173.05
550.01	24407.11
550.18	24264.33
550.34	24294.76
550.51	24648.18
550.68	24301.78
550.84	24505.41
551.01	24346.25
551.18	24432.85
551.34	24222.20
551.51	24556.90
551.68	24334.55
551.84	24568.60
552.01	24528.81
552.18	24739.46
552.34	24357.96
552.51	24659.88
552.68	24395.40
552.84	24414.13
553.01	24477.32
553.18	24315.83
553.34	24610.73
553.51	24505.41
553.67	24372.00
553.84	24805.00
554.01	24432.85
554.17	24613.07
554.34	24739.46
554.51	24580.31
554.67	24645.84
554.84	24723.08
555.00	24547.54
555.17	24769.89
555.33	24664.57
555.50	25205.23
555.67	24819.04
555.83	24748.82
556.00	24514.77
556.16	25113.95
556.33	25055.43
556.50	24500.73
556.66	25022.67
556.83	24884.58
556.99	24950.11
557.16	25071.82
557.32	24828.40
557.49	25156.08
557.65	24945.43
557.82	25074.16
557.98	24622.44
558.15	24975.86
558.32	24781.59
558.48	24645.84
558.65	24959.47
558.81	25207.57
558.98	25003.94
559.14	25053.09
559.31	24737.12
559.47	24739.46
559.64	25205.23
559.80	25048.41
559.97	25593.76
560.13	25319.92
560.30	25017.99
560.46	25158.42
560.63	24973.52
560.79	25230.98
560.96	25144.38
561.12	24851.81
561.29	24786.27
561.45	25249.70
561.61	25198.21
561.78	25179.48
561.94	25376.09
562.11	25249.70
562.27	25043.73
562.44	25326.94
562.60	25156.08
562.77	24945.43
562.93	25069.48
563.10	25378.43
563.26	25039.05
563.42	25418.22
563.59	25277.79
563.75	25235.66
563.92	25565.67
564.08	25280.13
564.24	25263.74
564.41	25474.39
564.57	25371.41
564.74	25261.40
564.90	25214.59
565.07	25252.04
565.23	25434.60
565.39	25198.21
565.56	25331.62
565.72	25109.27
565.88	25254.38
566.05	24943.09
566.21	25165.44
566.38	25303.53
566.54	25301.19
566.70	25671.00
566.87	25343.32
567.03	25708.44
567.19	25937.82
567.36	25504.82
567.52	25692.06
567.68	25544.61
567.85	25413.54
568.01	25315.23
568.17	25394.81
568.34	25568.01
568.50	25516.52
568.66	25518.86
568.83	25565.67
568.99	25366.73
569.15	25876.96
569.32	25280.13
569.48	25359.70
569.64	25549.29
569.81	25399.49
569.97	25240.34
570.13	25518.86
570.30	25427.58
570.46	25518.86
570.62	25404.17
570.78	25113.95
570.95	25270.76
571.11	25509.50
571.27	25575.03
571.43	25219.27
571.60	25230.98
571.76	25462.69
571.92	25710.78
572.09	25781.00
572.25	25434.60
572.41	25483.75
572.57	25652.27
572.74	25905.05
572.90	25493.12
573.06	25394.81
573.22	25397.15
573.38	25560.99
573.55	25448.64
573.71	25963.56
573.87	25858.24
574.03	25619.50
574.20	25481.41
574.36	25738.87
574.52	25329.28
574.68	25200.55
574.84	25556.31
575.01	25481.41
575.17	25378.43
575.33	25680.36
575.49	25439.28
575.65	25692.06
575.82	25937.82
575.98	25411.20
576.14	25521.20
576.30	25493.12
576.46	25797.38
576.62	25982.29
576.79	25575.03
576.95	25568.01
577.11	25715.47
577.27	25458.01
577.43	25682.70
577.59	25813.77
577.75	25727.17
577.92	25413.54
578.08	25628.87
578.24	25465.03
578.40	25415.88
578.56	26120.38
578.72	25982.29
578.88	26040.80
579.04	25766.96
579.21	25453.33
579.37	25900.37
579.53	25642.91
579.69	25523.54
579.85	25614.82
580.01	25788.02
580.17	25535.24
580.33	25727.17
580.49	25736.53
580.65	25811.43
580.82	25703.76
580.98	25823.13
581.14	25659.29
581.30	25666.31
581.46	26003.35
581.62	25635.89
581.78	25556.31
581.94	25900.37
582.10	25455.67
582.26	25371.41
582.42	25748.23
582.58	26015.05
582.74	25837.17
582.90	25523.54
583.06	25996.33
583.22	25338.64
583.38	25654.61
583.54	25970.58
583.70	25823.13
583.86	25720.15
584.02	25748.23
584.18	25806.75
584.34	25497.80
584.50	25823.13
584.66	25692.06
584.82	25846.54
584.98	26052.50
585.14	25706.10
585.30	25699.08
585.46	25778.66
585.62	26071.23
585.78	25834.83
585.94	25589.08
586.10	26111.02
586.26	26017.40
586.42	25680.36
586.58	25902.71
586.74	25846.54
586.90	25603.12
587.06	25720.15
587.22	26115.70
587.38	25853.56
587.54	25741.21
587.70	26033.78
587.86	25678.02
588.02	25972.92
588.18	26302.94
588.34	25937.82
588.49	26031.44
588.65	25605.46
588.81	25825.47
588.97	25598.44
589.13	25806.75
589.29	25921.43
589.45	25865.26
589.61	26153.15
589.77	26176.55
589.93	26302.94
590.08	25764.62
590.24	26066.55
590.40	26040.80
590.56	26068.89
590.72	25951.86
590.88	25696.74
591.04	26045.48
591.20	26401.24
591.35	25867.60
591.51	26335.71
591.67	25930.80
591.83	26260.81
591.99	26052.50
592.15	26024.42
