SpectraSuite Data File
++++++++++++++++++++++++++++++++++++
Date: Fri Oct 04 11:39:22 GMT-05:00 2013
User: price-jones
Dark Spectrum Present: No
Reference Spectrum Present: No
Number of Sampled Component Spectra: 1
Spectrometers: USB2+H05261
Integration Time (usec): 100000 (USB2+H05261)
Spectra Averaged: 1 (USB2+H05261)
Boxcar Smoothing: 0 (USB2+H05261)
Correct for Electrical Dark: No (USB2+H05261)
Strobe/Lamp Enabled: No (USB2+H05261)
Correct for Detector Non-linearity: No (USB2+H05261)
Correct for Stray Light: No (USB2+H05261)
Number of Pixels in Processed Spectrum: 2048
>>>>>Begin Processed Spectral Data<<<<<
365.73	25.75
365.92	25.75
366.12	25.75
366.32	0.00
366.52	16.38
366.72	0.00
366.91	0.00
367.11	0.00
367.31	0.00
367.51	0.00
367.70	23.41
367.90	0.00
368.10	0.00
368.30	0.00
368.49	0.00
368.69	9.36
368.89	0.00
369.09	0.00
369.28	0.00
369.48	37.45
369.68	0.00
369.87	30.43
370.07	0.00
370.27	98.30
370.47	63.19
370.66	198.95
370.86	234.05
371.06	280.86
371.25	294.91
371.45	177.88
371.65	374.49
371.84	280.86
372.04	269.16
372.24	341.72
372.44	325.33
372.63	362.78
372.83	374.49
373.03	334.70
373.22	278.52
373.42	297.25
373.62	407.25
373.81	407.25
374.01	348.74
374.21	376.83
374.40	386.19
374.60	428.32
374.79	360.44
374.99	393.21
375.19	358.10
375.38	461.09
375.58	409.59
375.78	477.47
375.97	437.68
376.17	407.25
376.37	372.15
376.56	433.00
376.76	334.70
376.95	500.87
377.15	479.81
377.35	430.66
377.54	575.77
377.74	440.02
377.93	442.36
378.13	421.30
378.33	477.47
378.52	479.81
378.72	418.96
378.91	397.89
379.11	411.93
379.31	376.83
379.50	430.66
379.70	447.04
379.89	479.81
380.09	514.92
380.28	421.30
380.48	528.96
380.68	447.04
380.87	454.06
381.07	484.49
381.26	512.58
381.46	493.85
381.65	507.90
381.85	498.53
382.04	449.38
382.24	514.92
382.43	468.11
382.63	433.00
382.83	552.37
383.02	524.28
383.22	582.79
383.41	531.30
383.61	543.00
383.80	559.39
384.00	496.19
384.19	568.75
384.39	561.73
384.58	528.96
384.78	573.43
384.97	615.56
385.17	643.65
385.36	528.96
385.56	599.18
385.75	528.96
385.95	592.16
386.14	620.24
386.34	629.60
386.53	617.90
386.72	592.16
386.92	615.56
387.11	697.48
387.31	645.99
387.50	498.53
387.70	617.90
387.89	557.05
388.09	603.86
388.28	580.45
388.48	575.77
388.67	699.82
388.86	615.56
389.06	643.65
389.25	664.71
389.45	636.63
389.64	678.76
389.84	777.06
390.03	744.29
390.22	706.84
390.42	678.76
390.61	667.05
390.81	688.12
391.00	631.94
391.19	755.99
391.39	753.65
391.58	718.54
391.78	723.23
391.97	772.38
392.16	847.27
392.36	753.65
392.55	779.40
392.75	861.32
392.94	674.07
393.13	755.99
393.33	695.14
393.52	772.38
393.71	936.21
393.91	746.63
394.10	833.23
394.29	873.02
394.49	833.23
394.68	903.45
394.88	938.55
395.07	856.64
395.26	866.00
395.46	877.70
395.65	929.19
395.84	889.40
396.04	959.62
396.23	866.00
396.42	866.00
396.62	938.55
396.81	919.83
397.00	943.24
397.19	947.92
397.39	968.98
397.58	889.40
397.77	1008.77
397.97	940.90
398.16	1064.94
398.35	1057.92
398.55	1020.47
398.74	1046.22
398.93	1064.94
399.12	1153.88
399.32	987.71
399.51	1020.47
399.70	1160.91
399.90	1057.92
400.09	1184.31
400.28	1160.91
400.47	1151.54
400.67	1135.16
400.86	1078.99
401.05	1191.33
401.24	1146.86
401.44	1217.08
401.63	1240.48
401.82	1263.89
402.01	1174.95
402.21	1139.84
402.40	1224.10
402.59	1252.19
402.78	1308.36
402.97	1301.34
403.17	1299.00
403.36	1224.10
403.55	1301.34
403.74	1359.85
403.93	1432.41
404.13	1369.21
404.32	1394.96
404.51	1366.87
404.70	1458.15
404.89	1371.55
405.09	1563.48
405.28	1411.34
405.47	1582.20
405.66	1502.62
405.85	1448.79
406.05	1441.77
406.24	1488.58
406.43	1556.46
406.62	1544.75
406.81	1668.80
407.00	1619.65
407.20	1514.33
407.39	1582.20
407.58	1586.88
407.77	1713.27
407.96	1788.17
408.15	1739.02
408.34	1678.16
408.54	1724.97
408.73	1692.21
408.92	1638.38
409.11	1736.68
409.30	1792.85
409.49	1788.17
409.68	1795.19
409.87	1874.77
410.07	1781.15
410.26	1846.68
410.45	1907.54
410.64	1844.34
410.83	1994.14
411.02	1916.90
411.21	1912.22
411.40	1984.77
411.59	2033.93
411.78	2040.95
411.98	1984.77
412.17	2040.95
412.36	2183.72
412.55	2237.55
412.74	2260.96
412.93	2078.40
413.12	2235.21
413.31	2260.96
413.50	2228.19
413.69	2310.11
413.88	2263.30
414.07	2377.98
414.26	2441.18
414.45	2342.88
414.64	2441.18
414.83	2490.33
415.02	2487.99
415.22	2590.97
415.41	2506.71
415.60	2527.78
415.79	2572.25
415.98	2623.74
416.17	2637.78
416.36	2637.78
416.55	2700.98
416.74	2724.38
416.93	2684.59
417.12	2778.22
417.31	2787.58
417.50	2766.51
417.69	2841.41
417.88	2904.60
418.07	2864.82
418.26	2918.65
418.45	2890.56
418.64	2918.65
418.83	2913.97
419.02	2932.69
419.21	3073.12
419.39	3047.38
419.58	3059.08
419.77	3080.14
419.96	2998.23
420.15	3112.91
420.34	3110.57
420.53	3141.00
420.72	3124.62
420.91	3190.15
421.10	3269.73
421.29	3293.13
421.48	3157.38
421.67	3239.30
421.86	3267.39
422.05	3325.90
422.24	3288.45
422.43	3428.88
422.61	3243.98
422.80	3328.24
422.99	3363.35
423.18	3403.14
423.37	3442.93
423.56	3440.59
423.75	3389.10
423.94	3339.94
424.13	3133.98
424.32	3155.04
424.50	3449.95
424.69	3449.95
424.88	3466.33
425.07	3368.03
425.26	3307.18
425.45	3501.44
425.64	3508.46
425.83	3393.78
426.01	3468.67
426.20	3466.33
426.39	3426.54
426.58	3571.66
426.77	3431.23
426.96	3520.17
427.15	3468.67
427.33	3482.72
427.52	3487.40
427.71	3503.78
427.90	3620.81
428.09	3662.94
428.28	3592.72
428.46	3775.28
428.65	3873.59
428.84	3808.05
429.03	3831.46
429.22	3634.85
429.40	3761.24
429.59	3751.88
429.78	3630.17
429.97	3604.42
430.16	3730.81
430.34	3796.35
430.53	3922.74
430.72	3896.99
430.91	3971.89
431.10	3913.38
431.28	4009.34
431.47	4011.68
431.66	4161.47
431.85	3843.16
432.03	4149.77
432.22	4215.30
432.41	4060.83
432.60	4180.20
432.79	4037.42
432.97	4126.36
433.16	4095.94
433.35	4191.90
433.54	4098.28
433.72	4273.82
433.91	4114.66
434.10	4222.33
434.28	4287.86
434.47	4241.05
434.66	4409.57
434.85	4365.10
435.03	4451.70
435.22	4741.93
435.41	4837.89
435.59	4809.80
435.78	4739.58
435.97	4631.92
436.16	4538.30
436.34	4442.34
436.53	4540.64
436.72	4718.52
436.90	4496.17
437.09	4594.47
437.28	4444.68
437.46	4603.83
437.65	4634.26
437.84	4702.14
438.02	4629.58
438.21	4685.75
438.40	4718.52
438.58	4882.36
438.77	4793.42
438.96	4865.97
439.14	4875.34
439.33	4875.34
439.52	5055.56
439.70	5004.07
439.89	5254.50
440.08	4931.51
440.26	5261.52
440.45	5214.71
440.63	5090.67
440.82	5170.24
441.01	5231.10
441.19	5327.06
441.38	5437.06
441.57	5437.06
441.75	5446.43
441.94	5439.40
442.12	5535.37
442.31	5514.30
442.50	5755.38
442.68	5591.54
442.87	5600.90
443.05	5621.97
443.24	5633.67
443.43	5483.88
443.61	5734.31
443.80	5696.86
443.98	5661.76
444.17	5446.43
444.35	5792.83
444.54	5853.68
444.73	5811.55
444.91	5717.93
445.10	5818.57
445.28	5682.82
445.47	5853.68
445.65	5797.51
445.84	5856.02
446.02	5884.11
446.21	5844.32
446.39	5865.38
446.58	6045.60
446.77	5825.59
446.95	5909.85
447.14	5809.21
447.32	5888.79
447.51	5966.03
447.69	5757.72
447.88	6001.13
448.06	5893.47
448.25	5940.28
448.43	5933.26
448.62	5923.90
448.80	6052.63
448.99	6038.58
449.17	6045.60
449.36	6162.63
449.54	6223.48
449.73	6218.80
449.91	6181.35
450.10	6207.10
450.28	6300.72
450.46	6169.65
450.65	6352.21
450.83	6150.93
451.02	6193.06
451.20	6466.90
451.39	6464.56
451.57	6258.59
451.76	6239.87
451.94	6422.43
452.13	6417.75
452.31	6429.45
452.49	6384.98
452.68	6387.32
452.86	6340.51
453.05	6541.80
453.23	6595.63
453.42	6492.65
453.60	6656.48
453.78	6607.33
453.97	6473.92
454.15	6509.03
454.34	6553.50
454.52	6775.85
454.70	6679.89
454.89	6729.04
455.07	6668.19
455.26	6820.32
455.44	7040.33
455.62	6789.89
455.81	6813.30
455.99	7056.72
456.17	6771.17
456.36	7056.72
456.54	7178.42
456.73	7213.53
456.91	7368.01
457.09	7166.72
457.28	7115.23
457.46	7211.19
457.64	7405.46
457.83	7403.11
458.01	7283.75
458.19	7396.09
458.38	7288.43
458.56	7396.09
458.74	7363.33
458.93	7180.76
459.11	7501.42
459.29	7440.56
459.48	7665.25
459.66	7449.93
459.84	7606.74
460.03	7742.49
460.21	7599.72
460.39	7634.83
460.57	7428.86
460.76	7620.78
460.94	7751.85
461.12	7770.58
461.31	7674.62
461.49	7688.66
461.67	7676.96
461.85	7770.58
462.04	7960.16
462.22	8044.42
462.40	8102.93
462.59	7880.58
462.77	8011.65
462.95	7946.12
463.13	8037.40
463.32	8140.38
463.50	8166.13
463.68	8187.19
463.86	8006.97
464.05	8112.30
464.23	8121.66
464.41	8124.00
464.59	7962.50
464.78	8196.56
464.96	8107.62
465.14	8243.37
465.32	8210.60
465.50	8362.73
465.69	8482.10
465.87	8121.66
466.05	8297.20
466.23	8280.82
466.41	8304.22
466.60	8659.98
466.78	8355.71
466.96	8390.82
467.14	8407.20
467.32	8395.50
467.51	8748.92
467.69	8526.57
467.87	8769.99
468.05	8585.08
468.23	8664.66
468.41	8613.17
468.60	8905.74
468.78	8812.12
468.96	8847.22
469.14	8716.16
469.32	8964.25
469.50	8805.10
469.69	9004.04
469.87	9064.89
470.05	9092.98
470.23	9137.45
470.41	8875.31
470.59	9167.88
470.77	9067.24
470.95	9291.93
471.14	9371.50
471.32	9242.78
471.50	9572.79
471.68	9373.85
471.86	9312.99
472.04	9439.38
472.22	9671.09
472.40	9474.49
472.58	9544.70
472.77	9586.83
472.95	9741.31
473.13	9954.30
473.31	9563.43
473.49	9912.17
473.67	9785.78
473.85	9797.48
474.03	9958.98
474.21	9926.21
474.39	10186.01
474.57	10139.20
474.75	10113.45
474.93	10218.78
475.12	10115.80
475.30	10422.41
475.48	10303.04
475.66	10368.57
475.84	10401.34
476.02	10530.07
476.20	10703.27
476.38	10567.52
476.56	11089.46
476.74	10963.07
476.92	11213.51
477.10	10902.22
477.28	11047.33
477.46	11033.29
477.64	11019.24
477.82	11391.39
478.00	11440.54
478.18	11576.29
478.36	11606.72
478.54	11751.83
478.72	11702.68
478.90	11936.73
479.08	11950.78
479.26	12091.21
479.44	12018.65
479.62	12147.38
479.80	12479.74
479.98	12299.52
480.16	12772.30
480.34	12592.08
480.52	12755.92
480.70	12847.20
480.88	12695.07
481.06	12802.73
481.24	12936.14
481.41	13212.32
481.59	12975.93
481.77	13341.05
481.95	13504.89
482.13	13408.93
482.31	13692.13
482.49	13687.45
482.67	13905.12
482.85	14019.81
483.03	14258.54
483.21	14359.19
483.39	14274.93
483.57	14438.76
483.74	14555.79
483.92	14569.83
484.10	14455.15
484.28	14792.19
484.46	15056.67
484.64	15550.52
484.82	15140.93
485.00	15419.45
485.18	15616.05
485.35	15730.74
485.53	15833.72
485.71	15903.94
485.89	16269.06
486.07	16182.46
486.25	16299.49
486.43	16161.40
486.61	16271.40
486.78	16762.92
486.96	16566.31
487.14	16992.29
487.32	16858.88
487.50	17247.41
487.68	16961.86
487.85	17362.09
488.03	17387.84
488.21	17666.36
488.39	17949.57
488.57	17949.57
488.75	18108.72
488.92	18295.97
489.10	18457.46
489.28	18370.86
489.46	18799.18
489.64	18511.30
489.81	19073.03
489.99	18860.04
490.17	18885.78
490.35	19115.16
490.53	19220.48
490.70	19522.41
490.88	19417.08
491.06	19742.42
491.24	19735.40
491.41	19878.17
491.59	19880.51
491.77	20109.88
491.95	20538.20
492.13	20676.29
492.30	20538.20
492.48	20669.27
492.66	20673.95
492.84	20493.73
493.01	21064.82
493.19	21455.69
493.37	21273.13
493.54	21310.58
493.72	21427.60
493.90	21259.09
494.08	21921.46
494.25	22001.04
494.43	21851.24
494.61	21968.27
494.79	22663.41
494.96	22448.08
495.14	22415.31
495.32	22838.95
495.49	22923.21
495.67	22960.66
495.85	22984.06
496.02	22988.74
496.20	23363.23
496.38	23489.62
496.55	23232.16
496.73	23953.04
496.91	23810.27
497.09	24189.44
497.26	24271.36
497.44	24081.77
497.62	23946.02
497.79	24477.32
497.97	24620.10
498.14	24830.74
498.32	24922.02
498.50	24861.17
498.67	25120.97
498.85	25078.84
499.03	25139.69
499.20	25043.73
499.38	25586.74
499.56	25586.74
499.73	25507.16
499.91	25701.42
500.08	25804.41
500.26	25855.90
500.44	25944.84
500.61	25846.54
500.79	26195.28
500.97	26178.89
501.14	26403.58
501.32	26497.20
501.49	26651.68
501.67	26555.72
501.84	26345.07
502.02	26817.86
502.20	26600.19
502.37	27089.36
502.55	27051.91
502.72	27206.39
502.90	26792.11
503.07	27239.15
503.25	27484.91
503.43	27381.93
503.60	27365.54
503.78	28025.57
503.95	27817.27
504.13	28088.77
504.30	27737.69
504.48	27983.44
504.65	28065.36
504.83	28308.78
505.01	28577.94
505.18	28421.13
505.36	28676.24
505.53	28430.49
505.71	28589.64
505.88	28790.93
506.06	28343.89
506.23	29139.67
506.41	28973.49
506.58	29387.77
506.76	29111.58
506.93	29275.42
507.11	29015.62
507.28	29432.24
507.46	29516.50
507.63	29764.59
507.81	29926.09
507.98	29663.95
508.16	29748.21
508.33	29970.56
508.50	29942.47
508.68	29909.71
508.85	30279.51
509.03	30162.48
509.20	30232.70
509.38	30623.57
509.55	30426.96
509.73	30827.20
509.90	30787.41
510.08	30820.17
510.25	30815.49
510.42	30892.73
510.60	31442.76
510.77	31545.74
510.95	31625.32
511.12	31110.40
511.30	31274.24
511.47	31473.18
511.64	31693.19
511.82	31672.13
511.99	31938.95
512.17	32151.94
512.34	31908.52
512.51	32041.93
512.69	32388.33
512.86	32149.60
513.04	32531.11
513.21	32512.38
513.38	32496.00
513.56	32514.72
513.73	32507.70
513.90	32638.77
514.08	32154.28
514.25	33149.01
514.43	33165.39
514.60	32739.41
514.77	33043.68
514.95	33359.66
515.12	32957.08
515.29	33193.48
515.47	33324.55
515.64	33802.02
515.81	33659.24
515.99	33977.56
516.16	33738.82
516.33	33769.25
516.51	33862.87
516.68	34141.39
516.85	34012.66
517.03	33963.51
517.20	34117.99
517.37	34197.57
517.54	34583.76
517.72	34464.39
517.89	34270.12
518.06	34387.15
518.24	34368.43
518.41	34440.98
518.58	35093.99
518.75	34642.27
518.93	35306.98
519.10	35133.78
519.27	35126.76
519.45	34672.70
519.62	35185.27
519.79	35421.67
519.96	35534.01
520.14	35545.72
520.31	35386.56
520.48	35929.56
520.65	35807.86
520.83	35707.21
521.00	35814.88
521.17	35515.29
521.34	35784.45
521.52	35967.01
521.69	36430.44
521.86	36273.62
522.03	36414.05
522.20	36519.38
522.38	36746.41
522.55	36409.37
522.72	36613.00
522.89	37008.55
523.07	37212.18
523.24	36542.78
523.41	37170.05
523.58	36999.19
523.75	37553.90
523.92	36861.10
524.10	37123.24
524.27	37694.33
524.44	37914.34
524.61	37486.02
524.78	37771.57
524.96	37682.62
525.13	37479.00
525.30	37649.86
525.47	37806.67
525.64	37764.54
525.81	37691.99
525.98	38176.48
526.16	38101.58
526.33	37970.51
526.50	38543.94
526.67	37848.80
526.84	37986.89
527.01	37766.88
527.18	38059.45
527.36	38665.65
527.53	38792.04
527.70	39100.99
527.87	39005.03
528.04	38792.04
528.21	38789.70
528.38	38728.84
528.55	39000.35
528.72	39175.89
528.89	39047.16
529.07	38972.26
529.24	39236.74
529.41	39234.40
529.58	38974.60
529.75	39526.97
529.92	39508.24
530.09	39260.15
530.26	39672.08
530.43	39711.87
530.60	39313.98
530.77	39400.58
530.94	39309.30
531.11	39749.32
531.28	39482.50
531.46	39601.86
531.63	40116.78
531.80	40020.82
531.97	40334.45
532.14	40114.44
532.31	39723.57
532.48	39885.07
532.65	40643.40
532.82	40336.79
532.99	40259.55
533.16	40378.92
533.33	40706.60
533.50	40505.31
533.67	40765.11
533.84	40313.39
534.01	40727.66
534.18	40477.22
534.35	40865.75
534.52	40704.26
534.69	41214.49
534.86	41172.36
535.03	40699.58
535.20	41174.70
535.37	41053.00
535.54	41322.16
535.71	40884.48
535.88	40856.39
536.05	41155.98
536.22	41778.56
536.38	41750.48
536.55	41310.46
536.72	41588.98
536.89	41586.64
537.06	41137.26
537.23	41670.90
537.40	41808.99
537.57	42045.38
537.74	41289.39
537.91	42029.00
538.08	41958.78
538.25	42000.91
538.42	41860.48
538.59	42508.81
538.75	41890.91
538.92	42122.62
539.09	42377.74
539.26	42321.57
539.43	42749.88
539.60	42499.45
539.77	42684.35
539.94	42466.68
540.11	42314.55
540.28	42777.97
540.44	42895.00
540.61	42850.53
540.78	42511.15
540.95	43269.48
541.12	43093.94
541.29	43159.48
541.46	43292.89
541.62	43267.14
541.79	43267.14
541.96	43587.80
542.13	42876.27
542.30	43159.48
542.47	43639.29
542.63	43449.70
542.80	43831.21
542.97	44020.80
543.14	44215.06
543.31	43400.55
543.48	43688.44
543.64	44519.33
543.81	44025.48
543.98	44371.88
544.15	44304.00
544.32	44699.55
544.48	45038.93
544.65	44128.46
544.82	44402.30
544.99	43571.41
545.16	44498.26
545.32	44163.57
545.49	45102.12
545.66	45303.41
545.83	45443.84
546.00	45282.34
546.16	45380.65
546.33	44430.39
546.50	43938.88
546.67	44542.74
546.83	44385.92
547.00	44278.25
547.17	44774.45
547.34	44957.01
547.50	44744.02
547.67	45045.95
547.84	44966.37
548.00	45052.97
548.17	44669.12
548.34	44928.92
548.51	45029.57
548.67	45272.98
548.84	45436.82
549.01	45029.57
549.18	45139.57
549.34	44758.06
549.51	44935.95
549.68	45390.01
549.84	44858.71
550.01	45336.18
550.18	44870.41
550.34	44989.78
550.51	45883.86
550.68	45914.29
550.84	45214.47
551.01	45694.28
551.18	45067.02
551.34	45340.86
551.51	45532.78
551.68	45907.27
551.84	45855.78
552.01	45343.20
552.18	45642.79
552.34	45315.11
552.51	46014.93
552.68	45584.27
552.84	45705.98
553.01	45860.46
553.18	46124.94
553.34	45825.35
553.51	46050.04
553.67	46092.17
553.84	46513.47
554.01	45944.72
554.17	45886.20
554.34	46073.45
554.51	45820.67
554.67	46366.01
554.84	46178.77
555.00	46197.49
555.17	46225.58
555.33	46197.49
555.50	46707.73
555.67	46382.40
555.83	45909.61
556.00	46171.75
556.16	46817.74
556.33	46059.40
556.50	46277.07
556.66	46777.95
556.83	46567.30
556.99	46679.64
557.16	46560.28
557.32	46557.94
557.49	46597.73
557.65	45935.35
557.82	46373.03
557.98	46534.53
558.15	46703.05
558.32	46822.42
558.48	46880.93
558.65	46967.53
558.81	46855.18
558.98	46937.10
559.14	46817.74
559.31	46735.82
559.47	46574.32
559.64	47009.66
559.80	46829.44
559.97	46843.48
560.13	46749.86
560.30	47019.02
560.46	47255.42
560.63	47260.10
560.79	47484.79
560.96	47192.22
561.12	47124.35
561.29	47543.30
561.45	47332.65
561.61	47334.99
561.78	47215.63
561.94	47356.06
562.11	47236.69
562.27	47363.08
562.44	47573.73
562.60	47217.97
562.77	47281.16
562.93	46768.58
563.10	47421.59
563.26	47189.88
563.42	47746.93
563.59	47367.76
563.75	47157.11
563.92	47632.24
564.08	47093.92
564.24	46911.36
564.41	47477.77
564.57	47133.71
564.74	47327.97
564.90	47643.94
565.07	47393.51
565.23	47641.60
565.39	47538.62
565.56	47927.15
565.72	47140.73
565.88	47412.23
566.05	47409.89
566.21	47157.11
566.38	47552.66
566.54	47643.94
566.70	47758.63
566.87	47861.61
567.03	48067.58
567.19	48074.60
567.36	47730.54
567.52	47952.90
567.68	47545.64
567.85	47615.86
568.01	47693.10
568.17	47725.86
568.34	47948.21
568.50	47983.32
568.66	47503.51
568.83	48147.16
568.99	47700.12
569.15	47636.92
569.32	47721.18
569.48	47557.35
569.64	47842.89
569.81	47810.12
569.97	47878.00
570.13	47854.59
570.30	47796.08
570.46	47889.70
570.62	47915.45
570.78	47789.06
570.95	47468.40
571.11	47648.63
571.27	47955.24
571.43	47770.33
571.60	47412.23
571.76	47543.30
571.92	48013.75
572.09	47861.61
572.25	47842.89
572.41	48004.39
572.57	47849.91
572.74	48051.20
572.90	47632.24
573.06	47714.16
573.22	48032.47
573.38	47976.30
573.55	48186.95
573.71	48409.30
573.87	48446.75
574.03	48140.14
574.20	48215.04
574.36	47856.93
574.52	47976.30
574.68	47875.66
574.84	47938.85
575.01	48247.80
575.17	48144.82
575.33	48053.54
575.49	48004.39
575.65	48168.22
575.82	48046.52
575.98	48219.72
576.14	47782.04
576.30	47941.19
576.46	48226.74
576.62	48444.41
576.79	48130.78
576.95	48013.75
577.11	48355.47
577.27	48437.39
577.43	48264.19
577.59	48327.38
577.75	48121.41
577.92	47824.17
578.08	47868.64
578.24	48355.47
578.40	48348.45
578.56	48144.82
578.72	48601.22
578.88	48673.78
579.04	48851.66
579.21	48500.58
579.37	48357.81
579.53	48289.93
579.69	48133.12
579.85	47997.37
580.01	48102.69
580.17	48561.44
580.33	48364.83
580.49	48200.99
580.65	48545.05
580.82	48453.77
580.98	48264.19
581.14	48535.69
581.30	48165.88
581.46	48219.72
581.62	48179.93
581.78	48067.58
581.94	48732.29
582.10	48294.61
582.26	48378.87
582.42	48285.25
582.58	48362.49
582.74	48713.57
582.90	48451.43
583.06	48528.67
583.22	48083.97
583.38	48306.32
583.54	48107.37
583.70	48215.04
583.86	48086.31
584.02	48247.80
584.18	48573.14
584.34	48240.78
584.50	48374.19
584.66	48512.28
584.82	48116.73
584.98	48507.60
585.14	48212.70
585.30	48196.31
585.46	48395.26
585.62	48273.55
585.78	48549.73
585.94	48273.55
586.10	48329.72
586.26	48498.24
586.42	48868.05
586.58	48858.68
586.74	48858.68
586.90	48540.37
587.06	48411.64
587.22	48652.72
587.38	48556.75
587.54	48360.15
587.70	48615.27
587.86	48582.50
588.02	48664.42
588.18	49109.12
588.34	48552.07
588.49	48418.66
588.65	48217.38
588.81	48465.47
588.97	48435.05
589.13	48498.24
589.29	48573.14
589.45	48727.61
589.61	48790.81
589.77	48994.43
589.93	48657.40
590.08	48914.86
590.24	48765.06
590.40	49184.02
590.56	48830.60
590.72	48662.08
