SpectraSuite Data File
++++++++++++++++++++++++++++++++++++
Date: Fri Oct 04 11:39:13 GMT-05:00 2013
User: price-jones
Dark Spectrum Present: No
Reference Spectrum Present: No
Number of Sampled Component Spectra: 1
Spectrometers: USB2+H05261
Integration Time (usec): 100000 (USB2+H05261)
Spectra Averaged: 1 (USB2+H05261)
Boxcar Smoothing: 0 (USB2+H05261)
Correct for Electrical Dark: No (USB2+H05261)
Strobe/Lamp Enabled: No (USB2+H05261)
Correct for Detector Non-linearity: No (USB2+H05261)
Correct for Stray Light: No (USB2+H05261)
Number of Pixels in Processed Spectrum: 2048
>>>>>Begin Processed Spectral Data<<<<<
365.73	9.36
365.92	9.36
366.12	9.36
366.32	0.00
366.52	0.00
366.72	0.00
366.91	0.00
367.11	0.00
367.31	0.00
367.51	16.38
367.70	0.00
367.90	0.00
368.10	0.00
368.30	0.00
368.49	0.00
368.69	7.02
368.89	0.00
369.09	0.00
369.28	30.43
369.48	0.00
369.68	0.00
369.87	65.54
370.07	0.00
370.27	37.45
370.47	49.15
370.66	154.48
370.86	117.03
371.06	145.11
371.25	140.43
371.45	126.39
371.65	266.82
371.84	121.71
372.04	154.48
372.24	311.29
372.44	210.65
372.63	208.31
372.83	210.65
373.03	220.01
373.22	205.97
373.42	184.90
373.62	201.29
373.81	175.54
374.01	287.89
374.21	212.99
374.40	264.48
374.60	271.50
374.79	187.24
374.99	266.82
375.19	313.63
375.38	332.36
375.58	280.86
375.78	292.57
375.97	315.97
376.17	383.85
376.37	215.33
376.56	294.91
376.76	243.42
376.95	280.86
377.15	322.99
377.35	177.88
377.54	236.39
377.74	266.82
377.93	231.71
378.13	229.37
378.33	304.27
378.52	208.31
378.72	355.76
378.91	273.84
379.11	250.44
379.31	220.01
379.50	262.14
379.70	346.40
379.89	196.60
380.09	252.78
380.28	276.18
380.48	325.33
380.68	301.93
380.87	205.97
381.07	283.20
381.26	318.31
381.46	351.08
381.65	301.93
381.85	306.61
382.04	255.12
382.24	262.14
382.43	353.42
382.63	348.74
382.83	337.04
383.02	348.74
383.22	344.06
383.41	294.91
383.61	269.16
383.80	294.91
384.00	243.42
384.19	297.25
384.39	348.74
384.58	332.36
384.78	313.63
384.97	348.74
385.17	341.72
385.36	344.06
385.56	318.31
385.75	325.33
385.95	283.20
386.14	315.97
386.34	325.33
386.53	362.78
386.72	276.18
386.92	311.29
387.11	379.17
387.31	449.38
387.50	322.99
387.70	320.65
387.89	365.12
388.09	334.70
388.28	306.61
388.48	442.36
388.67	346.40
388.86	454.06
389.06	414.27
389.25	355.76
389.45	397.89
389.64	404.91
389.84	341.72
390.03	383.85
390.22	388.53
390.42	393.21
390.61	400.23
390.81	301.93
391.00	351.08
391.19	355.76
391.39	407.25
391.58	409.59
391.78	388.53
391.97	341.72
392.16	383.85
392.36	430.66
392.55	468.11
392.75	407.25
392.94	409.59
393.13	479.81
393.33	330.02
393.52	498.53
393.71	486.83
393.91	479.81
394.10	416.62
394.29	376.83
394.49	388.53
394.68	454.06
394.88	397.89
395.07	402.57
395.26	496.19
395.46	470.45
395.65	451.72
395.84	493.85
396.04	503.22
396.23	454.06
396.42	498.53
396.62	524.28
396.81	479.81
397.00	421.30
397.19	505.56
397.39	498.53
397.58	468.11
397.77	510.24
397.97	521.94
398.16	465.77
398.35	540.66
398.55	550.03
398.74	596.84
398.93	477.47
399.12	543.00
399.32	540.66
399.51	514.92
399.70	514.92
399.90	507.90
400.09	547.69
400.28	582.79
400.47	491.51
400.67	566.41
400.86	528.96
401.05	643.65
401.24	519.60
401.44	578.11
401.63	519.60
401.82	503.22
402.01	566.41
402.21	573.43
402.40	564.07
402.59	587.47
402.78	596.84
402.97	627.26
403.17	671.73
403.36	613.22
403.55	678.76
403.74	575.77
403.93	699.82
404.13	702.16
404.32	737.27
404.51	723.23
404.70	650.67
404.89	688.12
405.09	688.12
405.28	711.52
405.47	702.16
405.66	734.93
405.85	751.31
406.05	631.94
406.24	732.59
406.43	770.04
406.62	777.06
406.81	802.80
407.00	678.76
407.20	711.52
407.39	744.29
407.58	793.44
407.77	746.63
407.96	814.51
408.15	779.40
408.34	777.06
408.54	812.17
408.73	880.04
408.92	741.95
409.11	795.78
409.30	828.55
409.49	786.42
409.68	795.78
409.87	772.38
410.07	877.70
410.26	882.38
410.45	800.46
410.64	926.85
410.83	849.61
411.02	943.24
411.21	1071.97
411.40	952.60
411.59	973.66
411.78	945.58
411.98	926.85
412.17	1018.13
412.36	1001.75
412.55	1053.24
412.74	1095.37
412.93	1064.94
413.12	1018.13
413.31	1006.43
413.50	1015.79
413.69	990.05
413.88	1090.69
414.07	1121.12
414.26	1055.58
414.45	1008.77
414.64	1004.09
414.83	1135.16
415.02	1217.08
415.22	1142.18
415.41	1151.54
415.60	1153.88
415.79	1125.80
415.98	1242.82
416.17	1160.91
416.36	1198.35
416.55	1299.00
416.74	1219.42
416.93	1259.21
417.12	1177.29
417.31	1252.19
417.50	1245.16
417.69	1306.02
417.88	1296.66
418.07	1315.38
418.26	1371.55
418.45	1235.80
418.64	1308.36
418.83	1303.68
419.02	1306.02
419.21	1284.95
419.39	1317.72
419.58	1359.85
419.77	1329.42
419.96	1369.21
420.15	1448.79
420.34	1437.09
420.53	1315.38
420.72	1371.55
420.91	1373.89
421.10	1416.02
421.29	1444.11
421.48	1355.17
421.67	1441.77
421.86	1469.86
422.05	1511.99
422.24	1385.60
422.43	1418.36
422.61	1462.83
422.80	1483.90
422.99	1502.62
423.18	1441.77
423.37	1453.47
423.56	1493.26
423.75	1509.65
423.94	1441.77
424.13	1392.62
424.32	1451.13
424.50	1451.13
424.69	1565.82
424.88	1521.35
425.07	1469.86
425.26	1519.01
425.45	1409.00
425.64	1537.73
425.83	1486.24
426.01	1516.67
426.20	1458.15
426.39	1488.58
426.58	1551.78
426.77	1507.30
426.96	1554.12
427.15	1584.54
427.33	1563.48
427.52	1591.56
427.71	1593.90
427.90	1568.16
428.09	1612.63
428.28	1614.97
428.46	1533.05
428.65	1643.06
428.84	1577.52
429.03	1703.91
429.22	1612.63
429.40	1643.06
429.59	1685.19
429.78	1621.99
429.97	1554.12
430.16	1605.61
430.34	1664.12
430.53	1715.61
430.72	1593.90
430.91	1774.13
431.10	1664.12
431.28	1689.87
431.47	1671.14
431.66	1776.47
431.85	1671.14
432.03	1678.16
432.22	1813.92
432.41	1760.08
432.60	1785.83
432.79	1764.76
432.97	1727.32
433.16	1785.83
433.35	1732.00
433.54	1844.34
433.72	1914.56
433.91	1900.52
434.10	1750.72
434.28	1842.00
434.47	1860.73
434.66	1860.73
434.85	1849.02
435.03	2066.69
435.22	2073.71
435.41	2221.17
435.59	2237.55
435.78	2113.50
435.97	1963.71
436.16	2017.54
436.34	2001.16
436.53	1914.56
436.72	1937.96
436.90	1891.15
437.09	2001.16
437.28	2008.18
437.46	2005.84
437.65	1933.28
437.84	2083.08
438.02	1914.56
438.21	1935.62
438.40	1900.52
438.58	2012.86
438.77	2085.42
438.96	2073.71
439.14	2083.08
439.33	2120.53
439.52	2101.80
439.70	2139.25
439.89	2193.08
440.08	2249.25
440.26	2120.53
440.45	2183.72
440.63	2200.10
440.82	2237.55
441.01	2228.19
441.19	2225.85
441.38	2373.30
441.57	2317.13
441.75	2251.60
441.94	2413.09
442.12	2263.30
442.31	2377.98
442.50	2256.28
442.68	2396.71
442.87	2382.67
443.05	2394.37
443.24	2387.35
443.43	2324.15
443.61	2499.69
443.80	2466.92
443.98	2499.69
444.17	2298.41
444.35	2495.01
444.54	2361.60
444.73	2466.92
444.91	2532.46
445.10	2396.71
445.28	2450.54
445.47	2441.18
445.65	2523.10
445.84	2392.03
446.02	2485.65
446.21	2455.22
446.39	2427.14
446.58	2459.90
446.77	2555.86
446.95	2551.18
447.14	2520.76
447.32	2569.91
447.51	2413.09
447.69	2539.48
447.88	2492.67
448.06	2513.74
448.25	2392.03
448.43	2504.37
448.62	2443.52
448.80	2555.86
448.99	2644.81
449.17	2644.81
449.36	2492.67
449.54	2574.59
449.73	2588.63
449.91	2616.72
450.10	2654.17
450.28	2654.17
450.46	2640.12
450.65	2672.89
450.83	2733.75
451.02	2710.34
451.20	2605.02
451.39	2705.66
451.57	2724.38
451.76	2661.19
451.94	2672.89
452.13	2820.35
452.31	2782.90
452.49	2605.02
452.68	2644.81
452.86	2834.39
453.05	2881.20
453.23	2724.38
453.42	2731.41
453.60	2703.32
453.78	2789.92
453.97	2719.70
454.15	2883.54
454.34	2827.37
454.52	2757.15
454.70	2876.52
454.89	2871.84
455.07	2846.09
455.26	2743.11
455.44	2939.71
455.62	2827.37
455.81	2782.90
455.99	2923.33
456.17	2979.50
456.36	3014.61
456.54	2911.63
456.73	2846.09
456.91	2984.18
457.09	3007.59
457.28	3047.38
457.46	2995.89
457.64	3082.49
457.83	3056.74
458.01	2995.89
458.19	3049.72
458.38	3019.29
458.56	3023.97
458.74	3002.91
458.93	3045.04
459.11	3080.14
459.29	3262.71
459.48	3126.96
459.66	3199.51
459.84	3126.96
460.03	3276.75
460.21	3180.79
460.39	3176.11
460.57	3183.13
460.76	3262.71
460.94	3229.94
461.12	3295.47
461.31	3192.49
461.49	3133.98
461.67	3300.16
461.85	3311.86
462.04	3190.15
462.22	3386.76
462.40	3419.52
462.59	3302.50
462.77	3342.28
462.95	3318.88
463.13	3304.84
463.32	3295.47
463.50	3433.57
463.68	3365.69
463.86	3318.88
464.05	3276.75
464.23	3330.58
464.41	3318.88
464.59	3309.52
464.78	3412.50
464.96	3321.22
465.14	3337.60
465.32	3524.85
465.50	3599.74
465.69	3562.30
465.87	3459.31
466.05	3578.68
466.23	3478.04
466.41	3581.02
466.60	3602.08
466.78	3452.29
466.96	3510.80
467.14	3503.78
467.32	3552.93
467.51	3609.11
467.69	3459.31
467.87	3543.57
468.05	3665.28
468.23	3529.53
468.41	3552.93
468.60	3555.27
468.78	3550.59
468.96	3543.57
469.14	3545.91
469.32	3625.49
469.50	3489.74
469.69	3611.45
469.87	3705.07
470.05	3712.09
470.23	3824.44
470.41	3716.77
470.59	3786.99
470.77	3803.37
470.95	3868.91
471.14	3992.95
471.32	3763.58
471.50	3754.22
471.68	3896.99
471.86	3836.14
472.04	3822.09
472.22	3971.89
472.40	3950.82
472.58	4009.34
472.77	3936.78
472.95	4021.04
473.13	4109.98
473.31	3960.19
473.49	4046.79
473.67	4063.17
473.85	4063.17
474.03	3960.19
474.21	4224.67
474.39	4236.37
474.57	4320.63
474.75	4231.69
474.93	4381.48
475.12	4198.92
475.30	4166.15
475.48	4175.52
475.66	4315.95
475.84	4358.08
476.02	4294.88
476.20	4346.37
476.38	4407.23
476.56	4585.11
476.74	4397.87
476.92	4472.76
477.10	4440.00
477.28	4610.86
477.46	4730.22
477.64	4564.04
477.82	4568.73
478.00	4727.88
478.18	4713.84
478.36	4849.59
478.54	4620.22
478.72	4828.53
478.90	4865.97
479.08	4931.51
479.26	4856.61
479.44	5181.95
479.62	4926.83
479.80	4952.57
479.98	5048.54
480.16	5125.77
480.34	5315.36
480.52	5102.37
480.70	5163.22
480.88	5135.14
481.06	5282.59
481.24	5273.23
481.41	5329.40
481.59	5364.51
481.77	5497.92
481.95	5404.30
482.13	5591.54
482.31	5511.96
482.49	5612.60
482.67	5591.54
482.85	5666.44
483.03	5778.78
483.21	5795.17
483.39	5757.72
483.57	5841.98
483.74	5769.42
483.92	5844.32
484.10	5949.64
484.28	6019.86
484.46	6150.93
484.64	6122.84
484.82	6026.88
485.00	6284.34
485.18	6359.24
485.35	6530.09
485.53	6455.20
485.71	6572.22
485.89	6502.01
486.07	6267.95
486.25	6539.46
486.43	6516.05
486.61	6633.08
486.78	6740.74
486.96	6644.78
487.14	6743.08
487.32	6675.21
487.50	6920.96
487.68	6825.00
487.85	7080.12
488.03	7183.10
488.21	7187.79
488.39	7096.50
488.57	7131.61
488.75	7272.04
488.92	7426.52
489.10	7293.11
489.28	7349.28
489.46	7358.64
489.64	7461.63
489.81	7672.28
489.99	7639.51
490.17	7648.87
490.35	7578.65
490.53	7932.08
490.70	7812.71
490.88	7969.52
491.06	7896.97
491.24	7903.99
491.41	8042.08
491.59	8116.98
491.77	8142.72
491.95	8198.90
492.13	8100.59
492.30	8081.87
492.48	8542.96
492.66	8437.63
492.84	8348.69
493.01	8573.38
493.19	8404.86
493.37	8634.24
493.54	8498.49
493.72	8760.63
493.90	8538.27
494.08	8858.93
494.25	8968.93
494.43	9074.26
494.61	8898.72
494.79	8910.42
494.96	8858.93
495.14	8929.14
495.32	9233.41
495.49	9027.45
495.67	9284.91
495.85	9217.03
496.02	9205.33
496.20	9399.59
496.38	9315.33
496.55	9320.01
496.73	9448.74
496.91	9359.80
497.09	9561.09
497.26	9418.32
497.44	9638.33
497.62	9561.09
497.79	9757.69
497.97	9764.72
498.14	9963.66
498.32	9755.35
498.50	9834.93
498.67	10043.24
498.85	10092.39
499.03	10029.20
499.20	9856.00
499.38	9958.98
499.56	10256.23
499.73	10090.05
499.91	10256.23
500.08	10239.84
500.26	10111.11
500.44	10239.84
500.61	10469.22
500.79	10148.56
500.97	10497.30
501.14	10595.61
501.32	10537.09
501.49	10284.31
501.67	10368.57
501.84	10614.33
502.02	10553.48
502.20	10867.11
502.37	10656.46
502.55	10787.53
502.72	10839.02
502.90	10855.40
503.07	10565.18
503.25	11059.03
503.43	10801.57
503.60	10883.49
503.78	10846.04
503.95	10956.05
504.13	10967.75
504.30	11091.80
504.48	10878.81
504.65	11108.18
504.83	11246.27
505.01	11480.33
505.18	11248.61
505.36	11206.48
505.53	11250.96
505.71	11384.37
505.88	11506.07
506.06	11260.32
506.23	11414.79
506.41	11499.05
506.58	11557.57
506.76	11585.65
506.93	11583.31
507.11	11384.37
507.28	11590.33
507.46	11763.53
507.63	11716.72
507.81	11623.10
507.98	11847.79
508.16	11658.21
508.33	12011.63
508.50	11679.27
508.68	11861.84
508.85	11929.71
509.03	11969.50
509.20	12123.98
509.38	12257.39
509.55	12278.45
509.73	12210.57
509.90	12313.56
510.08	12367.39
510.25	12177.81
510.42	12404.84
510.60	12695.07
510.77	12336.96
510.95	12439.95
511.12	12404.84
511.30	12549.95
511.47	12561.66
511.64	12561.66
511.82	12486.76
511.99	12627.19
512.17	12772.30
512.34	12905.71
512.51	12739.54
512.69	12816.77
512.86	12833.16
513.04	12865.92
513.21	12917.42
513.38	12802.73
513.56	13064.87
513.73	12947.84
513.90	12858.90
514.08	12985.29
514.25	13212.32
514.43	12898.69
514.60	13228.71
514.77	12994.65
514.95	13167.85
515.12	13397.23
515.29	13099.98
515.47	13453.40
515.64	13123.38
515.81	13135.09
515.99	13687.45
516.16	13397.23
516.33	13282.54
516.51	13261.48
516.68	13451.06
516.85	13453.40
517.03	13479.15
517.20	13532.98
517.37	13448.72
517.54	13579.79
517.72	13469.78
517.89	13547.02
518.06	13642.98
518.24	13598.51
518.41	13383.18
518.58	13816.18
518.75	13813.84
518.93	13774.05
519.10	13947.25
519.27	14015.13
519.45	14155.56
519.62	13881.72
519.79	13825.54
519.96	13834.91
520.14	14104.07
520.31	14167.26
520.48	14099.39
520.65	14090.02
520.83	14211.73
521.00	14108.75
521.17	14083.00
521.34	14270.25
521.52	14305.35
521.69	14059.60
521.86	14284.29
522.03	14108.75
522.20	14546.43
522.38	14305.35
522.55	14204.71
522.72	14286.63
522.89	14422.38
523.07	14869.42
523.24	14640.05
523.41	14724.31
523.58	14595.58
523.75	14759.42
523.92	14551.11
524.10	14714.95
524.27	14651.75
524.44	14780.48
524.61	14787.50
524.78	14831.97
524.96	14860.06
525.13	15019.22
525.30	14860.06
525.47	15056.67
525.64	14977.09
525.81	15211.14
525.98	15012.20
526.16	15166.67
526.33	14977.09
526.50	15176.03
526.67	15255.61
526.84	15061.35
527.01	15061.35
527.18	15140.93
527.36	15119.86
527.53	15140.93
527.70	15566.90
527.87	15496.69
528.04	15204.12
528.21	15433.49
528.38	15377.32
528.55	15473.28
528.72	15623.08
528.89	15302.42
529.07	15805.64
529.24	15618.39
529.41	15431.15
529.58	15527.11
529.75	15517.75
529.92	15522.43
530.09	15707.34
530.26	15744.78
530.43	15866.49
530.60	15468.60
530.77	15761.17
530.94	15527.11
531.11	15920.32
531.28	15693.29
531.46	16035.01
531.63	15655.84
531.80	16063.10
531.97	15866.49
532.14	15784.57
532.31	15971.82
532.48	15704.99
532.65	15838.41
532.82	15857.13
532.99	15880.53
533.16	15950.75
533.33	16208.21
533.50	16468.01
533.67	16240.98
533.84	16311.19
534.01	16201.19
534.18	16042.03
534.35	16510.14
534.52	16299.49
534.69	16484.39
534.86	16325.24
535.03	16262.04
535.20	16615.46
535.37	16327.58
535.54	16561.63
535.71	16037.35
535.88	16678.66
536.05	16498.44
536.22	16664.61
536.38	16503.12
536.55	16650.57
536.72	16622.48
536.89	16608.44
537.06	16884.62
537.23	16695.04
537.40	16463.33
537.57	16521.84
537.74	16863.56
537.91	16889.31
538.08	16847.18
538.25	16805.05
538.42	16767.60
538.59	16645.89
538.75	16774.62
538.92	16657.59
539.09	16896.33
539.26	16788.66
539.43	17092.93
539.60	17219.32
539.77	16664.61
539.94	16947.82
540.11	16954.84
540.28	17202.94
540.44	17167.83
540.61	17104.64
540.78	17249.75
540.95	17212.30
541.12	17200.60
541.29	17427.63
541.46	17273.15
541.62	17371.46
541.79	17418.27
541.96	17352.73
542.13	17380.82
542.30	17518.91
542.47	17762.33
542.63	17418.27
542.80	17614.87
542.97	17607.85
543.14	17720.20
543.31	17659.34
543.48	17542.32
543.64	17682.75
543.81	17696.79
543.98	17809.14
544.15	17832.54
544.32	17493.16
544.48	18043.19
544.65	17687.43
544.82	17830.20
544.99	17518.91
545.16	18008.08
545.32	18043.19
545.49	18523.00
545.66	18558.11
545.83	18834.29
546.00	18546.40
546.16	18157.88
546.33	18157.88
546.50	17743.60
546.67	17930.84
546.83	17453.37
547.00	17862.97
547.17	17764.67
547.34	18078.30
547.50	17792.75
547.67	18207.03
547.84	17862.97
548.00	17893.40
548.17	18279.58
548.34	17991.70
548.51	18256.18
548.67	18244.48
548.84	18036.17
549.01	17865.31
549.18	18071.28
549.34	18001.06
549.51	17851.27
549.68	18068.94
549.84	18141.49
550.01	18384.91
550.18	18218.73
550.34	18246.82
550.51	18178.94
550.68	18389.59
550.84	18111.07
551.01	17937.87
551.18	18129.79
551.34	18361.50
551.51	18281.92
551.68	18443.42
551.84	18480.87
552.01	18471.51
552.18	18544.06
552.34	18188.30
552.51	18232.77
552.68	18218.73
552.84	18420.02
553.01	18579.17
553.18	18478.53
553.34	18398.95
553.51	18382.57
553.67	18546.40
553.84	18803.86
554.01	18838.97
554.17	18356.82
554.34	18609.60
554.51	18443.42
554.67	18728.97
554.84	18504.28
555.00	18377.89
555.17	18593.22
555.33	18242.14
555.50	18466.83
555.67	18457.46
555.83	18429.38
556.00	18457.46
556.16	19080.05
556.33	18621.30
556.50	18593.22
556.66	18438.74
556.83	18544.06
556.99	18560.45
557.16	18857.70
557.32	18754.71
557.49	18621.30
557.65	18548.75
557.82	18630.66
557.98	18511.30
558.15	18368.52
558.32	18913.87
558.48	18616.62
558.65	18567.47
558.81	18813.23
558.98	18728.97
559.14	19110.47
559.31	18611.94
559.47	18808.54
559.64	18939.62
559.80	18775.78
559.97	19040.26
560.13	19133.88
560.30	18801.52
560.46	19044.94
560.63	18857.70
560.79	18647.05
560.96	18946.64
561.12	18937.27
561.29	18820.25
561.45	18930.25
561.61	18675.13
561.78	19627.73
561.94	19047.28
562.11	19201.76
562.27	18750.03
562.44	18700.88
562.60	18574.49
562.77	18754.71
562.93	18497.25
563.10	19236.86
563.26	19082.39
563.42	19365.59
563.59	19377.30
563.75	19098.77
563.92	19276.65
564.08	19101.11
564.24	19042.60
564.41	18913.87
564.57	19161.97
564.74	18862.38
564.90	19232.18
565.07	19136.22
565.23	19145.58
565.39	19154.94
565.56	19283.67
565.72	18834.29
565.88	18948.98
566.05	18890.46
566.21	19213.46
566.38	19281.33
566.54	19040.26
566.70	19358.57
566.87	19215.80
567.03	19061.32
567.19	19410.06
567.36	18977.06
567.52	19192.39
567.68	19124.52
567.85	18951.32
568.01	18876.42
568.17	19021.53
568.34	19126.86
568.50	19276.65
568.66	19283.67
568.83	19484.96
568.99	19503.68
569.15	18981.74
569.32	19096.43
569.48	19154.94
569.64	19463.90
569.81	19281.33
569.97	19021.53
570.13	19625.39
570.30	19344.53
570.46	19367.93
570.62	19157.28
570.78	19517.73
570.95	19190.05
571.11	19304.74
571.27	19190.05
571.43	19271.97
571.60	19288.35
571.76	19262.61
571.92	19482.62
572.09	19248.57
572.25	19391.34
572.41	19253.25
572.57	19356.23
572.74	19772.85
572.90	19197.07
573.06	19496.66
573.22	19314.10
573.38	19201.76
573.55	19108.13
573.71	19630.07
573.87	19410.06
574.03	19250.91
574.20	19398.36
574.36	19400.70
574.52	19201.76
574.68	19220.48
574.84	19587.94
575.01	19690.93
575.17	19592.62
575.33	19447.51
575.49	19325.80
575.65	19613.69
575.82	19585.60
575.98	19330.48
576.14	19351.55
576.30	19288.35
576.46	19281.33
576.62	19349.21
576.79	19803.27
576.95	19683.91
577.11	19520.07
577.27	19199.41
577.43	19700.29
577.59	19714.33
577.75	19576.24
577.92	19295.38
578.08	19353.89
578.24	19583.26
578.40	19679.22
578.56	19627.73
578.72	19470.92
578.88	19761.14
579.04	19477.94
579.21	19410.06
579.37	19730.72
579.53	19389.00
579.69	19407.72
579.85	19513.05
580.01	19791.57
580.17	19264.95
580.33	19534.11
580.49	19686.25
580.65	19735.40
580.82	19534.11
580.98	19386.66
581.14	19475.60
581.30	19803.27
581.46	19342.19
581.62	19449.85
581.78	19545.81
581.94	19665.18
582.10	19536.45
582.26	19470.92
582.42	19398.36
582.58	19721.35
582.74	19360.91
582.90	19599.65
583.06	19545.81
583.22	19566.88
583.38	19571.56
583.54	19475.60
583.70	19700.29
583.86	19613.69
584.02	19782.21
584.18	19618.37
584.34	19833.70
584.50	19791.57
584.66	19606.67
584.82	19379.64
584.98	19847.74
585.14	19908.60
585.30	19541.13
585.46	19639.44
585.62	19681.56
585.78	19545.81
585.94	19655.82
586.10	19873.49
586.26	19719.01
586.42	19847.74
586.58	19599.65
586.74	19777.53
586.90	19552.84
587.06	19857.10
587.22	19693.27
587.38	19747.10
587.54	19648.80
587.70	19906.26
587.86	19716.67
588.02	19623.05
588.18	19812.63
588.34	19676.88
588.49	19389.00
588.65	19559.86
588.81	19620.71
588.97	19836.04
589.13	19964.77
589.29	19824.34
589.45	19782.21
589.61	19620.71
589.77	19885.19
589.93	19688.59
590.08	19496.66
590.24	19763.48
590.40	19754.12
590.56	20154.35
590.72	19826.68
590.88	19665.18
591.04	19665.18
591.20	19992.86
591.35	20184.78
591.51	19873.49
591.67	19831.36
591.83	20079.46
591.99	19672.20
592.15	19922.64
592.31	20027.96
592.46	19957.75
592.62	19714.33
592.78	19496.66
