SpectraSuite Data File
++++++++++++++++++++++++++++++++++++
Date: Fri Oct 04 11:39:55 GMT-05:00 2013
User: price-jones
Dark Spectrum Present: No
Reference Spectrum Present: No
Number of Sampled Component Spectra: 1
Spectrometers: USB2+H05261
Integration Time (usec): 100000 (USB2+H05261)
Spectra Averaged: 1 (USB2+H05261)
Boxcar Smoothing: 0 (USB2+H05261)
Correct for Electrical Dark: No (USB2+H05261)
Strobe/Lamp Enabled: No (USB2+H05261)
Correct for Detector Non-linearity: No (USB2+H05261)
Correct for Stray Light: No (USB2+H05261)
Number of Pixels in Processed Spectrum: 2048
>>>>>Begin Processed Spectral Data<<<<<
365.73	37.45
365.92	37.45
366.12	37.45
366.32	0.00
366.52	0.00
366.72	0.00
366.91	0.00
367.11	0.00
367.31	0.00
367.51	0.00
367.70	0.00
367.90	0.00
368.10	0.00
368.30	0.00
368.49	0.00
368.69	0.00
368.89	0.00
369.09	0.00
369.28	0.00
369.48	0.00
369.68	0.00
369.87	0.00
370.07	0.00
370.27	30.43
370.47	35.11
370.66	79.58
370.86	159.16
371.06	149.79
371.25	168.52
371.45	126.39
371.65	145.11
371.84	173.20
372.04	138.09
372.24	133.41
372.44	198.95
372.63	182.56
372.83	241.08
373.03	196.60
373.22	100.64
373.42	203.63
373.62	180.22
373.81	208.31
374.01	215.33
374.21	194.26
374.40	168.52
374.60	205.97
374.79	182.56
374.99	217.67
375.19	243.42
375.38	203.63
375.58	182.56
375.78	203.63
375.97	255.12
376.17	241.08
376.37	245.76
376.56	287.89
376.76	231.71
376.95	159.16
377.15	259.80
377.35	198.95
377.54	245.76
377.74	222.35
377.93	208.31
378.13	266.82
378.33	236.39
378.52	191.92
378.72	280.86
378.91	182.56
379.11	245.76
379.31	189.58
379.50	236.39
379.70	142.77
379.89	198.95
380.09	201.29
380.28	229.37
380.48	248.10
380.68	255.12
380.87	250.44
381.07	234.05
381.26	248.10
381.46	173.20
381.65	203.63
381.85	166.18
382.04	229.37
382.24	245.76
382.43	170.86
382.63	196.60
382.83	234.05
383.02	196.60
383.22	266.82
383.41	210.65
383.61	241.08
383.80	156.82
384.00	238.73
384.19	262.14
384.39	234.05
384.58	191.92
384.78	241.08
384.97	273.84
385.17	250.44
385.36	208.31
385.56	280.86
385.75	177.88
385.95	227.03
386.14	313.63
386.34	243.42
386.53	245.76
386.72	252.78
386.92	271.50
387.11	227.03
387.31	278.52
387.50	227.03
387.70	236.39
387.89	241.08
388.09	308.95
388.28	271.50
388.48	262.14
388.67	276.18
388.86	198.95
389.06	196.60
389.25	306.61
389.45	259.80
389.64	227.03
389.84	236.39
390.03	231.71
390.22	285.55
390.42	318.31
390.61	198.95
390.81	224.69
391.00	255.12
391.19	276.18
391.39	245.76
391.58	348.74
391.78	299.59
391.97	322.99
392.16	325.33
392.36	423.64
392.55	313.63
392.75	372.15
392.94	278.52
393.13	386.19
393.33	327.68
393.52	294.91
393.71	299.59
393.91	304.27
394.10	344.06
394.29	358.10
394.49	341.72
394.68	348.74
394.88	355.76
395.07	304.27
395.26	306.61
395.46	332.36
395.65	444.70
395.84	458.74
396.04	442.36
396.23	346.40
396.42	353.42
396.62	358.10
396.81	369.80
397.00	444.70
397.19	498.53
397.39	449.38
397.58	482.15
397.77	463.43
397.97	442.36
398.16	433.00
398.35	454.06
398.55	444.70
398.74	444.70
398.93	449.38
399.12	461.09
399.32	512.58
399.51	402.57
399.70	557.05
399.90	531.30
400.09	484.49
400.28	465.77
400.47	547.69
400.67	500.87
400.86	510.24
401.05	599.18
401.24	512.58
401.44	524.28
401.63	580.45
401.82	587.47
402.01	559.39
402.21	657.69
402.40	545.34
402.59	533.64
402.78	571.09
402.97	629.60
403.17	613.22
403.36	657.69
403.55	603.86
403.74	594.50
403.93	650.67
404.13	704.50
404.32	702.16
404.51	734.93
404.70	760.67
404.89	606.20
405.09	697.48
405.28	702.16
405.47	723.23
405.66	699.82
405.85	718.54
406.05	725.57
406.24	753.65
406.43	788.76
406.62	863.66
406.81	805.14
407.00	851.96
407.20	709.18
407.39	826.21
407.58	807.48
407.77	858.98
407.96	933.87
408.15	884.72
408.34	884.72
408.54	915.15
408.73	877.70
408.92	835.57
409.11	997.07
409.30	938.55
409.49	983.02
409.68	917.49
409.87	1011.11
410.07	990.05
410.26	952.60
410.45	1020.47
410.64	985.37
410.83	1100.05
411.02	1057.92
411.21	1055.58
411.40	1022.81
411.59	1104.73
411.78	1057.92
411.98	1135.16
412.17	1165.59
412.36	1196.01
412.55	1233.46
412.74	1245.16
412.93	1245.16
413.12	1114.10
413.31	1350.49
413.50	1160.91
413.69	1242.82
413.88	1432.41
414.07	1282.61
414.26	1343.47
414.45	1418.36
414.64	1289.64
414.83	1390.28
415.02	1373.89
415.22	1572.84
415.41	1469.86
415.60	1481.56
415.79	1441.77
415.98	1549.43
416.17	1495.60
416.36	1504.96
416.55	1596.25
416.74	1528.37
416.93	1453.47
417.12	1572.84
417.31	1678.16
417.50	1586.88
417.69	1591.56
417.88	1682.85
418.07	1610.29
418.26	1696.89
418.45	1778.81
418.64	1799.87
418.83	1724.97
419.02	1614.97
419.21	1717.95
419.39	1732.00
419.58	1706.25
419.77	1813.92
419.96	1933.28
420.15	1928.60
420.34	1778.81
420.53	1774.13
420.72	1806.89
420.91	1959.03
421.10	1919.24
421.29	1888.81
421.48	1895.83
421.67	1930.94
421.86	1912.22
422.05	1947.33
422.24	1858.39
422.43	1949.67
422.61	1956.69
422.80	2005.84
422.99	1900.52
423.18	1982.43
423.37	1961.37
423.56	2029.24
423.75	1987.11
423.94	2024.56
424.13	1881.79
424.32	1926.26
424.50	2076.06
424.69	2101.80
424.88	2059.67
425.07	1980.09
425.26	1926.26
425.45	1940.30
425.64	2047.97
425.83	2012.86
426.01	2104.14
426.20	2024.56
426.39	1996.48
426.58	2108.82
426.77	1996.48
426.96	2176.70
427.15	2076.06
427.33	2097.12
427.52	2202.44
427.71	2090.10
427.90	2270.32
428.09	2099.46
428.28	2153.29
428.46	2218.83
428.65	2232.87
428.84	2289.04
429.03	2211.81
429.22	2186.06
429.40	2197.76
429.59	2270.32
429.78	2176.70
429.97	2193.08
430.16	2195.42
430.34	2284.36
430.53	2305.43
430.72	2368.62
430.91	2291.38
431.10	2284.36
431.28	2293.72
431.47	2375.64
431.66	2490.33
431.85	2490.33
432.03	2541.82
432.22	2527.78
432.41	2471.61
432.60	2544.16
432.79	2380.32
432.97	2499.69
433.16	2572.25
433.35	2502.03
433.54	2485.65
433.72	2473.95
433.91	2399.05
434.10	2565.23
434.28	2555.86
434.47	2525.44
434.66	2574.59
434.85	2555.86
435.03	2710.34
435.22	2799.28
435.41	2878.86
435.59	3056.74
435.78	2820.35
435.97	2825.03
436.16	2806.30
436.34	2787.58
436.53	2726.72
436.72	2925.67
436.90	2696.30
437.09	2733.75
437.28	2602.68
437.46	2686.94
437.65	2761.83
437.84	2796.94
438.02	2726.72
438.21	2813.32
438.40	2815.66
438.58	2876.52
438.77	2876.52
438.96	2789.92
439.14	2864.82
439.33	2796.94
439.52	2965.46
439.70	3009.93
439.89	3063.76
440.08	3040.36
440.26	2998.23
440.45	2937.37
440.63	2951.42
440.82	3045.04
441.01	3150.36
441.19	3045.04
441.38	3229.94
441.57	3262.71
441.75	3126.96
441.94	3258.03
442.12	3248.66
442.31	3349.31
442.50	3314.20
442.68	3222.92
442.87	3265.05
443.05	3330.58
443.24	3449.95
443.43	3356.33
443.61	3597.40
443.80	3506.12
443.98	3370.37
444.17	3293.13
444.35	3454.63
444.54	3475.70
444.73	3391.44
444.91	3438.25
445.10	3536.55
445.28	3435.91
445.47	3309.52
445.65	3405.48
445.84	3445.27
446.02	3459.31
446.21	3485.06
446.39	3375.05
446.58	3449.95
446.77	3384.41
446.95	3346.97
447.14	3501.44
447.32	3531.87
447.51	3543.57
447.69	3515.48
447.88	3595.06
448.06	3386.76
448.25	3613.79
448.43	3620.81
448.62	3578.68
448.80	3496.76
448.99	3538.89
449.17	3578.68
449.36	3424.20
449.54	3566.98
449.73	3576.34
449.91	3691.02
450.10	3602.08
450.28	3646.55
450.46	3812.73
450.65	3646.55
450.83	3684.00
451.02	3768.26
451.20	3812.73
451.39	3857.20
451.57	3782.31
451.76	3665.28
451.94	3772.94
452.13	3871.25
452.31	4014.02
452.49	3824.44
452.68	3747.20
452.86	3810.39
453.05	3899.33
453.23	3955.51
453.42	3805.71
453.60	3843.16
453.78	3782.31
453.97	3831.46
454.15	3803.37
454.34	3922.74
454.52	4088.92
454.70	3941.46
454.89	4100.62
455.07	4021.04
455.26	4030.40
455.44	4112.32
455.62	4086.58
455.81	4046.79
455.99	4021.04
456.17	3997.64
456.36	4093.60
456.54	4210.62
456.73	4128.70
456.91	4154.45
457.09	4250.41
457.28	4344.03
457.46	4065.51
457.64	4173.18
457.83	4353.40
458.01	4297.22
458.19	4344.03
458.38	4262.12
458.56	4346.37
458.74	4367.44
458.93	4470.42
459.11	4231.69
459.29	4437.66
459.48	4428.29
459.66	4470.42
459.84	4423.61
460.03	4655.33
460.21	4421.27
460.39	4601.49
460.57	4547.66
460.76	4613.20
460.94	4596.81
461.12	4428.29
461.31	4528.94
461.49	4542.98
461.67	4496.17
461.85	4641.28
462.04	4676.39
462.22	5160.88
462.40	4758.31
462.59	4589.79
462.77	4641.28
462.95	4784.06
463.13	4713.84
463.32	4706.82
463.50	4758.31
463.68	4730.22
463.86	4751.29
464.05	4683.41
464.23	4816.82
464.41	4805.12
464.59	4599.15
464.78	4868.31
464.96	4994.70
465.14	4765.33
465.32	4795.76
465.50	5020.45
465.69	5011.09
465.87	4865.97
466.05	4959.60
466.23	4901.08
466.41	5071.94
466.60	5149.18
466.78	5011.09
466.96	4896.40
467.14	4905.76
467.32	5046.20
467.51	5090.67
467.69	4901.08
467.87	4992.36
468.05	5076.62
468.23	4954.91
468.41	5004.07
468.60	5011.09
468.78	5041.51
468.96	5097.69
469.14	5193.65
469.32	5263.86
469.50	5074.28
469.69	5233.44
469.87	5385.57
470.05	5263.86
470.23	5284.93
470.41	5357.49
470.59	5254.50
470.77	5186.63
470.95	5479.19
471.14	5518.98
471.32	5352.81
471.50	5451.11
471.68	5605.58
471.86	5441.75
472.04	5509.62
472.22	5624.31
472.40	5350.46
472.58	5575.16
472.77	5554.09
472.95	5727.29
473.13	5881.77
473.31	5734.31
473.49	5706.23
473.67	5867.72
473.85	5753.04
474.03	5870.06
474.21	5856.02
474.39	5907.51
474.57	5837.30
474.75	5968.37
474.93	6097.10
475.12	5926.24
475.30	5907.51
475.48	6087.73
475.66	5923.90
475.84	6139.23
476.02	6209.44
476.20	6160.29
476.38	6235.19
476.56	6319.45
476.74	6403.71
476.92	6195.40
477.10	6307.74
477.28	6527.75
477.46	6431.79
477.64	6469.24
477.82	6619.04
478.00	6586.27
478.18	6668.19
478.36	6803.94
478.54	6747.76
478.72	6846.07
478.90	6937.35
479.08	6799.26
479.26	7112.89
479.44	7035.65
479.62	7028.63
479.80	7035.65
479.98	7176.08
480.16	7433.54
480.34	7222.89
480.52	7227.57
480.70	7424.18
480.88	7375.03
481.06	7403.11
481.24	7339.92
481.41	7447.58
481.59	7513.12
481.77	7534.18
481.95	7824.41
482.13	7892.29
482.31	7693.34
482.49	7953.14
482.67	8159.11
482.85	7971.86
483.03	8189.53
483.21	8358.05
483.39	8311.24
483.57	8292.52
483.74	8212.94
483.92	8404.86
484.10	8512.53
484.28	8444.65
484.46	8954.89
484.64	8774.67
484.82	8638.92
485.00	8617.85
485.18	8943.19
485.35	9025.11
485.53	9102.34
485.71	9029.79
485.89	9256.82
486.07	9177.24
486.25	9111.71
486.43	9081.28
486.61	9474.49
486.78	9638.33
486.96	9383.21
487.14	9724.93
487.32	9345.76
487.50	9731.95
487.68	9933.23
487.85	9760.03
488.03	10092.39
488.21	10314.74
488.39	10183.67
488.57	10347.51
488.75	10237.50
488.92	10656.46
489.10	10504.32
489.28	10396.66
489.46	10445.81
489.64	10445.81
489.81	10855.40
489.99	10780.51
490.17	10684.55
490.35	11033.29
490.53	10867.11
490.70	11187.76
490.88	11183.08
491.06	11119.89
491.24	11138.61
491.41	11157.33
491.59	11494.37
491.77	11634.80
491.95	11534.16
492.13	11555.22
492.30	11946.09
492.48	11878.22
492.66	11534.16
492.84	11892.26
493.01	11829.07
493.19	12053.76
493.37	12119.29
493.54	12187.17
493.72	12322.92
493.90	12198.87
494.08	12149.72
494.25	12402.50
494.43	12643.57
494.61	12549.95
494.79	12620.17
494.96	12528.89
495.14	12772.30
495.32	12767.62
495.49	13160.83
495.67	13011.04
495.85	12987.63
496.02	13062.53
496.20	13256.79
496.38	13270.84
496.55	13013.38
496.73	13441.70
496.91	13209.98
497.09	13432.33
497.26	13710.86
497.44	13406.59
497.62	13408.93
497.79	13858.31
497.97	13682.77
498.14	13944.91
498.32	13884.06
498.50	14160.24
498.67	14171.94
498.85	14193.01
499.03	14052.58
499.20	14167.26
499.38	14279.61
499.56	14431.74
499.73	14558.13
499.91	14492.60
500.08	14335.78
500.26	14228.12
500.44	14658.78
500.61	14939.64
500.79	14717.29
500.97	15117.52
501.14	15187.74
501.32	14986.45
501.49	14876.44
501.67	14991.13
501.84	15297.74
502.02	14988.79
502.20	15227.53
502.37	15304.76
502.55	15094.11
502.72	15520.09
502.90	15335.19
503.07	15321.15
503.25	15545.84
503.43	15435.83
503.60	15653.50
503.78	15651.16
503.95	15721.38
504.13	15686.27
504.30	15672.23
504.48	15693.29
504.65	15726.06
504.83	16145.02
505.01	15864.15
505.18	15992.88
505.36	16248.00
505.53	15796.28
505.71	15976.50
505.88	16229.27
506.06	15957.77
506.23	16336.94
506.41	16311.19
506.58	16542.91
506.76	16311.19
506.93	16533.54
507.11	16430.56
507.28	16610.78
507.46	16725.47
507.63	16638.87
507.81	16676.32
507.98	16578.01
508.16	16828.45
508.33	16800.37
508.50	17020.38
508.68	17069.53
508.85	17394.86
509.03	17282.52
509.20	17331.67
509.38	17652.32
509.55	17352.73
509.73	17256.77
509.90	17563.38
510.08	17458.06
510.25	17825.52
510.42	17371.46
510.60	17542.32
510.77	17589.13
510.95	17776.37
511.12	18003.40
511.30	17851.27
511.47	17823.18
511.64	18157.88
511.82	17919.14
511.99	18038.51
512.17	18099.36
512.34	17935.53
512.51	18284.26
512.69	18361.50
512.86	18022.12
513.04	18494.91
513.21	18302.99
513.38	18600.24
513.56	18513.64
513.73	18417.68
513.90	18560.45
514.08	18452.78
514.25	18452.78
514.43	18867.06
514.60	18656.41
514.77	18768.76
514.95	18948.98
515.12	18600.24
515.29	18754.71
515.47	18993.45
515.64	19218.14
515.81	19021.53
515.99	19140.90
516.16	19274.31
516.33	19197.07
516.51	19314.10
516.68	19005.15
516.85	19028.56
517.03	19309.42
517.20	19122.18
517.37	19419.42
517.54	19419.42
517.72	19527.09
517.89	19527.09
518.06	19580.92
518.24	19393.68
518.41	19372.61
518.58	19524.75
518.75	19686.25
518.93	19784.55
519.10	19878.17
519.27	19873.49
519.45	19700.29
519.62	20222.23
519.79	19896.89
519.96	19971.79
520.14	19974.13
520.31	19943.70
520.48	20187.12
520.65	20306.49
520.83	20416.49
521.00	20222.23
521.17	20119.24
521.34	20285.42
521.52	20372.02
521.69	20449.26
521.86	20535.86
522.03	20442.24
522.20	20535.86
522.38	20734.81
522.55	20559.27
522.72	20774.60
522.89	20655.23
523.07	21013.33
523.24	20891.62
523.41	20924.39
523.58	20688.00
523.75	20940.77
523.92	20896.30
524.10	21097.59
524.27	21429.94
524.44	21188.87
524.61	21469.73
524.78	20978.22
524.96	21551.65
525.13	21310.58
525.30	21631.23
525.47	21341.00
525.64	21240.36
525.81	21699.11
525.98	21406.54
526.16	21434.63
526.33	21399.52
526.50	21565.70
526.67	21486.12
526.84	21612.51
527.01	21378.45
527.18	21699.11
527.36	21525.91
527.53	21984.65
527.70	21806.77
527.87	22003.38
528.04	21884.01
528.21	21752.94
528.38	22108.70
528.55	21963.59
528.72	22115.72
528.89	21958.91
529.07	21715.49
529.24	22115.72
529.41	21979.97
529.58	22118.06
529.75	22370.84
529.92	22286.58
530.09	22616.60
530.26	22317.01
530.43	22522.98
530.60	21898.05
530.77	22302.96
530.94	22822.56
531.11	22642.34
531.28	22480.85
531.46	22764.05
531.63	22698.52
531.80	22731.28
531.97	22822.56
532.14	22883.42
532.31	22838.95
532.48	22761.71
532.65	22684.47
532.82	22686.81
532.99	22923.21
533.16	23089.38
533.33	23051.94
533.50	22995.76
533.67	22836.61
533.84	22518.29
534.01	23204.07
534.18	22714.90
534.35	23531.75
534.52	23456.85
534.69	23527.06
534.86	23442.81
535.03	23524.72
535.20	23262.58
535.37	23487.28
535.54	23489.62
535.71	23318.76
535.88	23562.17
536.05	23054.28
536.22	23728.35
536.38	23503.66
536.55	23683.88
536.72	23353.87
536.89	23445.15
537.06	23655.79
537.23	23456.85
537.40	23417.06
537.57	23555.15
537.74	23763.46
537.91	24056.03
538.08	24098.16
538.25	23999.85
538.42	23819.63
538.59	23857.08
538.75	23857.08
538.92	23850.06
539.09	24297.10
539.26	24065.39
539.43	24311.14
539.60	24292.42
539.77	24128.58
539.94	24222.20
540.11	24163.69
540.28	24414.13
540.44	24292.42
540.61	24032.62
540.78	24458.60
540.95	24662.22
541.12	24776.91
541.29	24732.44
541.46	24671.59
541.62	24512.43
541.79	24524.13
541.96	24601.37
542.13	24570.94
542.30	24945.43
542.47	25013.31
542.63	24936.07
542.80	24893.94
542.97	25186.50
543.14	25053.09
543.31	25350.34
543.48	24900.96
543.64	25296.51
543.81	25546.95
543.98	25315.23
544.15	25254.38
544.32	25357.36
544.48	25357.36
544.65	25151.40
544.82	25036.71
544.99	24814.36
545.16	25301.19
545.32	25057.78
545.49	26141.44
545.66	26188.25
545.83	26665.72
546.00	26326.35
546.16	25972.92
546.33	25219.27
546.50	25376.09
546.67	25369.07
546.83	25230.98
547.00	25380.77
547.17	25425.24
547.34	25654.61
547.50	25366.73
547.67	25467.37
547.84	25706.10
548.00	25619.50
548.17	25296.51
548.34	25703.76
548.51	25467.37
548.67	25923.77
548.84	25483.75
549.01	25266.08
549.18	25429.92
549.34	25551.63
549.51	25376.09
549.68	25270.76
549.84	25692.06
550.01	25516.52
550.18	25759.94
550.34	25649.93
550.51	25764.62
550.68	25717.81
550.84	25413.54
551.01	25876.96
551.18	25909.73
551.34	25825.47
551.51	25610.14
551.68	25591.42
551.84	25785.68
552.01	25699.08
552.18	26202.30
552.34	25919.09
552.51	26087.61
552.68	25993.99
552.84	25694.40
553.01	25593.76
553.18	25661.63
553.34	26169.53
553.51	26384.86
553.67	26153.15
553.84	26141.44
554.01	26125.06
554.17	26192.94
554.34	25565.67
554.51	25825.47
554.67	26342.73
554.84	26377.84
555.00	26211.66
555.17	25993.99
555.33	26356.77
555.50	25883.98
555.67	25998.67
555.83	25965.90
556.00	26225.70
556.16	26483.16
556.33	25937.82
556.50	26134.42
556.66	26520.61
556.83	25949.52
556.99	25991.65
557.16	26607.21
557.32	26340.39
557.49	26169.53
557.65	25928.45
557.82	25979.95
557.98	26120.38
558.15	26232.72
558.32	26366.13
558.48	26190.59
558.65	26590.83
558.81	26270.17
558.98	26492.52
559.14	26298.26
559.31	26513.59
559.47	26129.74
559.64	26384.86
559.80	26426.99
559.97	26569.76
560.13	26878.71
560.30	26438.69
560.46	26366.13
560.63	26581.46
560.79	26909.14
560.96	26813.18
561.12	26225.70
561.29	26600.19
561.45	26684.45
561.61	26520.61
561.78	26588.49
561.94	26710.19
562.11	26647.00
562.27	26230.38
562.44	26536.99
562.60	26544.02
562.77	26309.96
562.93	26274.85
563.10	26785.09
563.26	26525.29
563.42	26801.47
563.59	26429.33
563.75	26579.12
563.92	26644.66
564.08	26403.58
564.24	26375.50
564.41	26684.45
564.57	26572.10
564.74	26345.07
564.90	26651.68
565.07	26953.61
565.23	26576.78
565.39	26522.95
565.56	26588.49
565.72	26511.25
565.88	26909.14
566.05	26724.24
566.21	26492.52
566.38	26398.90
566.54	26560.40
566.70	26962.97
566.87	26656.36
567.03	26553.38
567.19	26888.07
567.36	26609.55
567.52	26338.05
567.68	26728.92
567.85	26525.29
568.01	26581.46
568.17	26445.71
568.34	26757.00
568.50	26836.58
568.66	26497.20
568.83	27243.84
568.99	26579.12
569.15	26862.33
569.32	26649.34
569.48	26632.96
569.64	26838.92
569.81	26539.33
569.97	26478.48
570.13	26822.54
570.30	26548.70
570.46	26850.63
570.62	26981.70
570.78	26412.95
570.95	26506.57
571.11	26806.16
571.27	26595.51
571.43	26679.77
571.60	26897.44
571.76	26981.70
571.92	26871.69
572.09	26728.92
572.25	26953.61
572.41	26918.50
572.57	27037.87
572.74	27206.39
572.90	26881.05
573.06	26946.59
573.22	26649.34
573.38	26628.27
573.55	27063.61
573.71	27016.80
573.87	27314.05
574.03	26895.10
574.20	26892.76
574.36	26766.37
574.52	26724.24
574.68	27204.05
574.84	26918.50
575.01	26738.28
575.17	26913.82
575.33	26574.44
575.49	26611.89
575.65	27257.88
575.82	27166.60
575.98	26850.63
576.14	26822.54
576.30	27164.26
576.46	26675.09
576.62	27255.54
576.79	27180.64
576.95	26796.79
577.11	27058.93
577.27	27185.32
577.43	26651.68
577.59	27192.34
577.75	26787.43
577.92	26518.27
578.08	26686.79
578.24	26448.05
578.40	27002.76
578.56	27229.79
578.72	26960.63
578.88	27250.86
579.04	27325.75
579.21	27304.69
579.37	27007.44
579.53	26782.75
579.69	26796.79
579.85	26902.12
580.01	26974.67
580.17	26986.38
580.33	27063.61
580.49	27344.48
580.65	26974.67
580.82	27084.68
580.98	27250.86
581.14	27044.89
581.30	27316.39
581.46	26614.23
581.62	26782.75
581.78	27016.80
581.94	27096.38
582.10	26630.62
582.26	26953.61
582.42	26778.07
582.58	27021.48
582.74	27117.45
582.90	27105.74
583.06	27077.66
583.22	26874.03
583.38	26948.93
583.54	26883.39
583.70	26852.97
583.86	27047.23
584.02	26841.26
584.18	26939.57
584.34	27145.53
584.50	27307.03
584.66	26927.86
584.82	26663.38
584.98	26974.67
585.14	26916.16
585.30	27077.66
585.46	26946.59
585.62	27047.23
585.78	27070.64
585.94	26799.13
586.10	27288.31
586.26	26974.67
586.42	27309.37
586.58	27204.05
586.74	27005.10
586.90	26869.35
587.06	27016.80
587.22	27246.18
587.38	27098.72
587.54	27143.19
587.70	27014.46
587.86	26984.04
588.02	27002.76
588.18	27206.39
588.34	27080.00
588.49	27351.50
588.65	27019.14
588.81	26939.57
588.97	27300.01
589.13	27290.65
589.29	27232.13
589.45	27358.52
589.61	27201.71
589.77	26813.18
589.93	27072.98
590.08	27456.82
590.24	27197.02
590.40	26998.08
590.56	27082.34
590.72	27129.15
590.88	26778.07
591.04	26977.01
591.20	27484.91
591.35	27468.53
591.51	27356.18
591.67	27164.26
591.83	27417.04
591.99	27206.39
592.15	27318.73
