SpectraSuite Data File
++++++++++++++++++++++++++++++++++++
Date: Fri Oct 04 11:39:24 GMT-05:00 2013
User: price-jones
Dark Spectrum Present: No
Reference Spectrum Present: No
Number of Sampled Component Spectra: 1
Spectrometers: USB2+H05261
Integration Time (usec): 100000 (USB2+H05261)
Spectra Averaged: 1 (USB2+H05261)
Boxcar Smoothing: 0 (USB2+H05261)
Correct for Electrical Dark: No (USB2+H05261)
Strobe/Lamp Enabled: No (USB2+H05261)
Correct for Detector Non-linearity: No (USB2+H05261)
Correct for Stray Light: No (USB2+H05261)
Number of Pixels in Processed Spectrum: 2048
>>>>>Begin Processed Spectral Data<<<<<
365.73	110.01
365.92	110.01
366.12	110.01
366.32	0.00
366.52	0.00
366.72	0.00
366.91	0.00
367.11	0.00
367.31	0.00
367.51	0.00
367.70	0.00
367.90	0.00
368.10	0.00
368.30	0.00
368.49	21.06
368.69	23.41
368.89	0.00
369.09	0.00
369.28	25.75
369.48	0.00
369.68	2.34
369.87	2.34
370.07	0.00
370.27	23.41
370.47	49.15
370.66	229.37
370.86	243.42
371.06	290.23
371.25	341.72
371.45	238.73
371.65	325.33
371.84	250.44
372.04	348.74
372.24	294.91
372.44	287.89
372.63	292.57
372.83	269.16
373.03	332.36
373.22	325.33
373.42	355.76
373.62	301.93
373.81	308.95
374.01	411.93
374.21	372.15
374.40	301.93
374.60	454.06
374.79	353.42
374.99	388.53
375.19	386.19
375.38	433.00
375.58	322.99
375.78	440.02
375.97	386.19
376.17	404.91
376.37	454.06
376.56	388.53
376.76	372.15
376.95	372.15
377.15	374.49
377.35	351.08
377.54	468.11
377.74	383.85
377.93	430.66
378.13	372.15
378.33	388.53
378.52	334.70
378.72	454.06
378.91	395.55
379.11	407.25
379.31	414.27
379.50	376.83
379.70	400.23
379.89	442.36
380.09	418.96
380.28	442.36
380.48	416.62
380.68	435.34
380.87	440.02
381.07	383.85
381.26	409.59
381.46	463.43
381.65	414.27
381.85	440.02
382.04	404.91
382.24	463.43
382.43	447.04
382.63	425.98
382.83	489.17
383.02	440.02
383.22	435.34
383.41	358.10
383.61	447.04
383.80	468.11
384.00	475.13
384.19	496.19
384.39	491.51
384.58	524.28
384.78	503.22
384.97	580.45
385.17	510.24
385.36	472.79
385.56	500.87
385.75	444.70
385.95	552.37
386.14	543.00
386.34	505.56
386.53	543.00
386.72	465.77
386.92	566.41
387.11	550.03
387.31	580.45
387.50	503.22
387.70	592.16
387.89	620.24
388.09	507.90
388.28	526.62
388.48	524.28
388.67	594.50
388.86	557.05
389.06	514.92
389.25	617.90
389.45	587.47
389.64	550.03
389.84	545.34
390.03	641.31
390.22	603.86
390.42	613.22
390.61	547.69
390.81	737.27
391.00	617.90
391.19	741.95
391.39	692.80
391.58	645.99
391.78	622.58
391.97	624.92
392.16	622.58
392.36	706.84
392.55	671.73
392.75	716.20
392.94	688.12
393.13	770.04
393.33	734.93
393.52	727.91
393.71	713.86
393.91	706.84
394.10	716.20
394.29	650.67
394.49	763.01
394.68	723.23
394.88	763.01
395.07	809.83
395.26	793.44
395.46	760.67
395.65	840.25
395.84	734.93
396.04	758.33
396.23	758.33
396.42	772.38
396.62	823.87
396.81	765.36
397.00	842.59
397.19	727.91
397.39	891.74
397.58	931.53
397.77	858.98
397.97	870.68
398.16	896.43
398.35	912.81
398.55	880.04
398.74	936.21
398.93	863.66
399.12	908.13
399.32	884.72
399.51	959.62
399.70	940.90
399.90	1011.11
400.09	971.32
400.28	976.00
400.47	994.73
400.67	1004.09
400.86	1011.11
401.05	1008.77
401.24	894.08
401.44	1015.79
401.63	1015.79
401.82	1074.31
402.01	1022.81
402.21	1121.12
402.40	1137.50
402.59	1090.69
402.78	1118.78
402.97	1123.46
403.17	1249.85
403.36	1102.39
403.55	1071.97
403.74	1193.67
403.93	1214.74
404.13	1184.31
404.32	1217.08
404.51	1221.76
404.70	1352.83
404.89	1268.57
405.09	1357.51
405.28	1291.98
405.47	1273.25
405.66	1306.02
405.85	1336.45
406.05	1366.87
406.24	1296.66
406.43	1401.98
406.62	1357.51
406.81	1500.28
407.00	1359.85
407.20	1301.34
407.39	1378.58
407.58	1413.68
407.77	1460.49
407.96	1514.33
408.15	1493.26
408.34	1547.09
408.54	1605.61
408.73	1570.50
408.92	1549.43
409.11	1643.06
409.30	1507.30
409.49	1654.76
409.68	1626.67
409.87	1675.82
410.07	1631.35
410.26	1584.54
410.45	1760.08
410.64	1713.27
410.83	1762.42
411.02	1769.44
411.21	1874.77
411.40	1923.92
411.59	1781.15
411.78	1781.15
411.98	1837.32
412.17	1991.80
412.36	1930.94
412.55	1980.09
412.74	1935.62
412.93	1973.07
413.12	1937.96
413.31	2087.76
413.50	1909.88
413.69	1991.80
413.88	2127.55
414.07	2099.46
414.26	2076.06
414.45	2104.14
414.64	2064.35
414.83	2246.91
415.02	2211.81
415.22	2284.36
415.41	2303.09
415.60	2251.60
415.79	2265.64
415.98	2469.27
416.17	2406.07
416.36	2385.01
416.55	2335.85
416.74	2427.14
416.93	2462.24
417.12	2394.37
417.31	2495.01
417.50	2480.97
417.69	2612.04
417.88	2649.49
418.07	2803.96
418.26	2621.40
418.45	2595.65
418.64	2651.83
418.83	2693.96
419.02	2719.70
419.21	2794.60
419.39	2747.79
419.58	2649.49
419.77	2640.12
419.96	2871.84
420.15	2792.26
420.34	2874.18
420.53	2778.22
420.72	2935.03
420.91	2953.76
421.10	2960.78
421.29	2956.10
421.48	2890.56
421.67	3000.57
421.86	3033.33
422.05	2937.37
422.24	2979.50
422.43	3016.95
422.61	3012.27
422.80	3002.91
422.99	3077.80
423.18	3211.22
423.37	3133.98
423.56	3056.74
423.75	3066.10
423.94	3056.74
424.13	2979.50
424.32	2953.76
424.50	3042.70
424.69	3206.53
424.88	3084.83
425.07	3157.38
425.26	3145.68
425.45	3056.74
425.64	3080.14
425.83	3098.87
426.01	3274.41
426.20	3143.34
426.39	3152.70
426.58	3164.40
426.77	3164.40
426.96	3091.85
427.15	3246.32
427.33	3180.79
427.52	3222.92
427.71	3206.53
427.90	3342.28
428.09	3234.62
428.28	3398.46
428.46	3435.91
428.65	3431.23
428.84	3468.67
429.03	3543.57
429.22	3407.82
429.40	3353.99
429.59	3375.05
429.78	3421.86
429.97	3253.34
430.16	3424.20
430.34	3506.12
430.53	3686.34
430.72	3609.11
430.91	3648.90
431.10	3517.83
431.28	3588.04
431.47	3604.42
431.66	3791.67
431.85	3569.32
432.03	3740.18
432.22	3735.50
432.41	3688.68
432.60	3836.14
432.79	3667.62
432.97	3786.99
433.16	3768.26
433.35	3702.73
433.54	3698.05
433.72	3974.23
433.91	3878.27
434.10	3918.06
434.28	3833.80
434.47	3934.44
434.66	4037.42
434.85	4070.19
435.03	4007.00
435.22	4259.78
435.41	4512.55
435.59	4315.95
435.78	4355.74
435.97	4191.90
436.16	4030.40
436.34	4112.32
436.53	4184.88
436.72	4337.01
436.90	3957.85
437.09	4166.15
437.28	4184.88
437.46	4229.35
437.65	4334.67
437.84	4313.61
438.02	4196.58
438.21	4280.84
438.40	4234.03
438.58	4407.23
438.77	4390.84
438.96	4325.31
439.14	4568.73
439.33	4458.72
439.52	4587.45
439.70	4547.66
439.89	4681.07
440.08	4538.30
440.26	4737.24
440.45	4767.67
440.63	4851.93
440.82	4800.44
441.01	4777.03
441.19	4777.03
441.38	4870.65
441.57	4791.08
441.75	4936.19
441.94	5123.43
442.12	5158.54
442.31	5067.26
442.50	5144.50
442.68	4959.60
442.87	5020.45
443.05	5128.11
443.24	5177.26
443.43	5266.21
443.61	5280.25
443.80	5322.38
443.98	5018.11
444.17	5027.47
444.35	5294.29
444.54	5317.70
444.73	5296.63
444.91	5282.59
445.10	5273.23
445.28	5378.55
445.47	5385.57
445.65	5277.91
445.84	5198.33
446.02	5399.62
446.21	5362.17
446.39	5289.61
446.58	5320.04
446.77	5500.26
446.95	5308.34
447.14	5352.81
447.32	5411.32
447.51	5324.72
447.69	5348.12
447.88	5308.34
448.06	5451.11
448.25	5263.86
448.43	5334.08
448.62	5514.30
448.80	5472.17
448.99	5540.05
449.17	5675.80
449.36	5516.64
449.54	5582.18
449.73	5682.82
449.91	5788.14
450.10	5659.42
450.28	5720.27
450.46	5816.23
450.65	5563.45
450.83	5755.38
451.02	5762.40
451.20	5879.43
451.39	5898.15
451.57	5687.50
451.76	5682.82
451.94	5914.53
452.13	5776.44
452.31	5874.74
452.49	5664.10
452.68	6059.65
452.86	5783.46
453.05	5914.53
453.23	5923.90
453.42	5940.28
453.60	5984.75
453.78	6003.47
453.97	5895.81
454.15	6289.02
454.34	5987.09
454.52	6197.74
454.70	6176.67
454.89	6218.80
455.07	6216.46
455.26	6188.38
455.44	6232.85
455.62	6265.61
455.81	6218.80
455.99	6171.99
456.17	6228.17
456.36	6228.17
456.54	6511.37
456.73	6502.01
456.91	6518.39
457.09	6686.91
457.28	6738.40
457.46	6466.90
457.64	6569.88
457.83	6590.95
458.01	6607.33
458.19	6825.00
458.38	6562.86
458.56	6827.34
458.74	6937.35
458.93	6693.93
459.11	6839.05
459.29	6612.01
459.48	6745.42
459.66	6949.05
459.84	6967.77
460.03	7040.33
460.21	6888.20
460.39	6899.90
460.57	6778.19
460.76	6871.81
460.94	7052.03
461.12	7056.72
461.31	6970.12
461.49	7091.82
461.67	6857.77
461.85	7152.68
462.04	7105.87
462.22	7393.75
462.40	7363.33
462.59	7016.93
462.77	7218.21
462.95	7356.30
463.13	7157.36
463.32	7372.69
463.50	7494.40
463.68	7543.55
463.86	7475.67
464.05	7485.03
464.23	7475.67
464.41	7510.78
464.59	7360.98
464.78	7524.82
464.96	7482.69
465.14	7304.81
465.32	7618.44
465.50	7719.09
465.69	7662.91
465.87	7400.77
466.05	7599.72
466.23	7641.85
466.41	7573.97
466.60	7906.33
466.78	7838.45
466.96	7672.28
467.14	7733.13
467.32	7698.02
467.51	7859.52
467.69	7517.80
467.87	7908.67
468.05	7868.88
468.23	7810.37
468.41	7922.71
468.60	8021.02
468.78	7906.33
468.96	7852.50
469.14	8116.98
469.32	8088.89
469.50	7990.59
469.69	8011.65
469.87	8236.35
470.05	8231.66
470.23	8276.13
470.41	8334.65
470.59	8557.00
470.77	8489.12
470.95	8360.39
471.14	8547.64
471.32	8182.51
471.50	8442.31
471.68	8360.39
471.86	8533.59
472.04	8624.87
472.22	8741.90
472.40	8784.03
472.58	8659.98
472.77	8769.99
472.95	8746.58
473.13	9132.77
473.31	8755.94
473.49	8947.87
473.67	8898.72
473.85	8938.51
474.03	9034.47
474.21	9116.39
474.39	9231.07
474.57	9137.45
474.75	9238.09
474.93	9535.34
475.12	9322.35
475.30	9525.98
475.48	9376.19
475.66	9561.09
475.84	9408.95
476.02	9689.82
476.20	9715.56
476.38	9853.66
476.56	9867.70
476.74	9973.02
476.92	9767.06
477.10	9813.87
477.28	10174.31
477.46	10181.33
477.64	10363.89
477.82	10125.16
478.00	10565.18
478.18	10551.14
478.36	10574.54
478.54	10970.09
478.72	10796.89
478.90	11012.22
479.08	10946.69
479.26	10832.00
479.44	11293.08
479.62	11115.20
479.80	11293.08
479.98	11215.85
480.16	11503.73
480.34	11431.18
480.52	11667.57
480.70	11620.76
480.88	11726.08
481.06	11559.91
481.24	11758.85
481.41	11716.72
481.59	11997.59
481.77	12023.33
481.95	12056.10
482.13	12397.82
482.31	12257.39
482.49	12596.76
482.67	12503.14
482.85	12695.07
483.03	12833.16
483.21	13060.19
483.39	13123.38
483.57	12905.71
483.74	13238.07
483.92	13174.88
484.10	13235.73
484.28	13612.56
484.46	13708.52
484.64	13965.98
484.82	13586.81
485.00	13727.24
485.18	13956.61
485.35	14373.23
485.53	14085.34
485.71	14312.38
485.89	14424.72
486.07	14766.44
486.25	14579.20
486.43	14724.31
486.61	14934.96
486.78	14918.57
486.96	15101.14
487.14	15307.10
487.32	15353.91
487.50	15550.52
487.68	15571.58
487.85	15522.43
488.03	16042.03
488.21	16168.42
488.39	16152.04
488.57	16355.66
488.75	16231.62
488.92	16561.63
489.10	16369.71
489.28	16507.80
489.46	16891.65
489.64	16816.75
489.81	17535.29
489.99	17139.74
490.17	17532.95
490.35	17661.68
490.53	17376.14
490.70	17635.94
490.88	17862.97
491.06	17947.23
491.24	17799.77
491.41	18066.60
491.59	18260.86
491.77	18181.28
491.95	18352.14
492.13	18431.72
492.30	18441.08
492.48	18569.81
492.66	18878.76
492.84	18644.71
493.01	19007.49
493.19	19197.07
493.37	19372.61
493.54	19335.17
493.72	19201.76
493.90	19681.56
494.08	19946.05
494.25	19824.34
494.43	20018.60
494.61	19995.20
494.79	20020.94
494.96	20109.88
495.14	20252.66
495.32	20533.52
495.49	20372.02
495.67	20814.38
495.85	20755.87
496.02	21010.99
496.20	21163.12
496.38	20929.07
496.55	21207.59
496.73	21509.52
496.91	21460.37
497.09	21603.14
497.26	21862.94
497.44	21830.18
497.62	21862.94
497.79	21944.86
497.97	21736.56
498.14	22483.19
498.32	22466.80
498.50	22602.55
498.67	22398.93
498.85	22473.82
499.03	22916.19
499.20	22836.61
499.38	23119.81
499.56	23089.38
499.73	22960.66
499.91	22883.42
500.08	23323.44
500.26	23171.30
500.44	23271.95
500.61	23564.51
500.79	23571.54
500.97	24119.22
501.14	24271.36
501.32	24006.87
501.49	23922.62
501.67	24025.60
501.84	24198.80
502.02	24198.80
502.20	24341.57
502.37	24362.64
502.55	24273.70
502.72	24395.40
502.90	24734.78
503.07	24467.96
503.25	24790.95
503.43	24636.48
503.60	24865.85
503.78	25055.43
503.95	24755.85
504.13	24933.73
504.30	25055.43
504.48	25153.74
504.65	25523.54
504.83	25474.39
505.01	25474.39
505.18	25193.53
505.36	25996.33
505.53	25699.08
505.71	25876.96
505.88	26012.71
506.06	25568.01
506.23	26473.80
506.41	26258.47
506.58	26265.49
506.76	26256.13
506.93	26508.91
507.11	26452.73
507.28	26513.59
507.46	26635.30
507.63	26672.74
507.81	27012.12
507.98	26712.53
508.16	26684.45
508.33	27133.83
508.50	26916.16
508.68	27133.83
508.85	27559.81
509.03	27166.60
509.20	27587.89
509.38	27700.24
509.55	27700.24
509.73	27438.10
509.90	27962.38
510.08	27920.25
510.25	27852.38
510.42	28126.22
510.60	28252.61
510.77	28149.62
510.95	28116.86
511.12	28210.48
511.30	28268.99
511.47	28292.40
511.64	29053.07
511.82	29120.95
511.99	28491.34
512.17	28725.39
512.34	29022.64
512.51	29024.98
512.69	29069.45
512.86	29120.95
513.04	29411.17
513.21	29249.67
513.38	29539.90
513.56	29619.48
513.73	29633.52
513.90	29039.03
514.08	29446.28
514.25	29898.00
514.43	29883.96
514.60	30026.73
514.77	30080.56
514.95	30089.93
515.12	30228.02
515.29	29582.03
515.47	30192.91
515.64	30323.98
515.81	30511.22
515.99	30918.48
516.16	30609.53
516.33	30855.28
516.51	31091.68
516.68	30792.09
516.85	30719.53
517.03	31087.00
517.20	31096.36
517.37	30890.39
517.54	31379.56
517.72	31311.69
517.89	31178.28
518.06	31098.70
518.24	30984.01
518.41	31431.05
518.58	31777.45
518.75	31407.65
518.93	31945.97
519.10	31571.49
519.27	31775.11
519.45	31608.93
519.62	32088.74
519.79	32161.30
519.96	31805.54
520.14	32184.71
520.31	32224.50
520.48	32442.17
520.65	32400.04
520.83	32472.59
521.00	32446.85
521.17	32313.44
521.34	32205.77
521.52	32414.08
521.69	32669.20
521.86	32676.22
522.03	33027.30
522.20	33240.29
522.38	33123.26
522.55	32680.90
522.72	32980.49
522.89	33347.95
523.07	33303.48
523.24	33277.74
523.41	33425.19
523.58	33282.42
523.75	33916.70
523.92	33254.33
524.10	33642.86
524.27	33626.48
524.44	33923.72
524.61	34265.44
524.78	34099.26
524.96	33682.65
525.13	34127.35
525.30	33783.29
525.47	33830.10
525.64	34295.87
525.81	34298.21
525.98	34644.61
526.16	34520.56
526.33	34204.59
526.50	34888.03
526.67	34274.80
526.84	34302.89
527.01	34195.23
527.18	34429.28
527.36	34728.87
527.53	34983.99
527.70	35489.54
527.87	35381.88
528.04	35037.82
528.21	35098.67
528.38	34696.10
528.55	35145.48
528.72	35466.14
528.89	35438.05
529.07	34883.34
529.24	35297.62
529.41	35388.90
529.58	35487.20
529.75	35597.21
529.92	35531.67
530.09	35267.19
530.26	35751.68
530.43	35894.46
530.60	35983.40
530.77	35857.01
530.94	36070.00
531.11	35744.66
531.28	36308.73
531.46	35983.40
531.63	36275.96
531.80	36301.71
531.97	35824.24
532.14	36488.95
532.31	36313.41
532.48	36215.11
532.65	36559.17
532.82	36428.10
532.99	36287.67
533.16	36397.67
533.33	36690.24
533.50	37083.45
533.67	36788.54
533.84	36776.84
534.01	36598.96
534.18	36570.87
534.35	36662.15
534.52	36868.12
534.69	37095.15
534.86	37338.57
535.03	36835.35
535.20	37312.82
535.37	37399.42
535.54	37696.67
535.71	37450.91
535.88	37397.08
536.05	37586.66
536.22	37736.46
536.38	37919.02
536.55	37893.27
536.72	37511.77
536.89	37549.21
537.06	37729.44
537.23	37584.32
537.40	37511.77
537.57	37794.97
537.74	37853.48
537.91	37631.13
538.08	38581.39
538.25	37940.08
538.42	38450.32
538.59	38286.48
538.75	37958.81
538.92	38043.07
539.09	38707.78
539.26	38387.13
539.43	38600.12
539.60	38768.63
539.77	38370.74
539.94	38593.09
540.11	39196.95
540.28	38539.26
540.44	38696.08
540.61	38754.59
540.78	38590.75
540.95	38986.30
541.12	39077.58
541.29	39274.19
541.46	39028.43
541.62	39154.82
541.79	39063.54
541.96	39409.94
542.13	39248.44
542.30	39622.93
542.47	39658.04
542.63	39576.12
542.80	39679.10
542.97	39955.29
543.14	39606.55
543.31	39772.72
543.48	39386.54
543.64	40023.16
543.81	40584.89
543.98	40238.49
544.15	40095.72
544.32	40289.98
544.48	40282.96
544.65	40034.86
544.82	40034.86
544.99	40233.81
545.16	40612.98
545.32	40327.43
545.49	41053.00
545.66	41289.39
545.83	41797.29
546.00	41415.78
546.16	41097.47
546.33	40357.86
546.50	39889.75
546.67	40374.24
546.83	40098.06
547.00	40343.81
547.17	40996.82
547.34	40608.29
547.50	40495.95
547.67	40910.22
547.84	40329.77
548.00	40746.39
548.17	40797.88
548.34	40671.49
548.51	40952.35
548.67	41273.01
548.84	40744.05
549.01	40872.78
549.18	41207.47
549.34	40926.61
549.51	41256.62
549.68	40875.12
549.84	41069.38
550.01	41359.61
550.18	41174.70
550.34	41591.32
550.51	41453.23
550.68	41663.88
550.84	41354.93
551.01	41443.87
551.18	40978.10
551.34	41392.37
551.51	40971.08
551.68	41399.40
551.84	41698.98
552.01	41647.49
552.18	41731.75
552.34	41706.01
552.51	41062.36
552.68	41481.31
552.84	41886.23
553.01	41408.76
553.18	41750.48
553.34	41743.45
553.51	41698.98
553.67	41497.70
553.84	42010.28
554.01	42281.78
554.17	42117.94
554.34	41820.69
554.51	41731.75
554.67	42026.66
554.84	42012.62
555.00	41769.20
555.17	41956.44
555.33	42012.62
555.50	42073.47
555.67	41907.29
555.83	41542.17
556.00	41846.44
556.16	42511.15
556.33	41804.31
556.50	42169.43
556.66	42143.69
556.83	42443.27
556.99	42536.90
557.16	42511.15
557.32	42623.50
557.49	42220.92
557.65	42136.66
557.82	42003.25
557.98	42522.85
558.15	42382.42
558.32	42663.28
558.48	42890.32
558.65	42880.95
558.81	42639.88
558.98	42663.28
559.14	42150.71
559.31	42043.04
559.47	42593.07
559.64	42838.83
559.80	42733.50
559.97	43353.74
560.13	42342.63
560.30	42883.30
560.46	42911.38
560.63	42899.68
560.79	42600.09
560.96	42714.78
561.12	43009.68
561.29	42726.48
561.45	42829.46
561.61	42682.01
561.78	42635.20
561.94	42895.00
562.11	43058.84
562.27	42759.25
562.44	43093.94
562.60	42799.04
562.77	42843.51
562.93	42398.80
563.10	43648.65
563.26	43145.44
563.42	43849.94
563.59	43075.22
563.75	42955.85
563.92	43234.38
564.08	42958.19
564.24	42684.35
564.41	42939.47
564.57	42630.52
564.74	42932.45
564.90	43072.88
565.07	43313.95
565.23	43136.07
565.39	43194.59
565.56	43344.38
565.72	42850.53
565.88	43365.45
566.05	43171.18
566.21	43203.95
566.38	42845.85
566.54	43688.44
566.70	43751.63
566.87	43533.96
567.03	43070.54
567.19	43938.88
567.36	43718.87
567.52	43459.07
567.68	43243.74
567.85	43377.15
568.01	43040.11
568.17	43714.19
568.34	43749.29
568.50	43625.25
568.66	43243.74
568.83	43697.80
568.99	43040.11
569.15	43157.14
569.32	43332.68
569.48	43337.36
569.64	43213.31
569.81	43370.13
569.97	43117.35
570.13	43512.90
570.30	43491.83
570.46	44034.84
570.62	43077.56
570.78	43477.79
570.95	43456.73
571.11	43599.50
571.27	43482.47
571.43	43262.46
571.60	42944.15
571.76	43526.94
571.92	43508.22
572.09	43620.56
572.25	43917.81
572.41	43838.23
572.57	43920.15
572.74	43878.02
572.90	43896.75
573.06	43320.98
573.22	43517.58
573.38	43971.64
573.55	43636.95
573.71	44212.72
573.87	44081.65
574.03	43377.15
574.20	43313.95
574.36	43391.19
574.52	43302.25
574.68	43388.85
574.84	43531.62
575.01	43693.12
575.17	43856.96
575.33	43718.87
575.49	43543.33
575.65	43487.15
575.82	43772.70
575.98	44135.48
576.14	43796.10
576.30	43896.75
576.46	43529.28
576.62	43606.52
576.79	43948.24
576.95	43899.09
577.11	43943.56
577.27	44182.29
577.43	44170.59
577.59	43983.35
577.75	43683.76
577.92	43821.85
578.08	43496.52
578.24	43185.22
578.40	43817.17
578.56	43845.26
578.72	43978.67
578.88	44587.21
579.04	44163.57
579.21	43892.07
579.37	44367.20
579.53	43629.93
579.69	43494.18
579.85	43524.60
580.01	43744.61
580.17	44065.27
580.33	43758.66
580.49	43871.00
580.65	44350.81
580.82	44037.18
580.98	44032.50
581.14	43892.07
581.30	43828.87
581.46	43903.77
581.62	44311.02
581.78	43615.88
581.94	44371.88
582.10	43807.81
582.26	44154.21
582.42	44016.11
582.58	44374.22
582.74	43824.19
582.90	44170.59
583.06	44011.43
583.22	43894.41
583.38	44051.22
583.54	43990.37
583.70	44067.61
583.86	43889.73
584.02	44006.75
584.18	44191.65
584.34	43840.57
584.50	44144.84
584.66	44109.74
584.82	44156.55
584.98	44435.07
585.14	44184.63
585.30	43913.13
585.46	43681.42
585.62	44034.84
585.78	44191.65
585.94	43789.08
586.10	44172.93
586.26	44119.10
586.42	44247.83
586.58	44114.42
586.74	44271.23
586.90	44137.82
587.06	44245.49
587.22	44273.57
587.38	43880.36
587.54	44332.09
587.70	44198.68
587.86	44086.33
588.02	44308.68
588.18	44629.34
588.34	44449.11
588.49	43721.21
588.65	44353.15
588.81	44350.81
588.97	44140.16
589.13	43936.54
589.29	44348.47
589.45	44397.62
589.61	44626.99
589.77	44601.25
589.93	44500.61
590.08	44502.95
590.24	44474.86
590.40	44329.75
590.56	44737.00
590.72	44112.08
590.88	44170.59
