SpectraSuite Data File
++++++++++++++++++++++++++++++++++++
Date: Tue Oct 01 18:27:28 GMT-05:00 2013
User: stostad
Dark Spectrum Present: No
Reference Spectrum Present: No
Number of Sampled Component Spectra: 1
Spectrometers: USB2+H05261
Integration Time (usec): 100000 (USB2+H05261)
Spectra Averaged: 1 (USB2+H05261)
Boxcar Smoothing: 0 (USB2+H05261)
Correct for Electrical Dark: No (USB2+H05261)
Strobe/Lamp Enabled: No (USB2+H05261)
Correct for Detector Non-linearity: No (USB2+H05261)
Correct for Stray Light: No (USB2+H05261)
Number of Pixels in Processed Spectrum: 2048
>>>>>Begin Processed Spectral Data<<<<<
365.73	72.56
365.92	72.56
366.12	72.56
366.32	0.00
366.52	18.72
366.72	42.13
366.91	0.00
367.11	30.43
367.31	0.00
367.51	0.00
367.70	0.00
367.90	0.00
368.10	0.00
368.30	0.00
368.49	0.00
368.69	0.00
368.89	7.02
369.09	0.00
369.28	28.09
369.48	0.00
369.68	32.77
369.87	58.51
370.07	65.54
370.27	16.38
370.47	152.13
370.66	222.35
370.86	290.23
371.06	287.89
371.25	381.51
371.45	287.89
371.65	285.55
371.84	301.93
372.04	355.76
372.24	362.78
372.44	411.93
372.63	358.10
372.83	437.68
373.03	400.23
373.22	362.78
373.42	433.00
373.62	421.30
373.81	428.32
374.01	402.57
374.21	409.59
374.40	437.68
374.60	528.96
374.79	498.53
374.99	524.28
375.19	482.15
375.38	517.26
375.58	444.70
375.78	472.79
375.97	461.09
376.17	517.26
376.37	409.59
376.56	505.56
376.76	449.38
376.95	451.72
377.15	531.30
377.35	503.22
377.54	482.15
377.74	400.23
377.93	449.38
378.13	543.00
378.33	521.94
378.52	566.41
378.72	594.50
378.91	507.90
379.11	454.06
379.31	477.47
379.50	514.92
379.70	526.62
379.89	582.79
380.09	484.49
380.28	496.19
380.48	507.90
380.68	554.71
380.87	528.96
381.07	610.88
381.26	613.22
381.46	489.17
381.65	526.62
381.85	622.58
382.04	561.73
382.24	531.30
382.43	564.07
382.63	575.77
382.83	615.56
383.02	622.58
383.22	648.33
383.41	503.22
383.61	571.09
383.80	622.58
384.00	620.24
384.19	608.54
384.39	624.92
384.58	620.24
384.78	596.84
384.97	662.37
385.17	683.44
385.36	596.84
385.56	674.07
385.75	620.24
385.95	683.44
386.14	629.60
386.34	634.29
386.53	624.92
386.72	692.80
386.92	692.80
387.11	671.73
387.31	655.35
387.50	528.96
387.70	634.29
387.89	706.84
388.09	681.10
388.28	636.63
388.48	629.60
388.67	760.67
388.86	695.14
389.06	713.86
389.25	784.08
389.45	748.97
389.64	688.12
389.84	795.78
390.03	809.83
390.22	739.61
390.42	702.16
390.61	681.10
390.81	755.99
391.00	734.93
391.19	873.02
391.39	868.34
391.58	828.55
391.78	844.93
391.97	833.23
392.16	763.01
392.36	891.74
392.55	830.89
392.75	840.25
392.94	844.93
393.13	791.10
393.33	896.43
393.52	884.72
393.71	952.60
393.91	936.21
394.10	908.13
394.29	926.85
394.49	926.85
394.68	952.60
394.88	987.71
395.07	891.74
395.26	957.28
395.46	968.98
395.65	959.62
395.84	1041.54
396.04	1013.45
396.23	964.30
396.42	947.92
396.62	1020.47
396.81	1097.71
397.00	1062.60
397.19	1086.01
397.39	1025.15
397.58	1093.03
397.77	1121.12
397.97	1123.46
398.16	1109.41
398.35	1069.62
398.55	1144.52
398.74	1109.41
398.93	1219.42
399.12	1100.05
399.32	1156.22
399.51	1167.93
399.70	1256.87
399.90	1196.01
400.09	1306.02
400.28	1219.42
400.47	1240.48
400.67	1327.08
400.86	1224.10
401.05	1238.14
401.24	1273.25
401.44	1273.25
401.63	1245.16
401.82	1301.34
402.01	1299.00
402.21	1404.32
402.40	1406.66
402.59	1329.42
402.78	1322.40
402.97	1341.13
403.17	1434.75
403.36	1427.73
403.55	1455.81
403.74	1474.54
403.93	1537.73
404.13	1479.22
404.32	1430.07
404.51	1401.98
404.70	1549.43
404.89	1441.77
405.09	1530.71
405.28	1636.03
405.47	1582.20
405.66	1621.99
405.85	1629.01
406.05	1558.80
406.24	1687.53
406.43	1734.34
406.62	1657.10
406.81	1710.93
407.00	1664.12
407.20	1717.95
407.39	1717.95
407.58	1746.04
407.77	1856.04
407.96	1825.62
408.15	1823.28
408.34	1825.62
408.54	1879.45
408.73	1774.13
408.92	1830.30
409.11	1900.52
409.30	1933.28
409.49	1834.98
409.68	1940.30
409.87	1870.09
410.07	2026.90
410.26	1998.82
410.45	1989.46
410.64	2045.63
410.83	2186.06
411.02	1973.07
411.21	2237.55
411.40	2052.65
411.59	2200.10
411.78	2188.40
411.98	2143.93
412.17	2167.34
412.36	2207.13
412.55	2303.09
412.74	2429.48
412.93	2354.58
413.12	2354.58
413.31	2399.05
413.50	2359.26
413.69	2490.33
413.88	2427.14
414.07	2527.78
414.26	2492.67
414.45	2562.89
414.64	2548.84
414.83	2612.04
415.02	2640.12
415.22	2841.41
415.41	2698.64
415.60	2684.59
415.79	2696.30
415.98	2698.64
416.17	2700.98
416.36	2745.45
416.55	2789.92
416.74	2878.86
416.93	2848.43
417.12	2925.67
417.31	2853.11
417.50	2958.44
417.69	3075.46
417.88	2956.10
418.07	2986.52
418.26	3014.61
418.45	2977.16
418.64	3192.49
418.83	3185.47
419.02	3026.31
419.21	3262.71
419.39	3255.69
419.58	3098.87
419.77	3218.24
419.96	3253.34
420.15	3169.09
420.34	3241.64
420.53	3269.73
420.72	3328.24
420.91	3328.24
421.10	3463.99
421.29	3361.01
421.48	3232.28
421.67	3426.54
421.86	3288.45
422.05	3496.76
422.24	3438.25
422.43	3337.60
422.61	3485.06
422.80	3438.25
422.99	3468.67
423.18	3602.08
423.37	3576.34
423.56	3508.46
423.75	3449.95
423.94	3482.72
424.13	3297.81
424.32	3337.60
424.50	3581.02
424.69	3644.21
424.88	3583.36
425.07	3534.21
425.26	3574.00
425.45	3466.33
425.64	3609.11
425.83	3405.48
426.01	3705.07
426.20	3559.95
426.39	3548.25
426.58	3648.90
426.77	3716.77
426.96	3684.00
427.15	3786.99
427.33	3679.32
427.52	3735.50
427.71	3712.09
427.90	3758.90
428.09	3815.07
428.28	3850.18
428.46	3801.03
428.65	3911.04
428.84	3889.97
429.03	3941.46
429.22	3875.93
429.40	3833.80
429.59	3906.35
429.78	3772.94
429.97	3730.81
430.16	3887.63
430.34	3950.82
430.53	4180.20
430.72	4102.96
430.91	3899.33
431.10	3939.12
431.28	4032.74
431.47	4124.02
431.66	4170.83
431.85	4180.20
432.03	4196.58
432.22	4229.35
432.41	4241.05
432.60	4262.12
432.79	4386.16
432.97	4344.03
433.16	4416.59
433.35	4430.63
433.54	4428.29
433.72	4535.96
433.91	4306.59
434.10	4358.08
434.28	4334.67
434.47	4416.59
434.66	4400.21
434.85	4432.97
435.03	4641.28
435.22	4465.74
435.41	4641.28
435.59	4568.73
435.78	4582.77
435.97	4641.28
436.16	4744.27
436.34	4737.24
436.53	4664.69
436.72	4894.06
436.90	4643.62
437.09	4739.58
437.28	4699.80
437.46	4781.71
437.65	4730.22
437.84	4777.03
438.02	4795.76
438.21	4945.55
438.40	4807.46
438.58	5053.22
438.77	5041.51
438.96	5050.88
439.14	5032.15
439.33	5221.74
439.52	5004.07
439.70	5350.46
439.89	5181.95
440.08	5252.16
440.26	5338.76
440.45	5217.05
440.63	5357.49
440.82	5544.73
441.01	5387.91
441.19	5551.75
441.38	5610.26
441.57	5708.57
441.75	5633.67
441.94	5738.99
442.12	5628.99
442.31	5837.30
442.50	5776.44
442.68	5692.18
442.87	5771.76
443.05	5678.14
443.24	6029.22
443.43	5956.66
443.61	5834.96
443.80	6099.44
443.98	5856.02
444.17	5694.52
444.35	5930.92
444.54	6005.81
444.73	5989.43
444.91	5994.11
445.10	5942.62
445.28	6064.33
445.47	6092.41
445.65	5921.56
445.84	6033.90
446.02	6097.10
446.21	6015.18
446.39	6195.40
446.58	6277.32
446.77	6214.12
446.95	5996.45
447.14	6150.93
447.32	6193.06
447.51	6162.63
447.69	6127.52
447.88	6214.12
448.06	6094.76
448.25	6127.52
448.43	6221.14
448.62	6209.44
448.80	6186.04
448.99	6361.58
449.17	6478.60
449.36	6438.81
449.54	6406.05
449.73	6597.97
449.91	6389.66
450.10	6518.39
450.28	6602.65
450.46	6553.50
450.65	6576.91
450.83	6511.37
451.02	6546.48
451.20	6745.42
451.39	6764.15
451.57	6600.31
451.76	6553.50
451.94	6609.67
452.13	6850.75
452.31	6775.85
452.49	6700.95
452.68	6850.75
452.86	6733.72
453.05	6759.47
453.23	6813.30
453.42	6902.24
453.60	6810.96
453.78	6820.32
453.97	6778.19
454.15	6939.69
454.34	6890.54
454.52	7045.01
454.70	7201.83
454.89	6932.67
455.07	7080.12
455.26	7112.89
455.44	7115.23
455.62	7227.57
455.81	7194.81
455.99	7239.28
456.17	7323.54
456.36	7255.66
456.54	7456.95
456.73	7585.68
456.91	7623.12
457.09	7683.98
457.28	7501.42
457.46	7250.98
457.64	7627.81
457.83	7609.08
458.01	7368.01
458.19	7796.32
458.38	7468.65
458.56	7861.86
458.74	7922.71
458.93	7859.52
459.11	7962.50
459.29	7779.94
459.48	7775.26
459.66	7950.80
459.84	7791.64
460.03	8196.56
460.21	8222.30
460.39	8074.85
460.57	8145.06
460.76	7744.83
460.94	8025.70
461.12	8030.38
461.31	8035.06
461.49	8035.06
461.67	8182.51
461.85	8322.94
462.04	8280.82
462.22	8549.98
462.40	8290.18
462.59	8397.84
462.77	8336.99
462.95	8416.57
463.13	8348.69
463.32	8318.26
463.50	8622.53
463.68	8545.30
463.86	8596.79
464.05	8552.32
464.23	8299.54
464.41	8706.79
464.59	8568.70
464.78	8784.03
464.96	8512.53
465.14	8327.63
465.32	8538.27
465.50	8894.04
465.69	8933.82
465.87	8695.09
466.05	8997.02
466.23	8657.64
466.41	8896.38
466.60	9050.85
466.78	8692.75
466.96	8746.58
467.14	8828.50
467.32	9142.13
467.51	9153.84
467.69	8828.50
467.87	8950.21
468.05	9060.21
468.23	8973.61
468.41	9207.67
468.60	9179.58
468.78	9362.14
468.96	9057.87
469.14	9210.01
469.32	9575.13
469.50	9160.86
469.69	9504.92
469.87	9554.07
470.05	9476.83
470.23	9472.15
470.41	9394.91
470.59	9638.33
470.77	9530.66
470.95	9654.71
471.14	9750.67
471.32	9551.73
471.50	9907.49
471.68	9865.36
471.86	9900.47
472.04	9923.87
472.22	10260.91
472.40	9788.12
472.58	10267.93
472.77	10036.22
472.95	10445.81
473.13	10478.58
473.31	10401.34
473.49	10417.72
473.67	10256.23
473.85	10525.39
474.03	10544.11
474.21	10530.07
474.39	10656.46
474.57	10628.37
474.75	10782.85
474.93	10949.03
475.12	10864.77
475.30	10883.49
475.48	10874.13
475.66	11042.65
475.84	11042.65
476.02	11063.71
476.20	11154.99
476.38	11283.72
476.56	11431.18
476.74	11552.88
476.92	11506.07
477.10	11510.75
477.28	11765.87
477.46	11630.12
477.64	11569.27
477.82	11903.96
478.00	12086.53
478.18	12229.30
478.36	12180.15
478.54	12475.06
478.72	12409.52
478.90	12491.44
479.08	12856.56
479.26	12744.22
479.44	12875.29
479.62	12872.95
479.80	12943.16
479.98	13233.39
480.16	13277.86
480.34	13156.15
480.52	13565.74
480.70	13331.69
480.88	13317.65
481.06	13713.20
481.24	13336.37
481.41	14068.96
481.59	13949.59
481.77	13933.21
481.95	14169.60
482.13	14104.07
482.31	14396.64
482.49	14604.94
482.67	14586.22
482.85	15075.39
483.03	14906.87
483.21	14871.76
483.39	15044.96
483.57	15082.41
483.74	15517.75
483.92	15445.20
484.10	15630.10
484.28	15819.68
484.46	15868.83
484.64	16215.23
484.82	15920.32
485.00	16163.74
485.18	16468.01
485.35	16720.79
485.53	16802.71
485.71	16807.39
485.89	17053.14
486.07	16922.07
486.25	16980.59
486.43	17177.19
486.61	17273.15
486.78	17516.57
486.96	17565.72
487.14	17642.96
487.32	17944.89
487.50	18097.02
487.68	18321.71
487.85	18125.11
488.03	18869.40
488.21	18637.69
488.39	18874.08
488.57	18939.62
488.75	19077.71
488.92	19477.94
489.10	19410.06
489.28	19470.92
489.46	19728.38
489.64	19419.42
489.81	20175.42
489.99	20264.36
490.17	20264.36
490.35	20423.51
490.53	20437.56
490.70	20498.41
490.88	20624.80
491.06	20959.50
491.24	21008.65
491.41	21198.23
491.59	21102.27
491.77	21305.90
491.95	21532.93
492.13	21561.02
492.30	21893.37
492.48	22097.00
492.66	21834.86
492.84	21986.99
493.01	22181.26
493.19	22356.80
493.37	22492.55
493.54	22473.82
493.72	22827.24
493.90	22810.86
494.08	23403.02
494.25	23278.97
494.43	23506.00
494.61	23594.94
494.79	23529.41
494.96	23798.57
495.14	23733.03
495.32	24240.93
495.49	24460.94
495.67	24058.37
495.85	24582.65
496.02	24418.81
496.20	24755.85
496.38	24706.70
496.55	24709.04
496.73	25523.54
496.91	25083.52
497.09	25371.41
497.26	25476.73
497.44	25596.10
497.62	25736.53
497.79	26078.25
497.97	26015.05
498.14	26424.65
498.32	26415.29
498.50	26391.88
498.67	26529.97
498.85	26492.52
499.03	26731.26
499.20	26742.96
499.38	26843.60
499.56	26965.31
499.73	27241.50
499.91	27531.72
500.08	27337.46
500.26	27325.75
500.44	27620.66
500.61	27917.91
500.79	27433.42
500.97	27899.19
501.14	28243.24
501.32	28002.17
501.49	28081.75
501.67	28568.58
501.84	28116.86
502.02	28411.76
502.20	28510.07
502.37	28636.45
502.55	28765.18
502.72	28554.54
502.90	29076.48
503.07	28786.25
503.25	28746.46
503.43	28804.97
503.60	29326.91
503.78	29163.08
503.95	29425.22
504.13	29535.22
504.30	29855.87
504.48	29720.12
504.65	30366.11
504.83	30129.72
505.01	30361.43
505.18	29970.56
505.36	30471.43
505.53	30286.53
505.71	30354.41
505.88	30480.80
506.06	30548.67
506.23	31379.56
506.41	30644.63
506.58	30960.61
506.76	30768.68
506.93	31477.86
507.11	31250.83
507.28	31377.22
507.46	31505.95
507.63	31159.55
507.81	31613.62
507.98	31227.43
508.16	31803.20
508.33	32135.56
508.50	32079.38
508.68	32524.08
508.85	32510.04
509.03	32189.39
509.20	32318.12
509.38	32357.91
509.55	32643.45
509.73	32837.72
509.90	32694.94
510.08	32584.94
510.25	33078.79
510.42	33027.30
510.60	33298.80
510.77	33256.67
510.95	33315.19
511.12	33146.67
511.30	33296.46
511.47	33467.32
511.64	33820.74
511.82	33954.15
511.99	33734.14
512.17	33883.94
512.34	33902.66
512.51	34579.07
512.69	34244.38
512.86	34312.25
513.04	34520.56
513.21	34270.12
513.38	34705.46
513.56	34876.32
513.73	34440.98
513.90	35072.93
514.08	35058.88
514.25	35271.87
514.43	35360.81
514.60	35299.96
514.77	35037.82
514.95	35386.56
515.12	34895.05
515.29	35335.07
515.47	35959.99
515.64	36187.02
515.81	35974.03
515.99	35873.39
516.16	35971.69
516.33	35985.74
516.51	36343.84
516.68	36224.47
516.85	36680.88
517.03	36367.24
517.20	36423.42
517.37	36634.06
517.54	36587.25
517.72	36734.71
517.89	36870.46
518.06	36512.36
518.24	36676.19
518.41	36753.43
518.58	36950.04
518.75	36975.78
518.93	37296.44
519.10	37127.92
519.27	37427.51
519.45	37172.39
519.62	37404.10
519.79	37823.06
519.96	37544.53
520.14	38115.62
520.31	37993.92
520.48	37708.37
520.65	37902.64
520.83	37954.13
521.00	38270.10
521.17	37855.82
521.34	38511.17
521.52	38291.16
521.69	38803.74
521.86	38466.70
522.03	38569.69
522.20	38749.91
522.38	38829.49
522.55	39208.65
522.72	38855.23
522.89	38911.41
523.07	39192.27
523.24	38721.82
523.41	38820.13
523.58	39283.55
523.75	39374.83
523.92	39473.13
524.10	39491.86
524.27	39784.43
524.44	39868.69
524.61	39819.53
524.78	39861.66
524.96	39915.50
525.13	40041.88
525.30	40554.46
525.47	40472.54
525.64	40397.65
525.81	40495.95
525.98	40605.95
526.16	40371.90
526.33	40233.81
526.50	40545.10
526.67	40238.49
526.84	40765.11
527.01	40900.86
527.18	40783.83
527.36	41476.63
527.53	41043.63
527.70	41191.09
527.87	40985.12
528.04	41544.51
528.21	41448.55
528.38	40992.14
528.55	41535.15
528.72	41345.56
528.89	41684.94
529.07	41249.60
529.24	41296.41
529.41	41830.05
529.58	41312.80
529.75	41565.57
529.92	42232.63
530.09	41720.05
530.26	41656.85
530.43	42164.75
530.60	41918.99
530.77	42026.66
530.94	42120.28
531.11	42202.20
531.28	42279.44
531.46	42618.81
531.63	42646.90
531.80	42483.06
531.97	42450.30
532.14	42752.23
532.31	42256.03
532.48	42909.04
532.65	42780.31
532.82	42937.13
532.99	43297.57
533.16	43035.43
533.33	43337.36
533.50	43452.05
533.67	43386.51
533.84	42962.87
534.01	42710.10
534.18	43320.98
534.35	43693.12
534.52	43503.54
534.69	44144.84
534.86	43606.52
535.03	43487.15
535.20	43447.36
535.37	43782.06
535.54	43761.00
535.71	44172.93
535.88	44196.34
536.05	44275.91
536.22	44079.31
536.38	44142.50
536.55	44163.57
536.72	44135.48
536.89	43810.15
537.06	44399.96
537.23	44399.96
537.40	44282.94
537.57	44498.26
537.74	44210.38
537.91	44774.45
538.08	44676.15
538.25	44325.07
538.42	45137.23
538.59	45097.44
538.75	44758.06
538.92	44971.05
539.09	45366.60
539.26	45256.60
539.43	44910.20
539.60	45661.51
539.77	45064.67
539.94	45666.19
540.11	45064.67
540.28	45507.04
540.44	45067.02
540.61	45483.63
540.78	45329.16
540.95	45380.65
541.12	45368.94
541.29	45378.31
541.46	45549.17
541.62	45317.45
541.79	45731.73
541.96	45537.46
542.13	45771.52
542.30	45652.15
542.47	46089.83
542.63	46284.09
542.80	46073.45
542.97	46031.32
543.14	46836.46
543.31	46368.35
543.48	46555.60
543.64	46976.89
543.81	46590.70
543.98	46557.94
544.15	46639.86
544.32	46583.68
544.48	46742.84
544.65	46681.98
544.82	46679.64
544.99	46796.67
545.16	46997.96
545.32	47000.30
545.49	47480.11
545.66	47157.11
545.83	47030.72
546.00	47107.96
546.16	47173.50
546.33	47334.99
546.50	46974.55
546.67	47215.63
546.83	46911.36
547.00	47391.17
547.17	47304.57
547.34	47484.79
547.50	47239.03
547.67	47398.19
547.84	47313.93
548.00	47770.33
548.17	48018.43
548.34	47737.57
548.51	47782.04
548.67	47538.62
548.84	47653.31
549.01	47569.05
549.18	47456.70
549.34	47367.76
549.51	47985.66
549.68	48381.21
549.84	48203.33
550.01	47990.34
550.18	47945.87
550.34	48285.25
550.51	48025.45
550.68	47973.96
550.84	48140.14
551.01	48481.86
551.18	47922.47
551.34	48268.87
551.51	48479.52
551.68	48456.11
551.84	48605.91
552.01	47817.14
552.18	47945.87
552.34	47976.30
552.51	48051.20
552.68	48081.63
552.84	48458.45
553.01	48793.15
553.18	48964.01
553.34	48786.13
553.51	48650.38
553.67	48938.26
553.84	48268.87
554.01	49134.87
554.17	49085.72
554.34	49205.08
554.51	48828.26
554.67	49275.30
554.84	49614.68
555.00	49043.59
555.17	49052.95
555.33	48872.73
555.50	48741.66
555.67	48582.50
555.83	49071.67
556.00	49130.19
556.16	49771.49
556.33	49195.72
556.50	49258.91
556.66	49432.11
556.83	49308.07
556.99	49333.81
557.16	49324.45
557.32	49261.26
557.49	49457.86
557.65	49460.20
557.82	49595.95
557.98	49811.28
558.15	49804.26
558.32	49876.82
558.48	49567.87
558.65	49188.70
558.81	49677.87
558.98	49834.69
559.14	49663.83
559.31	49815.96
559.47	49682.55
559.64	49827.66
559.80	49860.43
559.97	50337.90
560.13	49808.94
560.30	49851.07
560.46	49422.75
560.63	49373.60
560.79	49977.46
560.96	49598.29
561.12	49820.64
561.29	50181.09
561.45	50155.34
561.61	50122.57
561.78	49776.17
561.94	50017.25
562.11	50370.67
562.27	49584.25
562.44	50057.04
562.60	50241.94
562.77	50665.58
562.93	49888.52
563.10	50342.58
563.26	50387.05
563.42	50497.06
563.59	50057.04
563.75	50028.95
563.92	50361.31
564.08	50021.93
564.24	50155.34
564.41	50508.76
564.57	50377.69
564.74	50478.33
564.90	50410.46
565.07	50534.51
565.23	50260.66
565.39	50253.64
565.56	50499.40
565.72	50419.82
565.88	50543.87
566.05	50578.98
566.21	50564.93
566.38	50199.81
566.54	50529.83
566.70	50550.89
566.87	50710.05
567.03	50291.09
567.19	50368.33
567.36	50454.93
567.52	50328.54
567.68	50798.99
567.85	50712.39
568.01	50841.12
568.17	50738.13
568.34	50993.25
568.50	50625.79
568.66	50443.23
568.83	50728.77
568.99	50410.46
569.15	50443.23
569.32	50911.33
569.48	50286.41
569.64	50820.05
569.81	50660.90
569.97	50841.12
570.13	50611.74
570.30	50569.61
570.46	50557.91
570.62	50747.50
570.78	50483.01
570.95	50672.60
571.11	51178.15
571.27	50525.14
571.43	50798.99
571.60	50728.77
571.76	50726.43
571.92	50794.31
572.09	50616.43
572.25	50569.61
572.41	50644.51
572.57	50511.10
572.74	51168.79
572.90	50901.97
573.06	50995.59
573.22	50995.59
573.38	51246.03
573.55	50681.96
573.71	51096.24
573.87	51093.89
574.03	50651.53
574.20	50930.06
574.36	50698.34
574.52	50789.62
574.68	51274.12
574.84	51164.11
575.01	51269.43
575.17	51337.31
575.33	50873.88
575.49	50609.40
575.65	51040.06
575.82	50841.12
575.98	50934.74
576.14	50941.76
576.30	51231.99
576.46	51236.67
576.62	51077.51
576.79	51065.81
576.95	51096.24
577.11	51220.28
577.27	51016.66
577.43	50864.52
577.59	51033.04
577.75	51049.42
577.92	51138.36
578.08	50965.17
578.24	51217.94
578.40	51662.64
578.56	51213.26
578.72	51098.58
578.88	51306.88
579.04	51302.20
579.21	50808.35
579.37	51154.75
579.53	51295.18
579.69	51370.08
579.85	51236.67
580.01	51463.70
580.17	51063.47
580.33	51393.48
580.49	51077.51
580.65	50930.06
580.82	51138.36
580.98	51260.07
581.14	50789.62
581.30	51480.08
581.46	51260.07
581.62	51306.88
581.78	51047.08
581.94	51290.50
582.10	51262.41
582.26	51349.01
582.42	51330.29
582.58	51173.47
582.74	51086.87
582.90	51210.92
583.06	51260.07
583.22	51182.84
583.38	51498.81
583.54	51444.98
583.70	51330.29
583.86	51388.80
584.02	51295.18
584.18	51224.96
584.34	51288.16
584.50	51590.09
584.66	51192.20
584.82	51126.66
584.98	51154.75
585.14	51641.58
585.30	51332.63
585.46	51246.03
585.62	51395.82
585.78	51311.56
585.94	51061.13
586.10	51236.67
586.26	51313.90
586.42	51297.52
586.58	51440.29
586.74	51311.56
586.90	51063.47
587.06	51178.15
587.22	51379.44
587.38	51491.79
587.54	51224.96
587.70	51559.66
587.86	51374.76
588.02	51224.96
588.18	51213.26
588.34	51452.00
588.49	51877.97
588.65	51292.84
588.81	51360.72
588.97	51758.61
589.13	51700.09
589.29	51845.21
589.45	51664.99
589.61	51735.20
589.77	51941.17
589.93	51655.62
590.08	51377.10
590.24	51978.62
590.40	51529.23
