SpectraSuite Data File
++++++++++++++++++++++++++++++++++++
Date: Fri Oct 04 11:39:37 GMT-05:00 2013
User: price-jones
Dark Spectrum Present: No
Reference Spectrum Present: No
Number of Sampled Component Spectra: 1
Spectrometers: USB2+H05261
Integration Time (usec): 100000 (USB2+H05261)
Spectra Averaged: 1 (USB2+H05261)
Boxcar Smoothing: 0 (USB2+H05261)
Correct for Electrical Dark: No (USB2+H05261)
Strobe/Lamp Enabled: No (USB2+H05261)
Correct for Detector Non-linearity: No (USB2+H05261)
Correct for Stray Light: No (USB2+H05261)
Number of Pixels in Processed Spectrum: 2048
>>>>>Begin Processed Spectral Data<<<<<
365.73	91.28
365.92	91.28
366.12	91.28
366.32	7.02
366.52	0.00
366.72	0.00
366.91	0.00
367.11	0.00
367.31	0.00
367.51	0.00
367.70	0.00
367.90	0.00
368.10	0.00
368.30	0.00
368.49	0.00
368.69	0.00
368.89	0.00
369.09	0.00
369.28	0.00
369.48	0.00
369.68	25.75
369.87	60.85
370.07	28.09
370.27	0.00
370.47	145.11
370.66	227.03
370.86	325.33
371.06	425.98
371.25	416.62
371.45	341.72
371.65	407.25
371.84	306.61
372.04	278.52
372.24	330.02
372.44	423.64
372.63	353.42
372.83	379.17
373.03	416.62
373.22	327.68
373.42	395.55
373.62	465.77
373.81	428.32
374.01	482.15
374.21	433.00
374.40	404.91
374.60	418.96
374.79	423.64
374.99	447.04
375.19	486.83
375.38	433.00
375.58	381.51
375.78	477.47
375.97	451.72
376.17	533.64
376.37	505.56
376.56	447.04
376.76	437.68
376.95	470.45
377.15	517.26
377.35	568.75
377.54	535.98
377.74	468.11
377.93	395.55
378.13	573.43
378.33	503.22
378.52	489.17
378.72	491.51
378.91	557.05
379.11	442.36
379.31	447.04
379.50	524.28
379.70	510.24
379.89	606.20
380.09	615.56
380.28	526.62
380.48	514.92
380.68	547.69
380.87	568.75
381.07	559.39
381.26	561.73
381.46	557.05
381.65	599.18
381.85	531.30
382.04	543.00
382.24	603.86
382.43	557.05
382.63	568.75
382.83	615.56
383.02	594.50
383.22	566.41
383.41	557.05
383.61	540.66
383.80	617.90
384.00	631.94
384.19	685.78
384.39	624.92
384.58	578.11
384.78	575.77
384.97	657.69
385.17	671.73
385.36	638.97
385.56	636.63
385.75	660.03
385.95	685.78
386.14	650.67
386.34	678.76
386.53	636.63
386.72	587.47
386.92	737.27
387.11	669.39
387.31	664.71
387.50	699.82
387.70	676.41
387.89	697.48
388.09	727.91
388.28	713.86
388.48	674.07
388.67	704.50
388.86	760.67
389.06	711.52
389.25	755.99
389.45	835.57
389.64	713.86
389.84	784.08
390.03	812.17
390.22	835.57
390.42	793.44
390.61	821.53
390.81	863.66
391.00	767.70
391.19	880.04
391.39	805.14
391.58	788.76
391.78	866.00
391.97	833.23
392.16	786.42
392.36	908.13
392.55	854.30
392.75	856.64
392.94	828.55
393.13	891.74
393.33	858.98
393.52	842.59
393.71	894.08
393.91	908.13
394.10	877.70
394.29	961.96
394.49	861.32
394.68	976.00
394.88	889.40
395.07	978.34
395.26	980.68
395.46	999.41
395.65	1006.43
395.84	952.60
396.04	1027.50
396.23	966.64
396.42	936.21
396.62	971.32
396.81	1011.11
397.00	1029.84
397.19	1027.50
397.39	1062.60
397.58	1111.75
397.77	1102.39
397.97	1067.28
398.16	1111.75
398.35	1146.86
398.55	1181.97
398.74	1139.84
398.93	1158.57
399.12	1109.41
399.32	1165.59
399.51	1153.88
399.70	1139.84
399.90	1193.67
400.09	1205.38
400.28	1301.34
400.47	1235.80
400.67	1238.14
400.86	1270.91
401.05	1247.51
401.24	1336.45
401.44	1366.87
401.63	1306.02
401.82	1376.24
402.01	1263.89
402.21	1387.94
402.40	1399.64
402.59	1411.34
402.78	1406.66
402.97	1401.98
403.17	1390.28
403.36	1413.68
403.55	1469.86
403.74	1369.21
403.93	1540.07
404.13	1523.69
404.32	1561.14
404.51	1624.33
404.70	1593.90
404.89	1523.69
405.09	1624.33
405.28	1582.20
405.47	1624.33
405.66	1514.33
405.85	1692.21
406.05	1612.63
406.24	1636.03
406.43	1586.88
406.62	1689.87
406.81	1783.49
407.00	1694.55
407.20	1671.14
407.39	1781.15
407.58	1806.89
407.77	1802.21
407.96	1886.47
408.15	1830.30
408.34	1849.02
408.54	1853.70
408.73	1914.56
408.92	1888.81
409.11	1949.67
409.30	2017.54
409.49	1952.01
409.68	1956.69
409.87	2015.20
410.07	2057.33
410.26	2043.29
410.45	2019.88
410.64	2036.27
410.83	2125.21
411.02	2188.40
411.21	2153.29
411.40	2136.91
411.59	2209.47
411.78	2139.25
411.98	2136.91
412.17	2282.02
412.36	2246.91
412.55	2310.11
412.74	2293.72
412.93	2436.50
413.12	2366.28
413.31	2480.97
413.50	2415.43
413.69	2399.05
413.88	2633.10
414.07	2525.44
414.26	2551.18
414.45	2438.84
414.64	2544.16
414.83	2670.55
415.02	2679.91
415.22	2731.41
415.41	2761.83
415.60	2766.51
415.79	2850.77
415.98	2705.66
416.17	2923.33
416.36	2920.99
416.55	2876.52
416.74	2911.63
416.93	2892.90
417.12	2925.67
417.31	2942.05
417.50	2888.22
417.69	3126.96
417.88	3045.04
418.07	3056.74
418.26	3007.59
418.45	2949.08
418.64	3258.03
418.83	3199.51
419.02	3166.74
419.21	3190.15
419.39	3323.56
419.58	3059.08
419.77	3126.96
419.96	3272.07
420.15	3314.20
420.34	3342.28
420.53	3295.47
420.72	3400.80
420.91	3424.20
421.10	3485.06
421.29	3515.48
421.48	3412.50
421.67	3506.12
421.86	3581.02
422.05	3562.30
422.24	3536.55
422.43	3351.65
422.61	3536.55
422.80	3531.87
422.99	3641.87
423.18	3604.42
423.37	3693.37
423.56	3665.28
423.75	3679.32
423.94	3550.59
424.13	3375.05
424.32	3382.07
424.50	3658.26
424.69	3716.77
424.88	3737.84
425.07	3574.00
425.26	3691.02
425.45	3735.50
425.64	3730.81
425.83	3658.26
426.01	3651.24
426.20	3611.45
426.39	3712.09
426.58	3662.94
426.77	3637.19
426.96	3735.50
427.15	3817.41
427.33	3822.09
427.52	3852.52
427.71	3864.22
427.90	3976.57
428.09	3978.91
428.28	3983.59
428.46	3925.08
428.65	3913.38
428.84	4088.92
429.03	4053.81
429.22	3901.67
429.40	3983.59
429.59	3929.76
429.78	3875.93
429.97	3763.58
430.16	4004.66
430.34	4149.77
430.53	4271.48
430.72	4166.15
430.91	4095.94
431.10	3953.16
431.28	4329.99
431.47	4290.20
431.66	4294.88
431.85	4229.35
432.03	4252.75
432.22	4341.69
432.41	4287.86
432.60	4507.87
432.79	4367.44
432.97	4475.10
433.16	4306.59
433.35	4510.21
433.54	4524.26
433.72	4524.26
433.91	4559.36
434.10	4528.94
434.28	4374.46
434.47	4608.51
434.66	4557.02
434.85	4608.51
435.03	4634.26
435.22	4917.47
435.41	5093.01
435.59	5109.39
435.78	4856.61
435.97	4950.23
436.16	4629.58
436.34	4786.40
436.53	4814.48
436.72	4884.70
436.90	4917.47
437.09	4809.80
437.28	4851.93
437.46	4882.36
437.65	5048.54
437.84	4973.64
438.02	4950.23
438.21	4990.02
438.40	4901.08
438.58	5163.22
438.77	5207.69
438.96	5254.50
439.14	5156.20
439.33	5329.40
439.52	5315.36
439.70	5254.50
439.89	5371.53
440.08	5455.79
440.26	5364.51
440.45	5518.98
440.63	5628.99
440.82	5483.88
441.01	5568.13
441.19	5743.67
441.38	5614.95
441.57	5755.38
441.75	5811.55
441.94	5914.53
442.12	5781.12
442.31	5921.56
442.50	5923.90
442.68	5949.64
442.87	5858.36
443.05	6078.37
443.24	5898.15
443.43	6171.99
443.61	6097.10
443.80	6118.16
443.98	6022.20
444.17	5881.77
444.35	6094.76
444.54	6157.95
444.73	6188.38
444.91	6136.88
445.10	6157.95
445.28	6003.47
445.47	6157.95
445.65	6069.01
445.84	6204.76
446.02	6181.35
446.21	6307.74
446.39	6197.74
446.58	6235.19
446.77	6342.85
446.95	6132.20
447.14	6216.46
447.32	6228.17
447.51	6125.18
447.69	6284.34
447.88	6183.70
448.06	6244.55
448.25	6204.76
448.43	6408.39
448.62	6183.70
448.80	6427.11
448.99	6363.92
449.17	6560.52
449.36	6363.92
449.54	6434.13
449.73	6572.22
449.91	6516.05
450.10	6581.59
450.28	6649.46
450.46	6705.63
450.65	6614.35
450.83	6630.74
451.02	6614.35
451.20	6497.33
451.39	6719.68
451.57	6698.61
451.76	6686.91
451.94	6663.51
452.13	6834.36
452.31	7002.88
452.49	6595.63
452.68	6850.75
452.86	6881.18
453.05	6991.18
453.23	7059.06
453.42	6808.62
453.60	6916.28
453.78	6883.52
453.97	6740.74
454.15	6916.28
454.34	7059.06
454.52	7075.44
454.70	6998.20
454.89	6949.05
455.07	7005.22
455.26	7140.97
455.44	7220.55
455.62	7229.91
455.81	7232.26
455.99	7335.24
456.17	7414.82
456.36	7234.60
456.54	7461.63
456.73	7520.14
456.91	7639.51
457.09	7599.72
457.28	7885.26
457.46	7557.59
457.64	7566.95
457.83	7714.41
458.01	7541.21
458.19	7791.64
458.38	7688.66
458.56	7850.16
458.74	8002.29
458.93	7735.47
459.11	7847.82
459.29	7793.98
459.48	7831.43
459.66	7824.41
459.84	8013.99
460.03	8065.49
460.21	7983.57
460.39	7974.21
460.57	8156.77
460.76	7981.23
460.94	8084.21
461.12	7981.23
461.31	8269.11
461.49	8152.09
461.67	8182.51
461.85	8475.08
462.04	8138.04
462.22	8456.36
462.40	8425.93
462.59	8243.37
462.77	8456.36
462.95	8493.80
463.13	8393.16
463.32	8332.31
463.50	8367.42
463.68	8484.44
463.86	8592.11
464.05	8470.40
464.23	8568.70
464.41	8592.11
464.59	8496.14
464.78	8634.24
464.96	8664.66
465.14	8557.00
465.32	8781.69
465.50	8676.37
465.69	8837.86
465.87	8573.38
466.05	8872.97
466.23	8945.53
466.41	8709.13
466.60	9191.28
466.78	8924.46
466.96	8802.75
467.14	8905.74
467.32	8870.63
467.51	8954.89
467.69	8821.48
467.87	8961.91
468.05	9184.26
468.23	9149.15
468.41	9167.88
468.60	9123.41
468.78	9219.37
468.96	9060.21
469.14	9160.86
469.32	9249.80
469.50	9268.52
469.69	9488.53
469.87	9345.76
470.05	9570.45
470.23	9479.17
470.41	9259.16
470.59	9631.30
470.77	9561.09
470.95	9572.79
471.14	9589.17
471.32	9488.53
471.50	9930.89
471.68	9858.34
471.86	9858.34
472.04	9856.00
472.22	10090.05
472.40	9919.19
472.58	10094.73
472.77	10022.17
472.95	10193.03
473.13	10581.56
473.31	10050.26
473.49	10251.55
473.67	10281.97
473.85	10111.11
474.03	10310.06
474.21	10370.91
474.39	10422.41
474.57	10771.15
474.75	10724.33
474.93	10682.20
475.12	10520.71
475.30	10927.96
475.48	10640.08
475.66	11023.92
475.84	10761.78
476.02	11059.03
476.20	11087.12
476.38	11159.67
476.56	11363.30
476.74	11269.68
476.92	11379.68
477.10	11349.26
477.28	11508.41
477.46	11627.78
477.64	11800.98
477.82	11887.58
478.00	11974.18
478.18	11808.00
478.36	12121.63
478.54	12320.58
478.72	12346.33
478.90	12353.35
479.08	12666.98
479.26	12491.44
479.44	12713.79
479.62	12425.90
479.80	12872.95
479.98	12683.36
480.16	12922.10
480.34	12872.95
480.52	13149.13
480.70	13095.30
480.88	13226.37
481.06	13371.48
481.24	13369.14
481.41	13750.65
481.59	13619.58
481.77	13624.26
481.95	14066.62
482.13	13928.53
482.31	14092.37
482.49	14202.37
482.67	14429.40
482.85	14492.60
483.03	14759.42
483.21	14518.34
483.39	15122.20
483.57	14949.00
483.74	15374.98
483.92	15194.76
484.10	15035.60
484.28	15374.98
484.46	15611.37
484.64	15730.74
484.82	15674.57
485.00	15910.96
485.18	16102.89
485.35	16332.26
485.53	16236.30
485.71	16535.88
485.89	16631.85
486.07	16528.86
486.25	16641.21
486.43	16507.80
486.61	16943.14
486.78	17001.65
486.96	17371.46
487.14	17472.10
487.32	17584.44
487.50	17561.04
487.68	17701.47
487.85	18249.16
488.03	17874.67
488.21	18359.16
488.39	18455.12
488.57	18693.86
488.75	18307.67
488.92	19030.90
489.10	18869.40
489.28	19105.79
489.46	19080.05
489.64	19047.28
489.81	19747.10
489.99	19618.37
490.17	19503.68
490.35	19814.98
490.53	19789.23
490.70	20379.04
490.88	20030.30
491.06	20196.48
491.24	20372.02
491.41	20601.40
491.59	20807.36
491.77	20830.77
491.95	20833.11
492.13	21013.33
492.30	21013.33
492.48	21235.68
492.66	20978.22
492.84	21099.93
493.01	21736.56
493.19	21064.82
493.37	21708.47
493.54	21654.64
493.72	22115.72
493.90	22309.99
494.08	22417.65
494.25	22670.43
494.43	22637.66
494.61	23005.13
494.79	22918.53
494.96	22567.45
495.14	22724.26
495.32	23103.43
495.49	23632.39
495.67	23152.58
495.85	23498.98
496.02	23924.96
496.20	24006.87
496.38	23747.08
496.55	24100.50
496.73	24393.06
496.91	24474.98
497.09	24561.58
497.26	24912.66
497.44	24725.42
497.62	24781.59
497.79	25266.08
497.97	25034.37
498.14	25214.59
498.32	25357.36
498.50	25565.67
498.67	25544.61
498.85	25713.13
499.03	25858.24
499.20	25661.63
499.38	25439.28
499.56	26033.78
499.73	26398.90
499.91	26632.96
500.08	26256.13
500.26	26176.55
500.44	26583.80
500.61	26675.09
500.79	26394.22
500.97	27005.10
501.14	27012.12
501.32	26986.38
501.49	26874.03
501.67	27187.66
501.84	27433.42
502.02	27267.24
502.20	27697.90
502.37	27625.34
502.55	27576.19
502.72	27501.29
502.90	27606.62
503.07	27751.73
503.25	27721.30
503.43	27967.06
503.60	28058.34
503.78	28308.78
503.95	28030.26
504.13	28498.36
504.30	28336.87
504.48	28690.29
504.65	28456.23
504.83	28767.52
505.01	29158.39
505.18	29034.35
505.36	29350.32
505.53	29020.30
505.71	29340.96
505.88	29275.42
506.06	29039.03
506.23	29521.18
506.41	29415.85
506.58	30087.59
506.76	29799.70
506.93	29560.97
507.11	29998.65
507.28	29977.58
507.46	29839.49
507.63	30368.45
507.81	30483.14
507.98	30167.16
508.16	30258.45
508.33	30309.94
508.50	30321.64
508.68	30529.95
508.85	31222.75
509.03	31007.42
509.20	30930.18
509.38	31400.63
509.55	31204.02
509.73	31335.09
509.90	31309.35
510.08	31311.69
510.25	31440.42
510.42	31763.41
510.60	32053.64
510.77	31882.78
510.95	31988.10
511.12	31828.95
511.30	32140.24
511.47	32088.74
511.64	32009.17
511.82	32416.42
511.99	32238.54
512.17	32568.55
512.34	32407.06
512.51	32891.55
512.69	32713.67
512.86	32587.28
513.04	32952.40
513.21	32767.50
513.38	32905.59
513.56	33048.36
513.73	33186.46
513.90	33249.65
514.08	33244.97
514.25	33315.19
514.43	33668.61
514.60	33369.02
514.77	33839.47
514.95	33851.17
515.12	33525.83
515.29	33493.07
515.47	33729.46
515.64	34225.65
515.81	33806.70
515.99	33979.90
516.16	34597.80
516.33	34478.43
516.51	34490.13
516.68	34471.41
516.85	34284.17
517.03	34902.07
517.20	35119.74
517.37	35358.47
517.54	34888.03
517.72	34960.58
517.89	34881.00
518.06	35204.00
518.24	34726.53
518.41	34483.11
518.58	35089.31
518.75	35351.45
518.93	35644.02
519.10	35241.45
519.27	35831.26
519.45	35115.06
519.62	35674.45
519.79	35789.13
519.96	35625.29
520.14	35791.47
520.31	35697.85
520.48	35882.75
520.65	35655.72
520.83	36336.82
521.00	36414.05
521.17	36077.02
521.34	36271.28
521.52	36547.47
521.69	36594.28
521.86	36774.50
522.03	37141.96
522.20	36854.08
522.38	37067.06
522.55	36837.69
522.72	36898.55
522.89	36961.74
523.07	37567.94
523.24	37282.39
523.41	37481.34
523.58	37029.62
523.75	37312.82
523.92	37305.80
524.10	37404.10
524.27	37521.13
524.44	37567.94
524.61	38195.20
524.78	38146.05
524.96	38094.56
525.13	38349.68
525.30	38288.82
525.47	37986.89
525.64	38176.48
525.81	37984.55
525.98	38363.72
526.16	38852.89
526.33	38548.62
526.50	38773.31
526.67	38651.61
526.84	38384.79
527.01	38675.01
527.18	39079.92
527.36	38937.15
527.53	38960.56
527.70	39098.65
527.87	39381.85
528.04	38895.02
528.21	39278.87
528.38	38808.42
528.55	39136.10
528.72	39058.86
528.89	39522.29
529.07	39232.06
529.24	39168.87
529.41	39456.75
529.58	39182.91
529.75	39332.70
529.92	39395.90
530.09	39412.28
530.26	39732.93
530.43	39681.44
530.60	39599.52
530.77	39847.62
530.94	39559.73
531.11	39852.30
531.28	39831.24
531.46	39817.19
531.63	40105.08
531.80	40109.76
531.97	40187.00
532.14	40538.08
532.31	39981.03
532.48	40601.27
532.65	40261.90
532.82	40336.79
532.99	40250.19
533.16	40067.63
533.33	40643.40
533.50	40903.20
533.67	40889.16
533.84	40432.75
534.01	40650.42
534.18	40362.54
534.35	40776.81
534.52	40847.03
534.69	41223.86
534.86	41331.52
535.03	40947.67
535.20	40725.32
535.37	41626.43
535.54	41467.27
535.71	41001.50
535.88	41390.03
536.05	41387.69
536.22	41434.50
536.38	41860.48
536.55	41584.30
536.72	41965.81
536.89	41364.29
537.06	41230.88
537.23	41823.03
537.40	41591.32
537.57	41581.96
537.74	41727.07
537.91	42148.37
538.08	42148.37
538.25	41911.97
538.42	42190.50
538.59	42190.50
538.75	41649.83
538.92	42059.43
539.09	42155.39
539.26	42806.06
539.43	42693.71
539.60	42354.33
539.77	42384.76
539.94	42583.71
540.11	42443.27
540.28	42600.09
540.44	42646.90
540.61	42651.58
540.78	42841.17
540.95	43098.62
541.12	43320.98
541.29	43487.15
541.46	42555.62
541.62	42768.61
541.79	43590.14
541.96	42871.59
542.13	43302.25
542.30	43096.28
542.47	43782.06
542.63	43571.41
542.80	43648.65
542.97	43835.89
543.14	43936.54
543.31	43590.14
543.48	43863.98
543.64	44048.88
543.81	44582.52
543.98	44105.06
544.15	44278.25
544.32	44067.61
544.48	44301.66
544.65	44130.80
544.82	43959.94
544.99	43779.72
545.16	43915.47
545.32	44168.25
545.49	44980.42
545.66	45319.79
545.83	45132.55
546.00	45331.50
546.16	44685.51
546.33	44240.81
546.50	44198.68
546.67	44793.17
546.83	44147.18
547.00	44472.52
547.17	44266.55
547.34	44519.33
547.50	44722.96
547.67	44713.59
547.84	44737.00
548.00	44722.96
548.17	44699.55
548.34	45083.40
548.51	45036.59
548.67	45191.06
548.84	45015.52
549.01	44767.43
549.18	44626.99
549.34	45141.91
549.51	45062.33
549.68	45219.15
549.84	44594.23
550.01	44711.25
550.18	44694.87
550.34	45263.62
550.51	45233.19
550.68	45146.59
550.84	44968.71
551.01	45144.25
551.18	44760.40
551.34	44825.94
551.51	45137.23
551.68	45588.95
551.84	45191.06
552.01	45413.41
552.18	45221.49
552.34	45177.02
552.51	45684.92
552.68	45219.15
552.84	45464.91
553.01	45682.58
553.18	45514.06
553.34	45359.58
553.51	45701.30
553.67	45729.39
553.84	46110.89
554.01	46007.91
554.17	45638.11
554.34	45914.29
554.51	45500.01
554.67	45921.31
554.84	45446.18
555.00	45691.94
555.17	45759.81
555.33	45799.60
555.50	45986.85
555.67	45771.52
555.83	45626.40
556.00	45954.08
556.16	46227.92
556.33	45909.61
556.50	45911.95
556.66	45942.38
556.83	45593.64
556.99	46160.05
557.16	46316.86
557.32	46068.76
557.49	46038.34
557.65	46014.93
557.82	46349.63
557.98	46354.31
558.15	46120.26
558.32	46553.26
558.48	46511.13
558.65	46864.55
558.81	46398.78
558.98	45998.55
559.14	46176.43
559.31	46110.89
559.47	46445.59
559.64	46590.70
559.80	46464.32
559.97	46433.89
560.13	46426.87
560.30	46560.28
560.46	46316.86
560.63	46897.31
560.79	46225.58
560.96	46710.07
561.12	46574.32
561.29	46394.10
561.45	46637.51
561.61	46707.73
561.78	46562.62
561.94	46305.16
562.11	46576.66
562.27	46689.01
562.44	46707.73
562.60	46195.15
562.77	46419.84
562.93	46890.29
563.10	46672.62
563.26	46700.71
563.42	47054.13
563.59	47299.89
563.75	46473.68
563.92	46749.86
564.08	46651.56
564.24	46632.83
564.41	46424.53
564.57	46536.87
564.74	46775.61
564.90	46859.87
565.07	46789.65
565.23	46962.85
565.39	46656.24
565.56	47086.90
565.72	46902.00
565.88	47002.64
566.05	46693.69
566.21	46700.71
566.38	46583.68
566.54	46995.62
566.70	47105.62
566.87	47033.07
567.03	47114.98
567.19	47070.51
567.36	46667.94
567.52	46410.48
567.68	46948.81
567.85	46958.17
568.01	46941.78
568.17	47028.38
568.34	46918.38
568.50	47007.32
568.66	47072.85
568.83	46834.12
568.99	46831.78
569.15	47267.12
569.32	47154.77
569.48	47000.30
569.64	47217.97
569.81	47075.19
569.97	47107.96
570.13	47089.24
570.30	47374.78
570.46	47178.18
570.62	47157.11
570.78	46930.08
570.95	47012.00
571.11	47068.17
571.27	46754.54
571.43	46696.03
571.60	47126.69
571.76	46770.93
571.92	47264.78
572.09	47042.43
572.25	47416.91
572.41	47112.64
572.57	47297.55
572.74	47386.49
572.90	46997.96
573.06	46990.94
573.22	47180.52
573.38	47515.22
573.55	47208.61
573.71	47374.78
573.87	47187.54
574.03	47356.06
574.20	47145.41
574.36	47103.28
574.52	46930.08
574.68	46890.29
574.84	47278.82
575.01	47136.05
575.17	47234.35
575.33	47007.32
575.49	47365.42
575.65	47632.24
575.82	47557.35
575.98	47035.41
576.14	47665.01
576.30	47173.50
576.46	47440.32
576.62	47119.66
576.79	47620.54
576.95	46953.49
577.11	47196.90
577.27	47309.25
577.43	47056.47
577.59	47152.43
577.75	47295.21
577.92	47187.54
578.08	46869.23
578.24	47271.80
578.40	47145.41
578.56	46958.17
578.72	47409.89
578.88	47519.90
579.04	47220.31
579.21	47510.53
579.37	47512.88
579.53	47400.53
579.69	47323.29
579.85	47232.01
580.01	47344.36
580.17	47253.08
580.33	47337.33
580.49	47224.99
580.65	47021.36
580.82	47690.76
580.98	47344.36
581.14	47309.25
581.30	47452.02
581.46	46773.27
581.62	47110.30
581.78	47150.09
581.94	47311.59
582.10	47234.35
582.26	47306.91
582.42	47267.12
582.58	47545.64
582.74	47267.12
582.90	47454.36
583.06	47316.27
583.22	47349.04
583.38	47505.85
583.54	47342.02
583.70	47365.42
583.86	47299.89
584.02	47075.19
584.18	47896.72
584.34	47470.75
584.50	47587.77
584.66	47297.55
584.82	47110.30
584.98	47264.78
585.14	47459.04
585.30	47187.54
585.46	47161.79
585.62	46887.95
585.78	47557.35
585.94	47173.50
586.10	47323.29
586.26	47187.54
586.42	47540.96
586.58	47566.71
586.74	47735.23
586.90	47143.07
587.06	47131.37
587.22	47672.03
587.38	47082.22
587.54	47522.24
587.70	47224.99
587.86	47461.38
588.02	47452.02
588.18	47756.29
588.34	47306.91
588.49	47648.63
588.65	46986.25
588.81	47473.09
588.97	47519.90
589.13	47196.90
589.29	47580.75
589.45	47257.76
589.61	47547.98
589.77	47782.04
589.93	47725.86
590.08	47847.57
590.24	47674.37
590.40	47320.95
