SpectraSuite Data File
++++++++++++++++++++++++++++++++++++
Date: Tue Oct 01 18:27:26 GMT-05:00 2013
User: stostad
Dark Spectrum Present: No
Reference Spectrum Present: No
Number of Sampled Component Spectra: 1
Spectrometers: USB2+H05261
Integration Time (usec): 100000 (USB2+H05261)
Spectra Averaged: 1 (USB2+H05261)
Boxcar Smoothing: 0 (USB2+H05261)
Correct for Electrical Dark: No (USB2+H05261)
Strobe/Lamp Enabled: No (USB2+H05261)
Correct for Detector Non-linearity: No (USB2+H05261)
Correct for Stray Light: No (USB2+H05261)
Number of Pixels in Processed Spectrum: 2048
>>>>>Begin Processed Spectral Data<<<<<
365.73	105.32
365.92	105.32
366.12	105.32
366.32	0.00
366.52	0.00
366.72	11.70
366.91	11.70
367.11	0.00
367.31	0.00
367.51	9.36
367.70	0.00
367.90	0.00
368.10	0.00
368.30	21.06
368.49	0.00
368.69	0.00
368.89	0.00
369.09	0.00
369.28	0.00
369.48	0.00
369.68	49.15
369.87	28.09
370.07	58.51
370.27	74.90
370.47	63.19
370.66	255.12
370.86	257.46
371.06	372.15
371.25	322.99
371.45	306.61
371.65	313.63
371.84	313.63
372.04	353.42
372.24	409.59
372.44	365.12
372.63	369.80
372.83	353.42
373.03	498.53
373.22	360.44
373.42	390.87
373.62	433.00
373.81	454.06
374.01	456.40
374.21	386.19
374.40	418.96
374.60	498.53
374.79	437.68
374.99	458.74
375.19	451.72
375.38	484.49
375.58	423.64
375.78	484.49
375.97	442.36
376.17	521.94
376.37	458.74
376.56	468.11
376.76	414.27
376.95	498.53
377.15	535.98
377.35	407.25
377.54	437.68
377.74	454.06
377.93	526.62
378.13	547.69
378.33	468.11
378.52	484.49
378.72	468.11
378.91	482.15
379.11	486.83
379.31	491.51
379.50	433.00
379.70	503.22
379.89	491.51
380.09	430.66
380.28	470.45
380.48	397.89
380.68	615.56
380.87	521.94
381.07	573.43
381.26	559.39
381.46	552.37
381.65	531.30
381.85	498.53
382.04	538.32
382.24	575.77
382.43	613.22
382.63	528.96
382.83	582.79
383.02	573.43
383.22	540.66
383.41	568.75
383.61	655.35
383.80	557.05
384.00	578.11
384.19	601.52
384.39	594.50
384.58	631.94
384.78	561.73
384.97	671.73
385.17	624.92
385.36	606.20
385.56	657.69
385.75	606.20
385.95	613.22
386.14	685.78
386.34	643.65
386.53	629.60
386.72	582.79
386.92	716.20
387.11	641.31
387.31	667.05
387.50	615.56
387.70	709.18
387.89	660.03
388.09	678.76
388.28	669.39
388.48	692.80
388.67	711.52
388.86	674.07
389.06	662.37
389.25	671.73
389.45	770.04
389.64	720.88
389.84	753.65
390.03	772.38
390.22	767.70
390.42	809.83
390.61	777.06
390.81	830.89
391.00	849.61
391.19	692.80
391.39	791.10
391.58	833.23
391.78	819.19
391.97	798.12
392.16	847.27
392.36	856.64
392.55	828.55
392.75	866.00
392.94	905.79
393.13	910.47
393.33	856.64
393.52	912.81
393.71	882.38
393.91	835.57
394.10	866.00
394.29	976.00
394.49	896.43
394.68	891.74
394.88	842.59
395.07	964.30
395.26	915.15
395.46	945.58
395.65	901.11
395.84	966.64
396.04	1100.05
396.23	1011.11
396.42	994.73
396.62	976.00
396.81	1046.22
397.00	1025.15
397.19	917.49
397.39	990.05
397.58	1090.69
397.77	987.71
397.97	1132.82
398.16	985.37
398.35	1109.41
398.55	1078.99
398.74	1130.48
398.93	1078.99
399.12	1036.86
399.32	1172.61
399.51	1100.05
399.70	1170.27
399.90	1081.33
400.09	1153.88
400.28	1212.40
400.47	1132.82
400.67	1153.88
400.86	1256.87
401.05	1299.00
401.24	1233.46
401.44	1306.02
401.63	1240.48
401.82	1174.95
402.01	1249.85
402.21	1350.49
402.40	1343.47
402.59	1327.08
402.78	1364.53
402.97	1352.83
403.17	1317.72
403.36	1366.87
403.55	1385.60
403.74	1460.49
403.93	1523.69
404.13	1434.75
404.32	1469.86
404.51	1390.28
404.70	1530.71
404.89	1507.30
405.09	1621.99
405.28	1516.67
405.47	1603.27
405.66	1507.30
405.85	1565.82
406.05	1638.38
406.24	1607.95
406.43	1645.40
406.62	1696.89
406.81	1666.46
407.00	1600.93
407.20	1682.85
407.39	1795.19
407.58	1727.32
407.77	1640.72
407.96	1795.19
408.15	1755.40
408.34	1680.50
408.54	1832.64
408.73	1790.51
408.92	1827.96
409.11	1888.81
409.30	2085.42
409.49	1820.94
409.68	1914.56
409.87	1891.15
410.07	1975.41
410.26	2062.01
410.45	1893.49
410.64	1982.43
410.83	2113.50
411.02	2076.06
411.21	2139.25
411.40	2108.82
411.59	2125.21
411.78	2216.49
411.98	2139.25
412.17	2155.63
412.36	2239.89
412.55	2197.76
412.74	2310.11
412.93	2349.90
413.12	2258.62
413.31	2314.79
413.50	2333.51
413.69	2380.32
413.88	2363.94
414.07	2452.88
414.26	2544.16
414.45	2427.14
414.64	2551.18
414.83	2572.25
415.02	2511.39
415.22	2532.46
415.41	2710.34
415.60	2717.36
415.79	2785.24
415.98	2665.87
416.17	2754.81
416.36	2904.60
416.55	2855.45
416.74	2731.41
416.93	2979.50
417.12	2829.71
417.31	2881.20
417.50	3000.57
417.69	2939.71
417.88	2904.60
418.07	3019.29
418.26	2829.71
418.45	2986.52
418.64	3162.06
418.83	3222.92
419.02	3000.57
419.21	3129.30
419.39	3045.04
419.58	3117.59
419.77	3136.32
419.96	3155.04
420.15	3220.58
420.34	3185.47
420.53	3211.22
420.72	3330.58
420.91	3293.13
421.10	3370.37
421.29	3314.20
421.48	3382.07
421.67	3316.54
421.86	3229.94
422.05	3300.16
422.24	3393.78
422.43	3379.73
422.61	3353.99
422.80	3534.21
422.99	3372.71
423.18	3543.57
423.37	3480.38
423.56	3361.01
423.75	3466.33
423.94	3370.37
424.13	3117.59
424.32	3260.37
424.50	3459.31
424.69	3496.76
424.88	3639.53
425.07	3407.82
425.26	3473.36
425.45	3478.04
425.64	3534.21
425.83	3489.74
426.01	3634.85
426.20	3449.95
426.39	3566.98
426.58	3531.87
426.77	3609.11
426.96	3630.17
427.15	3634.85
427.33	3637.19
427.52	3758.90
427.71	3672.30
427.90	3588.04
428.09	3751.88
428.28	3658.26
428.46	3866.56
428.65	3784.65
428.84	3894.65
429.03	3904.01
429.22	3847.84
429.40	3927.42
429.59	3946.14
429.78	3768.26
429.97	3826.78
430.16	3765.92
430.34	4039.76
430.53	4058.49
430.72	4009.34
430.91	3967.21
431.10	4004.66
431.28	4039.76
431.47	4241.05
431.66	4236.37
431.85	4163.81
432.03	4243.39
432.22	4182.54
432.41	4259.78
432.60	4386.16
432.79	4215.30
432.97	4149.77
433.16	4248.07
433.35	4198.92
433.54	4264.46
433.72	4383.82
433.91	4224.67
434.10	4250.41
434.28	4329.99
434.47	4313.61
434.66	4400.21
434.85	4519.57
435.03	4521.92
435.22	4547.66
435.41	4627.24
435.59	4423.61
435.78	4589.79
435.97	4568.73
436.16	4634.26
436.34	4585.11
436.53	4697.46
436.72	4704.48
436.90	4479.79
437.09	4678.73
437.28	4638.94
437.46	4587.45
437.65	4552.34
437.84	4861.29
438.02	4868.31
438.21	4830.87
438.40	4751.29
438.58	4924.49
438.77	5064.92
438.96	4819.16
439.14	5071.94
439.33	5139.82
439.52	5219.39
439.70	5163.22
439.89	5142.16
440.08	5142.16
440.26	5287.27
440.45	5263.86
440.63	5343.44
440.82	5497.92
441.01	5242.80
441.19	5423.02
441.38	5458.13
441.57	5497.92
441.75	5439.40
441.94	5612.60
442.12	5551.75
442.31	5708.57
442.50	5528.35
442.68	5570.48
442.87	5799.85
443.05	5746.02
443.24	5912.19
443.43	5720.27
443.61	5856.02
443.80	6099.44
443.98	5731.97
444.17	5636.01
444.35	5720.27
444.54	5898.15
444.73	5853.68
444.91	5879.43
445.10	6003.47
445.28	6057.31
445.47	5907.51
445.65	5881.77
445.84	6012.84
446.02	5886.45
446.21	5951.98
446.39	6143.91
446.58	6127.52
446.77	5959.00
446.95	5930.92
447.14	6148.59
447.32	6022.20
447.51	5975.39
447.69	6204.76
447.88	6092.41
448.06	6258.59
448.25	5900.49
448.43	5951.98
448.62	6157.95
448.80	6036.24
448.99	6085.39
449.17	6242.21
449.36	6204.76
449.54	6452.86
449.73	6267.95
449.91	6443.49
450.10	6387.32
450.28	6459.88
450.46	6363.92
450.65	6476.26
450.83	6399.02
451.02	6623.72
451.20	6518.39
451.39	6494.99
451.57	6434.13
451.76	6523.07
451.94	6541.80
452.13	6630.74
452.31	6754.79
452.49	6609.67
452.68	6670.53
452.86	6668.19
453.05	6771.17
453.23	6698.61
453.42	6537.12
453.60	6612.01
453.78	6691.59
453.97	6717.34
454.15	6813.30
454.34	6768.83
454.52	7105.87
454.70	6850.75
454.89	7068.42
455.07	6986.50
455.26	6806.28
455.44	7222.89
455.62	7068.42
455.81	7126.93
455.99	7002.88
456.17	7148.00
456.36	7124.59
456.54	7077.78
456.73	7243.96
456.91	7576.31
457.09	7517.80
457.28	7613.76
457.46	7332.90
457.64	7625.47
457.83	7410.14
458.01	7564.61
458.19	7522.48
458.38	7527.16
458.56	7679.30
458.74	7653.55
458.93	7618.44
459.11	7669.94
459.29	7744.83
459.48	7758.88
459.66	7770.58
459.84	7756.54
460.03	7939.10
460.21	7756.54
460.39	7672.28
460.57	7819.73
460.76	7960.16
460.94	7967.18
461.12	7878.24
461.31	7950.80
461.49	7995.27
461.67	8004.63
461.85	8205.92
462.04	7896.97
462.22	8545.30
462.40	8318.26
462.59	8290.18
462.77	8203.58
462.95	8416.57
463.13	8269.11
463.32	8346.35
463.50	8313.58
463.68	8388.48
463.86	8454.02
464.05	8177.83
464.23	8564.02
464.41	8472.74
464.59	8013.99
464.78	8638.92
464.96	8400.18
465.14	8407.20
465.32	8514.87
465.50	8730.20
465.69	8414.23
465.87	8678.71
466.05	8716.16
466.23	8624.87
466.41	8732.54
466.60	8887.01
466.78	8641.26
466.96	8835.52
467.14	8617.85
467.32	8863.61
467.51	8889.35
467.69	8704.45
467.87	8837.86
468.05	9004.04
468.23	8800.41
468.41	8978.30
468.60	9076.60
468.78	8980.64
468.96	8952.55
469.14	9088.30
469.32	9081.28
469.50	8917.44
469.69	9287.25
469.87	9270.86
470.05	9329.38
470.23	9270.86
470.41	9469.81
470.59	9579.81
470.77	9376.19
470.95	9589.17
471.14	9383.21
471.32	9366.82
471.50	9811.53
471.68	9614.92
471.86	9774.08
472.04	9724.93
472.22	10094.73
472.40	9825.57
472.58	10061.96
472.77	9846.63
472.95	10106.43
473.13	10560.50
473.31	9991.75
473.49	10200.05
473.67	10251.55
473.85	10008.13
474.03	10209.42
474.21	10246.87
474.39	10349.85
474.57	10635.39
474.75	10562.84
474.93	10686.89
475.12	10562.84
475.30	10665.82
475.48	10782.85
475.66	10892.85
475.84	10729.02
476.02	10939.66
476.20	10930.30
476.38	11300.11
476.56	11456.92
476.74	11449.90
476.92	11129.25
477.10	11492.03
477.28	11719.06
477.46	11681.61
477.64	11595.01
477.82	11803.32
478.00	12140.36
478.18	11913.33
478.36	11999.93
478.54	11941.41
478.72	12180.15
478.90	12383.77
479.08	12479.74
479.26	12709.11
479.44	12624.85
479.62	12903.37
479.80	12975.93
479.98	12776.98
480.16	13081.25
480.34	13149.13
480.52	13355.10
480.70	13397.23
480.88	13153.81
481.06	13289.56
481.24	13205.30
481.41	13584.47
481.59	13628.94
481.77	13944.91
481.95	14183.65
482.13	14036.19
482.31	13980.02
482.49	14345.14
482.67	14331.10
482.85	14516.00
483.03	14803.89
483.21	14883.47
483.39	14925.60
483.57	14904.53
483.74	15089.43
483.92	15267.31
484.10	14927.94
484.28	15419.45
484.46	15580.95
484.64	15971.82
484.82	15618.39
485.00	15871.17
485.18	16570.99
485.35	16512.48
485.53	16362.69
485.71	16187.14
485.89	16793.34
486.07	16421.20
486.25	16872.92
486.43	16989.95
486.61	16964.20
486.78	17160.81
486.96	16978.25
487.14	17444.01
487.32	17561.04
487.50	17668.70
487.68	17935.53
487.85	18239.79
488.03	18347.46
488.21	18574.49
488.39	18560.45
488.57	18572.15
488.75	18824.93
488.92	19040.26
489.10	19428.79
489.28	19131.54
489.46	19393.68
489.64	19239.20
489.81	19590.28
489.99	19751.78
490.17	19676.88
490.35	20147.33
490.53	20215.21
490.70	20306.49
490.88	20325.21
491.06	20594.37
491.24	20589.69
491.41	20695.02
491.59	21118.65
491.77	21226.32
491.95	21247.38
492.13	21362.07
492.30	21270.79
492.48	21310.58
492.66	21521.23
492.84	21680.38
493.01	21528.25
493.19	22157.85
493.37	22199.98
493.54	22181.26
493.72	22422.33
493.90	22527.66
494.08	22738.30
494.25	22979.38
494.43	22963.00
494.61	23358.55
494.79	23180.67
494.96	23332.80
495.14	23379.61
495.32	24130.92
495.49	23903.89
495.67	23814.95
495.85	23857.08
496.02	24215.18
496.20	24479.66
496.38	24147.31
496.55	24198.80
496.73	25111.61
496.91	24950.11
497.09	24776.91
497.26	25331.62
497.44	24678.61
497.62	24964.15
497.79	25102.25
497.97	25177.14
498.14	25930.80
498.32	26066.55
498.50	26050.16
498.67	25916.75
498.85	25841.85
499.03	26195.28
499.20	26445.71
499.38	26293.58
499.56	26831.90
499.73	26616.57
499.91	26759.34
500.08	27023.83
500.26	26682.11
500.44	27292.99
500.61	27513.00
500.79	27091.70
500.97	27264.90
501.14	27665.13
501.32	27527.04
501.49	27803.22
501.67	27339.80
501.84	28308.78
502.02	27700.24
502.20	27882.80
502.37	27969.40
502.55	28215.16
502.72	28559.22
502.90	27941.32
503.07	28552.20
503.25	28563.90
503.43	28418.78
503.60	28994.56
503.78	28968.81
503.95	28713.69
504.13	28929.02
504.30	29144.35
504.48	29450.96
504.65	29362.02
504.83	29493.09
505.01	29722.46
505.18	29439.26
505.36	29898.00
505.53	29626.50
505.71	30078.22
505.88	30164.82
506.06	30141.42
506.23	30565.06
506.41	30019.71
506.58	30293.55
506.76	30569.74
506.93	30483.14
507.11	30293.55
507.28	31021.46
507.46	30569.74
507.63	30665.70
507.81	31063.59
507.98	30604.84
508.16	31346.79
508.33	31381.90
508.50	31358.50
508.68	31351.48
508.85	31709.58
509.03	31782.13
509.20	31878.10
509.38	32147.26
509.55	32074.70
509.73	32233.86
509.90	32442.17
510.08	31945.97
510.25	31957.67
510.42	32460.89
510.60	32503.02
510.77	32690.26
510.95	33247.31
511.12	32680.90
511.30	33125.60
511.47	33312.84
511.64	33167.73
511.82	33205.18
511.99	33088.15
512.17	33497.75
512.34	33586.69
512.51	33521.15
512.69	33579.67
512.86	33764.57
513.04	34012.66
513.21	34052.45
513.38	33825.42
513.56	34110.97
513.73	34019.69
513.90	34384.81
514.08	34405.88
514.25	34644.61
514.43	34134.37
514.60	34075.86
514.77	34373.11
514.95	34998.03
515.12	34609.50
515.29	34726.53
515.47	35351.45
515.64	35365.49
515.81	35175.91
515.99	35503.59
516.16	35625.29
516.33	35644.02
516.51	35360.81
516.68	35629.98
516.85	35730.62
517.03	36390.65
517.20	36149.57
517.37	35924.88
517.54	35819.56
517.72	35915.52
517.89	35903.82
518.06	36009.14
518.24	36016.16
518.41	36208.09
518.58	36222.13
518.75	36194.04
518.93	36662.15
519.10	36245.54
519.27	36926.63
519.45	36629.38
519.62	37277.71
519.79	37163.03
519.96	37443.89
520.14	37240.26
520.31	36692.58
520.48	37207.50
520.65	37081.11
520.83	37509.43
521.00	37654.54
521.17	37792.63
521.34	37921.36
521.52	37729.44
521.69	37591.34
521.86	37890.93
522.03	37944.76
522.20	38274.78
522.38	37921.36
522.55	38213.93
522.72	38403.51
522.89	38480.75
523.07	38532.24
523.24	38270.10
523.41	38555.64
523.58	38462.02
523.75	38431.60
523.92	38782.68
524.10	39091.63
524.27	38738.21
524.44	39194.61
524.61	39208.65
524.78	39199.29
524.96	39459.09
525.13	39435.69
525.30	39828.90
525.47	39487.18
525.64	39892.09
525.81	39505.90
525.98	39913.16
526.16	39955.29
526.33	39573.78
526.50	40067.63
526.67	40133.17
526.84	40343.81
527.01	40292.32
527.18	40257.21
527.36	40491.27
527.53	39981.03
527.70	40797.88
527.87	40456.16
528.04	40121.46
528.21	40507.65
528.38	40706.60
528.55	41045.97
528.72	40905.54
528.89	40914.90
529.07	40498.29
529.24	40563.82
529.41	41102.15
529.58	41027.25
529.75	40907.88
529.92	41385.35
530.09	41680.26
530.26	41387.69
530.43	41713.03
530.60	41336.20
530.77	41050.66
530.94	41720.05
531.11	41825.37
531.28	41975.17
531.46	42239.65
531.63	41399.40
531.80	42024.32
531.97	42178.79
532.14	41923.68
532.31	41591.32
532.48	41729.41
532.65	41907.29
532.82	41778.56
532.99	42511.15
533.16	42401.14
533.33	42363.70
533.50	42520.51
533.67	42597.75
533.84	42103.90
534.01	42396.46
534.18	42169.43
534.35	42759.25
534.52	43012.02
534.69	42932.45
534.86	42700.73
535.03	42969.90
535.20	42728.82
535.37	43086.92
535.54	43290.55
535.71	43215.65
535.88	43402.89
536.05	43131.39
536.22	43501.20
536.38	43201.61
536.55	43426.30
536.72	43445.02
536.89	43093.94
537.06	43679.08
537.23	43639.29
537.40	43519.92
537.57	43856.96
537.74	43655.67
537.91	43892.07
538.08	44282.94
538.25	43704.82
538.42	43599.50
538.59	44367.20
538.75	44067.61
538.92	44046.54
539.09	44130.80
539.26	44828.28
539.43	43941.22
539.60	44083.99
539.77	44165.91
539.94	44652.74
540.11	44629.34
540.28	44437.41
540.44	44839.98
540.61	45003.82
540.78	44662.10
540.95	44945.31
541.12	44952.33
541.29	45062.33
541.46	44680.83
541.62	44416.35
541.79	45404.05
541.96	44392.94
542.13	44966.37
542.30	44807.22
542.47	44989.78
542.63	45193.40
542.80	45258.94
542.97	45319.79
543.14	45764.49
543.31	45792.58
543.48	45705.98
543.64	46199.83
543.81	46099.19
543.98	46286.43
544.15	45895.56
544.32	45977.48
544.48	46258.35
544.65	45942.38
544.82	46146.00
544.99	45743.43
545.16	46354.31
545.32	46513.47
545.49	47026.04
545.66	46691.35
545.83	46185.79
546.00	46494.74
546.16	46476.02
546.33	46356.65
546.50	45970.46
546.67	46824.76
546.83	46298.14
547.00	46349.63
547.17	46527.51
547.34	46356.65
547.50	46571.98
547.67	46784.97
547.84	46777.95
548.00	47171.16
548.17	47381.80
548.34	47124.35
548.51	47456.70
548.67	47260.10
548.84	47416.91
549.01	46864.55
549.18	47077.54
549.34	46855.18
549.51	47065.83
549.68	47349.04
549.84	47594.79
550.01	47494.15
550.18	47234.35
550.34	47330.31
550.51	47136.05
550.68	47430.96
550.84	47360.74
551.01	47669.69
551.18	47227.33
551.34	47285.84
551.51	47962.26
551.68	47697.78
551.84	47997.37
552.01	47545.64
552.18	47611.18
552.34	47725.86
552.51	47447.34
552.68	47641.60
552.84	47711.82
553.01	48320.36
553.18	48055.88
553.34	48254.82
553.51	48006.73
553.67	47995.03
553.84	48133.12
554.01	47964.60
554.17	48149.50
554.34	48198.65
554.51	48502.92
554.67	48734.63
554.84	48402.28
555.00	48179.93
555.17	48177.59
555.33	48126.10
555.50	47906.08
555.67	48156.52
555.83	48538.03
556.00	48875.07
556.16	48985.07
556.33	48488.88
556.50	48591.86
556.66	48542.71
556.83	48449.09
556.99	48886.77
557.16	48353.13
557.32	48715.91
557.49	48746.34
557.65	48353.13
557.82	49174.66
557.98	48919.54
558.15	49041.24
558.32	49036.56
558.48	49088.06
558.65	49120.82
558.81	48858.68
558.98	48786.13
559.14	48821.23
559.31	49059.97
559.47	49099.76
559.64	49169.97
559.80	49392.33
559.97	49251.89
560.13	49118.48
560.30	48729.95
560.46	48821.23
560.63	48956.99
560.79	49359.56
560.96	49586.59
561.12	49312.75
561.29	49310.41
561.45	49205.08
561.61	49642.76
561.78	49303.38
561.94	49052.95
562.11	49340.83
562.27	49233.17
562.44	49137.21
562.60	49214.44
562.77	49708.30
562.93	49509.35
563.10	50192.79
563.26	49563.18
563.42	49808.94
563.59	49474.24
563.75	49279.98
563.92	49617.02
564.08	49265.94
564.24	49476.58
564.41	49776.17
564.57	49872.14
564.74	49357.22
564.90	49853.41
565.07	49439.14
565.23	50050.02
565.39	49343.17
565.56	49806.60
565.72	49436.80
565.88	49708.30
566.05	49710.64
566.21	49900.22
566.38	49935.33
566.54	49738.72
566.70	49614.68
566.87	50178.75
567.03	49455.52
567.19	49900.22
567.36	49638.08
567.52	49752.77
567.68	50141.30
567.85	49631.06
568.01	50047.68
568.17	50113.21
568.34	50014.91
568.50	49998.52
568.66	49886.18
568.83	50089.80
568.99	49841.71
569.15	50167.04
569.32	49979.80
569.48	49944.69
569.64	50019.59
569.81	49968.10
569.97	50005.55
570.13	50181.09
570.30	50033.63
570.46	50040.65
570.62	50305.13
570.78	49705.96
570.95	50150.66
571.11	49954.05
571.27	50143.64
571.43	50164.70
571.60	50450.25
571.76	50120.23
571.92	50099.17
572.09	50342.58
572.25	50190.45
572.41	50078.10
572.57	50047.68
572.74	50246.62
572.90	50342.58
573.06	50380.03
573.22	50288.75
573.38	50361.31
573.55	50237.26
573.71	50590.68
573.87	50358.97
574.03	49979.80
574.20	50445.57
574.36	50272.37
574.52	50136.62
574.68	50160.02
574.84	50433.86
575.01	50937.08
575.17	50188.11
575.33	50183.43
575.49	50054.70
575.65	50595.36
575.82	50277.05
575.98	50181.09
576.14	50511.10
576.30	50314.50
576.46	50169.38
576.62	50438.54
576.79	50424.50
576.95	50066.40
577.11	50370.67
577.27	50628.13
577.43	50195.13
577.59	50363.65
577.75	50405.78
577.92	50373.01
578.08	50204.49
578.24	50260.66
578.40	50824.73
578.56	50569.61
578.72	50597.70
578.88	50305.13
579.04	50513.44
579.21	50223.22
579.37	50307.47
579.53	50686.64
579.69	50508.76
579.85	50480.67
580.01	50628.13
580.17	50518.12
580.33	50637.49
580.49	50466.63
580.65	50770.90
580.82	50513.44
580.98	50305.13
581.14	50494.72
581.30	50728.77
581.46	50611.74
581.62	50590.68
581.78	50557.91
581.94	50930.06
582.10	50312.16
582.26	50665.58
582.42	50394.07
582.58	50653.87
582.74	50443.23
582.90	50588.34
583.06	50665.58
583.22	50293.43
583.38	50852.82
583.54	50298.11
583.70	50894.95
583.86	50665.58
584.02	50295.77
584.18	50859.84
584.34	50534.51
584.50	50504.08
584.66	50794.31
584.82	50459.61
584.98	50813.03
585.14	50857.50
585.30	50555.57
585.46	50578.98
585.62	50724.09
585.78	50908.99
585.94	50349.60
586.10	50768.56
586.26	50447.91
586.42	50639.83
586.58	50899.63
586.74	50873.88
586.90	50927.72
587.06	50759.20
587.22	50958.14
587.38	50948.78
587.54	50981.55
587.70	50857.50
587.86	50791.97
588.02	51047.08
588.18	50728.77
588.34	50564.93
588.49	50621.11
588.65	50724.09
588.81	50904.31
588.97	51084.53
589.13	51337.31
589.29	50852.82
589.45	51112.62
589.61	51126.66
589.77	51358.38
589.93	50962.82
590.08	50756.86
590.24	51009.64
590.40	51433.27
590.56	51082.19
