SpectraSuite Data File
++++++++++++++++++++++++++++++++++++
Date: Fri Oct 04 11:39:25 GMT-05:00 2013
User: price-jones
Dark Spectrum Present: No
Reference Spectrum Present: No
Number of Sampled Component Spectra: 1
Spectrometers: USB2+H05261
Integration Time (usec): 100000 (USB2+H05261)
Spectra Averaged: 1 (USB2+H05261)
Boxcar Smoothing: 0 (USB2+H05261)
Correct for Electrical Dark: No (USB2+H05261)
Strobe/Lamp Enabled: No (USB2+H05261)
Correct for Detector Non-linearity: No (USB2+H05261)
Correct for Stray Light: No (USB2+H05261)
Number of Pixels in Processed Spectrum: 2048
>>>>>Begin Processed Spectral Data<<<<<
365.73	63.19
365.92	63.19
366.12	63.19
366.32	0.00
366.52	0.00
366.72	0.00
366.91	0.00
367.11	0.00
367.31	0.00
367.51	0.00
367.70	0.00
367.90	0.00
368.10	0.00
368.30	0.00
368.49	0.00
368.69	0.00
368.89	0.00
369.09	0.00
369.28	0.00
369.48	0.00
369.68	0.00
369.87	86.60
370.07	46.81
370.27	95.96
370.47	100.64
370.66	133.41
370.86	217.67
371.06	245.76
371.25	311.29
371.45	236.39
371.65	290.23
371.84	257.46
372.04	217.67
372.24	374.49
372.44	255.12
372.63	308.95
372.83	351.08
373.03	306.61
373.22	372.15
373.42	367.46
373.62	311.29
373.81	346.40
374.01	379.17
374.21	374.49
374.40	320.65
374.60	390.87
374.79	402.57
374.99	379.17
375.19	379.17
375.38	386.19
375.58	428.32
375.78	407.25
375.97	393.21
376.17	376.83
376.37	315.97
376.56	346.40
376.76	393.21
376.95	308.95
377.15	440.02
377.35	351.08
377.54	505.56
377.74	381.51
377.93	437.68
378.13	411.93
378.33	458.74
378.52	458.74
378.72	484.49
378.91	449.38
379.11	458.74
379.31	376.83
379.50	337.04
379.70	374.49
379.89	484.49
380.09	458.74
380.28	425.98
380.48	454.06
380.68	416.62
380.87	388.53
381.07	510.24
381.26	503.22
381.46	416.62
381.65	456.40
381.85	442.36
382.04	404.91
382.24	435.34
382.43	477.47
382.63	414.27
382.83	470.45
383.02	442.36
383.22	566.41
383.41	416.62
383.61	451.72
383.80	458.74
384.00	468.11
384.19	547.69
384.39	526.62
384.58	535.98
384.78	547.69
384.97	578.11
385.17	561.73
385.36	512.58
385.56	557.05
385.75	503.22
385.95	512.58
386.14	547.69
386.34	475.13
386.53	507.90
386.72	578.11
386.92	547.69
387.11	521.94
387.31	638.97
387.50	524.28
387.70	545.34
387.89	582.79
388.09	564.07
388.28	596.84
388.48	550.03
388.67	596.84
388.86	582.79
389.06	531.30
389.25	634.29
389.45	624.92
389.64	617.90
389.84	669.39
390.03	603.86
390.22	648.33
390.42	660.03
390.61	739.61
390.81	575.77
391.00	660.03
391.19	683.44
391.39	692.80
391.58	709.18
391.78	713.86
391.97	704.50
392.16	678.76
392.36	844.93
392.55	695.14
392.75	713.86
392.94	603.86
393.13	709.18
393.33	727.91
393.52	727.91
393.71	737.27
393.91	667.05
394.10	645.99
394.29	814.51
394.49	720.88
394.68	819.19
394.88	770.04
395.07	821.53
395.26	901.11
395.46	779.40
395.65	763.01
395.84	809.83
396.04	870.68
396.23	784.08
396.42	826.21
396.62	873.02
396.81	844.93
397.00	800.46
397.19	835.57
397.39	908.13
397.58	964.30
397.77	863.66
397.97	891.74
398.16	922.17
398.35	1013.45
398.55	919.83
398.74	922.17
398.93	959.62
399.12	968.98
399.32	903.45
399.51	1022.81
399.70	971.32
399.90	1011.11
400.09	924.51
400.28	978.34
400.47	1046.22
400.67	1104.73
400.86	1057.92
401.05	1210.06
401.24	1104.73
401.44	983.02
401.63	1177.29
401.82	1109.41
402.01	1107.07
402.21	1090.69
402.40	1130.48
402.59	1130.48
402.78	1233.46
402.97	1146.86
403.17	1174.95
403.36	1275.59
403.55	1153.88
403.74	1228.78
403.93	1277.93
404.13	1317.72
404.32	1380.92
404.51	1240.48
404.70	1341.13
404.89	1240.48
405.09	1350.49
405.28	1425.39
405.47	1341.13
405.66	1355.17
405.85	1425.39
406.05	1460.49
406.24	1427.73
406.43	1383.26
406.62	1469.86
406.81	1542.41
407.00	1406.66
407.20	1394.96
407.39	1540.07
407.58	1460.49
407.77	1591.56
407.96	1500.28
408.15	1476.88
408.34	1629.01
408.54	1657.10
408.73	1708.59
408.92	1654.76
409.11	1701.57
409.30	1657.10
409.49	1650.08
409.68	1675.82
409.87	1739.02
410.07	1727.32
410.26	1713.27
410.45	1729.66
410.64	1818.60
410.83	1818.60
411.02	1769.44
411.21	1893.49
411.40	1769.44
411.59	1968.39
411.78	1877.11
411.98	1813.92
412.17	1926.26
412.36	1893.49
412.55	2008.18
412.74	2010.52
412.93	2017.54
413.12	2071.37
413.31	2174.36
413.50	2031.58
413.69	2083.08
413.88	2218.83
414.07	2202.44
414.26	2211.81
414.45	2209.47
414.64	2200.10
414.83	2422.45
415.02	2328.83
415.22	2321.81
415.41	2349.90
415.60	2359.26
415.79	2427.14
415.98	2476.29
416.17	2504.37
416.36	2450.54
416.55	2443.52
416.74	2572.25
416.93	2593.31
417.12	2602.68
417.31	2703.32
417.50	2607.36
417.69	2700.98
417.88	2651.83
418.07	2663.53
418.26	2715.02
418.45	2757.15
418.64	2967.80
418.83	2766.51
419.02	2686.94
419.21	2832.05
419.39	2916.31
419.58	2843.75
419.77	2729.06
419.96	2843.75
420.15	2951.42
420.34	2789.92
420.53	3012.27
420.72	3077.80
420.91	2916.31
421.10	3035.67
421.29	3087.17
421.48	3136.32
421.67	3075.46
421.86	2967.80
422.05	3255.69
422.24	3040.36
422.43	3131.64
422.61	3112.91
422.80	3075.46
422.99	3087.17
423.18	3243.98
423.37	3260.37
423.56	3201.85
423.75	3199.51
423.94	3239.30
424.13	2974.82
424.32	3098.87
424.50	3363.35
424.69	3314.20
424.88	3295.47
425.07	3197.17
425.26	3192.49
425.45	3169.09
425.64	3178.45
425.83	3267.39
426.01	3337.60
426.20	3246.32
426.39	3433.57
426.58	3368.03
426.77	3213.56
426.96	3307.18
427.15	3459.31
427.33	3356.33
427.52	3452.29
427.71	3375.05
427.90	3384.41
428.09	3293.13
428.28	3463.99
428.46	3428.88
428.65	3534.21
428.84	3616.13
429.03	3588.04
429.22	3527.19
429.40	3480.38
429.59	3571.66
429.78	3489.74
429.97	3424.20
430.16	3527.19
430.34	3606.77
430.53	3599.74
430.72	3583.36
430.91	3686.34
431.10	3658.26
431.28	3815.07
431.47	3786.99
431.66	3833.80
431.85	3705.07
432.03	3861.88
432.22	4058.49
432.41	3801.03
432.60	3838.48
432.79	3833.80
432.97	3808.05
433.16	3971.89
433.35	3885.29
433.54	3864.22
433.72	3978.91
433.91	3925.08
434.10	4070.19
434.28	3967.21
434.47	4067.85
434.66	4093.60
434.85	4056.15
435.03	4170.83
435.22	4308.93
435.41	4709.16
435.59	4461.06
435.78	4458.72
435.97	4411.91
436.16	4362.76
436.34	4231.69
436.53	4397.87
436.72	4327.65
436.90	4217.65
437.09	4238.71
437.28	4285.52
437.46	4337.01
437.65	4440.00
437.84	4440.00
438.02	4339.35
438.21	4580.43
438.40	4432.97
438.58	4683.41
438.77	4732.56
438.96	4514.89
439.14	4627.24
439.33	4674.05
439.52	4732.56
439.70	4758.31
439.89	4873.00
440.08	4847.25
440.26	4861.29
440.45	4770.01
440.63	4812.14
440.82	4983.00
441.01	4877.68
441.19	5069.60
441.38	5034.49
441.57	5093.01
441.75	5074.28
441.94	5085.98
442.12	5317.70
442.31	5263.86
442.50	5163.22
442.68	5287.27
442.87	5259.18
443.05	5408.98
443.24	5479.19
443.43	5355.15
443.61	5397.28
443.80	5542.39
443.98	5376.21
444.17	5224.08
444.35	5589.20
444.54	5685.16
444.73	5448.77
444.91	5451.11
445.10	5518.98
445.28	5504.94
445.47	5387.91
445.65	5490.90
445.84	5486.22
446.02	5526.00
446.21	5430.04
446.39	5509.62
446.58	5610.26
446.77	5518.98
446.95	5383.23
447.14	5481.53
447.32	5561.11
447.51	5542.39
447.69	5596.22
447.88	5643.03
448.06	5589.20
448.25	5514.30
448.43	5696.86
448.62	5497.92
448.80	5591.54
448.99	5743.67
449.17	5722.61
449.36	5659.42
449.54	5729.63
449.73	5867.72
449.91	5895.81
450.10	5919.21
450.28	5916.87
450.46	5844.32
450.65	5891.13
450.83	5912.19
451.02	5867.72
451.20	5996.45
451.39	6017.52
451.57	6059.65
451.76	6052.63
451.94	6019.86
452.13	6092.41
452.31	6099.44
452.49	5879.43
452.68	6106.46
452.86	6155.61
453.05	6211.78
453.23	6246.89
453.42	6106.46
453.60	6141.57
453.78	6045.60
453.97	6274.98
454.15	6342.85
454.34	6310.08
454.52	6347.53
454.70	6300.72
454.89	6368.60
455.07	6487.96
455.26	6403.71
455.44	6576.91
455.62	6534.78
455.81	6420.09
455.99	6513.71
456.17	6609.67
456.36	6340.51
456.54	6747.76
456.73	6665.85
456.91	6857.77
457.09	6696.27
457.28	6841.39
457.46	6759.47
457.64	7000.54
457.83	6970.12
458.01	6726.70
458.19	6897.56
458.38	6846.07
458.56	7012.24
458.74	6939.69
458.93	6963.09
459.11	7014.59
459.29	6878.83
459.48	7091.82
459.66	7225.23
459.84	7084.80
460.03	7337.58
460.21	6958.41
460.39	7295.45
460.57	7096.50
460.76	7344.60
460.94	7246.30
461.12	7307.15
461.31	7342.26
461.49	7286.09
461.67	7358.64
461.85	7419.50
462.04	7337.58
462.22	7754.19
462.40	7501.42
462.59	7538.87
462.77	7454.61
462.95	7536.52
463.13	7396.09
463.32	7527.16
463.50	7559.93
463.68	7588.02
463.86	7630.15
464.05	7473.33
464.23	7592.70
464.41	7763.56
464.59	7599.72
464.78	7702.70
464.96	7702.70
465.14	7702.70
465.32	7655.89
465.50	7988.25
465.69	8098.25
465.87	7784.62
466.05	7854.84
466.23	7810.37
466.41	7723.77
466.60	8142.72
466.78	7990.59
466.96	7962.50
467.14	7974.21
467.32	7845.48
467.51	8056.12
467.69	7817.39
467.87	8121.66
468.05	8088.89
468.23	8107.62
468.41	8060.80
468.60	8210.60
468.78	8163.79
468.96	8201.24
469.14	8430.61
469.32	8404.86
469.50	8255.07
469.69	8280.82
469.87	8542.96
470.05	8531.25
470.23	8786.37
470.41	8510.19
470.59	8657.64
470.77	8463.38
470.95	8564.02
471.14	8692.75
471.32	8568.70
471.50	8966.59
471.68	8805.10
471.86	8851.91
472.04	8959.57
472.22	9207.67
472.40	8872.97
472.58	8910.42
472.77	9069.58
472.95	9097.66
473.13	9380.87
473.31	9137.45
473.49	9046.17
473.67	9273.20
473.85	9158.52
474.03	9392.57
474.21	9444.06
474.39	9558.75
474.57	9336.40
474.75	9617.26
474.93	9561.09
475.12	9659.39
475.30	9870.04
475.48	9748.33
475.66	9930.89
475.84	9963.66
476.02	10083.03
476.20	10012.81
476.38	10024.51
476.56	10211.76
476.74	10197.71
476.92	10263.25
477.10	10218.78
477.28	10200.05
477.46	10373.25
477.64	10693.91
477.82	10773.49
478.00	11192.44
478.18	10944.34
478.36	10974.77
478.54	11122.23
478.72	10951.37
478.90	11117.54
479.08	11349.26
479.26	11325.85
479.44	11311.81
479.62	11709.70
479.80	11826.73
479.98	11639.48
480.16	11997.59
480.34	11836.09
480.52	11868.86
480.70	12035.03
480.88	12205.89
481.06	12114.61
481.24	11957.80
481.41	12381.43
481.59	12212.92
481.77	12847.20
481.95	12608.47
482.13	12835.50
482.31	12879.97
482.49	12833.16
482.67	12985.29
482.85	13298.92
483.03	13338.71
483.21	13469.78
483.39	13364.46
483.57	13680.43
483.74	13528.30
483.92	13942.57
484.10	13584.47
484.28	14150.88
484.46	14272.59
484.64	14389.61
484.82	14197.69
485.00	14239.82
485.18	14909.21
485.35	14923.26
485.53	14803.89
485.71	14827.29
485.89	15330.51
486.07	14960.70
486.25	15204.12
486.43	15176.03
486.61	15592.65
486.78	15775.21
486.96	15857.13
487.14	15995.22
487.32	16042.03
487.50	16070.12
487.68	16280.77
487.85	16264.38
488.03	16308.85
488.21	16847.18
488.39	16861.22
488.57	16582.70
488.75	16964.20
488.92	17158.47
489.10	17446.35
489.28	17289.54
489.46	17556.36
489.64	17465.08
489.81	18052.55
489.99	17881.69
490.17	17853.61
490.35	18310.01
490.53	18001.06
490.70	18288.95
490.88	17902.76
491.06	18768.76
491.24	18279.58
491.41	18714.92
491.59	18773.44
491.77	19026.21
491.95	19199.41
492.13	19157.28
492.30	19379.64
492.48	19152.60
492.66	19435.81
492.84	19421.77
493.01	19779.87
493.19	19751.78
493.37	19864.13
493.54	19957.75
493.72	20357.98
493.90	20121.59
494.08	20475.01
494.25	20587.35
494.43	20973.54
494.61	20886.94
494.79	20861.19
494.96	21046.10
495.14	21128.02
495.32	21312.92
495.49	21219.30
495.67	21530.59
495.85	21563.36
496.02	21642.93
496.20	21884.01
496.38	21722.51
496.55	22221.05
496.73	22593.19
496.91	22373.18
497.09	22635.32
497.26	22951.29
497.44	22232.75
497.62	22548.72
497.79	22714.90
497.97	22595.53
498.14	23468.55
498.32	23070.66
498.50	23304.71
498.67	23417.06
498.85	23534.09
499.03	23307.05
499.20	23821.97
499.38	23826.65
499.56	24109.86
499.73	24074.75
499.91	24357.96
500.08	24163.69
500.26	24154.33
500.44	23922.62
500.61	24313.48
500.79	24493.71
500.97	24638.82
501.14	24788.61
501.32	25060.12
501.49	24833.08
501.67	24891.60
501.84	24924.36
502.02	25006.28
502.20	25362.04
502.37	25678.02
502.55	25333.96
502.72	25355.02
502.90	25263.74
503.07	25408.86
503.25	25788.02
503.43	25727.17
503.60	25436.94
503.78	25851.22
503.95	26167.19
504.13	26307.62
504.30	26487.84
504.48	26106.34
504.65	26321.66
504.83	26359.11
505.01	26913.82
505.18	26815.52
505.36	26546.36
505.53	26855.31
505.71	26939.57
505.88	26925.52
506.06	26555.72
506.23	27335.12
506.41	27433.42
506.58	27365.54
506.76	27559.81
506.93	27108.08
507.11	27232.13
507.28	27564.49
507.46	27461.51
507.63	27505.98
507.81	27864.08
507.98	27669.81
508.16	27878.12
508.33	27803.22
508.50	27831.31
508.68	28247.93
508.85	28577.94
509.03	28514.75
509.20	28180.05
509.38	28865.83
509.55	28687.95
509.73	28622.41
509.90	28980.51
510.08	28907.96
510.25	28863.49
510.42	28830.72
510.60	29689.70
510.77	29343.30
510.95	29413.51
511.12	29397.13
511.30	29738.85
511.47	29401.81
511.64	29415.85
511.82	29745.87
511.99	30057.16
512.17	29701.40
512.34	30019.71
512.51	29982.26
512.69	30082.91
512.86	29820.77
513.04	30628.25
513.21	30110.99
513.38	30375.47
513.56	30771.02
513.73	30661.02
513.90	30710.17
514.08	30607.19
514.25	31016.78
514.43	31105.72
514.60	31007.42
514.77	31152.53
514.95	30824.86
515.12	30995.71
515.29	31405.31
515.47	31534.04
515.64	31562.12
515.81	31353.82
515.99	31850.01
516.16	31971.72
516.33	31861.71
516.51	32133.21
516.68	31489.57
516.85	31763.41
517.03	31683.83
517.20	32149.60
517.37	32528.77
517.54	32332.16
517.72	32470.25
517.89	32563.87
518.06	32601.32
518.24	32346.20
518.41	32194.07
518.58	32683.24
518.75	32500.68
518.93	32975.81
519.10	32687.92
519.27	33310.50
519.45	32535.79
519.62	32540.47
519.79	32879.85
519.96	32783.88
520.14	33184.12
520.31	33308.16
520.48	33354.97
520.65	33521.15
520.83	33460.30
521.00	33670.95
521.17	33680.31
521.34	33359.66
521.52	33895.64
521.69	33923.72
521.86	34546.31
522.03	34452.69
522.20	34328.64
522.38	34375.45
522.55	34258.42
522.72	34256.08
522.89	34403.53
523.07	34450.35
523.24	34806.11
523.41	34586.10
523.58	34230.33
523.75	34370.77
523.92	34445.66
524.10	34878.66
524.27	34852.92
524.44	34948.88
524.61	35409.96
524.78	35426.35
524.96	34967.60
525.13	35194.64
525.30	35239.11
525.47	35543.38
525.64	35456.78
525.81	35831.26
525.98	35756.36
526.16	36081.70
526.33	35494.22
526.50	35709.55
526.67	35299.96
526.84	36032.55
527.01	35648.70
527.18	35845.30
527.36	36116.81
527.53	36041.91
527.70	36811.95
527.87	36294.69
528.04	36189.36
528.21	36297.03
528.38	36465.55
528.55	36362.56
528.72	36603.64
528.89	36844.71
529.07	36650.45
529.24	36327.45
529.41	36634.06
529.58	36849.39
529.75	36730.03
529.92	36926.63
530.09	36603.64
530.26	36975.78
530.43	37368.99
530.60	36954.72
530.77	36992.17
530.94	37146.64
531.11	37010.89
531.28	37102.17
531.46	37331.54
531.63	37205.16
531.80	37640.50
531.97	37825.40
532.14	37544.53
532.31	37251.97
532.48	37776.25
532.65	37801.99
532.82	37708.37
532.99	37682.62
533.16	37605.39
533.33	38382.45
533.50	38499.47
533.67	38014.98
533.84	37893.27
534.01	37923.70
534.18	37928.38
534.35	38326.27
534.52	38401.17
534.69	38447.98
534.86	38487.77
535.03	38192.86
535.20	38990.98
535.37	38628.20
535.54	38796.72
535.71	38251.38
535.88	38705.44
536.05	38810.76
536.22	38979.28
536.38	39079.92
536.55	38796.72
536.72	38773.31
536.89	38778.00
537.06	39044.82
537.23	39388.88
537.40	39438.03
537.57	38946.51
537.74	38831.83
537.91	39587.82
538.08	39358.45
538.25	39274.19
538.42	39793.79
538.59	39646.33
538.75	39145.46
538.92	39386.54
539.09	39686.12
539.26	39697.83
539.43	39777.40
539.60	40011.46
539.77	39847.62
539.94	40119.12
540.11	40217.43
540.28	40245.51
540.44	39913.16
540.61	40130.83
540.78	40147.21
540.95	40252.53
541.12	40240.83
541.29	40779.15
541.46	40636.38
541.62	40584.89
541.79	40706.60
541.96	40973.42
542.13	40392.97
542.30	40739.36
542.47	40732.34
542.63	40994.48
542.80	41170.02
542.97	41067.04
543.14	41116.19
543.31	40966.40
543.48	41118.53
543.64	41649.83
543.81	41586.64
543.98	41593.66
544.15	41446.21
544.32	41469.61
544.48	42155.39
544.65	41607.70
544.82	41689.62
544.99	41160.66
545.16	41874.52
545.32	41640.47
545.49	42522.85
545.66	42696.05
545.83	43433.32
546.00	42686.69
546.16	42124.96
546.33	42050.06
546.50	40971.08
546.67	42087.51
546.83	41553.87
547.00	41855.80
547.17	42108.58
547.34	42036.02
547.50	42438.59
547.67	42450.30
547.84	42267.73
548.00	42532.22
548.17	42415.19
548.34	42054.75
548.51	42220.92
548.67	41989.21
548.84	42148.37
549.01	42326.25
549.18	42560.30
549.34	42213.90
549.51	42445.62
549.68	42525.19
549.84	42068.79
550.01	42614.13
550.18	42646.90
550.34	42471.36
550.51	43068.20
550.68	43033.09
550.84	42284.12
551.01	42728.82
551.18	42916.06
551.34	42377.74
551.51	42726.48
551.68	43217.99
551.84	42651.58
552.01	42836.48
552.18	43318.64
552.34	42740.52
552.51	43260.12
552.68	42684.35
552.84	43035.43
553.01	43494.18
553.18	43210.97
553.34	43222.67
553.51	43412.26
553.67	43342.04
553.84	43360.76
554.01	43215.65
554.17	43473.11
554.34	43208.63
554.51	43267.14
554.67	43524.60
554.84	43199.27
555.00	43456.73
555.17	43440.34
555.33	43714.19
555.50	43585.46
555.67	43683.76
555.83	43227.35
556.00	42693.71
556.16	44133.14
556.33	43342.04
556.50	43264.80
556.66	43964.62
556.83	43592.48
556.99	44236.12
557.16	44156.55
557.32	43737.59
557.49	43643.97
557.65	43606.52
557.82	43601.84
557.98	43505.88
558.15	43875.68
558.32	44222.08
558.48	43976.33
558.65	43906.11
558.81	43753.97
558.98	44107.40
559.14	44095.69
559.31	43653.33
559.47	44107.40
559.64	43643.97
559.80	44112.08
559.97	44313.36
560.13	43948.24
560.30	44460.82
560.46	44105.06
560.63	44343.79
560.79	44133.14
560.96	44369.54
561.12	44449.11
561.29	44540.39
561.45	44334.43
561.61	44114.42
561.78	44205.70
561.94	44477.20
562.11	44545.08
562.27	44336.77
562.44	44418.69
562.60	44280.60
562.77	44044.20
562.93	44004.41
563.10	44865.73
563.26	44725.30
563.42	44638.70
563.59	44278.25
563.75	45027.23
563.92	44603.59
564.08	44470.18
564.24	44304.00
564.41	44121.44
564.57	44294.64
564.74	44713.59
564.90	44453.79
565.07	44629.34
565.23	45064.67
565.39	45029.57
565.56	45303.41
565.72	44430.39
565.88	44519.33
566.05	44575.50
566.21	44842.32
566.38	44500.61
566.54	44507.63
566.70	44877.43
566.87	45146.59
567.03	44746.36
567.19	45076.38
567.36	45244.90
567.52	44917.22
567.68	45235.53
567.85	44570.82
568.01	44083.99
568.17	44879.77
568.34	45132.55
568.50	45099.78
568.66	45076.38
568.83	45074.04
568.99	44580.18
569.15	44905.52
569.32	44580.18
569.48	44580.18
569.64	45134.89
569.81	44832.96
569.97	44959.35
570.13	44868.07
570.30	45514.06
570.46	45043.61
570.62	45132.55
570.78	44856.37
570.95	44594.23
571.11	44844.66
571.27	44500.61
571.43	44884.45
571.60	44905.52
571.76	44942.97
571.92	45586.61
572.09	45375.97
572.25	45387.67
572.41	45612.36
572.57	45202.77
572.74	45481.29
572.90	45280.00
573.06	44877.43
573.22	44825.94
573.38	45102.12
573.55	45029.57
573.71	45769.18
573.87	45251.92
574.03	45067.02
574.20	45280.00
574.36	45106.80
574.52	45120.85
574.68	44683.17
574.84	45382.99
575.01	45158.30
575.17	45366.60
575.33	44961.69
575.49	45251.92
575.65	45607.68
575.82	45361.92
575.98	45233.19
576.14	45120.85
576.30	45696.62
576.46	45326.81
576.62	45631.08
576.79	45626.40
576.95	45380.65
577.11	45481.29
577.27	45284.68
577.43	45542.14
577.59	45467.25
577.75	44870.41
577.92	44851.69
578.08	44872.75
578.24	44947.65
578.40	45324.47
578.56	45500.01
578.72	45647.47
578.88	45642.79
579.04	45687.26
579.21	45301.07
579.37	45408.73
579.53	45511.72
579.69	45544.48
579.85	45399.37
580.01	45502.35
580.17	45373.63
580.33	45153.62
580.49	45375.97
580.65	45354.90
580.82	45979.82
580.98	45441.50
581.14	45343.20
581.30	45930.67
581.46	45340.86
581.62	45214.47
581.78	45483.63
581.94	45727.05
582.10	44765.09
582.26	45790.24
582.42	45743.43
582.58	45628.74
582.74	45996.21
582.90	45710.66
583.06	45834.71
583.22	45551.51
583.38	45720.02
583.54	45680.24
583.70	45188.72
583.86	45361.92
584.02	45013.18
584.18	45813.65
584.34	45549.17
584.50	46024.29
584.66	45558.53
584.82	45436.82
584.98	45713.00
585.14	45581.93
585.30	45485.97
585.46	45464.91
585.62	45558.53
585.78	45792.58
585.94	45291.71
586.10	45521.08
586.26	45565.55
586.42	46057.06
586.58	45745.77
586.74	45558.53
586.90	45413.41
587.06	45425.12
587.22	45720.02
587.38	45558.53
587.54	45801.94
587.70	46000.89
587.86	45979.82
588.02	46237.28
588.18	45881.52
588.34	45900.25
588.49	45783.22
588.65	45558.53
588.81	45612.36
588.97	45647.47
589.13	45876.84
589.29	45811.31
589.45	45972.80
589.61	45902.59
589.77	45867.48
589.93	45996.21
590.08	45979.82
590.24	46094.51
590.40	46174.09
590.56	45727.05
590.72	45446.18
590.88	45720.02
