SpectraSuite Data File
++++++++++++++++++++++++++++++++++++
Date: Fri Oct 04 11:39:37 GMT-05:00 2013
User: price-jones
Dark Spectrum Present: No
Reference Spectrum Present: No
Number of Sampled Component Spectra: 1
Spectrometers: USB2+H05261
Integration Time (usec): 100000 (USB2+H05261)
Spectra Averaged: 1 (USB2+H05261)
Boxcar Smoothing: 0 (USB2+H05261)
Correct for Electrical Dark: No (USB2+H05261)
Strobe/Lamp Enabled: No (USB2+H05261)
Correct for Detector Non-linearity: No (USB2+H05261)
Correct for Stray Light: No (USB2+H05261)
Number of Pixels in Processed Spectrum: 2048
>>>>>Begin Processed Spectral Data<<<<<
365.73	0.00
365.92	0.00
366.12	0.00
366.32	0.00
366.52	0.00
366.72	0.00
366.91	0.00
367.11	0.00
367.31	0.00
367.51	0.00
367.70	0.00
367.90	0.00
368.10	0.00
368.30	0.00
368.49	0.00
368.69	0.00
368.89	4.68
369.09	0.00
369.28	0.00
369.48	58.51
369.68	32.77
369.87	23.41
370.07	0.00
370.27	18.72
370.47	37.45
370.66	320.65
370.86	332.36
371.06	411.93
371.25	402.57
371.45	297.25
371.65	313.63
371.84	292.57
372.04	250.44
372.24	285.55
372.44	360.44
372.63	360.44
372.83	456.40
373.03	418.96
373.22	341.72
373.42	444.70
373.62	444.70
373.81	425.98
374.01	353.42
374.21	397.89
374.40	461.09
374.60	472.79
374.79	484.49
374.99	390.87
375.19	381.51
375.38	433.00
375.58	397.89
375.78	477.47
375.97	397.89
376.17	493.85
376.37	437.68
376.56	442.36
376.76	512.58
376.95	505.56
377.15	451.72
377.35	510.24
377.54	526.62
377.74	531.30
377.93	486.83
378.13	442.36
378.33	524.28
378.52	484.49
378.72	493.85
378.91	486.83
379.11	512.58
379.31	505.56
379.50	496.19
379.70	510.24
379.89	610.88
380.09	552.37
380.28	575.77
380.48	580.45
380.68	463.43
380.87	559.39
381.07	505.56
381.26	592.16
381.46	585.13
381.65	571.09
381.85	557.05
382.04	613.22
382.24	571.09
382.43	564.07
382.63	545.34
382.83	568.75
383.02	582.79
383.22	617.90
383.41	557.05
383.61	477.47
383.80	594.50
384.00	669.39
384.19	645.99
384.39	688.12
384.58	599.18
384.78	589.82
384.97	615.56
385.17	615.56
385.36	624.92
385.56	645.99
385.75	674.07
385.95	685.78
386.14	669.39
386.34	711.52
386.53	681.10
386.72	592.16
386.92	650.67
387.11	744.29
387.31	667.05
387.50	699.82
387.70	662.37
387.89	671.73
388.09	692.80
388.28	671.73
388.48	732.59
388.67	755.99
388.86	772.38
389.06	727.91
389.25	774.72
389.45	784.08
389.64	744.29
389.84	755.99
390.03	734.93
390.22	751.31
390.42	692.80
390.61	741.95
390.81	690.46
391.00	746.63
391.19	894.08
391.39	777.06
391.58	833.23
391.78	840.25
391.97	791.10
392.16	784.08
392.36	802.80
392.55	910.47
392.75	858.98
392.94	887.06
393.13	936.21
393.33	861.32
393.52	875.36
393.71	915.15
393.91	931.53
394.10	922.17
394.29	882.38
394.49	898.77
394.68	985.37
394.88	954.94
395.07	1011.11
395.26	936.21
395.46	994.73
395.65	1060.26
395.84	1008.77
396.04	1046.22
396.23	1020.47
396.42	1025.15
396.62	1076.65
396.81	1025.15
397.00	1064.94
397.19	1076.65
397.39	990.05
397.58	1151.54
397.77	1093.03
397.97	1036.86
398.16	1102.39
398.35	1146.86
398.55	1083.67
398.74	1191.33
398.93	1160.91
399.12	1151.54
399.32	1179.63
399.51	1160.91
399.70	1139.84
399.90	1207.72
400.09	1163.25
400.28	1242.82
400.47	1277.93
400.67	1172.61
400.86	1256.87
401.05	1177.29
401.24	1270.91
401.44	1238.14
401.63	1301.34
401.82	1350.49
402.01	1256.87
402.21	1401.98
402.40	1401.98
402.59	1317.72
402.78	1348.15
402.97	1453.47
403.17	1490.92
403.36	1362.19
403.55	1308.36
403.74	1437.09
403.93	1486.24
404.13	1568.16
404.32	1502.62
404.51	1570.50
404.70	1577.52
404.89	1584.54
405.09	1586.88
405.28	1533.05
405.47	1572.84
405.66	1654.76
405.85	1603.27
406.05	1526.03
406.24	1621.99
406.43	1575.18
406.62	1647.74
406.81	1767.10
407.00	1696.89
407.20	1675.82
407.39	1790.51
407.58	1790.51
407.77	1783.49
407.96	1935.62
408.15	1795.19
408.34	1830.30
408.54	1760.08
408.73	1940.30
408.92	1961.37
409.11	1874.77
409.30	1933.28
409.49	1909.88
409.68	1923.92
409.87	1905.20
410.07	1963.71
410.26	2111.16
410.45	1970.73
410.64	1954.35
410.83	2057.33
411.02	2015.20
411.21	2069.03
411.40	2047.97
411.59	2228.19
411.78	2125.21
411.98	2225.85
412.17	2132.23
412.36	2181.38
412.55	2310.11
412.74	2326.49
412.93	2434.16
413.12	2298.41
413.31	2509.05
413.50	2406.07
413.69	2354.58
413.88	2530.12
414.07	2450.54
414.26	2462.24
414.45	2595.65
414.64	2689.28
414.83	2527.78
415.02	2637.78
415.22	2668.21
415.41	2738.43
415.60	2661.19
415.79	2745.45
415.98	2754.81
416.17	2775.88
416.36	2794.60
416.55	2764.17
416.74	2796.94
416.93	2785.24
417.12	2949.08
417.31	2897.58
417.50	3082.49
417.69	3000.57
417.88	2930.35
418.07	3063.76
418.26	3094.19
418.45	3208.87
418.64	3108.23
418.83	3187.81
419.02	3052.06
419.21	3232.28
419.39	3286.11
419.58	3382.07
419.77	3239.30
419.96	3180.79
420.15	3265.05
420.34	3330.58
420.53	3363.35
420.72	3290.79
420.91	3391.44
421.10	3454.63
421.29	3522.51
421.48	3386.76
421.67	3485.06
421.86	3489.74
422.05	3433.57
422.24	3414.84
422.43	3541.23
422.61	3412.50
422.80	3585.70
422.99	3578.68
423.18	3466.33
423.37	3545.91
423.56	3634.85
423.75	3449.95
423.94	3524.85
424.13	3363.35
424.32	3272.07
424.50	3592.72
424.69	3742.52
424.88	3634.85
425.07	3721.45
425.26	3655.92
425.45	3529.53
425.64	3492.08
425.83	3515.48
426.01	3705.07
426.20	3543.57
426.39	3550.59
426.58	3679.32
426.77	3761.24
426.96	3637.19
427.15	3686.34
427.33	3712.09
427.52	3740.18
427.71	3899.33
427.90	3754.22
428.09	3782.31
428.28	3864.22
428.46	3868.91
428.65	3873.59
428.84	4037.42
429.03	3955.51
429.22	3943.80
429.40	3829.12
429.59	4056.15
429.78	3929.76
429.97	3815.07
430.16	3997.64
430.34	4088.92
430.53	4044.45
430.72	3983.59
430.91	3906.35
431.10	4028.06
431.28	4140.41
431.47	4154.45
431.66	4156.79
431.85	4004.66
432.03	4322.97
432.22	4505.53
432.41	4369.78
432.60	4423.61
432.79	4432.97
432.97	4484.47
433.16	4325.31
433.35	4367.44
433.54	4311.27
433.72	4252.75
433.91	4397.87
434.10	4589.79
434.28	4636.60
434.47	4496.17
434.66	4505.53
434.85	4521.92
435.03	4585.11
435.22	4966.62
435.41	5020.45
435.59	4999.38
435.78	4978.32
435.97	4884.70
436.16	4762.99
436.34	4648.30
436.53	4674.05
436.72	4990.02
436.90	4755.97
437.09	4917.47
437.28	4762.99
437.46	4830.87
437.65	4987.68
437.84	4950.23
438.02	4814.48
438.21	4926.83
438.40	4985.34
438.58	5027.47
438.77	5095.35
438.96	5078.96
439.14	5238.12
439.33	5015.77
439.52	5430.04
439.70	5284.93
439.89	5256.84
440.08	5294.29
440.26	5481.53
440.45	5369.19
440.63	5530.69
440.82	5355.15
441.01	5401.96
441.19	5518.98
441.38	5577.50
441.57	5738.99
441.75	5713.25
441.94	5853.68
442.12	5755.38
442.31	5919.21
442.50	5900.49
442.68	5877.09
442.87	5710.91
443.05	5996.45
443.24	6221.14
443.43	5944.96
443.61	6001.13
443.80	6207.10
443.98	5863.04
444.17	5668.78
444.35	6085.39
444.54	6218.80
444.73	5980.07
444.91	6094.76
445.10	5959.00
445.28	6097.10
445.47	6078.37
445.65	6054.97
445.84	6141.57
446.02	6073.69
446.21	6263.27
446.39	6054.97
446.58	6097.10
446.77	6090.07
446.95	5984.75
447.14	6045.60
447.32	6064.33
447.51	6218.80
447.69	6274.98
447.88	6099.44
448.06	6312.42
448.25	6200.08
448.43	6050.28
448.62	6169.65
448.80	6225.82
448.99	6207.10
449.17	6176.67
449.36	6394.34
449.54	6359.24
449.73	6399.02
449.91	6476.26
450.10	6520.73
450.28	6773.51
450.46	6647.12
450.65	6623.72
450.83	6509.03
451.02	6452.86
451.20	6520.73
451.39	6731.38
451.57	6581.59
451.76	6647.12
451.94	6558.18
452.13	6771.17
452.31	6569.88
452.49	6588.61
452.68	6623.72
452.86	6832.02
453.05	6874.15
453.23	6862.45
453.42	6871.81
453.60	6703.29
453.78	6754.79
453.97	6736.06
454.15	6897.56
454.34	6764.15
454.52	7077.78
454.70	7028.63
454.89	7063.74
455.07	7204.17
455.26	6998.20
455.44	7201.83
455.62	7201.83
455.81	7115.23
455.99	7133.95
456.17	7155.02
456.36	7262.68
456.54	7400.77
456.73	7344.60
456.91	7620.78
457.09	7634.83
457.28	7775.26
457.46	7543.55
457.64	7545.89
457.83	7634.83
458.01	7494.40
458.19	7421.84
458.38	7625.47
458.56	7803.35
458.74	7534.18
458.93	7695.68
459.11	7585.68
459.29	7653.55
459.48	7756.54
459.66	7772.92
459.84	7852.50
460.03	7777.60
460.21	7981.23
460.39	7880.58
460.57	7899.31
460.76	7918.03
460.94	7873.56
461.12	8023.36
461.31	7861.86
461.49	7955.48
461.67	7971.86
461.85	8124.00
462.04	8072.51
462.22	8341.67
462.40	8067.83
462.59	8252.73
462.77	8463.38
462.95	8142.72
463.13	8580.40
463.32	8320.60
463.50	8205.92
463.68	8540.61
463.86	8358.05
464.05	8339.33
464.23	8383.80
464.41	8542.96
464.59	8390.82
464.78	8585.08
464.96	8500.83
465.14	8451.67
465.32	8573.38
465.50	8557.00
465.69	8823.82
465.87	8393.16
466.05	8540.61
466.23	8777.01
466.41	8997.02
466.60	8954.89
466.78	8678.71
466.96	8641.26
467.14	8634.24
467.32	8727.86
467.51	9050.85
467.69	8601.47
467.87	8870.63
468.05	9004.04
468.23	8800.41
468.41	8706.79
468.60	8933.82
468.78	9195.96
468.96	8933.82
469.14	9001.70
469.32	9118.73
469.50	8915.10
469.69	9163.20
469.87	9263.84
470.05	9348.10
470.23	9296.61
470.41	9408.95
470.59	9467.47
470.77	9259.16
470.95	9488.53
471.14	9537.68
471.32	9612.58
471.50	9867.70
471.68	9664.07
471.86	9659.39
472.04	9722.59
472.22	9846.63
472.40	9680.46
472.58	9664.07
472.77	9790.46
472.95	10071.33
473.13	10221.12
473.31	10022.17
473.49	10195.37
473.67	10005.79
473.85	10078.35
474.03	10272.61
474.21	10160.27
474.39	10644.76
474.57	10389.64
474.75	10436.45
474.93	10558.16
475.12	10553.48
475.30	10616.67
475.48	10499.64
475.66	10953.71
475.84	10752.42
476.02	10986.47
476.20	11009.88
476.38	11108.18
476.56	11232.23
476.74	11335.21
476.92	11194.78
477.10	11311.81
477.28	11286.06
477.46	11283.72
477.64	11377.34
477.82	11580.97
478.00	11920.35
478.18	11775.24
478.36	11882.90
478.54	11889.92
478.72	12201.21
478.90	12100.57
479.08	12491.44
479.26	12126.32
479.44	12173.13
479.62	12444.63
479.80	12578.04
479.98	12514.84
480.16	12823.80
480.34	12697.41
480.52	13217.01
480.70	13146.79
480.88	12793.37
481.06	13167.85
481.24	12985.29
481.41	13472.12
481.59	13706.18
481.77	13689.79
481.95	13785.76
482.13	13769.37
482.31	13900.44
482.49	14010.45
482.67	13994.06
482.85	14162.58
483.03	14642.39
483.21	14459.83
483.39	14551.11
483.57	14871.76
483.74	14803.89
483.92	14979.43
484.10	14846.02
484.28	15215.82
484.46	15433.49
484.64	15499.03
484.82	15300.08
485.00	15569.24
485.18	15985.86
485.35	16039.69
485.53	16060.76
485.71	16105.23
485.89	16430.56
486.07	16205.87
486.25	16346.30
486.43	16638.87
486.61	16828.45
486.78	17062.51
486.96	16901.01
487.14	17324.65
487.32	17259.11
487.50	17242.73
487.68	17490.82
487.85	17399.54
488.03	17720.20
488.21	18033.83
488.39	17991.70
488.57	18125.11
488.75	18485.55
488.92	18628.32
489.10	18806.20
489.28	18647.05
489.46	19176.01
489.64	18735.99
489.81	19613.69
489.99	19077.71
490.17	19323.46
490.35	19538.79
490.53	19711.99
490.70	19679.22
490.88	19817.32
491.06	20245.63
491.24	20343.94
491.41	20100.52
491.59	20067.75
491.77	20091.16
491.95	20425.86
492.13	20744.17
492.30	20781.62
492.48	20912.69
492.66	20905.66
492.84	21099.93
493.01	21249.72
493.19	21422.92
493.37	21443.99
493.54	21703.79
493.72	21928.48
493.90	21909.75
494.08	22197.64
494.25	22246.79
494.43	22597.87
494.61	22644.68
494.79	22565.10
494.96	22415.31
495.14	22852.99
495.32	22960.66
495.49	22850.65
495.67	22939.59
495.85	23213.43
496.02	23314.08
496.20	23747.08
496.38	23718.99
496.55	23761.12
496.73	24285.40
496.91	23793.89
497.09	24063.05
497.26	24592.01
497.44	24423.49
497.62	24334.55
497.79	24893.94
497.97	24603.71
498.14	24994.58
498.32	25050.75
498.50	25097.56
498.67	25294.17
498.85	25348.00
499.03	25392.47
499.20	25181.82
499.38	25907.39
499.56	25996.33
499.73	25699.08
499.91	26223.36
500.08	26096.97
500.26	25614.82
500.44	25989.31
500.61	26356.77
500.79	26192.94
500.97	26539.33
501.14	27049.57
501.32	26651.68
501.49	26515.93
501.67	26883.39
501.84	27061.27
502.02	26810.84
502.20	27103.40
502.37	27501.29
502.55	27253.20
502.72	27248.52
502.90	27405.33
503.07	27204.05
503.25	27442.78
503.43	27852.38
503.60	27309.37
503.78	27615.98
503.95	27761.09
504.13	27758.75
504.30	28292.40
504.48	27861.74
504.65	28400.06
504.83	28095.79
505.01	28507.72
505.18	28388.36
505.36	28826.04
505.53	28587.30
505.71	28552.20
505.88	28945.41
506.06	28999.24
506.23	28830.72
506.41	29340.96
506.58	29340.96
506.76	29102.22
506.93	29322.23
507.11	29170.10
507.28	29607.78
507.46	29509.47
507.63	29507.13
507.81	29963.54
507.98	29858.21
508.16	29951.84
508.33	29771.61
508.50	29642.88
508.68	30459.73
508.85	30321.64
509.03	30246.74
509.20	30700.81
509.38	30874.01
509.55	30698.47
509.73	30654.00
509.90	31042.53
510.08	30916.14
510.25	31215.72
510.42	31260.20
510.60	31096.36
510.77	31491.91
510.95	31615.96
511.12	31339.77
511.30	31688.51
511.47	31793.84
511.64	31859.37
511.82	31938.95
511.99	31974.06
512.17	32233.86
512.34	31842.99
512.51	32208.11
512.69	32315.78
512.86	32514.72
513.04	32540.47
513.21	32847.08
513.38	32521.74
513.56	32608.34
513.73	32484.30
513.90	32458.55
514.08	32416.42
514.25	32826.01
514.43	32994.53
514.60	33205.18
514.77	33263.69
514.95	33207.52
515.12	33064.75
515.29	33244.97
515.47	33331.57
515.64	33677.97
515.81	33247.31
515.99	33816.06
516.16	34012.66
516.33	34117.99
516.51	34178.84
516.68	33984.58
516.85	33736.48
517.03	33748.18
517.20	34183.52
517.37	34412.90
517.54	34644.61
517.72	34394.17
517.89	34237.36
518.06	34227.99
518.24	34515.88
518.41	34485.45
518.58	35063.57
518.75	34525.24
518.93	34899.73
519.10	34909.09
519.27	35222.72
519.45	35049.52
519.62	35225.06
519.79	35234.42
519.96	35447.41
520.14	35424.01
520.31	35222.72
520.48	35721.26
520.65	35416.99
520.83	35955.31
521.00	35737.64
521.17	35842.96
521.34	35695.51
521.52	36194.04
521.69	36180.00
521.86	36367.24
522.03	36460.87
522.20	36065.31
522.38	36154.26
522.55	36477.25
522.72	36526.40
522.89	36367.24
523.07	36973.44
523.24	36746.41
523.41	37701.35
523.58	36563.85
523.75	37010.89
523.92	36540.44
524.10	37006.21
524.27	37123.24
524.44	37195.79
524.61	37415.80
524.78	37305.80
524.96	37148.98
525.13	37511.77
525.30	37483.68
525.47	37509.43
525.64	37776.25
525.81	37251.97
525.98	38033.71
526.16	37755.18
526.33	37663.90
526.50	38438.62
526.67	37481.34
526.84	37785.61
527.01	38089.88
527.18	37900.29
527.36	38319.25
527.53	38639.90
527.70	38466.70
527.87	38237.33
528.04	38408.19
528.21	38492.45
528.38	38555.64
528.55	38382.45
528.72	38632.88
528.89	38934.81
529.07	38948.85
529.24	38611.82
529.41	39283.55
529.58	38801.40
529.75	39000.35
529.92	38857.57
530.09	39409.94
530.26	39503.56
530.43	39768.04
530.60	39033.11
530.77	39274.19
530.94	39564.42
531.11	39374.83
531.28	39445.05
531.46	39541.01
531.63	39716.55
531.80	39852.30
531.97	39676.76
532.14	39786.77
532.31	39931.88
532.48	40020.82
532.65	39662.72
532.82	39817.19
532.99	40123.80
533.16	39662.72
533.33	40194.02
533.50	40362.54
533.67	40257.21
533.84	40018.48
534.01	39903.79
534.18	40320.41
534.35	40430.41
534.52	40603.61
534.69	40896.18
534.86	40505.31
535.03	40655.11
535.20	40830.65
535.37	40615.32
535.54	40788.52
535.71	40575.53
535.88	40840.01
536.05	40730.00
536.22	41212.15
536.38	41095.13
536.55	41258.96
536.72	40975.76
536.89	41111.51
537.06	40858.73
537.23	41354.93
537.40	41146.62
537.57	41165.34
537.74	41200.45
537.91	41516.42
538.08	41214.49
538.25	41453.23
538.42	41785.58
538.59	41385.35
538.75	41422.80
538.92	41544.51
539.09	41495.36
539.26	41963.46
539.43	41715.37
539.60	42043.04
539.77	42366.04
539.94	42223.26
540.11	42153.05
540.28	41942.40
540.44	42382.42
540.61	42387.10
540.78	42258.37
540.95	42927.77
541.12	42562.64
541.29	42344.97
541.46	42934.79
541.62	42401.14
541.79	42773.29
541.96	42134.32
542.13	42249.01
542.30	42749.88
542.47	43035.43
542.63	43171.18
542.80	42848.19
542.97	43297.57
543.14	43274.16
543.31	43325.66
543.48	43585.46
543.64	43594.82
543.81	43746.95
543.98	43749.29
544.15	43555.03
544.32	43964.62
544.48	43908.45
544.65	43632.27
544.82	43693.12
544.99	43384.17
545.16	43555.03
545.32	43667.37
545.49	44186.97
545.66	44839.98
545.83	44587.21
546.00	44933.60
546.16	44341.45
546.33	43634.61
546.50	43433.32
546.67	43772.70
546.83	43461.41
547.00	44116.76
547.17	44301.66
547.34	43765.68
547.50	43924.83
547.67	44720.62
547.84	43885.04
548.00	44488.90
548.17	44580.18
548.34	44264.21
548.51	44666.78
548.67	44170.59
548.84	44406.98
549.01	44362.51
549.18	44240.81
549.34	44266.55
549.51	44528.69
549.68	44619.97
549.84	44659.76
550.01	44374.22
550.18	44062.93
550.34	44648.06
550.51	44865.73
550.68	44884.45
550.84	44060.58
551.01	44570.82
551.18	44568.48
551.34	44580.18
551.51	44378.90
551.68	44905.52
551.84	44975.73
552.01	44589.55
552.18	44854.03
552.34	44725.30
552.51	45050.63
552.68	44699.55
552.84	44655.08
553.01	45067.02
553.18	44947.65
553.34	45322.13
553.51	45322.13
553.67	45181.70
553.84	45350.22
554.01	45345.54
554.17	45375.97
554.34	45521.08
554.51	44809.56
554.67	45432.14
554.84	45394.69
555.00	45528.10
555.17	44699.55
555.33	45404.05
555.50	45502.35
555.67	45331.50
555.83	45497.67
556.00	45214.47
556.16	45743.43
556.33	45230.85
556.50	45373.63
556.66	45563.21
556.83	45689.60
556.99	45970.46
557.16	46012.59
557.32	45766.84
557.49	45830.03
557.65	45223.83
557.82	45427.46
557.98	45516.40
558.15	45717.68
558.32	45778.54
558.48	45301.07
558.65	45713.00
558.81	45694.28
558.98	45806.62
559.14	46026.63
559.31	45649.81
559.47	45572.57
559.64	45792.58
559.80	45949.40
559.97	46036.00
560.13	45902.59
560.30	45996.21
560.46	45649.81
560.63	46333.24
560.79	46295.80
560.96	45825.35
561.12	46188.13
561.29	46122.60
561.45	46321.54
561.61	46096.85
561.78	46646.88
561.94	46141.32
562.11	46096.85
562.27	45937.69
562.44	46190.47
562.60	46040.68
562.77	46204.52
562.93	45991.53
563.10	46124.94
563.26	46185.79
563.42	46660.92
563.59	46344.95
563.75	46305.16
563.92	46323.88
564.08	46515.81
564.24	46220.90
564.41	46038.34
564.57	45879.18
564.74	46270.05
564.90	46089.83
565.07	46515.81
565.23	46415.16
565.39	46223.24
565.56	46384.74
565.72	46473.68
565.88	46162.39
566.05	46576.66
566.21	46349.63
566.38	46241.96
566.54	46019.61
566.70	46508.79
566.87	46789.65
567.03	46176.43
567.19	46693.69
567.36	46712.41
567.52	46504.10
567.68	46312.18
567.85	46284.09
568.01	46408.14
568.17	46770.93
568.34	46616.45
568.50	46527.51
568.66	46415.16
568.83	46433.89
568.99	46347.29
569.15	46780.29
569.32	46293.46
569.48	46401.12
569.64	46281.75
569.81	46918.38
569.97	46639.86
570.13	46609.43
570.30	46422.19
570.46	46726.46
570.62	46419.84
570.78	46223.24
570.95	46443.25
571.11	46181.11
571.27	46518.15
571.43	46642.20
571.60	46679.64
571.76	46593.04
571.92	46522.83
572.09	47103.28
572.25	46780.29
572.41	46693.69
572.57	46358.99
572.74	46777.95
572.90	46412.82
573.06	46417.50
573.22	46403.46
573.38	46623.47
573.55	46838.80
573.71	46864.55
573.87	46993.28
574.03	46564.96
574.20	46815.40
574.36	46646.88
574.52	46883.27
574.68	46529.85
574.84	46976.89
575.01	46955.83
575.17	46735.82
575.33	46780.29
575.49	46670.28
575.65	46887.95
575.82	46850.50
575.98	46864.55
576.14	46939.44
576.30	46866.89
576.46	46309.84
576.62	46536.87
576.79	46916.04
576.95	46726.46
577.11	46946.47
577.27	46878.59
577.43	46909.02
577.59	46866.89
577.75	46775.61
577.92	46759.22
578.08	46782.63
578.24	46817.74
578.40	46892.63
578.56	46934.76
578.72	47026.04
578.88	47391.17
579.04	47236.69
579.21	47012.00
579.37	46904.34
579.53	47131.37
579.69	46227.92
579.85	47016.68
580.01	47058.81
580.17	46642.20
580.33	46848.16
580.49	46876.25
580.65	47007.32
580.82	47342.02
580.98	46951.15
581.14	46852.84
581.30	47288.18
581.46	46829.44
581.62	46831.78
581.78	46043.02
581.94	46852.84
582.10	46609.43
582.26	47171.16
582.42	46885.61
582.58	47117.32
582.74	47007.32
582.90	46883.27
583.06	47047.11
583.22	46836.46
583.38	46911.36
583.54	46962.85
583.70	47285.84
583.86	46452.61
584.02	46794.33
584.18	47007.32
584.34	46909.02
584.50	47138.39
584.66	47395.85
584.82	46791.99
584.98	46906.68
585.14	46759.22
585.30	46681.98
585.46	46499.42
585.62	46583.68
585.78	46951.15
585.94	46506.44
586.10	47491.81
586.26	46515.81
586.42	46616.45
586.58	47129.03
586.74	46728.80
586.90	46574.32
587.06	46555.60
587.22	46651.56
587.38	46485.38
587.54	46913.70
587.70	47400.53
587.86	47201.58
588.02	46941.78
588.18	47098.60
588.34	47131.37
588.49	47100.94
588.65	46642.20
588.81	46571.98
588.97	46955.83
589.13	46609.43
589.29	47246.05
589.45	47004.98
589.61	46789.65
589.77	47199.24
589.93	47304.57
590.08	46850.50
590.24	47019.02
590.40	47051.79
590.56	47051.79
