SpectraSuite Data File
++++++++++++++++++++++++++++++++++++
Date: Fri Oct 04 11:39:15 GMT-05:00 2013
User: price-jones
Dark Spectrum Present: No
Reference Spectrum Present: No
Number of Sampled Component Spectra: 1
Spectrometers: USB2+H05261
Integration Time (usec): 100000 (USB2+H05261)
Spectra Averaged: 1 (USB2+H05261)
Boxcar Smoothing: 0 (USB2+H05261)
Correct for Electrical Dark: No (USB2+H05261)
Strobe/Lamp Enabled: No (USB2+H05261)
Correct for Detector Non-linearity: No (USB2+H05261)
Correct for Stray Light: No (USB2+H05261)
Number of Pixels in Processed Spectrum: 2048
>>>>>Begin Processed Spectral Data<<<<<
365.73	70.22
365.92	70.22
366.12	70.22
366.32	0.00
366.52	0.00
366.72	0.00
366.91	0.00
367.11	0.00
367.31	0.00
367.51	0.00
367.70	0.00
367.90	7.02
368.10	0.00
368.30	0.00
368.49	0.00
368.69	0.00
368.89	42.13
369.09	0.00
369.28	0.00
369.48	0.00
369.68	0.00
369.87	0.00
370.07	0.00
370.27	21.06
370.47	88.94
370.66	114.69
370.86	236.39
371.06	266.82
371.25	234.05
371.45	194.26
371.65	259.80
371.84	231.71
372.04	290.23
372.24	259.80
372.44	266.82
372.63	304.27
372.83	341.72
373.03	320.65
373.22	285.55
373.42	252.78
373.62	311.29
373.81	308.95
374.01	257.46
374.21	306.61
374.40	250.44
374.60	301.93
374.79	409.59
374.99	285.55
375.19	318.31
375.38	325.33
375.58	290.23
375.78	315.97
375.97	332.36
376.17	404.91
376.37	320.65
376.56	355.76
376.76	280.86
376.95	257.46
377.15	374.49
377.35	416.62
377.54	339.38
377.74	280.86
377.93	365.12
378.13	411.93
378.33	313.63
378.52	411.93
378.72	327.68
378.91	400.23
379.11	386.19
379.31	388.53
379.50	390.87
379.70	372.15
379.89	390.87
380.09	402.57
380.28	411.93
380.48	334.70
380.68	367.46
380.87	327.68
381.07	404.91
381.26	470.45
381.46	393.21
381.65	351.08
381.85	334.70
382.04	327.68
382.24	339.38
382.43	425.98
382.63	425.98
382.83	400.23
383.02	479.81
383.22	421.30
383.41	430.66
383.61	472.79
383.80	430.66
384.00	421.30
384.19	344.06
384.39	526.62
384.58	442.36
384.78	437.68
384.97	421.30
385.17	418.96
385.36	477.47
385.56	454.06
385.75	472.79
385.95	517.26
386.14	447.04
386.34	458.74
386.53	454.06
386.72	442.36
386.92	472.79
387.11	510.24
387.31	503.22
387.50	423.64
387.70	489.17
387.89	510.24
388.09	454.06
388.28	379.17
388.48	465.77
388.67	500.87
388.86	435.34
389.06	411.93
389.25	582.79
389.45	498.53
389.64	521.94
389.84	528.96
390.03	613.22
390.22	519.60
390.42	535.98
390.61	512.58
390.81	503.22
391.00	526.62
391.19	599.18
391.39	521.94
391.58	622.58
391.78	638.97
391.97	580.45
392.16	641.31
392.36	582.79
392.55	585.13
392.75	543.00
392.94	575.77
393.13	650.67
393.33	512.58
393.52	573.43
393.71	685.78
393.91	624.92
394.10	578.11
394.29	620.24
394.49	552.37
394.68	620.24
394.88	720.88
395.07	699.82
395.26	720.88
395.46	650.67
395.65	650.67
395.84	678.76
396.04	770.04
396.23	655.35
396.42	629.60
396.62	791.10
396.81	706.84
397.00	725.57
397.19	638.97
397.39	702.16
397.58	734.93
397.77	695.14
397.97	674.07
398.16	706.84
398.35	765.36
398.55	615.56
398.74	800.46
398.93	875.36
399.12	791.10
399.32	786.42
399.51	777.06
399.70	753.65
399.90	821.53
400.09	863.66
400.28	798.12
400.47	760.67
400.67	828.55
400.86	833.23
401.05	854.30
401.24	854.30
401.44	844.93
401.63	940.90
401.82	891.74
402.01	851.96
402.21	912.81
402.40	957.28
402.59	889.40
402.78	894.08
402.97	842.59
403.17	973.66
403.36	959.62
403.55	973.66
403.74	1018.13
403.93	945.58
404.13	976.00
404.32	1057.92
404.51	1043.88
404.70	999.41
404.89	973.66
405.09	1081.33
405.28	997.07
405.47	992.39
405.66	1018.13
405.85	1008.77
406.05	1078.99
406.24	1104.73
406.43	1151.54
406.62	1116.44
406.81	1174.95
407.00	1111.75
407.20	1130.48
407.39	1132.82
407.58	1149.20
407.77	1235.80
407.96	1240.48
408.15	1203.04
408.34	1270.91
408.54	1228.78
408.73	1287.29
408.92	1313.04
409.11	1289.64
409.30	1165.59
409.49	1282.61
409.68	1327.08
409.87	1301.34
410.07	1277.93
410.26	1291.98
410.45	1308.36
410.64	1301.34
410.83	1387.94
411.02	1425.39
411.21	1439.43
411.40	1416.02
411.59	1322.40
411.78	1462.83
411.98	1469.86
412.17	1483.90
412.36	1502.62
412.55	1519.01
412.74	1507.30
412.93	1488.58
413.12	1584.54
413.31	1507.30
413.50	1610.29
413.69	1631.35
413.88	1607.95
414.07	1673.48
414.26	1668.80
414.45	1680.50
414.64	1734.34
414.83	1724.97
415.02	1703.91
415.22	1783.49
415.41	1881.79
415.60	1790.51
415.79	1722.63
415.98	1891.15
416.17	1785.83
416.36	1825.62
416.55	1830.30
416.74	1881.79
416.93	1975.41
417.12	1853.70
417.31	1893.49
417.50	1879.45
417.69	1928.60
417.88	1930.94
418.07	1902.86
418.26	1994.14
418.45	2087.76
418.64	2162.66
418.83	2069.03
419.02	2040.95
419.21	2045.63
419.39	2066.69
419.58	2040.95
419.77	2108.82
419.96	2022.22
420.15	2108.82
420.34	2169.68
420.53	2080.74
420.72	2214.15
420.91	2232.87
421.10	2246.91
421.29	2200.10
421.48	2176.70
421.67	2228.19
421.86	2188.40
422.05	2284.36
422.24	2249.25
422.43	2394.37
422.61	2275.00
422.80	2326.49
422.99	2436.50
423.18	2349.90
423.37	2333.51
423.56	2228.19
423.75	2296.07
423.94	2284.36
424.13	2225.85
424.32	2289.04
424.50	2324.15
424.69	2296.07
424.88	2476.29
425.07	2340.54
425.26	2228.19
425.45	2366.28
425.64	2352.24
425.83	2289.04
426.01	2427.14
426.20	2370.96
426.39	2345.22
426.58	2375.64
426.77	2469.27
426.96	2448.20
427.15	2375.64
427.33	2368.62
427.52	2345.22
427.71	2518.42
427.90	2511.39
428.09	2492.67
428.28	2548.84
428.46	2544.16
428.65	2509.05
428.84	2539.48
429.03	2597.99
429.22	2583.95
429.40	2555.86
429.59	2560.55
429.78	2429.48
429.97	2478.63
430.16	2562.89
430.34	2640.12
430.53	2693.96
430.72	2670.55
430.91	2686.94
431.10	2649.49
431.28	2724.38
431.47	2672.89
431.66	2780.56
431.85	2841.41
432.03	2789.92
432.22	2925.67
432.41	2757.15
432.60	3007.59
432.79	2862.48
432.97	2878.86
433.16	2902.26
433.35	2796.94
433.54	2897.58
433.72	3096.53
433.91	2902.26
434.10	2818.00
434.28	2939.71
434.47	2949.08
434.66	2928.01
434.85	2944.39
435.03	3070.78
435.22	3286.11
435.41	3428.88
435.59	3201.85
435.78	3201.85
435.97	3236.96
436.16	3108.23
436.34	2951.42
436.53	2974.82
436.72	3248.66
436.90	3094.19
437.09	3225.26
437.28	3082.49
437.46	3262.71
437.65	3164.40
437.84	3187.81
438.02	3232.28
438.21	3220.58
438.40	3239.30
438.58	3375.05
438.77	3396.12
438.96	3171.43
439.14	3379.73
439.33	3475.70
439.52	3248.66
439.70	3379.73
439.89	3466.33
440.08	3431.23
440.26	3382.07
440.45	3604.42
440.63	3559.95
440.82	3471.01
441.01	3627.83
441.19	3550.59
441.38	3641.87
441.57	3611.45
441.75	3707.41
441.94	3756.56
442.12	3662.94
442.31	3894.65
442.50	3817.41
442.68	3845.50
442.87	3826.78
443.05	3822.09
443.24	3836.14
443.43	3962.53
443.61	3866.56
443.80	3971.89
443.98	3866.56
444.17	3674.64
444.35	3880.61
444.54	3929.76
444.73	3843.16
444.91	3885.29
445.10	3845.50
445.28	3887.63
445.47	3845.50
445.65	3882.95
445.84	3939.12
446.02	3992.95
446.21	3953.16
446.39	3943.80
446.58	4119.34
446.77	3922.74
446.95	4002.32
447.14	3915.72
447.32	4095.94
447.51	4060.83
447.69	3960.19
447.88	4067.85
448.06	4107.64
448.25	4166.15
448.43	4077.21
448.62	4011.68
448.80	4189.56
448.99	4205.94
449.17	4222.33
449.36	4184.88
449.54	4163.81
449.73	4238.71
449.91	4224.67
450.10	4320.63
450.28	4428.29
450.46	4248.07
450.65	4194.24
450.83	4360.42
451.02	4344.03
451.20	4259.78
451.39	4463.40
451.57	4290.20
451.76	4224.67
451.94	4381.48
452.13	4383.82
452.31	4521.92
452.49	4346.37
452.68	4374.46
452.86	4355.74
453.05	4514.89
453.23	4517.23
453.42	4475.10
453.60	4404.89
453.78	4606.17
453.97	4367.44
454.15	4435.32
454.34	4407.23
454.52	4477.44
454.70	4545.32
454.89	4720.86
455.07	4575.75
455.26	4662.35
455.44	4667.03
455.62	4533.62
455.81	4641.28
455.99	4599.15
456.17	4678.73
456.36	4744.27
456.54	4809.80
456.73	4891.72
456.91	4802.78
457.09	4894.06
457.28	4898.74
457.46	4777.03
457.64	5088.32
457.83	4898.74
458.01	4816.82
458.19	5050.88
458.38	4870.65
458.56	5116.41
458.74	5034.49
458.93	4980.66
459.11	4924.49
459.29	4940.87
459.48	5186.63
459.66	5191.31
459.84	5172.58
460.03	5203.01
460.21	5107.05
460.39	5088.32
460.57	5149.18
460.76	5186.63
460.94	5195.99
461.12	5254.50
461.31	5383.23
461.49	5259.18
461.67	5179.61
461.85	5355.15
462.04	5313.02
462.22	5621.97
462.40	5575.16
462.59	5444.09
462.77	5392.59
462.95	5385.57
463.13	5378.55
463.32	5385.57
463.50	5577.50
463.68	5673.46
463.86	5432.38
464.05	5507.28
464.23	5591.54
464.41	5626.65
464.59	5387.91
464.78	5561.11
464.96	5621.97
465.14	5584.52
465.32	5619.63
465.50	5626.65
465.69	5734.31
465.87	5755.38
466.05	5692.18
466.23	5617.29
466.41	5668.78
466.60	5811.55
466.78	5762.40
466.96	5781.12
467.14	5666.44
467.32	5741.33
467.51	5849.00
467.69	5673.46
467.87	5893.47
468.05	5846.66
468.23	5940.28
468.41	5804.53
468.60	5788.14
468.78	5930.92
468.96	5921.56
469.14	6010.50
469.32	5982.41
469.50	5860.70
469.69	6064.33
469.87	6125.18
470.05	6071.35
470.23	6139.23
470.41	6186.04
470.59	6321.79
470.77	6069.01
470.95	6202.42
471.14	6251.57
471.32	6080.71
471.50	6438.81
471.68	6413.07
471.86	6160.29
472.04	6483.28
472.22	6569.88
472.40	6333.49
472.58	6656.48
472.77	6544.14
472.95	6450.52
473.13	6825.00
473.31	6562.86
473.49	6635.42
473.67	6527.75
473.85	6759.47
474.03	6729.04
474.21	6827.34
474.39	6752.45
474.57	6906.92
474.75	6995.86
474.93	6822.66
475.12	6789.89
475.30	7002.88
475.48	7033.31
475.66	7098.84
475.84	7035.65
476.02	7265.02
476.20	7155.02
476.38	7274.38
476.56	7400.77
476.74	7389.07
476.92	7592.70
477.10	7349.28
477.28	7412.48
477.46	7480.35
477.64	7688.66
477.82	7435.88
478.00	7974.21
478.18	7791.64
478.36	7992.93
478.54	7889.95
478.72	8011.65
478.90	8070.17
479.08	8147.40
479.26	8226.98
479.44	8215.28
479.62	8283.16
479.80	8252.73
479.98	8351.03
480.16	8397.84
480.34	8655.30
480.52	8671.68
480.70	8613.17
480.88	8564.02
481.06	8748.92
481.24	8688.07
481.41	8840.20
481.59	8980.64
481.77	8975.95
481.95	8898.72
482.13	9401.93
482.31	9011.06
482.49	9217.03
482.67	9254.48
482.85	9544.70
483.03	9579.81
483.21	9591.52
483.39	9888.76
483.57	9692.16
483.74	9870.04
483.92	9940.26
484.10	9802.16
484.28	10022.17
484.46	10085.37
484.64	10260.91
484.82	10251.55
485.00	10492.62
485.18	10511.35
485.35	10792.21
485.53	10691.57
485.71	10761.78
485.89	10733.70
486.07	10794.55
486.25	10689.23
486.43	10963.07
486.61	10878.81
486.78	11147.97
486.96	11213.51
487.14	11344.58
487.32	11332.87
487.50	11363.30
487.68	11592.67
487.85	11527.14
488.03	12100.57
488.21	11758.85
488.39	11943.75
488.57	11927.37
488.75	12276.11
488.92	12507.82
489.10	12339.30
489.28	12662.30
489.46	12444.63
489.64	12652.94
489.81	12746.56
489.99	12781.67
490.17	12681.02
490.35	13013.38
490.53	13095.30
490.70	13050.83
490.88	13001.68
491.06	13298.92
491.24	13390.20
491.41	13425.31
491.59	13387.86
491.77	13413.61
491.95	13855.97
492.13	13748.31
492.30	13795.12
492.48	13738.94
492.66	13879.38
492.84	13816.18
493.01	14171.94
493.19	14068.96
493.37	14300.67
493.54	14356.85
493.72	14420.04
493.90	14359.19
494.08	14670.48
494.25	14679.84
494.43	14972.41
494.61	14892.83
494.79	15112.84
494.96	14867.08
495.14	15220.50
495.32	15236.89
495.49	15161.99
495.67	15302.42
495.85	15506.05
496.02	15513.07
496.20	15445.20
496.38	15426.47
496.55	15449.88
496.73	16133.31
496.91	16060.76
497.09	16514.82
497.26	16283.11
497.44	16114.59
497.62	16060.76
497.79	16456.31
497.97	16262.04
498.14	16521.84
498.32	16411.84
498.50	16320.56
498.67	16629.51
498.85	16891.65
499.03	16891.65
499.20	17092.93
499.38	16961.86
499.56	16807.39
499.73	17352.73
499.91	17186.55
500.08	17525.93
500.26	17132.72
500.44	17607.85
500.61	17666.36
500.79	17160.81
500.97	17649.98
501.14	17848.93
501.32	17736.58
501.49	17544.66
501.67	17738.92
501.84	17881.69
502.02	18108.72
502.20	18104.04
502.37	18391.93
502.55	18274.90
502.72	18410.65
502.90	18387.25
503.07	18417.68
503.25	18277.24
503.43	18541.72
503.60	18513.64
503.78	18462.15
503.95	18523.00
504.13	18750.03
504.30	18829.61
504.48	18649.39
504.65	18625.98
504.83	18883.44
505.01	18876.42
505.18	18794.50
505.36	19358.57
505.53	19171.33
505.71	19054.30
505.88	19227.50
506.06	19192.39
506.23	19442.83
506.41	19213.46
506.58	19639.44
506.76	19417.08
506.93	19744.76
507.11	19321.12
507.28	19344.53
507.46	19817.32
507.63	19735.40
507.81	19850.08
507.98	20030.30
508.16	19992.86
508.33	20327.55
508.50	20456.28
508.68	20325.21
508.85	20367.34
509.03	20353.30
509.20	20170.74
509.38	20449.26
509.55	20620.12
509.73	20582.67
509.90	20732.47
510.08	20430.54
510.25	20765.23
510.42	20790.98
510.60	21018.01
510.77	21027.37
510.95	21013.33
511.12	21062.48
511.30	20882.26
511.47	21273.13
511.64	21188.87
511.82	21656.98
511.99	21453.35
512.17	21406.54
512.34	21390.16
512.51	21717.83
512.69	21804.43
512.86	21558.67
513.04	21621.87
513.21	21664.00
513.38	22136.79
513.56	22054.87
513.73	21776.34
513.90	21982.31
514.08	22279.56
514.25	21795.07
514.43	22097.00
514.60	22129.77
514.77	22265.52
514.95	22644.68
515.12	22295.94
515.29	22480.85
515.47	22635.32
515.64	22848.31
515.81	22572.13
515.99	22967.68
516.16	22520.63
516.33	22810.86
516.51	23082.36
516.68	22368.50
516.85	22834.27
517.03	23012.15
517.20	22960.66
517.37	22916.19
517.54	23014.49
517.72	23037.89
517.89	23360.89
518.06	23241.52
518.24	23206.41
518.41	23002.78
518.58	23379.61
518.75	23311.74
518.93	23756.44
519.10	23709.63
519.27	23976.45
519.45	23817.29
519.62	23861.76
519.79	23630.05
519.96	23545.79
520.14	24259.65
520.31	23763.46
520.48	24318.17
520.65	24088.79
520.83	23999.85
521.00	24252.63
521.17	24308.80
521.34	24386.04
521.52	24334.55
521.69	24264.33
521.86	24559.24
522.03	24474.98
522.20	24826.06
522.38	24512.43
522.55	24329.87
522.72	24418.81
522.89	24807.34
523.07	25046.07
523.24	24987.56
523.41	24870.53
523.58	24741.80
523.75	24753.51
523.92	24734.78
524.10	25076.50
524.27	24840.11
524.44	25282.47
524.61	25291.83
524.78	25252.04
524.96	25455.67
525.13	25542.27
525.30	25179.48
525.47	25783.34
525.64	25528.22
525.81	25572.69
525.98	26010.37
526.16	25689.72
526.33	25570.35
526.50	25881.64
526.67	25766.96
526.84	25427.58
527.01	25867.60
527.18	26031.44
527.36	25909.73
527.53	25631.21
527.70	26017.40
527.87	26078.25
528.04	26312.30
528.21	26160.17
528.38	25802.07
528.55	26771.05
528.72	26298.26
528.89	26515.93
529.07	26539.33
529.24	26665.72
529.41	26375.50
529.58	26501.89
529.75	26419.97
529.92	26291.24
530.09	26471.46
530.26	26897.44
530.43	26562.74
530.60	26899.78
530.77	26909.14
530.94	27063.61
531.11	26668.06
531.28	26834.24
531.46	26799.13
531.63	26932.54
531.80	27213.41
531.97	27480.23
532.14	27292.99
532.31	27000.42
532.48	27339.80
532.65	27070.64
532.82	26953.61
532.99	27051.91
533.16	27161.92
533.33	27667.47
533.50	27576.19
533.67	27929.61
533.84	27730.67
534.01	27346.82
534.18	27412.35
534.35	27608.96
534.52	28006.85
534.69	27761.09
534.86	28149.62
535.03	27927.27
535.20	28325.16
535.37	28121.54
535.54	27835.99
535.71	28032.60
535.88	27817.27
536.05	28002.17
536.22	28156.64
536.38	28531.13
536.55	28051.32
536.72	28266.65
536.89	27983.44
537.06	28276.01
537.23	28048.98
537.40	27852.38
537.57	28395.38
537.74	28135.58
537.91	28587.30
538.08	28484.32
538.25	28491.34
538.42	28804.97
538.59	28711.35
538.75	28463.25
538.92	28519.43
539.09	28643.48
539.26	28856.46
539.43	28931.36
539.60	28877.53
539.77	28891.57
539.94	29202.86
540.11	28575.60
540.28	28968.81
540.44	29170.10
540.61	28498.36
540.78	29090.52
540.95	29254.36
541.12	29345.64
541.29	29223.93
541.46	29441.60
541.62	29605.44
541.79	29893.32
541.96	29153.71
542.13	29331.59
542.30	29369.04
542.47	29860.55
542.63	29743.53
542.80	29879.28
542.97	30118.01
543.14	30106.31
543.31	30216.32
543.48	30015.03
543.64	30005.67
543.81	30539.31
543.98	29715.44
544.15	30331.00
544.32	30665.70
544.48	30096.95
544.65	30260.79
544.82	29977.58
544.99	30143.76
545.16	30429.30
545.32	30253.76
545.49	30471.43
545.66	31395.95
545.83	31220.41
546.00	31344.45
546.16	31187.64
546.33	30808.47
546.50	30733.57
546.67	30438.67
546.83	30176.53
547.00	30506.54
547.17	30518.25
547.34	30171.85
547.50	30401.22
547.67	30724.21
547.84	30602.50
548.00	30670.38
548.17	31091.68
548.34	30747.62
548.51	30859.96
548.67	31321.05
548.84	31007.42
549.01	31037.84
549.18	30628.25
549.34	30920.82
549.51	30988.69
549.68	30951.24
549.84	30960.61
550.01	31197.00
550.18	31189.98
550.34	31388.92
550.51	31227.43
550.68	31175.94
550.84	30738.26
551.01	31168.91
551.18	31154.87
551.34	30866.98
551.51	31131.47
551.68	31414.67
551.84	31550.42
552.01	31440.42
552.18	31215.72
552.34	31044.87
552.51	31772.77
552.68	31197.00
552.84	31236.79
553.01	31527.02
553.18	31372.54
553.34	31501.27
553.51	31819.58
553.67	31880.44
553.84	31934.27
554.01	32123.85
554.17	31622.98
554.34	31578.51
554.51	31262.54
554.67	31697.88
554.84	31913.20
555.00	31777.45
555.17	31473.18
555.33	31576.17
555.50	31810.22
555.67	31945.97
555.83	31779.79
556.00	31590.21
556.16	32229.18
556.33	31730.64
556.50	32020.87
556.66	32123.85
556.83	32084.06
556.99	32299.39
557.16	32194.07
557.32	32449.19
557.49	32285.35
557.65	31529.36
557.82	31917.89
557.98	32261.94
558.15	32067.68
558.32	32308.76
558.48	32060.66
558.65	32582.60
558.81	32294.71
558.98	32332.16
559.14	32182.37
559.31	32100.45
559.47	32243.22
559.64	32311.10
559.80	32404.72
559.97	32187.05
560.13	32496.00
560.30	32666.86
560.46	32580.26
560.63	32666.86
560.79	32329.82
560.96	32470.25
561.12	32517.06
561.29	32313.44
561.45	32432.80
561.61	32311.10
561.78	32802.61
561.94	32367.27
562.11	32439.82
562.27	32872.82
562.44	32561.53
562.60	32559.19
562.77	32339.18
562.93	32226.84
563.10	32868.14
563.26	33029.64
563.42	33088.15
563.59	32470.25
563.75	32641.11
563.92	33111.56
564.08	32620.05
564.24	32582.60
564.41	32624.73
564.57	32725.37
564.74	32950.06
564.90	32624.73
565.07	32900.91
565.23	32865.80
565.39	32816.65
565.56	33230.93
565.72	33055.39
565.88	33078.79
566.05	33015.60
566.21	32634.09
566.38	33263.69
566.54	32713.67
566.70	33350.29
566.87	33270.72
567.03	33116.24
567.19	33474.34
567.36	32861.12
567.52	32835.38
567.68	33287.10
567.85	33139.65
568.01	33095.18
568.17	32847.08
568.34	33598.39
568.50	33130.28
568.66	32943.04
568.83	33165.39
568.99	32952.40
569.15	32985.17
569.32	32786.22
569.48	32823.67
569.64	33577.33
569.81	33340.93
569.97	33158.37
570.13	33251.99
570.30	33043.68
570.46	33521.15
570.62	33495.41
570.78	33127.94
570.95	33099.86
571.11	33266.03
571.27	33247.31
571.43	33003.89
571.60	33160.71
571.76	33511.79
571.92	33684.99
572.09	33535.20
572.25	33422.85
572.41	33057.73
572.57	33413.49
572.74	33392.42
572.90	33216.88
573.06	33057.73
573.22	33291.78
573.38	33638.18
573.55	33380.72
573.71	33921.38
573.87	33544.56
574.03	33338.59
574.20	33464.98
574.36	33326.89
574.52	33490.73
574.68	33385.40
574.84	33582.01
575.01	33462.64
575.17	33397.10
575.33	33537.54
575.49	33841.81
575.65	33577.33
575.82	33528.17
575.98	33455.62
576.14	33497.75
576.30	33949.47
576.46	33378.38
576.62	33572.64
576.79	33586.69
576.95	33404.13
577.11	33345.61
577.27	33481.36
577.43	33860.53
577.59	33530.51
577.75	33846.49
577.92	33420.51
578.08	33427.53
578.24	33584.35
578.40	33413.49
578.56	33586.69
578.72	33558.60
578.88	33689.67
579.04	33589.03
579.21	33551.58
579.37	33759.89
579.53	33998.62
579.69	33797.34
579.85	33474.34
580.01	33434.55
580.17	33621.80
580.33	33579.67
580.49	33301.14
580.65	33612.43
580.82	33748.18
580.98	33738.82
581.14	33919.04
581.30	33855.85
581.46	33677.97
581.62	33848.83
581.78	33675.63
581.94	33684.99
582.10	33663.93
582.26	33710.74
582.42	33914.36
582.58	33586.69
582.74	33603.07
582.90	33682.65
583.06	33614.77
583.22	33986.92
583.38	33741.16
583.54	34005.64
583.70	33804.36
583.86	34087.56
584.02	34026.71
584.18	33701.37
584.34	34309.91
584.50	34178.84
584.66	33795.00
584.82	33783.29
584.98	33947.13
585.14	33497.75
585.30	34087.56
585.46	33565.62
585.62	33518.81
585.78	33720.10
585.94	33956.49
586.10	34101.61
586.26	33687.33
586.42	33703.71
586.58	34092.24
586.74	33593.71
586.90	33275.40
587.06	33558.60
587.22	33890.96
587.38	33523.49
587.54	33912.02
587.70	34190.55
587.86	33993.94
588.02	33731.80
588.18	34117.99
588.34	33656.90
588.49	33724.78
588.65	34033.73
588.81	33752.87
588.97	34106.29
589.13	34043.09
589.29	33343.27
589.45	33923.72
589.61	33869.89
589.77	34457.37
589.93	34319.28
590.08	34195.23
590.24	33879.25
590.40	33876.91
590.56	34394.17
590.72	34258.42
590.88	33909.68
591.04	33809.04
591.20	34689.08
591.35	34485.45
591.51	34412.90
