SpectraSuite Data File
++++++++++++++++++++++++++++++++++++
Date: Fri Oct 04 11:40:00 GMT-05:00 2013
User: price-jones
Dark Spectrum Present: No
Reference Spectrum Present: No
Number of Sampled Component Spectra: 1
Spectrometers: USB2+H05261
Integration Time (usec): 100000 (USB2+H05261)
Spectra Averaged: 1 (USB2+H05261)
Boxcar Smoothing: 0 (USB2+H05261)
Correct for Electrical Dark: No (USB2+H05261)
Strobe/Lamp Enabled: No (USB2+H05261)
Correct for Detector Non-linearity: No (USB2+H05261)
Correct for Stray Light: No (USB2+H05261)
Number of Pixels in Processed Spectrum: 2048
>>>>>Begin Processed Spectral Data<<<<<
365.73	84.26
365.92	84.26
366.12	84.26
366.32	0.00
366.52	0.00
366.72	0.00
366.91	0.00
367.11	0.00
367.31	0.00
367.51	0.00
367.70	0.00
367.90	0.00
368.10	0.00
368.30	0.00
368.49	0.00
368.69	0.00
368.89	0.00
369.09	16.38
369.28	0.00
369.48	42.13
369.68	0.00
369.87	81.92
370.07	30.43
370.27	0.00
370.47	124.05
370.66	409.59
370.86	444.70
371.06	557.05
371.25	500.87
371.45	482.15
371.65	449.38
371.84	479.81
372.04	533.64
372.24	578.11
372.44	575.77
372.63	540.66
372.83	589.82
373.03	543.00
373.22	620.24
373.42	608.54
373.62	540.66
373.81	690.46
374.01	629.60
374.21	674.07
374.40	655.35
374.60	582.79
374.79	592.16
374.99	678.76
375.19	653.01
375.38	587.47
375.58	690.46
375.78	657.69
375.97	681.10
376.17	709.18
376.37	634.29
376.56	732.59
376.76	624.92
376.95	613.22
377.15	788.76
377.35	746.63
377.54	791.10
377.74	664.71
377.93	711.52
378.13	788.76
378.33	772.38
378.52	732.59
378.72	779.40
378.91	807.48
379.11	746.63
379.31	763.01
379.50	741.95
379.70	805.14
379.89	711.52
380.09	739.61
380.28	760.67
380.48	823.87
380.68	779.40
380.87	760.67
381.07	891.74
381.26	877.70
381.46	889.40
381.65	819.19
381.85	770.04
382.04	866.00
382.24	840.25
382.43	873.02
382.63	870.68
382.83	858.98
383.02	926.85
383.22	961.96
383.41	945.58
383.61	891.74
383.80	795.78
384.00	905.79
384.19	936.21
384.39	931.53
384.58	983.02
384.78	994.73
384.97	938.55
385.17	931.53
385.36	968.98
385.56	926.85
385.75	877.70
385.95	922.17
386.14	943.24
386.34	961.96
386.53	976.00
386.72	1022.81
386.92	1097.71
387.11	1142.18
387.31	1090.69
387.50	1036.86
387.70	978.34
387.89	1088.35
388.09	1100.05
388.28	1015.79
388.48	1006.43
388.67	1135.16
388.86	1153.88
389.06	1090.69
389.25	1177.29
389.45	1200.69
389.64	1188.99
389.84	1149.20
390.03	1240.48
390.22	1193.67
390.42	1179.63
390.61	1146.86
390.81	1214.74
391.00	1203.04
391.19	1268.57
391.39	1214.74
391.58	1221.76
391.78	1259.21
391.97	1249.85
392.16	1256.87
392.36	1362.19
392.55	1277.93
392.75	1317.72
392.94	1240.48
393.13	1266.23
393.33	1291.98
393.52	1322.40
393.71	1280.27
393.91	1338.79
394.10	1376.24
394.29	1392.62
394.49	1371.55
394.68	1472.20
394.88	1373.89
395.07	1516.67
395.26	1453.47
395.46	1474.54
395.65	1472.20
395.84	1579.86
396.04	1659.44
396.23	1486.24
396.42	1502.62
396.62	1577.52
396.81	1565.82
397.00	1500.28
397.19	1490.92
397.39	1621.99
397.58	1687.53
397.77	1612.63
397.97	1834.98
398.16	1650.08
398.35	1621.99
398.55	1619.65
398.74	1820.94
398.93	1916.90
399.12	1764.76
399.32	1666.46
399.51	1734.34
399.70	1811.57
399.90	1785.83
400.09	1870.09
400.28	1912.22
400.47	1853.70
400.67	1886.47
400.86	1895.83
401.05	1874.77
401.24	1888.81
401.44	1973.07
401.63	1933.28
401.82	1935.62
402.01	1956.69
402.21	2064.35
402.40	2090.10
402.59	2064.35
402.78	2045.63
402.97	2069.03
403.17	2176.70
403.36	2195.42
403.55	2148.61
403.74	2176.70
403.93	2186.06
404.13	2293.72
404.32	2249.25
404.51	2165.00
404.70	2260.96
404.89	2291.38
405.09	2319.47
405.28	2260.96
405.47	2368.62
405.66	2366.28
405.85	2342.88
406.05	2176.70
406.24	2349.90
406.43	2279.68
406.62	2541.82
406.81	2539.48
407.00	2483.31
407.20	2392.03
407.39	2352.24
407.58	2534.80
407.77	2602.68
407.96	2593.31
408.15	2546.50
408.34	2567.57
408.54	2668.21
408.73	2717.36
408.92	2700.98
409.11	2757.15
409.30	2715.02
409.49	2616.72
409.68	2792.26
409.87	2719.70
410.07	2916.31
410.26	2862.48
410.45	3000.57
410.64	2843.75
410.83	2857.79
411.02	2904.60
411.21	3009.93
411.40	3103.55
411.59	3068.44
411.78	2993.55
411.98	3068.44
412.17	3129.30
412.36	3279.09
412.55	3234.62
412.74	3269.73
412.93	3410.16
413.12	3164.40
413.31	3412.50
413.50	3276.75
413.69	3396.12
413.88	3400.80
414.07	3571.66
414.26	3398.46
414.45	3562.30
414.64	3510.80
414.83	3541.23
415.02	3595.06
415.22	3751.88
415.41	3775.28
415.60	3782.31
415.79	3735.50
415.98	3840.82
416.17	3819.75
416.36	3852.52
416.55	4037.42
416.74	3918.06
416.93	3857.20
417.12	4028.06
417.31	4203.60
417.50	4014.02
417.69	3997.64
417.88	4161.47
418.07	4252.75
418.26	4077.21
418.45	4224.67
418.64	4589.79
418.83	4243.39
419.02	4217.65
419.21	4292.54
419.39	4475.10
419.58	4414.25
419.77	4411.91
419.96	4404.89
420.15	4437.66
420.34	4564.04
420.53	4573.41
420.72	4751.29
420.91	4748.95
421.10	4716.18
421.29	4830.87
421.48	4571.07
421.67	4608.51
421.86	4755.97
422.05	4765.33
422.24	4823.84
422.43	4704.48
422.61	4669.37
422.80	4929.17
422.99	4915.12
423.18	4915.12
423.37	5121.09
423.56	4891.72
423.75	4800.44
423.94	4816.82
424.13	4559.36
424.32	4816.82
424.50	4880.02
424.69	4849.59
424.88	5034.49
425.07	4802.78
425.26	4802.78
425.45	4922.15
425.64	4917.47
425.83	5011.09
426.01	5036.83
426.20	4983.00
426.39	5135.14
426.58	4983.00
426.77	5050.88
426.96	5100.03
427.15	4919.81
427.33	5048.54
427.52	5116.41
427.71	5270.89
427.90	5259.18
428.09	5228.76
428.28	5371.53
428.46	5334.08
428.65	5355.15
428.84	5427.70
429.03	5352.81
429.22	5261.52
429.40	5575.16
429.59	5294.29
429.78	5240.46
429.97	5308.34
430.16	5338.76
430.34	5481.53
430.53	5502.60
430.72	5598.56
430.91	5497.92
431.10	5610.26
431.28	5593.88
431.47	5895.81
431.66	5851.34
431.85	5687.50
432.03	5912.19
432.22	5905.17
432.41	5858.36
432.60	5959.00
432.79	5942.62
432.97	5923.90
433.16	5966.03
433.35	5898.15
433.54	6005.81
433.72	6146.25
433.91	6024.54
434.10	6167.31
434.28	6277.32
434.47	6108.80
434.66	6218.80
434.85	6214.12
435.03	6509.03
435.22	6583.93
435.41	6885.86
435.59	7005.22
435.78	6567.54
435.97	6612.01
436.16	6597.97
436.34	6546.48
436.53	6399.02
436.72	6644.78
436.90	6352.21
437.09	6789.89
437.28	6506.69
437.46	6544.14
437.65	6757.13
437.84	6848.41
438.02	6630.74
438.21	6829.68
438.40	6705.63
438.58	6825.00
438.77	6904.58
438.96	7136.29
439.14	7190.13
439.33	7197.15
439.52	7157.36
439.70	7295.45
439.89	7370.35
440.08	7332.90
440.26	7445.24
440.45	7307.15
440.63	7524.82
440.82	7562.27
441.01	7431.20
441.19	7747.17
441.38	7850.16
441.57	7852.50
441.75	7908.67
441.94	7899.31
442.12	8039.74
442.31	8154.43
442.50	8105.28
442.68	8051.44
442.87	8163.79
443.05	8147.40
443.24	8250.39
443.43	8329.97
443.61	8320.60
443.80	8470.40
443.98	8126.34
444.17	8044.42
444.35	8351.03
444.54	8407.20
444.73	8372.10
444.91	8194.22
445.10	8564.02
445.28	8341.67
445.47	8297.20
445.65	8432.95
445.84	8306.56
446.02	8507.85
446.21	8397.84
446.39	8458.70
446.58	8517.21
446.77	8566.36
446.95	8468.06
447.14	8683.39
447.32	8472.74
447.51	8542.96
447.69	8505.51
447.88	8573.38
448.06	8641.26
448.25	8643.60
448.43	8664.66
448.62	8615.51
448.80	8526.57
448.99	8681.05
449.17	8730.20
449.36	8601.47
449.54	8695.09
449.73	8940.85
449.91	8992.34
450.10	9057.87
450.28	9287.25
450.46	9132.77
450.65	9202.99
450.83	9078.94
451.02	9254.48
451.20	9004.04
451.39	9329.38
451.57	9329.38
451.76	9247.46
451.94	9238.09
452.13	9479.17
452.31	9408.95
452.49	9144.47
452.68	9516.62
452.86	9270.86
453.05	9617.26
453.23	9703.86
453.42	9373.85
453.60	9404.27
453.78	9572.79
453.97	9605.56
454.15	9717.90
454.34	9420.66
454.52	9804.50
454.70	9846.63
454.89	9874.72
455.07	9912.17
455.26	9921.53
455.44	9806.84
455.62	9998.77
455.81	10057.28
455.99	10097.07
456.17	10228.14
456.36	10134.52
456.54	10235.16
456.73	10141.54
456.91	10394.32
457.09	10541.77
457.28	10813.28
457.46	10478.58
457.64	10539.43
457.83	10516.03
458.01	10544.11
458.19	10817.96
458.38	10855.40
458.56	10745.40
458.74	10834.34
458.93	10895.19
459.11	10913.92
459.29	10916.26
459.48	10810.93
459.66	10794.55
459.84	11154.99
460.03	11098.82
460.21	10993.50
460.39	11033.29
460.57	11103.50
460.76	10946.69
460.94	11260.32
461.12	11211.17
461.31	11274.36
461.49	11398.41
461.67	11386.71
461.85	11655.87
462.04	11489.69
462.22	11875.88
462.40	11838.43
462.59	11616.08
462.77	11662.89
462.95	11843.11
463.13	11632.46
463.32	11880.56
463.50	11709.70
463.68	11784.60
463.86	11903.96
464.05	11651.19
464.23	11791.62
464.41	11887.58
464.59	11653.53
464.78	12187.17
464.96	12243.34
465.14	11943.75
465.32	12358.03
465.50	12388.46
465.69	12346.33
465.87	12212.92
466.05	12224.62
466.23	12393.14
466.41	12348.67
466.60	12821.45
466.78	12379.09
466.96	12582.72
467.14	12699.75
467.32	12528.89
467.51	12695.07
467.69	12374.41
467.87	12692.73
468.05	12793.37
468.23	12554.63
468.41	12718.47
468.60	12702.09
468.78	12922.10
468.96	12645.91
469.14	12844.86
469.32	13224.03
469.50	12748.90
469.69	13205.30
469.87	13165.51
470.05	13034.44
470.23	13142.11
470.41	13383.18
470.59	13511.91
470.77	13193.60
470.95	13507.23
471.14	13687.45
471.32	13474.46
471.50	13809.16
471.68	13731.92
471.86	13757.67
472.04	13783.41
472.22	14104.07
472.40	13926.19
472.58	13942.57
472.77	14216.41
472.95	14277.27
473.13	14513.66
473.31	14382.59
473.49	14569.83
473.67	14324.08
473.85	14366.21
474.03	14897.51
474.21	14953.68
474.39	14878.79
474.57	15002.83
474.75	15028.58
474.93	15143.27
475.12	15204.12
475.30	15026.24
475.48	15054.33
475.66	15199.44
475.84	15269.66
476.02	15719.04
476.20	15681.59
476.38	15920.32
476.56	16226.93
476.74	16173.10
476.92	15988.20
477.10	16297.15
477.28	16353.32
477.46	16264.38
477.64	16535.88
477.82	16727.81
478.00	17474.44
478.18	17177.19
478.36	17518.91
478.54	17544.66
478.72	17411.25
478.90	17582.10
479.08	17675.73
479.26	17848.93
479.44	18045.53
479.62	18473.85
479.80	18225.75
479.98	18178.94
480.16	18654.07
480.34	18672.79
480.52	18960.68
480.70	18843.65
480.88	19070.68
481.06	19370.27
481.24	19379.64
481.41	19435.81
481.59	19791.57
481.77	19857.10
481.95	19798.59
482.13	20259.68
482.31	20350.96
482.49	20224.57
482.67	20407.13
482.85	20903.32
483.03	21296.53
483.21	21406.54
483.39	21394.84
483.57	21322.28
483.74	21392.50
483.92	21659.32
484.10	21439.31
484.28	22277.22
484.46	22518.29
484.64	22813.20
484.82	22530.00
485.00	22532.34
485.18	23297.69
485.35	23449.83
485.53	23510.68
485.71	23410.04
485.89	24002.19
486.07	23920.28
486.25	24393.06
486.43	24229.23
486.61	24311.14
486.78	24479.66
486.96	25032.03
487.14	25371.41
487.32	25282.47
487.50	25170.12
487.68	25256.72
487.85	25713.13
488.03	26286.56
488.21	26291.24
488.39	26457.42
488.57	26843.60
488.75	26958.29
488.92	27058.93
489.10	27124.47
489.28	27225.11
489.46	27672.15
489.64	27807.90
489.81	28297.08
489.99	28266.65
490.17	28463.25
490.35	28922.00
490.53	28936.04
490.70	29387.77
490.88	28872.85
491.06	29296.49
491.24	29170.10
491.41	29724.80
491.59	30190.57
491.77	29975.24
491.95	30422.28
492.13	31199.34
492.30	30696.13
492.48	30574.42
492.66	31143.17
492.84	31131.47
493.01	31257.85
493.19	31498.93
493.37	31868.73
493.54	31651.06
493.72	32339.18
493.90	32437.48
494.08	32589.62
494.25	32772.18
494.43	32940.70
494.61	33163.05
494.79	33244.97
494.96	33067.09
495.14	33509.45
495.32	33642.86
495.49	34031.39
495.67	34047.77
495.85	34490.13
496.02	34433.96
496.20	34595.46
496.38	34995.69
496.55	34888.03
496.73	35847.64
496.91	34939.52
497.09	35709.55
497.26	35864.03
497.44	35690.83
497.62	35648.70
497.79	36390.65
497.97	36264.26
498.14	37158.34
498.32	37083.45
498.50	37010.89
498.67	37364.31
498.85	37244.94
499.03	37303.46
499.20	37811.35
499.38	37942.42
499.56	37855.82
499.73	38110.94
499.91	38157.75
500.08	38412.87
500.26	38522.88
500.44	38574.37
500.61	39005.03
500.79	38670.33
500.97	39278.87
501.14	39498.88
501.32	39852.30
501.49	39173.55
501.67	39407.60
501.84	39423.98
502.02	39861.66
502.20	40336.79
502.37	40294.66
502.55	40404.67
502.72	40304.02
502.90	40463.18
503.07	40315.73
503.25	40662.13
503.43	41186.41
503.60	40844.69
503.78	41481.31
503.95	41280.03
504.13	41141.94
504.30	41537.49
504.48	41675.58
504.65	41886.23
504.83	41832.39
505.01	42637.54
505.18	42101.56
505.36	42887.98
505.53	42274.76
505.71	42096.88
505.88	42705.41
506.06	42698.39
506.23	43072.88
506.41	43192.25
506.58	43325.66
506.76	42951.17
506.93	43229.69
507.11	43466.09
507.28	43742.27
507.46	43880.36
507.63	43873.34
507.81	44533.37
507.98	44261.87
508.16	44032.50
508.33	44477.20
508.50	44156.55
508.68	44861.05
508.85	45116.17
509.03	44823.60
509.20	44718.28
509.38	45179.36
509.55	45455.54
509.73	45436.82
509.90	45694.28
510.08	45413.41
510.25	45975.14
510.42	45925.99
510.60	46550.91
510.77	46064.08
510.95	46433.89
511.12	45804.28
511.30	45982.16
511.47	46787.31
511.64	46377.72
511.82	46827.10
511.99	47070.51
512.17	46815.40
512.34	47159.45
512.51	47239.03
512.69	47262.44
512.86	47540.96
513.04	47838.21
513.21	47770.33
513.38	47489.47
513.56	47805.44
513.73	47547.98
513.90	47803.10
514.08	47735.23
514.25	48318.02
514.43	48498.24
514.60	48240.78
514.77	48392.92
514.95	48818.89
515.12	48830.60
515.29	48729.95
515.47	49329.13
515.64	49202.74
515.81	49352.54
515.99	49357.22
516.16	49331.47
516.33	49464.88
516.51	49282.32
516.68	49148.91
516.85	49710.64
517.03	49621.70
517.20	50012.57
517.37	49563.18
517.54	50005.55
517.72	49769.15
517.89	49834.69
518.06	50293.43
518.24	49951.71
518.41	50419.82
518.58	50124.91
518.75	50464.29
518.93	50684.30
519.10	50822.39
519.27	50492.38
519.45	50452.59
519.62	50934.74
519.79	50974.53
519.96	50653.87
520.14	51136.02
520.31	51056.45
520.48	51199.22
520.65	51217.94
520.83	51339.65
521.00	51440.29
521.17	51133.68
521.34	51580.73
521.52	51789.03
521.69	52140.11
521.86	52002.02
522.03	51995.00
522.20	52193.95
522.38	51992.66
522.55	52020.75
522.72	52123.73
522.89	52247.78
523.07	52271.18
523.24	52093.30
523.41	52612.90
523.58	52378.85
523.75	52706.52
523.92	52760.36
524.10	52692.48
524.27	52879.72
524.44	52905.47
524.61	53174.63
524.78	53286.98
524.96	52992.07
525.13	53202.72
525.30	53418.05
525.47	53240.17
525.64	53312.72
525.81	53432.09
525.98	53661.46
526.16	53209.74
526.33	53694.23
526.50	53715.29
526.67	53270.59
526.84	53357.19
527.01	53752.74
527.18	53867.43
527.36	53696.57
527.53	53949.35
527.70	54071.06
527.87	54195.10
528.04	53998.50
528.21	54260.64
528.38	54174.04
528.55	54300.43
528.72	54429.16
528.89	54267.66
529.07	54288.73
529.24	54506.40
529.41	54866.84
529.58	54497.03
529.75	54459.58
529.92	54543.84
530.09	54646.83
530.26	54520.44
530.43	54784.92
530.60	54834.07
530.77	55089.19
530.94	55000.25
531.11	54766.20
531.28	54892.58
531.46	54960.46
531.63	55084.51
531.80	55119.62
531.97	55243.66
532.14	55084.51
532.31	55070.46
532.48	55224.94
532.65	55524.53
532.82	54930.03
532.99	55269.41
533.16	55395.80
533.33	55592.40
533.50	55817.10
533.67	55606.45
533.84	55564.32
534.01	55611.13
534.18	55664.96
534.35	55941.14
534.52	55964.55
534.69	55737.52
534.86	56058.17
535.03	55856.88
535.20	55894.33
535.37	55980.93
535.54	56268.82
535.71	55957.53
535.88	56034.77
536.05	56151.79
536.22	56278.18
536.38	56477.13
536.55	56617.56
536.72	56336.69
536.89	56196.26
537.06	56250.09
537.23	56474.79
537.40	56378.82
537.57	56652.67
537.74	56856.29
537.91	56640.96
538.08	56706.50
538.25	56491.17
538.42	56683.09
538.59	56563.73
538.75	56725.22
538.92	56711.18
539.09	56739.27
539.26	56818.84
539.43	56610.54
539.60	57041.20
539.77	56942.89
539.94	57132.48
540.11	57169.93
540.28	57275.25
540.44	57284.61
540.61	57251.84
540.78	57181.63
540.95	57467.17
541.12	57368.87
541.29	57441.43
541.46	57439.09
541.62	57354.83
541.79	57488.24
541.96	57226.10
542.13	57441.43
542.30	57930.60
542.47	57745.70
542.63	57806.55
542.80	57874.43
542.97	57815.91
543.14	58017.20
543.31	57897.83
543.48	57886.13
543.64	58195.08
543.81	58384.66
543.98	58169.33
544.15	58246.57
544.32	58159.97
544.48	58494.67
544.65	58106.14
544.82	58185.72
544.99	58042.95
545.16	58223.17
545.32	58047.63
545.49	58726.38
545.66	58824.68
545.83	58812.98
546.00	58979.16
546.16	58791.92
546.33	58518.07
546.50	58269.98
546.67	58665.53
546.83	58251.25
547.00	58450.20
547.17	58546.16
547.34	58466.58
547.50	58777.87
547.67	59018.95
547.84	58630.42
548.00	58789.58
548.17	58815.32
548.34	58702.98
548.51	58906.60
548.67	59002.56
548.84	58986.18
549.01	59124.27
549.18	58958.09
549.34	58939.37
549.51	58941.71
549.68	58932.35
549.84	58843.41
550.01	59051.72
550.18	58871.49
550.34	58873.84
550.51	59194.49
550.68	59110.23
550.84	59049.38
551.01	59302.15
551.18	59292.79
551.34	59147.68
551.51	59311.52
551.68	59330.24
551.84	59309.18
552.01	59367.69
552.18	59423.86
552.34	59140.66
552.51	59290.45
552.68	59468.33
552.84	59386.41
553.01	59414.50
553.18	59222.58
553.34	59540.89
553.51	59440.24
553.67	59737.49
553.84	59728.13
554.01	59756.22
554.17	59487.06
554.34	59653.23
554.51	59451.95
554.67	59700.04
554.84	59657.91
555.00	59774.94
555.17	59760.90
555.33	59660.26
555.50	59803.03
555.67	59704.73
555.83	59791.33
556.00	59693.02
556.16	59941.12
556.33	59959.84
556.50	59817.07
556.66	60189.22
556.83	59632.17
556.99	60233.69
557.16	60189.22
557.32	60196.24
557.49	60229.01
557.65	59845.16
557.82	60135.38
557.98	59964.52
558.15	59992.61
558.32	60137.72
558.48	59920.05
558.65	60315.61
558.81	60416.25
558.98	60186.88
559.14	60317.95
559.31	60137.72
559.47	60165.81
559.64	60362.42
559.80	60371.78
559.97	60411.57
560.13	60348.37
560.30	60434.97
560.46	60453.70
560.63	60315.61
560.79	60439.65
560.96	60570.72
561.12	60341.35
561.29	60236.03
561.45	60252.41
561.61	60514.55
561.78	60505.19
561.94	60596.47
562.11	60582.43
562.27	60659.66
562.44	60339.01
562.60	60544.98
562.77	60687.75
562.93	60580.09
563.10	60900.74
563.26	60516.89
563.42	60870.31
563.59	60814.14
563.75	60715.84
563.92	60783.71
564.08	60381.14
564.24	60636.26
564.41	60526.25
564.57	60659.66
564.74	60671.37
564.90	60587.11
565.07	60713.50
565.23	60617.53
565.39	60664.35
565.56	60781.37
565.72	60575.40
565.88	60701.79
566.05	60673.71
566.21	60713.50
566.38	60919.46
566.54	60870.31
566.70	60896.06
566.87	60959.25
567.03	60795.42
567.19	61207.35
567.36	60837.54
567.52	60921.80
567.68	60903.08
567.85	60727.54
568.01	60956.91
568.17	60734.56
568.34	61113.73
568.50	60858.61
568.66	60928.83
568.83	61174.58
568.99	61050.53
569.15	60853.93
569.32	60865.63
569.48	60879.67
569.64	61027.13
569.81	60968.61
569.97	60790.73
570.13	61113.73
570.30	60977.98
570.46	60919.46
570.62	61214.37
570.78	60910.10
570.95	60816.48
571.11	60898.40
571.27	60832.86
571.43	60917.12
571.60	61307.99
571.76	61125.43
571.92	61186.28
572.09	61207.35
572.25	61233.10
572.41	61183.94
572.57	61326.72
572.74	61338.42
572.90	60858.61
573.06	61123.09
573.22	61097.34
573.38	61366.51
573.55	61158.20
573.71	61422.68
573.87	61415.66
574.03	61034.15
574.20	61207.35
574.36	61085.64
574.52	61162.88
574.68	61057.56
574.84	61247.14
575.01	61567.79
575.17	61289.27
575.33	61265.86
575.49	61240.12
575.65	61352.46
575.82	61237.78
575.98	61481.19
576.14	61483.53
576.30	61457.79
576.46	61282.25
576.62	61291.61
576.79	61389.91
576.95	61148.84
577.11	61441.40
577.27	61371.19
577.43	61364.17
577.59	61403.95
577.75	61324.38
577.92	61120.75
578.08	61207.35
578.24	61174.58
578.40	61406.30
578.56	61361.82
578.72	61584.18
578.88	61483.53
579.04	61579.49
579.21	61488.21
579.37	61403.95
579.53	61324.38
579.69	61031.81
579.85	61410.98
580.01	61380.55
580.17	61319.70
580.33	61326.72
580.49	61401.61
580.65	61591.20
580.82	61663.75
580.98	61666.09
581.14	61506.94
581.30	61645.03
581.46	61439.06
581.62	61378.21
581.78	61303.31
581.94	61628.65
582.10	61387.57
582.26	61310.33
582.42	61574.81
582.58	61577.15
582.74	61478.85
582.90	61666.09
583.06	61471.83
583.22	61621.62
583.38	61300.97
583.54	61525.66
583.70	61385.23
583.86	61467.15
584.02	61464.81
584.18	61684.82
584.34	61591.20
584.50	61633.33
584.66	61689.50
584.82	61298.63
584.98	61687.16
585.14	61516.30
585.30	61450.77
585.46	61605.24
585.62	61600.56
585.78	61528.00
585.94	61502.26
586.10	61638.01
586.26	61469.49
586.42	61740.99
586.58	61888.45
586.74	61602.90
586.90	61389.91
587.06	61464.81
587.22	61513.96
587.38	61609.92
587.54	61712.91
587.70	61834.61
587.86	61839.29
588.02	61783.12
588.18	61925.89
588.34	61813.55
588.49	61797.16
588.65	61551.41
588.81	61516.30
588.97	61600.56
589.13	61687.16
