SpectraSuite Data File
++++++++++++++++++++++++++++++++++++
Date: Fri Oct 04 11:39:26 GMT-05:00 2013
User: price-jones
Dark Spectrum Present: No
Reference Spectrum Present: No
Number of Sampled Component Spectra: 1
Spectrometers: USB2+H05261
Integration Time (usec): 100000 (USB2+H05261)
Spectra Averaged: 1 (USB2+H05261)
Boxcar Smoothing: 0 (USB2+H05261)
Correct for Electrical Dark: No (USB2+H05261)
Strobe/Lamp Enabled: No (USB2+H05261)
Correct for Detector Non-linearity: No (USB2+H05261)
Correct for Stray Light: No (USB2+H05261)
Number of Pixels in Processed Spectrum: 2048
>>>>>Begin Processed Spectral Data<<<<<
365.73	28.09
365.92	28.09
366.12	28.09
366.32	9.36
366.52	0.00
366.72	0.00
366.91	0.00
367.11	0.00
367.31	0.00
367.51	28.09
367.70	0.00
367.90	0.00
368.10	0.00
368.30	0.00
368.49	9.36
368.69	2.34
368.89	0.00
369.09	0.00
369.28	0.00
369.48	0.00
369.68	0.00
369.87	0.00
370.07	58.51
370.27	0.00
370.47	74.90
370.66	133.41
370.86	184.90
371.06	217.67
371.25	264.48
371.45	177.88
371.65	205.97
371.84	194.26
372.04	175.54
372.24	205.97
372.44	205.97
372.63	250.44
372.83	301.93
373.03	252.78
373.22	231.71
373.42	301.93
373.62	264.48
373.81	266.82
374.01	322.99
374.21	273.84
374.40	269.16
374.60	358.10
374.79	290.23
374.99	269.16
375.19	227.03
375.38	322.99
375.58	224.69
375.78	285.55
375.97	299.59
376.17	390.87
376.37	290.23
376.56	313.63
376.76	313.63
376.95	236.39
377.15	318.31
377.35	271.50
377.54	322.99
377.74	280.86
377.93	304.27
378.13	318.31
378.33	327.68
378.52	315.97
378.72	271.50
378.91	327.68
379.11	283.20
379.31	337.04
379.50	318.31
379.70	355.76
379.89	299.59
380.09	285.55
380.28	304.27
380.48	341.72
380.68	346.40
380.87	264.48
381.07	294.91
381.26	393.21
381.46	325.33
381.65	299.59
381.85	287.89
382.04	315.97
382.24	313.63
382.43	278.52
382.63	341.72
382.83	294.91
383.02	376.83
383.22	308.95
383.41	301.93
383.61	365.12
383.80	339.38
384.00	311.29
384.19	341.72
384.39	341.72
384.58	348.74
384.78	393.21
384.97	381.51
385.17	360.44
385.36	360.44
385.56	358.10
385.75	348.74
385.95	388.53
386.14	351.08
386.34	367.46
386.53	344.06
386.72	360.44
386.92	440.02
387.11	367.46
387.31	362.78
387.50	339.38
387.70	414.27
387.89	430.66
388.09	414.27
388.28	376.83
388.48	367.46
388.67	414.27
388.86	442.36
389.06	449.38
389.25	381.51
389.45	484.49
389.64	496.19
389.84	479.81
390.03	475.13
390.22	489.17
390.42	442.36
390.61	538.32
390.81	477.47
391.00	400.23
391.19	496.19
391.39	463.43
391.58	519.60
391.78	491.51
391.97	458.74
392.16	493.85
392.36	451.72
392.55	489.17
392.75	503.22
392.94	465.77
393.13	540.66
393.33	489.17
393.52	568.75
393.71	491.51
393.91	514.92
394.10	496.19
394.29	521.94
394.49	510.24
394.68	533.64
394.88	573.43
395.07	540.66
395.26	510.24
395.46	531.30
395.65	606.20
395.84	538.32
396.04	648.33
396.23	545.34
396.42	531.30
396.62	587.47
396.81	521.94
397.00	547.69
397.19	592.16
397.39	552.37
397.58	723.23
397.77	580.45
397.97	648.33
398.16	624.92
398.35	681.10
398.55	580.45
398.74	594.50
398.93	706.84
399.12	699.82
399.32	697.48
399.51	702.16
399.70	638.97
399.90	713.86
400.09	760.67
400.28	786.42
400.47	753.65
400.67	835.57
400.86	702.16
401.05	767.70
401.24	774.72
401.44	758.33
401.63	765.36
401.82	812.17
402.01	812.17
402.21	791.10
402.40	851.96
402.59	884.72
402.78	826.21
402.97	830.89
403.17	837.91
403.36	898.77
403.55	898.77
403.74	833.23
403.93	910.47
404.13	987.71
404.32	983.02
404.51	940.90
404.70	992.39
404.89	978.34
405.09	957.28
405.28	992.39
405.47	1034.52
405.66	999.41
405.85	1015.79
406.05	1034.52
406.24	968.98
406.43	997.07
406.62	973.66
406.81	1158.57
407.00	1078.99
407.20	1174.95
407.39	1104.73
407.58	1043.88
407.77	1198.35
407.96	1226.44
408.15	1233.46
408.34	1149.20
408.54	1160.91
408.73	1235.80
408.92	1240.48
409.11	1315.38
409.30	1217.08
409.49	1284.95
409.68	1355.17
409.87	1355.17
410.07	1310.70
410.26	1313.04
410.45	1315.38
410.64	1299.00
410.83	1423.05
411.02	1334.11
411.21	1495.60
411.40	1453.47
411.59	1476.88
411.78	1502.62
411.98	1446.45
412.17	1441.77
412.36	1544.75
412.55	1526.03
412.74	1558.80
412.93	1678.16
413.12	1589.22
413.31	1743.70
413.50	1685.19
413.69	1610.29
413.88	1764.76
414.07	1614.97
414.26	1675.82
414.45	1689.87
414.64	1732.00
414.83	1764.76
415.02	1769.44
415.22	1795.19
415.41	1956.69
415.60	1989.46
415.79	1874.77
415.98	1942.64
416.17	1914.56
416.36	1968.39
416.55	1970.73
416.74	2071.37
416.93	2003.50
417.12	2062.01
417.31	1980.09
417.50	2052.65
417.69	2101.80
417.88	2136.91
418.07	2155.63
418.26	2057.33
418.45	2148.61
418.64	2270.32
418.83	2197.76
419.02	2111.16
419.21	2204.78
419.39	2230.53
419.58	2202.44
419.77	2249.25
419.96	2352.24
420.15	2289.04
420.34	2305.43
420.53	2342.88
420.72	2396.71
420.91	2363.94
421.10	2370.96
421.29	2504.37
421.48	2373.30
421.67	2420.11
421.86	2387.35
422.05	2368.62
422.24	2354.58
422.43	2495.01
422.61	2487.99
422.80	2588.63
422.99	2513.74
423.18	2485.65
423.37	2438.84
423.56	2665.87
423.75	2616.72
423.94	2436.50
424.13	2347.56
424.32	2490.33
424.50	2597.99
424.69	2539.48
424.88	2523.10
425.07	2565.23
425.26	2569.91
425.45	2441.18
425.64	2527.78
425.83	2495.01
426.01	2581.61
426.20	2612.04
426.39	2523.10
426.58	2513.74
426.77	2490.33
426.96	2497.35
427.15	2712.68
427.33	2710.34
427.52	2710.34
427.71	2750.13
427.90	2715.02
428.09	2764.17
428.28	2736.09
428.46	2871.84
428.65	2850.77
428.84	2911.63
429.03	2871.84
429.22	2766.51
429.40	2775.88
429.59	2827.37
429.78	2686.94
429.97	2764.17
430.16	2860.13
430.34	2827.37
430.53	3005.25
430.72	2944.39
430.91	2855.45
431.10	2876.52
431.28	2995.89
431.47	3049.72
431.66	2935.03
431.85	2958.44
432.03	3066.10
432.22	3288.45
432.41	3063.76
432.60	3155.04
432.79	3164.40
432.97	3115.25
433.16	3038.02
433.35	3124.62
433.54	3171.43
433.72	3171.43
433.91	3187.81
434.10	3162.06
434.28	3431.23
434.47	3358.67
434.66	3173.77
434.85	3183.13
435.03	3417.18
435.22	3506.12
435.41	3791.67
435.59	3698.05
435.78	3606.77
435.97	3447.61
436.16	3482.72
436.34	3426.54
436.53	3396.12
436.72	3562.30
436.90	3330.58
437.09	3536.55
437.28	3353.99
437.46	3534.21
437.65	3506.12
437.84	3606.77
438.02	3482.72
438.21	3449.95
438.40	3513.14
438.58	3569.32
438.77	3744.86
438.96	3620.81
439.14	3688.68
439.33	3847.84
439.52	3925.08
439.70	3843.16
439.89	3836.14
440.08	3840.82
440.26	3899.33
440.45	3838.48
440.63	3875.93
440.82	3957.85
441.01	3901.67
441.19	3995.29
441.38	4037.42
441.57	4084.23
441.75	4028.06
441.94	4121.68
442.12	4149.77
442.31	4198.92
442.50	4037.42
442.68	4182.54
442.87	4243.39
443.05	4229.35
443.24	4259.78
443.43	4229.35
443.61	4313.61
443.80	4362.76
443.98	4255.09
444.17	4138.07
444.35	4346.37
444.54	4456.38
444.73	4156.79
444.91	4168.49
445.10	4280.84
445.28	4355.74
445.47	4348.72
445.65	4222.33
445.84	4362.76
446.02	4299.56
446.21	4355.74
446.39	4329.99
446.58	4386.16
446.77	4437.66
446.95	4395.53
447.14	4334.67
447.32	4409.57
447.51	4404.89
447.69	4414.25
447.88	4456.38
448.06	4322.97
448.25	4571.07
448.43	4435.32
448.62	4346.37
448.80	4547.66
448.99	4444.68
449.17	4660.01
449.36	4498.51
449.54	4545.32
449.73	4465.74
449.91	4657.67
450.10	4638.94
450.28	4770.01
450.46	4631.92
450.65	4765.33
450.83	4688.09
451.02	4596.81
451.20	4751.29
451.39	4746.61
451.57	4880.02
451.76	4884.70
451.94	4739.58
452.13	4880.02
452.31	4755.97
452.49	4983.00
452.68	4863.63
452.86	5025.13
453.05	4896.40
453.23	4929.17
453.42	4781.71
453.60	4940.87
453.78	4854.27
453.97	4917.47
454.15	4964.28
454.34	5015.77
454.52	4891.72
454.70	4851.93
454.89	5071.94
455.07	5078.96
455.26	5203.01
455.44	5221.74
455.62	5200.67
455.81	5053.22
455.99	5090.67
456.17	5177.26
456.36	5210.03
456.54	5198.33
456.73	5263.86
456.91	5317.70
457.09	5383.23
457.28	5376.21
457.46	5301.31
457.64	5420.68
457.83	5401.96
458.01	5341.10
458.19	5621.97
458.38	5465.15
458.56	5455.79
458.74	5542.39
458.93	5455.79
459.11	5565.79
459.29	5561.11
459.48	5668.78
459.66	5607.92
459.84	5710.91
460.03	5680.48
460.21	5837.30
460.39	5603.24
460.57	5666.44
460.76	5671.12
460.94	5738.99
461.12	5701.54
461.31	5916.87
461.49	5633.67
461.67	5722.61
461.85	6085.39
462.04	5778.78
462.22	5947.30
462.40	5841.98
462.59	5900.49
462.77	5837.30
462.95	5909.85
463.13	6047.94
463.32	6047.94
463.50	5966.03
463.68	6181.35
463.86	6050.28
464.05	5888.79
464.23	6054.97
464.41	6099.44
464.59	5937.94
464.78	6272.64
464.96	6005.81
465.14	6066.67
465.32	6235.19
465.50	6340.51
465.69	6057.31
465.87	6239.87
466.05	6331.15
466.23	6186.04
466.41	6251.57
466.60	6394.34
466.78	6335.83
466.96	6305.40
467.14	6228.17
467.32	6403.71
467.51	6527.75
467.69	6380.30
467.87	6354.55
468.05	6438.81
468.23	6434.13
468.41	6396.68
468.60	6450.52
468.78	6389.66
468.96	6572.22
469.14	6569.88
469.32	6633.08
469.50	6438.81
469.69	6464.56
469.87	6689.25
470.05	6700.95
470.23	6635.42
470.41	6656.48
470.59	6572.22
470.77	6693.93
470.95	6871.81
471.14	6848.41
471.32	6806.28
471.50	7068.42
471.68	6953.73
471.86	7105.87
472.04	7077.78
472.22	7075.44
472.40	6977.14
472.58	7236.94
472.77	7016.93
472.95	7185.44
473.13	7398.43
473.31	7208.85
473.49	7213.53
473.67	7382.05
473.85	7323.54
474.03	7466.31
474.21	7375.03
474.39	7602.06
474.57	7693.34
474.75	7625.47
474.93	7754.19
475.12	7550.57
475.30	7812.71
475.48	7639.51
475.66	7934.42
475.84	7812.71
476.02	7873.56
476.20	7882.92
476.38	8098.25
476.56	8044.42
476.74	8156.77
476.92	8109.96
477.10	8154.43
477.28	8266.77
477.46	8147.40
477.64	8109.96
477.82	8386.14
478.00	8496.14
478.18	8657.64
478.36	8360.39
478.54	8788.71
478.72	8861.27
478.90	8823.82
479.08	8917.44
479.26	8877.65
479.44	8964.25
479.62	9128.09
479.80	9097.66
479.98	9284.91
480.16	9364.48
480.34	9160.86
480.52	9245.12
480.70	9479.17
480.88	9490.87
481.06	9490.87
481.24	9465.13
481.41	9905.15
481.59	9853.66
481.77	9809.19
481.95	9764.72
482.13	10045.58
482.31	9760.03
482.49	9942.60
482.67	10319.42
482.85	10265.59
483.03	10665.82
483.21	10476.24
483.39	10424.75
483.57	10361.55
483.74	10663.48
483.92	10906.90
484.10	10848.38
484.28	10836.68
484.46	11283.72
484.64	11328.19
484.82	11173.72
485.00	11314.15
485.18	11580.97
485.35	11868.86
485.53	11576.29
485.71	11683.95
485.89	11882.90
486.07	11679.27
486.25	11815.02
486.43	11822.05
486.61	11676.93
486.78	12318.24
486.96	12116.95
487.14	12369.73
487.32	12168.45
487.50	12383.77
487.68	12812.09
487.85	12610.81
488.03	12886.99
488.21	13078.91
488.39	13102.32
488.57	13097.64
488.75	13055.51
488.92	13528.30
489.10	13446.38
489.28	13371.48
489.46	13673.41
489.64	13605.53
489.81	13764.69
489.99	13853.63
490.17	14059.60
490.35	14235.14
490.53	14054.92
490.70	14324.08
490.88	14272.59
491.06	14267.91
491.24	14368.55
491.41	14530.05
491.59	14672.82
491.77	14607.28
491.95	15035.60
492.13	14958.36
492.30	15103.48
492.48	15070.71
492.66	14981.77
492.84	15101.14
493.01	15307.10
493.19	15456.90
493.37	15585.63
493.54	15829.04
493.72	15695.63
493.90	15658.18
494.08	15704.99
494.25	16388.43
494.43	16145.02
494.61	16102.89
494.79	16009.26
494.96	16348.64
495.14	16390.77
495.32	16418.86
495.49	16629.51
495.67	16599.08
495.85	16786.32
496.02	16898.67
496.20	16938.46
496.38	17008.67
496.55	16945.48
496.73	17273.15
496.91	17078.89
497.09	17231.02
497.26	17797.43
497.44	17467.42
497.62	17624.23
497.79	17841.90
497.97	17572.74
498.14	17928.50
498.32	18134.47
498.50	18174.26
498.67	18249.16
498.85	18132.13
499.03	18148.51
499.20	18239.79
499.38	18225.75
499.56	18864.72
499.73	18633.00
499.91	18850.67
500.08	18710.24
500.26	18274.90
500.44	18728.97
500.61	18904.51
500.79	19047.28
500.97	19063.66
501.14	19152.60
501.32	19337.51
501.49	19227.50
501.67	19075.37
501.84	19484.96
502.02	19407.72
502.20	19358.57
502.37	19779.87
502.55	19513.05
502.72	19651.14
502.90	19786.89
503.07	19508.37
503.25	19950.73
503.43	19864.13
503.60	20067.75
503.78	20144.99
503.95	20255.00
504.13	20585.01
504.30	20311.17
504.48	20304.15
504.65	20285.42
504.83	20596.71
505.01	20594.37
505.18	20657.57
505.36	20608.42
505.53	20542.88
505.71	20699.70
505.88	20896.30
506.06	20545.22
506.23	20971.20
506.41	21092.91
506.58	21413.56
506.76	20798.00
506.93	21111.63
507.11	21425.26
507.28	21429.94
507.46	21338.66
507.63	21553.99
507.81	21605.49
507.98	21818.47
508.16	21579.74
508.33	21589.10
508.50	21525.91
508.68	21558.67
508.85	22141.47
509.03	22087.64
509.20	21970.61
509.38	22043.17
509.55	22394.25
509.73	22338.07
509.90	22632.98
510.08	22389.56
510.25	22162.53
510.42	22604.89
510.60	22775.75
510.77	23103.43
510.95	22689.15
511.12	22710.22
511.30	22632.98
511.47	22705.54
511.64	23084.70
511.82	23377.27
511.99	23201.73
512.17	23353.87
512.34	23236.84
512.51	23431.10
512.69	23564.51
512.86	23349.18
513.04	23716.65
513.21	23747.08
513.38	23828.99
513.56	23740.05
513.73	23873.46
513.90	23714.31
514.08	23702.61
514.25	23730.69
514.43	23765.80
514.60	24081.77
514.77	24261.99
514.95	23669.84
515.12	23955.38
515.29	24034.96
515.47	24575.62
515.64	24105.18
515.81	24189.44
515.99	24793.29
516.16	24524.13
516.33	24790.95
516.51	24584.99
516.68	24807.34
516.85	24575.62
517.03	25010.96
517.20	25055.43
517.37	25556.31
517.54	24982.88
517.72	25144.38
517.89	25205.23
518.06	25017.99
518.24	25055.43
518.41	25102.25
518.58	25242.68
518.75	25717.81
518.93	25441.62
519.10	25486.09
519.27	25895.69
519.45	25223.95
519.62	25214.59
519.79	25771.64
519.96	25551.63
520.14	26052.50
520.31	25633.55
520.48	26141.44
520.65	25633.55
520.83	25984.63
521.00	26298.26
521.17	25942.50
521.34	26059.52
521.52	25853.56
521.69	25965.90
521.86	26366.13
522.03	26483.16
522.20	26459.76
522.38	26696.15
522.55	26169.53
522.72	26852.97
522.89	26464.44
523.07	27084.68
523.24	26911.48
523.41	27307.03
523.58	26742.96
523.75	27264.90
523.92	26534.65
524.10	27229.79
524.27	27190.00
524.44	27129.15
524.61	27555.13
524.78	26869.35
524.96	27215.75
525.13	27285.97
525.30	27119.79
525.47	27625.34
525.64	27520.02
525.81	27452.14
525.98	27627.68
526.16	27800.88
526.33	27756.41
526.50	27644.07
526.67	27782.16
526.84	27765.78
527.01	27615.98
527.18	27695.56
527.36	27784.50
527.53	27896.85
527.70	28364.95
527.87	28236.22
528.04	28491.34
528.21	28027.92
528.38	28458.57
528.55	28498.36
528.72	28154.30
528.89	28011.53
529.07	28025.57
529.24	28004.51
529.41	28652.84
529.58	28074.73
529.75	28315.80
529.92	28360.27
530.09	28723.05
530.26	28388.36
530.43	29069.45
530.60	28397.72
530.77	28503.04
530.94	28840.08
531.11	28870.51
531.28	28891.57
531.46	29013.28
531.63	29055.41
531.80	29207.55
531.97	29394.79
532.14	29654.59
532.31	28971.15
532.48	29329.25
532.65	29394.79
532.82	29092.86
532.99	29352.66
533.16	29436.92
533.33	29301.17
533.50	29476.71
533.67	29563.31
533.84	29394.79
534.01	29476.71
534.18	29205.20
534.35	29729.48
534.52	29886.30
534.69	29717.78
534.86	29745.87
535.03	29610.12
535.20	29745.87
535.37	29811.40
535.54	29977.58
535.71	29511.81
535.88	29921.41
536.05	30132.06
536.22	30253.76
536.38	29975.24
536.55	30302.92
536.72	30235.04
536.89	29844.17
537.06	30483.14
537.23	30384.83
537.40	30277.17
537.57	30628.25
537.74	30532.29
537.91	30499.52
538.08	30433.99
538.25	30646.97
538.42	30284.19
538.59	31019.12
538.75	30279.51
538.92	30270.15
539.09	31112.74
539.26	30909.11
539.43	31122.10
539.60	30902.09
539.77	31136.15
539.94	31215.72
540.11	30852.94
540.28	31009.76
540.44	31192.32
540.61	30969.97
540.78	31236.79
540.95	31241.47
541.12	31424.03
541.29	31695.53
541.46	31601.91
541.62	31211.04
541.79	31337.43
541.96	31077.63
542.13	31264.88
542.30	31573.83
542.47	32156.62
542.63	32135.56
542.80	31744.69
542.97	32063.00
543.14	32238.54
543.31	32137.90
543.48	32027.89
543.64	32247.90
543.81	32334.50
543.98	32231.52
544.15	32072.36
544.32	32313.44
544.48	32355.57
544.65	32517.06
544.82	32250.24
544.99	32154.28
545.16	32402.38
545.32	32063.00
545.49	33134.96
545.66	33406.47
545.83	33294.12
546.00	33308.16
546.16	33181.77
546.33	32442.17
546.50	32086.40
546.67	32477.27
546.83	32254.92
547.00	32753.46
547.17	32716.01
547.34	32512.38
547.50	32629.41
547.67	33024.96
547.84	32723.03
548.00	32884.53
548.17	33048.36
548.34	32641.11
548.51	32650.47
548.67	32563.87
548.84	32980.49
549.01	32968.79
549.18	32774.52
549.34	33127.94
549.51	33048.36
549.68	32613.02
549.84	32591.96
550.01	33085.81
550.18	32992.19
550.34	33441.57
550.51	33132.62
550.68	33034.32
550.84	32994.53
551.01	33020.28
551.18	32624.73
551.34	32521.74
551.51	33099.86
551.68	32739.41
551.84	33144.33
552.01	33095.18
552.18	32858.78
552.34	33024.96
552.51	33041.34
552.68	33076.45
552.84	33160.71
553.01	33479.02
553.18	33209.86
553.34	33415.83
553.51	33242.63
553.67	33567.96
553.84	33450.94
554.01	33464.98
554.17	33504.77
554.34	33319.87
554.51	33017.94
554.67	33902.66
554.84	33560.94
555.00	33350.29
555.17	33502.43
555.33	33612.43
555.50	33652.22
555.67	33476.68
555.83	33713.08
556.00	33268.37
556.16	33656.90
556.33	33450.94
556.50	33537.54
556.66	33837.12
556.83	33783.29
556.99	34174.16
557.16	34136.71
557.32	34024.37
557.49	33687.33
557.65	33486.04
557.82	33710.74
557.98	33862.87
558.15	33729.46
558.32	33935.43
558.48	33729.46
558.65	34068.84
558.81	34230.33
558.98	33954.15
559.14	34010.32
559.31	34218.63
559.47	33823.08
559.64	34096.92
559.80	33930.75
559.97	33961.17
560.13	34181.18
560.30	34251.40
560.46	34183.52
560.63	33741.16
560.79	34146.08
560.96	34705.46
561.12	34134.37
561.29	33919.04
561.45	33886.28
561.61	34054.79
561.78	34162.46
561.94	34485.45
562.11	34176.50
562.27	34541.63
562.44	34117.99
562.60	34071.18
562.77	33738.82
562.93	34078.20
563.10	34316.93
563.26	34590.78
563.42	34040.75
563.59	34384.81
563.75	34338.00
563.92	34382.47
564.08	34431.62
564.24	34396.51
564.41	34199.91
564.57	34405.88
564.74	34675.04
564.90	34761.64
565.07	34426.94
565.23	34272.46
565.39	34455.03
565.56	34419.92
565.72	34265.44
565.88	34480.77
566.05	34415.24
566.21	34279.49
566.38	34015.01
566.54	34396.51
566.70	34899.73
566.87	34909.09
567.03	34724.19
567.19	35035.48
567.36	34796.74
567.52	34401.19
567.68	34689.08
567.85	34471.41
568.01	34455.03
568.17	34235.02
568.34	34476.09
568.50	34518.22
568.66	34745.25
568.83	34532.26
568.99	34649.29
569.15	34766.32
569.32	34164.80
569.48	34625.89
569.64	34579.07
569.81	34389.49
569.97	34288.85
570.13	34522.90
570.30	34431.62
570.46	34450.35
570.62	34719.51
570.78	34536.94
570.95	34576.73
571.11	34827.17
571.27	34562.69
571.43	34522.90
571.60	34646.95
571.76	34548.65
571.92	34450.35
572.09	34670.36
572.25	34726.53
572.41	35033.14
572.57	34623.54
572.74	35009.73
572.90	34352.04
573.06	34457.37
573.22	34799.08
573.38	34897.39
573.55	35075.27
573.71	34848.24
573.87	34981.65
574.03	34801.43
574.20	34684.40
574.36	34700.78
574.52	34604.82
574.68	34588.44
574.84	34738.23
575.01	35101.01
575.17	34457.37
575.33	34808.45
575.49	34679.72
575.65	34382.47
575.82	35143.14
575.98	34438.64
576.14	34948.88
576.30	34862.28
576.46	34824.83
576.62	34656.31
576.79	34888.03
576.95	34691.42
577.11	34773.34
577.27	34890.37
577.43	35187.61
577.59	34749.93
577.75	34749.93
577.92	34759.30
578.08	34703.12
578.24	34373.11
578.40	35056.54
578.56	35019.10
578.72	35138.46
578.88	35255.49
579.04	35061.22
579.21	34899.73
579.37	35044.84
579.53	34930.16
579.69	34352.04
579.85	34927.81
580.01	35009.73
580.17	34539.29
580.33	35178.25
580.49	34675.04
580.65	35283.58
580.82	34691.42
580.98	34724.19
581.14	34682.06
581.30	34913.77
581.46	34972.28
581.62	34923.13
581.78	34785.04
581.94	34902.07
582.10	34419.92
582.26	34899.73
582.42	34962.92
582.58	35096.33
582.74	34878.66
582.90	35005.05
583.06	34778.02
583.22	34677.38
583.38	34651.63
583.54	35180.59
583.70	34920.79
583.86	35199.32
584.02	34955.90
584.18	34691.42
584.34	34909.09
584.50	35234.42
584.66	34745.25
584.82	34672.70
584.98	34712.49
585.14	35101.01
585.30	34710.14
585.46	34906.75
585.62	34728.87
585.78	34857.60
585.94	34553.33
586.10	34934.84
586.26	34747.59
586.42	35232.08
586.58	35449.75
586.74	34822.49
586.90	35136.12
587.06	34623.54
587.22	34864.62
587.38	34930.16
587.54	35349.11
587.70	35274.21
587.86	35414.65
588.02	35351.45
588.18	35346.77
588.34	35220.38
588.49	34719.51
588.65	35360.81
588.81	34691.42
588.97	35166.55
589.13	34855.26
589.29	35033.14
589.45	35386.56
589.61	34934.84
589.77	35618.27
589.93	35690.83
590.08	35402.94
590.24	35232.08
590.40	35285.92
590.56	35335.07
590.72	35056.54
590.88	34883.34
591.04	35192.30
591.20	35651.04
591.35	35475.50
591.51	35541.03
