SpectraSuite Data File
++++++++++++++++++++++++++++++++++++
Date: Fri Oct 04 11:39:56 GMT-05:00 2013
User: price-jones
Dark Spectrum Present: No
Reference Spectrum Present: No
Number of Sampled Component Spectra: 1
Spectrometers: USB2+H05261
Integration Time (usec): 100000 (USB2+H05261)
Spectra Averaged: 1 (USB2+H05261)
Boxcar Smoothing: 0 (USB2+H05261)
Correct for Electrical Dark: No (USB2+H05261)
Strobe/Lamp Enabled: No (USB2+H05261)
Correct for Detector Non-linearity: No (USB2+H05261)
Correct for Stray Light: No (USB2+H05261)
Number of Pixels in Processed Spectrum: 2048
>>>>>Begin Processed Spectral Data<<<<<
365.73	88.94
365.92	88.94
366.12	88.94
366.32	7.02
366.52	0.00
366.72	0.00
366.91	0.00
367.11	11.70
367.31	0.00
367.51	0.00
367.70	0.00
367.90	0.00
368.10	0.00
368.30	11.70
368.49	0.00
368.69	0.00
368.89	2.34
369.09	0.00
369.28	0.00
369.48	0.00
369.68	0.00
369.87	0.00
370.07	0.00
370.27	46.81
370.47	81.92
370.66	74.90
370.86	114.69
371.06	140.43
371.25	168.52
371.45	44.47
371.65	110.01
371.84	184.90
372.04	163.84
372.24	112.35
372.44	133.41
372.63	142.77
372.83	208.31
373.03	220.01
373.22	205.97
373.42	212.99
373.62	140.43
373.81	187.24
374.01	182.56
374.21	215.33
374.40	194.26
374.60	271.50
374.79	191.92
374.99	217.67
375.19	196.60
375.38	203.63
375.58	245.76
375.78	269.16
375.97	196.60
376.17	248.10
376.37	184.90
376.56	231.71
376.76	140.43
376.95	203.63
377.15	140.43
377.35	205.97
377.54	266.82
377.74	255.12
377.93	252.78
378.13	217.67
378.33	266.82
378.52	194.26
378.72	212.99
378.91	177.88
379.11	196.60
379.31	210.65
379.50	119.37
379.70	231.71
379.89	224.69
380.09	145.11
380.28	180.22
380.48	191.92
380.68	227.03
380.87	154.48
381.07	121.71
381.26	229.37
381.46	252.78
381.65	205.97
381.85	208.31
382.04	297.25
382.24	278.52
382.43	168.52
382.63	191.92
382.83	177.88
383.02	229.37
383.22	234.05
383.41	189.58
383.61	220.01
383.80	168.52
384.00	238.73
384.19	175.54
384.39	184.90
384.58	173.20
384.78	210.65
384.97	266.82
385.17	252.78
385.36	208.31
385.56	259.80
385.75	217.67
385.95	168.52
386.14	299.59
386.34	198.95
386.53	299.59
386.72	285.55
386.92	245.76
387.11	177.88
387.31	210.65
387.50	224.69
387.70	198.95
387.89	280.86
388.09	217.67
388.28	252.78
388.48	266.82
388.67	227.03
388.86	301.93
389.06	273.84
389.25	339.38
389.45	203.63
389.64	234.05
389.84	297.25
390.03	292.57
390.22	285.55
390.42	241.08
390.61	252.78
390.81	227.03
391.00	320.65
391.19	306.61
391.39	238.73
391.58	255.12
391.78	229.37
391.97	276.18
392.16	311.29
392.36	320.65
392.55	255.12
392.75	341.72
392.94	257.46
393.13	306.61
393.33	315.97
393.52	358.10
393.71	334.70
393.91	330.02
394.10	227.03
394.29	404.91
394.49	308.95
394.68	437.68
394.88	287.89
395.07	315.97
395.26	320.65
395.46	379.17
395.65	337.04
395.84	379.17
396.04	383.85
396.23	348.74
396.42	341.72
396.62	397.89
396.81	383.85
397.00	355.76
397.19	374.49
397.39	390.87
397.58	362.78
397.77	339.38
397.97	379.17
398.16	374.49
398.35	430.66
398.55	433.00
398.74	440.02
398.93	482.15
399.12	397.89
399.32	360.44
399.51	449.38
399.70	351.08
399.90	428.32
400.09	461.09
400.28	500.87
400.47	482.15
400.67	486.83
400.86	475.13
401.05	475.13
401.24	454.06
401.44	531.30
401.63	559.39
401.82	613.22
402.01	521.94
402.21	437.68
402.40	463.43
402.59	575.77
402.78	571.09
402.97	559.39
403.17	540.66
403.36	676.41
403.55	568.75
403.74	540.66
403.93	589.82
404.13	667.05
404.32	669.39
404.51	594.50
404.70	606.20
404.89	573.43
405.09	723.23
405.28	624.92
405.47	610.88
405.66	744.29
405.85	695.14
406.05	664.71
406.24	678.76
406.43	770.04
406.62	674.07
406.81	730.25
407.00	697.48
407.20	730.25
407.39	760.67
407.58	720.88
407.77	819.19
407.96	870.68
408.15	763.01
408.34	770.04
408.54	737.27
408.73	826.21
408.92	833.23
409.11	837.91
409.30	840.25
409.49	828.55
409.68	851.96
409.87	938.55
410.07	880.04
410.26	950.26
410.45	910.47
410.64	894.08
410.83	992.39
411.02	961.96
411.21	1078.99
411.40	968.98
411.59	1076.65
411.78	1064.94
411.98	1008.77
412.17	976.00
412.36	973.66
412.55	1006.43
412.74	1071.97
412.93	1132.82
413.12	1102.39
413.31	1249.85
413.50	1153.88
413.69	1217.08
413.88	1245.16
414.07	1130.48
414.26	1228.78
414.45	1160.91
414.64	1165.59
414.83	1226.44
415.02	1210.06
415.22	1270.91
415.41	1324.74
415.60	1198.35
415.79	1284.95
415.98	1371.55
416.17	1432.41
416.36	1313.04
416.55	1343.47
416.74	1387.94
416.93	1420.71
417.12	1392.62
417.31	1380.92
417.50	1427.73
417.69	1481.56
417.88	1497.94
418.07	1509.65
418.26	1469.86
418.45	1458.15
418.64	1551.78
418.83	1514.33
419.02	1469.86
419.21	1488.58
419.39	1565.82
419.58	1537.73
419.77	1600.93
419.96	1544.75
420.15	1643.06
420.34	1570.50
420.53	1540.07
420.72	1652.42
420.91	1860.73
421.10	1570.50
421.29	1795.19
421.48	1624.33
421.67	1736.68
421.86	1678.16
422.05	1654.76
422.24	1720.29
422.43	1739.02
422.61	1626.67
422.80	1893.49
422.99	1806.89
423.18	1811.57
423.37	1785.83
423.56	1746.04
423.75	1783.49
423.94	1806.89
424.13	1636.03
424.32	1673.48
424.50	1825.62
424.69	1795.19
424.88	1820.94
425.07	1732.00
425.26	1743.70
425.45	1832.64
425.64	1795.19
425.83	1743.70
426.01	1884.13
426.20	1844.34
426.39	1788.17
426.58	1806.89
426.77	1741.36
426.96	1806.89
427.15	1877.11
427.33	1891.15
427.52	1893.49
427.71	1923.92
427.90	1914.56
428.09	1923.92
428.28	1940.30
428.46	1966.05
428.65	1914.56
428.84	1975.41
429.03	2010.52
429.22	2036.27
429.40	2078.40
429.59	1959.03
429.78	1923.92
429.97	1966.05
430.16	2017.54
430.34	2036.27
430.53	2069.03
430.72	2127.55
430.91	2094.78
431.10	1968.39
431.28	2019.88
431.47	2129.89
431.66	2132.23
431.85	2033.93
432.03	2019.88
432.22	2312.45
432.41	2101.80
432.60	2181.38
432.79	2232.87
432.97	2354.58
433.16	2176.70
433.35	2237.55
433.54	2120.53
433.72	2377.98
433.91	2157.97
434.10	2305.43
434.28	2129.89
434.47	2293.72
434.66	2345.22
434.85	2305.43
435.03	2450.54
435.22	2609.70
435.41	2693.96
435.59	2696.30
435.78	2602.68
435.97	2422.45
436.16	2434.16
436.34	2342.88
436.53	2354.58
436.72	2420.11
436.90	2377.98
437.09	2401.39
437.28	2394.37
437.46	2347.56
437.65	2424.80
437.84	2401.39
438.02	2513.74
438.21	2516.08
438.40	2469.27
438.58	2471.61
438.77	2583.95
438.96	2527.78
439.14	2628.42
439.33	2459.90
439.52	2544.16
439.70	2747.79
439.89	2633.10
440.08	2736.09
440.26	2579.27
440.45	2829.71
440.63	2708.00
440.82	2768.85
441.01	2815.66
441.19	2729.06
441.38	2829.71
441.57	2715.02
441.75	2808.64
441.94	3014.61
442.12	2869.50
442.31	2827.37
442.50	2949.08
442.68	2771.19
442.87	2911.63
443.05	2864.82
443.24	2916.31
443.43	3040.36
443.61	2871.84
443.80	2965.46
443.98	2928.01
444.17	2775.88
444.35	2970.14
444.54	2956.10
444.73	2951.42
444.91	3056.74
445.10	2958.44
445.28	3040.36
445.47	3007.59
445.65	3005.25
445.84	2988.86
446.02	3012.27
446.21	2991.20
446.39	2874.18
446.58	3007.59
446.77	3213.56
446.95	3126.96
447.14	3035.67
447.32	3220.58
447.51	3091.85
447.69	3185.47
447.88	3131.64
448.06	3026.31
448.25	3042.70
448.43	3236.96
448.62	3052.06
448.80	2991.20
448.99	3159.72
449.17	3049.72
449.36	3143.34
449.54	3061.42
449.73	3133.98
449.91	3222.92
450.10	3176.11
450.28	3218.24
450.46	3323.56
450.65	3295.47
450.83	3405.48
451.02	3304.84
451.20	3337.60
451.39	3330.58
451.57	3332.92
451.76	3311.86
451.94	3428.88
452.13	3304.84
452.31	3400.80
452.49	3396.12
452.68	3363.35
452.86	3431.23
453.05	3508.46
453.23	3506.12
453.42	3304.84
453.60	3527.19
453.78	3391.44
453.97	3361.01
454.15	3424.20
454.34	3417.18
454.52	3480.38
454.70	3449.95
454.89	3644.21
455.07	3428.88
455.26	3517.83
455.44	3604.42
455.62	3590.38
455.81	3442.93
455.99	3655.92
456.17	3447.61
456.36	3471.01
456.54	3653.58
456.73	3707.41
456.91	3831.46
457.09	3742.52
457.28	3824.44
457.46	3815.07
457.64	3726.13
457.83	3723.79
458.01	3812.73
458.19	3669.96
458.38	3801.03
458.56	3817.41
458.74	3761.24
458.93	3901.67
459.11	3765.92
459.29	3969.55
459.48	3763.58
459.66	4004.66
459.84	3941.46
460.03	3941.46
460.21	3920.40
460.39	3864.22
460.57	3906.35
460.76	4004.66
460.94	3887.63
461.12	3948.48
461.31	3978.91
461.49	4037.42
461.67	4128.70
461.85	4161.47
462.04	4154.45
462.22	4484.47
462.40	4217.65
462.59	4053.81
462.77	4037.42
462.95	4072.53
463.13	4170.83
463.32	4234.03
463.50	4255.09
463.68	4219.99
463.86	4219.99
464.05	4088.92
464.23	4121.68
464.41	4337.01
464.59	4234.03
464.78	4250.41
464.96	4173.18
465.14	4191.90
465.32	4212.96
465.50	4456.38
465.69	4325.31
465.87	4374.46
466.05	4313.61
466.23	4161.47
466.41	4250.41
466.60	4383.82
466.78	4243.39
466.96	4306.59
467.14	4278.50
467.32	4365.10
467.51	4428.29
467.69	4353.40
467.87	4503.19
468.05	4519.57
468.23	4367.44
468.41	4456.38
468.60	4421.27
468.78	4596.81
468.96	4503.19
469.14	4514.89
469.32	4465.74
469.50	4472.76
469.69	4559.36
469.87	4676.39
470.05	4608.51
470.23	4788.74
470.41	4660.01
470.59	4641.28
470.77	4781.71
470.95	4713.84
471.14	4767.67
471.32	4643.62
471.50	4844.91
471.68	4784.06
471.86	4861.29
472.04	4854.27
472.22	4926.83
472.40	4758.31
472.58	4910.44
472.77	4828.53
472.95	4957.25
473.13	5055.56
473.31	4971.30
473.49	4968.96
473.67	5020.45
473.85	4891.72
474.03	5043.85
474.21	5004.07
474.39	5153.86
474.57	5085.98
474.75	5320.04
474.93	5277.91
475.12	5181.95
475.30	5217.05
475.48	5385.57
475.66	5282.59
475.84	5195.99
476.02	5441.75
476.20	5472.17
476.38	5303.65
476.56	5671.12
476.74	5614.95
476.92	5504.94
477.10	5472.17
477.28	5659.42
477.46	5650.05
477.64	5760.06
477.82	5741.33
478.00	5954.32
478.18	5774.10
478.36	5785.80
478.54	5959.00
478.72	5982.41
478.90	6045.60
479.08	5973.05
479.26	6022.20
479.44	6214.12
479.62	6202.42
479.80	6094.76
479.98	6225.82
480.16	6359.24
480.34	6359.24
480.52	6406.05
480.70	6604.99
480.88	6363.92
481.06	6520.73
481.24	6473.92
481.41	6619.04
481.59	6651.80
481.77	6726.70
481.95	6794.58
482.13	6876.49
482.31	6764.15
482.49	6939.69
482.67	7122.25
482.85	7054.37
483.03	7101.19
483.21	7164.38
483.39	7295.45
483.57	7152.68
483.74	7405.46
483.92	7396.09
484.10	7265.02
484.28	7548.23
484.46	7751.85
484.64	7808.03
484.82	7599.72
485.00	7843.14
485.18	7967.18
485.35	7974.21
485.53	7922.71
485.71	7950.80
485.89	8093.57
486.07	7882.92
486.25	8119.32
486.43	8182.51
486.61	8142.72
486.78	8402.52
486.96	8341.67
487.14	8241.03
487.32	8496.14
487.50	8498.49
487.68	8659.98
487.85	8533.59
488.03	8887.01
488.21	8990.00
488.39	8915.10
488.57	8943.19
488.75	9053.19
488.92	9315.33
489.10	9067.24
489.28	9355.12
489.46	9233.41
489.64	9245.12
489.81	9593.86
489.99	9455.76
490.17	9481.51
490.35	9483.85
490.53	9701.52
490.70	9593.86
490.88	9731.95
491.06	9607.90
491.24	9900.47
491.41	9753.01
491.59	9956.64
491.77	10019.83
491.95	10036.22
492.13	10099.41
492.30	10225.80
492.48	10558.16
492.66	10497.30
492.84	10377.94
493.01	10448.15
493.19	10532.41
493.37	10473.90
493.54	10588.58
493.72	10780.51
493.90	10637.73
494.08	10771.15
494.25	10782.85
494.43	11016.90
494.61	10829.66
494.79	11171.38
494.96	10867.11
495.14	11103.50
495.32	11323.51
495.49	11307.13
495.67	11328.19
495.85	11417.13
496.02	11702.68
496.20	11447.56
496.38	11480.33
496.55	11538.84
496.73	11770.55
496.91	11688.64
497.09	11800.98
497.26	11920.35
497.44	11723.74
497.62	11777.58
497.79	12100.57
497.97	11815.02
498.14	12170.79
498.32	12343.99
498.50	12203.55
498.67	12627.19
498.85	12156.74
499.03	12491.44
499.20	12507.82
499.38	12613.15
499.56	12542.93
499.73	12830.82
499.91	12662.30
500.08	12868.27
500.26	12582.72
500.44	12622.51
500.61	12800.39
500.79	12784.01
500.97	12828.48
501.14	12933.80
501.32	13081.25
501.49	13085.94
501.67	12929.12
501.84	13048.49
502.02	13123.38
502.20	13170.19
502.37	13422.97
502.55	13357.44
502.72	13540.00
502.90	13128.06
503.07	13235.73
503.25	13556.38
503.43	13523.62
503.60	13439.36
503.78	13652.34
503.95	13624.26
504.13	13717.88
504.30	13841.93
504.48	13736.60
504.65	13788.10
504.83	13823.20
505.01	13933.21
505.18	13928.53
505.36	14026.83
505.53	13635.96
505.71	14019.81
505.88	14171.94
506.06	14005.77
506.23	14274.93
506.41	14284.29
506.58	14487.92
506.76	14190.67
506.93	14256.20
507.11	14230.46
507.28	14148.54
507.46	14349.82
507.63	14665.80
507.81	14513.66
507.98	14651.75
508.16	14480.89
508.33	14696.22
508.50	14724.31
508.68	14853.04
508.85	15166.67
509.03	14728.99
509.20	14970.07
509.38	15169.01
509.55	14836.66
509.73	15194.76
509.90	15260.29
510.08	14993.47
510.25	15293.06
510.42	15084.75
510.60	15459.24
510.77	15557.54
510.95	15407.75
511.12	15344.55
511.30	15363.28
511.47	15655.84
511.64	15527.11
511.82	15719.04
511.99	15826.70
512.17	15807.98
512.34	15445.20
512.51	15915.64
512.69	15908.62
512.86	15747.12
513.04	15910.96
513.21	15861.81
513.38	15927.35
513.56	16194.17
513.73	16004.58
513.90	16264.38
514.08	16084.16
514.25	16273.74
514.43	16086.50
514.60	16325.24
514.77	16439.92
514.95	16528.86
515.12	16285.45
515.29	16484.39
515.47	16533.54
515.64	16702.06
515.81	16734.83
515.99	16629.51
516.16	16596.74
516.33	16791.00
516.51	16758.24
516.68	16685.68
516.85	16753.55
517.03	16966.54
517.20	17034.42
517.37	17128.04
517.54	17153.79
517.72	17233.36
517.89	16730.15
518.06	16926.75
518.24	16676.32
518.41	17160.81
518.58	17137.40
518.75	17011.01
518.93	17139.74
519.10	17212.30
519.27	17516.57
519.45	17635.94
519.62	17270.81
519.79	17465.08
519.96	17294.22
520.14	17556.36
520.31	17441.67
520.48	17638.28
520.65	17710.83
520.83	17642.96
521.00	17825.52
521.17	17591.47
521.34	17666.36
521.52	17762.33
521.69	17804.46
521.86	18253.84
522.03	17750.62
522.20	18047.87
522.38	18200.01
522.55	17785.73
522.72	18136.81
522.89	18024.47
523.07	18427.04
523.24	18258.52
523.41	18572.15
523.58	18246.82
523.75	18305.33
523.92	18162.56
524.10	18352.14
524.27	18611.94
524.44	18417.68
524.61	18480.87
524.78	18640.03
524.96	18476.19
525.13	18747.69
525.30	18672.79
525.47	18913.87
525.64	18810.89
525.81	18827.27
525.98	18499.59
526.16	18754.71
526.33	18855.36
526.50	19023.87
526.67	18883.44
526.84	18658.75
527.01	18768.76
527.18	18941.96
527.36	19215.80
527.53	19009.83
527.70	19274.31
527.87	19133.88
528.04	19080.05
528.21	19192.39
528.38	18977.06
528.55	19222.82
528.72	19161.97
528.89	19342.19
529.07	19112.81
529.24	19147.92
529.41	19168.99
529.58	19077.71
529.75	18970.04
529.92	19271.97
530.09	19304.74
530.26	19440.49
530.43	19419.42
530.60	19293.04
530.77	19281.33
530.94	19433.47
531.11	19393.68
531.28	19571.56
531.46	19337.51
531.63	19910.94
531.80	19709.65
531.97	20004.56
532.14	19960.09
532.31	19417.08
532.48	19585.60
532.65	20063.07
532.82	19662.84
532.99	19805.61
533.16	19772.85
533.33	20077.12
533.50	20060.73
533.67	19939.02
533.84	19822.00
534.01	20119.24
534.18	20016.26
534.35	20049.03
534.52	20152.01
534.69	20264.36
534.86	20269.04
535.03	20266.70
535.20	20552.24
535.37	20657.57
535.54	20252.66
535.71	20107.54
535.88	20255.00
536.05	20545.22
536.22	20327.55
536.38	20545.22
536.55	20336.91
536.72	20297.13
536.89	20299.47
537.06	20390.75
537.23	20662.25
537.40	20416.49
537.57	20360.32
537.74	20503.09
537.91	20659.91
538.08	20903.32
538.25	20725.44
538.42	20922.05
538.59	21195.89
538.75	20680.97
538.92	20854.17
539.09	20814.38
539.26	20973.54
539.43	21050.78
539.60	20915.03
539.77	20936.09
539.94	21563.36
540.11	21184.19
540.28	21231.00
540.44	21158.44
540.61	21039.08
540.78	21252.06
540.95	21504.84
541.12	21294.19
541.29	21483.78
541.46	21759.96
541.62	21493.14
541.79	22068.91
541.96	21626.55
542.13	21558.67
542.30	21752.94
542.47	21605.49
542.63	21729.53
542.80	21986.99
542.97	21626.55
543.14	21509.52
543.31	21788.05
543.48	21759.96
543.64	21902.73
543.81	21862.94
543.98	22307.65
544.15	22127.42
544.32	22113.38
544.48	22141.47
544.65	22029.12
544.82	21907.41
544.99	21785.71
545.16	21909.75
545.32	21799.75
545.49	22745.33
545.66	23360.89
545.83	23077.68
546.00	22937.25
546.16	22780.43
546.33	22223.39
546.50	22092.32
546.67	21914.44
546.83	21851.24
547.00	22148.49
547.17	22298.28
547.34	22309.99
547.50	22204.66
547.67	22448.08
547.84	22286.58
548.00	22092.32
548.17	22656.39
548.34	22022.10
548.51	22508.93
548.67	22476.16
548.84	22356.80
549.01	22192.96
549.18	22211.68
549.34	22401.27
549.51	22436.38
549.68	22359.14
549.84	22347.44
550.01	22422.33
550.18	22295.94
550.34	22405.95
550.51	22544.04
550.68	22590.85
550.84	22377.86
551.01	22602.55
551.18	22279.56
551.34	22314.67
551.51	21979.97
551.68	22466.80
551.84	22490.21
552.01	22513.61
552.18	22530.00
552.34	22302.96
552.51	22382.54
552.68	22246.79
552.84	22476.16
553.01	22717.24
553.18	22457.44
553.34	22609.58
553.51	22539.36
553.67	22815.54
553.84	22906.82
554.01	22742.99
554.17	22670.43
554.34	22689.15
554.51	22431.69
554.67	22548.72
554.84	22527.66
555.00	22775.75
555.17	22623.62
555.33	22506.59
555.50	22595.53
555.67	22932.57
555.83	22553.40
556.00	22815.54
556.16	23129.17
556.33	22876.40
556.50	22663.41
556.66	22672.77
556.83	22752.35
556.99	22773.41
557.16	22906.82
557.32	22939.59
557.49	23040.23
557.65	22583.83
557.82	22698.52
557.98	22480.85
558.15	22958.31
558.32	22742.99
558.48	22951.29
558.65	23091.73
558.81	22747.67
558.98	22878.74
559.14	23119.81
559.31	22771.07
559.47	22693.83
559.64	22827.24
559.80	22848.31
559.97	22735.96
560.13	22902.14
560.30	22937.25
560.46	23236.84
560.63	22902.14
560.79	23098.75
560.96	22955.97
561.12	22895.12
561.29	23293.01
561.45	23171.30
561.61	23030.87
561.78	23140.88
561.94	22993.42
562.11	23250.88
562.27	23164.28
562.44	23087.04
562.60	23157.26
562.77	22869.37
562.93	23028.53
563.10	22827.24
563.26	22937.25
563.42	23398.34
563.59	23185.35
563.75	23070.66
563.92	23405.36
564.08	22881.08
564.24	23250.88
564.41	23260.24
564.57	22874.06
564.74	23250.88
564.90	23520.04
565.07	23344.50
565.23	23506.00
565.39	23028.53
565.56	23601.96
565.72	23318.76
565.88	23180.67
566.05	23173.64
566.21	23063.64
566.38	23040.23
566.54	23316.42
566.70	23365.57
566.87	23384.29
567.03	23047.26
567.19	23435.78
567.36	23262.58
567.52	23260.24
567.68	22752.35
567.85	22899.80
568.01	23201.73
568.17	23098.75
568.34	23332.80
568.50	22867.03
568.66	23161.94
568.83	23398.34
568.99	22986.40
569.15	23304.71
569.32	23124.49
569.48	23204.07
569.64	23288.33
569.81	23379.61
569.97	23241.52
570.13	23112.79
570.30	23253.22
570.46	23098.75
570.62	23211.09
570.78	23487.28
570.95	23166.62
571.11	23173.64
571.27	22848.31
571.43	23009.81
571.60	23246.20
571.76	23524.72
571.92	23290.67
572.09	23477.91
572.25	23295.35
572.41	23489.62
572.57	23328.12
572.74	23232.16
572.90	23187.69
573.06	23082.36
573.22	22960.66
573.38	23264.92
573.55	23447.49
573.71	23772.82
573.87	23400.68
574.03	23267.27
574.20	23185.35
574.36	23295.35
574.52	23260.24
574.68	23061.30
574.84	23035.55
575.01	23569.19
575.17	23234.50
575.33	23412.38
575.49	23484.94
575.65	23648.77
575.82	23332.80
575.98	23325.78
576.14	23323.44
576.30	23447.49
576.46	23669.84
576.62	23349.18
576.79	23185.35
576.95	23332.80
577.11	23421.74
577.27	23463.87
577.43	23634.73
577.59	23372.59
577.75	23611.32
577.92	23089.38
578.08	23225.14
578.24	23445.15
578.40	23463.87
578.56	23293.01
578.72	23438.12
578.88	23833.68
579.04	23761.12
579.21	23246.20
579.37	23580.90
579.53	23484.94
579.69	23012.15
579.85	23367.91
580.01	23269.61
580.17	23445.15
580.33	23180.67
580.49	23253.22
580.65	23531.75
580.82	23548.13
580.98	23304.71
581.14	23433.44
581.30	23473.23
581.46	23494.30
581.62	23639.41
581.78	23585.58
581.94	23421.74
582.10	23524.72
582.26	23796.23
582.42	23744.73
582.58	23562.17
582.74	23456.85
582.90	23751.76
583.06	23859.42
583.22	23353.87
583.38	23494.30
583.54	23496.64
583.70	23288.33
583.86	23302.37
584.02	23374.93
584.18	23510.68
584.34	23578.56
584.50	23840.70
584.66	23278.97
584.82	23260.24
584.98	23452.17
585.14	23274.29
585.30	23152.58
585.46	23522.38
585.62	23370.25
585.78	23756.44
585.94	23597.28
586.10	23590.26
586.26	23931.98
586.42	23747.08
586.58	23651.11
586.74	23438.12
586.90	23384.29
587.06	23646.43
587.22	23555.15
587.38	23349.18
587.54	23697.92
587.70	23552.81
587.86	23899.21
588.02	23597.28
588.18	23426.42
588.34	23669.84
588.49	23419.40
588.65	23381.95
588.81	23122.15
588.97	23611.32
589.13	23257.90
589.29	23613.66
589.45	23585.58
589.61	23594.94
589.77	23761.12
589.93	23431.10
590.08	23529.41
590.24	23637.07
590.40	23707.29
590.56	23674.52
590.72	23496.64
590.88	23580.90
591.04	23772.82
591.20	23726.01
591.35	23838.36
591.51	23887.51
591.67	23880.49
591.83	23714.31
591.99	23784.52
592.15	23749.42
592.31	23594.94
