SpectraSuite Data File
++++++++++++++++++++++++++++++++++++
Date: Fri Oct 04 11:39:22 GMT-05:00 2013
User: price-jones
Dark Spectrum Present: No
Reference Spectrum Present: No
Number of Sampled Component Spectra: 1
Spectrometers: USB2+H05261
Integration Time (usec): 100000 (USB2+H05261)
Spectra Averaged: 1 (USB2+H05261)
Boxcar Smoothing: 0 (USB2+H05261)
Correct for Electrical Dark: No (USB2+H05261)
Strobe/Lamp Enabled: No (USB2+H05261)
Correct for Detector Non-linearity: No (USB2+H05261)
Correct for Stray Light: No (USB2+H05261)
Number of Pixels in Processed Spectrum: 2048
>>>>>Begin Processed Spectral Data<<<<<
365.73	72.56
365.92	72.56
366.12	72.56
366.32	0.00
366.52	9.36
366.72	21.06
366.91	0.00
367.11	0.00
367.31	0.00
367.51	0.00
367.70	0.00
367.90	0.00
368.10	0.00
368.30	0.00
368.49	0.00
368.69	0.00
368.89	0.00
369.09	0.00
369.28	0.00
369.48	0.00
369.68	0.00
369.87	2.34
370.07	0.00
370.27	30.43
370.47	105.32
370.66	220.01
370.86	262.14
371.06	241.08
371.25	301.93
371.45	222.35
371.65	362.78
371.84	315.97
372.04	276.18
372.24	383.85
372.44	365.12
372.63	376.83
372.83	327.68
373.03	337.04
373.22	315.97
373.42	330.02
373.62	442.36
373.81	330.02
374.01	414.27
374.21	421.30
374.40	390.87
374.60	402.57
374.79	395.55
374.99	402.57
375.19	400.23
375.38	388.53
375.58	367.46
375.78	458.74
375.97	425.98
376.17	353.42
376.37	430.66
376.56	388.53
376.76	390.87
376.95	383.85
377.15	503.22
377.35	482.15
377.54	393.21
377.74	402.57
377.93	479.81
378.13	545.34
378.33	491.51
378.52	449.38
378.72	440.02
378.91	404.91
379.11	486.83
379.31	407.25
379.50	451.72
379.70	472.79
379.89	428.32
380.09	482.15
380.28	451.72
380.48	486.83
380.68	493.85
380.87	496.19
381.07	519.60
381.26	512.58
381.46	472.79
381.65	447.04
381.85	451.72
382.04	493.85
382.24	519.60
382.43	550.03
382.63	491.51
382.83	557.05
383.02	575.77
383.22	608.54
383.41	561.73
383.61	573.43
383.80	596.84
384.00	622.58
384.19	531.30
384.39	559.39
384.58	592.16
384.78	608.54
384.97	685.78
385.17	587.47
385.36	608.54
385.56	601.52
385.75	554.71
385.95	575.77
386.14	599.18
386.34	615.56
386.53	606.20
386.72	606.20
386.92	683.44
387.11	596.84
387.31	608.54
387.50	573.43
387.70	594.50
387.89	552.37
388.09	592.16
388.28	561.73
388.48	559.39
388.67	676.41
388.86	671.73
389.06	748.97
389.25	645.99
389.45	601.52
389.64	662.37
389.84	702.16
390.03	664.71
390.22	634.29
390.42	718.54
390.61	643.65
390.81	692.80
391.00	711.52
391.19	608.54
391.39	720.88
391.58	828.55
391.78	683.44
391.97	688.12
392.16	734.93
392.36	798.12
392.55	725.57
392.75	730.25
392.94	809.83
393.13	795.78
393.33	807.48
393.52	826.21
393.71	812.17
393.91	802.80
394.10	793.44
394.29	861.32
394.49	837.91
394.68	866.00
394.88	823.87
395.07	854.30
395.26	858.98
395.46	821.53
395.65	1039.20
395.84	898.77
396.04	945.58
396.23	968.98
396.42	863.66
396.62	997.07
396.81	917.49
397.00	875.36
397.19	945.58
397.39	943.24
397.58	1011.11
397.77	999.41
397.97	954.94
398.16	1008.77
398.35	1062.60
398.55	1048.56
398.74	1086.01
398.93	1039.20
399.12	1041.54
399.32	1107.07
399.51	1032.18
399.70	1158.57
399.90	1027.50
400.09	1060.26
400.28	1109.41
400.47	1048.56
400.67	1093.03
400.86	1165.59
401.05	1172.61
401.24	1174.95
401.44	1270.91
401.63	1203.04
401.82	1188.99
402.01	1160.91
402.21	1186.65
402.40	1261.55
402.59	1261.55
402.78	1289.64
402.97	1315.38
403.17	1284.95
403.36	1317.72
403.55	1249.85
403.74	1376.24
403.93	1458.15
404.13	1322.40
404.32	1413.68
404.51	1394.96
404.70	1537.73
404.89	1411.34
405.09	1462.83
405.28	1441.77
405.47	1420.71
405.66	1551.78
405.85	1446.45
406.05	1493.26
406.24	1497.94
406.43	1479.22
406.62	1528.37
406.81	1717.95
407.00	1451.13
407.20	1610.29
407.39	1624.33
407.58	1652.42
407.77	1659.44
407.96	1680.50
408.15	1647.74
408.34	1626.67
408.54	1643.06
408.73	1640.72
408.92	1687.53
409.11	1724.97
409.30	1788.17
409.49	1804.55
409.68	1818.60
409.87	1891.15
410.07	1813.92
410.26	1827.96
410.45	1806.89
410.64	1886.47
410.83	1942.64
411.02	1977.75
411.21	2022.22
411.40	1921.58
411.59	2076.06
411.78	1982.43
411.98	1947.33
412.17	2069.03
412.36	2038.61
412.55	2101.80
412.74	2256.28
412.93	2143.93
413.12	2120.53
413.31	2221.17
413.50	2183.72
413.69	2216.49
413.88	2457.56
414.07	2291.38
414.26	2328.83
414.45	2345.22
414.64	2382.67
414.83	2516.08
415.02	2483.31
415.22	2462.24
415.41	2607.36
415.60	2574.59
415.79	2586.29
415.98	2593.31
416.17	2630.76
416.36	2569.91
416.55	2649.49
416.74	2626.08
416.93	2792.26
417.12	2661.19
417.31	2792.26
417.50	2745.45
417.69	2780.56
417.88	2974.82
418.07	2801.62
418.26	2689.28
418.45	2867.16
418.64	2897.58
418.83	2885.88
419.02	2951.42
419.21	2937.37
419.39	3002.91
419.58	2993.55
419.77	2937.37
419.96	3087.17
420.15	3194.83
420.34	2979.50
420.53	3070.78
420.72	3185.47
420.91	3155.04
421.10	3035.67
421.29	3260.37
421.48	3152.70
421.67	3208.87
421.86	3215.90
422.05	3297.81
422.24	3269.73
422.43	3269.73
422.61	3363.35
422.80	3248.66
422.99	3262.71
423.18	3440.59
423.37	3393.78
423.56	3445.27
423.75	3211.22
423.94	3246.32
424.13	3176.11
424.32	3190.15
424.50	3424.20
424.69	3400.80
424.88	3534.21
425.07	3475.70
425.26	3471.01
425.45	3332.92
425.64	3522.51
425.83	3295.47
426.01	3618.47
426.20	3349.31
426.39	3421.86
426.58	3545.91
426.77	3471.01
426.96	3562.30
427.15	3508.46
427.33	3566.98
427.52	3562.30
427.71	3723.79
427.90	3681.66
428.09	3653.58
428.28	3653.58
428.46	3688.68
428.65	3777.62
428.84	3742.52
429.03	3908.69
429.22	3740.18
429.40	3684.00
429.59	3723.79
429.78	3548.25
429.97	3712.09
430.16	3866.56
430.34	3880.61
430.53	3866.56
430.72	3859.54
430.91	3831.46
431.10	3864.22
431.28	3943.80
431.47	3969.55
431.66	3988.27
431.85	4021.04
432.03	4007.00
432.22	4238.71
432.41	3983.59
432.60	4070.19
432.79	4042.11
432.97	4049.13
433.16	4201.26
433.35	4236.37
433.54	4245.73
433.72	3992.95
433.91	4360.42
434.10	4222.33
434.28	4262.12
434.47	4231.69
434.66	4306.59
434.85	4292.54
435.03	4407.23
435.22	4519.57
435.41	4793.42
435.59	4898.74
435.78	4688.09
435.97	4432.97
436.16	4554.68
436.34	4425.95
436.53	4479.79
436.72	4615.54
436.90	4500.85
437.09	4503.19
437.28	4559.36
437.46	4624.90
437.65	4594.47
437.84	4692.77
438.02	4641.28
438.21	4552.34
438.40	4739.58
438.58	4863.63
438.77	4912.78
438.96	4887.04
439.14	4863.63
439.33	4952.57
439.52	4882.36
439.70	5095.35
439.89	5053.22
440.08	5069.60
440.26	5123.43
440.45	5142.16
440.63	5198.33
440.82	5181.95
441.01	5181.95
441.19	5217.05
441.38	5275.57
441.57	5383.23
441.75	5526.00
441.94	5556.43
442.12	5465.15
442.31	5631.33
442.50	5486.22
442.68	5558.77
442.87	5549.41
443.05	5673.46
443.24	5540.05
443.43	5558.77
443.61	5675.80
443.80	5916.87
443.98	5687.50
444.17	5397.28
444.35	5832.62
444.54	5802.19
444.73	5879.43
444.91	5706.23
445.10	5748.36
445.28	5724.95
445.47	5596.22
445.65	5762.40
445.84	5841.98
446.02	5834.96
446.21	5839.64
446.39	5734.31
446.58	5912.19
446.77	5760.06
446.95	5867.72
447.14	5881.77
447.32	5830.27
447.51	5825.59
447.69	5844.32
447.88	5844.32
448.06	5778.78
448.25	5860.70
448.43	5942.62
448.62	5856.02
448.80	5870.06
448.99	5944.96
449.17	6150.93
449.36	6221.14
449.54	6155.61
449.73	6253.91
449.91	6225.82
450.10	6181.35
450.28	6237.53
450.46	6272.64
450.65	6267.95
450.83	6324.13
451.02	6223.48
451.20	6338.17
451.39	6392.00
451.57	6300.72
451.76	6289.02
451.94	6197.74
452.13	6527.75
452.31	6476.26
452.49	6548.82
452.68	6593.29
452.86	6331.15
453.05	6525.41
453.23	6565.20
453.42	6576.91
453.60	6504.35
453.78	6394.34
453.97	6506.69
454.15	6457.54
454.34	6478.60
454.52	6654.14
454.70	6670.53
454.89	6722.02
455.07	6740.74
455.26	6927.99
455.44	6750.10
455.62	6986.50
455.81	6754.79
455.99	6925.65
456.17	7068.42
456.36	6967.77
456.54	7091.82
456.73	6932.67
456.91	7173.74
457.09	7290.77
457.28	7265.02
457.46	7152.68
457.64	7351.62
457.83	7227.57
458.01	7150.34
458.19	7328.22
458.38	7250.98
458.56	7332.90
458.74	7461.63
458.93	7286.09
459.11	7384.39
459.29	7321.20
459.48	7328.22
459.66	7571.63
459.84	7583.34
460.03	7674.62
460.21	7527.16
460.39	7726.11
460.57	7482.69
460.76	7770.58
460.94	7866.54
461.12	7815.05
461.31	7712.07
461.49	7630.15
461.67	7515.46
461.85	7765.90
462.04	7911.01
462.22	8119.32
462.40	7995.27
462.59	8088.89
462.77	7875.90
462.95	8121.66
463.13	7992.93
463.32	8035.06
463.50	8102.93
463.68	8131.02
463.86	8060.80
464.05	7941.44
464.23	8222.30
464.41	8102.93
464.59	8140.38
464.78	8367.42
464.96	8037.40
465.14	8149.75
465.32	8451.67
465.50	8458.70
465.69	8512.53
465.87	8341.67
466.05	8486.78
466.23	8308.90
466.41	8425.93
466.60	8421.25
466.78	8411.89
466.96	8409.54
467.14	8248.05
467.32	8493.80
467.51	8702.11
467.69	8224.64
467.87	8627.21
468.05	8744.24
468.23	8648.28
468.41	8594.45
468.60	8582.74
468.78	8709.13
468.96	8664.66
469.14	8875.31
469.32	8968.93
469.50	8769.99
469.69	8901.06
469.87	8994.68
470.05	9074.26
470.23	8957.23
470.41	9011.06
470.59	9245.12
470.77	9111.71
470.95	9174.90
471.14	9114.05
471.32	9057.87
471.50	9446.40
471.68	9366.82
471.86	9497.89
472.04	9423.00
472.22	9671.09
472.40	9401.93
472.58	9561.09
472.77	9689.82
472.95	9947.28
473.13	10036.22
473.31	9605.56
473.49	9605.56
473.67	9888.76
473.85	9806.84
474.03	9996.43
474.21	9951.96
474.39	10162.61
474.57	10303.04
474.75	10244.52
474.93	10270.27
475.12	10113.45
475.30	10286.65
475.48	10274.95
475.66	10289.00
475.84	10394.32
476.02	10469.22
476.20	10590.92
476.38	10778.17
476.56	10750.08
476.74	10951.37
476.92	10822.64
477.10	10787.53
477.28	11204.14
477.46	11222.87
477.64	11206.48
477.82	11463.94
478.00	11779.92
478.18	11489.69
478.36	11655.87
478.54	11719.06
478.72	12107.59
478.90	11960.14
479.08	11901.62
479.26	12266.75
479.44	12149.72
479.62	12400.16
479.80	12271.43
479.98	12451.65
480.16	12776.98
480.34	12416.54
480.52	12643.57
480.70	12641.23
480.88	12423.56
481.06	12966.57
481.24	12603.78
481.41	13060.19
481.59	13090.62
481.77	13500.21
481.95	13394.89
482.13	13504.89
482.31	13422.97
482.49	13755.33
482.67	13692.13
482.85	13998.74
483.03	14319.40
483.21	14429.40
483.39	14478.55
483.57	14298.33
483.74	14436.42
483.92	14555.79
484.10	14314.72
484.28	15154.97
484.46	15051.99
484.64	15222.84
484.82	15042.62
485.00	15133.90
485.18	15419.45
485.35	15655.84
485.53	15730.74
485.71	15679.25
485.89	15976.50
486.07	15971.82
486.25	16250.34
486.43	16350.98
486.61	16154.38
486.78	16517.16
486.96	16725.47
487.14	16823.77
487.32	16816.75
487.50	16959.52
487.68	16870.58
487.85	17092.93
488.03	17678.07
488.21	17762.33
488.39	18012.76
488.57	17675.73
488.75	17661.68
488.92	18157.88
489.10	18431.72
489.28	18148.51
489.46	18586.19
489.64	18499.59
489.81	18965.36
489.99	18988.77
490.17	19026.21
490.35	19311.76
490.53	19248.57
490.70	19412.40
490.88	19613.69
491.06	19728.38
491.24	19438.15
491.41	19634.75
491.59	20112.22
491.77	20269.04
491.95	20517.14
492.13	20423.51
492.30	20428.20
492.48	20535.86
492.66	20723.10
492.84	20753.53
493.01	21130.36
493.19	21193.55
493.37	21280.15
493.54	21530.59
493.72	21689.74
493.90	21563.36
494.08	21565.70
494.25	21942.52
494.43	21919.12
494.61	22192.96
494.79	22162.53
494.96	22574.47
495.14	22214.02
495.32	22590.85
495.49	22532.34
495.67	22712.56
495.85	22560.42
496.02	23290.67
496.20	23171.30
496.38	23129.17
496.55	23183.01
496.73	23882.83
496.91	23726.01
497.09	23751.76
497.26	24063.05
497.44	23606.64
497.62	24046.66
497.79	24372.00
497.97	24407.11
498.14	24421.15
498.32	24746.48
498.50	24858.83
498.67	24783.93
498.85	24704.35
499.03	25151.40
499.20	25390.13
499.38	25055.43
499.56	25432.26
499.73	25551.63
499.91	25781.00
500.08	25729.51
500.26	25624.18
500.44	25869.94
500.61	26103.99
500.79	25724.83
500.97	26139.10
501.14	26492.52
501.32	26464.44
501.49	26045.48
501.67	26309.96
501.84	26700.83
502.02	26773.39
502.20	26939.57
502.37	27285.97
502.55	26719.56
502.72	26895.10
502.90	26948.93
503.07	27037.87
503.25	27337.46
503.43	27489.59
503.60	27721.30
503.78	27522.36
503.95	27307.03
504.13	27484.91
504.30	27941.32
504.48	27749.39
504.65	28151.96
504.83	27950.68
505.01	28423.47
505.18	28027.92
505.36	28753.48
505.53	28423.47
505.71	28638.80
505.88	28369.63
506.06	28364.95
506.23	28903.28
506.41	28739.44
506.58	29095.20
506.76	29024.98
506.93	29219.25
507.11	29013.28
507.28	29418.19
507.46	29240.31
507.63	29612.46
507.81	29757.57
507.98	29397.13
508.16	29331.59
508.33	29855.87
508.50	30314.62
508.68	30167.16
508.85	30567.40
509.03	30286.53
509.20	30132.06
509.38	30768.68
509.55	30459.73
509.73	30677.40
509.90	30632.93
510.08	30724.21
510.25	30700.81
510.42	30417.60
510.60	30925.50
510.77	31384.24
510.95	31211.04
511.12	31274.24
511.30	30820.17
511.47	31321.05
511.64	31887.46
511.82	31983.42
511.99	31852.35
512.17	32154.28
512.34	31929.59
512.51	32334.50
512.69	32020.87
512.86	31999.80
513.04	32510.04
513.21	32336.84
513.38	32236.20
513.56	32446.85
513.73	32149.60
513.90	32374.29
514.08	32580.26
514.25	33064.75
514.43	32704.31
514.60	32980.49
514.77	33057.73
514.95	33596.05
515.12	32816.65
515.29	32814.31
515.47	33123.26
515.64	33366.68
515.81	33362.00
515.99	33982.24
516.16	33710.74
516.33	33865.21
516.51	34270.12
516.68	33839.47
516.85	33532.86
517.03	33977.56
517.20	34345.02
517.37	34253.74
517.54	34440.98
517.72	34466.73
517.89	34157.78
518.06	34089.90
518.24	34494.82
518.41	34642.27
518.58	34162.46
518.75	34419.92
518.93	34696.10
519.10	34742.91
519.27	35431.03
519.45	34792.06
519.62	35360.81
519.79	35143.14
519.96	35175.91
520.14	35239.11
520.31	35335.07
520.48	35849.99
520.65	35398.26
520.83	35931.90
521.00	35955.31
521.17	35552.74
521.34	35775.09
521.52	35531.67
521.69	35948.29
521.86	36039.57
522.03	36116.81
522.20	36641.09
522.38	36498.31
522.55	36285.33
522.72	36285.33
522.89	36292.35
523.07	36781.52
523.24	36680.88
523.41	36898.55
523.58	36624.70
523.75	37324.52
523.92	37254.31
524.10	37170.05
524.27	37390.06
524.44	37315.16
524.61	37656.88
524.78	37457.93
524.96	37656.88
525.13	38094.56
525.30	37848.80
525.47	37244.94
525.64	37436.87
525.81	37923.70
525.98	38391.81
526.16	37975.19
526.33	37991.58
526.50	38174.14
526.67	37804.33
526.84	37766.88
527.01	38096.90
527.18	38094.56
527.36	38225.63
527.53	38185.84
527.70	38808.42
527.87	38534.58
528.04	38927.79
528.21	38843.53
528.38	38815.44
528.55	38557.99
528.72	38747.57
528.89	39227.38
529.07	39030.77
529.24	38754.59
529.41	39164.18
529.58	39164.18
529.75	39056.52
529.92	39056.52
530.09	39145.46
530.26	39236.74
530.43	39452.07
530.60	39508.24
530.77	39461.43
530.94	39868.69
531.11	39646.33
531.28	39313.98
531.46	39826.56
531.63	39922.52
531.80	39672.08
531.97	39901.45
532.14	40217.43
532.31	39646.33
532.48	40339.13
532.65	40058.27
532.82	40287.64
532.99	40297.00
533.16	40320.41
533.33	40414.03
533.50	41057.68
533.67	40708.94
533.84	39817.19
534.01	40669.15
534.18	40360.20
534.35	40872.78
534.52	40921.93
534.69	41467.27
534.86	41045.97
535.03	40673.83
535.20	41181.73
535.37	40802.56
535.54	41067.04
535.71	40837.67
535.88	40699.58
536.05	41095.13
536.22	41354.93
536.38	41265.99
536.55	41691.96
536.72	41448.55
536.89	41209.81
537.06	41284.71
537.23	41144.28
537.40	41228.54
537.57	41670.90
537.74	41633.45
537.91	42185.82
538.08	42167.09
538.25	41979.85
538.42	41624.09
538.59	42363.70
538.75	41696.64
538.92	42033.68
539.09	42190.50
539.26	42131.98
539.43	42693.71
539.60	42752.23
539.77	42436.25
539.94	42611.79
540.11	42569.66
540.28	42429.23
540.44	42639.88
540.61	42450.30
540.78	42808.40
540.95	43180.54
541.12	43021.39
541.29	42717.12
541.46	43573.75
541.62	43136.07
541.79	43196.93
541.96	42747.54
542.13	42850.53
542.30	43468.43
542.47	43658.01
542.63	43831.21
542.80	43672.06
542.97	44128.46
543.14	43924.83
543.31	43709.50
543.48	43335.02
543.64	43447.36
543.81	44030.16
543.98	43995.05
544.15	44341.45
544.32	44311.02
544.48	44484.22
544.65	44053.56
544.82	43992.71
544.99	44231.44
545.16	43966.96
545.32	44397.62
545.49	45214.47
545.66	45375.97
545.83	44978.07
546.00	45436.82
546.16	45191.06
546.33	44334.43
546.50	44491.24
546.67	43863.98
546.83	44556.78
547.00	44612.95
547.17	44238.47
547.34	44430.39
547.50	45074.04
547.67	45027.23
547.84	44561.46
548.00	45031.91
548.17	45083.40
548.34	44692.53
548.51	44687.85
548.67	45380.65
548.84	45584.27
549.01	45010.84
549.18	44369.54
549.34	45198.09
549.51	45298.73
549.68	45170.00
549.84	45050.63
550.01	45001.48
550.18	45193.40
550.34	45572.57
550.51	45357.24
550.68	45633.42
550.84	45188.72
551.01	45378.31
551.18	44985.10
551.34	44928.92
551.51	45675.55
551.68	45333.84
551.84	45240.21
552.01	45415.76
552.18	45954.08
552.34	45319.79
552.51	45656.83
552.68	45268.30
552.84	45560.87
553.01	45656.83
553.18	45591.30
553.34	45565.55
553.51	45563.21
553.67	45832.37
553.84	46122.60
554.01	46251.33
554.17	46319.20
554.34	46129.62
554.51	45806.62
554.67	46480.70
554.84	46461.97
555.00	45996.21
555.17	46527.51
555.33	45741.09
555.50	46373.03
555.67	46213.88
555.83	45724.71
556.00	45883.86
556.16	46672.62
556.33	46188.13
556.50	46106.21
556.66	46677.30
556.83	46431.55
556.99	46951.15
557.16	46499.42
557.32	46586.02
557.49	46663.26
557.65	46576.66
557.82	46644.54
557.98	46157.70
558.15	46698.37
558.32	46609.43
558.48	46546.23
558.65	46543.89
558.81	46747.52
558.98	46515.81
559.14	46569.64
559.31	46777.95
559.47	46684.33
559.64	46862.21
559.80	46642.20
559.97	47215.63
560.13	47065.83
560.30	46651.56
560.46	46869.23
560.63	46721.77
560.79	46883.27
560.96	46925.40
561.12	47129.03
561.29	47112.64
561.45	46808.37
561.61	46941.78
561.78	47423.93
561.94	46887.95
562.11	47594.79
562.27	46990.94
562.44	47433.30
562.60	47035.41
562.77	47414.57
562.93	47157.11
563.10	47503.51
563.26	47187.54
563.42	47578.41
563.59	47271.80
563.75	47351.38
563.92	47274.14
564.08	47484.79
564.24	47562.03
564.41	47597.13
564.57	46791.99
564.74	47264.78
564.90	47936.51
565.07	47643.94
565.23	47501.17
565.39	47442.66
565.56	47491.81
565.72	47147.75
565.88	47150.09
566.05	47150.09
566.21	47592.45
566.38	47604.16
566.54	47578.41
566.70	47730.54
566.87	47798.42
567.03	47704.80
567.19	48175.25
567.36	47547.98
567.52	47704.80
567.68	48023.11
567.85	47337.33
568.01	47409.89
568.17	47718.84
568.34	48018.43
568.50	48067.58
568.66	47332.65
568.83	47627.56
568.99	47203.92
569.15	47814.80
569.32	47526.92
569.48	47412.23
569.64	47805.44
569.81	47370.10
569.97	47587.77
570.13	48306.32
570.30	47782.04
570.46	47826.51
570.62	47674.37
570.78	47601.82
570.95	47672.03
571.11	47550.32
571.27	47145.41
571.43	47969.28
571.60	47634.58
571.76	47475.43
571.92	48027.79
572.09	47868.64
572.25	48081.63
572.41	47559.69
572.57	47718.84
572.74	48114.39
572.90	47821.83
573.06	47594.79
573.22	47903.74
573.38	47990.34
573.55	47969.28
573.71	48673.78
573.87	48287.59
574.03	48006.73
574.20	47995.03
574.36	47873.32
574.52	47906.08
574.68	47807.78
574.84	48126.10
575.01	47782.04
575.17	48240.78
575.33	47920.13
575.49	47702.46
575.65	48353.13
575.82	48229.08
575.98	48072.26
576.14	47819.49
576.30	47971.62
576.46	48105.03
576.62	48004.39
576.79	47690.76
576.95	48172.91
577.11	48303.98
577.27	47945.87
577.43	48004.39
577.59	48093.33
577.75	48502.92
577.92	47770.33
578.08	47913.11
578.24	47770.33
578.40	48451.43
578.56	48341.42
578.72	48587.18
578.88	48353.13
579.04	48479.52
579.21	48168.22
579.37	48292.27
579.53	47709.48
579.69	48032.47
579.85	48362.49
580.01	48348.45
580.17	48191.63
580.33	48285.25
580.49	48243.12
580.65	48477.18
580.82	48596.54
580.98	48355.47
581.14	48004.39
581.30	48313.34
581.46	47957.58
581.62	48357.81
581.78	47814.80
581.94	48037.16
582.10	47700.12
582.26	48528.67
582.42	48332.06
582.58	48123.75
582.74	48477.18
582.90	48493.56
583.06	48540.37
583.22	47943.53
583.38	47988.00
583.54	48467.81
583.70	48388.24
583.86	48346.11
584.02	48182.27
584.18	48638.67
584.34	48500.58
584.50	48519.31
584.66	48652.72
584.82	48200.99
584.98	48460.79
585.14	48758.04
585.30	48140.14
585.46	48470.15
585.62	48367.17
585.78	48240.78
585.94	47908.43
586.10	48807.19
586.26	48285.25
586.42	48650.38
586.58	48924.22
586.74	48163.54
586.90	48186.95
587.06	48451.43
587.22	48507.60
587.38	48147.16
587.54	48254.82
587.70	48193.97
587.86	48594.20
588.02	48650.38
588.18	48898.47
588.34	48486.54
588.49	48521.65
588.65	48413.98
588.81	48746.34
588.97	48734.63
589.13	48423.34
589.29	48313.34
589.45	48699.53
589.61	48760.38
589.77	48935.92
589.93	48626.97
590.08	48561.44
590.24	48907.83
590.40	48685.48
590.56	48966.35
590.72	48739.32
