SpectraSuite Data File
++++++++++++++++++++++++++++++++++++
Date: Fri Oct 04 11:39:34 GMT-05:00 2013
User: price-jones
Dark Spectrum Present: No
Reference Spectrum Present: No
Number of Sampled Component Spectra: 1
Spectrometers: USB2+H05261
Integration Time (usec): 100000 (USB2+H05261)
Spectra Averaged: 1 (USB2+H05261)
Boxcar Smoothing: 0 (USB2+H05261)
Correct for Electrical Dark: No (USB2+H05261)
Strobe/Lamp Enabled: No (USB2+H05261)
Correct for Detector Non-linearity: No (USB2+H05261)
Correct for Stray Light: No (USB2+H05261)
Number of Pixels in Processed Spectrum: 2048
>>>>>Begin Processed Spectral Data<<<<<
365.73	84.26
365.92	84.26
366.12	84.26
366.32	0.00
366.52	0.00
366.72	39.79
366.91	0.00
367.11	0.00
367.31	0.00
367.51	0.00
367.70	0.00
367.90	0.00
368.10	0.00
368.30	0.00
368.49	0.00
368.69	0.00
368.89	0.00
369.09	0.00
369.28	0.00
369.48	0.00
369.68	0.00
369.87	0.00
370.07	0.00
370.27	14.04
370.47	67.88
370.66	28.09
370.86	128.73
371.06	159.16
371.25	147.45
371.45	121.71
371.65	173.20
371.84	142.77
372.04	189.58
372.24	81.92
372.44	131.07
372.63	189.58
372.83	194.26
373.03	201.29
373.22	210.65
373.42	145.11
373.62	175.54
373.81	175.54
374.01	245.76
374.21	210.65
374.40	222.35
374.60	194.26
374.79	135.75
374.99	147.45
375.19	217.67
375.38	220.01
375.58	177.88
375.78	262.14
375.97	238.73
376.17	255.12
376.37	205.97
376.56	168.52
376.76	255.12
376.95	210.65
377.15	203.63
377.35	252.78
377.54	217.67
377.74	280.86
377.93	175.54
378.13	147.45
378.33	184.90
378.52	217.67
378.72	266.82
378.91	149.79
379.11	264.48
379.31	196.60
379.50	245.76
379.70	224.69
379.89	241.08
380.09	142.77
380.28	287.89
380.48	255.12
380.68	198.95
380.87	163.84
381.07	241.08
381.26	271.50
381.46	259.80
381.65	290.23
381.85	234.05
382.04	290.23
382.24	229.37
382.43	222.35
382.63	215.33
382.83	196.60
383.02	229.37
383.22	306.61
383.41	180.22
383.61	257.46
383.80	262.14
384.00	250.44
384.19	220.01
384.39	229.37
384.58	250.44
384.78	222.35
384.97	250.44
385.17	269.16
385.36	280.86
385.56	271.50
385.75	189.58
385.95	262.14
386.14	304.27
386.34	236.39
386.53	234.05
386.72	280.86
386.92	280.86
387.11	337.04
387.31	250.44
387.50	203.63
387.70	250.44
387.89	266.82
388.09	220.01
388.28	276.18
388.48	250.44
388.67	287.89
388.86	306.61
389.06	208.31
389.25	271.50
389.45	271.50
389.64	238.73
389.84	306.61
390.03	313.63
390.22	351.08
390.42	311.29
390.61	278.52
390.81	299.59
391.00	297.25
391.19	332.36
391.39	315.97
391.58	365.12
391.78	294.91
391.97	325.33
392.16	280.86
392.36	325.33
392.55	332.36
392.75	381.51
392.94	344.06
393.13	337.04
393.33	334.70
393.52	297.25
393.71	313.63
393.91	245.76
394.10	292.57
394.29	348.74
394.49	348.74
394.68	325.33
394.88	304.27
395.07	299.59
395.26	358.10
395.46	390.87
395.65	376.83
395.84	411.93
396.04	444.70
396.23	351.08
396.42	447.04
396.62	388.53
396.81	428.32
397.00	397.89
397.19	386.19
397.39	444.70
397.58	482.15
397.77	400.23
397.97	421.30
398.16	381.51
398.35	477.47
398.55	489.17
398.74	468.11
398.93	517.26
399.12	479.81
399.32	564.07
399.51	461.09
399.70	489.17
399.90	498.53
400.09	472.79
400.28	580.45
400.47	540.66
400.67	620.24
400.86	526.62
401.05	585.13
401.24	629.60
401.44	624.92
401.63	589.82
401.82	667.05
402.01	547.69
402.21	634.29
402.40	641.31
402.59	631.94
402.78	615.56
402.97	641.31
403.17	744.29
403.36	741.95
403.55	603.86
403.74	608.54
403.93	702.16
404.13	765.36
404.32	753.65
404.51	807.48
404.70	788.76
404.89	704.50
405.09	866.00
405.28	734.93
405.47	699.82
405.66	748.97
405.85	774.72
406.05	800.46
406.24	828.55
406.43	887.06
406.62	931.53
406.81	931.53
407.00	837.91
407.20	870.68
407.39	943.24
407.58	940.90
407.77	985.37
407.96	1036.86
408.15	973.66
408.34	985.37
408.54	1020.47
408.73	1046.22
408.92	999.41
409.11	1071.97
409.30	1071.97
409.49	1008.77
409.68	1153.88
409.87	1149.20
410.07	1149.20
410.26	1132.82
410.45	1144.52
410.64	1170.27
410.83	1118.78
411.02	1109.41
411.21	1238.14
411.40	1196.01
411.59	1263.89
411.78	1240.48
411.98	1291.98
412.17	1404.32
412.36	1334.11
412.55	1380.92
412.74	1427.73
412.93	1427.73
413.12	1336.45
413.31	1469.86
413.50	1411.34
413.69	1483.90
413.88	1554.12
414.07	1453.47
414.26	1591.56
414.45	1575.18
414.64	1720.29
414.83	1708.59
415.02	1650.08
415.22	1720.29
415.41	1647.74
415.60	1643.06
415.79	1645.40
415.98	1696.89
416.17	1671.14
416.36	1645.40
416.55	1767.10
416.74	1881.79
416.93	1874.77
417.12	1870.09
417.31	1795.19
417.50	1797.53
417.69	2045.63
417.88	1954.35
418.07	1900.52
418.26	1891.15
418.45	1952.01
418.64	1996.48
418.83	1994.14
419.02	2026.90
419.21	1998.82
419.39	2015.20
419.58	1975.41
419.77	2108.82
419.96	2040.95
420.15	2230.53
420.34	2169.68
420.53	2118.18
420.72	2307.77
420.91	2331.17
421.10	2099.46
421.29	2214.15
421.48	2111.16
421.67	2305.43
421.86	2118.18
422.05	2356.92
422.24	2218.83
422.43	2179.04
422.61	2270.32
422.80	2406.07
422.99	2258.62
423.18	2282.02
423.37	2363.94
423.56	2338.20
423.75	2345.22
423.94	2375.64
424.13	2127.55
424.32	2256.28
424.50	2408.41
424.69	2289.04
424.88	2394.37
425.07	2267.98
425.26	2209.47
425.45	2286.70
425.64	2382.67
425.83	2431.82
426.01	2551.18
426.20	2314.79
426.39	2380.32
426.58	2480.97
426.77	2457.56
426.96	2532.46
427.15	2436.50
427.33	2441.18
427.52	2424.80
427.71	2464.58
427.90	2637.78
428.09	2583.95
428.28	2434.16
428.46	2565.23
428.65	2609.70
428.84	2612.04
429.03	2630.76
429.22	2567.57
429.40	2663.53
429.59	2738.43
429.78	2572.25
429.97	2527.78
430.16	2569.91
430.34	2520.76
430.53	2719.70
430.72	2743.11
430.91	2698.64
431.10	2672.89
431.28	2794.60
431.47	2789.92
431.66	2834.39
431.85	2810.98
432.03	2895.24
432.22	3000.57
432.41	2803.96
432.60	2853.11
432.79	2813.32
432.97	2778.22
433.16	2958.44
433.35	2890.56
433.54	2869.50
433.72	2911.63
433.91	2902.26
434.10	3016.95
434.28	2979.50
434.47	3110.57
434.66	3262.71
434.85	3166.74
435.03	3307.18
435.22	3328.24
435.41	3548.25
435.59	3433.57
435.78	3410.16
435.97	3253.34
436.16	3183.13
436.34	3141.00
436.53	3194.83
436.72	3309.52
436.90	3094.19
437.09	3232.28
437.28	3190.15
437.46	3225.26
437.65	3229.94
437.84	3248.66
438.02	3302.50
438.21	3229.94
438.40	3349.31
438.58	3318.88
438.77	3424.20
438.96	3229.94
439.14	3412.50
439.33	3520.17
439.52	3452.29
439.70	3487.40
439.89	3447.61
440.08	3559.95
440.26	3571.66
440.45	3630.17
440.63	3758.90
440.82	3721.45
441.01	3808.05
441.19	3707.41
441.38	3794.01
441.57	3999.98
441.75	3864.22
441.94	4056.15
442.12	3948.48
442.31	3964.87
442.50	3801.03
442.68	3857.20
442.87	3932.10
443.05	3978.91
443.24	4039.76
443.43	3829.12
443.61	4037.42
443.80	4105.30
443.98	3901.67
444.17	3873.59
444.35	4074.87
444.54	4039.76
444.73	3955.51
444.91	4060.83
445.10	4065.51
445.28	4028.06
445.47	4056.15
445.65	4051.47
445.84	4131.05
446.02	4264.46
446.21	4175.52
446.39	4044.45
446.58	4264.46
446.77	4124.02
446.95	4065.51
447.14	4131.05
447.32	4215.30
447.51	4149.77
447.69	4077.21
447.88	4219.99
448.06	4212.96
448.25	4065.51
448.43	4121.68
448.62	4205.94
448.80	4283.18
448.99	4250.41
449.17	4248.07
449.36	4194.24
449.54	4341.69
449.73	4290.20
449.91	4365.10
450.10	4386.16
450.28	4568.73
450.46	4425.95
450.65	4423.61
450.83	4337.01
451.02	4514.89
451.20	4486.81
451.39	4603.83
451.57	4458.72
451.76	4432.97
451.94	4512.55
452.13	4470.42
452.31	4678.73
452.49	4484.47
452.68	4507.87
452.86	4587.45
453.05	4629.58
453.23	4606.17
453.42	4615.54
453.60	4751.29
453.78	4475.10
453.97	4608.51
454.15	4674.05
454.34	4535.96
454.52	4711.50
454.70	4741.93
454.89	4819.16
455.07	4755.97
455.26	4755.97
455.44	4791.08
455.62	4730.22
455.81	4901.08
455.99	4795.76
456.17	4896.40
456.36	4851.93
456.54	4994.70
456.73	4938.53
456.91	5174.92
457.09	5121.09
457.28	5172.58
457.46	4971.30
457.64	5095.35
457.83	4968.96
458.01	5074.28
458.19	5018.11
458.38	5069.60
458.56	5203.01
458.74	5125.77
458.93	5034.49
459.11	5280.25
459.29	5198.33
459.48	5214.71
459.66	5338.76
459.84	5245.14
460.03	5411.32
460.21	5327.06
460.39	5259.18
460.57	5413.66
460.76	5296.63
460.94	5413.66
461.12	5479.19
461.31	5430.04
461.49	5296.63
461.67	5427.70
461.85	5579.84
462.04	5359.83
462.22	5542.39
462.40	5659.42
462.59	5472.17
462.77	5437.06
462.95	5476.85
463.13	5605.58
463.32	5640.69
463.50	5746.02
463.68	5722.61
463.86	5565.79
464.05	5673.46
464.23	5729.63
464.41	5767.08
464.59	5753.04
464.78	5785.80
464.96	5666.44
465.14	5643.03
465.32	5633.67
465.50	5853.68
465.69	5895.81
465.87	5905.17
466.05	5888.79
466.23	5865.38
466.41	6045.60
466.60	6090.07
466.78	5830.27
466.96	5916.87
467.14	5870.06
467.32	5970.71
467.51	6099.44
467.69	5879.43
467.87	6052.63
468.05	6232.85
468.23	6045.60
468.41	5949.64
468.60	5982.41
468.78	6197.74
468.96	6022.20
469.14	6218.80
469.32	6026.88
469.50	6115.82
469.69	6253.91
469.87	6230.51
470.05	6370.94
470.23	6282.00
470.41	6279.66
470.59	6314.77
470.77	6171.99
470.95	6368.60
471.14	6518.39
471.32	6321.79
471.50	6637.76
471.68	6497.33
471.86	6628.40
472.04	6487.96
472.22	6874.15
472.40	6586.27
472.58	6691.59
472.77	6628.40
472.95	6794.58
473.13	6899.90
473.31	6722.02
473.49	6715.00
473.67	6815.64
473.85	6871.81
474.03	6923.30
474.21	7002.88
474.39	7103.53
474.57	7136.29
474.75	7122.25
474.93	7108.21
475.12	7122.25
475.30	7222.89
475.48	7222.89
475.66	7070.76
475.84	7370.35
476.02	7412.48
476.20	7407.80
476.38	7581.00
476.56	7618.44
476.74	7602.06
476.92	7590.36
477.10	7536.52
477.28	7763.56
477.46	7616.10
477.64	7777.60
477.82	7847.82
478.00	8009.31
478.18	8028.04
478.36	8194.22
478.54	8070.17
478.72	8079.53
478.90	8119.32
479.08	8187.19
479.26	8325.29
479.44	8521.89
479.62	8723.18
479.80	8573.38
479.98	8484.44
480.16	8769.99
480.34	8769.99
480.52	8599.13
480.70	8847.22
480.88	8835.52
481.06	8910.42
481.24	8917.44
481.41	8964.25
481.59	9207.67
481.77	9254.48
481.95	9179.58
482.13	9214.69
482.31	9249.80
482.49	9525.98
482.67	9710.88
482.85	9605.56
483.03	10068.98
483.21	9907.49
483.39	10188.35
483.57	10195.37
483.74	10001.11
483.92	9970.68
484.10	9998.77
484.28	10303.04
484.46	10518.37
484.64	10560.50
484.82	10183.67
485.00	10611.99
485.18	10724.33
485.35	11014.56
485.53	10771.15
485.71	10944.34
485.89	11087.12
486.07	11002.86
486.25	10977.11
486.43	11166.70
486.61	11311.81
486.78	11578.63
486.96	11250.96
487.14	11564.59
487.32	11683.95
487.50	11396.07
487.68	11716.72
487.85	11810.34
488.03	12056.10
488.21	12138.02
488.39	12285.47
488.57	12126.32
488.75	12163.76
488.92	12882.31
489.10	12634.21
489.28	12674.00
489.46	12849.54
489.64	12556.97
489.81	13118.70
489.99	13125.72
490.17	13107.00
490.35	13420.63
490.53	13247.43
490.70	13476.80
490.88	13399.57
491.06	13682.77
491.24	13446.38
491.41	13748.31
491.59	13940.23
491.77	13642.98
491.95	13898.10
492.13	14026.83
492.30	14185.99
492.48	13900.44
492.66	14340.46
492.84	14363.87
493.01	14347.48
493.19	14443.45
493.37	14551.11
493.54	14530.05
493.72	14485.58
493.90	14497.28
494.08	14937.30
494.25	15199.44
494.43	15126.88
494.61	15316.47
494.79	15349.23
494.96	15119.86
495.14	15412.43
495.32	15503.71
495.49	15756.49
495.67	15356.25
495.85	15854.79
496.02	16006.92
496.20	15728.40
496.38	15950.75
496.55	15976.50
496.73	16102.89
496.91	16070.12
497.09	16355.66
497.26	16341.62
497.44	16482.05
497.62	16460.99
497.79	16886.97
497.97	16627.17
498.14	16837.81
498.32	17128.04
498.50	17076.55
498.67	17132.72
498.85	17102.29
499.03	16971.22
499.20	17369.12
499.38	17598.49
499.56	17249.75
499.73	17472.10
499.91	17441.67
500.08	17495.50
500.26	17350.39
500.44	17781.05
500.61	17645.30
500.79	17919.14
500.97	17727.22
501.14	17970.63
501.32	18010.42
501.49	18169.58
501.67	18010.42
501.84	18324.05
502.02	18106.38
502.20	18260.86
502.37	18693.86
502.55	18286.61
502.72	18253.84
502.90	18590.88
503.07	18192.98
503.25	18312.35
503.43	18665.77
503.60	18637.69
503.78	19014.51
503.95	18845.99
504.13	19262.61
504.30	18892.80
504.48	19040.26
504.65	19070.68
504.83	19609.01
505.01	19463.90
505.18	19314.10
505.36	19683.91
505.53	19449.85
505.71	19328.14
505.88	19461.55
506.06	19672.20
506.23	19700.29
506.41	19850.08
506.58	19728.38
506.76	20065.41
506.93	19978.81
507.11	19789.23
507.28	20044.35
507.46	20175.42
507.63	20194.14
507.81	20430.54
507.98	20510.11
508.16	19978.81
508.33	20325.21
508.50	20547.56
508.68	20318.19
508.85	20790.98
509.03	20758.21
509.20	20765.23
509.38	21074.18
509.55	20713.74
509.73	20964.18
509.90	20978.22
510.08	20774.60
510.25	20978.22
510.42	21238.02
510.60	21486.12
510.77	21668.68
510.95	21750.60
511.12	21287.17
511.30	21399.52
511.47	21312.92
511.64	21685.06
511.82	22092.32
511.99	21853.58
512.17	21734.21
512.34	21673.36
512.51	21837.20
512.69	21956.57
512.86	21965.93
513.04	22242.11
513.21	22092.32
513.38	21820.81
513.56	22588.51
513.73	22370.84
513.90	22033.80
514.08	22434.03
514.25	22530.00
514.43	22415.31
514.60	22714.90
514.77	22682.13
514.95	22707.88
515.12	22712.56
515.29	22651.70
515.47	23073.00
515.64	23082.36
515.81	22787.46
515.99	22946.61
516.16	23171.30
516.33	23089.38
516.51	23491.96
516.68	23080.02
516.85	23077.68
517.03	23559.83
517.20	23608.98
517.37	23618.35
517.54	23365.57
517.72	23723.67
517.89	23414.72
518.06	23789.20
518.24	23901.55
518.41	23718.99
518.58	23503.66
518.75	23711.97
518.93	24208.16
519.10	23880.49
519.27	24030.28
519.45	24243.27
519.62	24212.84
519.79	24180.07
519.96	24594.35
520.14	24432.85
520.31	24381.36
520.48	24608.39
520.65	24294.76
520.83	24711.38
521.00	24531.15
521.17	24645.84
521.34	24812.02
521.52	25095.22
521.69	25050.75
521.86	25289.49
522.03	24702.01
522.20	24835.42
522.38	25123.31
522.55	25062.46
522.72	25039.05
522.89	25216.93
523.07	25621.84
523.24	25076.50
523.41	25523.54
523.58	25219.27
523.75	25397.15
523.92	25678.02
524.10	25462.69
524.27	25652.27
524.44	25523.54
524.61	25544.61
524.78	25837.17
524.96	25516.52
525.13	25914.41
525.30	25914.41
525.47	26005.69
525.64	25773.98
525.81	25834.83
525.98	26244.43
526.16	26185.91
526.33	25935.48
526.50	26160.17
526.67	26066.55
526.84	26003.35
527.01	26047.82
527.18	26642.32
527.36	26190.59
527.53	26457.42
527.70	26967.65
527.87	26705.51
528.04	26710.19
528.21	26403.58
528.38	26553.38
528.55	26590.83
528.72	26684.45
528.89	26703.17
529.07	26759.34
529.24	26855.31
529.41	26778.07
529.58	26551.04
529.75	26993.40
529.92	27218.09
530.09	27054.25
530.26	26899.78
530.43	27108.08
530.60	27077.66
530.77	27084.68
530.94	27302.35
531.11	27398.31
531.28	27292.99
531.46	27288.31
531.63	27489.59
531.80	27597.26
531.97	27510.66
532.14	27653.43
532.31	27386.61
532.48	27356.18
532.65	27599.60
532.82	27604.28
532.99	27562.15
533.16	27215.75
533.33	27826.63
533.50	28339.21
533.67	28264.31
533.84	27908.55
534.01	27704.92
534.18	27562.15
534.35	28112.17
534.52	28463.25
534.69	28505.38
534.86	28271.33
535.03	27828.97
535.20	28339.21
535.37	28238.56
535.54	28477.30
535.71	28070.04
535.88	28458.57
536.05	27995.15
536.22	28271.33
536.38	28673.90
536.55	28547.51
536.72	28830.72
536.89	28552.20
537.06	28407.08
537.23	28477.30
537.40	28877.53
537.57	28751.14
537.74	28479.64
537.91	29144.35
538.08	28739.44
538.25	29163.08
538.42	28741.78
538.59	29060.09
538.75	29027.32
538.92	29020.30
539.09	28811.99
539.26	29191.16
539.43	29284.78
539.60	29427.56
539.77	29308.19
539.94	29514.16
540.11	29181.80
540.28	29528.20
540.44	29404.15
540.61	29331.59
540.78	29614.80
540.95	30258.45
541.12	29752.89
541.29	29649.91
541.46	29933.11
541.62	30031.41
541.79	29965.88
541.96	29567.99
542.13	30106.31
542.30	30209.29
542.47	29757.57
542.63	30120.35
542.80	29703.74
542.97	30288.87
543.14	30122.69
543.31	30651.66
543.48	30354.41
543.64	30941.88
543.81	30483.14
543.98	30574.42
544.15	30614.21
544.32	30677.40
544.48	31197.00
544.65	30127.38
544.82	30747.62
544.99	30162.48
545.16	30586.12
545.32	30316.96
545.49	31276.58
545.66	31655.75
545.83	31735.32
546.00	31573.83
546.16	31164.23
546.33	30965.29
546.50	30616.55
546.67	30920.82
546.83	30164.82
547.00	30639.95
547.17	30981.67
547.34	30775.70
547.50	31061.25
547.67	31173.60
547.84	30693.79
548.00	31243.81
548.17	31173.60
548.34	31096.36
548.51	31077.63
548.67	31466.16
548.84	30925.50
549.01	31257.85
549.18	31136.15
549.34	30916.14
549.51	31356.16
549.68	31449.78
549.84	30717.19
550.01	31117.42
550.18	31222.75
550.34	31126.78
550.51	31538.72
550.68	30888.05
550.84	31271.90
551.01	31407.65
551.18	31253.17
551.34	31072.95
551.51	31807.88
551.68	31140.83
551.84	31220.41
552.01	31599.57
552.18	31470.84
552.34	31339.77
552.51	31370.20
552.68	31225.09
552.84	31473.18
553.01	31927.25
553.18	31672.13
553.34	31887.46
553.51	31388.92
553.67	31782.13
553.84	32011.51
554.01	31433.39
554.17	31700.22
554.34	31693.19
554.51	31379.56
554.67	32023.21
554.84	31948.31
555.00	31906.18
555.17	31810.22
555.33	31828.95
555.50	31810.22
555.67	31889.80
555.83	31885.12
556.00	31920.23
556.16	32261.94
556.33	31552.76
556.50	32367.27
556.66	32030.23
556.83	31695.53
556.99	32266.63
557.16	31955.33
557.32	32107.47
557.49	32091.09
557.65	31541.06
557.82	32371.95
557.98	31791.50
558.15	32088.74
558.32	32278.33
558.48	32072.36
558.65	32198.75
558.81	32048.96
558.98	32170.66
559.14	32493.66
559.31	32151.94
559.47	31824.26
559.64	32346.20
559.80	32290.03
559.97	32341.52
560.13	32002.14
560.30	32320.46
560.46	32463.23
560.63	32388.33
560.79	32158.96
560.96	32287.69
561.12	32236.20
561.29	32900.91
561.45	32697.28
561.61	32456.21
561.78	32243.22
561.94	32077.04
562.11	32601.32
562.27	32306.41
562.44	32266.63
562.60	32608.34
562.77	32400.04
562.93	32741.75
563.10	32877.51
563.26	32201.09
563.42	32713.67
563.59	32563.87
563.75	32676.22
563.92	32503.02
564.08	32655.15
564.24	32533.45
564.41	32264.28
564.57	31941.29
564.74	32706.65
564.90	32601.32
565.07	32781.54
565.23	32364.93
565.39	33116.24
565.56	32472.59
565.72	32620.05
565.88	32512.38
566.05	32402.38
566.21	32446.85
566.38	32355.57
566.54	32648.13
566.70	32622.39
566.87	32877.51
567.03	32699.62
567.19	33113.90
567.36	32610.68
567.52	32460.89
567.68	32589.62
567.85	32746.44
568.01	32666.86
568.17	32793.25
568.34	32699.62
568.50	32830.69
568.66	32517.06
568.83	32762.82
568.99	32465.57
569.15	32474.93
569.32	32547.49
569.48	32271.31
569.64	32271.31
569.81	32629.41
569.97	32533.45
570.13	32910.27
570.30	32547.49
570.46	32996.87
570.62	32781.54
570.78	32793.25
570.95	32905.59
571.11	32996.87
571.27	32510.04
571.43	32615.37
571.60	32779.20
571.76	32790.91
571.92	32900.91
572.09	32851.76
572.25	33095.18
572.41	33085.81
572.57	32463.23
572.74	32992.19
572.90	32645.79
573.06	32601.32
573.22	33188.80
573.38	32936.02
573.55	32833.04
573.71	33216.88
573.87	32954.74
574.03	32776.86
574.20	32919.63
574.36	32596.64
574.52	33092.83
574.68	32737.07
574.84	33071.77
575.01	32779.20
575.17	33216.88
575.33	32910.27
575.49	32683.24
575.65	33022.62
575.82	33212.20
575.98	33071.77
576.14	32966.45
576.30	32676.22
576.46	33048.36
576.62	32924.32
576.79	33097.52
576.95	32613.02
577.11	33160.71
577.27	33186.46
577.43	33167.73
577.59	32868.14
577.75	32556.85
577.92	32744.09
578.08	32601.32
578.24	32774.52
578.40	32907.93
578.56	33092.83
578.72	33191.14
578.88	33483.70
579.04	33310.50
579.21	32971.13
579.37	32975.81
579.53	32863.46
579.69	33191.14
579.85	32861.12
580.01	32795.59
580.17	33020.28
580.33	33141.99
580.49	32905.59
580.65	33088.15
580.82	33048.36
580.98	32879.85
581.14	33394.76
581.30	32690.26
581.46	32858.78
581.62	32921.98
581.78	32837.72
581.94	32978.15
582.10	32905.59
582.26	32676.22
582.42	32863.46
582.58	33003.89
582.74	33118.58
582.90	33006.23
583.06	33294.12
583.22	32978.15
583.38	33277.74
583.54	33001.55
583.70	33350.29
583.86	33109.22
584.02	33200.50
584.18	33141.99
584.34	33177.09
584.50	33198.16
584.66	33560.94
584.82	33015.60
584.98	33139.65
585.14	33111.56
585.30	32903.25
585.46	33060.07
585.62	32828.35
585.78	33188.80
585.94	33333.91
586.10	32886.87
586.26	33116.24
586.42	33125.60
586.58	33619.46
586.74	33275.40
586.90	32786.22
587.06	32788.56
587.22	33074.11
587.38	32774.52
587.54	33481.36
587.70	33303.48
587.86	33266.03
588.02	32987.51
588.18	33141.99
588.34	33120.92
588.49	33125.60
588.65	32917.29
588.81	33275.40
588.97	33352.63
589.13	33067.09
589.29	33076.45
589.45	33387.74
589.61	33371.36
589.77	33820.74
589.93	33163.05
590.08	33460.30
590.24	33462.64
590.40	33415.83
590.56	33312.84
590.72	33214.54
590.88	33223.90
591.04	33074.11
591.20	33392.42
591.35	33699.03
591.51	33633.50
591.67	33731.80
