SpectraSuite Data File
++++++++++++++++++++++++++++++++++++
Date: Fri Oct 04 11:39:47 GMT-05:00 2013
User: price-jones
Dark Spectrum Present: No
Reference Spectrum Present: No
Number of Sampled Component Spectra: 1
Spectrometers: USB2+H05261
Integration Time (usec): 100000 (USB2+H05261)
Spectra Averaged: 1 (USB2+H05261)
Boxcar Smoothing: 0 (USB2+H05261)
Correct for Electrical Dark: No (USB2+H05261)
Strobe/Lamp Enabled: No (USB2+H05261)
Correct for Detector Non-linearity: No (USB2+H05261)
Correct for Stray Light: No (USB2+H05261)
Number of Pixels in Processed Spectrum: 2048
>>>>>Begin Processed Spectral Data<<<<<
365.73	14.04
365.92	14.04
366.12	14.04
366.32	0.00
366.52	0.00
366.72	4.68
366.91	0.00
367.11	21.06
367.31	0.00
367.51	0.00
367.70	0.00
367.90	0.00
368.10	0.00
368.30	67.88
368.49	0.00
368.69	0.00
368.89	0.00
369.09	0.00
369.28	0.00
369.48	0.00
369.68	0.00
369.87	0.00
370.07	35.11
370.27	51.49
370.47	147.45
370.66	442.36
370.86	547.69
371.06	575.77
371.25	564.07
371.45	449.38
371.65	575.77
371.84	599.18
372.04	601.52
372.24	681.10
372.44	603.86
372.63	596.84
372.83	641.31
373.03	674.07
373.22	655.35
373.42	645.99
373.62	699.82
373.81	718.54
374.01	732.59
374.21	706.84
374.40	744.29
374.60	720.88
374.79	678.76
374.99	702.16
375.19	720.88
375.38	676.41
375.58	746.63
375.78	727.91
375.97	688.12
376.17	791.10
376.37	739.61
376.56	739.61
376.76	814.51
376.95	798.12
377.15	833.23
377.35	889.40
377.54	751.31
377.74	816.85
377.93	828.55
378.13	786.42
378.33	842.59
378.52	830.89
378.72	805.14
378.91	870.68
379.11	905.79
379.31	945.58
379.50	922.17
379.70	992.39
379.89	971.32
380.09	844.93
380.28	891.74
380.48	971.32
380.68	961.96
380.87	926.85
381.07	936.21
381.26	922.17
381.46	884.72
381.65	1022.81
381.85	954.94
382.04	1027.50
382.24	1020.47
382.43	950.26
382.63	1022.81
382.83	1025.15
383.02	1064.94
383.22	1062.60
383.41	1064.94
383.61	1025.15
383.80	1088.35
384.00	997.07
384.19	1057.92
384.39	1088.35
384.58	1090.69
384.78	1050.90
384.97	1018.13
385.17	1086.01
385.36	1146.86
385.56	1196.01
385.75	1212.40
385.95	1139.84
386.14	1174.95
386.34	1184.31
386.53	1149.20
386.72	1132.82
386.92	1214.74
387.11	1160.91
387.31	1188.99
387.50	1242.82
387.70	1146.86
387.89	1167.93
388.09	1200.69
388.28	1210.06
388.48	1287.29
388.67	1299.00
388.86	1296.66
389.06	1263.89
389.25	1359.85
389.45	1249.85
389.64	1275.59
389.84	1369.21
390.03	1357.51
390.22	1320.06
390.42	1324.74
390.61	1338.79
390.81	1341.13
391.00	1432.41
391.19	1472.20
391.39	1439.43
391.58	1455.81
391.78	1462.83
391.97	1497.94
392.16	1474.54
392.36	1467.52
392.55	1476.88
392.75	1446.45
392.94	1455.81
393.13	1633.69
393.33	1563.48
393.52	1537.73
393.71	1584.54
393.91	1596.25
394.10	1640.72
394.29	1650.08
394.49	1511.99
394.68	1607.95
394.88	1715.61
395.07	1802.21
395.26	1776.47
395.46	1776.47
395.65	1832.64
395.84	1724.97
396.04	1811.57
396.23	1827.96
396.42	1858.39
396.62	1825.62
396.81	1724.97
397.00	1771.79
397.19	1926.26
397.39	1851.36
397.58	1937.96
397.77	1907.54
397.97	1867.75
398.16	1921.58
398.35	1858.39
398.55	2015.20
398.74	1928.60
398.93	2050.31
399.12	1996.48
399.32	1977.75
399.51	1968.39
399.70	2169.68
399.90	2019.88
400.09	2090.10
400.28	2202.44
400.47	2106.48
400.67	2106.48
400.86	2211.81
401.05	2132.23
401.24	2246.91
401.44	2286.70
401.63	2258.62
401.82	2284.36
402.01	2256.28
402.21	2286.70
402.40	2326.49
402.59	2265.64
402.78	2359.26
402.97	2338.20
403.17	2429.48
403.36	2403.73
403.55	2443.52
403.74	2459.90
403.93	2513.74
404.13	2546.50
404.32	2548.84
404.51	2452.88
404.70	2560.55
404.89	2445.86
405.09	2647.15
405.28	2593.31
405.47	2574.59
405.66	2794.60
405.85	2745.45
406.05	2698.64
406.24	2647.15
406.43	2700.98
406.62	2876.52
406.81	2839.07
407.00	2818.00
407.20	2806.30
407.39	2794.60
407.58	2953.76
407.77	2939.71
407.96	3068.44
408.15	2951.42
408.34	3019.29
408.54	2979.50
408.73	3023.97
408.92	3091.85
409.11	3026.31
409.30	3082.49
409.49	3007.59
409.68	3148.02
409.87	3155.04
410.07	3243.98
410.26	3171.43
410.45	3288.45
410.64	3288.45
410.83	3442.93
411.02	3410.16
411.21	3508.46
411.40	3384.41
411.59	3431.23
411.78	3541.23
411.98	3527.19
412.17	3529.53
412.36	3581.02
412.55	3721.45
412.74	3574.00
412.93	3763.58
413.12	3627.83
413.31	3772.94
413.50	3791.67
413.69	3887.63
413.88	3971.89
414.07	4021.04
414.26	3962.53
414.45	3974.23
414.64	4081.89
414.83	4147.43
415.02	4273.82
415.22	4238.71
415.41	4259.78
415.60	4292.54
415.79	4337.01
415.98	4374.46
416.17	4386.16
416.36	4402.55
416.55	4526.60
416.74	4503.19
416.93	4531.28
417.12	4671.71
417.31	4655.33
417.50	4620.22
417.69	4840.23
417.88	4830.87
418.07	4779.37
418.26	4664.69
418.45	4910.44
418.64	4957.25
418.83	5032.15
419.02	4924.49
419.21	5109.39
419.39	5291.95
419.58	4992.36
419.77	4887.04
419.96	5025.13
420.15	5170.24
420.34	5071.94
420.53	5181.95
420.72	5193.65
420.91	5296.63
421.10	5387.91
421.29	5439.40
421.48	5245.14
421.67	5387.91
421.86	5490.90
422.05	5465.15
422.24	5584.52
422.43	5430.04
422.61	5488.56
422.80	5472.17
422.99	5596.22
423.18	5554.09
423.37	5612.60
423.56	5441.75
423.75	5668.78
423.94	5544.73
424.13	5256.84
424.32	5289.61
424.50	5633.67
424.69	5731.97
424.88	5645.37
425.07	5483.88
425.26	5481.53
425.45	5603.24
425.64	5720.27
425.83	5628.99
426.01	5753.04
426.20	5495.58
426.39	5781.12
426.58	5533.03
426.77	5589.20
426.96	5795.17
427.15	5853.68
427.33	5731.97
427.52	5909.85
427.71	5874.74
427.90	5895.81
428.09	6040.92
428.28	5884.11
428.46	6012.84
428.65	6286.68
428.84	6286.68
429.03	6193.06
429.22	5921.56
429.40	6305.40
429.59	6319.45
429.78	6230.51
429.97	6076.03
430.16	6099.44
430.34	6209.44
430.53	6541.80
430.72	6321.79
430.91	6434.13
431.10	6153.27
431.28	6333.49
431.47	6612.01
431.66	6675.21
431.85	6691.59
432.03	6860.11
432.22	6803.94
432.41	6757.13
432.60	6785.21
432.79	6738.40
432.97	6939.69
433.16	6801.60
433.35	6553.50
433.54	6857.77
433.72	7091.82
433.91	6935.01
434.10	6984.16
434.28	6883.52
434.47	7037.99
434.66	7000.54
434.85	7232.26
435.03	7253.32
435.22	7377.37
435.41	7843.14
435.59	7632.49
435.78	7426.52
435.97	7456.95
436.16	7386.73
436.34	7265.02
436.53	7412.48
436.72	7585.68
436.90	7243.96
437.09	7559.93
437.28	7419.50
437.46	7527.16
437.65	7688.66
437.84	7838.45
438.02	7604.40
438.21	7777.60
438.40	7735.47
438.58	7920.37
438.77	7964.84
438.96	8121.66
439.14	8245.71
439.33	8175.49
439.52	8180.17
439.70	8372.10
439.89	8182.51
440.08	8348.69
440.26	8482.10
440.45	8493.80
440.63	8634.24
440.82	8645.94
441.01	8557.00
441.19	8781.69
441.38	9041.49
441.57	8755.94
441.75	9090.64
441.94	9076.60
442.12	9329.38
442.31	9214.69
442.50	9280.22
442.68	9195.96
442.87	9137.45
443.05	9451.08
443.24	9373.85
443.43	9181.92
443.61	9408.95
443.80	9741.31
443.98	9160.86
444.17	9142.13
444.35	9556.41
444.54	9650.03
444.73	9776.42
444.91	9455.76
445.10	9570.45
445.28	9757.69
445.47	9465.13
445.65	9369.16
445.84	9518.96
446.02	9884.08
446.21	9689.82
446.39	9715.56
446.58	9809.19
446.77	10040.90
446.95	9561.09
447.14	9797.48
447.32	9699.18
447.51	9806.84
447.69	9834.93
447.88	10099.41
448.06	9825.57
448.25	9727.27
448.43	10134.52
448.62	9905.15
448.80	9947.28
448.99	9846.63
449.17	10150.90
449.36	9891.10
449.54	10068.98
449.73	10466.88
449.91	10373.25
450.10	10317.08
450.28	10630.71
450.46	10256.23
450.65	10270.27
450.83	10448.15
451.02	10429.43
451.20	10586.24
451.39	10546.45
451.57	10380.28
451.76	10469.22
451.94	10621.35
452.13	10892.85
452.31	10686.89
452.49	10541.77
452.68	11075.42
452.86	10590.92
453.05	10916.26
453.23	11054.35
453.42	10843.70
453.60	10796.89
453.78	11110.52
453.97	11082.44
454.15	10977.11
454.34	10897.53
454.52	11243.93
454.70	11140.95
454.89	11391.39
455.07	11154.99
455.26	11576.29
455.44	11604.38
455.62	11403.09
455.81	11707.36
455.99	11475.65
456.17	11630.12
456.36	11810.34
456.54	11775.24
456.73	11948.43
456.91	12109.93
457.09	12035.03
457.28	12367.39
457.46	11976.52
457.64	12170.79
457.83	12119.29
458.01	12119.29
458.19	12404.84
458.38	12049.08
458.56	12329.94
458.74	12505.48
458.93	12428.24
459.11	12528.89
459.29	12351.01
459.48	12699.75
459.66	12526.55
459.84	12547.61
460.03	12830.82
460.21	12669.32
460.39	12788.69
460.57	12931.46
460.76	12784.01
460.94	13135.09
461.12	12800.39
461.31	12978.27
461.49	13303.60
461.67	12748.90
461.85	13214.66
462.04	13078.91
462.22	13832.57
462.40	13163.17
462.59	13240.41
462.77	13432.33
462.95	13769.37
463.13	13207.64
463.32	13596.17
463.50	13460.42
463.68	13561.06
463.86	13460.42
464.05	13755.33
464.23	13727.24
464.41	13582.13
464.59	13600.85
464.78	13987.04
464.96	13834.91
465.14	13715.54
465.32	14115.77
465.50	13921.51
465.69	14066.62
465.87	13731.92
466.05	14008.11
466.23	13879.38
466.41	14150.88
466.60	14483.24
466.78	14225.78
466.96	14267.91
467.14	14202.37
467.32	14338.12
467.51	14532.39
467.69	14078.32
467.87	14340.46
468.05	14670.48
468.23	14494.94
468.41	14291.31
468.60	14408.34
468.78	14881.13
468.96	14740.69
469.14	14846.02
469.32	14787.50
469.50	14871.76
469.69	15101.14
469.87	15307.10
470.05	15307.10
470.23	15208.80
470.41	15033.26
470.59	15494.35
470.77	15112.84
470.95	15342.21
471.14	15716.70
471.32	15382.00
471.50	15719.04
471.68	15819.68
471.86	15854.79
472.04	16095.86
472.22	16037.35
472.40	15744.78
472.58	16219.91
472.77	16269.06
472.95	16437.58
473.13	16875.26
473.31	16311.19
473.49	16355.66
473.67	16814.41
473.85	16594.40
474.03	16940.80
474.21	16975.91
474.39	17326.99
474.57	16945.48
474.75	17245.07
474.93	17614.87
475.12	17472.10
475.30	17556.36
475.48	17514.23
475.66	17589.13
475.84	17685.09
476.02	18085.32
476.20	18015.10
476.38	18216.39
476.56	18359.16
476.74	18558.11
476.92	18394.27
477.10	18560.45
477.28	18806.20
477.46	18593.22
477.64	18801.52
477.82	19302.40
478.00	19803.27
478.18	19632.41
478.36	19658.16
478.54	19932.00
478.72	20058.39
478.90	20109.88
479.08	20414.15
479.26	20357.98
479.44	20816.72
479.62	21060.14
479.80	21125.68
479.98	21221.64
480.16	21261.43
480.34	21460.37
480.52	22066.57
480.70	21947.20
480.88	21687.40
481.06	22085.30
481.24	21755.28
481.41	22401.27
481.59	22431.69
481.77	22796.82
481.95	23021.51
482.13	22775.75
482.31	23208.75
482.49	23702.61
482.67	23861.76
482.85	24004.53
483.03	24299.44
483.21	24233.91
483.39	24549.88
483.57	24620.10
483.74	24842.45
483.92	24858.83
484.10	25048.41
484.28	25324.60
484.46	25757.60
484.64	26253.79
484.82	25738.87
485.00	25935.48
485.18	26829.56
485.35	26848.29
485.53	26583.80
485.71	26801.47
485.89	27412.35
486.07	27484.91
486.25	27346.82
486.43	28154.30
486.61	28341.55
486.78	28500.70
486.96	28336.87
487.14	28964.13
487.32	29399.47
487.50	29046.05
487.68	29221.59
487.85	29453.30
488.03	30260.79
488.21	30300.58
488.39	30185.89
488.57	30637.61
488.75	30506.54
488.92	31110.40
489.10	31206.36
489.28	31452.12
489.46	31864.05
489.64	31999.80
489.81	32027.89
489.99	32655.15
490.17	32664.52
490.35	33156.03
490.53	33102.20
490.70	33563.28
490.88	33659.24
491.06	33682.65
491.24	34012.66
491.41	34017.35
491.59	34330.98
491.77	34710.14
491.95	34934.84
492.13	35271.87
492.30	35077.61
492.48	35445.07
492.66	35562.10
492.84	35328.05
493.01	36205.75
493.19	36205.75
493.37	36266.60
493.54	36648.11
493.72	37123.24
493.90	36776.84
494.08	37048.34
494.25	37521.13
494.43	37441.55
494.61	38080.52
494.79	38478.41
494.96	38223.29
495.14	38237.33
495.32	39009.71
495.49	39037.80
495.67	39384.19
495.85	39477.82
496.02	39728.25
496.20	39541.01
496.38	39885.07
496.55	39786.77
496.73	40893.84
496.91	40362.54
497.09	41209.81
497.26	41284.71
497.44	41457.91
497.62	41312.80
497.79	41607.70
497.97	41392.37
498.14	42469.02
498.32	42387.10
498.50	42298.16
498.67	42672.65
498.85	42572.00
499.03	43068.20
499.20	43311.61
499.38	43042.45
499.56	43014.37
499.73	43510.56
499.91	43903.77
500.08	43552.69
500.26	43423.96
500.44	43906.11
500.61	44140.16
500.79	44474.86
500.97	44315.70
501.14	44966.37
501.32	44896.16
501.49	44832.96
501.67	45333.84
501.84	45420.44
502.02	45485.97
502.20	45619.38
502.37	45869.82
502.55	46092.17
502.72	46176.43
502.90	46096.85
503.07	45687.26
503.25	46251.33
503.43	46358.99
503.60	46859.87
503.78	46394.10
503.95	46885.61
504.13	46876.25
504.30	47248.39
504.48	46824.76
504.65	47304.57
504.83	47365.42
505.01	48168.22
505.18	47662.67
505.36	48140.14
505.53	48069.92
505.71	48027.79
505.88	47927.15
506.06	48208.01
506.23	48734.63
506.41	48362.49
506.58	48523.99
506.76	48388.24
506.93	48903.15
507.11	48645.69
507.28	49436.80
507.46	49216.78
507.63	49345.51
507.81	49928.31
507.98	49682.55
508.16	49457.86
508.33	49455.52
508.50	49729.36
508.68	50047.68
508.85	50178.75
509.03	49965.76
509.20	50419.82
509.38	50710.05
509.55	50703.03
509.73	50866.86
509.90	50852.82
510.08	50759.20
510.25	50937.08
510.42	51217.94
510.60	51320.93
510.77	51772.65
510.95	51585.41
511.12	51461.36
511.30	51615.83
511.47	52009.04
511.64	51622.86
511.82	52224.37
511.99	51805.42
512.17	51995.00
512.34	52032.45
512.51	52425.66
512.69	52451.41
512.86	52392.89
513.04	52545.03
513.21	52772.06
513.38	52839.93
513.56	52811.85
513.73	52545.03
513.90	52891.43
514.08	52673.76
514.25	52989.73
514.43	53130.16
514.60	52865.68
514.77	52961.64
514.95	53301.02
515.12	53380.60
515.29	53382.94
515.47	53436.77
515.64	53886.15
515.81	53598.27
515.99	53939.99
516.16	54059.35
516.33	54087.44
516.51	54482.99
516.68	54150.63
516.85	53865.09
517.03	54440.86
517.20	54773.22
517.37	54351.92
517.54	54646.83
517.72	54372.99
517.89	54773.22
518.06	54408.09
518.24	54747.47
518.41	54705.34
518.58	54986.21
518.75	54857.48
518.93	55110.25
519.10	55126.64
519.27	55295.16
519.45	54850.45
519.62	55021.31
519.79	55154.72
519.96	55356.01
520.14	55554.96
520.31	55243.66
520.48	55566.66
520.65	55480.06
520.83	55578.36
521.00	55969.23
521.17	55634.53
521.34	55620.49
521.52	55866.25
521.69	55983.27
521.86	56069.87
522.03	56339.04
522.20	56182.22
522.38	56334.35
522.55	56065.19
522.72	56261.80
522.89	56451.38
523.07	56699.48
523.24	56589.47
523.41	56779.06
523.58	56619.90
523.75	56734.59
523.92	56809.48
524.10	56624.58
524.27	56877.36
524.44	56722.88
524.61	56966.30
524.78	57006.09
524.96	56956.94
525.13	57139.50
525.30	57092.69
525.47	56987.36
525.64	57057.58
525.81	57406.32
525.98	57481.22
526.16	57485.90
526.33	57378.23
526.50	57799.53
526.67	57448.45
526.84	57792.51
527.01	57427.38
527.18	57745.70
527.36	57572.50
527.53	58192.74
527.70	58110.82
527.87	58061.67
528.04	57918.90
528.21	58066.35
528.38	58056.99
528.55	58145.93
528.72	58211.46
528.89	58038.26
529.07	58291.04
529.24	58089.76
529.41	58482.97
529.58	58225.51
529.75	58349.56
529.92	58281.68
530.09	58403.39
530.26	58581.27
530.43	58543.82
530.60	58485.31
530.77	58485.31
530.94	58583.61
531.11	58450.20
531.28	58599.99
531.46	58841.07
531.63	58787.24
531.80	59093.85
531.97	59182.79
532.14	59068.10
532.31	58897.24
532.48	58927.67
532.65	59068.10
532.82	59014.27
532.99	59007.25
533.16	58852.77
533.33	59351.30
533.50	59468.33
533.67	59363.01
533.84	59320.88
534.01	59320.88
534.18	59229.60
534.35	59639.19
534.52	59377.05
534.69	59470.67
534.86	59732.81
535.03	59597.06
535.20	59508.12
535.37	59842.82
535.54	59758.56
535.71	59576.00
535.88	59751.54
536.05	59880.27
536.22	59922.40
536.38	60090.91
536.55	59906.01
536.72	60114.32
536.89	59838.14
537.06	59805.37
537.23	60034.74
537.40	59840.48
537.57	60104.96
537.74	60135.38
537.91	60355.39
538.08	60266.45
538.25	60102.62
538.42	60287.52
538.59	60271.14
538.75	60390.50
538.92	60236.03
539.09	60458.38
539.26	60526.25
539.43	60507.53
539.60	60807.12
539.77	60687.75
539.94	60764.99
540.11	60640.94
540.28	60748.60
540.44	60767.33
540.61	60619.88
540.78	60867.97
540.95	60842.23
541.12	60877.33
541.29	60966.27
541.46	60764.99
541.62	61024.79
541.79	61003.72
541.96	60720.52
542.13	60685.41
542.30	61092.66
542.47	61223.73
542.63	61167.56
542.80	61446.08
542.97	61446.08
543.14	61656.73
543.31	61357.14
543.48	61240.12
543.64	61666.09
543.81	61504.60
543.98	61652.05
544.15	61558.43
544.32	61719.93
544.48	61769.08
544.65	61703.54
544.82	61731.63
544.99	61420.34
545.16	61719.93
545.32	61623.96
545.49	62071.01
545.66	62120.16
545.83	62279.31
546.00	62412.73
546.16	62113.14
546.33	61998.45
546.50	61584.18
546.67	61928.23
546.83	61602.90
547.00	61771.42
547.17	61939.94
547.34	62078.03
547.50	62106.12
547.67	62342.51
547.84	62071.01
548.00	62368.26
548.17	62284.00
548.34	62152.93
548.51	62162.29
548.67	62276.97
548.84	62330.81
549.01	62293.36
549.18	62440.81
549.34	62279.31
549.51	62195.06
549.68	62216.12
549.84	62218.46
550.01	62326.13
550.18	62410.38
550.34	62555.50
550.51	62754.44
550.68	62595.29
550.84	62248.89
551.01	62609.33
551.18	62478.26
551.34	62379.96
551.51	62464.22
551.68	62700.61
551.84	62649.12
552.01	62576.56
552.18	62705.29
552.34	62770.83
552.51	62707.63
552.68	62695.93
552.84	62834.02
553.01	62897.22
553.18	63004.88
553.34	62885.51
553.51	62869.13
553.67	63126.59
553.84	63140.63
554.01	63201.49
554.17	63042.33
554.34	63164.04
554.51	63187.44
554.67	63142.97
554.84	62988.50
555.00	63091.48
555.17	63236.59
555.33	63309.15
555.50	63252.98
555.67	63348.94
555.83	63320.85
556.00	63070.42
556.16	63215.53
556.33	63117.23
556.50	63164.04
556.66	63360.64
556.83	63222.55
556.99	63543.20
557.16	63571.29
557.32	63227.23
557.49	63428.52
557.65	63201.49
557.82	63370.00
557.98	63306.81
558.15	63444.90
558.32	63487.03
558.48	63690.66
558.65	63634.48
558.81	63573.63
558.98	63604.06
559.14	63501.07
559.31	63377.03
559.47	63409.79
559.64	63498.73
559.80	63664.91
559.97	63819.39
560.13	63566.61
560.30	63653.21
560.46	63597.04
560.63	63917.69
560.79	63709.38
560.96	63824.07
561.12	63597.04
561.29	63632.14
561.45	63744.49
561.61	63936.41
561.78	63905.99
561.94	63833.43
562.11	64044.08
562.27	63877.90
562.44	63955.14
562.60	64011.31
562.77	63896.62
562.93	64001.95
563.10	64027.70
563.26	63863.86
563.42	64018.33
563.59	63994.93
563.75	64034.72
563.92	64182.17
564.08	64118.98
564.24	63833.43
564.41	63863.86
564.57	63950.46
564.74	64053.44
564.90	64109.61
565.07	64147.06
565.23	64133.02
565.39	64130.68
565.56	64292.18
565.72	64128.34
565.88	63985.57
566.05	64142.38
566.21	64076.85
566.38	64058.12
566.54	64147.06
566.70	64287.49
566.87	64317.92
567.03	64317.92
567.19	64521.55
567.36	64334.31
567.52	63980.88
567.68	64207.92
567.85	64046.42
568.01	64285.15
568.17	64189.19
568.34	64177.49
568.50	64362.39
568.66	64170.47
568.83	64425.59
568.99	64385.80
569.15	64362.39
569.32	64282.81
569.48	64381.12
569.64	64355.37
569.81	64336.65
569.97	64257.07
570.13	64278.13
570.30	64488.78
570.46	64467.72
570.62	64472.40
570.78	64226.64
570.95	64217.28
571.11	64409.20
571.27	64336.65
571.43	64289.84
571.60	64580.06
571.76	64378.78
571.92	64514.53
572.09	64542.61
572.25	64608.15
572.41	64561.34
572.57	64671.34
572.74	64624.53
572.90	64341.33
573.06	64474.74
573.22	64409.20
573.38	64547.29
573.55	64570.70
573.71	64823.48
573.87	64764.96
574.03	64638.57
574.20	64624.53
574.36	64544.95
574.52	64551.98
574.68	64427.93
574.84	64608.15
575.01	64633.89
575.17	64479.42
575.33	64566.02
575.49	64622.19
575.65	64746.24
575.82	64755.60
575.98	64549.63
576.14	64577.72
576.30	64669.00
576.46	64706.45
576.62	64608.15
576.79	64582.40
576.95	64573.04
577.11	64844.54
577.27	64917.10
577.43	64678.36
577.59	64804.75
577.75	64739.22
577.92	64521.55
578.08	64516.87
578.24	64757.94
578.40	64563.68
578.56	64802.41
578.72	64809.43
578.88	64966.25
579.04	64718.15
579.21	64914.76
579.37	64743.90
579.53	64769.64
579.69	64479.42
579.85	64779.01
580.01	64828.16
580.17	64694.75
580.33	64652.62
580.49	64722.83
580.65	64739.22
580.82	64940.50
580.98	64870.29
581.14	64935.82
581.30	64746.24
581.46	64720.49
581.62	64748.58
581.78	64711.13
581.94	64886.67
582.10	64629.21
582.26	64821.14
582.42	64907.74
582.58	64917.10
582.74	64994.34
582.90	65094.98
583.06	64905.40
583.22	64893.69
583.38	64823.48
583.54	64790.71
583.70	64877.31
583.86	64912.42
584.02	64814.12
584.18	64989.66
584.34	65036.47
584.50	65045.83
584.66	64853.90
584.82	64896.03
584.98	65013.06
585.14	64975.61
585.30	64800.07
585.46	64757.94
585.62	64853.90
585.78	64984.97
585.94	64746.24
586.10	65069.23
586.26	64942.84
586.42	65073.91
586.58	65148.81
586.74	65022.42
586.90	64809.43
587.06	64917.10
587.22	64994.34
587.38	65001.36
587.54	65251.80
587.70	65279.88
587.86	65045.83
588.02	65090.30
588.18	65102.00
588.34	65034.13
588.49	65160.51
