SpectraSuite Data File
++++++++++++++++++++++++++++++++++++
Date: Fri Oct 04 11:39:45 GMT-05:00 2013
User: price-jones
Dark Spectrum Present: No
Reference Spectrum Present: No
Number of Sampled Component Spectra: 1
Spectrometers: USB2+H05261
Integration Time (usec): 100000 (USB2+H05261)
Spectra Averaged: 1 (USB2+H05261)
Boxcar Smoothing: 0 (USB2+H05261)
Correct for Electrical Dark: No (USB2+H05261)
Strobe/Lamp Enabled: No (USB2+H05261)
Correct for Detector Non-linearity: No (USB2+H05261)
Correct for Stray Light: No (USB2+H05261)
Number of Pixels in Processed Spectrum: 2048
>>>>>Begin Processed Spectral Data<<<<<
365.73	84.26
365.92	84.26
366.12	84.26
366.32	14.04
366.52	0.00
366.72	0.00
366.91	0.00
367.11	0.00
367.31	35.11
367.51	0.00
367.70	0.00
367.90	21.06
368.10	0.00
368.30	0.00
368.49	0.00
368.69	7.02
368.89	0.00
369.09	0.00
369.28	0.00
369.48	0.00
369.68	2.34
369.87	0.00
370.07	0.00
370.27	112.35
370.47	145.11
370.66	430.66
370.86	550.03
371.06	543.00
371.25	568.75
371.45	594.50
371.65	585.13
371.84	540.66
372.04	559.39
372.24	540.66
372.44	561.73
372.63	631.94
372.83	671.73
373.03	676.41
373.22	631.94
373.42	629.60
373.62	641.31
373.81	690.46
374.01	697.48
374.21	720.88
374.40	641.31
374.60	634.29
374.79	620.24
374.99	746.63
375.19	655.35
375.38	655.35
375.58	702.16
375.78	716.20
375.97	692.80
376.17	819.19
376.37	863.66
376.56	755.99
376.76	711.52
376.95	791.10
377.15	802.80
377.35	734.93
377.54	814.51
377.74	770.04
377.93	821.53
378.13	748.97
378.33	837.91
378.52	739.61
378.72	793.44
378.91	866.00
379.11	891.74
379.31	924.51
379.50	875.36
379.70	936.21
379.89	861.32
380.09	924.51
380.28	917.49
380.48	896.43
380.68	912.81
380.87	896.43
381.07	945.58
381.26	973.66
381.46	954.94
381.65	931.53
381.85	983.02
382.04	908.13
382.24	940.90
382.43	1008.77
382.63	947.92
382.83	957.28
383.02	1025.15
383.22	1116.44
383.41	1050.90
383.61	1013.45
383.80	1027.50
384.00	961.96
384.19	1004.09
384.39	1088.35
384.58	1064.94
384.78	1090.69
384.97	1067.28
385.17	1088.35
385.36	1086.01
385.56	1057.92
385.75	1170.27
385.95	1060.26
386.14	1188.99
386.34	1158.57
386.53	1156.22
386.72	1116.44
386.92	1163.25
387.11	1156.22
387.31	1193.67
387.50	1165.59
387.70	1210.06
387.89	1139.84
388.09	1149.20
388.28	1210.06
388.48	1107.07
388.67	1254.53
388.86	1186.65
389.06	1299.00
389.25	1249.85
389.45	1343.47
389.64	1383.26
389.84	1352.83
390.03	1322.40
390.22	1336.45
390.42	1334.11
390.61	1299.00
390.81	1327.08
391.00	1434.75
391.19	1376.24
391.39	1291.98
391.58	1427.73
391.78	1416.02
391.97	1453.47
392.16	1390.28
392.36	1547.09
392.55	1528.37
392.75	1392.62
392.94	1418.36
393.13	1544.75
393.33	1502.62
393.52	1561.14
393.71	1493.26
393.91	1605.61
394.10	1561.14
394.29	1610.29
394.49	1472.20
394.68	1650.08
394.88	1568.16
395.07	1621.99
395.26	1715.61
395.46	1598.59
395.65	1750.72
395.84	1715.61
396.04	1743.70
396.23	1746.04
396.42	1748.38
396.62	1832.64
396.81	1729.66
397.00	1832.64
397.19	1860.73
397.39	1820.94
397.58	1867.75
397.77	1935.62
397.97	1900.52
398.16	1865.41
398.35	1926.26
398.55	1858.39
398.74	1949.67
398.93	1998.82
399.12	1940.30
399.32	1949.67
399.51	1909.88
399.70	2071.37
399.90	2080.74
400.09	2122.87
400.28	1996.48
400.47	2165.00
400.67	2186.06
400.86	2045.63
401.05	2141.59
401.24	2113.50
401.44	2260.96
401.63	2099.46
401.82	2153.29
402.01	2202.44
402.21	2218.83
402.40	2195.42
402.59	2256.28
402.78	2319.47
402.97	2340.54
403.17	2293.72
403.36	2244.57
403.55	2483.31
403.74	2434.16
403.93	2471.61
404.13	2525.44
404.32	2487.99
404.51	2520.76
404.70	2513.74
404.89	2480.97
405.09	2644.81
405.28	2649.49
405.47	2567.57
405.66	2647.15
405.85	2630.76
406.05	2654.17
406.24	2640.12
406.43	2724.38
406.62	2738.43
406.81	2787.58
407.00	2754.81
407.20	2745.45
407.39	2715.02
407.58	2803.96
407.77	2918.65
407.96	2892.90
408.15	2876.52
408.34	2818.00
408.54	2890.56
408.73	2916.31
408.92	2925.67
409.11	3197.17
409.30	2923.33
409.49	3038.02
409.68	3087.17
409.87	3145.68
410.07	3260.37
410.26	3211.22
410.45	3084.83
410.64	3232.28
410.83	3288.45
411.02	3164.40
411.21	3353.99
411.40	3407.82
411.59	3353.99
411.78	3433.57
411.98	3379.73
412.17	3478.04
412.36	3543.57
412.55	3653.58
412.74	3712.09
412.93	3639.53
413.12	3604.42
413.31	3826.78
413.50	3604.42
413.69	3791.67
413.88	3885.29
414.07	3836.14
414.26	3754.22
414.45	3953.16
414.64	3957.85
414.83	3932.10
415.02	4025.72
415.22	4011.68
415.41	4124.02
415.60	4341.69
415.79	4175.52
415.98	4285.52
416.17	4276.16
416.36	4269.14
416.55	4255.09
416.74	4287.86
416.93	4432.97
417.12	4638.94
417.31	4440.00
417.50	4606.17
417.69	4631.92
417.88	4711.50
418.07	4608.51
418.26	4727.88
418.45	4720.86
418.64	4870.65
418.83	4770.01
419.02	4861.29
419.21	4959.60
419.39	4748.95
419.58	4744.27
419.77	4868.31
419.96	5013.43
420.15	4880.02
420.34	4889.38
420.53	5025.13
420.72	5163.22
420.91	4990.02
421.10	5261.52
421.29	5163.22
421.48	5249.82
421.67	5205.35
421.86	5097.69
422.05	5200.67
422.24	5327.06
422.43	5338.76
422.61	5418.34
422.80	5416.00
422.99	5416.00
423.18	5481.53
423.37	5205.35
423.56	5448.77
423.75	5357.49
423.94	5219.39
424.13	4975.98
424.32	5179.61
424.50	5575.16
424.69	5617.29
424.88	5589.20
425.07	5467.49
425.26	5390.25
425.45	5521.32
425.64	5556.43
425.83	5383.23
426.01	5586.86
426.20	5518.98
426.39	5406.64
426.58	5497.92
426.77	5614.95
426.96	5717.93
427.15	5607.92
427.33	5783.46
427.52	5654.73
427.71	5706.23
427.90	5722.61
428.09	5935.60
428.28	5874.74
428.46	5830.27
428.65	5811.55
428.84	6047.94
429.03	6071.35
429.22	5778.78
429.40	6003.47
429.59	6258.59
429.78	5888.79
429.97	5839.64
430.16	6024.54
430.34	6202.42
430.53	6223.48
430.72	6246.89
430.91	6155.61
431.10	6293.70
431.28	6368.60
431.47	6429.45
431.66	6565.20
431.85	6492.65
432.03	6581.59
432.22	6553.50
432.41	6532.44
432.60	6651.80
432.79	6410.73
432.97	6682.23
433.16	6729.04
433.35	6677.55
433.54	6792.23
433.72	6782.87
433.91	6750.10
434.10	6843.73
434.28	6778.19
434.47	6761.81
434.66	6951.39
434.85	7007.56
435.03	6979.48
435.22	7047.35
435.41	7503.76
435.59	7620.78
435.78	7414.82
435.97	7370.35
436.16	7368.01
436.34	7206.51
436.53	7166.72
436.72	7620.78
436.90	7265.02
437.09	7449.93
437.28	7218.21
437.46	7445.24
437.65	7562.27
437.84	7529.50
438.02	7470.99
438.21	7550.57
438.40	7604.40
438.58	7719.09
438.77	7852.50
438.96	7871.22
439.14	7929.74
439.33	7920.37
439.52	8063.15
439.70	8140.38
439.89	8128.68
440.08	8154.43
440.26	8259.75
440.45	7990.59
440.63	8273.79
440.82	8461.04
441.01	8477.42
441.19	8650.62
441.38	8624.87
441.57	8713.81
441.75	8898.72
441.94	8676.37
442.12	8917.44
442.31	8938.51
442.50	8837.86
442.68	8781.69
442.87	9163.20
443.05	9069.58
443.24	9310.65
443.43	8933.82
443.61	9263.84
443.80	9465.13
443.98	9242.78
444.17	8990.00
444.35	9167.88
444.54	9437.04
444.73	9200.65
444.91	9165.54
445.10	9226.39
445.28	9270.86
445.47	8980.64
445.65	9331.72
445.84	9305.97
446.02	9366.82
446.21	9451.08
446.39	9284.91
446.58	9441.72
446.77	9568.11
446.95	9252.14
447.14	9397.25
447.32	9561.09
447.51	9423.00
447.69	9446.40
447.88	9598.54
448.06	9701.52
448.25	9650.03
448.43	9521.30
448.62	9528.32
448.80	9448.74
448.99	9657.05
449.17	9621.94
449.36	9748.33
449.54	9844.29
449.73	9909.83
449.91	10090.05
450.10	10200.05
450.28	10207.08
450.46	10099.41
450.65	9966.00
450.83	10111.11
451.02	10223.46
451.20	10296.02
451.39	10424.75
451.57	10314.74
451.76	10232.82
451.94	10253.89
452.13	10473.90
452.31	10328.78
452.49	10202.40
452.68	10623.69
452.86	10319.42
453.05	10289.00
453.23	10839.02
453.42	10738.38
453.60	10661.14
453.78	10518.37
453.97	10700.93
454.15	10717.31
454.34	10630.71
454.52	10801.57
454.70	10874.13
454.89	10965.41
455.07	10963.07
455.26	10911.58
455.44	11147.97
455.62	11073.07
455.81	11012.22
455.99	11384.37
456.17	11236.91
456.36	11309.47
456.54	11250.96
456.73	11480.33
456.91	11976.52
457.09	11702.68
457.28	11709.70
457.46	11520.12
457.64	11812.68
457.83	11859.49
458.01	11564.59
458.19	11861.84
458.38	11927.37
458.56	12107.59
458.74	11967.16
458.93	12077.16
459.11	11934.39
459.29	12116.95
459.48	12145.04
459.66	12133.34
459.84	12358.03
460.03	12238.66
460.21	12224.62
460.39	12468.03
460.57	12177.81
460.76	12425.90
460.94	12748.90
461.12	12629.53
461.31	12531.23
461.49	12531.23
461.67	12718.47
461.85	13193.60
462.04	12636.55
462.22	12992.31
462.40	12999.34
462.59	13053.17
462.77	13039.12
462.95	12950.18
463.13	13039.12
463.32	12964.23
463.50	13069.55
463.68	13128.06
463.86	13315.31
464.05	13121.04
464.23	13280.20
464.41	13387.86
464.59	13310.63
464.78	13469.78
464.96	13394.89
465.14	13343.39
465.32	13437.02
465.50	13795.12
465.69	13809.16
465.87	13540.00
466.05	13596.17
466.23	13540.00
466.41	13633.62
466.60	13989.38
466.78	13699.16
466.96	13891.08
467.14	13696.82
467.32	13865.33
467.51	14239.82
467.69	13811.50
467.87	14054.92
468.05	14097.05
468.23	13996.40
468.41	13980.02
468.60	14319.40
468.78	14401.32
468.96	14244.50
469.14	14333.44
469.32	14668.14
469.50	14183.65
469.69	14478.55
469.87	14853.04
470.05	15110.50
470.23	14724.31
470.41	14532.39
470.59	14995.81
470.77	14712.61
470.95	15056.67
471.14	15316.47
471.32	15171.35
471.50	15396.04
471.68	15199.44
471.86	15183.06
472.04	15688.61
472.22	15917.98
472.40	15527.11
472.58	15697.97
472.77	15531.80
472.95	15850.11
473.13	16554.61
473.31	15913.30
473.49	15995.22
473.67	16107.57
473.85	16229.27
474.03	16503.12
474.21	16432.90
474.39	16842.50
474.57	16786.32
474.75	16727.81
474.93	17198.26
475.12	16975.91
475.30	16912.71
475.48	16917.39
475.66	17039.10
475.84	17245.07
476.02	17708.49
476.20	17390.18
476.38	17853.61
476.56	18307.67
476.74	18054.89
476.92	17788.07
477.10	18223.41
477.28	18422.36
477.46	18628.32
477.64	18424.70
477.82	18724.29
478.00	19300.06
478.18	18991.11
478.36	19161.97
478.54	19723.69
478.72	19510.71
478.90	19665.18
479.08	20056.05
479.26	19751.78
479.44	20114.56
479.62	20475.01
479.80	20297.13
479.98	20437.56
480.16	20851.83
480.34	20690.34
480.52	21167.80
480.70	21163.12
480.88	20973.54
481.06	21511.86
481.24	20933.75
481.41	21530.59
481.59	22010.40
481.77	22183.60
481.95	22043.17
482.13	22459.78
482.31	22405.95
482.49	23014.49
482.67	22897.46
482.85	23440.47
483.03	23194.71
483.21	24013.90
483.39	23782.18
483.57	23997.51
483.74	23831.33
483.92	24189.44
484.10	24088.79
484.28	24713.72
484.46	25027.35
484.64	25394.81
484.82	25479.07
485.00	25041.39
485.18	25771.64
485.35	26146.12
485.53	26075.91
485.71	25926.11
485.89	26562.74
486.07	26579.12
486.25	26560.40
486.43	26815.52
486.61	26742.96
486.78	27105.74
486.96	27648.75
487.14	27992.81
487.32	28400.06
487.50	28184.73
487.68	28503.04
487.85	28898.59
488.03	29532.88
488.21	29308.19
488.39	29317.55
488.57	29811.40
488.75	29535.22
488.92	30125.04
489.10	30349.73
489.28	30307.60
489.46	31016.78
489.64	31035.50
489.81	31487.23
489.99	31550.42
490.17	31557.44
490.35	32041.93
490.53	32116.83
490.70	32559.19
490.88	32194.07
491.06	32566.21
491.24	33027.30
491.41	33174.75
491.59	33317.53
491.77	33347.95
491.95	33806.70
492.13	33542.22
492.30	34085.22
492.48	34522.90
492.66	34394.17
492.84	34089.90
493.01	34859.94
493.19	35105.70
493.37	35700.19
493.54	35519.97
493.72	35585.50
493.90	35983.40
494.08	36306.39
494.25	36692.58
494.43	36315.75
494.61	37060.04
494.79	37127.92
494.96	36634.06
495.14	37069.40
495.32	37919.02
495.49	37912.00
495.67	38068.81
495.85	38555.64
496.02	38714.80
496.20	38536.92
496.38	38419.89
496.55	38766.29
496.73	39358.45
496.91	39218.02
497.09	39786.77
497.26	39517.60
497.44	39964.65
497.62	40116.78
497.79	40268.92
497.97	40224.45
498.14	41151.30
498.32	41088.10
498.50	41090.44
498.67	41539.83
498.85	41233.22
499.03	41596.00
499.20	41591.32
499.38	41521.10
499.56	42103.90
499.73	42508.81
499.91	42637.54
500.08	42679.67
500.26	42384.76
500.44	43012.02
500.61	42885.64
500.79	42981.60
500.97	43356.08
501.14	43480.13
501.32	44196.34
501.49	43854.62
501.67	43667.37
501.84	43772.70
502.02	43992.71
502.20	44624.65
502.37	44886.79
502.55	44516.99
502.72	44495.92
502.90	44360.17
503.07	44395.28
503.25	44912.54
503.43	45034.25
503.60	45024.89
503.78	45855.78
503.95	45619.38
504.13	45813.65
504.30	45724.71
504.48	45598.32
504.65	45659.17
504.83	46377.72
505.01	46548.57
505.18	45888.54
505.36	46951.15
505.53	46326.22
505.71	46731.14
505.88	46742.84
506.06	46738.16
506.23	47349.04
506.41	47323.29
506.58	47634.58
506.76	47606.50
506.93	47512.88
507.11	47430.96
507.28	47421.59
507.46	47936.51
507.63	48079.28
507.81	48687.82
507.98	48107.37
508.16	48233.76
508.33	48449.09
508.50	48671.44
508.68	48758.04
508.85	48800.17
509.03	48783.79
509.20	49366.58
509.38	49612.34
509.55	49748.09
509.73	49448.50
509.90	49315.09
510.08	49691.91
510.25	49806.60
510.42	49729.36
510.60	50263.00
510.77	50394.07
510.95	50440.89
511.12	49827.66
511.30	50316.84
511.47	50403.44
511.64	50731.11
511.82	50986.23
511.99	50768.56
512.17	50969.85
512.34	50997.93
512.51	51278.80
512.69	51224.96
512.86	51423.91
513.04	51746.90
513.21	51910.74
513.38	51856.91
513.56	51629.88
513.73	51543.28
513.90	51863.93
514.08	51868.61
514.25	51835.84
514.43	52385.87
514.60	52519.28
514.77	52477.15
514.95	52428.00
515.12	52369.49
515.29	51983.30
515.47	52736.95
515.64	52919.51
515.81	52811.85
515.99	52877.38
516.16	53144.20
516.33	52861.00
516.51	53038.88
516.68	52760.36
516.85	53034.20
517.03	53202.72
517.20	53427.41
517.37	53537.41
517.54	53495.28
517.72	53628.69
517.89	53670.82
518.06	53277.61
518.24	53970.41
518.41	53427.41
518.58	53727.00
518.75	53808.92
518.93	54422.14
519.10	54064.03
519.27	54225.53
519.45	54260.64
519.62	54087.44
519.79	54057.01
519.96	54384.69
520.14	54637.47
520.31	54380.01
520.48	54777.90
520.65	54780.24
520.83	54653.85
521.00	54569.59
521.17	54915.99
521.34	54801.30
521.52	55136.00
521.69	54787.26
521.86	54908.97
522.03	55313.88
522.20	55407.50
522.38	55393.46
522.55	55327.92
522.72	55444.95
522.89	55606.45
523.07	55814.76
523.24	55606.45
523.41	55746.88
523.58	55833.48
523.75	55854.54
523.92	55634.53
524.10	55826.46
524.27	55917.74
524.44	56154.13
524.61	56184.56
524.78	56067.53
524.96	56278.18
525.13	56135.41
525.30	56383.51
525.47	56332.01
525.64	56467.76
525.81	56526.28
525.98	56762.67
526.16	56371.80
526.33	56617.56
526.50	56882.04
526.67	56568.41
526.84	56626.92
527.01	56636.28
527.18	56750.97
527.36	56931.19
527.53	57162.90
527.70	57312.70
527.87	57106.73
528.04	56919.49
528.21	57242.48
528.38	57120.77
528.55	57148.86
528.72	57228.44
528.89	57310.36
529.07	57462.49
529.24	57228.44
529.41	57612.29
529.58	57380.57
529.75	57378.23
529.92	57373.55
530.09	57553.77
530.26	57577.18
530.43	57804.21
530.60	57528.03
530.77	57612.29
530.94	57855.70
531.11	57572.50
531.28	57841.66
531.46	57876.77
531.63	57932.94
531.80	58096.78
531.97	58183.38
532.14	58344.87
532.31	58197.42
532.48	58117.84
532.65	58176.36
532.82	58085.07
532.99	58300.40
533.16	58096.78
533.33	58419.77
533.50	58850.43
533.67	58576.59
533.84	58494.67
534.01	58539.14
534.18	58326.15
534.35	58794.26
534.52	58394.03
534.69	58611.70
534.86	58911.28
535.03	58623.40
535.20	58955.75
535.37	58824.68
535.54	58997.88
535.71	58646.80
535.88	58951.07
536.05	58740.42
536.22	58812.98
536.38	59187.47
536.55	59360.67
536.72	59196.83
536.89	59079.80
537.06	59049.38
537.23	59374.71
537.40	59168.74
537.57	59063.42
537.74	59250.66
537.91	59568.97
538.08	59398.12
538.25	59339.60
538.42	59475.35
538.59	59622.81
538.75	59250.66
538.92	59414.50
539.09	59522.16
539.26	59819.41
539.43	59718.77
539.60	60013.68
539.77	59660.26
539.94	59891.97
540.11	59779.62
540.28	59941.12
540.44	59906.01
540.61	59994.95
540.78	59859.20
540.95	60065.17
541.12	60081.55
541.29	60184.54
541.46	60282.84
541.62	59994.95
541.79	60142.41
541.96	59971.55
542.13	60210.28
542.30	60273.48
542.47	60474.76
542.63	60601.15
542.80	60563.70
542.97	60619.88
543.14	60453.70
543.31	60467.74
543.48	60516.89
543.64	60764.99
543.81	60818.82
543.98	60706.47
544.15	60816.48
544.32	61092.66
544.48	61008.40
544.65	60722.86
544.82	60926.49
544.99	60671.37
545.16	60973.30
545.32	61050.53
545.49	61195.65
545.66	61399.27
545.83	61455.45
546.00	61539.71
546.16	61190.97
546.33	61202.67
546.50	60891.38
546.67	61324.38
546.83	60739.24
547.00	61153.52
547.17	61268.20
547.34	61118.41
547.50	61359.48
547.67	61378.21
547.84	61495.24
548.00	61361.82
548.17	61403.95
548.34	61338.42
548.51	61394.59
548.67	61642.69
548.84	61504.60
549.01	61520.98
549.18	61581.84
549.34	61509.28
549.51	61497.58
549.68	61563.11
549.84	61481.19
550.01	61673.12
550.18	61336.08
550.34	61673.12
550.51	61843.98
550.68	61797.16
550.84	61614.60
551.01	61703.54
551.18	61694.18
551.34	61537.36
551.51	61853.34
551.68	61743.33
551.84	61733.97
552.01	61717.59
552.18	62045.26
552.34	61949.30
552.51	61958.66
552.68	61853.34
552.84	61965.68
553.01	62148.24
553.18	61975.05
553.34	62148.24
553.51	62185.69
553.67	62281.66
553.84	62305.06
554.01	62447.83
554.17	62274.63
554.34	62398.68
554.51	62225.48
554.67	62291.02
554.84	62178.67
555.00	62204.42
555.17	62340.17
555.33	62347.19
555.50	62195.06
555.67	62375.28
555.83	62447.83
556.00	62333.15
556.16	62506.35
556.33	62351.87
556.50	62426.77
556.66	62492.30
556.83	62358.89
556.99	62677.21
557.16	62709.97
557.32	62752.10
557.49	62557.84
557.65	62632.74
557.82	62672.52
557.98	62508.69
558.15	62667.84
558.32	62791.89
558.48	62712.31
558.65	62927.64
558.81	62681.89
558.98	62567.20
559.14	62768.49
559.31	62679.55
559.47	62724.02
559.64	62719.34
559.80	62885.51
559.97	62892.54
560.13	62714.65
560.30	62955.73
560.46	63054.03
560.63	62796.57
560.79	63039.99
560.96	63082.12
561.12	62812.96
561.29	62885.51
561.45	63086.80
561.61	63103.18
561.78	63145.31
561.94	63119.57
562.11	63297.45
562.27	62993.18
562.44	63234.25
562.60	63093.82
562.77	63140.63
562.93	63018.92
563.10	63332.56
563.26	63187.44
563.42	63264.68
563.59	63309.15
563.75	63472.99
563.92	63358.30
564.08	63042.33
564.24	63112.55
564.41	63290.43
564.57	63173.40
564.74	63201.49
564.90	63437.88
565.07	63391.07
565.23	63503.42
565.39	63117.23
565.56	63360.64
565.72	63384.05
565.88	63161.70
566.05	63229.57
566.21	63196.80
566.38	63274.04
566.54	63355.96
566.70	63529.16
566.87	63573.63
567.03	63557.25
567.19	63561.93
567.36	63440.22
567.52	63531.50
567.68	63561.93
567.85	63554.91
568.01	63332.56
568.17	63374.69
568.34	63414.47
568.50	63636.83
568.66	63568.95
568.83	63730.45
568.99	63433.20
569.15	63531.50
569.32	63758.53
569.48	63416.82
569.64	63587.67
569.81	63580.65
569.97	63557.25
570.13	63564.27
570.30	63714.06
570.46	63746.83
570.62	63590.01
570.78	63381.71
570.95	63634.48
571.11	63627.46
571.27	63388.73
571.43	63423.84
571.60	63585.33
571.76	63927.05
571.92	63781.94
572.09	63875.56
572.25	63831.09
572.41	63826.41
572.57	63856.84
572.74	63861.52
572.90	63487.03
573.06	63702.36
573.22	63728.11
573.38	63793.64
573.55	63882.58
573.71	63978.54
573.87	63980.88
574.03	63662.57
574.20	63955.14
574.36	63828.75
574.52	63849.81
574.68	63898.97
574.84	63817.05
575.01	63962.16
575.17	63784.28
575.33	63966.84
575.49	63817.05
575.65	63936.41
575.82	64001.95
575.98	63859.18
576.14	63955.14
576.30	64034.72
576.46	63891.94
576.62	63795.98
576.79	64039.40
576.95	63781.94
577.11	64107.27
577.27	64067.48
577.43	64184.51
577.59	63910.67
577.75	63866.20
577.92	63746.83
578.08	63805.34
578.24	63810.03
578.40	63866.20
578.56	63950.46
578.72	63997.27
578.88	64212.60
579.04	64196.21
579.21	63936.41
579.37	63842.79
579.53	64200.89
579.69	64037.06
579.85	64015.99
580.01	63868.54
580.17	63901.31
580.33	63929.39
580.49	64072.17
580.65	64149.40
580.82	64179.83
580.98	64109.61
581.14	63959.82
581.30	64161.11
581.46	63905.99
581.62	63866.20
581.78	63805.34
581.94	64076.85
582.10	64034.72
582.26	64231.32
582.42	64175.15
582.58	64123.66
582.74	64161.11
582.90	64247.71
583.06	64116.64
583.22	64086.21
583.38	64140.04
583.54	63931.73
583.70	64093.23
583.86	64161.11
584.02	63934.07
584.18	64207.92
584.34	64191.53
584.50	64324.94
584.66	64205.58
584.82	64062.80
584.98	64207.92
585.14	64137.70
585.30	63934.07
585.46	64065.14
585.62	63983.22
585.78	64161.11
585.94	64086.21
586.10	64362.39
586.26	64252.39
586.42	64343.67
586.58	64425.59
586.74	64275.79
586.90	64278.13
587.06	63980.88
587.22	64271.11
587.38	64116.64
587.54	64179.83
587.70	64327.28
587.86	64338.99
588.02	64303.88
588.18	64441.97
588.34	64060.46
588.49	64301.54
