SpectraSuite Data File
++++++++++++++++++++++++++++++++++++
Date: Fri Oct 04 11:39:21 GMT-05:00 2013
User: price-jones
Dark Spectrum Present: No
Reference Spectrum Present: No
Number of Sampled Component Spectra: 1
Spectrometers: USB2+H05261
Integration Time (usec): 100000 (USB2+H05261)
Spectra Averaged: 1 (USB2+H05261)
Boxcar Smoothing: 0 (USB2+H05261)
Correct for Electrical Dark: No (USB2+H05261)
Strobe/Lamp Enabled: No (USB2+H05261)
Correct for Detector Non-linearity: No (USB2+H05261)
Correct for Stray Light: No (USB2+H05261)
Number of Pixels in Processed Spectrum: 2048
>>>>>Begin Processed Spectral Data<<<<<
365.73	25.75
365.92	25.75
366.12	25.75
366.32	9.36
366.52	0.00
366.72	4.68
366.91	0.00
367.11	0.00
367.31	0.00
367.51	0.00
367.70	0.00
367.90	0.00
368.10	21.06
368.30	0.00
368.49	0.00
368.69	0.00
368.89	0.00
369.09	0.00
369.28	0.00
369.48	9.36
369.68	0.00
369.87	0.00
370.07	0.00
370.27	37.45
370.47	79.58
370.66	175.54
370.86	243.42
371.06	208.31
371.25	320.65
371.45	191.92
371.65	330.02
371.84	313.63
372.04	227.03
372.24	259.80
372.44	304.27
372.63	285.55
372.83	390.87
373.03	301.93
373.22	365.12
373.42	325.33
373.62	353.42
373.81	418.96
374.01	395.55
374.21	463.43
374.40	393.21
374.60	454.06
374.79	421.30
374.99	376.83
375.19	365.12
375.38	383.85
375.58	440.02
375.78	334.70
375.97	383.85
376.17	376.83
376.37	381.51
376.56	334.70
376.76	325.33
376.95	407.25
377.15	404.91
377.35	463.43
377.54	381.51
377.74	367.46
377.93	383.85
378.13	313.63
378.33	395.55
378.52	369.80
378.72	440.02
378.91	390.87
379.11	365.12
379.31	393.21
379.50	484.49
379.70	435.34
379.89	423.64
380.09	386.19
380.28	486.83
380.48	486.83
380.68	379.17
380.87	409.59
381.07	402.57
381.26	381.51
381.46	498.53
381.65	484.49
381.85	486.83
382.04	486.83
382.24	463.43
382.43	477.47
382.63	496.19
382.83	440.02
383.02	503.22
383.22	456.40
383.41	435.34
383.61	409.59
383.80	496.19
384.00	559.39
384.19	503.22
384.39	540.66
384.58	519.60
384.78	517.26
384.97	552.37
385.17	512.58
385.36	517.26
385.56	585.13
385.75	421.30
385.95	496.19
386.14	589.82
386.34	594.50
386.53	543.00
386.72	535.98
386.92	503.22
387.11	559.39
387.31	624.92
387.50	538.32
387.70	592.16
387.89	496.19
388.09	641.31
388.28	533.64
388.48	582.79
388.67	613.22
388.86	561.73
389.06	592.16
389.25	578.11
389.45	543.00
389.64	638.97
389.84	641.31
390.03	580.45
390.22	641.31
390.42	641.31
390.61	634.29
390.81	592.16
391.00	615.56
391.19	681.10
391.39	648.33
391.58	596.84
391.78	638.97
391.97	737.27
392.16	678.76
392.36	657.69
392.55	716.20
392.75	657.69
392.94	678.76
393.13	674.07
393.33	674.07
393.52	732.59
393.71	767.70
393.91	741.95
394.10	727.91
394.29	805.14
394.49	765.36
394.68	830.89
394.88	781.74
395.07	861.32
395.26	793.44
395.46	826.21
395.65	807.48
395.84	816.85
396.04	891.74
396.23	748.97
396.42	791.10
396.62	844.93
396.81	844.93
397.00	779.40
397.19	880.04
397.39	863.66
397.58	898.77
397.77	873.02
397.97	894.08
398.16	821.53
398.35	983.02
398.55	985.37
398.74	1018.13
398.93	983.02
399.12	954.94
399.32	983.02
399.51	896.43
399.70	1020.47
399.90	950.26
400.09	933.87
400.28	1071.97
400.47	1081.33
400.67	1067.28
400.86	959.62
401.05	1055.58
401.24	1104.73
401.44	1086.01
401.63	1137.50
401.82	1118.78
402.01	1078.99
402.21	1046.22
402.40	1102.39
402.59	1170.27
402.78	1160.91
402.97	1203.04
403.17	1076.65
403.36	1156.22
403.55	1205.38
403.74	1193.67
403.93	1233.46
404.13	1287.29
404.32	1334.11
404.51	1224.10
404.70	1266.23
404.89	1235.80
405.09	1315.38
405.28	1299.00
405.47	1270.91
405.66	1291.98
405.85	1343.47
406.05	1406.66
406.24	1392.62
406.43	1406.66
406.62	1406.66
406.81	1413.68
407.00	1411.34
407.20	1362.19
407.39	1434.75
407.58	1451.13
407.77	1514.33
407.96	1488.58
408.15	1502.62
408.34	1497.94
408.54	1558.80
408.73	1584.54
408.92	1636.03
409.11	1582.20
409.30	1586.88
409.49	1612.63
409.68	1776.47
409.87	1687.53
410.07	1750.72
410.26	1785.83
410.45	1732.00
410.64	1650.08
410.83	1706.25
411.02	1872.43
411.21	1872.43
411.40	1860.73
411.59	1797.53
411.78	1823.28
411.98	1837.32
412.17	1893.49
412.36	1977.75
412.55	1935.62
412.74	1940.30
412.93	1942.64
413.12	1930.94
413.31	2085.42
413.50	2022.22
413.69	2106.48
413.88	2010.52
414.07	2153.29
414.26	2162.66
414.45	2118.18
414.64	2289.04
414.83	2148.61
415.02	2195.42
415.22	2267.98
415.41	2448.20
415.60	2342.88
415.79	2303.09
415.98	2420.11
416.17	2431.82
416.36	2431.82
416.55	2396.71
416.74	2417.77
416.93	2431.82
417.12	2506.71
417.31	2665.87
417.50	2523.10
417.69	2614.38
417.88	2574.59
418.07	2626.08
418.26	2572.25
418.45	2715.02
418.64	2785.24
418.83	2623.74
419.02	2710.34
419.21	2747.79
419.39	2670.55
419.58	2738.43
419.77	2738.43
419.96	2836.73
420.15	2888.22
420.34	2963.12
420.53	2841.41
420.72	2949.08
420.91	2906.95
421.10	2953.76
421.29	2981.84
421.48	2806.30
421.67	3084.83
421.86	2895.24
422.05	3049.72
422.24	2958.44
422.43	3019.29
422.61	3075.46
422.80	3049.72
422.99	3075.46
423.18	3108.23
423.37	3115.25
423.56	3180.79
423.75	3141.00
423.94	3035.67
424.13	2923.33
424.32	2993.55
424.50	3112.91
424.69	3255.69
424.88	3061.42
425.07	3211.22
425.26	3084.83
425.45	3101.21
425.64	3138.66
425.83	3070.78
426.01	3253.34
426.20	3173.77
426.39	3190.15
426.58	3129.30
426.77	3258.03
426.96	3260.37
427.15	3157.38
427.33	3337.60
427.52	3311.86
427.71	3180.79
427.90	3365.69
428.09	3393.78
428.28	3391.44
428.46	3363.35
428.65	3426.54
428.84	3335.26
429.03	3513.14
429.22	3447.61
429.40	3485.06
429.59	3501.44
429.78	3339.94
429.97	3218.24
430.16	3445.27
430.34	3496.76
430.53	3726.13
430.72	3571.66
430.91	3574.00
431.10	3543.57
431.28	3548.25
431.47	3716.77
431.66	3707.41
431.85	3606.77
432.03	3756.56
432.22	3808.05
432.41	3798.69
432.60	3822.09
432.79	3653.58
432.97	3779.97
433.16	3829.12
433.35	3765.92
433.54	3824.44
433.72	3836.14
433.91	3838.48
434.10	4011.68
434.28	3878.27
434.47	3801.03
434.66	3974.23
434.85	4091.26
435.03	4114.66
435.22	4315.95
435.41	4580.43
435.59	4573.41
435.78	4315.95
435.97	4147.43
436.16	4109.98
436.34	4266.80
436.53	4297.22
436.72	4170.83
436.90	4051.47
437.09	4313.61
437.28	4100.62
437.46	4147.43
437.65	4236.37
437.84	4250.41
438.02	4358.08
438.21	4376.80
438.40	4435.32
438.58	4477.44
438.77	4528.94
438.96	4409.57
439.14	4685.75
439.33	4568.73
439.52	4496.17
439.70	4655.33
439.89	4638.94
440.08	4451.70
440.26	4746.61
440.45	4765.33
440.63	4706.82
440.82	4844.91
441.01	4798.10
441.19	4945.55
441.38	4947.89
441.57	5027.47
441.75	5022.79
441.94	5069.60
442.12	5093.01
442.31	5364.51
442.50	5090.67
442.68	4978.32
442.87	5116.41
443.05	4980.66
443.24	5217.05
443.43	5121.09
443.61	5233.44
443.80	5163.22
443.98	5191.31
444.17	5006.41
444.35	5343.44
444.54	5233.44
444.73	5291.95
444.91	5280.25
445.10	5338.76
445.28	5329.40
445.47	5355.15
445.65	5263.86
445.84	5416.00
446.02	5327.06
446.21	5301.31
446.39	5320.04
446.58	5509.62
446.77	5570.48
446.95	5256.84
447.14	5554.09
447.32	5472.17
447.51	5303.65
447.69	5331.74
447.88	5275.57
448.06	5423.02
448.25	5488.56
448.43	5570.48
448.62	5397.28
448.80	5437.06
448.99	5659.42
449.17	5556.43
449.36	5369.19
449.54	5509.62
449.73	5619.63
449.91	5687.50
450.10	5844.32
450.28	5909.85
450.46	5753.04
450.65	5795.17
450.83	5795.17
451.02	5710.91
451.20	5818.57
451.39	6003.47
451.57	5771.76
451.76	5769.42
451.94	5989.43
452.13	5980.07
452.31	5893.47
452.49	5881.77
452.68	5827.93
452.86	5949.64
453.05	5968.37
453.23	5994.11
453.42	6090.07
453.60	5703.89
453.78	6029.22
453.97	6038.58
454.15	6064.33
454.34	6001.13
454.52	6188.38
454.70	6148.59
454.89	6251.57
455.07	6246.89
455.26	6190.72
455.44	6291.36
455.62	6342.85
455.81	6232.85
455.99	6235.19
456.17	6452.86
456.36	6242.21
456.54	6469.24
456.73	6644.78
456.91	6576.91
457.09	6534.78
457.28	6707.98
457.46	6478.60
457.64	6658.82
457.83	6750.10
458.01	6656.48
458.19	6825.00
458.38	6691.59
458.56	6853.09
458.74	6965.43
458.93	6836.70
459.11	6939.69
459.29	6895.22
459.48	6834.36
459.66	6904.58
459.84	6808.62
460.03	6988.84
460.21	6970.12
460.39	6899.90
460.57	6888.20
460.76	7045.01
460.94	7105.87
461.12	7248.64
461.31	7115.23
461.49	7040.33
461.67	7054.37
461.85	7321.20
462.04	7311.83
462.22	7737.81
462.40	7379.71
462.59	7243.96
462.77	7232.26
462.95	7417.16
463.13	7232.26
463.32	7454.61
463.50	7417.16
463.68	7372.69
463.86	7520.14
464.05	7372.69
464.23	7442.90
464.41	7534.18
464.59	7246.30
464.78	7620.78
464.96	7503.76
465.14	7419.50
465.32	7742.49
465.50	7538.87
465.69	7660.57
465.87	7702.70
466.05	7585.68
466.23	7599.72
466.41	7665.25
466.60	7852.50
466.78	7672.28
466.96	7672.28
467.14	7597.38
467.32	7927.39
467.51	7791.64
467.69	7817.39
467.87	7798.66
468.05	8037.40
468.23	7791.64
468.41	7857.18
468.60	7943.78
468.78	8203.58
468.96	7887.61
469.14	8313.58
469.32	7929.74
469.50	8056.12
469.69	8208.26
469.87	8306.56
470.05	8304.22
470.23	8285.50
470.41	8234.00
470.59	8365.07
470.77	8477.42
470.95	8390.82
471.14	8816.80
471.32	8341.67
471.50	8636.58
471.68	8456.36
471.86	8528.91
472.04	8599.13
472.22	8887.01
472.40	8634.24
472.58	8858.93
472.77	8786.37
472.95	9006.38
473.13	9055.53
473.31	8833.18
473.49	8821.48
473.67	8966.59
473.85	9018.08
474.03	9188.94
474.21	9420.66
474.39	9383.21
474.57	9200.65
474.75	9495.55
474.93	9425.34
475.12	9362.14
475.30	9514.28
475.48	9254.48
475.66	9643.01
475.84	9598.54
476.02	9561.09
476.20	9715.56
476.38	9928.55
476.56	10272.61
476.74	10118.14
476.92	10064.30
477.10	10218.78
477.28	10230.48
477.46	10237.50
477.64	10338.15
477.82	10253.89
478.00	10698.59
478.18	10476.24
478.36	10759.44
478.54	10731.36
478.72	10960.73
478.90	10944.34
479.08	10834.34
479.26	10995.84
479.44	11257.98
479.62	11281.38
479.80	11351.60
479.98	11246.27
480.16	11384.37
480.34	11695.66
480.52	11580.97
480.70	11698.00
480.88	11716.72
481.06	11789.28
481.24	11976.52
481.41	11833.75
481.59	12035.03
481.77	12241.00
481.95	12374.41
482.13	12381.43
482.31	12063.12
482.49	12671.66
482.67	12812.09
482.85	13029.76
483.03	13036.78
483.21	13083.59
483.39	13125.72
483.57	13362.12
483.74	13486.17
483.92	13668.73
484.10	13376.16
484.28	13689.79
484.46	14012.79
484.64	14029.17
484.82	13956.61
485.00	13792.78
485.18	14221.10
485.35	14349.82
485.53	14398.98
485.71	14391.95
485.89	14834.32
486.07	14487.92
486.25	14853.04
486.43	14668.14
486.61	15143.27
486.78	14981.77
486.96	15199.44
487.14	15297.74
487.32	15592.65
487.50	15861.81
487.68	15674.57
487.85	16222.25
488.03	16142.67
488.21	16170.76
488.39	16243.32
488.57	16517.16
488.75	16402.47
488.92	16652.91
489.10	16753.55
489.28	16851.86
489.46	16980.59
489.64	16837.81
489.81	17406.56
489.99	17408.90
490.17	17462.74
490.35	17586.79
490.53	17439.33
490.70	17797.43
490.88	17696.79
491.06	17832.54
491.24	18047.87
491.41	18160.22
491.59	18455.12
491.77	18387.25
491.95	18494.91
492.13	18864.72
492.30	18637.69
492.48	18719.60
492.66	18904.51
492.84	18930.25
493.01	19304.74
493.19	19295.38
493.37	19484.96
493.54	19447.51
493.72	19864.13
493.90	19693.27
494.08	19962.43
494.25	20173.08
494.43	20219.89
494.61	19985.83
494.79	20437.56
494.96	20603.74
495.14	20430.54
495.32	20807.36
495.49	20676.29
495.67	20725.44
495.85	21231.00
496.02	21043.76
496.20	21219.30
496.38	21600.80
496.55	21537.61
496.73	21722.51
496.91	21589.10
497.09	22108.70
497.26	21795.07
497.44	22164.87
497.62	21837.20
497.79	22293.60
497.97	22466.80
498.14	22651.70
498.32	22576.81
498.50	22675.11
498.67	22944.27
498.85	22838.95
499.03	22775.75
499.20	22871.72
499.38	23035.55
499.56	23122.15
499.73	23403.02
499.91	23791.55
500.08	23601.96
500.26	23484.94
500.44	23527.06
500.61	23768.14
500.79	23871.12
500.97	23922.62
501.14	23999.85
501.32	24222.20
501.49	24128.58
501.67	23953.04
501.84	24327.53
502.02	24360.30
502.20	24533.50
502.37	24919.68
502.55	24608.39
502.72	24547.54
502.90	25263.74
503.07	24634.14
503.25	24596.69
503.43	25109.27
503.60	25263.74
503.78	25345.66
503.95	25432.26
504.13	25067.14
504.30	25266.08
504.48	25575.03
504.65	25289.49
504.83	25792.70
505.01	25823.13
505.18	26012.71
505.36	26185.91
505.53	25769.30
505.71	25947.18
505.88	26047.82
506.06	25841.85
506.23	26391.88
506.41	26349.75
506.58	26757.00
506.76	26256.13
506.93	26824.88
507.11	26576.78
507.28	26902.12
507.46	26569.76
507.63	27000.42
507.81	27417.04
507.98	27222.77
508.16	27318.73
508.33	27260.22
508.50	27213.41
508.68	27733.01
508.85	27737.69
509.03	27613.64
509.20	27749.39
509.38	28086.43
509.55	28175.37
509.73	27887.48
509.90	28348.57
510.08	27821.95
510.25	28065.36
510.42	28226.86
510.60	28615.39
510.77	28559.22
510.95	28741.78
511.12	28507.72
511.30	28376.66
511.47	29088.18
511.64	28877.53
511.82	29057.75
511.99	29039.03
512.17	29120.95
512.34	29373.72
512.51	29408.83
512.69	29209.89
512.86	29270.74
513.04	29670.97
513.21	29708.42
513.38	29570.33
513.56	30019.71
513.73	29757.57
513.90	29844.17
514.08	29741.19
514.25	30141.42
514.43	30197.59
514.60	30249.08
514.77	30136.74
514.95	30396.54
515.12	30331.00
515.29	30176.53
515.47	30476.12
515.64	30731.23
515.81	30686.76
515.99	30995.71
516.16	30696.13
516.33	30906.77
516.51	31091.68
516.68	30944.22
516.85	31304.67
517.03	31407.65
517.20	31433.39
517.37	31108.06
517.54	31653.40
517.72	31342.11
517.89	31562.12
518.06	31498.93
518.24	31440.42
518.41	31484.89
518.58	31934.27
518.75	31571.49
518.93	32517.06
519.10	31929.59
519.27	32297.05
519.45	31639.36
519.62	31964.70
519.79	32507.70
519.96	32194.07
520.14	32582.60
520.31	32465.57
520.48	32926.66
520.65	32322.80
520.83	32748.78
521.00	32678.56
521.17	33097.52
521.34	33029.64
521.52	32884.53
521.69	32833.04
521.86	33184.12
522.03	33443.91
522.20	33172.41
522.38	33324.55
522.55	33179.43
522.72	33563.28
522.89	33537.54
523.07	33535.20
523.24	34141.39
523.41	34085.22
523.58	33738.82
523.75	33710.74
523.92	33598.39
524.10	34256.08
524.27	33998.62
524.44	34494.82
524.61	34464.39
524.78	34302.89
524.96	34611.84
525.13	34338.00
525.30	34923.13
525.47	34937.18
525.64	34412.90
525.81	34836.53
525.98	34850.58
526.16	34747.59
526.33	34660.99
526.50	34766.32
526.67	34611.84
526.84	34515.88
527.01	34986.33
527.18	35098.67
527.36	35335.07
527.53	34958.24
527.70	35463.80
527.87	35704.87
528.04	35316.34
528.21	35667.42
528.38	35763.39
528.55	35400.60
528.72	35562.10
528.89	35470.82
529.07	35541.03
529.24	36130.85
529.41	35854.67
529.58	35559.76
529.75	35627.63
529.92	35789.13
530.09	36004.46
530.26	36292.35
530.43	36313.41
530.60	36364.90
530.77	36322.77
530.94	36261.92
531.11	36170.64
531.28	35651.04
531.46	36254.90
531.63	36594.28
531.80	36620.02
531.97	36685.56
532.14	36779.18
532.31	36755.77
532.48	36245.54
532.65	37008.55
532.82	36814.29
532.99	37139.62
533.16	36753.43
533.33	37331.54
533.50	37680.28
533.67	37399.42
533.84	36935.99
534.01	37064.72
534.18	36868.12
534.35	37263.67
534.52	37373.67
534.69	37729.44
534.86	37493.04
535.03	37277.71
535.20	37647.52
535.37	37668.58
535.54	37839.44
535.71	37610.07
535.88	37827.74
536.05	37631.13
536.22	38349.68
536.38	38375.42
536.55	38157.75
536.72	38127.33
536.89	38043.07
537.06	37794.97
537.23	38249.03
537.40	38239.67
537.57	38220.95
537.74	37881.57
537.91	38689.06
538.08	38440.96
538.25	38497.13
538.42	38476.07
538.59	38546.28
538.75	38127.33
538.92	38555.64
539.09	38866.94
539.26	39040.14
539.43	38862.26
539.60	39072.90
539.77	38990.98
539.94	38801.40
540.11	39379.51
540.28	39299.94
540.44	39271.85
540.61	39269.51
540.78	39173.55
540.95	39714.21
541.12	39152.48
541.29	39349.09
541.46	39386.54
541.62	39194.61
541.79	39632.29
541.96	39454.41
542.13	39864.00
542.30	39777.40
542.47	40060.61
542.63	40041.88
542.80	39856.98
542.97	40320.41
543.14	40238.49
543.31	40297.00
543.48	40280.62
543.64	40662.13
543.81	40575.53
543.98	40755.75
544.15	40769.79
544.32	40498.29
544.48	40942.99
544.65	40467.86
544.82	41057.68
544.99	40685.53
545.16	40980.44
545.32	41001.50
545.49	41399.40
545.66	42274.76
545.83	42036.02
546.00	41876.86
546.16	41631.11
546.33	41106.83
546.50	40584.89
546.67	41148.96
546.83	40744.05
547.00	40847.03
547.17	40648.08
547.34	41273.01
547.50	41111.51
547.67	41116.19
547.84	41486.00
548.00	41411.10
548.17	41478.97
548.34	41127.89
548.51	41654.51
548.67	41361.95
548.84	40999.16
549.01	41495.36
549.18	41130.23
549.34	41319.82
549.51	41397.06
549.68	41394.71
549.84	41572.60
550.01	41549.19
550.18	41216.83
550.34	41982.19
550.51	42139.00
550.68	41727.07
550.84	41584.30
551.01	41722.39
551.18	41682.60
551.34	41626.43
551.51	42082.83
551.68	42342.63
551.84	42195.18
552.01	41944.74
552.18	41839.42
552.34	41691.96
552.51	42078.15
552.68	41717.71
552.84	42082.83
553.01	42281.78
553.18	42169.43
553.34	42391.78
553.51	41792.61
553.67	42188.16
553.84	42190.50
554.01	42450.30
554.17	42391.78
554.34	42183.48
554.51	42117.94
554.67	42349.65
554.84	42579.03
555.00	42511.15
555.17	42782.65
555.33	42508.81
555.50	42581.37
555.67	42623.50
555.83	42354.33
556.00	42473.70
556.16	43370.13
556.33	42412.85
556.50	43030.75
556.66	42759.25
556.83	42724.14
556.99	43393.53
557.16	42944.15
557.32	43126.71
557.49	43000.32
557.65	43084.58
557.82	42134.32
557.98	43035.43
558.15	42787.33
558.32	43325.66
558.48	42941.81
558.65	43047.13
558.81	43035.43
558.98	42740.52
559.14	42429.23
559.31	42726.48
559.47	43077.56
559.64	43330.34
559.80	43019.05
559.97	43283.53
560.13	42925.42
560.30	43110.33
560.46	43264.80
560.63	43178.20
560.79	43185.22
560.96	43650.99
561.12	43082.24
561.29	43398.21
561.45	43672.06
561.61	43861.64
561.78	43735.25
561.94	43459.07
562.11	43508.22
562.27	43194.59
562.44	43606.52
562.60	43227.35
562.77	43477.79
562.93	43332.68
563.10	43529.28
563.26	43606.52
563.42	43758.66
563.59	43285.87
563.75	43555.03
563.92	43746.95
564.08	43480.13
564.24	43510.56
564.41	43187.56
564.57	43606.52
564.74	43477.79
564.90	43594.82
565.07	43697.80
565.23	43889.73
565.39	43601.84
565.56	43936.54
565.72	43475.45
565.88	43878.02
566.05	44051.22
566.21	43342.04
566.38	43791.42
566.54	43828.87
566.70	44163.57
566.87	44130.80
567.03	43955.26
567.19	44308.68
567.36	43693.12
567.52	43606.52
567.68	44030.16
567.85	43702.48
568.01	43805.47
568.17	43475.45
568.34	44631.68
568.50	43854.62
568.66	43840.57
568.83	44306.34
568.99	43957.60
569.15	43971.64
569.32	43854.62
569.48	43772.70
569.64	43782.06
569.81	44123.78
569.97	43948.24
570.13	43941.22
570.30	44074.63
570.46	44264.21
570.62	43971.64
570.78	44245.49
570.95	44086.33
571.11	43817.17
571.27	43679.08
571.43	44128.46
571.60	43873.34
571.76	44142.50
571.92	44231.44
572.09	44130.80
572.25	44367.20
572.41	44081.65
572.57	44030.16
572.74	44282.94
572.90	44023.14
573.06	44037.18
573.22	44006.75
573.38	44514.65
573.55	44374.22
573.71	44711.25
573.87	44404.64
574.03	44477.20
574.20	44720.62
574.36	44275.91
574.52	44004.41
574.68	44573.16
574.84	44505.29
575.01	44556.78
575.17	44505.29
575.33	44458.48
575.49	44201.02
575.65	44516.99
575.82	44224.42
575.98	44231.44
576.14	44428.05
576.30	44069.95
576.46	44718.28
576.62	44369.54
576.79	44741.68
576.95	44797.85
577.11	44509.97
577.27	44509.97
577.43	44839.98
577.59	44165.91
577.75	44201.02
577.92	43861.64
578.08	44177.61
578.24	44353.15
578.40	44289.96
578.56	44870.41
578.72	44678.49
578.88	44692.53
579.04	44629.34
579.21	44540.39
579.37	44809.56
579.53	44577.84
579.69	44325.07
579.85	44624.65
580.01	44612.95
580.17	44568.48
580.33	44559.12
580.49	44353.15
580.65	44746.36
580.82	44882.11
580.98	44650.40
581.14	44755.72
581.30	44760.40
581.46	44598.91
581.62	44224.42
581.78	44299.32
581.94	44388.26
582.10	44360.17
582.26	44521.67
582.42	44844.66
582.58	44720.62
582.74	44388.26
582.90	44807.22
583.06	44404.64
583.22	44643.38
583.38	44804.88
583.54	44495.92
583.70	44453.79
583.86	44685.51
584.02	44545.08
584.18	44781.47
584.34	44900.84
584.50	44493.58
584.66	44645.72
584.82	44509.97
584.98	44655.08
585.14	44362.51
585.30	44285.28
585.46	44706.57
585.62	44189.31
585.78	44870.41
585.94	44502.95
586.10	44849.35
586.26	44849.35
586.42	44989.78
586.58	44524.01
586.74	44811.90
586.90	44177.61
587.06	44947.65
587.22	44301.66
587.38	44870.41
587.54	44758.06
587.70	44893.82
587.86	44921.90
588.02	45235.53
588.18	45478.95
588.34	45059.99
588.49	45202.77
588.65	44531.03
588.81	44809.56
588.97	44713.59
589.13	44772.11
589.29	44566.14
589.45	45020.20
589.61	45036.59
589.77	45076.38
589.93	45277.66
590.08	45432.14
590.24	45015.52
590.40	45549.17
590.56	44877.43
590.72	44966.37
590.88	44584.86
