SpectraSuite Data File
++++++++++++++++++++++++++++++++++++
Date: Fri Oct 04 11:40:00 GMT-05:00 2013
User: price-jones
Dark Spectrum Present: No
Reference Spectrum Present: No
Number of Sampled Component Spectra: 1
Spectrometers: USB2+H05261
Integration Time (usec): 100000 (USB2+H05261)
Spectra Averaged: 1 (USB2+H05261)
Boxcar Smoothing: 0 (USB2+H05261)
Correct for Electrical Dark: No (USB2+H05261)
Strobe/Lamp Enabled: No (USB2+H05261)
Correct for Detector Non-linearity: No (USB2+H05261)
Correct for Stray Light: No (USB2+H05261)
Number of Pixels in Processed Spectrum: 2048
>>>>>Begin Processed Spectral Data<<<<<
365.73	37.45
365.92	37.45
366.12	37.45
366.32	0.00
366.52	0.00
366.72	0.00
366.91	0.00
367.11	0.00
367.31	0.00
367.51	0.00
367.70	0.00
367.90	0.00
368.10	0.00
368.30	0.00
368.49	0.00
368.69	0.00
368.89	0.00
369.09	0.00
369.28	0.00
369.48	0.00
369.68	0.00
369.87	0.00
370.07	46.81
370.27	23.41
370.47	53.83
370.66	25.75
370.86	100.64
371.06	42.13
371.25	95.96
371.45	131.07
371.65	74.90
371.84	138.09
372.04	135.75
372.24	212.99
372.44	114.69
372.63	110.01
372.83	236.39
373.03	191.92
373.22	70.22
373.42	133.41
373.62	184.90
373.81	131.07
374.01	198.95
374.21	215.33
374.40	149.79
374.60	140.43
374.79	205.97
374.99	163.84
375.19	149.79
375.38	182.56
375.58	170.86
375.78	231.71
375.97	182.56
376.17	198.95
376.37	166.18
376.56	187.24
376.76	227.03
376.95	121.71
377.15	184.90
377.35	180.22
377.54	177.88
377.74	121.71
377.93	180.22
378.13	184.90
378.33	231.71
378.52	156.82
378.72	140.43
378.91	163.84
379.11	135.75
379.31	119.37
379.50	210.65
379.70	212.99
379.89	170.86
380.09	194.26
380.28	154.48
380.48	112.35
380.68	149.79
380.87	163.84
381.07	177.88
381.26	121.71
381.46	170.86
381.65	217.67
381.85	166.18
382.04	184.90
382.24	175.54
382.43	133.41
382.63	184.90
382.83	142.77
383.02	180.22
383.22	245.76
383.41	147.45
383.61	215.33
383.80	189.58
384.00	154.48
384.19	142.77
384.39	227.03
384.58	241.08
384.78	180.22
384.97	128.73
385.17	215.33
385.36	156.82
385.56	156.82
385.75	166.18
385.95	175.54
386.14	198.95
386.34	154.48
386.53	161.50
386.72	187.24
386.92	222.35
387.11	173.20
387.31	191.92
387.50	117.03
387.70	224.69
387.89	222.35
388.09	217.67
388.28	126.39
388.48	152.13
388.67	215.33
388.86	259.80
389.06	147.45
389.25	224.69
389.45	205.97
389.64	154.48
389.84	245.76
390.03	163.84
390.22	145.11
390.42	189.58
390.61	170.86
390.81	170.86
391.00	236.39
391.19	215.33
391.39	238.73
391.58	234.05
391.78	173.20
391.97	241.08
392.16	212.99
392.36	285.55
392.55	276.18
392.75	227.03
392.94	166.18
393.13	229.37
393.33	259.80
393.52	227.03
393.71	292.57
393.91	248.10
394.10	208.31
394.29	255.12
394.49	205.97
394.68	234.05
394.88	248.10
395.07	250.44
395.26	299.59
395.46	299.59
395.65	301.93
395.84	278.52
396.04	313.63
396.23	238.73
396.42	315.97
396.62	257.46
396.81	311.29
397.00	273.84
397.19	287.89
397.39	276.18
397.58	283.20
397.77	287.89
397.97	276.18
398.16	367.46
398.35	390.87
398.55	337.04
398.74	325.33
398.93	292.57
399.12	299.59
399.32	346.40
399.51	269.16
399.70	365.12
399.90	358.10
400.09	337.04
400.28	390.87
400.47	425.98
400.67	397.89
400.86	386.19
401.05	390.87
401.24	365.12
401.44	418.96
401.63	437.68
401.82	425.98
402.01	372.15
402.21	388.53
402.40	409.59
402.59	397.89
402.78	456.40
402.97	418.96
403.17	402.57
403.36	388.53
403.55	447.04
403.74	433.00
403.93	414.27
404.13	505.56
404.32	470.45
404.51	498.53
404.70	585.13
404.89	493.85
405.09	463.43
405.28	500.87
405.47	451.72
405.66	521.94
405.85	470.45
406.05	444.70
406.24	505.56
406.43	468.11
406.62	507.90
406.81	601.52
407.00	617.90
407.20	573.43
407.39	573.43
407.58	545.34
407.77	624.92
407.96	585.13
408.15	601.52
408.34	641.31
408.54	636.63
408.73	610.88
408.92	596.84
409.11	631.94
409.30	634.29
409.49	613.22
409.68	573.43
409.87	603.86
410.07	641.31
410.26	734.93
410.45	660.03
410.64	702.16
410.83	772.38
411.02	690.46
411.21	765.36
411.40	812.17
411.59	727.91
411.78	823.87
411.98	805.14
412.17	770.04
412.36	788.76
412.55	798.12
412.74	898.77
412.93	877.70
413.12	777.06
413.31	866.00
413.50	943.24
413.69	884.72
413.88	863.66
414.07	807.48
414.26	919.83
414.45	894.08
414.64	976.00
414.83	971.32
415.02	936.21
415.22	1025.15
415.41	985.37
415.60	952.60
415.79	917.49
415.98	940.90
416.17	940.90
416.36	987.71
416.55	1018.13
416.74	976.00
416.93	1043.88
417.12	1039.20
417.31	1064.94
417.50	943.24
417.69	1118.78
417.88	1062.60
418.07	1086.01
418.26	1078.99
418.45	1144.52
418.64	1296.66
418.83	1256.87
419.02	1200.69
419.21	1188.99
419.39	1254.53
419.58	1181.97
419.77	1256.87
419.96	1064.94
420.15	1228.78
420.34	1245.16
420.53	1184.31
420.72	1254.53
420.91	1200.69
421.10	1242.82
421.29	1275.59
421.48	1196.01
421.67	1277.93
421.86	1259.21
422.05	1306.02
422.24	1191.33
422.43	1357.51
422.61	1320.06
422.80	1324.74
422.99	1317.72
423.18	1249.85
423.37	1364.53
423.56	1366.87
423.75	1401.98
423.94	1373.89
424.13	1306.02
424.32	1284.95
424.50	1366.87
424.69	1387.94
424.88	1446.45
425.07	1308.36
425.26	1357.51
425.45	1338.79
425.64	1334.11
425.83	1397.30
426.01	1423.05
426.20	1411.34
426.39	1348.15
426.58	1284.95
426.77	1313.04
426.96	1401.98
427.15	1273.25
427.33	1453.47
427.52	1392.62
427.71	1352.83
427.90	1413.68
428.09	1425.39
428.28	1362.19
428.46	1401.98
428.65	1418.36
428.84	1570.50
429.03	1458.15
429.22	1472.20
429.40	1446.45
429.59	1502.62
429.78	1455.81
429.97	1511.99
430.16	1474.54
430.34	1549.43
430.53	1568.16
430.72	1504.96
430.91	1497.94
431.10	1483.90
431.28	1509.65
431.47	1624.33
431.66	1582.20
431.85	1647.74
432.03	1629.01
432.22	1596.25
432.41	1612.63
432.60	1713.27
432.79	1614.97
432.97	1554.12
433.16	1750.72
433.35	1743.70
433.54	1610.29
433.72	1703.91
433.91	1584.54
434.10	1591.56
434.28	1694.55
434.47	1699.23
434.66	1720.29
434.85	1717.95
435.03	1757.74
435.22	1834.98
435.41	2216.49
435.59	2148.61
435.78	1933.28
435.97	1900.52
436.16	1888.81
436.34	1898.17
436.53	1879.45
436.72	1839.66
436.90	1713.27
437.09	1778.81
437.28	1769.44
437.46	1856.04
437.65	1893.49
437.84	1879.45
438.02	1900.52
438.21	1858.39
438.40	1874.77
438.58	1858.39
438.77	1959.03
438.96	1863.07
439.14	1912.22
439.33	1977.75
439.52	1966.05
439.70	1863.07
439.89	1973.07
440.08	2125.21
440.26	1998.82
440.45	2080.74
440.63	2005.84
440.82	2069.03
441.01	2008.18
441.19	2050.31
441.38	2019.88
441.57	2136.91
441.75	2195.42
441.94	2047.97
442.12	2256.28
442.31	2136.91
442.50	2132.23
442.68	2202.44
442.87	2118.18
443.05	2179.04
443.24	2317.13
443.43	2277.34
443.61	2286.70
443.80	2417.77
443.98	2202.44
444.17	2314.79
444.35	2263.30
444.54	2136.91
444.73	2328.83
444.91	2239.89
445.10	2202.44
445.28	2232.87
445.47	2186.06
445.65	2307.77
445.84	2214.15
446.02	2282.02
446.21	2228.19
446.39	2200.10
446.58	2286.70
446.77	2300.75
446.95	2162.66
447.14	2312.45
447.32	2408.41
447.51	2326.49
447.69	2331.17
447.88	2368.62
448.06	2282.02
448.25	2260.96
448.43	2265.64
448.62	2361.60
448.80	2347.56
448.99	2370.96
449.17	2321.81
449.36	2394.37
449.54	2370.96
449.73	2370.96
449.91	2382.67
450.10	2476.29
450.28	2450.54
450.46	2518.42
450.65	2551.18
450.83	2499.69
451.02	2406.07
451.20	2429.48
451.39	2504.37
451.57	2485.65
451.76	2497.35
451.94	2476.29
452.13	2600.34
452.31	2349.90
452.49	2504.37
452.68	2356.92
452.86	2539.48
453.05	2656.51
453.23	2600.34
453.42	2583.95
453.60	2518.42
453.78	2590.97
453.97	2588.63
454.15	2612.04
454.34	2492.67
454.52	2621.40
454.70	2642.46
454.89	2722.04
455.07	2600.34
455.26	2602.68
455.44	2633.10
455.62	2576.93
455.81	2593.31
455.99	2715.02
456.17	2579.27
456.36	2616.72
456.54	2810.98
456.73	2740.77
456.91	2820.35
457.09	2796.94
457.28	2820.35
457.46	2689.28
457.64	2806.30
457.83	2860.13
458.01	2909.29
458.19	2892.90
458.38	2806.30
458.56	2808.64
458.74	2935.03
458.93	2935.03
459.11	2937.37
459.29	2834.39
459.48	2951.42
459.66	3080.14
459.84	2984.18
460.03	2986.52
460.21	2890.56
460.39	2942.05
460.57	2951.42
460.76	3005.25
460.94	2963.12
461.12	3035.67
461.31	3005.25
461.49	2960.78
461.67	3002.91
461.85	3009.93
462.04	2878.86
462.22	3459.31
462.40	3061.42
462.59	3040.36
462.77	3014.61
462.95	3159.72
463.13	3131.64
463.32	3185.47
463.50	3213.56
463.68	3225.26
463.86	3110.57
464.05	3136.32
464.23	3073.12
464.41	3243.98
464.59	3075.46
464.78	3222.92
464.96	3176.11
465.14	3136.32
465.32	3215.90
465.50	3279.09
465.69	3246.32
465.87	3141.00
466.05	3234.62
466.23	3243.98
466.41	3197.17
466.60	3311.86
466.78	3215.90
466.96	3187.81
467.14	3332.92
467.32	3363.35
467.51	3349.31
467.69	3241.64
467.87	3332.92
468.05	3288.45
468.23	3468.67
468.41	3424.20
468.60	3293.13
468.78	3426.54
468.96	3353.99
469.14	3447.61
469.32	3269.73
469.50	3410.16
469.69	3461.65
469.87	3566.98
470.05	3513.14
470.23	3569.32
470.41	3435.91
470.59	3616.13
470.77	3494.42
470.95	3541.23
471.14	3548.25
471.32	3564.64
471.50	3627.83
471.68	3559.95
471.86	3613.79
472.04	3707.41
472.22	3824.44
472.40	3627.83
472.58	3705.07
472.77	3597.40
472.95	3777.62
473.13	4035.08
473.31	3705.07
473.49	3730.81
473.67	3786.99
473.85	3686.34
474.03	3934.44
474.21	3875.93
474.39	4014.02
474.57	3934.44
474.75	3915.72
474.93	3831.46
475.12	4021.04
475.30	3922.74
475.48	3936.78
475.66	3922.74
475.84	3948.48
476.02	4023.38
476.20	4030.40
476.38	4210.62
476.56	4245.73
476.74	4098.28
476.92	4147.43
477.10	4208.28
477.28	4184.88
477.46	4180.20
477.64	4294.88
477.82	4308.93
478.00	4297.22
478.18	4418.93
478.36	4475.10
478.54	4552.34
478.72	4571.07
478.90	4510.21
479.08	4554.68
479.26	4489.15
479.44	4617.88
479.62	4723.20
479.80	4641.28
479.98	4727.88
480.16	4919.81
480.34	4748.95
480.52	4861.29
480.70	4816.82
480.88	4877.68
481.06	4779.37
481.24	4943.21
481.41	4720.86
481.59	4973.64
481.77	4957.25
481.95	4997.04
482.13	5081.30
482.31	5130.45
482.49	5212.37
482.67	5203.01
482.85	5371.53
483.03	5565.79
483.21	5420.68
483.39	5495.58
483.57	5345.78
483.74	5518.98
483.92	5617.29
484.10	5565.79
484.28	5610.26
484.46	5593.88
484.64	5713.25
484.82	5661.76
485.00	5806.87
485.18	5891.13
485.35	5928.58
485.53	6033.90
485.71	5827.93
485.89	6134.54
486.07	6164.97
486.25	6176.67
486.43	6111.14
486.61	6270.30
486.78	6143.91
486.96	6277.32
487.14	6392.00
487.32	6478.60
487.50	6331.15
487.68	6413.07
487.85	6726.70
488.03	6565.20
488.21	6593.29
488.39	6604.99
488.57	6789.89
488.75	6740.74
488.92	7007.56
489.10	7000.54
489.28	6862.45
489.46	7026.29
489.64	6981.82
489.81	7307.15
489.99	7204.17
490.17	7117.57
490.35	7241.62
490.53	7384.39
490.70	7389.07
490.88	7485.03
491.06	7564.61
491.24	7417.16
491.41	7358.64
491.59	7475.67
491.77	7485.03
491.95	7679.30
492.13	7698.02
492.30	7569.29
492.48	7588.02
492.66	7719.09
492.84	7648.87
493.01	7892.29
493.19	7838.45
493.37	8009.31
493.54	7974.21
493.72	8088.89
493.90	7932.08
494.08	8058.46
494.25	8304.22
494.43	8107.62
494.61	8109.96
494.79	8226.98
494.96	8166.13
495.14	8285.50
495.32	8278.47
495.49	8505.51
495.67	8664.66
495.85	8657.64
496.02	8833.18
496.20	8545.30
496.38	8779.35
496.55	8884.67
496.73	8940.85
496.91	8971.27
497.09	8802.75
497.26	8863.61
497.44	8940.85
497.62	9071.92
497.79	9160.86
497.97	9263.84
498.14	9284.91
498.32	8933.82
498.50	9259.16
498.67	9249.80
498.85	9249.80
499.03	9221.71
499.20	9371.50
499.38	9238.09
499.56	9507.26
499.73	9607.90
499.91	9509.60
500.08	9444.06
500.26	9425.34
500.44	9680.46
500.61	9607.90
500.79	9668.75
500.97	9596.20
501.14	9764.72
501.32	9703.86
501.49	9802.16
501.67	9769.40
501.84	9802.16
502.02	9933.23
502.20	9795.14
502.37	10094.73
502.55	9973.02
502.72	10024.51
502.90	10068.98
503.07	10097.07
503.25	10106.43
503.43	10193.03
503.60	10328.78
503.78	10059.62
503.95	10335.81
504.13	10026.86
504.30	10186.01
504.48	10359.21
504.65	10497.30
504.83	10349.85
505.01	10726.68
505.18	10317.08
505.36	10689.23
505.53	10628.37
505.71	10490.28
505.88	10593.26
506.06	10579.22
506.23	10565.18
506.41	10869.45
506.58	10927.96
506.76	10810.93
506.93	10656.46
507.11	10644.76
507.28	10904.56
507.46	10979.45
507.63	10951.37
507.81	11066.05
507.98	10993.50
508.16	11040.31
508.33	11084.78
508.50	10960.73
508.68	11037.97
508.85	11241.59
509.03	11115.20
509.20	11117.54
509.38	11323.51
509.55	11571.61
509.73	11501.39
509.90	11403.09
510.08	11358.62
510.25	11513.10
510.42	11492.03
510.60	11618.42
510.77	11510.75
510.95	11604.38
511.12	11630.12
511.30	11559.91
511.47	11524.80
511.64	11836.09
511.82	11702.68
511.99	11882.90
512.17	11847.79
512.34	11850.13
512.51	11929.71
512.69	11906.31
512.86	11810.34
513.04	11871.20
513.21	12287.81
513.38	12163.76
513.56	12168.45
513.73	11974.18
513.90	12140.36
514.08	12044.40
514.25	12269.09
514.43	12238.66
514.60	12407.18
514.77	12374.41
514.95	12458.67
515.12	12315.90
515.29	12360.37
515.47	12545.27
515.64	12681.02
515.81	12404.84
515.99	12437.61
516.16	12603.78
516.33	12362.71
516.51	12641.23
516.68	12556.97
516.85	12659.96
517.03	12514.84
517.20	12826.14
517.37	12730.17
517.54	12753.58
517.72	12891.67
517.89	12624.85
518.06	12695.07
518.24	12905.71
518.41	12809.75
518.58	12870.61
518.75	12961.89
518.93	12989.97
519.10	13015.72
519.27	13025.08
519.45	12994.65
519.62	13097.64
519.79	13109.34
519.96	13116.36
520.14	13348.08
520.31	13378.50
520.48	13151.47
520.65	13540.00
520.83	13128.06
521.00	13165.51
521.17	13099.98
521.34	13345.73
521.52	13380.84
521.69	13352.76
521.86	13603.19
522.03	13523.62
522.20	13521.27
522.38	13455.74
522.55	13680.43
522.72	13760.01
522.89	13610.22
523.07	13755.33
523.24	13951.93
523.41	13820.86
523.58	13678.09
523.75	13771.71
523.92	13687.45
524.10	13664.05
524.27	13860.65
524.44	13912.14
524.61	14073.64
524.78	13984.70
524.96	13977.68
525.13	14104.07
525.30	14111.09
525.47	14125.13
525.64	14190.67
525.81	14345.14
525.98	14441.11
526.16	14195.35
526.33	14171.94
526.50	14218.75
526.67	13956.61
526.84	14195.35
527.01	13961.30
527.18	14281.95
527.36	14415.36
527.53	14618.99
527.70	14633.03
527.87	14614.30
528.04	14516.00
528.21	14600.26
528.38	14494.94
528.55	14501.96
528.72	14466.85
528.89	14525.36
529.07	14511.32
529.24	14501.96
529.41	14710.27
529.58	14588.56
529.75	14487.92
529.92	14553.45
530.09	14518.34
530.26	14780.48
530.43	14623.67
530.60	14569.83
530.77	14909.21
530.94	14944.32
531.11	14867.08
531.28	15063.69
531.46	14651.75
531.63	15009.86
531.80	14892.83
531.97	14986.45
532.14	14778.14
532.31	14925.60
532.48	15009.86
532.65	14822.61
532.82	14785.16
532.99	15176.03
533.16	14820.27
533.33	15412.43
533.50	15330.51
533.67	15272.00
533.84	15133.90
534.01	14771.12
534.18	14984.11
534.35	15091.77
534.52	15119.86
534.69	15215.82
534.86	15330.51
535.03	15199.44
535.20	15257.95
535.37	15410.09
535.54	15412.43
535.71	15480.30
535.88	15403.07
536.05	15550.52
536.22	15557.54
536.38	15674.57
536.55	15751.81
536.72	15597.33
536.89	15433.49
537.06	15630.10
537.23	15580.95
537.40	15697.97
537.57	15564.56
537.74	15679.25
537.91	15857.13
538.08	15925.00
538.25	15843.09
538.42	15758.83
538.59	16002.24
538.75	15672.23
538.92	15660.52
539.09	15826.70
539.26	15730.74
539.43	16086.50
539.60	16081.82
539.77	16063.10
539.94	16238.64
540.11	16116.93
540.28	16095.86
540.44	16271.40
540.61	16215.23
540.78	16278.43
540.95	16313.53
541.12	16500.78
541.29	16493.76
541.46	16287.79
541.62	16407.16
541.79	16416.52
541.96	16542.91
542.13	16645.89
542.30	16629.51
542.47	16669.30
542.63	16741.85
542.80	16814.41
542.97	16458.65
543.14	16688.02
543.31	16704.40
543.48	16772.28
543.64	16896.33
543.81	16723.13
543.98	16868.24
544.15	16725.47
544.32	17231.02
544.48	17106.98
544.65	16964.20
544.82	16938.46
544.99	16760.58
545.16	16905.69
545.32	17048.46
545.49	17582.10
545.66	17860.63
545.83	17958.93
546.00	17900.42
546.16	17802.11
546.33	17076.55
546.50	16968.88
546.67	17095.27
546.83	16601.42
547.00	17018.04
547.17	16765.26
547.34	16826.11
547.50	17039.10
547.67	16943.14
547.84	16957.18
548.00	17102.29
548.17	17191.23
548.34	16908.03
548.51	17345.71
548.67	17252.09
548.84	16947.82
549.01	17029.74
549.18	17036.76
549.34	17055.48
549.51	17205.28
549.68	17116.34
549.84	16842.50
550.01	16908.03
550.18	17104.64
550.34	17043.78
550.51	17231.02
550.68	17191.23
550.84	16996.97
551.01	17198.26
551.18	17097.61
551.34	17074.21
551.51	16943.14
551.68	17092.93
551.84	17109.32
552.01	17057.82
552.18	17151.45
552.34	17104.64
552.51	17242.73
552.68	16985.27
552.84	17291.88
553.01	17315.28
553.18	17514.23
553.34	17245.07
553.51	17207.62
553.67	17029.74
553.84	17467.42
554.01	17193.58
554.17	17090.59
554.34	17149.11
554.51	17015.69
554.67	17259.11
554.84	17399.54
555.00	17378.48
555.17	16985.27
555.33	17397.20
555.50	17383.16
555.67	17163.15
555.83	17083.57
556.00	17294.22
556.16	17350.39
556.33	17282.52
556.50	17383.16
556.66	17734.24
556.83	17186.55
556.99	17310.60
557.16	17109.32
557.32	17605.51
557.49	17584.44
557.65	17270.81
557.82	17181.87
557.98	17717.86
558.15	17434.65
558.32	17411.25
558.48	17163.15
558.65	17518.91
558.81	17661.68
558.98	17231.02
559.14	17418.27
559.31	17584.44
559.47	17238.05
559.64	17298.90
559.80	17422.95
559.97	17701.47
560.13	17507.21
560.30	17532.95
560.46	17951.91
560.63	17516.57
560.79	17591.47
560.96	17862.97
561.12	17502.53
561.29	17671.04
561.45	17694.45
561.61	17764.67
561.78	17722.54
561.94	17738.92
562.11	17951.91
562.27	17322.30
562.44	17521.25
562.60	17357.41
562.77	17755.30
562.93	17530.61
563.10	17900.42
563.26	17549.34
563.42	17659.34
563.59	17483.80
563.75	17607.85
563.92	17493.16
564.08	17441.67
564.24	17701.47
564.41	17832.54
564.57	17514.23
564.74	17762.33
564.90	17444.01
565.07	17748.28
565.23	17654.66
565.39	17507.21
565.56	18139.15
565.72	17713.17
565.88	17898.08
566.05	17738.92
566.21	17649.98
566.38	17605.51
566.54	17649.98
566.70	17783.39
566.87	18190.64
567.03	17525.93
567.19	17891.06
567.36	17771.69
567.52	17720.20
567.68	17933.18
567.85	17642.96
568.01	17603.17
568.17	17598.49
568.34	17729.56
568.50	17984.68
568.66	17678.07
568.83	17848.93
568.99	17671.04
569.15	17776.37
569.32	17692.11
569.48	17949.57
569.64	17713.17
569.81	17619.55
569.97	17919.14
570.13	17884.03
570.30	17916.80
570.46	17874.67
570.62	17816.16
570.78	17909.78
570.95	17542.32
571.11	17788.07
571.27	17778.71
571.43	18136.81
571.60	17806.80
571.76	17769.35
571.92	18075.96
572.09	17956.59
572.25	17954.25
572.41	18097.02
572.57	17895.74
572.74	17813.82
572.90	17982.34
573.06	17818.50
573.22	17645.30
573.38	17987.02
573.55	18178.94
573.71	17935.53
573.87	17975.31
574.03	17898.08
574.20	17771.69
574.36	17998.72
574.52	17745.94
574.68	17809.14
574.84	17820.84
575.01	17874.67
575.17	17687.43
575.33	17834.88
575.49	18366.18
575.65	17877.01
575.82	17858.29
575.98	17797.43
576.14	17804.46
576.30	17774.03
576.46	17860.63
576.62	18237.45
576.79	18099.36
576.95	18001.06
577.11	18274.90
577.27	17956.59
577.43	17851.27
577.59	18094.68
577.75	18050.21
577.92	17855.95
578.08	17900.42
578.24	17671.04
578.40	17977.65
578.56	18214.05
578.72	18319.37
578.88	18010.42
579.04	18686.84
579.21	17879.35
579.37	17895.74
579.53	18176.60
579.69	17809.14
579.85	18047.87
580.01	18143.83
580.17	17970.63
580.33	17987.02
580.49	18239.79
580.65	18057.23
580.82	17987.02
580.98	18221.07
581.14	17804.46
581.30	18129.79
581.46	18104.04
581.62	17785.73
581.78	17895.74
581.94	18120.43
582.10	18190.64
582.26	17923.82
582.42	17657.00
582.58	18202.35
582.74	18242.14
582.90	18230.43
583.06	18148.51
583.22	17994.04
583.38	18036.17
583.54	17947.23
583.70	18078.30
583.86	17919.14
584.02	18047.87
584.18	18256.18
584.34	17956.59
584.50	18246.82
584.66	18139.15
584.82	17874.67
584.98	18216.39
585.14	18024.47
585.30	17984.68
585.46	18019.78
585.62	17792.75
585.78	17998.72
585.94	18012.76
586.10	17813.82
586.26	18284.26
586.42	18050.21
586.58	18115.75
586.74	18197.67
586.90	18097.02
587.06	18129.79
587.22	18106.38
587.38	18244.48
587.54	18188.30
587.70	18195.32
587.86	18125.11
588.02	18129.79
588.18	18263.20
588.34	18188.30
588.49	18382.57
588.65	18106.38
588.81	18127.45
588.97	18272.56
589.13	17980.00
589.29	18005.74
589.45	18405.97
589.61	18129.79
589.77	18183.62
589.93	18008.08
590.08	18195.32
590.24	18202.35
590.40	18319.37
590.56	18153.20
590.72	18405.97
590.88	18354.48
591.04	17879.35
591.20	18321.71
591.35	18251.50
591.51	18352.14
591.67	18335.76
591.83	18284.26
591.99	17996.38
592.15	18244.48
592.31	18075.96
592.46	17982.34
592.62	18204.69
592.78	18319.37
592.94	18129.79
593.10	18368.52
593.26	18338.10
