SpectraSuite Data File
++++++++++++++++++++++++++++++++++++
Date: Fri Oct 04 11:39:19 GMT-05:00 2013
User: price-jones
Dark Spectrum Present: No
Reference Spectrum Present: No
Number of Sampled Component Spectra: 1
Spectrometers: USB2+H05261
Integration Time (usec): 100000 (USB2+H05261)
Spectra Averaged: 1 (USB2+H05261)
Boxcar Smoothing: 0 (USB2+H05261)
Correct for Electrical Dark: No (USB2+H05261)
Strobe/Lamp Enabled: No (USB2+H05261)
Correct for Detector Non-linearity: No (USB2+H05261)
Correct for Stray Light: No (USB2+H05261)
Number of Pixels in Processed Spectrum: 2048
>>>>>Begin Processed Spectral Data<<<<<
365.73	51.49
365.92	51.49
366.12	51.49
366.32	0.00
366.52	0.00
366.72	9.36
366.91	0.00
367.11	0.00
367.31	0.00
367.51	0.00
367.70	0.00
367.90	0.00
368.10	0.00
368.30	0.00
368.49	0.00
368.69	0.00
368.89	0.00
369.09	0.00
369.28	0.00
369.48	0.00
369.68	0.00
369.87	46.81
370.07	0.00
370.27	25.75
370.47	133.41
370.66	241.08
370.86	229.37
371.06	271.50
371.25	257.46
371.45	229.37
371.65	269.16
371.84	318.31
372.04	344.06
372.24	243.42
372.44	367.46
372.63	393.21
372.83	351.08
373.03	332.36
373.22	252.78
373.42	414.27
373.62	369.80
373.81	418.96
374.01	409.59
374.21	337.04
374.40	353.42
374.60	353.42
374.79	337.04
374.99	294.91
375.19	386.19
375.38	435.34
375.58	337.04
375.78	397.89
375.97	365.12
376.17	430.66
376.37	367.46
376.56	447.04
376.76	395.55
376.95	369.80
377.15	393.21
377.35	365.12
377.54	433.00
377.74	320.65
377.93	376.83
378.13	360.44
378.33	383.85
378.52	388.53
378.72	376.83
378.91	437.68
379.11	416.62
379.31	458.74
379.50	407.25
379.70	468.11
379.89	500.87
380.09	491.51
380.28	397.89
380.48	484.49
380.68	514.92
380.87	496.19
381.07	461.09
381.26	505.56
381.46	545.34
381.65	451.72
381.85	475.13
382.04	489.17
382.24	418.96
382.43	400.23
382.63	475.13
382.83	507.90
383.02	444.70
383.22	533.64
383.41	418.96
383.61	470.45
383.80	533.64
384.00	528.96
384.19	505.56
384.39	533.64
384.58	484.49
384.78	489.17
384.97	634.29
385.17	519.60
385.36	512.58
385.56	608.54
385.75	486.83
385.95	538.32
386.14	594.50
386.34	582.79
386.53	615.56
386.72	505.56
386.92	643.65
387.11	613.22
387.31	603.86
387.50	622.58
387.70	610.88
387.89	531.30
388.09	547.69
388.28	505.56
388.48	566.41
388.67	713.86
388.86	589.82
389.06	552.37
389.25	685.78
389.45	617.90
389.64	564.07
389.84	627.26
390.03	617.90
390.22	603.86
390.42	638.97
390.61	638.97
390.81	664.71
391.00	688.12
391.19	791.10
391.39	660.03
391.58	648.33
391.78	678.76
391.97	657.69
392.16	767.70
392.36	716.20
392.55	723.23
392.75	786.42
392.94	669.39
393.13	741.95
393.33	713.86
393.52	713.86
393.71	765.36
393.91	814.51
394.10	641.31
394.29	676.41
394.49	767.70
394.68	795.78
394.88	734.93
395.07	770.04
395.26	788.76
395.46	840.25
395.65	786.42
395.84	795.78
396.04	945.58
396.23	833.23
396.42	844.93
396.62	861.32
396.81	868.34
397.00	854.30
397.19	873.02
397.39	922.17
397.58	940.90
397.77	894.08
397.97	933.87
398.16	947.92
398.35	990.05
398.55	905.79
398.74	936.21
398.93	938.55
399.12	983.02
399.32	858.98
399.51	957.28
399.70	1078.99
399.90	983.02
400.09	976.00
400.28	966.64
400.47	1043.88
400.67	1144.52
400.86	1048.56
401.05	1109.41
401.24	1067.28
401.44	1093.03
401.63	1151.54
401.82	1146.86
402.01	1132.82
402.21	1179.63
402.40	1128.14
402.59	1111.75
402.78	1160.91
402.97	1191.33
403.17	1156.22
403.36	1198.35
403.55	1214.74
403.74	1186.65
403.93	1226.44
404.13	1357.51
404.32	1226.44
404.51	1177.29
404.70	1238.14
404.89	1273.25
405.09	1329.42
405.28	1247.51
405.47	1397.30
405.66	1306.02
405.85	1303.68
406.05	1371.55
406.24	1359.85
406.43	1425.39
406.62	1467.52
406.81	1413.68
407.00	1446.45
407.20	1448.79
407.39	1439.43
407.58	1556.46
407.77	1526.03
407.96	1502.62
408.15	1561.14
408.34	1497.94
408.54	1647.74
408.73	1570.50
408.92	1610.29
409.11	1448.79
409.30	1600.93
409.49	1614.97
409.68	1659.44
409.87	1575.18
410.07	1685.19
410.26	1610.29
410.45	1827.96
410.64	1757.74
410.83	1666.46
411.02	1776.47
411.21	1785.83
411.40	1872.43
411.59	1816.26
411.78	1785.83
411.98	1877.11
412.17	1909.88
412.36	1816.26
412.55	1905.20
412.74	1968.39
412.93	1994.14
413.12	1989.46
413.31	2179.04
413.50	2022.22
413.69	2143.93
413.88	2083.08
414.07	2097.12
414.26	2092.44
414.45	2071.37
414.64	2207.13
414.83	2176.70
415.02	2179.04
415.22	2209.47
415.41	2359.26
415.60	2263.30
415.79	2286.70
415.98	2377.98
416.17	2331.17
416.36	2300.75
416.55	2413.09
416.74	2441.18
416.93	2466.92
417.12	2340.54
417.31	2590.97
417.50	2497.35
417.69	2661.19
417.88	2579.27
418.07	2459.90
418.26	2546.50
418.45	2513.74
418.64	2684.59
418.83	2689.28
419.02	2761.83
419.21	2710.34
419.39	2722.04
419.58	2696.30
419.77	2612.04
419.96	2775.88
420.15	2899.92
420.34	2626.08
420.53	2829.71
420.72	2928.01
420.91	2740.77
421.10	2923.33
421.29	2883.54
421.48	2843.75
421.67	2951.42
421.86	2937.37
422.05	3040.36
422.24	2946.73
422.43	2885.88
422.61	2918.65
422.80	2956.10
422.99	3038.02
423.18	3045.04
423.37	2963.12
423.56	3047.38
423.75	3091.85
423.94	2932.69
424.13	2806.30
424.32	2986.52
424.50	3021.63
424.69	3087.17
424.88	3105.89
425.07	3089.51
425.26	2913.97
425.45	3157.38
425.64	2979.50
425.83	3019.29
426.01	3021.63
426.20	3101.21
426.39	3023.97
426.58	3049.72
426.77	3098.87
426.96	3169.09
427.15	3021.63
427.33	3098.87
427.52	3178.45
427.71	3255.69
427.90	3171.43
428.09	3300.16
428.28	3222.92
428.46	3370.37
428.65	3300.16
428.84	3403.14
429.03	3379.73
429.22	3346.97
429.40	3265.05
429.59	3536.55
429.78	3370.37
429.97	3283.77
430.16	3222.92
430.34	3328.24
430.53	3515.48
430.72	3400.80
430.91	3410.16
431.10	3414.84
431.28	3557.61
431.47	3534.21
431.66	3602.08
431.85	3684.00
432.03	3709.75
432.22	3756.56
432.41	3468.67
432.60	3719.11
432.79	3588.04
432.97	3602.08
433.16	3749.54
433.35	3660.60
433.54	3838.48
433.72	3740.18
433.91	3775.28
434.10	3801.03
434.28	3889.97
434.47	3889.97
434.66	3822.09
434.85	3845.50
435.03	4014.02
435.22	3971.89
435.41	4362.76
435.59	4243.39
435.78	4124.02
435.97	4051.47
436.16	3983.59
436.34	4067.85
436.53	3990.61
436.72	4060.83
436.90	3929.76
437.09	4187.22
437.28	3922.74
437.46	3960.19
437.65	4187.22
437.84	4100.62
438.02	4049.13
438.21	4124.02
438.40	4201.26
438.58	4283.18
438.77	4255.09
438.96	4231.69
439.14	4327.65
439.33	4486.81
439.52	4444.68
439.70	4498.51
439.89	4573.41
440.08	4545.32
440.26	4643.62
440.45	4519.57
440.63	4582.77
440.82	4793.42
441.01	4535.96
441.19	4681.07
441.38	4784.06
441.57	4952.57
441.75	4727.88
441.94	4830.87
442.12	4868.31
442.31	5057.90
442.50	4992.36
442.68	4926.83
442.87	4940.87
443.05	5081.30
443.24	5032.15
443.43	4983.00
443.61	5109.39
443.80	5238.12
443.98	5057.90
444.17	4835.55
444.35	5095.35
444.54	5247.48
444.73	5212.37
444.91	5053.22
445.10	5167.90
445.28	4957.25
445.47	5081.30
445.65	5057.90
445.84	5174.92
446.02	5111.73
446.21	5146.84
446.39	5167.90
446.58	5313.02
446.77	5116.41
446.95	4997.04
447.14	5217.05
447.32	5369.19
447.51	5240.46
447.69	5401.96
447.88	5142.16
448.06	5205.35
448.25	5146.84
448.43	5317.70
448.62	5385.57
448.80	5343.44
448.99	5247.48
449.17	5362.17
449.36	5348.12
449.54	5427.70
449.73	5556.43
449.91	5568.13
450.10	5523.66
450.28	5624.31
450.46	5591.54
450.65	5432.38
450.83	5504.94
451.02	5722.61
451.20	5643.03
451.39	5621.97
451.57	5565.79
451.76	5577.50
451.94	5743.67
452.13	5767.08
452.31	5619.63
452.49	5579.84
452.68	5706.23
452.86	5645.37
453.05	5844.32
453.23	5912.19
453.42	5717.93
453.60	5886.45
453.78	5741.33
453.97	5788.14
454.15	5858.36
454.34	5954.32
454.52	5912.19
454.70	5975.39
454.89	5746.02
455.07	5837.30
455.26	6143.91
455.44	6045.60
455.62	6125.18
455.81	6059.65
455.99	6078.37
456.17	6155.61
456.36	6214.12
456.54	6359.24
456.73	6258.59
456.91	6487.96
457.09	6195.40
457.28	6370.94
457.46	6169.65
457.64	6534.78
457.83	6403.71
458.01	6422.43
458.19	6502.01
458.38	6382.64
458.56	6558.18
458.74	6663.51
458.93	6593.29
459.11	6700.95
459.29	6544.14
459.48	6572.22
459.66	6771.17
459.84	6693.93
460.03	6820.32
460.21	6715.00
460.39	6878.83
460.57	6626.06
460.76	6825.00
460.94	6869.47
461.12	6913.94
461.31	6712.66
461.49	6764.15
461.67	6981.82
461.85	7056.72
462.04	7080.12
462.22	7463.97
462.40	7206.51
462.59	7133.95
462.77	7007.56
462.95	7140.97
463.13	7056.72
463.32	7279.07
463.50	7075.44
463.68	7157.36
463.86	7227.57
464.05	7073.10
464.23	7311.83
464.41	7293.11
464.59	7073.10
464.78	7417.16
464.96	7475.67
465.14	7220.55
465.32	7499.08
465.50	7501.42
465.69	7466.31
465.87	7438.22
466.05	7515.46
466.23	7442.90
466.41	7445.24
466.60	7733.13
466.78	7557.59
466.96	7468.65
467.14	7545.89
467.32	7777.60
467.51	7702.70
467.69	7559.93
467.87	7637.17
468.05	7803.35
468.23	7683.98
468.41	7721.43
468.60	7655.89
468.78	7836.11
468.96	7786.96
469.14	7836.11
469.32	7885.26
469.50	7742.49
469.69	8030.38
469.87	7978.89
470.05	8194.22
470.23	8084.21
470.41	8072.51
470.59	8205.92
470.77	8065.49
470.95	8063.15
471.14	8093.57
471.32	7964.84
471.50	8325.29
471.68	8383.80
471.86	8325.29
472.04	8353.37
472.22	8519.55
472.40	8245.71
472.58	8578.06
472.77	8421.25
472.95	8423.59
473.13	8751.26
473.31	8734.88
473.49	8454.02
473.67	8753.60
473.85	8561.68
474.03	8964.25
474.21	8879.99
474.39	9039.15
474.57	9036.81
474.75	9085.96
474.93	9249.80
475.12	9259.16
475.30	9221.71
475.48	9221.71
475.66	9221.71
475.84	9238.09
476.02	9369.16
476.20	9329.38
476.38	9511.94
476.56	9731.95
476.74	9465.13
476.92	9839.61
477.10	9767.06
477.28	9954.30
477.46	10033.88
477.64	10251.55
477.82	10094.73
478.00	10380.28
478.18	10293.68
478.36	10146.22
478.54	10492.62
478.72	10651.78
478.90	10572.20
479.08	10574.54
479.26	10665.82
479.44	10890.51
479.62	10806.25
479.80	10792.21
479.98	11225.21
480.16	11105.84
480.34	11234.57
480.52	11358.62
480.70	11419.47
480.88	11185.42
481.06	11431.18
481.24	11548.20
481.41	11681.61
481.59	11616.08
481.77	11985.88
481.95	12070.14
482.13	12107.59
482.31	12166.10
482.49	12173.13
482.67	12262.07
482.85	12189.51
483.03	12613.15
483.21	12500.80
483.39	12877.63
483.57	12870.61
483.74	12830.82
483.92	13055.51
484.10	12985.29
484.28	13165.51
484.46	13439.36
484.64	13563.40
484.82	13547.02
485.00	13530.64
485.18	13659.37
485.35	13874.70
485.53	14045.55
485.71	13947.25
485.89	14284.29
486.07	14104.07
486.25	14473.87
486.43	14508.98
486.61	14483.24
486.78	14609.62
486.96	14656.43
487.14	14951.34
487.32	14988.79
487.50	15082.41
487.68	15236.89
487.85	15590.31
488.03	15620.74
488.21	15885.22
488.39	15484.98
488.57	15747.12
488.75	15669.89
488.92	16325.24
489.10	16446.94
489.28	16400.13
489.46	16512.48
489.64	16552.27
489.81	16987.61
489.99	16402.47
490.17	16922.07
490.35	17319.96
490.53	17371.46
490.70	17191.23
490.88	17289.54
491.06	17565.72
491.24	17771.69
491.41	17797.43
491.59	17972.97
491.77	17923.82
491.95	18101.70
492.13	18457.46
492.30	18321.71
492.48	18228.09
492.66	18328.74
492.84	18132.13
493.01	18644.71
493.19	18721.95
493.37	18974.72
493.54	19080.05
493.72	19096.43
493.90	19103.45
494.08	19538.79
494.25	19527.09
494.43	19618.37
494.61	19807.95
494.79	19976.47
494.96	19892.21
495.14	19679.22
495.32	20013.92
495.49	20016.26
495.67	20259.68
495.85	20559.27
496.02	20744.17
496.20	20966.52
496.38	20847.15
496.55	20627.14
496.73	21238.02
496.91	21163.12
497.09	21226.32
497.26	21191.21
497.44	21326.96
497.62	21678.04
497.79	21710.81
497.97	21556.33
498.14	21671.02
498.32	22038.48
498.50	22207.00
498.67	22155.51
498.85	22228.07
499.03	22099.34
499.20	22391.91
499.38	22375.52
499.56	22691.49
499.73	22576.81
499.91	22876.40
500.08	23033.21
500.26	22932.57
500.44	23124.49
500.61	22986.40
500.79	23379.61
500.97	23498.98
501.14	23662.82
501.32	23559.83
501.49	23562.17
501.67	23410.04
501.84	23410.04
502.02	23751.76
502.20	23601.96
502.37	23892.19
502.55	23939.00
502.72	24500.73
502.90	24416.47
503.07	24116.88
503.25	24159.01
503.43	24437.53
503.60	24521.79
503.78	24655.20
503.95	24524.13
504.13	24690.31
504.30	24477.32
504.48	24664.57
504.65	24765.21
504.83	24959.47
505.01	25191.19
505.18	25362.04
505.36	25282.47
505.53	25266.08
505.71	25326.94
505.88	25446.30
506.06	25488.43
506.23	25790.36
506.41	25867.60
506.58	25858.24
506.76	25713.13
506.93	26019.74
507.11	26043.14
507.28	26164.85
507.46	26302.94
507.63	26426.99
507.81	26375.50
507.98	26141.44
508.16	26342.73
508.33	26363.79
508.50	26670.40
508.68	26665.72
508.85	26747.64
509.03	26689.13
509.20	27072.98
509.38	27220.43
509.55	27236.81
509.73	27372.57
509.90	27646.41
510.08	27117.45
510.25	27482.57
510.42	27517.68
510.60	27892.16
510.77	27758.75
510.95	28023.23
511.12	27887.48
511.30	27903.87
511.47	27868.76
511.64	28086.43
511.82	28048.98
511.99	28304.10
512.17	28613.05
512.34	28187.07
512.51	28659.86
512.69	28601.35
512.86	28596.67
513.04	28893.91
513.21	29116.26
513.38	29067.11
513.56	28961.79
513.73	28865.83
513.90	29216.91
514.08	29153.71
514.25	29308.19
514.43	29235.63
514.60	29450.96
514.77	29645.23
514.95	29586.71
515.12	29493.09
515.29	29535.22
515.47	30012.69
515.64	30003.33
515.81	30160.14
515.99	30235.04
516.16	30033.75
516.33	30398.88
516.51	30113.33
516.68	30244.40
516.85	30134.40
517.03	30499.52
517.20	30520.59
517.37	30373.13
517.54	30609.53
517.72	30628.25
517.89	30960.61
518.06	30625.91
518.24	30600.16
518.41	30656.34
518.58	31267.22
518.75	30859.96
518.93	31529.36
519.10	31054.23
519.27	31679.15
519.45	31122.10
519.62	31117.42
519.79	31580.85
519.96	31388.92
520.14	31278.92
520.31	31915.54
520.48	31906.18
520.65	31936.61
520.83	32013.85
521.00	31754.05
521.17	31552.76
521.34	31915.54
521.52	31821.92
521.69	32432.80
521.86	32016.19
522.03	32566.21
522.20	32315.78
522.38	32538.13
522.55	32727.71
522.72	32374.29
522.89	32627.07
523.07	32652.81
523.24	33125.60
523.41	32879.85
523.58	32849.42
523.75	33060.07
523.92	32723.03
524.10	33027.30
524.27	33354.97
524.44	33404.13
524.61	33443.91
524.78	33212.20
524.96	33783.29
525.13	33462.64
525.30	33757.55
525.47	33441.57
525.64	33493.07
525.81	33689.67
525.98	33951.81
526.16	33797.34
526.33	34139.05
526.50	34532.26
526.67	33507.11
526.84	34101.61
527.01	34487.79
527.18	34480.77
527.36	34366.09
527.53	34401.19
527.70	34539.29
527.87	34590.78
528.04	34749.93
528.21	34408.22
528.38	34728.87
528.55	35063.57
528.72	34691.42
528.89	35232.08
529.07	34733.55
529.24	34864.62
529.41	35374.86
529.58	34838.87
529.75	34883.34
529.92	35440.39
530.09	34969.94
530.26	35206.34
530.43	35627.63
530.60	35503.59
530.77	35117.40
530.94	35285.92
531.11	35564.44
531.28	35391.24
531.46	35721.26
531.63	35400.60
531.80	35519.97
531.97	36093.40
532.14	35866.37
532.31	35985.74
532.48	36315.75
532.65	35957.65
532.82	35665.08
532.99	35952.97
533.16	36009.14
533.33	36758.11
533.50	36425.76
533.67	36737.05
533.84	36353.20
534.01	36285.33
534.18	36247.88
534.35	36528.74
534.52	36641.09
534.69	36477.25
534.86	36425.76
535.03	36594.28
535.20	36748.75
535.37	36875.14
535.54	37046.00
535.71	37069.40
535.88	37038.98
536.05	37036.64
536.22	37397.08
536.38	37247.29
536.55	37141.96
536.72	37376.01
536.89	37191.11
537.06	37315.16
537.23	37668.58
537.40	36751.09
537.57	37530.49
537.74	37413.46
537.91	37757.52
538.08	37666.24
538.25	37315.16
538.42	37776.25
538.59	37860.51
538.75	37645.18
538.92	37462.61
539.09	38045.41
539.26	37755.18
539.43	38389.47
539.60	37923.70
539.77	38005.62
539.94	38527.56
540.11	38220.95
540.28	38288.82
540.44	38398.83
540.61	38550.96
540.78	38731.18
540.95	38653.95
541.12	38616.50
541.29	38665.65
541.46	38628.20
541.62	39021.41
541.79	39009.71
541.96	38522.88
542.13	38834.17
542.30	38679.69
542.47	38981.62
542.63	39496.54
542.80	39299.94
542.97	39889.75
543.14	39812.51
543.31	39805.49
543.48	39632.29
543.64	39604.20
543.81	39929.54
543.98	39711.87
544.15	39812.51
544.32	40517.01
544.48	39913.16
544.65	39824.22
544.82	40025.50
544.99	39648.68
545.16	39847.62
545.32	40009.12
545.49	40769.79
545.66	40601.27
545.83	41017.89
546.00	41338.54
546.16	40137.85
546.33	40374.24
546.50	39487.18
546.67	40341.47
546.83	39646.33
547.00	39849.96
547.17	40245.51
547.34	40208.06
547.50	40481.91
547.67	40774.47
547.84	40442.12
548.00	40435.10
548.17	40741.71
548.34	40875.12
548.51	40720.64
548.67	40933.63
548.84	41258.96
549.01	40713.62
549.18	40392.97
549.34	40903.20
549.51	40830.65
549.68	40484.25
549.84	40425.73
550.01	40840.01
550.18	40744.05
550.34	40868.09
550.51	40790.86
550.68	41076.40
550.84	40699.58
551.01	40879.80
551.18	40655.11
551.34	40463.18
551.51	40933.63
551.68	40980.44
551.84	41074.06
552.01	40971.08
552.18	41378.33
552.34	40893.84
552.51	41219.17
552.68	41277.69
552.84	41378.33
553.01	41500.04
553.18	41024.91
553.34	41258.96
553.51	41778.56
553.67	41813.67
553.84	41706.01
554.01	41954.10
554.17	41645.15
554.34	41659.20
554.51	41572.60
554.67	41457.91
554.84	41708.35
555.00	41624.09
555.17	41916.65
555.33	41804.31
555.50	41921.34
555.67	42003.25
555.83	41797.29
556.00	42160.07
556.16	41846.44
556.33	41778.56
556.50	41797.29
556.66	41879.21
556.83	42120.28
556.99	42223.26
557.16	42190.50
557.32	42562.64
557.49	42274.76
557.65	41308.11
557.82	41888.57
557.98	42029.00
558.15	42244.33
558.32	42497.11
558.48	42157.73
558.65	42354.33
558.81	42319.23
558.98	42525.19
559.14	42209.22
559.31	42061.77
559.47	42667.97
559.64	42595.41
559.80	42572.00
559.97	42396.46
560.13	42281.78
560.30	43021.39
560.46	42990.96
560.63	42623.50
560.79	42845.85
560.96	42864.57
561.12	42426.89
561.29	42412.85
561.45	42394.12
561.61	42951.17
561.78	42976.92
561.94	43070.54
562.11	42969.90
562.27	42979.26
562.44	42958.19
562.60	42749.88
562.77	42848.19
562.93	42649.24
563.10	43196.93
563.26	42962.87
563.42	42869.25
563.59	43445.02
563.75	43269.48
563.92	42925.42
564.08	42864.57
564.24	42775.63
564.41	42885.64
564.57	42651.58
564.74	42714.78
564.90	42920.74
565.07	42838.83
565.23	42976.92
565.39	42740.52
565.56	42845.85
565.72	43201.61
565.88	43365.45
566.05	42925.42
566.21	43086.92
566.38	42906.70
566.54	43014.37
566.70	43175.86
566.87	44184.63
567.03	43379.49
567.19	43388.85
567.36	43365.45
567.52	43250.76
567.68	43917.81
567.85	43199.27
568.01	43283.53
568.17	43096.28
568.34	43643.97
568.50	43517.58
568.66	43482.47
568.83	43538.65
568.99	43463.75
569.15	43351.40
569.32	43318.64
569.48	43215.65
569.64	43283.53
569.81	43222.67
569.97	43320.98
570.13	43517.58
570.30	43384.17
570.46	43658.01
570.62	43695.46
570.78	43222.67
570.95	43217.99
571.11	43878.02
571.27	43723.55
571.43	43461.41
571.60	43463.75
571.76	43398.21
571.92	43632.27
572.09	43819.51
572.25	43562.05
572.41	43529.28
572.57	43569.07
572.74	43920.15
572.90	43320.98
573.06	43550.35
573.22	43634.61
573.38	43863.98
573.55	43948.24
573.71	44626.99
573.87	44147.18
574.03	43335.02
574.20	43952.92
574.36	43548.01
574.52	43587.80
574.68	43552.69
574.84	43711.84
575.01	43800.79
575.17	43686.10
575.33	43751.63
575.49	43433.32
575.65	44212.72
575.82	44362.51
575.98	43522.26
576.14	44278.25
576.30	43971.64
576.46	43494.18
576.62	43903.77
576.79	44285.28
576.95	43648.65
577.11	43892.07
577.27	44385.92
577.43	43662.69
577.59	44165.91
577.75	44074.63
577.92	43742.27
578.08	43683.76
578.24	43655.67
578.40	43849.94
578.56	43791.42
578.72	44259.53
578.88	44299.32
579.04	44203.36
579.21	43915.47
579.37	44065.27
579.53	44296.98
579.69	44219.74
579.85	44336.77
580.01	43945.90
580.17	43763.34
580.33	44147.18
580.49	44355.49
580.65	44374.22
580.82	44135.48
580.98	44161.23
581.14	43791.42
581.30	44196.34
581.46	43962.28
581.62	43922.49
581.78	43583.12
581.94	44369.54
582.10	44315.70
582.26	44266.55
582.42	44334.43
582.58	44849.35
582.74	44519.33
582.90	44182.29
583.06	44076.97
583.22	44060.58
583.38	44456.14
583.54	44168.25
583.70	44325.07
583.86	44486.56
584.02	44402.30
584.18	44308.68
584.34	44245.49
584.50	43941.22
584.66	43959.94
584.82	43976.33
584.98	44339.11
585.14	44196.34
585.30	43817.17
585.46	44240.81
585.62	44285.28
585.78	44245.49
585.94	44069.95
586.10	44247.83
586.26	44287.62
586.42	44528.69
586.58	44554.44
586.74	44205.70
586.90	43903.77
587.06	44062.93
587.22	44222.08
587.38	44016.11
587.54	44748.70
587.70	44538.05
587.86	44673.81
588.02	44186.97
588.18	44521.67
588.34	44456.14
588.49	44921.90
588.65	43782.06
588.81	44081.65
588.97	44645.72
589.13	43931.86
589.29	44296.98
589.45	44626.99
589.61	44514.65
589.77	44928.92
589.93	44301.66
590.08	44842.32
590.24	45099.78
590.40	44898.50
590.56	45013.18
590.72	44615.29
590.88	44680.83
