SpectraSuite Data File
++++++++++++++++++++++++++++++++++++
Date: Fri Oct 04 11:39:33 GMT-05:00 2013
User: price-jones
Dark Spectrum Present: No
Reference Spectrum Present: No
Number of Sampled Component Spectra: 1
Spectrometers: USB2+H05261
Integration Time (usec): 100000 (USB2+H05261)
Spectra Averaged: 1 (USB2+H05261)
Boxcar Smoothing: 0 (USB2+H05261)
Correct for Electrical Dark: No (USB2+H05261)
Strobe/Lamp Enabled: No (USB2+H05261)
Correct for Detector Non-linearity: No (USB2+H05261)
Correct for Stray Light: No (USB2+H05261)
Number of Pixels in Processed Spectrum: 2048
>>>>>Begin Processed Spectral Data<<<<<
365.73	88.94
365.92	88.94
366.12	88.94
366.32	0.00
366.52	0.00
366.72	0.00
366.91	18.72
367.11	0.00
367.31	0.00
367.51	0.00
367.70	0.00
367.90	0.00
368.10	0.00
368.30	0.00
368.49	0.00
368.69	0.00
368.89	0.00
369.09	0.00
369.28	9.36
369.48	0.00
369.68	0.00
369.87	4.68
370.07	0.00
370.27	110.01
370.47	67.88
370.66	81.92
370.86	156.82
371.06	170.86
371.25	163.84
371.45	145.11
371.65	161.50
371.84	128.73
372.04	166.18
372.24	149.79
372.44	135.75
372.63	203.63
372.83	252.78
373.03	177.88
373.22	191.92
373.42	184.90
373.62	222.35
373.81	201.29
374.01	210.65
374.21	182.56
374.40	234.05
374.60	210.65
374.79	259.80
374.99	287.89
375.19	238.73
375.38	210.65
375.58	201.29
375.78	212.99
375.97	252.78
376.17	264.48
376.37	257.46
376.56	287.89
376.76	236.39
376.95	114.69
377.15	215.33
377.35	170.86
377.54	217.67
377.74	210.65
377.93	203.63
378.13	215.33
378.33	234.05
378.52	170.86
378.72	212.99
378.91	196.60
379.11	252.78
379.31	194.26
379.50	189.58
379.70	262.14
379.89	264.48
380.09	250.44
380.28	156.82
380.48	283.20
380.68	159.16
380.87	220.01
381.07	297.25
381.26	257.46
381.46	243.42
381.65	180.22
381.85	278.52
382.04	208.31
382.24	231.71
382.43	262.14
382.63	227.03
382.83	248.10
383.02	201.29
383.22	196.60
383.41	217.67
383.61	238.73
383.80	198.95
384.00	212.99
384.19	243.42
384.39	287.89
384.58	187.24
384.78	255.12
384.97	264.48
385.17	257.46
385.36	255.12
385.56	301.93
385.75	224.69
385.95	238.73
386.14	344.06
386.34	189.58
386.53	210.65
386.72	224.69
386.92	306.61
387.11	308.95
387.31	327.68
387.50	191.92
387.70	304.27
387.89	276.18
388.09	313.63
388.28	301.93
388.48	325.33
388.67	280.86
388.86	311.29
389.06	290.23
389.25	264.48
389.45	269.16
389.64	299.59
389.84	294.91
390.03	306.61
390.22	313.63
390.42	313.63
390.61	341.72
390.81	327.68
391.00	287.89
391.19	386.19
391.39	315.97
391.58	313.63
391.78	330.02
391.97	358.10
392.16	332.36
392.36	358.10
392.55	351.08
392.75	327.68
392.94	407.25
393.13	337.04
393.33	341.72
393.52	325.33
393.71	360.44
393.91	379.17
394.10	383.85
394.29	435.34
394.49	440.02
394.68	407.25
394.88	442.36
395.07	425.98
395.26	435.34
395.46	428.32
395.65	388.53
395.84	374.49
396.04	479.81
396.23	397.89
396.42	414.27
396.62	475.13
396.81	482.15
397.00	503.22
397.19	468.11
397.39	482.15
397.58	486.83
397.77	503.22
397.97	465.77
398.16	505.56
398.35	479.81
398.55	435.34
398.74	458.74
398.93	589.82
399.12	489.17
399.32	507.90
399.51	512.58
399.70	554.71
399.90	622.58
400.09	608.54
400.28	596.84
400.47	587.47
400.67	599.18
400.86	559.39
401.05	589.82
401.24	620.24
401.44	685.78
401.63	575.77
401.82	552.37
402.01	709.18
402.21	699.82
402.40	596.84
402.59	657.69
402.78	653.01
402.97	631.94
403.17	695.14
403.36	660.03
403.55	692.80
403.74	723.23
403.93	711.52
404.13	725.57
404.32	706.84
404.51	835.57
404.70	854.30
404.89	835.57
405.09	753.65
405.28	781.74
405.47	805.14
405.66	791.10
405.85	816.85
406.05	840.25
406.24	830.89
406.43	835.57
406.62	875.36
406.81	971.32
407.00	1015.79
407.20	950.26
407.39	985.37
407.58	1055.58
407.77	1095.37
407.96	924.51
408.15	1008.77
408.34	1053.24
408.54	1004.09
408.73	985.37
408.92	1006.43
409.11	1004.09
409.30	1146.86
409.49	1116.44
409.68	1107.07
409.87	1097.71
410.07	1170.27
410.26	1153.88
410.45	1193.67
410.64	1188.99
410.83	1214.74
411.02	1198.35
411.21	1301.34
411.40	1306.02
411.59	1378.58
411.78	1296.66
411.98	1343.47
412.17	1329.42
412.36	1343.47
412.55	1378.58
412.74	1397.30
412.93	1474.54
413.12	1390.28
413.31	1509.65
413.50	1462.83
413.69	1554.12
413.88	1547.09
414.07	1565.82
414.26	1701.57
414.45	1551.78
414.64	1607.95
414.83	1673.48
415.02	1598.59
415.22	1645.40
415.41	1724.97
415.60	1664.12
415.79	1696.89
415.98	1722.63
416.17	1830.30
416.36	1781.15
416.55	1818.60
416.74	1811.57
416.93	1863.07
417.12	1954.35
417.31	1888.81
417.50	1944.99
417.69	2026.90
417.88	1954.35
418.07	1930.94
418.26	2022.22
418.45	1893.49
418.64	2050.31
418.83	1994.14
419.02	2080.74
419.21	2106.48
419.39	2155.63
419.58	2054.99
419.77	2113.50
419.96	2193.08
420.15	2165.00
420.34	2242.23
420.53	2228.19
420.72	2319.47
420.91	2181.38
421.10	2328.83
421.29	2221.17
421.48	2246.91
421.67	2289.04
421.86	2172.02
422.05	2263.30
422.24	2389.69
422.43	2340.54
422.61	2296.07
422.80	2275.00
422.99	2370.96
423.18	2427.14
423.37	2406.07
423.56	2408.41
423.75	2363.94
423.94	2331.17
424.13	2251.60
424.32	2310.11
424.50	2504.37
424.69	2530.12
424.88	2513.74
425.07	2480.97
425.26	2347.56
425.45	2401.39
425.64	2403.73
425.83	2480.97
426.01	2497.35
426.20	2520.76
426.39	2569.91
426.58	2492.67
426.77	2457.56
426.96	2457.56
427.15	2497.35
427.33	2593.31
427.52	2546.50
427.71	2511.39
427.90	2593.31
428.09	2609.70
428.28	2539.48
428.46	2626.08
428.65	2621.40
428.84	2738.43
429.03	2712.68
429.22	2647.15
429.40	2708.00
429.59	2703.32
429.78	2705.66
429.97	2572.25
430.16	2661.19
430.34	2810.98
430.53	2712.68
430.72	2878.86
430.91	2722.04
431.10	2808.64
431.28	2799.28
431.47	2860.13
431.66	2890.56
431.85	2712.68
432.03	2916.31
432.22	2972.48
432.41	2918.65
432.60	3070.78
432.79	2972.48
432.97	2942.05
433.16	3021.63
433.35	2883.54
433.54	3126.96
433.72	3080.14
433.91	3033.33
434.10	2995.89
434.28	3213.56
434.47	3166.74
434.66	3103.55
434.85	3236.96
435.03	3229.94
435.22	3316.54
435.41	3531.87
435.59	3468.67
435.78	3438.25
435.97	3251.00
436.16	3222.92
436.34	3204.19
436.53	3368.03
436.72	3241.64
436.90	3211.22
437.09	3349.31
437.28	3290.79
437.46	3248.66
437.65	3293.13
437.84	3342.28
438.02	3311.86
438.21	3433.57
438.40	3368.03
438.58	3496.76
438.77	3520.17
438.96	3517.83
439.14	3595.06
439.33	3538.89
439.52	3541.23
439.70	3674.64
439.89	3515.48
440.08	3576.34
440.26	3662.94
440.45	3644.21
440.63	3625.49
440.82	3728.47
441.01	3857.20
441.19	3735.50
441.38	3819.75
441.57	3836.14
441.75	3974.23
441.94	3927.42
442.12	3948.48
442.31	4067.85
442.50	4070.19
442.68	3864.22
442.87	4046.79
443.05	3995.29
443.24	4109.98
443.43	4114.66
443.61	4124.02
443.80	4180.20
443.98	4067.85
444.17	3992.95
444.35	4187.22
444.54	4189.56
444.73	4241.05
444.91	4229.35
445.10	4128.70
445.28	4152.11
445.47	4095.94
445.65	3990.61
445.84	4191.90
446.02	4283.18
446.21	4273.82
446.39	4098.28
446.58	4304.25
446.77	4255.09
446.95	4259.78
447.14	4219.99
447.32	4173.18
447.51	4212.96
447.69	4208.28
447.88	4175.52
448.06	4306.59
448.25	4133.39
448.43	4217.65
448.62	4210.62
448.80	4234.03
448.99	4339.35
449.17	4327.65
449.36	4381.48
449.54	4386.16
449.73	4479.79
449.91	4545.32
450.10	4369.78
450.28	4493.83
450.46	4386.16
450.65	4652.98
450.83	4444.68
451.02	4596.81
451.20	4620.22
451.39	4531.28
451.57	4643.62
451.76	4430.63
451.94	4671.71
452.13	4737.24
452.31	4519.57
452.49	4531.28
452.68	4699.80
452.86	4695.11
453.05	4751.29
453.23	4683.41
453.42	4765.33
453.60	4603.83
453.78	4627.24
453.97	4767.67
454.15	4645.96
454.34	4678.73
454.52	4744.27
454.70	4842.57
454.89	4702.14
455.07	4950.23
455.26	4873.00
455.44	5004.07
455.62	4917.47
455.81	4685.75
455.99	4770.01
456.17	4999.38
456.36	5102.37
456.54	4891.72
456.73	4971.30
456.91	5144.50
457.09	5057.90
457.28	5238.12
457.46	5022.79
457.64	5224.08
457.83	5259.18
458.01	5018.11
458.19	5364.51
458.38	5221.74
458.56	5135.14
458.74	5373.87
458.93	5317.70
459.11	5233.44
459.29	5345.78
459.48	5191.31
459.66	5313.02
459.84	5352.81
460.03	5530.69
460.21	5483.88
460.39	5364.51
460.57	5502.60
460.76	5336.42
460.94	5554.09
461.12	5460.47
461.31	5481.53
461.49	5584.52
461.67	5511.96
461.85	5659.42
462.04	5605.58
462.22	5710.91
462.40	5832.62
462.59	5654.73
462.77	5802.19
462.95	5741.33
463.13	5729.63
463.32	5792.83
463.50	5809.21
463.68	5736.65
463.86	5956.66
464.05	5628.99
464.23	5837.30
464.41	5825.59
464.59	5694.52
464.78	5872.40
464.96	5753.04
465.14	5895.81
465.32	5743.67
465.50	6036.24
465.69	5970.71
465.87	5956.66
466.05	5837.30
466.23	6026.88
466.41	6005.81
466.60	6211.78
466.78	5870.06
466.96	6047.94
467.14	6080.71
467.32	6139.23
467.51	6150.93
467.69	5998.79
467.87	6024.54
468.05	6296.04
468.23	5987.09
468.41	6169.65
468.60	6326.47
468.78	6293.70
468.96	6286.68
469.14	6347.53
469.32	6333.49
469.50	6382.64
469.69	6464.56
469.87	6509.03
470.05	6623.72
470.23	6539.46
470.41	6534.78
470.59	6534.78
470.77	6665.85
470.95	6679.89
471.14	6572.22
471.32	6553.50
471.50	6656.48
471.68	6684.57
471.86	6668.19
472.04	6626.06
472.22	6722.02
472.40	6700.95
472.58	6700.95
472.77	6937.35
472.95	7002.88
473.13	7176.08
473.31	6935.01
473.49	6977.14
473.67	7136.29
473.85	7049.69
474.03	7274.38
474.21	6974.80
474.39	7126.93
474.57	7229.91
474.75	7232.26
474.93	7412.48
475.12	7454.61
475.30	7332.90
475.48	7279.07
475.66	7356.30
475.84	7536.52
476.02	7693.34
476.20	7576.31
476.38	7691.00
476.56	7632.49
476.74	7761.22
476.92	7751.85
477.10	7557.59
477.28	7988.25
477.46	7810.37
477.64	7922.71
477.82	7974.21
478.00	8065.49
478.18	8362.73
478.36	8217.62
478.54	8341.67
478.72	8318.26
478.90	8482.10
479.08	8491.46
479.26	8554.66
479.44	8669.34
479.62	8566.36
479.80	8758.28
479.98	8690.41
480.16	8966.59
480.34	8842.54
480.52	8849.57
480.70	8898.72
480.88	9123.41
481.06	9125.75
481.24	9109.36
481.41	9130.43
481.59	9322.35
481.77	9415.98
481.95	9509.60
482.13	9495.55
482.31	9502.58
482.49	9781.10
482.67	9902.81
482.85	9811.53
483.03	10249.21
483.21	10104.09
483.39	10043.24
483.57	10242.18
483.74	10057.28
483.92	10331.12
484.10	10291.34
484.28	10452.83
484.46	10803.91
484.64	10771.15
484.82	10413.04
485.00	10799.23
485.18	11253.30
485.35	11173.72
485.53	11030.94
485.71	10951.37
485.89	11470.97
486.07	11199.46
486.25	11243.93
486.43	11445.22
486.61	11396.07
486.78	11459.26
486.96	11730.76
487.14	12006.95
487.32	11817.36
487.50	11946.09
487.68	12011.63
487.85	11939.07
488.03	12292.49
488.21	12297.17
488.39	12339.30
488.57	12629.53
488.75	12589.74
488.92	12926.78
489.10	12938.48
489.28	12872.95
489.46	12929.12
489.64	12994.65
489.81	13078.91
489.99	13359.78
490.17	13387.86
490.35	13469.78
490.53	13867.67
490.70	13816.18
490.88	13673.41
491.06	13708.52
491.24	13776.39
491.41	14047.90
491.59	14155.56
491.77	13900.44
491.95	14139.18
492.13	14527.71
492.30	14272.59
492.48	14331.10
492.66	14300.67
492.84	14485.58
493.01	14623.67
493.19	14635.37
493.37	14745.38
493.54	14974.75
493.72	15007.52
493.90	15000.49
494.08	15267.31
494.25	15382.00
494.43	15431.15
494.61	15527.11
494.79	15489.67
494.96	15613.71
495.14	15557.54
495.32	16004.58
495.49	15967.13
495.67	15929.69
495.85	16266.72
496.02	16189.49
496.20	16077.14
496.38	16161.40
496.55	16397.79
496.73	16886.97
496.91	16456.31
497.09	17020.38
497.26	16688.02
497.44	16812.07
497.62	17076.55
497.79	16959.52
497.97	16655.25
498.14	17034.42
498.32	17371.46
498.50	17479.12
498.67	17504.87
498.85	17245.07
499.03	17579.76
499.20	17568.06
499.38	17626.57
499.56	17680.41
499.73	17715.51
499.91	17727.22
500.08	18281.92
500.26	17750.62
500.44	18335.76
500.61	18047.87
500.79	18097.02
500.97	18274.90
501.14	18375.55
501.32	18476.19
501.49	18363.84
501.67	18618.96
501.84	18621.30
502.02	18553.43
502.20	19119.84
502.37	18801.52
502.55	18862.38
502.72	18827.27
502.90	18794.50
503.07	18888.12
503.25	19101.11
503.43	19026.21
503.60	19403.04
503.78	19288.35
503.95	19477.94
504.13	19278.99
504.30	19229.84
504.48	19431.13
504.65	19686.25
504.83	19639.44
505.01	19950.73
505.18	19611.35
505.36	19880.51
505.53	20091.16
505.71	20072.43
505.88	19917.96
506.06	19871.15
506.23	20137.97
506.41	20297.13
506.58	20201.16
506.76	20285.42
506.93	20077.12
507.11	20332.23
507.28	20835.45
507.46	20538.20
507.63	20311.17
507.81	20905.66
507.98	20585.01
508.16	21010.99
508.33	20812.04
508.50	21025.03
508.68	21036.74
508.85	21046.10
509.03	20884.60
509.20	21193.55
509.38	21521.23
509.55	21387.82
509.73	21191.21
509.90	21729.53
510.08	21577.40
510.25	20994.61
510.42	21848.90
510.60	21888.69
510.77	21799.75
510.95	22356.80
511.12	21876.99
511.30	22036.14
511.47	21811.45
511.64	22129.77
511.82	22066.57
511.99	22169.55
512.17	22279.56
512.34	22157.85
512.51	22410.63
512.69	22487.87
512.86	22637.66
513.04	22565.10
513.21	22459.78
513.38	22644.68
513.56	22527.66
513.73	22675.11
513.90	22518.29
514.08	22731.28
514.25	23215.77
514.43	23194.71
514.60	23199.39
514.77	23302.37
514.95	23098.75
515.12	23262.58
515.29	23054.28
515.47	23360.89
515.64	23728.35
515.81	23873.46
515.99	23852.40
516.16	23690.90
516.33	23356.21
516.51	23707.29
516.68	23302.37
516.85	23466.21
517.03	23821.97
517.20	23714.31
517.37	24177.73
517.54	24243.27
517.72	24231.57
517.89	23990.49
518.06	24320.51
518.24	24154.33
518.41	24027.94
518.58	24276.04
518.75	24456.26
518.93	24627.12
519.10	24390.72
519.27	24793.29
519.45	24510.09
519.62	24706.70
519.79	24842.45
519.96	24933.73
520.14	25046.07
520.31	24699.67
520.48	24809.68
520.65	24793.29
520.83	25378.43
521.00	25097.56
521.17	25104.59
521.34	24943.09
521.52	25034.37
521.69	25582.06
521.86	25514.18
522.03	25469.71
522.20	25549.29
522.38	25486.09
522.55	25600.78
522.72	25537.59
522.89	25621.84
523.07	25891.01
523.24	26003.35
523.41	25993.99
523.58	25853.56
523.75	26188.25
523.92	25984.63
524.10	26089.95
524.27	26073.57
524.44	25881.64
524.61	26679.77
524.78	26333.37
524.96	26324.01
525.13	26459.76
525.30	26768.71
525.47	26373.16
525.64	26644.66
525.81	26647.00
525.98	26609.55
526.16	26555.72
526.33	26822.54
526.50	27012.12
526.67	26132.08
526.84	26611.89
527.01	26782.75
527.18	26726.58
527.36	26801.47
527.53	26897.44
527.70	27194.68
527.87	27475.55
528.04	27267.24
528.21	27302.35
528.38	27005.10
528.55	27503.64
528.72	27070.64
528.89	27386.61
529.07	27325.75
529.24	26998.08
529.41	27426.40
529.58	27424.06
529.75	27587.89
529.92	27325.75
530.09	27410.01
530.26	27997.49
530.43	27557.47
530.60	27791.52
530.77	27721.30
530.94	27934.29
531.11	27674.49
531.28	27489.59
531.46	28086.43
531.63	27634.71
531.80	28224.52
531.97	28254.95
532.14	28268.99
532.31	28009.19
532.48	28273.67
532.65	28559.22
532.82	27917.91
532.99	28283.03
533.16	28009.19
533.33	28489.00
533.50	28797.95
533.67	28610.71
533.84	28332.18
534.01	28329.84
534.18	28044.30
534.35	28287.71
534.52	28463.25
534.69	28945.41
534.86	28989.88
535.03	28762.84
535.20	28657.52
535.37	29153.71
535.54	28804.97
535.71	28905.62
535.88	28903.28
536.05	28882.21
536.22	29457.98
536.38	29390.11
536.55	29525.86
536.72	28957.11
536.89	29142.01
537.06	29270.74
537.23	29240.31
537.40	29064.77
537.57	29350.32
537.74	29722.46
537.91	29890.98
538.08	29333.93
538.25	29319.89
538.42	29453.30
538.59	29511.81
538.75	29614.80
538.92	29362.02
539.09	29780.98
539.26	30085.25
539.43	29530.54
539.60	30059.50
539.77	29544.58
539.94	30089.93
540.11	29935.45
540.28	29645.23
540.44	30157.80
540.61	30396.54
540.78	29820.77
540.95	30232.70
541.12	30307.60
541.29	30553.35
541.46	30352.07
541.62	30464.41
541.79	30281.85
541.96	30457.39
542.13	30354.41
542.30	30558.03
542.47	30738.26
542.63	31019.12
542.80	30792.09
542.97	30937.20
543.14	30764.00
543.31	30822.51
543.48	30551.01
543.64	31201.68
543.81	31377.22
543.98	31215.72
544.15	31173.60
544.32	31285.94
544.48	31569.15
544.65	31218.07
544.82	31194.66
544.99	31084.65
545.16	31105.72
545.32	31365.52
545.49	31693.19
545.66	32210.45
545.83	32580.26
546.00	32275.99
546.16	31821.92
546.33	31700.22
546.50	31201.68
546.67	31686.17
546.83	30972.31
547.00	31470.84
547.17	31765.75
547.34	31632.34
547.50	31438.08
547.67	31768.09
547.84	31686.17
548.00	31761.07
548.17	31770.43
548.34	31548.08
548.51	31824.26
548.67	31817.24
548.84	32018.53
549.01	31723.62
549.18	31983.42
549.34	31894.48
549.51	31714.26
549.68	31559.78
549.84	32016.19
550.01	31772.77
550.18	31433.39
550.34	31929.59
550.51	31922.57
550.68	32156.62
550.84	31880.44
551.01	32013.85
551.18	31517.65
551.34	31798.52
551.51	31817.24
551.68	32077.04
551.84	32500.68
552.01	31838.31
552.18	31824.26
552.34	32130.87
552.51	31651.06
552.68	31941.29
552.84	32212.79
553.01	32088.74
553.18	31990.44
553.34	32393.01
553.51	31999.80
553.67	32210.45
553.84	32587.28
554.01	32144.92
554.17	32261.94
554.34	32374.29
554.51	32060.66
554.67	32245.56
554.84	32313.44
555.00	32526.42
555.17	32500.68
555.33	32655.15
555.50	32388.33
555.67	32645.79
555.83	32765.16
556.00	32208.11
556.16	32673.88
556.33	32690.26
556.50	32325.14
556.66	32561.53
556.83	32835.38
556.99	32858.78
557.16	32889.21
557.32	32882.19
557.49	32797.93
557.65	32395.35
557.82	32205.77
557.98	32311.10
558.15	32622.39
558.32	32636.43
558.48	32730.05
558.65	33050.70
558.81	32776.86
558.98	32643.45
559.14	32755.80
559.31	32493.66
559.47	32535.79
559.64	33043.68
559.80	32940.70
559.97	32959.42
560.13	32414.08
560.30	32952.40
560.46	33163.05
560.63	32685.58
560.79	33139.65
560.96	32767.50
561.12	32755.80
561.29	32847.08
561.45	33031.98
561.61	33242.63
561.78	33149.01
561.94	33069.43
562.11	32631.75
562.27	32884.53
562.44	32470.25
562.60	33118.58
562.77	33090.49
562.93	33109.22
563.10	33462.64
563.26	32886.87
563.42	33034.32
563.59	32884.53
563.75	33060.07
563.92	33132.62
564.08	33097.52
564.24	33305.82
564.41	33062.41
564.57	33024.96
564.74	33256.67
564.90	33572.64
565.07	33584.35
565.23	33259.01
565.39	33076.45
565.56	33357.32
565.72	32603.66
565.88	33362.00
566.05	33125.60
566.21	33537.54
566.38	33371.36
566.54	33387.74
566.70	33464.98
566.87	33387.74
567.03	33439.23
567.19	33362.00
567.36	33371.36
567.52	33043.68
567.68	33200.50
567.85	33095.18
568.01	33172.41
568.17	33127.94
568.34	33453.28
568.50	33275.40
568.66	33511.79
568.83	33420.51
568.99	33383.06
569.15	33373.70
569.32	32929.00
569.48	32919.63
569.64	33109.22
569.81	33216.88
569.97	33406.47
570.13	33371.36
570.30	32929.00
570.46	33448.60
570.62	33797.34
570.78	33305.82
570.95	33322.21
571.11	33378.38
571.27	32952.40
571.43	33113.90
571.60	33261.35
571.76	33177.09
571.92	33504.77
572.09	33734.14
572.25	33392.42
572.41	33298.80
572.57	33116.24
572.74	33188.80
572.90	33132.62
573.06	33472.00
573.22	33504.77
573.38	33467.32
573.55	33174.75
573.71	34015.01
573.87	33600.73
574.03	33563.28
574.20	33369.02
574.36	33221.56
574.52	33069.43
574.68	33074.11
574.84	33387.74
575.01	33354.97
575.17	33495.41
575.33	33479.02
575.49	33420.51
575.65	33509.45
575.82	33399.44
575.98	33582.01
576.14	33766.91
576.30	33720.10
576.46	33846.49
576.62	33331.57
576.79	33282.42
576.95	33731.80
577.11	33659.24
577.27	33551.58
577.43	33280.08
577.59	33638.18
577.75	33476.68
577.92	33525.83
578.08	33415.83
578.24	33132.62
578.40	33376.04
578.56	33750.52
578.72	33727.12
578.88	33855.85
579.04	34272.46
579.21	33731.80
579.37	34007.98
579.53	33956.49
579.69	33795.00
579.85	33668.61
580.01	33851.17
580.17	33567.96
580.33	33614.77
580.49	33422.85
580.65	33572.64
580.82	33376.04
580.98	33738.82
581.14	33560.94
581.30	33706.05
581.46	33706.05
581.62	33640.52
581.78	33399.44
581.94	33661.58
582.10	33638.18
582.26	33586.69
582.42	33703.71
582.58	33560.94
582.74	34066.50
582.90	33776.27
583.06	33717.76
583.22	33380.72
583.38	33804.36
583.54	33472.00
583.70	33404.13
583.86	33579.67
584.02	33249.65
584.18	33951.81
584.34	33881.60
584.50	33860.53
584.66	33759.89
584.82	33638.18
584.98	33720.10
585.14	33694.35
585.30	33352.63
585.46	33338.59
585.62	33500.09
585.78	33844.15
585.94	33481.36
586.10	33610.09
586.26	33748.18
586.42	33834.78
586.58	33647.54
586.74	33888.62
586.90	33584.35
587.06	33656.90
587.22	33977.56
587.38	33607.75
587.54	33961.17
587.70	33869.89
587.86	33940.11
588.02	33867.55
588.18	34319.28
588.34	33954.15
588.49	33652.22
588.65	33586.69
588.81	33420.51
588.97	33687.33
589.13	33647.54
589.29	33722.44
589.45	34047.77
589.61	34005.64
589.77	33886.28
589.93	33940.11
590.08	33825.42
590.24	33834.78
590.40	34387.15
590.56	34047.77
590.72	33703.71
590.88	33687.33
591.04	33422.85
591.20	34288.85
591.35	33858.19
591.51	34483.11
591.67	34480.77
