SpectraSuite Data File
++++++++++++++++++++++++++++++++++++
Date: Fri Oct 04 11:39:55 GMT-05:00 2013
User: price-jones
Dark Spectrum Present: No
Reference Spectrum Present: No
Number of Sampled Component Spectra: 1
Spectrometers: USB2+H05261
Integration Time (usec): 100000 (USB2+H05261)
Spectra Averaged: 1 (USB2+H05261)
Boxcar Smoothing: 0 (USB2+H05261)
Correct for Electrical Dark: No (USB2+H05261)
Strobe/Lamp Enabled: No (USB2+H05261)
Correct for Detector Non-linearity: No (USB2+H05261)
Correct for Stray Light: No (USB2+H05261)
Number of Pixels in Processed Spectrum: 2048
>>>>>Begin Processed Spectral Data<<<<<
365.73	37.45
365.92	37.45
366.12	37.45
366.32	0.00
366.52	0.00
366.72	21.06
366.91	0.00
367.11	0.00
367.31	0.00
367.51	0.00
367.70	0.00
367.90	0.00
368.10	0.00
368.30	0.00
368.49	0.00
368.69	14.04
368.89	0.00
369.09	0.00
369.28	25.75
369.48	32.77
369.68	16.38
369.87	28.09
370.07	70.22
370.27	0.00
370.47	7.02
370.66	81.92
370.86	131.07
371.06	131.07
371.25	217.67
371.45	100.64
371.65	145.11
371.84	140.43
372.04	114.69
372.24	107.66
372.44	166.18
372.63	198.95
372.83	220.01
373.03	159.16
373.22	166.18
373.42	156.82
373.62	245.76
373.81	276.18
374.01	215.33
374.21	229.37
374.40	198.95
374.60	184.90
374.79	259.80
374.99	173.20
375.19	280.86
375.38	201.29
375.58	248.10
375.78	238.73
375.97	252.78
376.17	325.33
376.37	177.88
376.56	257.46
376.76	273.84
376.95	236.39
377.15	191.92
377.35	255.12
377.54	177.88
377.74	222.35
377.93	117.03
378.13	203.63
378.33	180.22
378.52	255.12
378.72	152.13
378.91	229.37
379.11	220.01
379.31	229.37
379.50	234.05
379.70	252.78
379.89	149.79
380.09	248.10
380.28	217.67
380.48	231.71
380.68	205.97
380.87	248.10
381.07	189.58
381.26	250.44
381.46	257.46
381.65	255.12
381.85	189.58
382.04	262.14
382.24	194.26
382.43	182.56
382.63	255.12
382.83	198.95
383.02	248.10
383.22	229.37
383.41	243.42
383.61	224.69
383.80	238.73
384.00	259.80
384.19	210.65
384.39	243.42
384.58	294.91
384.78	245.76
384.97	212.99
385.17	231.71
385.36	248.10
385.56	252.78
385.75	177.88
385.95	224.69
386.14	252.78
386.34	241.08
386.53	325.33
386.72	257.46
386.92	301.93
387.11	278.52
387.31	245.76
387.50	278.52
387.70	205.97
387.89	189.58
388.09	297.25
388.28	311.29
388.48	248.10
388.67	327.68
388.86	266.82
389.06	308.95
389.25	264.48
389.45	299.59
389.64	425.98
389.84	290.23
390.03	276.18
390.22	276.18
390.42	311.29
390.61	322.99
390.81	308.95
391.00	322.99
391.19	259.80
391.39	304.27
391.58	313.63
391.78	390.87
391.97	355.76
392.16	311.29
392.36	292.57
392.55	428.32
392.75	358.10
392.94	353.42
393.13	348.74
393.33	344.06
393.52	376.83
393.71	414.27
393.91	355.76
394.10	376.83
394.29	346.40
394.49	320.65
394.68	362.78
394.88	397.89
395.07	395.55
395.26	447.04
395.46	381.51
395.65	435.34
395.84	388.53
396.04	458.74
396.23	435.34
396.42	344.06
396.62	404.91
396.81	430.66
397.00	374.49
397.19	395.55
397.39	423.64
397.58	458.74
397.77	337.04
397.97	437.68
398.16	447.04
398.35	456.40
398.55	472.79
398.74	582.79
398.93	498.53
399.12	538.32
399.32	524.28
399.51	493.85
399.70	571.09
399.90	514.92
400.09	498.53
400.28	561.73
400.47	521.94
400.67	585.13
400.86	601.52
401.05	578.11
401.24	521.94
401.44	500.87
401.63	578.11
401.82	573.43
402.01	678.76
402.21	571.09
402.40	587.47
402.59	592.16
402.78	653.01
402.97	629.60
403.17	603.86
403.36	688.12
403.55	650.67
403.74	732.59
403.93	662.37
404.13	739.61
404.32	800.46
404.51	732.59
404.70	793.44
404.89	765.36
405.09	826.21
405.28	667.05
405.47	781.74
405.66	847.27
405.85	795.78
406.05	873.02
406.24	767.70
406.43	830.89
406.62	833.23
406.81	952.60
407.00	814.51
407.20	802.80
407.39	807.48
407.58	863.66
407.77	954.94
407.96	1004.09
408.15	866.00
408.34	908.13
408.54	999.41
408.73	966.64
408.92	1004.09
409.11	950.26
409.30	1036.86
409.49	973.66
409.68	973.66
409.87	1039.20
410.07	1107.07
410.26	1111.75
410.45	1069.62
410.64	1069.62
410.83	1029.84
411.02	1111.75
411.21	1118.78
411.40	1167.93
411.59	1137.50
411.78	1245.16
411.98	1186.65
412.17	1226.44
412.36	1233.46
412.55	1366.87
412.74	1214.74
412.93	1322.40
413.12	1275.59
413.31	1390.28
413.50	1350.49
413.69	1317.72
413.88	1369.21
414.07	1343.47
414.26	1387.94
414.45	1486.24
414.64	1476.88
414.83	1521.35
415.02	1586.88
415.22	1467.52
415.41	1500.28
415.60	1561.14
415.79	1624.33
415.98	1633.69
416.17	1591.56
416.36	1626.67
416.55	1666.46
416.74	1638.38
416.93	1526.03
417.12	1612.63
417.31	1673.48
417.50	1720.29
417.69	1856.04
417.88	1762.42
418.07	1708.59
418.26	1806.89
418.45	1785.83
418.64	1851.36
418.83	1809.23
419.02	1764.76
419.21	1856.04
419.39	1914.56
419.58	1877.11
419.77	1825.62
419.96	1984.77
420.15	2010.52
420.34	1991.80
420.53	1996.48
420.72	1952.01
420.91	1937.96
421.10	2099.46
421.29	1961.37
421.48	1954.35
421.67	1980.09
421.86	1966.05
422.05	1980.09
422.24	2033.93
422.43	2069.03
422.61	2122.87
422.80	2092.44
422.99	2136.91
423.18	2066.69
423.37	2136.91
423.56	2078.40
423.75	2076.06
423.94	2078.40
424.13	1937.96
424.32	2008.18
424.50	2129.89
424.69	2073.71
424.88	2179.04
425.07	2026.90
425.26	2129.89
425.45	1959.03
425.64	2197.76
425.83	2118.18
426.01	2122.87
426.20	2172.02
426.39	2165.00
426.58	2150.95
426.77	2244.57
426.96	2200.10
427.15	2218.83
427.33	2200.10
427.52	2298.41
427.71	2324.15
427.90	2275.00
428.09	2286.70
428.28	2312.45
428.46	2342.88
428.65	2225.85
428.84	2361.60
429.03	2289.04
429.22	2153.29
429.40	2363.94
429.59	2361.60
429.78	2256.28
429.97	2218.83
430.16	2218.83
430.34	2326.49
430.53	2403.73
430.72	2333.51
430.91	2499.69
431.10	2473.95
431.28	2427.14
431.47	2532.46
431.66	2523.10
431.85	2434.16
432.03	2485.65
432.22	2537.14
432.41	2429.48
432.60	2602.68
432.79	2700.98
432.97	2644.81
433.16	2497.35
433.35	2523.10
433.54	2647.15
433.72	2675.23
433.91	2623.74
434.10	2656.51
434.28	2609.70
434.47	2661.19
434.66	2623.74
434.85	2740.77
435.03	2761.83
435.22	2925.67
435.41	3243.98
435.59	3110.57
435.78	3052.06
435.97	3014.61
436.16	2935.03
436.34	2911.63
436.53	2775.88
436.72	2925.67
436.90	2916.31
437.09	2970.14
437.28	2862.48
437.46	2864.82
437.65	2815.66
437.84	2949.08
438.02	2829.71
438.21	2913.97
438.40	2736.09
438.58	2918.65
438.77	3171.43
438.96	2944.39
439.14	3173.77
439.33	3047.38
439.52	3169.09
439.70	3061.42
439.89	3304.84
440.08	3180.79
440.26	3122.27
440.45	3328.24
440.63	3187.81
440.82	3248.66
441.01	3260.37
441.19	3213.56
441.38	3386.76
441.57	3346.97
441.75	3265.05
441.94	3489.74
442.12	3494.42
442.31	3438.25
442.50	3463.99
442.68	3419.52
442.87	3389.10
443.05	3559.95
443.24	3515.48
443.43	3365.69
443.61	3557.61
443.80	3557.61
443.98	3576.34
444.17	3426.54
444.35	3588.04
444.54	3679.32
444.73	3655.92
444.91	3515.48
445.10	3562.30
445.28	3574.00
445.47	3604.42
445.65	3515.48
445.84	3590.38
446.02	3557.61
446.21	3590.38
446.39	3559.95
446.58	3810.39
446.77	3658.26
446.95	3440.59
447.14	3618.47
447.32	3756.56
447.51	3606.77
447.69	3611.45
447.88	3737.84
448.06	3543.57
448.25	3609.11
448.43	3667.62
448.62	3637.19
448.80	3751.88
448.99	3850.18
449.17	3653.58
449.36	3730.81
449.54	3824.44
449.73	3758.90
449.91	3836.14
450.10	3929.76
450.28	3758.90
450.46	3915.72
450.65	3960.19
450.83	3999.98
451.02	3822.09
451.20	3786.99
451.39	3875.93
451.57	3981.25
451.76	4042.11
451.94	3985.93
452.13	3995.29
452.31	3971.89
452.49	3967.21
452.68	4014.02
452.86	3939.12
453.05	4058.49
453.23	3995.29
453.42	3852.52
453.60	3932.10
453.78	4058.49
453.97	3936.78
454.15	4053.81
454.34	3990.61
454.52	4208.28
454.70	4180.20
454.89	4182.54
455.07	4189.56
455.26	4196.58
455.44	4339.35
455.62	4227.01
455.81	4241.05
455.99	4236.37
456.17	4238.71
456.36	4311.27
456.54	4444.68
456.73	4430.63
456.91	4479.79
457.09	4407.23
457.28	4631.92
457.46	4344.03
457.64	4573.41
457.83	4505.53
458.01	4353.40
458.19	4486.81
458.38	4381.48
458.56	4585.11
458.74	4606.17
458.93	4617.88
459.11	4493.83
459.29	4589.79
459.48	4702.14
459.66	4620.22
459.84	4800.44
460.03	4912.78
460.21	4671.71
460.39	4557.02
460.57	4676.39
460.76	4767.67
460.94	4643.62
461.12	4835.55
461.31	4882.36
461.49	4908.10
461.67	4753.63
461.85	5043.85
462.04	4802.78
462.22	5284.93
462.40	4961.94
462.59	4854.27
462.77	4873.00
462.95	4807.46
463.13	4910.44
463.32	4938.53
463.50	5006.41
463.68	4980.66
463.86	5057.90
464.05	4847.25
464.23	4990.02
464.41	5090.67
464.59	4983.00
464.78	5095.35
464.96	5013.43
465.14	5093.01
465.32	4987.68
465.50	5097.69
465.69	5104.71
465.87	4947.89
466.05	5252.16
466.23	5083.64
466.41	5090.67
466.60	5320.04
466.78	5163.22
466.96	5210.03
467.14	5123.43
467.32	5261.52
467.51	5399.62
467.69	5146.84
467.87	5322.38
468.05	5359.83
468.23	5287.27
468.41	5231.10
468.60	5371.53
468.78	5448.77
468.96	5305.99
469.14	5408.98
469.32	5481.53
469.50	5334.08
469.69	5650.05
469.87	5526.00
470.05	5624.31
470.23	5659.42
470.41	5537.71
470.59	5720.27
470.77	5518.98
470.95	5523.66
471.14	5603.24
471.32	5572.82
471.50	5717.93
471.68	5696.86
471.86	5727.29
472.04	5816.23
472.22	5947.30
472.40	5687.50
472.58	5762.40
472.77	5982.41
472.95	6054.97
473.13	6167.31
473.31	5956.66
473.49	5926.24
473.67	5961.34
473.85	6104.12
474.03	6354.55
474.21	6073.69
474.39	6005.81
474.57	6120.50
474.75	6260.93
474.93	6216.46
475.12	6162.63
475.30	6251.57
475.48	6237.53
475.66	6583.93
475.84	6380.30
476.02	6649.46
476.20	6317.11
476.38	6492.65
476.56	6719.68
476.74	6530.09
476.92	6712.66
477.10	6705.63
477.28	6654.14
477.46	6661.16
477.64	6848.41
477.82	6834.36
478.00	7157.36
478.18	6953.73
478.36	6923.30
478.54	7005.22
478.72	7098.84
478.90	7215.87
479.08	7096.50
479.26	7368.01
479.44	7204.17
479.62	7309.49
479.80	7316.51
479.98	7435.88
480.16	7538.87
480.34	7644.19
480.52	7545.89
480.70	7705.04
480.88	7779.94
481.06	7843.14
481.24	7726.11
481.41	7829.09
481.59	7854.84
481.77	7948.46
481.95	8025.70
482.13	8224.64
482.31	8002.29
482.49	8290.18
482.67	8339.33
482.85	8423.59
483.03	8561.68
483.21	8688.07
483.39	8737.22
483.57	8812.12
483.74	8861.27
483.92	9013.40
484.10	8798.07
484.28	8894.04
484.46	9191.28
484.64	9228.73
484.82	9231.07
485.00	9289.59
485.18	9221.71
485.35	9289.59
485.53	9331.72
485.71	9593.86
485.89	9785.78
486.07	9643.01
486.25	9617.26
486.43	9692.16
486.61	9717.90
486.78	9888.76
486.96	10038.56
487.14	10008.13
487.32	10104.09
487.50	10132.18
487.68	10190.69
487.85	10361.55
488.03	10193.03
488.21	10712.63
488.39	10663.48
488.57	10623.69
488.75	10726.68
488.92	11082.44
489.10	10874.13
489.28	11124.57
489.46	10836.68
489.64	10946.69
489.81	11541.18
489.99	11414.79
490.17	11323.51
490.35	11339.90
490.53	11716.72
490.70	11800.98
490.88	11683.95
491.06	11829.07
491.24	11679.27
491.41	11775.24
491.59	11847.79
491.77	12196.53
491.95	12245.68
492.13	12250.36
492.30	12184.83
492.48	12184.83
492.66	12283.13
492.84	12245.68
493.01	12465.69
493.19	12535.91
493.37	12774.64
493.54	12578.04
493.72	12781.67
493.90	12681.02
494.08	12870.61
494.25	13099.98
494.43	13156.15
494.61	13177.22
494.79	13294.24
494.96	13359.78
495.14	13549.36
495.32	13401.91
495.49	13509.57
495.67	13626.60
495.85	13830.23
496.02	13781.07
496.20	13830.23
496.38	13778.73
496.55	14052.58
496.73	14225.78
496.91	14263.22
497.09	14216.41
497.26	14295.99
497.44	14239.82
497.62	14356.85
497.79	14523.02
497.97	14558.13
498.14	14717.29
498.32	14520.68
498.50	14719.63
498.67	14691.54
498.85	14848.36
499.03	14796.87
499.20	14799.21
499.38	15082.41
499.56	14949.00
499.73	15084.75
499.91	15000.49
500.08	15321.15
500.26	15147.95
500.44	15316.47
500.61	15454.56
500.79	15215.82
500.97	15506.05
501.14	15655.84
501.32	15721.38
501.49	15566.90
501.67	15712.02
501.84	15667.55
502.02	15826.70
502.20	16070.12
502.37	16051.39
502.55	15857.13
502.72	15948.41
502.90	16088.84
503.07	15969.48
503.25	16039.69
503.43	16219.91
503.60	16259.70
503.78	16222.25
503.95	16453.97
504.13	16350.98
504.30	16603.76
504.48	16449.28
504.65	16751.21
504.83	16879.94
505.01	16936.12
505.18	16933.78
505.36	16875.26
505.53	16788.66
505.71	17011.01
505.88	16938.46
506.06	16458.65
506.23	16917.39
506.41	17081.23
506.58	16884.62
506.76	17116.34
506.93	17315.28
507.11	17317.62
507.28	17422.95
507.46	17441.67
507.63	17525.93
507.81	17720.20
507.98	17699.13
508.16	17460.40
508.33	17673.39
508.50	17886.37
508.68	17605.51
508.85	17902.76
509.03	18008.08
509.20	18012.76
509.38	18171.92
509.55	17935.53
509.73	18115.75
509.90	18211.71
510.08	17914.46
510.25	18345.12
510.42	18307.67
510.60	18558.11
510.77	18801.52
510.95	18717.26
511.12	18560.45
511.30	18389.59
511.47	18672.79
511.64	18733.65
511.82	18724.29
511.99	18792.16
512.17	18946.64
512.34	18965.36
512.51	18757.05
512.69	18967.70
512.86	19119.84
513.04	19234.52
513.21	19311.76
513.38	19220.48
513.56	19363.25
513.73	19461.55
513.90	19365.59
514.08	19300.06
514.25	19459.21
514.43	19365.59
514.60	19585.60
514.77	19819.66
514.95	19728.38
515.12	19803.27
515.29	19864.13
515.47	19513.05
515.64	19644.12
515.81	19955.41
515.99	19882.85
516.16	19990.52
516.33	19871.15
516.51	20287.76
516.68	19948.39
516.85	20037.33
517.03	20133.29
517.20	20208.19
517.37	20463.30
517.54	20496.07
517.72	20409.47
517.89	20240.95
518.06	20697.36
518.24	20568.63
518.41	20250.32
518.58	20467.98
518.75	20592.03
518.93	20924.39
519.10	20568.63
519.27	20919.71
519.45	20889.28
519.62	20484.37
519.79	21039.08
519.96	20690.34
520.14	21429.94
520.31	20933.75
520.48	21071.84
520.65	21172.49
520.83	20971.20
521.00	21315.26
521.17	21429.94
521.34	21542.29
521.52	21284.83
521.69	21144.40
521.86	21816.13
522.03	21413.56
522.20	21600.80
522.38	21635.91
522.55	21696.77
522.72	21729.53
522.89	21722.51
523.07	21841.88
523.24	21776.34
523.41	21848.90
523.58	22022.10
523.75	22036.14
523.92	21881.67
524.10	21949.54
524.27	22398.93
524.44	22581.49
524.61	21888.69
524.78	21802.09
524.96	22211.68
525.13	22127.42
525.30	22239.77
525.47	22253.81
525.64	22497.23
525.81	22710.22
525.98	22733.62
526.16	22754.69
526.33	22728.94
526.50	22609.58
526.67	22115.72
526.84	22466.80
527.01	22492.55
527.18	22785.12
527.36	22726.60
527.53	22778.09
527.70	22995.76
527.87	22944.27
528.04	22906.82
528.21	22862.35
528.38	22841.29
528.55	23115.13
528.72	23339.82
528.89	23110.45
529.07	23140.88
529.24	23197.05
529.41	23175.98
529.58	23274.29
529.75	23239.18
529.92	23049.60
530.09	23281.31
530.26	23363.23
530.43	23208.75
530.60	23269.61
530.77	23260.24
530.94	23620.69
531.11	23253.22
531.28	23456.85
531.46	23585.58
531.63	23587.92
531.80	23733.03
531.97	23623.03
532.14	23828.99
532.31	23704.95
532.48	23868.78
532.65	23847.72
532.82	23821.97
532.99	23929.64
533.16	23866.44
533.33	24290.08
533.50	23763.46
533.67	24222.20
533.84	23845.38
534.01	23892.19
534.18	23857.08
534.35	24128.58
534.52	24140.29
534.69	24397.74
534.86	24229.23
535.03	24163.69
535.20	24421.15
535.37	24496.05
535.54	24261.99
535.71	24222.20
535.88	24521.79
536.05	24273.70
536.22	24439.87
536.38	24549.88
536.55	24451.58
536.72	24849.47
536.89	24493.71
537.06	24699.67
537.23	24687.97
537.40	24826.06
537.57	24694.99
537.74	24812.02
537.91	24760.53
538.08	25102.25
538.25	24533.50
538.42	24854.15
538.59	25088.20
538.75	24741.80
538.92	24652.86
539.09	25198.21
539.26	24938.41
539.43	25420.56
539.60	25331.62
539.77	25216.93
539.94	25371.41
540.11	25401.83
540.28	25434.60
540.44	25666.31
540.61	25226.29
540.78	25219.27
540.95	25748.23
541.12	25708.44
541.29	25846.54
541.46	26122.72
541.62	25799.73
541.79	25825.47
541.96	25565.67
542.13	25818.45
542.30	26059.52
542.47	26190.59
542.63	26143.78
542.80	25757.60
542.97	26033.78
543.14	26450.39
543.31	25996.33
543.48	26195.28
543.64	26302.94
543.81	26148.46
543.98	26239.75
544.15	26532.31
544.32	26593.17
544.48	26155.49
544.65	26171.87
544.82	26106.34
544.99	26230.38
545.16	26377.84
545.32	26588.49
545.49	26892.76
545.66	27824.29
545.83	27543.42
546.00	27466.19
546.16	26590.83
546.33	26160.17
546.50	26471.46
546.67	26396.56
546.83	25961.22
547.00	26405.92
547.17	26410.60
547.34	26497.20
547.50	26361.45
547.67	26895.10
547.84	26338.05
548.00	26895.10
548.17	26558.06
548.34	26696.15
548.51	27016.80
548.67	26782.75
548.84	26862.33
549.01	26920.84
549.18	26906.80
549.34	26679.77
549.51	26773.39
549.68	26775.73
549.84	26609.55
550.01	26822.54
550.18	26642.32
550.34	26948.93
550.51	26679.77
550.68	27016.80
550.84	26731.26
551.01	26747.64
551.18	26635.30
551.34	26747.64
551.51	26993.40
551.68	26817.86
551.84	26967.65
552.01	26909.14
552.18	26780.41
552.34	26981.70
552.51	26845.94
552.68	26855.31
552.84	26412.95
553.01	27091.70
553.18	27070.64
553.34	26988.72
553.51	27227.45
553.67	27143.19
553.84	27124.47
554.01	27297.67
554.17	27253.20
554.34	27204.05
554.51	27126.81
554.67	27494.27
554.84	27351.50
555.00	27089.36
555.17	27564.49
555.33	27660.45
555.50	27433.42
555.67	27143.19
555.83	27152.55
556.00	27428.74
556.16	27295.33
556.33	27304.69
556.50	27215.75
556.66	27297.67
556.83	27274.26
556.99	27819.61
557.16	27843.01
557.32	27304.69
557.49	27623.00
557.65	27302.35
557.82	27262.56
557.98	27503.64
558.15	27145.53
558.32	27412.35
558.48	27505.98
558.65	27489.59
558.81	27744.71
558.98	27620.66
559.14	27548.11
559.31	27482.57
559.47	27606.62
559.64	27782.16
559.80	27798.54
559.97	27641.73
560.13	27623.00
560.30	27894.50
560.46	27761.09
560.63	27604.28
560.79	27529.38
560.96	27770.46
561.12	27772.80
561.29	27807.90
561.45	27995.15
561.61	27711.94
561.78	27618.32
561.94	27742.37
562.11	27601.94
562.27	27861.74
562.44	27786.84
562.60	27814.93
562.77	27630.02
562.93	27796.20
563.10	27658.11
563.26	27737.69
563.42	27763.43
563.59	27901.53
563.75	27995.15
563.92	27896.85
564.08	27604.28
564.24	27735.35
564.41	27332.78
564.57	27398.31
564.74	27948.34
564.90	27861.74
565.07	27742.37
565.23	27819.61
565.39	28161.33
565.56	27854.72
565.72	27775.14
565.88	27725.99
566.05	27885.14
566.21	27908.55
566.38	27688.54
566.54	28294.74
566.70	27962.38
566.87	28037.28
567.03	27985.79
567.19	28233.88
567.36	27938.97
567.52	28100.47
567.68	28034.94
567.85	27826.63
568.01	27976.42
568.17	27960.04
568.34	28037.28
568.50	27803.22
568.66	28091.11
568.83	28091.11
568.99	27733.01
569.15	27885.14
569.32	28238.56
569.48	27742.37
569.64	28177.71
569.81	27910.89
569.97	28245.58
570.13	28053.66
570.30	27964.72
570.46	28226.86
570.62	27894.50
570.78	28006.85
570.95	27658.11
571.11	28233.88
571.27	27950.68
571.43	27838.33
571.60	27971.74
571.76	28009.19
571.92	28166.01
572.09	28357.93
572.25	28107.49
572.41	28465.60
572.57	28105.15
572.74	28390.70
572.90	28219.84
573.06	27882.80
573.22	27784.50
573.38	28048.98
573.55	28261.97
573.71	28243.24
573.87	28231.54
574.03	27983.44
574.20	27814.93
574.36	27805.56
574.52	27974.08
574.68	28013.87
574.84	28084.09
575.01	28238.56
575.17	27868.76
575.33	27957.70
575.49	28128.56
575.65	28034.94
575.82	28219.84
575.98	28198.77
576.14	28100.47
576.30	28144.94
576.46	28247.93
576.62	28107.49
576.79	28222.18
576.95	28210.48
577.11	28177.71
577.27	28240.90
577.43	28620.07
577.59	28151.96
577.75	28240.90
577.92	27871.10
578.08	28011.53
578.24	27985.79
578.40	28154.30
578.56	28292.40
578.72	28397.72
578.88	28350.91
579.04	28528.79
579.21	28086.43
579.37	28297.08
579.53	28067.70
579.69	27840.67
579.85	28046.64
580.01	28481.98
580.17	27969.40
580.33	28231.54
580.49	28053.66
580.65	28004.51
580.82	28442.19
580.98	28219.84
581.14	28072.39
581.30	28374.31
581.46	28266.65
581.62	28030.26
581.78	28210.48
581.94	28084.09
582.10	28140.26
582.26	28760.50
582.42	28404.74
582.58	28538.15
582.74	28362.61
582.90	28273.67
583.06	28261.97
583.22	28037.28
583.38	28329.84
583.54	28243.24
583.70	27896.85
583.86	28290.06
584.02	28175.37
584.18	27821.95
584.34	28390.70
584.50	28407.08
584.66	28268.99
584.82	28147.28
584.98	28276.01
585.14	28170.69
585.30	28271.33
585.46	28058.34
585.62	27938.97
585.78	28538.15
585.94	27765.78
586.10	28128.56
586.26	28201.11
586.42	28678.58
586.58	28638.80
586.74	28290.06
586.90	28114.52
587.06	28308.78
587.22	28514.75
587.38	27967.06
587.54	28453.89
587.70	28505.38
587.86	28573.26
588.02	28381.34
588.18	28292.40
588.34	28599.01
588.49	28320.48
588.65	28503.04
588.81	28100.47
588.97	28425.81
589.13	28292.40
589.29	28137.92
589.45	28257.29
589.61	28383.68
589.77	28350.91
589.93	28472.62
590.08	28762.84
590.24	28561.56
590.40	28608.37
590.56	28762.84
590.72	28575.60
590.88	28655.18
591.04	28091.11
591.20	28781.57
591.35	28381.34
591.51	28596.67
591.67	28587.30
591.83	28638.80
591.99	28414.10
