SpectraSuite Data File
++++++++++++++++++++++++++++++++++++
Date: Tue Oct 01 18:27:26 GMT-05:00 2013
User: stostad
Dark Spectrum Present: No
Reference Spectrum Present: No
Number of Sampled Component Spectra: 1
Spectrometers: USB2+H05261
Integration Time (usec): 100000 (USB2+H05261)
Spectra Averaged: 1 (USB2+H05261)
Boxcar Smoothing: 0 (USB2+H05261)
Correct for Electrical Dark: No (USB2+H05261)
Strobe/Lamp Enabled: No (USB2+H05261)
Correct for Detector Non-linearity: No (USB2+H05261)
Correct for Stray Light: No (USB2+H05261)
Number of Pixels in Processed Spectrum: 2048
>>>>>Begin Processed Spectral Data<<<<<
365.73	91.28
365.92	91.28
366.12	91.28
366.32	0.00
366.52	0.00
366.72	0.00
366.91	0.00
367.11	0.00
367.31	0.00
367.51	0.00
367.70	23.41
367.90	0.00
368.10	0.00
368.30	0.00
368.49	0.00
368.69	72.56
368.89	11.70
369.09	0.00
369.28	9.36
369.48	0.00
369.68	51.49
369.87	21.06
370.07	28.09
370.27	93.62
370.47	56.17
370.66	271.50
370.86	327.68
371.06	252.78
371.25	297.25
371.45	318.31
371.65	388.53
371.84	360.44
372.04	332.36
372.24	388.53
372.44	355.76
372.63	458.74
372.83	379.17
373.03	348.74
373.22	414.27
373.42	379.17
373.62	374.49
373.81	423.64
374.01	421.30
374.21	440.02
374.40	430.66
374.60	491.51
374.79	425.98
374.99	479.81
375.19	489.17
375.38	517.26
375.58	369.80
375.78	411.93
375.97	500.87
376.17	477.47
376.37	550.03
376.56	521.94
376.76	395.55
376.95	468.11
377.15	503.22
377.35	519.60
377.54	521.94
377.74	477.47
377.93	510.24
378.13	475.13
378.33	543.00
378.52	472.79
378.72	512.58
378.91	564.07
379.11	451.72
379.31	489.17
379.50	442.36
379.70	552.37
379.89	589.82
380.09	521.94
380.28	470.45
380.48	418.96
380.68	486.83
380.87	475.13
381.07	571.09
381.26	552.37
381.46	634.29
381.65	575.77
381.85	608.54
382.04	580.45
382.24	603.86
382.43	482.15
382.63	482.15
382.83	615.56
383.02	620.24
383.22	554.71
383.41	645.99
383.61	601.52
383.80	669.39
384.00	592.16
384.19	592.16
384.39	545.34
384.58	561.73
384.78	699.82
384.97	683.44
385.17	624.92
385.36	634.29
385.56	620.24
385.75	587.47
385.95	582.79
386.14	676.41
386.34	638.97
386.53	615.56
386.72	660.03
386.92	653.01
387.11	662.37
387.31	746.63
387.50	671.73
387.70	725.57
387.89	615.56
388.09	683.44
388.28	718.54
388.48	657.69
388.67	732.59
388.86	702.16
389.06	662.37
389.25	777.06
389.45	690.46
389.64	774.72
389.84	739.61
390.03	734.93
390.22	816.85
390.42	800.46
390.61	767.70
390.81	770.04
391.00	791.10
391.19	739.61
391.39	758.33
391.58	863.66
391.78	819.19
391.97	931.53
392.16	833.23
392.36	866.00
392.55	816.85
392.75	901.11
392.94	840.25
393.13	905.79
393.33	887.06
393.52	968.98
393.71	954.94
393.91	774.72
394.10	964.30
394.29	898.77
394.49	931.53
394.68	898.77
394.88	849.61
395.07	1015.79
395.26	999.41
395.46	1015.79
395.65	1015.79
395.84	1020.47
396.04	1090.69
396.23	1015.79
396.42	959.62
396.62	987.71
396.81	1076.65
397.00	1095.37
397.19	1025.15
397.39	966.64
397.58	1086.01
397.77	1062.60
397.97	1095.37
398.16	1074.31
398.35	1130.48
398.55	1160.91
398.74	1153.88
398.93	1074.31
399.12	1191.33
399.32	1151.54
399.51	1146.86
399.70	1231.12
399.90	1214.74
400.09	1170.27
400.28	1137.50
400.47	1240.48
400.67	1357.51
400.86	1294.32
401.05	1266.23
401.24	1249.85
401.44	1294.32
401.63	1322.40
401.82	1416.02
402.01	1364.53
402.21	1364.53
402.40	1313.04
402.59	1310.70
402.78	1411.34
402.97	1420.71
403.17	1362.19
403.36	1394.96
403.55	1348.15
403.74	1401.98
403.93	1357.51
404.13	1598.59
404.32	1544.75
404.51	1430.07
404.70	1441.77
404.89	1593.90
405.09	1629.01
405.28	1650.08
405.47	1586.88
405.66	1629.01
405.85	1617.31
406.05	1621.99
406.24	1596.25
406.43	1565.82
406.62	1680.50
406.81	1708.59
407.00	1640.72
407.20	1692.21
407.39	1701.57
407.58	1675.82
407.77	1792.85
407.96	1781.15
408.15	1865.41
408.34	1804.55
408.54	1881.79
408.73	1790.51
408.92	1870.09
409.11	1886.47
409.30	1832.64
409.49	1799.87
409.68	1788.17
409.87	1952.01
410.07	2054.99
410.26	1991.80
410.45	2040.95
410.64	2043.29
410.83	2047.97
411.02	2012.86
411.21	2204.78
411.40	2057.33
411.59	2113.50
411.78	2125.21
411.98	2209.47
412.17	2172.02
412.36	2237.55
412.55	2333.51
412.74	2310.11
412.93	2455.22
413.12	2223.51
413.31	2403.73
413.50	2342.88
413.69	2541.82
413.88	2506.71
414.07	2415.43
414.26	2555.86
414.45	2457.56
414.64	2537.14
414.83	2567.57
415.02	2663.53
415.22	2602.68
415.41	2764.17
415.60	2682.25
415.79	2656.51
415.98	2724.38
416.17	2722.04
416.36	2834.39
416.55	2712.68
416.74	2757.15
416.93	2803.96
417.12	2796.94
417.31	2958.44
417.50	2909.29
417.69	2953.76
417.88	3094.19
418.07	2984.18
418.26	2998.23
418.45	2970.14
418.64	3185.47
418.83	3215.90
419.02	3066.10
419.21	3164.40
419.39	3218.24
419.58	3176.11
419.77	3143.34
419.96	3206.53
420.15	3227.60
420.34	3283.77
420.53	3321.22
420.72	3325.90
420.91	3262.71
421.10	3407.82
421.29	3368.03
421.48	3358.67
421.67	3529.53
421.86	3272.07
422.05	3391.44
422.24	3485.06
422.43	3471.01
422.61	3524.85
422.80	3438.25
422.99	3597.40
423.18	3550.59
423.37	3581.02
423.56	3571.66
423.75	3517.83
423.94	3541.23
424.13	3405.48
424.32	3461.65
424.50	3583.36
424.69	3618.47
424.88	3604.42
425.07	3634.85
425.26	3482.72
425.45	3447.61
425.64	3480.38
425.83	3599.74
426.01	3691.02
426.20	3529.53
426.39	3527.19
426.58	3606.77
426.77	3620.81
426.96	3698.05
427.15	3667.62
427.33	3625.49
427.52	3733.15
427.71	3901.67
427.90	3812.73
428.09	3817.41
428.28	3887.63
428.46	3873.59
428.65	3906.35
428.84	4133.39
429.03	3899.33
429.22	3871.25
429.40	3880.61
429.59	3854.86
429.78	3758.90
429.97	3985.93
430.16	3791.67
430.34	4065.51
430.53	4142.75
430.72	4236.37
430.91	3971.89
431.10	4007.00
431.28	4177.86
431.47	4182.54
431.66	4198.92
431.85	4109.98
432.03	4308.93
432.22	4271.48
432.41	4212.96
432.60	4486.81
432.79	4170.83
432.97	4379.14
433.16	4257.43
433.35	4318.29
433.54	4325.31
433.72	4437.66
433.91	4454.04
434.10	4273.82
434.28	4337.01
434.47	4393.19
434.66	4447.02
434.85	4671.71
435.03	4662.35
435.22	4390.84
435.41	4592.13
435.59	4662.35
435.78	4573.41
435.97	4681.07
436.16	4725.54
436.34	4585.11
436.53	4692.77
436.72	4652.98
436.90	4706.82
437.09	4870.65
437.28	4652.98
437.46	4812.14
437.65	4837.89
437.84	4823.84
438.02	4758.31
438.21	4807.46
438.40	4868.31
438.58	5048.54
438.77	5022.79
438.96	5043.85
439.14	5200.67
439.33	5125.77
439.52	5273.23
439.70	5235.78
439.89	5392.59
440.08	5348.12
440.26	5315.36
440.45	5408.98
440.63	5270.89
440.82	5500.26
441.01	5430.04
441.19	5444.09
441.38	5547.07
441.57	5542.39
441.75	5434.72
441.94	5715.59
442.12	5760.06
442.31	5870.06
442.50	5933.26
442.68	5603.24
442.87	5863.04
443.05	5888.79
443.24	5949.64
443.43	6005.81
443.61	5886.45
443.80	6108.80
443.98	5746.02
444.17	5851.34
444.35	6066.67
444.54	6022.20
444.73	5944.96
444.91	5956.66
445.10	6134.54
445.28	6169.65
445.47	6071.35
445.65	6054.97
445.84	6099.44
446.02	6118.16
446.21	5977.73
446.39	6092.41
446.58	6221.14
446.77	6073.69
446.95	6106.46
447.14	6012.84
447.32	6377.96
447.51	6204.76
447.69	6050.28
447.88	6253.91
448.06	6115.82
448.25	6094.76
448.43	6253.91
448.62	6279.66
448.80	6235.19
448.99	6183.70
449.17	6462.22
449.36	6321.79
449.54	6593.29
449.73	6656.48
449.91	6392.00
450.10	6626.06
450.28	6558.18
450.46	6370.94
450.65	6560.52
450.83	6719.68
451.02	6497.33
451.20	6778.19
451.39	6703.29
451.57	6551.16
451.76	6471.58
451.94	6736.06
452.13	6853.09
452.31	6939.69
452.49	6558.18
452.68	6773.51
452.86	6794.58
453.05	6871.81
453.23	6883.52
453.42	6794.58
453.60	6796.92
453.78	7042.67
453.97	6988.84
454.15	6899.90
454.34	6902.24
454.52	7037.99
454.70	7103.53
454.89	7073.10
455.07	7143.32
455.26	7117.57
455.44	7126.93
455.62	7227.57
455.81	7143.32
455.99	7243.96
456.17	7365.67
456.36	7332.90
456.54	7293.11
456.73	7545.89
456.91	7613.76
457.09	7318.86
457.28	7747.17
457.46	7386.73
457.64	7651.21
457.83	7538.87
458.01	7548.23
458.19	7777.60
458.38	7709.72
458.56	7751.85
458.74	7669.94
458.93	7695.68
459.11	7817.39
459.29	7789.30
459.48	7777.60
459.66	7852.50
459.84	7784.62
460.03	8154.43
460.21	7999.95
460.39	7824.41
460.57	8056.12
460.76	8028.04
460.94	8065.49
461.12	8138.04
461.31	8135.70
461.49	8051.44
461.67	8243.37
461.85	8510.19
462.04	8234.00
462.22	8788.71
462.40	8482.10
462.59	8271.45
462.77	8566.36
462.95	8470.40
463.13	8362.73
463.32	8388.48
463.50	8290.18
463.68	8571.04
463.86	8709.13
464.05	8381.46
464.23	8395.50
464.41	8596.79
464.59	8379.12
464.78	8812.12
464.96	8280.82
465.14	8629.56
465.32	8826.16
465.50	8652.96
465.69	8739.56
465.87	8718.50
466.05	8685.73
466.23	8786.37
466.41	8966.59
466.60	9104.68
466.78	8870.63
466.96	8814.46
467.14	8667.00
467.32	9004.04
467.51	9107.02
467.69	8954.89
467.87	9001.70
468.05	9039.15
468.23	9118.73
468.41	9107.02
468.60	9387.89
468.78	9273.20
468.96	9027.45
469.14	9352.78
469.32	9331.72
469.50	9200.65
469.69	9523.64
469.87	9310.65
470.05	9486.19
470.23	9600.88
470.41	9511.94
470.59	9626.62
470.77	9774.08
470.95	9928.55
471.14	9940.26
471.32	9554.07
471.50	9893.44
471.68	9870.04
471.86	9914.51
472.04	9968.34
472.22	10076.01
472.40	9771.74
472.58	9987.07
472.77	10111.11
472.95	10291.34
473.13	10356.87
473.31	10153.24
473.49	10434.11
473.67	10249.21
473.85	10246.87
474.03	10586.24
474.21	10546.45
474.39	10689.23
474.57	10670.50
474.75	10611.99
474.93	10686.89
475.12	10705.61
475.30	10977.11
475.48	10899.87
475.66	11140.95
475.84	11199.46
476.02	11162.01
476.20	11112.86
476.38	11375.00
476.56	11442.88
476.74	11580.97
476.92	11529.48
477.10	11555.22
477.28	11887.58
477.46	11777.58
477.64	12013.97
477.82	12100.57
478.00	12411.86
478.18	12304.20
478.36	12376.75
478.54	12505.48
478.72	12526.55
478.90	12409.52
479.08	12336.96
479.26	12828.48
479.44	12940.82
479.62	12894.01
479.80	12915.08
479.98	13240.41
480.16	13502.55
480.34	13245.09
480.52	13483.83
480.70	13547.02
480.88	13497.87
481.06	13247.43
481.24	13558.72
481.41	13823.20
481.59	14274.93
481.77	14373.23
481.95	13977.68
482.13	14321.74
482.31	14361.53
482.49	14675.16
482.67	14471.53
482.85	14508.98
483.03	15290.72
483.21	15192.42
483.39	15222.84
483.57	15236.89
483.74	15330.51
483.92	15625.42
484.10	15609.03
484.28	15730.74
484.46	15974.16
484.64	16177.78
484.82	15964.79
485.00	15943.73
485.18	16301.83
485.35	16748.87
485.53	16362.69
485.71	16898.67
485.89	17167.83
486.07	17025.06
486.25	17167.83
486.43	17118.68
486.61	17467.42
486.78	17317.62
486.96	17645.30
487.14	17900.42
487.32	18005.74
487.50	18120.43
487.68	18260.86
487.85	18284.26
488.03	18689.18
488.21	18785.14
488.39	18885.78
488.57	18747.69
488.75	19047.28
488.92	19679.22
489.10	19583.26
489.28	19623.05
489.46	19719.01
489.64	19548.15
489.81	20170.74
489.99	20203.50
490.17	20355.64
490.35	20470.33
490.53	20652.89
490.70	20329.89
490.88	20959.50
491.06	20779.28
491.24	20805.02
491.41	20919.71
491.59	21675.70
491.77	21135.04
491.95	21497.82
492.13	21659.32
492.30	21912.10
492.48	21752.94
492.66	21919.12
492.84	22293.60
493.01	22527.66
493.19	22445.74
493.37	22707.88
493.54	22733.62
493.72	22904.48
493.90	23342.16
494.08	23150.24
494.25	23297.69
494.43	23126.83
494.61	23452.17
494.79	23674.52
494.96	23775.16
495.14	24297.10
495.32	24067.73
495.49	24306.46
495.67	24428.17
495.85	24517.11
496.02	24739.46
496.20	24783.93
496.38	24826.06
496.55	24748.82
496.73	25465.03
496.91	25092.88
497.09	25469.71
497.26	25348.00
497.44	25132.67
497.62	25668.66
497.79	25869.94
497.97	25958.88
498.14	26616.57
498.32	26567.42
498.50	26483.16
498.67	26771.05
498.85	26436.35
499.03	26843.60
499.20	26890.41
499.38	27007.44
499.56	26986.38
499.73	27220.43
499.91	27225.11
500.08	27578.53
500.26	27402.99
500.44	27777.48
500.61	27843.01
500.79	27805.56
500.97	27536.40
501.14	28205.80
501.32	28114.52
501.49	28514.75
501.67	28070.04
501.84	28493.68
502.02	28774.55
502.20	28580.28
502.37	28692.63
502.55	29076.48
502.72	29174.78
502.90	28905.62
503.07	28863.49
503.25	29329.25
503.43	28863.49
503.60	29214.57
503.78	29427.56
503.95	29249.67
504.13	29738.85
504.30	29865.24
504.48	29848.85
504.65	29883.96
504.83	30436.33
505.01	30796.77
505.18	29989.28
505.36	30562.72
505.53	30485.48
505.71	30724.21
505.88	30813.15
506.06	30064.18
506.23	30588.46
506.41	30646.97
506.58	30642.29
506.76	30897.41
506.93	31117.42
507.11	30944.22
507.28	31173.60
507.46	31660.43
507.63	31484.89
507.81	31779.79
507.98	31220.41
508.16	31590.21
508.33	31988.10
508.50	32194.07
508.68	32058.32
508.85	32439.82
509.03	32285.35
509.20	32552.17
509.38	32594.30
509.55	32861.12
509.73	32659.84
509.90	32844.74
510.08	33062.41
510.25	32884.53
510.42	32854.10
510.60	33249.65
510.77	33467.32
510.95	33315.19
511.12	33443.91
511.30	33928.41
511.47	33338.59
511.64	33905.00
511.82	34190.55
511.99	33673.29
512.17	34375.45
512.34	34328.64
512.51	34775.68
512.69	34075.86
512.86	34677.38
513.04	34520.56
513.21	34873.98
513.38	34492.47
513.56	34766.32
513.73	34384.81
513.90	34623.54
514.08	35243.79
514.25	35543.38
514.43	35438.05
514.60	35262.51
514.77	35314.00
514.95	35309.32
515.12	35290.60
515.29	35566.78
515.47	36046.59
515.64	36041.91
515.81	36128.51
515.99	36009.14
516.16	36100.42
516.33	35995.10
516.51	36641.09
516.68	36371.92
516.85	36701.94
517.03	36910.25
517.20	36875.14
517.37	36336.82
517.54	36360.22
517.72	36692.58
517.89	36659.81
518.06	36734.71
518.24	36706.62
518.41	36996.85
518.58	36907.91
518.75	36919.61
518.93	37329.20
519.10	37060.04
519.27	37645.18
519.45	37439.21
519.62	37544.53
519.79	37469.64
519.96	37811.35
520.14	37759.86
520.31	37497.72
520.48	37963.49
520.65	38258.40
520.83	38286.48
521.00	38178.82
521.17	38401.17
521.34	38209.25
521.52	38693.74
521.69	38415.21
521.86	38738.21
522.03	38705.44
522.20	39061.20
522.38	38766.29
522.55	39009.71
522.72	39414.62
522.89	39367.81
523.07	39587.82
523.24	38801.40
523.41	38918.43
523.58	38913.75
523.75	39695.49
523.92	39384.19
524.10	39931.88
524.27	39667.40
524.44	39990.39
524.61	40020.82
524.78	39569.10
524.96	40327.43
525.13	40278.28
525.30	40346.15
525.47	40950.01
525.64	40608.29
525.81	40893.84
525.98	40371.90
526.16	40758.09
526.33	40385.94
526.50	40872.78
526.67	40786.18
526.84	40584.89
527.01	40697.24
527.18	41230.88
527.36	41270.67
527.53	40921.93
527.70	41209.81
527.87	41418.12
528.04	41024.91
528.21	41649.83
528.38	41399.40
528.55	41509.40
528.72	42019.64
528.89	41872.18
529.07	41605.36
529.24	41497.70
529.41	41315.14
529.58	41841.76
529.75	42094.53
529.92	42185.82
530.09	42082.83
530.26	41940.06
530.43	41734.09
530.60	41844.10
530.77	41951.76
530.94	42600.09
531.11	42600.09
531.28	42494.77
531.46	42614.13
531.63	42721.80
531.80	42906.70
531.97	42787.33
532.14	42581.37
532.31	42806.06
532.48	42796.70
532.65	43136.07
532.82	42983.94
532.99	42913.72
533.16	42965.21
533.33	43461.41
533.50	43742.27
533.67	43306.93
533.84	42960.53
534.01	42602.43
534.18	43309.27
534.35	43803.13
534.52	43714.19
534.69	44470.18
534.86	43571.41
535.03	43402.89
535.20	43405.23
535.37	43875.68
535.54	44186.97
535.71	44470.18
535.88	44130.80
536.05	44095.69
536.22	44538.05
536.38	44392.94
536.55	44219.74
536.72	44011.43
536.89	43758.66
537.06	44360.17
537.23	43901.43
537.40	44872.75
537.57	44123.78
537.74	44357.83
537.91	44837.64
538.08	44589.55
538.25	44811.90
538.42	44601.25
538.59	45200.43
538.75	44985.10
538.92	45003.82
539.09	45331.50
539.26	45205.11
539.43	45235.53
539.60	45174.68
539.77	45244.90
539.94	45570.23
540.11	45385.33
540.28	45352.56
540.44	45862.80
540.61	45893.22
540.78	45317.45
540.95	45457.88
541.12	45153.62
541.29	45570.23
541.46	45366.60
541.62	45350.22
541.79	45717.68
541.96	45387.67
542.13	45668.53
542.30	45996.21
542.47	46169.41
542.63	46209.20
542.80	46213.88
542.97	46305.16
543.14	46600.07
543.31	46534.53
543.48	47065.83
543.64	46714.75
543.81	46553.26
543.98	47194.56
544.15	46885.61
544.32	46808.37
544.48	47089.24
544.65	46660.92
544.82	46373.03
544.99	46930.08
545.16	46890.29
545.32	46803.69
545.49	47337.33
545.66	47646.29
545.83	47388.83
546.00	47079.88
546.16	47105.62
546.33	47203.92
546.50	46873.91
546.67	47318.61
546.83	46909.02
547.00	47543.30
547.17	47292.86
547.34	47665.01
547.50	47599.47
547.67	47683.73
547.84	47510.53
548.00	47784.38
548.17	47870.98
548.34	47667.35
548.51	47964.60
548.67	47863.96
548.84	47833.53
549.01	48083.97
549.18	47545.64
549.34	48332.06
549.51	48079.28
549.68	48133.12
549.84	47875.66
550.01	48259.51
550.18	48095.67
550.34	48229.08
550.51	48294.61
550.68	48114.39
550.84	48044.18
551.01	47969.28
551.18	48126.10
551.34	48636.33
551.51	48615.27
551.68	48512.28
551.84	48683.14
552.01	48568.46
552.18	48151.84
552.34	48282.91
552.51	48512.28
552.68	48130.78
552.84	48711.23
553.01	48751.02
553.18	48891.45
553.34	48910.17
553.51	48809.53
553.67	48870.39
553.84	49015.50
554.01	49247.21
554.17	49085.72
554.34	49106.78
554.51	49134.87
554.67	49389.98
554.84	49268.28
555.00	49078.69
555.17	48891.45
555.33	49006.14
555.50	48582.50
555.67	49247.21
555.83	49275.30
556.00	49272.96
556.16	49727.02
556.33	49617.02
556.50	49399.35
556.66	49439.14
556.83	49385.30
556.99	49226.15
557.16	49230.83
557.32	49471.90
557.49	49689.57
557.65	49731.70
557.82	49738.72
557.98	49979.80
558.15	49624.04
558.32	49954.05
558.48	49298.70
558.65	49525.74
558.81	49684.89
558.98	49221.47
559.14	49610.00
559.31	50052.36
559.47	49710.64
559.64	49982.14
559.80	50265.34
559.97	49867.45
560.13	49469.56
560.30	49881.50
560.46	49640.42
560.63	49972.78
560.79	49979.80
560.96	50059.38
561.12	50127.25
561.29	49979.80
561.45	49921.29
561.61	50164.70
561.78	50052.36
561.94	50035.97
562.11	49811.28
562.27	50155.34
562.44	50190.45
562.60	50539.19
562.77	50225.56
562.93	50197.47
563.10	50597.70
563.26	50408.12
563.42	50726.43
563.59	50160.02
563.75	50185.77
563.92	50401.10
564.08	49947.03
564.24	50286.41
564.41	50548.55
564.57	50644.51
564.74	50344.92
564.90	50052.36
565.07	50490.04
565.23	50429.18
565.39	50457.27
565.56	50272.37
565.72	50600.04
565.88	50454.93
566.05	50433.86
566.21	50693.66
566.38	50541.53
566.54	50827.07
566.70	50838.78
566.87	50698.34
567.03	50342.58
567.19	50712.39
567.36	50806.01
567.52	50300.45
567.68	50632.81
567.85	50571.96
568.01	50911.33
568.17	51026.02
568.34	50787.28
568.50	50473.65
568.66	50646.85
568.83	50384.71
568.99	50789.62
569.15	50618.77
569.32	50717.07
569.48	50665.58
569.64	50714.73
569.81	50855.16
569.97	50990.91
570.13	50848.14
570.30	50674.94
570.46	50932.40
570.62	50822.39
570.78	50817.71
570.95	50791.97
571.11	50815.37
571.27	50967.51
571.43	51028.36
571.60	51157.09
571.76	51019.00
571.92	50897.29
572.09	50483.01
572.25	51082.19
572.41	50763.88
572.57	51091.55
572.74	51189.86
572.90	50930.06
573.06	50733.45
573.22	51536.26
573.38	50855.16
573.55	51021.34
573.71	51400.50
573.87	51133.68
574.03	50710.05
574.20	50780.26
574.36	51054.11
574.52	50908.99
574.68	51171.13
574.84	50997.93
575.01	51386.46
575.17	51318.59
575.33	50939.42
575.49	50817.71
575.65	51349.01
575.82	51255.39
575.98	51227.31
576.14	51157.09
576.30	51227.31
576.46	51220.28
576.62	51325.61
576.79	51313.90
576.95	51143.05
577.11	50946.44
577.27	50932.40
577.43	50890.27
577.59	51487.10
577.75	51119.64
577.92	50948.78
578.08	50927.72
578.24	51157.09
578.40	51344.33
578.56	51522.21
578.72	51164.11
578.88	51564.34
579.04	51206.24
579.21	50796.65
579.37	51239.01
579.53	51084.53
579.69	50974.53
579.85	51248.37
580.01	51716.48
580.17	51145.39
580.33	51203.90
580.49	51323.27
580.65	51341.99
580.82	51250.71
580.98	51318.59
581.14	51250.71
581.30	51522.21
581.46	51325.61
581.62	51660.30
581.78	51468.38
581.94	51531.57
582.10	51566.68
582.26	51491.79
582.42	51313.90
582.58	51140.71
582.74	51297.52
582.90	51250.71
583.06	51166.45
583.22	51367.74
583.38	51519.87
583.54	51590.09
583.70	51676.69
583.86	51323.27
584.02	51154.75
584.18	51512.85
584.34	51353.69
584.50	51662.64
584.66	51367.74
584.82	51047.08
584.98	51206.24
585.14	51440.29
585.30	51365.40
585.46	51267.09
585.62	51601.79
585.78	51559.66
585.94	51154.75
586.10	51381.78
586.26	51323.27
586.42	51295.18
586.58	51686.05
586.74	51505.83
586.90	51304.54
587.06	51505.83
587.22	51765.63
587.38	51517.53
587.54	52004.36
587.70	51664.99
587.86	51590.09
588.02	51494.13
588.18	51569.02
588.34	51667.33
588.49	51491.79
588.65	51587.75
588.81	51765.63
588.97	51924.78
589.13	51672.01
589.29	51985.64
589.45	52107.35
589.61	51480.08
589.77	51786.69
589.93	51613.49
590.08	51889.68
590.24	51915.42
590.40	52109.69
