SpectraSuite Data File
++++++++++++++++++++++++++++++++++++
Date: Fri Oct 04 11:39:48 GMT-05:00 2013
User: price-jones
Dark Spectrum Present: No
Reference Spectrum Present: No
Number of Sampled Component Spectra: 1
Spectrometers: USB2+H05261
Integration Time (usec): 100000 (USB2+H05261)
Spectra Averaged: 1 (USB2+H05261)
Boxcar Smoothing: 0 (USB2+H05261)
Correct for Electrical Dark: No (USB2+H05261)
Strobe/Lamp Enabled: No (USB2+H05261)
Correct for Detector Non-linearity: No (USB2+H05261)
Correct for Stray Light: No (USB2+H05261)
Number of Pixels in Processed Spectrum: 2048
>>>>>Begin Processed Spectral Data<<<<<
365.73	142.77
365.92	142.77
366.12	142.77
366.32	0.00
366.52	0.00
366.72	0.00
366.91	0.00
367.11	0.00
367.31	0.00
367.51	0.00
367.70	0.00
367.90	0.00
368.10	0.00
368.30	0.00
368.49	0.00
368.69	9.36
368.89	0.00
369.09	0.00
369.28	0.00
369.48	0.00
369.68	0.00
369.87	25.75
370.07	0.00
370.27	11.70
370.47	30.43
370.66	107.66
370.86	163.84
371.06	135.75
371.25	231.71
371.45	224.69
371.65	203.63
371.84	234.05
372.04	250.44
372.24	327.68
372.44	285.55
372.63	276.18
372.83	250.44
373.03	252.78
373.22	255.12
373.42	318.31
373.62	269.16
373.81	241.08
374.01	367.46
374.21	322.99
374.40	215.33
374.60	273.84
374.79	264.48
374.99	271.50
375.19	294.91
375.38	280.86
375.58	325.33
375.78	320.65
375.97	322.99
376.17	367.46
376.37	301.93
376.56	360.44
376.76	322.99
376.95	353.42
377.15	315.97
377.35	318.31
377.54	315.97
377.74	229.37
377.93	346.40
378.13	248.10
378.33	400.23
378.52	315.97
378.72	358.10
378.91	301.93
379.11	283.20
379.31	294.91
379.50	320.65
379.70	339.38
379.89	308.95
380.09	320.65
380.28	285.55
380.48	367.46
380.68	292.57
380.87	341.72
381.07	402.57
381.26	358.10
381.46	351.08
381.65	362.78
381.85	365.12
382.04	393.21
382.24	325.33
382.43	337.04
382.63	355.76
382.83	360.44
383.02	440.02
383.22	440.02
383.41	435.34
383.61	269.16
383.80	358.10
384.00	409.59
384.19	386.19
384.39	393.21
384.58	341.72
384.78	409.59
384.97	435.34
385.17	433.00
385.36	374.49
385.56	430.66
385.75	367.46
385.95	390.87
386.14	510.24
386.34	425.98
386.53	449.38
386.72	411.93
386.92	379.17
387.11	468.11
387.31	470.45
387.50	416.62
387.70	381.51
387.89	400.23
388.09	463.43
388.28	442.36
388.48	407.25
388.67	463.43
388.86	404.91
389.06	409.59
389.25	451.72
389.45	397.89
389.64	365.12
389.84	461.09
390.03	489.17
390.22	538.32
390.42	430.66
390.61	468.11
390.81	470.45
391.00	489.17
391.19	491.51
391.39	468.11
391.58	531.30
391.78	472.79
391.97	411.93
392.16	531.30
392.36	512.58
392.55	482.15
392.75	486.83
392.94	500.87
393.13	512.58
393.33	521.94
393.52	505.56
393.71	552.37
393.91	571.09
394.10	482.15
394.29	538.32
394.49	477.47
394.68	519.60
394.88	496.19
395.07	566.41
395.26	540.66
395.46	571.09
395.65	634.29
395.84	493.85
396.04	610.88
396.23	599.18
396.42	582.79
396.62	606.20
396.81	550.03
397.00	505.56
397.19	514.92
397.39	660.03
397.58	564.07
397.77	676.41
397.97	648.33
398.16	645.99
398.35	709.18
398.55	566.41
398.74	573.43
398.93	688.12
399.12	676.41
399.32	599.18
399.51	702.16
399.70	737.27
399.90	629.60
400.09	594.50
400.28	653.01
400.47	697.48
400.67	739.61
400.86	737.27
401.05	753.65
401.24	653.01
401.44	674.07
401.63	681.10
401.82	758.33
402.01	784.08
402.21	765.36
402.40	727.91
402.59	608.54
402.78	774.72
402.97	830.89
403.17	770.04
403.36	763.01
403.55	805.14
403.74	891.74
403.93	816.85
404.13	765.36
404.32	877.70
404.51	833.23
404.70	786.42
404.89	866.00
405.09	947.92
405.28	856.64
405.47	835.57
405.66	919.83
405.85	917.49
406.05	936.21
406.24	917.49
406.43	919.83
406.62	903.45
406.81	990.05
407.00	950.26
407.20	1008.77
407.39	964.30
407.58	950.26
407.77	990.05
407.96	983.02
408.15	1053.24
408.34	964.30
408.54	1064.94
408.73	1041.54
408.92	1069.62
409.11	1100.05
409.30	1071.97
409.49	1006.43
409.68	1055.58
409.87	1053.24
410.07	1027.50
410.26	1130.48
410.45	1114.10
410.64	1078.99
410.83	1181.97
411.02	1228.78
411.21	1310.70
411.40	1188.99
411.59	1210.06
411.78	1233.46
411.98	1240.48
412.17	1221.76
412.36	1235.80
412.55	1336.45
412.74	1390.28
412.93	1270.91
413.12	1310.70
413.31	1432.41
413.50	1249.85
413.69	1355.17
413.88	1336.45
414.07	1439.43
414.26	1465.18
414.45	1366.87
414.64	1392.62
414.83	1397.30
415.02	1526.03
415.22	1603.27
415.41	1544.75
415.60	1533.05
415.79	1535.39
415.98	1568.16
416.17	1530.71
416.36	1511.99
416.55	1549.43
416.74	1629.01
416.93	1643.06
417.12	1605.61
417.31	1579.86
417.50	1626.67
417.69	1760.08
417.88	1626.67
418.07	1703.91
418.26	1748.38
418.45	1750.72
418.64	1734.34
418.83	1778.81
419.02	1715.61
419.21	1673.48
419.39	1806.89
419.58	1795.19
419.77	1799.87
419.96	1872.43
420.15	1940.30
420.34	1820.94
420.53	1842.00
420.72	1912.22
420.91	1804.55
421.10	1919.24
421.29	1970.73
421.48	1867.75
421.67	1867.75
421.86	1900.52
422.05	1905.20
422.24	1795.19
422.43	1893.49
422.61	1982.43
422.80	1907.54
422.99	2033.93
423.18	1996.48
423.37	1879.45
423.56	1940.30
423.75	1930.94
423.94	2026.90
424.13	1858.39
424.32	1947.33
424.50	1956.69
424.69	1987.11
424.88	2015.20
425.07	1977.75
425.26	1975.41
425.45	1940.30
425.64	2090.10
425.83	1994.14
426.01	2134.57
426.20	2057.33
426.39	1984.77
426.58	2019.88
426.77	2111.16
426.96	2120.53
427.15	2118.18
427.33	2113.50
427.52	2235.21
427.71	2275.00
427.90	2080.74
428.09	2256.28
428.28	2193.08
428.46	2118.18
428.65	2139.25
428.84	2204.78
429.03	2160.31
429.22	2183.72
429.40	2115.84
429.59	2230.53
429.78	2207.13
429.97	2094.78
430.16	2136.91
430.34	2246.91
430.53	2209.47
430.72	2204.78
430.91	2260.96
431.10	2284.36
431.28	2202.44
431.47	2385.01
431.66	2380.32
431.85	2256.28
432.03	2396.71
432.22	2406.07
432.41	2349.90
432.60	2497.35
432.79	2375.64
432.97	2478.63
433.16	2452.88
433.35	2406.07
433.54	2546.50
433.72	2399.05
433.91	2513.74
434.10	2469.27
434.28	2539.48
434.47	2473.95
434.66	2518.42
434.85	2539.48
435.03	2572.25
435.22	2754.81
435.41	2853.11
435.59	2848.43
435.78	2796.94
435.97	2757.15
436.16	2668.21
436.34	2597.99
436.53	2637.78
436.72	2682.25
436.90	2513.74
437.09	2614.38
437.28	2773.53
437.46	2724.38
437.65	2644.81
437.84	2658.85
438.02	2729.06
438.21	2775.88
438.40	2654.17
438.58	2750.13
438.77	2909.29
438.96	2722.04
439.14	2766.51
439.33	2785.24
439.52	2820.35
439.70	2864.82
439.89	2818.00
440.08	2920.99
440.26	2944.39
440.45	2761.83
440.63	3080.14
440.82	3063.76
441.01	3016.95
441.19	3091.85
441.38	3063.76
441.57	2991.20
441.75	3094.19
441.94	3131.64
442.12	3183.13
442.31	3176.11
442.50	3108.23
442.68	3318.88
442.87	3187.81
443.05	3112.91
443.24	3349.31
443.43	3229.94
443.61	3150.36
443.80	3290.79
443.98	3283.77
444.17	3162.06
444.35	3346.97
444.54	3316.54
444.73	3267.39
444.91	3419.52
445.10	3246.32
445.28	3363.35
445.47	3243.98
445.65	3251.00
445.84	3213.56
446.02	3262.71
446.21	3293.13
446.39	3302.50
446.58	3358.67
446.77	3353.99
446.95	3269.73
447.14	3377.39
447.32	3510.80
447.51	3410.16
447.69	3426.54
447.88	3290.79
448.06	3396.12
448.25	3492.08
448.43	3515.48
448.62	3368.03
448.80	3485.06
448.99	3407.82
449.17	3428.88
449.36	3391.44
449.54	3552.93
449.73	3466.33
449.91	3557.61
450.10	3585.70
450.28	3613.79
450.46	3524.85
450.65	3510.80
450.83	3503.78
451.02	3669.96
451.20	3609.11
451.39	3735.50
451.57	3555.27
451.76	3545.91
451.94	3527.19
452.13	3791.67
452.31	3735.50
452.49	3606.77
452.68	3705.07
452.86	3583.36
453.05	3709.75
453.23	3763.58
453.42	3702.73
453.60	3740.18
453.78	3749.54
453.97	3695.71
454.15	3779.97
454.34	3733.15
454.52	3911.04
454.70	3880.61
454.89	3756.56
455.07	3761.24
455.26	3824.44
455.44	3894.65
455.62	3927.42
455.81	3808.05
455.99	3983.59
456.17	3873.59
456.36	4037.42
456.54	4084.23
456.73	3960.19
456.91	4100.62
457.09	4063.17
457.28	3936.78
457.46	4152.11
457.64	4219.99
457.83	4049.13
458.01	4058.49
458.19	4257.43
458.38	4114.66
458.56	4273.82
458.74	4177.86
458.93	4109.98
459.11	4114.66
459.29	4077.21
459.48	4346.37
459.66	4245.73
459.84	4337.01
460.03	4454.04
460.21	4329.99
460.39	4407.23
460.57	4404.89
460.76	4224.67
460.94	4447.02
461.12	4386.16
461.31	4365.10
461.49	4283.18
461.67	4353.40
461.85	4519.57
462.04	4432.97
462.22	4858.95
462.40	4468.08
462.59	4514.89
462.77	4575.75
462.95	4657.67
463.13	4627.24
463.32	4568.73
463.50	4664.69
463.68	4643.62
463.86	4550.00
464.05	4421.27
464.23	4678.73
464.41	4643.62
464.59	4585.11
464.78	4699.80
464.96	4592.13
465.14	4624.90
465.32	4753.63
465.50	4849.59
465.69	4795.76
465.87	4692.77
466.05	4807.46
466.23	4652.98
466.41	4624.90
466.60	4709.16
466.78	4667.03
466.96	4828.53
467.14	4814.48
467.32	4868.31
467.51	4870.65
467.69	4676.39
467.87	4922.15
468.05	4908.10
468.23	4772.35
468.41	4795.76
468.60	4917.47
468.78	4933.85
468.96	4940.87
469.14	5076.62
469.32	5001.72
469.50	4945.55
469.69	5057.90
469.87	5001.72
470.05	5210.03
470.23	5111.73
470.41	4954.91
470.59	5184.29
470.77	5008.75
470.95	5233.44
471.14	5205.35
471.32	5158.54
471.50	5158.54
471.68	5303.65
471.86	5296.63
472.04	5268.55
472.22	5305.99
472.40	5392.59
472.58	5462.81
472.77	5341.10
472.95	5329.40
473.13	5554.09
473.31	5493.24
473.49	5465.15
473.67	5425.36
473.85	5462.81
474.03	5694.52
474.21	5598.56
474.39	5479.19
474.57	5907.51
474.75	5776.44
474.93	5746.02
475.12	5715.59
475.30	5813.89
475.48	5626.65
475.66	5951.98
475.84	5898.15
476.02	6001.13
476.20	6003.47
476.38	6197.74
476.56	6272.64
476.74	6015.18
476.92	6076.03
477.10	6286.68
477.28	6279.66
477.46	6349.87
477.64	6253.91
477.82	6251.57
478.00	6614.35
478.18	6530.09
478.36	6387.32
478.54	6630.74
478.72	6600.31
478.90	6757.13
479.08	6602.65
479.26	6506.69
479.44	6773.51
479.62	6684.57
479.80	6920.96
479.98	6841.39
480.16	7026.29
480.34	6895.22
480.52	7220.55
480.70	6899.90
480.88	7075.44
481.06	7253.32
481.24	7119.91
481.41	7136.29
481.59	7335.24
481.77	7433.54
481.95	7382.05
482.13	7398.43
482.31	7417.16
482.49	7611.42
482.67	7595.04
482.85	7709.72
483.03	7801.01
483.21	7604.40
483.39	7953.14
483.57	8194.22
483.74	7929.74
483.92	8187.19
484.10	7997.61
484.28	8285.50
484.46	8425.93
484.64	8332.31
484.82	8514.87
485.00	8451.67
485.18	8638.92
485.35	8851.91
485.53	8631.90
485.71	8575.72
485.89	8882.33
486.07	8599.13
486.25	8887.01
486.43	8908.08
486.61	8924.46
486.78	9202.99
486.96	9130.43
487.14	9331.72
487.32	9277.88
487.50	9308.31
487.68	9312.99
487.85	9607.90
488.03	9818.55
488.21	9586.83
488.39	9841.95
488.57	9699.18
488.75	9996.43
488.92	10101.75
489.10	10090.05
489.28	10076.01
489.46	10312.40
489.64	10155.58
489.81	10296.02
489.99	10445.81
490.17	10729.02
490.35	10516.03
490.53	10616.67
490.70	10602.63
490.88	10630.71
491.06	10932.64
491.24	10745.40
491.41	10923.28
491.59	10850.72
491.77	10965.41
491.95	10972.43
492.13	11075.42
492.30	11103.50
492.48	11375.00
492.66	11101.16
492.84	11323.51
493.01	11599.70
493.19	11304.79
493.37	11665.23
493.54	11901.62
493.72	11925.03
493.90	11653.53
494.08	11880.56
494.25	11838.43
494.43	12056.10
494.61	12226.96
494.79	12138.02
494.96	12229.30
495.14	12280.79
495.32	12058.44
495.49	12451.65
495.67	12524.21
495.85	12556.97
496.02	12643.57
496.20	12571.02
496.38	12681.02
496.55	12835.50
496.73	13048.49
496.91	12870.61
497.09	12989.97
497.26	13085.94
497.44	13032.10
497.62	13022.74
497.79	13322.33
497.97	13102.32
498.14	13202.96
498.32	13458.08
498.50	13521.27
498.67	13642.98
498.85	13631.28
499.03	13771.71
499.20	13799.80
499.38	13741.29
499.56	13865.33
499.73	13961.30
499.91	13919.17
500.08	14054.92
500.26	13624.26
500.44	13947.25
500.61	13963.64
500.79	14052.58
500.97	14164.92
501.14	14410.68
501.32	14485.58
501.49	14300.67
501.67	14438.76
501.84	14726.65
502.02	14501.96
502.20	14841.34
502.37	14576.86
502.55	14675.16
502.72	14728.99
502.90	14640.05
503.07	14700.90
503.25	14822.61
503.43	14906.87
503.60	14911.55
503.78	14850.70
503.95	15063.69
504.13	15033.26
504.30	15000.49
504.48	15023.90
504.65	15328.17
504.83	15166.67
505.01	15218.16
505.18	15201.78
505.36	15630.10
505.53	15372.64
505.71	15527.11
505.88	15737.76
506.06	15442.85
506.23	15742.44
506.41	15583.29
506.58	15765.85
506.76	15606.69
506.93	15988.20
507.11	15824.36
507.28	15824.36
507.46	15871.17
507.63	16198.85
507.81	15903.94
507.98	16060.76
508.16	16212.89
508.33	16114.59
508.50	16255.02
508.68	16285.45
508.85	16470.35
509.03	16531.20
509.20	16411.84
509.38	16559.29
509.55	16791.00
509.73	16683.34
509.90	16664.61
510.08	16669.30
510.25	16510.14
510.42	16802.71
510.60	16844.84
510.77	17186.55
510.95	16952.50
511.12	16987.61
511.30	17011.01
511.47	17001.65
511.64	17277.83
511.82	17188.89
511.99	17247.41
512.17	17383.16
512.34	17270.81
512.51	17532.95
512.69	17341.03
512.86	17558.70
513.04	17621.89
513.21	17493.16
513.38	17689.77
513.56	17914.46
513.73	17448.69
513.90	17860.63
514.08	17860.63
514.25	17710.83
514.43	17855.95
514.60	17619.55
514.77	18190.64
514.95	17839.56
515.12	17811.48
515.29	17914.46
515.47	17980.00
515.64	18359.16
515.81	18221.07
515.99	18387.25
516.16	18347.46
516.33	18466.83
516.51	18480.87
516.68	18544.06
516.85	18300.65
517.03	18317.03
517.20	18214.05
517.37	18640.03
517.54	18721.95
517.72	18780.46
517.89	18403.63
518.06	18518.32
518.24	18377.89
518.41	18497.25
518.58	18993.45
518.75	18616.62
518.93	19012.17
519.10	19115.16
519.27	18890.46
519.45	18743.01
519.62	19136.22
519.79	18717.26
519.96	18726.63
520.14	19410.06
520.31	19222.82
520.48	19396.02
520.65	19330.48
520.83	19566.88
521.00	19311.76
521.17	19262.61
521.34	19154.94
521.52	19606.67
521.69	19606.67
521.86	19564.54
522.03	19639.44
522.20	19639.44
522.38	19950.73
522.55	20128.61
522.72	19903.92
522.89	19953.07
523.07	20510.11
523.24	19768.16
523.41	19950.73
523.58	19711.99
523.75	20152.01
523.92	19932.00
524.10	20011.58
524.27	19868.81
524.44	20098.18
524.61	20063.07
524.78	20180.10
524.96	20269.04
525.13	20266.70
525.30	20475.01
525.47	20491.39
525.64	20695.02
525.81	20552.24
525.98	20435.22
526.16	20372.02
526.33	20723.10
526.50	20631.82
526.67	20346.28
526.84	20402.45
527.01	20760.55
527.18	20840.13
527.36	20587.35
527.53	20772.25
527.70	20760.55
527.87	21060.14
528.04	20652.89
528.21	20849.49
528.38	20812.04
528.55	21151.42
528.72	21228.66
528.89	21146.74
529.07	20924.39
529.24	21018.01
529.41	21268.45
529.58	21200.57
529.75	21242.70
529.92	21099.93
530.09	21322.28
530.26	21600.80
530.43	21453.35
530.60	21287.17
530.77	21249.72
530.94	21436.97
531.11	21308.24
531.28	21568.04
531.46	21291.85
531.63	21621.87
531.80	21720.17
531.97	21694.43
532.14	21525.91
532.31	21757.62
532.48	22054.87
532.65	21701.45
532.82	21783.37
532.99	21743.58
533.16	21762.30
533.33	21528.25
533.50	21951.88
533.67	22448.08
533.84	22143.81
534.01	21603.14
534.18	21652.30
534.35	22279.56
534.52	21823.16
534.69	22326.37
534.86	22588.51
535.03	22026.78
535.20	22436.38
535.37	22270.20
535.54	22263.18
535.71	22169.55
535.88	22405.95
536.05	22504.25
536.22	22480.85
536.38	22373.18
536.55	22497.23
536.72	22490.21
536.89	22391.91
537.06	22731.28
537.23	22005.72
537.40	22679.79
537.57	22618.94
537.74	22810.86
537.91	22911.50
538.08	22827.24
538.25	22602.55
538.42	22876.40
538.59	22733.62
538.75	22565.10
538.92	22515.95
539.09	22684.47
539.26	22785.12
539.43	23171.30
539.60	23103.43
539.77	23232.16
539.94	22906.82
540.11	22843.63
540.28	23080.02
540.44	23206.41
540.61	23304.71
540.78	23236.84
540.95	23250.88
541.12	23398.34
541.29	23234.50
541.46	23459.19
541.62	23396.00
541.79	23527.06
541.96	23403.02
542.13	23463.87
542.30	23517.70
542.47	23644.09
542.63	23770.48
542.80	23344.50
542.97	23936.66
543.14	23929.64
543.31	23990.49
543.48	23761.12
543.64	24130.92
543.81	24102.84
543.98	24098.16
544.15	24226.89
544.32	24325.19
544.48	24238.59
544.65	24247.95
544.82	23950.70
544.99	23943.68
545.16	24161.35
545.32	24109.86
545.49	25055.43
545.66	25025.01
545.83	24865.85
546.00	24872.87
546.16	24648.18
546.33	24318.17
546.50	24322.85
546.67	24079.43
546.83	23878.15
547.00	24301.78
547.17	24294.76
547.34	23770.48
547.50	24313.48
547.67	24357.96
547.84	24072.41
548.00	24357.96
548.17	24510.09
548.34	24269.01
548.51	24479.66
548.67	24491.37
548.84	24636.48
549.01	24547.54
549.18	24482.00
549.34	24697.33
549.51	24390.72
549.68	24460.94
549.84	24577.97
550.01	24723.08
550.18	24706.70
550.34	24800.32
550.51	24704.35
550.68	24453.92
550.84	24266.67
551.01	24659.88
551.18	24313.48
551.34	24383.70
551.51	24407.11
551.68	24732.44
551.84	24893.94
552.01	24805.00
552.18	24884.58
552.34	24482.00
552.51	24812.02
552.68	24849.47
552.84	25139.69
553.01	25010.96
553.18	24758.19
553.34	25151.40
553.51	24957.13
553.67	24837.76
553.84	25109.27
554.01	25191.19
554.17	24961.81
554.34	24748.82
554.51	25039.05
554.67	24926.71
554.84	24971.18
555.00	25064.80
555.17	24470.30
555.33	25149.06
555.50	25095.22
555.67	25160.76
555.83	24915.00
556.00	25034.37
556.16	25383.11
556.33	25029.69
556.50	25099.90
556.66	25055.43
556.83	25078.84
556.99	25329.28
557.16	24999.26
557.32	25053.09
557.49	25296.51
557.65	25036.71
557.82	25146.72
557.98	24837.76
558.15	25369.07
558.32	24961.81
558.48	25280.13
558.65	25205.23
558.81	25455.67
558.98	25245.02
559.14	25378.43
559.31	25195.87
559.47	25373.75
559.64	25434.60
559.80	25282.47
559.97	25123.31
560.13	25226.29
560.30	25474.39
560.46	25762.28
560.63	25560.99
560.79	25179.48
560.96	25443.96
561.12	25317.57
561.29	25212.25
561.45	25338.64
561.61	25720.15
561.78	25584.40
561.94	25296.51
562.11	25680.36
562.27	25823.13
562.44	25507.16
562.60	25364.39
562.77	25631.21
562.93	25603.12
563.10	25663.97
563.26	25635.89
563.42	25795.04
563.59	25790.36
563.75	25970.58
563.92	25668.66
564.08	25757.60
564.24	25568.01
564.41	25390.13
564.57	25584.40
564.74	25921.43
564.90	25551.63
565.07	25413.54
565.23	25773.98
565.39	26085.27
565.56	25790.36
565.72	25811.43
565.88	25357.36
566.05	25720.15
566.21	25724.83
566.38	25708.44
566.54	25448.64
566.70	25958.88
566.87	25963.56
567.03	25893.35
567.19	26443.37
567.36	25907.39
567.52	25591.42
567.68	25902.71
567.85	25694.40
568.01	25579.71
568.17	25926.11
568.34	25984.63
568.50	25610.14
568.66	25448.64
568.83	26375.50
568.99	25891.01
569.15	25706.10
569.32	25598.44
569.48	25666.31
569.64	25930.80
569.81	25661.63
569.97	25909.73
570.13	25907.39
570.30	26026.76
570.46	25813.77
570.62	25769.30
570.78	26132.08
570.95	25923.77
571.11	26040.80
571.27	25626.53
571.43	25462.69
571.60	25975.27
571.76	26111.02
571.92	25788.02
572.09	26302.94
572.25	26103.99
572.41	26148.46
572.57	26082.93
572.74	26155.49
572.90	25511.84
573.06	25862.92
573.22	26185.91
573.38	26155.49
573.55	26036.12
573.71	26228.04
573.87	26345.07
574.03	26087.61
574.20	26199.96
574.36	26153.15
574.52	26410.60
574.68	25759.94
574.84	26103.99
575.01	26319.32
575.17	26157.83
575.33	25876.96
575.49	25942.50
575.65	26188.25
575.82	25788.02
575.98	25860.58
576.14	26036.12
576.30	26096.97
576.46	26380.18
576.62	25790.36
576.79	26347.41
576.95	25773.98
577.11	26150.81
577.27	25663.97
577.43	26160.17
577.59	25734.19
577.75	26415.29
577.92	26078.25
578.08	25781.00
578.24	25944.84
578.40	25755.26
578.56	26150.81
578.72	25724.83
578.88	26366.13
579.04	26239.75
579.21	25813.77
579.37	26146.12
579.53	26106.34
579.69	26015.05
579.85	25764.62
580.01	26015.05
580.17	26022.08
580.33	26244.43
580.49	25919.09
580.65	26089.95
580.82	26183.57
580.98	26424.65
581.14	26150.81
581.30	26195.28
581.46	25933.14
581.62	26307.62
581.78	25804.41
581.94	25968.24
582.10	26080.59
582.26	26181.23
582.42	26347.41
582.58	25954.20
582.74	26092.29
582.90	26082.93
583.06	25975.27
583.22	26075.91
583.38	26038.46
583.54	26017.40
583.70	26155.49
583.86	26267.83
584.02	26218.68
584.18	26316.98
584.34	26251.45
584.50	26345.07
584.66	26359.11
584.82	25883.98
584.98	26176.55
585.14	26190.59
585.30	26008.03
585.46	26434.01
585.62	25876.96
585.78	26506.57
585.94	25921.43
586.10	26450.39
586.26	25802.07
586.42	26417.63
586.58	26436.35
586.74	26174.21
586.90	25926.11
587.06	26359.11
587.22	26183.57
587.38	26167.19
587.54	26331.03
587.70	26492.52
587.86	26539.33
588.02	26506.57
588.18	26443.37
588.34	25898.03
588.49	26436.35
588.65	25930.80
588.81	26057.18
588.97	26012.71
589.13	26047.82
589.29	26312.30
589.45	26349.75
589.61	26111.02
589.77	26457.42
589.93	26511.25
590.08	26181.23
590.24	26171.87
590.40	26302.94
590.56	26555.72
590.72	26253.79
590.88	26094.63
591.04	26047.82
591.20	26504.23
591.35	26211.66
591.51	26661.04
591.67	26380.18
591.83	26335.71
591.99	26740.62
