SpectraSuite Data File
++++++++++++++++++++++++++++++++++++
Date: Fri Oct 04 11:39:48 GMT-05:00 2013
User: price-jones
Dark Spectrum Present: No
Reference Spectrum Present: No
Number of Sampled Component Spectra: 1
Spectrometers: USB2+H05261
Integration Time (usec): 100000 (USB2+H05261)
Spectra Averaged: 1 (USB2+H05261)
Boxcar Smoothing: 0 (USB2+H05261)
Correct for Electrical Dark: No (USB2+H05261)
Strobe/Lamp Enabled: No (USB2+H05261)
Correct for Detector Non-linearity: No (USB2+H05261)
Correct for Stray Light: No (USB2+H05261)
Number of Pixels in Processed Spectrum: 2048
>>>>>Begin Processed Spectral Data<<<<<
365.73	23.41
365.92	23.41
366.12	23.41
366.32	0.00
366.52	0.00
366.72	0.00
366.91	0.00
367.11	0.00
367.31	0.00
367.51	0.00
367.70	0.00
367.90	0.00
368.10	0.00
368.30	0.00
368.49	0.00
368.69	0.00
368.89	37.45
369.09	0.00
369.28	0.00
369.48	0.00
369.68	0.00
369.87	30.43
370.07	0.00
370.27	35.11
370.47	128.73
370.66	266.82
370.86	325.33
371.06	337.04
371.25	372.15
371.45	313.63
371.65	304.27
371.84	409.59
372.04	332.36
372.24	442.36
372.44	358.10
372.63	437.68
372.83	477.47
373.03	411.93
373.22	442.36
373.42	348.74
373.62	512.58
373.81	461.09
374.01	491.51
374.21	550.03
374.40	442.36
374.60	521.94
374.79	454.06
374.99	461.09
375.19	486.83
375.38	528.96
375.58	498.53
375.78	528.96
375.97	489.17
376.17	540.66
376.37	566.41
376.56	416.62
376.76	479.81
376.95	491.51
377.15	489.17
377.35	552.37
377.54	486.83
377.74	489.17
377.93	552.37
378.13	561.73
378.33	589.82
378.52	498.53
378.72	599.18
378.91	540.66
379.11	528.96
379.31	634.29
379.50	592.16
379.70	711.52
379.89	650.67
380.09	617.90
380.28	543.00
380.48	573.43
380.68	557.05
380.87	585.13
381.07	655.35
381.26	622.58
381.46	631.94
381.65	594.50
381.85	645.99
382.04	608.54
382.24	660.03
382.43	613.22
382.63	559.39
382.83	613.22
383.02	683.44
383.22	653.01
383.41	650.67
383.61	594.50
383.80	634.29
384.00	681.10
384.19	641.31
384.39	711.52
384.58	667.05
384.78	741.95
384.97	676.41
385.17	676.41
385.36	634.29
385.56	732.59
385.75	755.99
385.95	692.80
386.14	725.57
386.34	791.10
386.53	737.27
386.72	737.27
386.92	830.89
387.11	660.03
387.31	823.87
387.50	763.01
387.70	767.70
387.89	781.74
388.09	800.46
388.28	814.51
388.48	791.10
388.67	744.29
388.86	821.53
389.06	889.40
389.25	861.32
389.45	887.06
389.64	816.85
389.84	847.27
390.03	807.48
390.22	835.57
390.42	908.13
390.61	828.55
390.81	922.17
391.00	844.93
391.19	847.27
391.39	931.53
391.58	1018.13
391.78	978.34
391.97	943.24
392.16	959.62
392.36	1022.81
392.55	1015.79
392.75	828.55
392.94	987.71
393.13	1027.50
393.33	950.26
393.52	1015.79
393.71	1135.16
393.91	915.15
394.10	1013.45
394.29	1076.65
394.49	980.68
394.68	1128.14
394.88	1053.24
395.07	1067.28
395.26	1004.09
395.46	1151.54
395.65	999.41
395.84	1093.03
396.04	1191.33
396.23	1104.73
396.42	1153.88
396.62	1146.86
396.81	1252.19
397.00	1177.29
397.19	1146.86
397.39	1170.27
397.58	1263.89
397.77	1151.54
397.97	1109.41
398.16	1158.57
398.35	1252.19
398.55	1252.19
398.74	1179.63
398.93	1369.21
399.12	1210.06
399.32	1214.74
399.51	1240.48
399.70	1306.02
399.90	1327.08
400.09	1397.30
400.28	1359.85
400.47	1373.89
400.67	1355.17
400.86	1355.17
401.05	1345.81
401.24	1376.24
401.44	1406.66
401.63	1392.62
401.82	1373.89
402.01	1423.05
402.21	1474.54
402.40	1479.22
402.59	1416.02
402.78	1514.33
402.97	1530.71
403.17	1575.18
403.36	1511.99
403.55	1495.60
403.74	1582.20
403.93	1760.08
404.13	1633.69
404.32	1582.20
404.51	1607.95
404.70	1757.74
404.89	1600.93
405.09	1666.46
405.28	1675.82
405.47	1671.14
405.66	1579.86
405.85	1645.40
406.05	1715.61
406.24	1762.42
406.43	1809.23
406.62	1863.07
406.81	1820.94
407.00	1872.43
407.20	1760.08
407.39	1802.21
407.58	1888.81
407.77	1872.43
407.96	1909.88
408.15	2036.27
408.34	1933.28
408.54	1834.98
408.73	1919.24
408.92	1895.83
409.11	1982.43
409.30	2043.29
409.49	1975.41
409.68	2066.69
409.87	2047.97
410.07	2115.84
410.26	2101.80
410.45	2155.63
410.64	2076.06
410.83	2195.42
411.02	2101.80
411.21	2202.44
411.40	2216.49
411.59	2270.32
411.78	2270.32
411.98	2296.07
412.17	2338.20
412.36	2289.04
412.55	2363.94
412.74	2349.90
412.93	2466.92
413.12	2413.09
413.31	2537.14
413.50	2349.90
413.69	2511.39
413.88	2581.61
414.07	2658.85
414.26	2483.31
414.45	2614.38
414.64	2700.98
414.83	2633.10
415.02	2757.15
415.22	2724.38
415.41	2719.70
415.60	2745.45
415.79	2775.88
415.98	2820.35
416.17	2843.75
416.36	2892.90
416.55	2834.39
416.74	2916.31
416.93	2860.13
417.12	2946.73
417.31	2981.84
417.50	3026.31
417.69	3096.53
417.88	3007.59
418.07	3023.97
418.26	3084.83
418.45	3201.85
418.64	3220.58
418.83	3232.28
419.02	3218.24
419.21	3218.24
419.39	3269.73
419.58	3206.53
419.77	3197.17
419.96	3482.72
420.15	3330.58
420.34	3372.71
420.53	3407.82
420.72	3517.83
420.91	3473.36
421.10	3513.14
421.29	3485.06
421.48	3506.12
421.67	3522.51
421.86	3485.06
422.05	3623.15
422.24	3527.19
422.43	3562.30
422.61	3585.70
422.80	3637.19
422.99	3625.49
423.18	3789.33
423.37	3653.58
423.56	3616.13
423.75	3421.86
423.94	3634.85
424.13	3363.35
424.32	3480.38
424.50	3777.62
424.69	3887.63
424.88	3637.19
425.07	3723.79
425.26	3590.38
425.45	3632.51
425.64	3651.24
425.83	3665.28
426.01	3812.73
426.20	3665.28
426.39	3794.01
426.58	3669.96
426.77	3857.20
426.96	3850.18
427.15	3829.12
427.33	3819.75
427.52	3892.31
427.71	3810.39
427.90	3866.56
428.09	3927.42
428.28	3976.57
428.46	3880.61
428.65	4011.68
428.84	4201.26
429.03	4210.62
429.22	4051.47
429.40	4117.00
429.59	4156.79
429.78	3934.44
429.97	3875.93
430.16	4072.53
430.34	4079.55
430.53	4306.59
430.72	4245.73
430.91	4187.22
431.10	4156.79
431.28	4243.39
431.47	4259.78
431.66	4407.23
431.85	4306.59
432.03	4395.53
432.22	4482.13
432.41	4322.97
432.60	4454.04
432.79	4341.69
432.97	4404.89
433.16	4582.77
433.35	4514.89
433.54	4470.42
433.72	4554.68
433.91	4423.61
434.10	4505.53
434.28	4655.33
434.47	4587.45
434.66	4542.98
434.85	4751.29
435.03	4805.12
435.22	4800.44
435.41	5055.56
435.59	5008.75
435.78	4947.89
435.97	4889.38
436.16	4711.50
436.34	4739.58
436.53	4938.53
436.72	5060.24
436.90	4667.03
437.09	5004.07
437.28	4746.61
437.46	4945.55
437.65	4926.83
437.84	5074.28
438.02	4919.81
438.21	5020.45
438.40	5095.35
438.58	5172.58
438.77	5198.33
438.96	5153.86
439.14	5219.39
439.33	5355.15
439.52	5430.04
439.70	5411.32
439.89	5488.56
440.08	5425.36
440.26	5561.11
440.45	5544.73
440.63	5455.79
440.82	5633.67
441.01	5586.86
441.19	5643.03
441.38	5678.14
441.57	5802.19
441.75	5727.29
441.94	5968.37
442.12	5823.25
442.31	5940.28
442.50	5970.71
442.68	5989.43
442.87	6127.52
443.05	6033.90
443.24	6366.26
443.43	6164.97
443.61	6162.63
443.80	6127.52
443.98	6071.35
444.17	5930.92
444.35	6195.40
444.54	6408.39
444.73	6211.78
444.91	6335.83
445.10	6073.69
445.28	6263.27
445.47	6141.57
445.65	6239.87
445.84	6277.32
446.02	6293.70
446.21	6326.47
446.39	6314.77
446.58	6293.70
446.77	6305.40
446.95	6209.44
447.14	6380.30
447.32	6424.77
447.51	6375.62
447.69	6408.39
447.88	6389.66
448.06	6347.53
448.25	6455.20
448.43	6345.19
448.62	6328.81
448.80	6518.39
448.99	6485.62
449.17	6558.18
449.36	6502.01
449.54	6551.16
449.73	6768.83
449.91	6715.00
450.10	6506.69
450.28	6609.67
450.46	6733.72
450.65	6679.89
450.83	6780.53
451.02	6747.76
451.20	6654.14
451.39	6874.15
451.57	6803.94
451.76	6745.42
451.94	6668.19
452.13	6946.71
452.31	6939.69
452.49	6881.18
452.68	6944.37
452.86	7143.32
453.05	6963.09
453.23	7089.48
453.42	7148.00
453.60	6923.30
453.78	7033.31
453.97	6958.41
454.15	7176.08
454.34	7162.04
454.52	7344.60
454.70	7108.21
454.89	7414.82
455.07	7243.96
455.26	7494.40
455.44	7428.86
455.62	7194.81
455.81	7405.46
455.99	7564.61
456.17	7368.01
456.36	7466.31
456.54	7702.70
456.73	7592.70
456.91	7859.52
457.09	7852.50
457.28	7892.29
457.46	7864.20
457.64	7639.51
457.83	7918.03
458.01	7803.35
458.19	7943.78
458.38	7803.35
458.56	8070.17
458.74	7831.43
458.93	7765.90
459.11	7913.35
459.29	8131.02
459.48	8145.06
459.66	8030.38
459.84	8273.79
460.03	8180.17
460.21	8203.58
460.39	8262.09
460.57	8105.28
460.76	8264.43
460.94	8496.14
461.12	8255.07
461.31	8465.72
461.49	8126.34
461.67	8276.13
461.85	8454.02
462.04	8571.04
462.22	9067.24
462.40	8603.81
462.59	8631.90
462.77	8601.47
462.95	8559.34
463.13	8760.63
463.32	8638.92
463.50	8716.16
463.68	8814.46
463.86	8723.18
464.05	8734.88
464.23	8823.82
464.41	8856.59
464.59	8847.22
464.78	8769.99
464.96	8844.88
465.14	8753.60
465.32	8982.98
465.50	9170.22
465.69	8997.02
465.87	9006.38
466.05	8854.25
466.23	8959.57
466.41	9020.42
466.60	9596.20
466.78	9055.53
466.96	8992.34
467.14	8938.51
467.32	8945.53
467.51	9343.42
467.69	9022.77
467.87	9315.33
468.05	9280.22
468.23	9200.65
468.41	9146.81
468.60	9343.42
468.78	9582.15
468.96	9364.48
469.14	9441.72
469.32	9753.01
469.50	9380.87
469.69	9408.95
469.87	9785.78
470.05	9619.60
470.23	9764.72
470.41	9774.08
470.59	9902.81
470.77	9755.35
470.95	9956.64
471.14	10176.65
471.32	9921.53
471.50	10080.69
471.68	10167.29
471.86	10127.50
472.04	10118.14
472.22	10087.71
472.40	10101.75
472.58	10127.50
472.77	10293.68
472.95	10483.26
473.13	10693.91
473.31	10359.21
473.49	10537.09
473.67	10700.93
473.85	10700.93
474.03	10616.67
474.21	10899.87
474.39	10834.34
474.57	10916.26
474.75	11157.33
474.93	11150.31
475.12	11047.33
475.30	11169.04
475.48	11183.08
475.66	11225.21
475.84	11150.31
476.02	11218.19
476.20	11433.52
476.38	11417.13
476.56	11927.37
476.74	11756.51
476.92	11800.98
477.10	11805.66
477.28	11866.52
477.46	12102.91
477.64	12023.33
477.82	12243.34
478.00	12606.13
478.18	12556.97
478.36	12676.34
478.54	12793.37
478.72	12629.53
478.90	12957.21
479.08	12996.99
479.26	12971.25
479.44	13287.22
479.62	13350.42
479.80	13284.88
479.98	13427.65
480.16	13521.27
480.34	13317.65
480.52	13671.07
480.70	13731.92
480.88	13708.52
481.06	13769.37
481.24	13923.85
481.41	14022.15
481.59	14375.57
481.77	14551.11
481.95	14651.75
482.13	14850.70
482.31	14443.45
482.49	14853.04
482.67	15023.90
482.85	15332.85
483.03	15557.54
483.21	15492.01
483.39	15674.57
483.57	15583.29
483.74	15426.47
483.92	15763.51
484.10	15850.11
484.28	15932.03
484.46	16444.60
484.64	16648.23
484.82	16315.87
485.00	16535.88
485.18	16872.92
485.35	17123.36
485.53	16755.90
485.71	16901.01
485.89	17846.58
486.07	17097.61
486.25	17483.80
486.43	17795.09
486.61	17715.51
486.78	17764.67
486.96	17968.29
487.14	18324.05
487.32	18176.60
487.50	18293.63
487.68	18443.42
487.85	18586.19
488.03	18913.87
488.21	19094.09
488.39	19215.80
488.57	19424.11
488.75	19648.80
488.92	19960.09
489.10	19817.32
489.28	19770.51
489.46	20224.57
489.64	20070.09
489.81	20386.07
489.99	20393.09
490.17	20580.33
490.35	20819.07
490.53	20938.43
490.70	21198.23
490.88	21242.70
491.06	21544.63
491.24	21090.57
491.41	21420.58
491.59	21909.75
491.77	21738.90
491.95	21975.29
492.13	22108.70
492.30	22394.25
492.48	22389.56
492.66	22504.25
492.84	22389.56
493.01	22747.67
493.19	22939.59
493.37	23037.89
493.54	23328.12
493.72	23410.04
493.90	23468.55
494.08	23803.25
494.25	23700.26
494.43	24231.57
494.61	24250.29
494.79	23917.93
494.96	24339.23
495.14	24552.22
495.32	24629.46
495.49	24390.72
495.67	24751.17
495.85	24673.93
496.02	25394.81
496.20	25483.75
496.38	25275.45
496.55	25399.49
496.73	25991.65
496.91	25678.02
497.09	25930.80
497.26	25795.04
497.44	26174.21
497.62	25958.88
497.79	26796.79
497.97	26581.46
498.14	26689.13
498.32	27040.21
498.50	26799.13
498.67	27140.85
498.85	27330.44
499.03	27023.83
499.20	26820.20
499.38	27094.04
499.56	27489.59
499.73	27733.01
499.91	27885.14
500.08	28187.07
500.26	27828.97
500.44	28023.23
500.61	28123.88
500.79	27887.48
500.97	28194.09
501.14	28580.28
501.32	28730.08
501.49	28732.42
501.67	28606.03
501.84	29170.10
502.02	29399.47
502.20	28989.88
502.37	29305.85
502.55	29088.18
502.72	29425.22
502.90	29186.48
503.07	29720.12
503.25	29439.26
503.43	29677.99
503.60	29921.41
503.78	29947.15
503.95	29970.56
504.13	29795.02
504.30	30171.85
504.48	29677.99
504.65	30441.01
504.83	30452.71
505.01	31072.95
505.18	30628.25
505.36	30691.44
505.53	30682.08
505.71	31108.06
505.88	30962.95
506.06	30724.21
506.23	31194.66
506.41	31328.07
506.58	31742.35
506.76	32074.70
506.93	31838.31
507.11	31651.06
507.28	31868.73
507.46	32224.50
507.63	31901.50
507.81	31908.52
507.98	32250.24
508.16	31929.59
508.33	32727.71
508.50	32903.25
508.68	32737.07
508.85	33006.23
509.03	32765.16
509.20	32725.37
509.38	33207.52
509.55	33586.69
509.73	33251.99
509.90	33294.12
510.08	33617.11
510.25	33727.12
510.42	33722.44
510.60	33923.72
510.77	34188.21
510.95	33619.46
511.12	33919.04
511.30	33708.40
511.47	34309.91
511.64	34174.16
511.82	34782.70
511.99	34040.75
512.17	34773.34
512.34	34213.95
512.51	34885.68
512.69	34632.91
512.86	35065.91
513.04	35035.48
513.21	35704.87
513.38	35192.30
513.56	35269.53
513.73	35517.63
513.90	35030.80
514.08	35531.67
514.25	35541.03
514.43	35122.08
514.60	35639.34
514.77	35824.24
514.95	35976.37
515.12	35833.60
515.29	35903.82
515.47	36437.46
515.64	36093.40
515.81	36224.47
515.99	36643.43
516.16	36755.77
516.33	36746.41
516.51	36854.08
516.68	36596.62
516.85	36587.25
517.03	37214.52
517.20	37111.53
517.37	36587.25
517.54	37476.66
517.72	37102.17
517.89	37261.33
518.06	37165.37
518.24	37551.56
518.41	36999.19
518.58	37846.46
518.75	37787.95
518.93	38024.34
519.10	37968.17
519.27	37930.72
519.45	37904.98
519.62	37965.83
519.79	38139.03
519.96	37982.21
520.14	38326.27
520.31	38321.59
520.48	38581.39
520.65	38810.76
520.83	39145.46
521.00	38796.72
521.17	38951.20
521.34	38707.78
521.52	39260.15
521.69	39084.61
521.86	39241.42
522.03	39203.97
522.20	39372.49
522.38	39445.05
522.55	39533.99
522.72	39892.09
522.89	39819.53
523.07	39981.03
523.24	39915.50
523.41	40212.74
523.58	39676.76
523.75	39915.50
523.92	39833.58
524.10	40458.50
524.27	40385.94
524.44	40254.87
524.61	40659.79
524.78	40769.79
524.96	40713.62
525.13	40612.98
525.30	41060.02
525.47	40849.37
525.64	40882.14
525.81	40971.08
525.98	41209.81
526.16	41336.20
526.33	40985.12
526.50	41329.18
526.67	41265.99
526.84	41404.08
527.01	41488.34
527.18	42068.79
527.36	41570.25
527.53	41282.37
527.70	42225.60
527.87	41701.32
528.04	41673.24
528.21	41911.97
528.38	41893.25
528.55	42272.42
528.72	42096.88
528.89	41972.83
529.07	42134.32
529.24	42082.83
529.41	42277.10
529.58	42108.58
529.75	42349.65
529.92	42134.32
530.09	42454.98
530.26	42581.37
530.43	42651.58
530.60	42445.62
530.77	43026.07
530.94	43166.50
531.11	42724.14
531.28	43005.00
531.46	43014.37
531.63	43091.60
531.80	43152.46
531.97	43220.33
532.14	43089.26
532.31	42974.58
532.48	43498.86
532.65	43407.58
532.82	43599.50
532.99	43742.27
533.16	43445.02
533.33	44128.46
533.50	44144.84
533.67	44051.22
533.84	43716.53
534.01	43611.20
534.18	43903.77
534.35	44208.04
534.52	44339.11
534.69	44739.34
534.86	44449.11
535.03	44172.93
535.20	44863.39
535.37	44570.82
535.54	44568.48
535.71	44477.20
535.88	44495.92
536.05	44201.02
536.22	44868.07
536.38	44935.95
536.55	45123.19
536.72	44509.97
536.89	44992.12
537.06	45083.40
537.23	44921.90
537.40	44818.92
537.57	44865.73
537.74	45003.82
537.91	45553.85
538.08	45223.83
538.25	45247.24
538.42	45315.11
538.59	45368.94
538.75	45275.32
538.92	45909.61
539.09	45649.81
539.26	46007.91
539.43	45937.69
539.60	45755.13
539.77	46138.98
539.94	46064.08
540.11	45801.94
540.28	46169.41
540.44	46223.24
540.61	46237.28
540.78	46117.92
540.95	46466.66
541.12	46293.46
541.29	46178.77
541.46	46494.74
541.62	46031.32
541.79	46438.57
541.96	46525.17
542.13	46876.25
542.30	46564.96
542.47	46576.66
542.63	46759.22
542.80	47295.21
542.97	46995.62
543.14	47477.77
543.31	47405.21
543.48	47248.39
543.64	47716.50
543.81	47562.03
543.98	47449.68
544.15	47777.36
544.32	47826.51
544.48	48196.31
544.65	47863.96
544.82	47365.42
544.99	47416.91
545.16	47959.92
545.32	47629.90
545.49	48308.66
545.66	48612.93
545.83	48989.75
546.00	48907.83
546.16	48669.10
546.33	48112.05
546.50	47597.13
546.67	47819.49
546.83	47657.99
547.00	47868.64
547.17	47819.49
547.34	48006.73
547.50	48079.28
547.67	48430.36
547.84	48308.66
548.00	48456.11
548.17	48273.55
548.34	48423.34
548.51	48664.42
548.67	48804.85
548.84	48905.49
549.01	48495.90
549.18	48509.94
549.34	48655.06
549.51	48453.77
549.68	48687.82
549.84	48701.87
550.01	48626.97
550.18	48734.63
550.34	48657.40
550.51	48921.88
550.68	48875.07
550.84	48350.79
551.01	48863.36
551.18	48671.44
551.34	48531.01
551.51	48870.39
551.68	48879.75
551.84	48999.12
552.01	49088.06
552.18	49221.47
552.34	49177.00
552.51	49216.78
552.68	48982.73
552.84	49422.75
553.01	49247.21
553.18	49469.56
553.34	49038.90
553.51	49694.25
553.67	49394.67
553.84	49811.28
554.01	49687.23
554.17	49717.66
554.34	49818.30
554.51	49579.57
554.67	49811.28
554.84	49439.14
555.00	49736.38
555.17	49675.53
555.33	49830.01
555.50	49467.22
555.67	49558.50
555.83	49888.52
556.00	49443.82
556.16	49925.97
556.33	49703.62
556.50	49762.13
556.66	49757.45
556.83	49942.35
556.99	50174.06
557.16	49970.44
557.32	50422.16
557.49	50454.93
557.65	50068.74
557.82	49886.18
557.98	50019.59
558.15	49773.83
558.32	50270.03
558.48	50258.32
558.65	50255.98
558.81	50223.22
558.98	50468.97
559.14	50131.93
559.31	50073.42
559.47	50199.81
559.64	50518.12
559.80	50541.53
559.97	50340.24
560.13	50387.05
560.30	50782.60
560.46	50279.39
560.63	50354.29
560.79	50475.99
560.96	50798.99
561.12	50555.57
561.29	50670.26
561.45	50188.11
561.61	50195.13
561.78	50487.70
561.94	50667.92
562.11	50485.36
562.27	50323.86
562.44	50342.58
562.60	50660.90
562.77	50457.27
562.93	50586.00
563.10	50841.12
563.26	50712.39
563.42	51339.65
563.59	50845.80
563.75	51002.61
563.92	50976.87
564.08	50677.28
564.24	50876.22
564.41	50925.38
564.57	50731.11
564.74	50653.87
564.90	50927.72
565.07	51145.39
565.23	51070.49
565.39	51140.71
565.56	51147.73
565.72	50941.76
565.88	50986.23
566.05	50908.99
566.21	50745.15
566.38	50960.48
566.54	51166.45
566.70	51414.55
566.87	51182.84
567.03	51452.00
567.19	51267.09
567.36	51112.62
567.52	51065.81
567.68	51374.76
567.85	50597.70
568.01	51159.43
568.17	51339.65
568.34	51442.63
568.50	51260.07
568.66	50960.48
568.83	51283.48
568.99	51075.17
569.15	51157.09
569.32	51231.99
569.48	50976.87
569.64	51098.58
569.81	51487.10
569.97	51171.13
570.13	51430.93
570.30	51718.82
570.46	51690.73
570.62	51337.31
570.78	51316.25
570.95	51250.71
571.11	51620.52
571.27	51327.95
571.43	50979.21
571.60	51489.45
571.76	51126.66
571.92	51452.00
572.09	51800.74
572.25	51295.18
572.41	51655.62
572.57	51693.07
572.74	52055.85
572.90	51405.19
573.06	51573.70
573.22	51590.09
573.38	52151.82
573.55	51089.21
573.71	51887.34
573.87	52044.15
574.03	51578.39
574.20	51494.13
574.36	51482.42
574.52	51489.45
574.68	51405.19
574.84	51995.00
575.01	51765.63
575.17	51707.12
575.33	51714.14
575.49	51660.30
575.65	52210.33
575.82	51646.26
575.98	51992.66
576.14	51653.28
576.30	51604.13
576.46	51751.59
576.62	51379.44
576.79	52016.07
576.95	51267.09
577.11	51882.66
577.27	51831.16
577.43	51796.06
577.59	51667.33
577.75	51971.60
577.92	51531.57
578.08	51554.98
578.24	51484.76
578.40	51660.30
578.56	51856.91
578.72	51533.92
578.88	52294.59
579.04	51957.55
579.21	51913.08
579.37	51744.56
579.53	51793.71
579.69	51826.48
579.85	52030.11
580.01	51730.52
580.17	51765.63
580.33	51648.60
580.49	51728.18
580.65	51842.87
580.82	51613.49
580.98	51990.32
581.14	51966.91
581.30	52278.21
581.46	51885.00
581.62	51887.34
581.78	51784.35
581.94	51894.36
582.10	51760.95
582.26	51669.67
582.42	52055.85
582.58	52151.82
582.74	51861.59
582.90	51875.63
583.06	51999.68
583.22	51817.12
583.38	51870.95
583.54	51737.54
583.70	51920.10
583.86	51987.98
584.02	51868.61
584.18	52114.37
584.34	52413.96
584.50	52313.31
584.66	52039.47
584.82	51938.83
584.98	51969.26
585.14	52060.54
585.30	51826.48
585.46	52076.92
585.62	51924.78
585.78	51943.51
585.94	51711.80
586.10	51985.64
586.26	52030.11
586.42	51892.02
586.58	52514.60
586.74	51915.42
586.90	52200.97
587.06	51824.14
587.22	52200.97
587.38	51896.70
587.54	52217.35
587.70	52423.32
587.86	52512.26
588.02	51948.19
588.18	52561.41
588.34	52406.94
588.49	52114.37
588.65	52294.59
588.81	52364.81
588.97	52264.16
589.13	52065.22
589.29	52301.61
589.45	52369.49
589.61	52273.52
589.77	52334.38
589.93	52126.07
590.08	52369.49
590.24	52320.34
