SpectraSuite Data File
++++++++++++++++++++++++++++++++++++
Date: Fri Oct 04 11:40:01 GMT-05:00 2013
User: price-jones
Dark Spectrum Present: No
Reference Spectrum Present: No
Number of Sampled Component Spectra: 1
Spectrometers: USB2+H05261
Integration Time (usec): 100000 (USB2+H05261)
Spectra Averaged: 1 (USB2+H05261)
Boxcar Smoothing: 0 (USB2+H05261)
Correct for Electrical Dark: No (USB2+H05261)
Strobe/Lamp Enabled: No (USB2+H05261)
Correct for Detector Non-linearity: No (USB2+H05261)
Correct for Stray Light: No (USB2+H05261)
Number of Pixels in Processed Spectrum: 2048
>>>>>Begin Processed Spectral Data<<<<<
365.73	100.64
365.92	100.64
366.12	100.64
366.32	18.72
366.52	0.00
366.72	21.06
366.91	0.00
367.11	0.00
367.31	0.00
367.51	0.00
367.70	0.00
367.90	0.00
368.10	0.00
368.30	0.00
368.49	0.00
368.69	0.00
368.89	0.00
369.09	0.00
369.28	37.45
369.48	0.00
369.68	39.79
369.87	0.00
370.07	0.00
370.27	49.15
370.47	163.84
370.66	603.86
370.86	704.50
371.06	704.50
371.25	751.31
371.45	725.57
371.65	671.73
371.84	716.20
372.04	669.39
372.24	716.20
372.44	709.18
372.63	781.74
372.83	837.91
373.03	809.83
373.22	887.06
373.42	837.91
373.62	849.61
373.81	795.78
374.01	919.83
374.21	840.25
374.40	894.08
374.60	866.00
374.79	861.32
374.99	919.83
375.19	903.45
375.38	933.87
375.58	905.79
375.78	968.98
375.97	1006.43
376.17	1109.41
376.37	976.00
376.56	1011.11
376.76	1086.01
376.95	1039.20
377.15	931.53
377.35	994.73
377.54	987.71
377.74	968.98
377.93	919.83
378.13	1081.33
378.33	1121.12
378.52	1088.35
378.72	1146.86
378.91	1116.44
379.11	1020.47
379.31	1083.67
379.50	1109.41
379.70	1174.95
379.89	1174.95
380.09	1139.84
380.28	1132.82
380.48	1217.08
380.68	1172.61
380.87	1261.55
381.07	1256.87
381.26	1301.34
381.46	1348.15
381.65	1196.01
381.85	1184.31
382.04	1268.57
382.24	1273.25
382.43	1287.29
382.63	1291.98
382.83	1324.74
383.02	1362.19
383.22	1343.47
383.41	1336.45
383.61	1411.34
383.80	1451.13
384.00	1451.13
384.19	1399.64
384.39	1404.32
384.58	1444.11
384.78	1460.49
384.97	1465.18
385.17	1453.47
385.36	1371.55
385.56	1526.03
385.75	1479.22
385.95	1483.90
386.14	1437.09
386.34	1462.83
386.53	1544.75
386.72	1474.54
386.92	1701.57
387.11	1629.01
387.31	1596.25
387.50	1568.16
387.70	1570.50
387.89	1668.80
388.09	1614.97
388.28	1586.88
388.48	1586.88
388.67	1732.00
388.86	1607.95
389.06	1753.06
389.25	1717.95
389.45	1708.59
389.64	1820.94
389.84	1727.32
390.03	1739.02
390.22	1884.13
390.42	1895.83
390.61	1743.70
390.81	1811.57
391.00	1865.41
391.19	1827.96
391.39	1937.96
391.58	1909.88
391.78	1792.85
391.97	1947.33
392.16	1961.37
392.36	1947.33
392.55	1994.14
392.75	2029.24
392.94	2017.54
393.13	1935.62
393.33	1947.33
393.52	2026.90
393.71	2045.63
393.91	2022.22
394.10	2176.70
394.29	2132.23
394.49	2101.80
394.68	2031.58
394.88	2150.95
395.07	2267.98
395.26	2197.76
395.46	2146.27
395.65	2270.32
395.84	2181.38
396.04	2424.80
396.23	2375.64
396.42	2389.69
396.62	2368.62
396.81	2452.88
397.00	2298.41
397.19	2319.47
397.39	2317.13
397.58	2429.48
397.77	2452.88
397.97	2504.37
398.16	2513.74
398.35	2506.71
398.55	2527.78
398.74	2544.16
398.93	2630.76
399.12	2560.55
399.32	2483.31
399.51	2612.04
399.70	2605.02
399.90	2693.96
400.09	2766.51
400.28	2696.30
400.47	2778.22
400.67	2719.70
400.86	2789.92
401.05	2757.15
401.24	2885.88
401.44	2956.10
401.63	2815.66
401.82	2846.09
402.01	2827.37
402.21	3023.97
402.40	3002.91
402.59	2923.33
402.78	2881.20
402.97	3012.27
403.17	3056.74
403.36	3049.72
403.55	3012.27
403.74	3199.51
403.93	3243.98
404.13	3260.37
404.32	3236.96
404.51	3206.53
404.70	3389.10
404.89	3265.05
405.09	3293.13
405.28	3201.85
405.47	3300.16
405.66	3375.05
405.85	3407.82
406.05	3513.14
406.24	3480.38
406.43	3499.10
406.62	3557.61
406.81	3517.83
407.00	3520.17
407.20	3517.83
407.39	3714.43
407.58	3735.50
407.77	3850.18
407.96	3829.12
408.15	3861.88
408.34	3751.88
408.54	3707.41
408.73	3831.46
408.92	3875.93
409.11	3852.52
409.30	3852.52
409.49	4002.32
409.68	3901.67
409.87	3768.26
410.07	4177.86
410.26	4109.98
410.45	4060.83
410.64	4035.08
410.83	4119.34
411.02	4222.33
411.21	4245.73
411.40	4266.80
411.59	4318.29
411.78	4315.95
411.98	4379.14
412.17	4493.83
412.36	4437.66
412.55	4664.69
412.74	4587.45
412.93	4638.94
413.12	4816.82
413.31	4898.74
413.50	4629.58
413.69	4898.74
413.88	4964.28
414.07	4954.91
414.26	4952.57
414.45	5013.43
414.64	4896.40
414.83	5170.24
415.02	5247.48
415.22	5231.10
415.41	5224.08
415.60	5369.19
415.79	5437.06
415.98	5453.45
416.17	5542.39
416.36	5420.68
416.55	5504.94
416.74	5596.22
416.93	5708.57
417.12	5577.50
417.31	5636.01
417.50	5834.96
417.69	5921.56
417.88	5841.98
418.07	5949.64
418.26	5776.44
418.45	5989.43
418.64	6078.37
418.83	6099.44
419.02	6052.63
419.21	6122.84
419.39	6251.57
419.58	6066.67
419.77	6099.44
419.96	6146.25
420.15	6403.71
420.34	6317.11
420.53	6193.06
420.72	6478.60
420.91	6361.58
421.10	6511.37
421.29	6647.12
421.48	6373.28
421.67	6593.29
421.86	6672.87
422.05	6757.13
422.24	6693.93
422.43	6752.45
422.61	6782.87
422.80	6801.60
422.99	6869.47
423.18	6780.53
423.37	6885.86
423.56	6768.83
423.75	6672.87
423.94	6715.00
424.13	6436.47
424.32	6511.37
424.50	7009.90
424.69	6925.65
424.88	6967.77
425.07	6967.77
425.26	6951.39
425.45	6925.65
425.64	6906.92
425.83	6963.09
426.01	6932.67
426.20	7002.88
426.39	7094.16
426.58	6923.30
426.77	6984.16
426.96	7204.17
427.15	7042.67
427.33	7300.13
427.52	7068.42
427.71	7297.79
427.90	7187.79
428.09	7386.73
428.28	7400.77
428.46	7447.58
428.65	7344.60
428.84	7730.79
429.03	7810.37
429.22	7379.71
429.40	7765.90
429.59	7768.24
429.78	7426.52
429.97	7279.07
430.16	7508.44
430.34	7751.85
430.53	7812.71
430.72	7845.48
430.91	7639.51
431.10	7775.26
431.28	7878.24
431.47	8044.42
431.66	8208.26
431.85	8028.04
432.03	8196.56
432.22	8334.65
432.41	8341.67
432.60	8320.60
432.79	8175.49
432.97	8322.94
433.16	8336.99
433.35	8428.27
433.54	8571.04
433.72	8545.30
433.91	8369.76
434.10	8580.40
434.28	8521.89
434.47	8868.29
434.66	8498.49
434.85	8823.82
435.03	8884.67
435.22	8863.61
435.41	9430.02
435.59	9521.30
435.78	9348.10
435.97	9221.71
436.16	9111.71
436.34	9153.84
436.53	9149.15
436.72	9462.79
436.90	9034.47
437.09	9238.09
437.28	9071.92
437.46	9343.42
437.65	9369.16
437.84	9408.95
438.02	9558.75
438.21	9561.09
438.40	9465.13
438.58	10026.86
438.77	10092.39
438.96	9727.27
439.14	9977.70
439.33	10012.81
439.52	10235.16
439.70	10005.79
439.89	10181.33
440.08	10619.01
440.26	10335.81
440.45	10312.40
440.63	10525.39
440.82	10600.29
441.01	10485.60
441.19	10846.04
441.38	10937.32
441.57	10965.41
441.75	11091.80
441.94	11236.91
442.12	11344.58
442.31	11363.30
442.50	11344.58
442.68	11328.19
442.87	11417.13
443.05	11389.05
443.24	11728.42
443.43	11485.01
443.61	11595.01
443.80	12102.91
443.98	11393.73
444.17	11269.68
444.35	11868.86
444.54	11735.45
444.73	11901.62
444.91	11665.23
445.10	11861.84
445.28	11639.48
445.47	11910.99
445.65	11719.06
445.84	12194.19
446.02	12163.76
446.21	11908.65
446.39	11840.77
446.58	12116.95
446.77	12058.44
446.95	11721.40
447.14	11992.90
447.32	12088.87
447.51	12168.45
447.69	12077.16
447.88	12414.20
448.06	11967.16
448.25	12194.19
448.43	12327.60
448.62	12013.97
448.80	12205.89
448.99	12219.94
449.17	12423.56
449.36	12400.16
449.54	12629.53
449.73	12547.61
449.91	12772.30
450.10	12828.48
450.28	12957.21
450.46	12929.12
450.65	12814.43
450.83	12882.31
451.02	13062.53
451.20	13123.38
451.39	13301.26
451.57	13137.43
451.76	13067.21
451.94	13064.87
452.13	13366.80
452.31	13287.22
452.49	13081.25
452.68	13263.82
452.86	13481.49
453.05	13437.02
453.23	13593.83
453.42	13462.76
453.60	13460.42
453.78	13582.13
453.97	13338.71
454.15	13404.25
454.34	13563.40
454.52	13713.20
454.70	13905.12
454.89	14001.08
455.07	14052.58
455.26	14129.81
455.44	14403.66
455.62	14122.79
455.81	14188.33
455.99	14366.21
456.17	14602.60
456.36	14195.35
456.54	14719.63
456.73	14733.67
456.91	15035.60
457.09	14789.85
457.28	15206.46
457.46	14705.59
457.64	15051.99
457.83	15026.24
458.01	15019.22
458.19	15178.37
458.38	15096.46
458.56	15555.20
458.74	15204.12
458.93	15459.24
459.11	15571.58
459.29	15384.34
459.48	15569.24
459.66	15473.28
459.84	15833.72
460.03	15726.06
460.21	15686.27
460.39	15899.26
460.57	15845.43
460.76	16161.40
460.94	16173.10
461.12	16184.80
461.31	16161.40
461.49	16081.82
461.67	15927.35
461.85	16568.65
462.04	16517.16
462.22	16851.86
462.40	16725.47
462.59	16535.88
462.77	16556.95
462.95	16968.88
463.13	16891.65
463.32	16886.97
463.50	16723.13
463.68	17184.21
463.86	16971.22
464.05	16786.32
464.23	16648.23
464.41	16975.91
464.59	16659.93
464.78	17350.39
464.96	17205.28
465.14	17057.82
465.32	17247.41
465.50	17682.75
465.69	17762.33
465.87	17329.33
466.05	17542.32
466.23	17631.26
466.41	17717.86
466.60	18139.15
466.78	17343.37
466.96	17303.58
467.14	17383.16
467.32	17685.09
467.51	18298.31
467.69	17476.78
467.87	18033.83
468.05	18153.20
468.23	17745.94
468.41	17781.05
468.60	18139.15
468.78	18721.95
468.96	18216.39
469.14	18562.79
469.32	18939.62
469.50	18284.26
469.69	18530.02
469.87	18611.94
470.05	19253.25
470.23	18874.08
470.41	18827.27
470.59	19208.78
470.77	18714.92
470.95	19222.82
471.14	19215.80
471.32	19218.14
471.50	19796.25
471.68	19180.69
471.86	19873.49
472.04	19885.19
472.22	19843.06
472.40	19770.51
472.58	20194.14
472.77	20133.29
472.95	20313.51
473.13	21032.05
473.31	20027.96
473.49	20409.47
473.67	20875.24
473.85	20559.27
474.03	20912.69
474.21	21261.43
474.39	21184.19
474.57	21357.39
474.75	21458.03
474.93	21745.92
475.12	21628.89
475.30	21851.24
475.48	21841.88
475.66	22106.36
475.84	22078.27
476.02	22162.53
476.20	22466.80
476.38	22799.16
476.56	22785.12
476.74	23414.72
476.92	23166.62
477.10	23194.71
477.28	23384.29
477.46	23522.38
477.64	23637.07
477.82	23875.80
478.00	24725.42
478.18	24781.59
478.36	24678.61
478.54	24802.66
478.72	24847.13
478.90	25198.21
479.08	25497.80
479.26	25486.09
479.44	25820.79
479.62	25729.51
479.80	25979.95
479.98	26452.73
480.16	26845.94
480.34	26403.58
480.52	27028.51
480.70	27281.28
480.88	26672.74
481.06	27269.58
481.24	27307.03
481.41	27903.87
481.59	28238.56
481.77	28547.51
481.95	28320.48
482.13	28666.88
482.31	28826.04
482.49	29371.38
482.67	29256.70
482.85	29883.96
483.03	30202.27
483.21	30438.67
483.39	30602.50
483.57	30436.33
483.74	30813.15
483.92	31115.08
484.10	31007.42
484.28	31707.24
484.46	32254.92
484.64	32800.27
484.82	31882.78
485.00	32446.85
485.18	32996.87
485.35	33455.62
485.53	33369.02
485.71	33500.09
485.89	34300.55
486.07	34141.39
486.25	34375.45
486.43	34653.97
486.61	34885.68
486.78	35058.88
486.96	35440.39
487.14	36086.38
487.32	36191.70
487.50	35992.76
487.68	36215.11
487.85	36804.92
488.03	37572.62
488.21	37631.13
488.39	37902.64
488.57	38075.84
488.75	38005.62
488.92	38534.58
489.10	38742.89
489.28	39353.77
489.46	39739.96
489.64	39683.78
489.81	40561.48
489.99	40378.92
490.17	40032.52
490.35	40961.72
490.53	41340.88
490.70	41390.03
490.88	41219.17
491.06	41406.42
491.24	41963.46
491.41	42171.77
491.59	42366.04
491.77	42646.90
491.95	42873.93
492.13	43257.78
492.30	43241.40
492.48	43833.55
492.66	43896.75
492.84	44116.76
493.01	44406.98
493.19	44531.03
493.37	45319.79
493.54	45216.81
493.72	45638.11
493.90	45158.30
494.08	45757.47
494.25	45846.41
494.43	46206.86
494.61	46642.20
494.79	46756.88
494.96	46883.27
495.14	47178.18
495.32	47643.94
495.49	47454.36
495.67	47859.27
495.85	48252.48
496.02	48196.31
496.20	48772.08
496.38	48048.86
496.55	48538.03
496.73	49584.25
496.91	49214.44
497.09	49549.14
497.26	50216.19
497.44	49483.61
497.62	49998.52
497.79	50064.06
497.97	50405.78
498.14	50571.96
498.32	50885.59
498.50	50927.72
498.67	51449.66
498.85	51131.34
499.03	51456.68
499.20	51496.47
499.38	51475.40
499.56	51817.12
499.73	51969.26
499.91	52072.24
500.08	52465.45
500.26	51875.63
500.44	52643.33
500.61	52502.90
500.79	52713.55
500.97	52851.64
501.14	53169.95
501.32	53076.33
501.49	53144.20
501.67	53127.82
501.84	53214.42
502.02	53352.51
502.20	53935.30
502.37	53954.03
502.55	53532.73
502.72	53881.47
502.90	53881.47
503.07	54120.21
503.25	54164.68
503.43	54087.44
503.60	54302.77
503.78	54555.55
503.95	54372.99
504.13	54384.69
504.30	54791.94
504.48	54621.08
504.65	55025.99
504.83	55248.35
505.01	55473.04
505.18	55011.95
505.36	55716.45
505.53	55033.02
505.71	55585.38
505.88	55718.79
506.06	55388.78
506.23	56072.21
506.41	55686.03
506.58	55814.76
506.76	56060.51
506.93	56090.94
507.11	55938.80
507.28	56292.22
507.46	56189.24
507.63	56500.53
507.81	56788.42
507.98	56435.00
508.16	56596.49
508.33	56516.92
508.50	56736.93
508.68	56982.68
508.85	57209.71
509.03	57120.77
509.20	57317.38
509.38	57535.05
509.55	57226.10
509.73	57235.46
509.90	57387.60
510.08	57570.16
510.25	57619.31
510.42	57738.68
510.60	58078.05
510.77	58127.20
510.95	57986.77
511.12	57979.75
511.30	57979.75
511.47	58244.23
511.64	58274.66
511.82	58326.15
511.99	58323.81
512.17	58532.12
512.34	58583.61
512.51	58702.98
512.69	58588.29
512.86	58632.76
513.04	58997.88
513.21	59042.35
513.38	58906.60
513.56	59112.57
513.73	59049.38
513.90	59313.86
514.08	59164.06
514.25	59316.20
514.43	59461.31
514.60	59599.40
514.77	59437.90
514.95	59662.60
515.12	59704.73
515.29	59578.34
515.47	59662.60
515.64	59671.96
515.81	59880.27
515.99	59875.58
516.16	60116.66
516.33	60039.42
516.51	60294.54
516.68	60046.44
516.85	60027.72
517.03	60076.87
517.20	60374.12
517.37	60399.86
517.54	60432.63
517.72	60605.83
517.89	60299.22
518.06	60446.68
518.24	60533.28
518.41	60441.99
518.58	60708.82
518.75	60743.92
518.93	61027.13
519.10	60821.16
519.27	61169.90
519.45	60982.66
519.62	61120.75
519.79	60931.17
519.96	61202.67
520.14	61432.04
520.31	61303.31
520.48	61530.34
520.65	61516.30
520.83	61509.28
521.00	61439.06
521.17	61492.89
521.34	61504.60
521.52	61851.00
521.69	61586.52
521.86	61928.23
522.03	62038.24
522.20	61874.40
522.38	61902.49
522.55	61937.60
522.72	61881.42
522.89	62122.50
523.07	62124.84
523.24	62159.95
523.41	62319.10
523.58	62073.35
523.75	62438.47
523.92	62342.51
524.10	62354.21
524.27	62525.07
524.44	62742.74
524.61	62705.29
524.78	62714.65
524.96	62841.04
525.13	62658.48
525.30	62859.77
525.47	62819.98
525.64	63056.37
525.81	62937.01
525.98	63210.85
526.16	63098.50
526.33	63021.26
526.50	63114.89
526.67	62981.48
526.84	63271.70
527.01	63072.76
527.18	63344.26
527.36	63341.92
527.53	63393.41
527.70	63660.23
527.87	63674.27
528.04	63231.91
528.21	63529.16
528.38	63697.68
528.55	63517.46
528.72	63636.83
528.89	63803.00
529.07	63599.38
529.24	63671.93
529.41	63732.79
529.58	63957.48
529.75	63669.59
529.92	63828.75
530.09	63821.73
530.26	64144.72
530.43	64067.48
530.60	63882.58
530.77	63817.05
530.94	64100.25
531.11	64168.13
531.28	64079.19
531.46	64144.72
531.63	64322.60
531.80	64214.94
531.97	64542.61
532.14	64341.33
532.31	64409.20
532.48	64437.29
532.65	64661.98
532.82	64446.65
532.99	64519.21
533.16	64666.66
533.33	64811.77
533.50	65003.70
533.67	64832.84
533.84	64795.39
534.01	64774.33
534.18	64678.36
534.35	64940.50
534.52	64851.56
534.69	64952.21
534.86	65109.02
535.03	65062.21
535.20	65020.08
535.37	65233.07
535.54	65223.71
535.71	64938.16
535.88	65207.32
536.05	65190.94
536.22	65373.50
536.38	65347.76
536.55	65254.14
536.72	65532.66
536.89	65382.87
537.06	65242.43
537.23	65319.67
537.40	65429.68
537.57	65453.08
537.74	65516.28
537.91	65535.00
538.08	65535.00
538.25	65520.96
538.42	65535.00
538.59	65535.00
538.75	65347.76
538.92	65509.25
539.09	65535.00
539.26	65535.00
539.43	65535.00
539.60	65535.00
539.77	65535.00
539.94	65535.00
540.11	65535.00
540.28	65535.00
540.44	65535.00
540.61	65535.00
540.78	65535.00
540.95	65535.00
541.12	65535.00
541.29	65535.00
541.46	65535.00
541.62	65535.00
541.79	65535.00
541.96	65535.00
542.13	65535.00
542.30	65535.00
542.47	65535.00
542.63	65535.00
542.80	65535.00
542.97	65535.00
543.14	65535.00
543.31	65535.00
543.48	65535.00
543.64	65535.00
543.81	65535.00
543.98	65535.00
544.15	65535.00
544.32	65535.00
544.48	65535.00
544.65	65535.00
544.82	65535.00
544.99	65535.00
545.16	65535.00
545.32	65535.00
545.49	65535.00
545.66	65535.00
545.83	65535.00
546.00	65535.00
546.16	65535.00
546.33	65535.00
546.50	65535.00
546.67	65535.00
546.83	65535.00
547.00	65535.00
547.17	65535.00
547.34	65535.00
547.50	65535.00
547.67	65535.00
547.84	65535.00
548.00	65535.00
548.17	65535.00
548.34	65535.00
548.51	65535.00
548.67	65535.00
548.84	65535.00
549.01	65535.00
549.18	65535.00
549.34	65535.00
549.51	65535.00
549.68	65535.00
549.84	65535.00
550.01	65535.00
550.18	65535.00
550.34	65535.00
550.51	65535.00
550.68	65535.00
550.84	65535.00
551.01	65535.00
551.18	65535.00
551.34	65535.00
551.51	65535.00
551.68	65535.00
551.84	65535.00
552.01	65535.00
552.18	65535.00
552.34	65535.00
552.51	65535.00
552.68	65535.00
552.84	65535.00
553.01	65535.00
553.18	65535.00
553.34	65535.00
553.51	65535.00
553.67	65535.00
553.84	65535.00
554.01	65535.00
554.17	65535.00
554.34	65535.00
554.51	65535.00
554.67	65535.00
554.84	65535.00
555.00	65535.00
555.17	65535.00
555.33	65535.00
555.50	65535.00
555.67	65535.00
555.83	65535.00
556.00	65535.00
556.16	65535.00
556.33	65535.00
556.50	65535.00
556.66	65535.00
556.83	65535.00
556.99	65535.00
557.16	65535.00
557.32	65535.00
557.49	65535.00
557.65	65535.00
557.82	65535.00
557.98	65535.00
558.15	65535.00
558.32	65535.00
558.48	65535.00
558.65	65535.00
558.81	65535.00
558.98	65535.00
559.14	65535.00
559.31	65535.00
559.47	65535.00
559.64	65535.00
559.80	65535.00
559.97	65535.00
560.13	65535.00
560.30	65535.00
560.46	65535.00
560.63	65535.00
560.79	65535.00
560.96	65535.00
561.12	65535.00
561.29	65535.00
561.45	65535.00
561.61	65535.00
561.78	65535.00
561.94	65535.00
562.11	65535.00
562.27	65535.00
562.44	65535.00
562.60	65535.00
562.77	65535.00
562.93	65535.00
563.10	65535.00
563.26	65535.00
563.42	65535.00
563.59	65535.00
563.75	65535.00
563.92	65535.00
564.08	65535.00
564.24	65535.00
564.41	65535.00
564.57	65535.00
564.74	65535.00
564.90	65535.00
565.07	65535.00
565.23	65535.00
565.39	65535.00
565.56	65535.00
565.72	65535.00
565.88	65535.00
566.05	65535.00
566.21	65535.00
566.38	65535.00
566.54	65535.00
566.70	65535.00
566.87	65535.00
567.03	65535.00
567.19	65535.00
567.36	65535.00
567.52	65535.00
567.68	65535.00
567.85	65535.00
568.01	65535.00
568.17	65535.00
568.34	65535.00
568.50	65535.00
568.66	65535.00
568.83	65535.00
568.99	65535.00
569.15	65535.00
569.32	65535.00
569.48	65535.00
569.64	65535.00
569.81	65535.00
569.97	65535.00
570.13	65535.00
570.30	65535.00
570.46	65535.00
570.62	65535.00
570.78	65535.00
570.95	65535.00
571.11	65535.00
571.27	65535.00
571.43	65535.00
571.60	65535.00
571.76	65535.00
571.92	65535.00
572.09	65535.00
572.25	65535.00
572.41	65535.00
572.57	65535.00
572.74	65535.00
572.90	65535.00
573.06	65535.00
573.22	65535.00
573.38	65535.00
573.55	65535.00
573.71	65535.00
573.87	65535.00
574.03	65535.00
574.20	65535.00
574.36	65535.00
574.52	65535.00
574.68	65535.00
574.84	65535.00
575.01	65535.00
575.17	65535.00
575.33	65535.00
575.49	65535.00
575.65	65535.00
575.82	65535.00
575.98	65535.00
576.14	65535.00
576.30	65535.00
576.46	65535.00
576.62	65535.00
576.79	65535.00
576.95	65535.00
577.11	65535.00
577.27	65535.00
577.43	65535.00
577.59	65535.00
577.75	65535.00
577.92	65535.00
578.08	65535.00
578.24	65535.00
578.40	65535.00
578.56	65535.00
578.72	65535.00
578.88	65535.00
579.04	65535.00
579.21	65535.00
579.37	65535.00
579.53	65535.00
579.69	65535.00
579.85	65535.00
580.01	65535.00
580.17	65535.00
580.33	65535.00
580.49	65535.00
580.65	65535.00
580.82	65535.00
580.98	65535.00
581.14	65535.00
581.30	65535.00
581.46	65535.00
581.62	65535.00
581.78	65535.00
581.94	65535.00
582.10	65535.00
582.26	65535.00
582.42	65535.00
582.58	65535.00
582.74	65535.00
582.90	65535.00
583.06	65535.00
583.22	65535.00
583.38	65535.00
583.54	65535.00
583.70	65535.00
583.86	65535.00
584.02	65535.00
584.18	65535.00
584.34	65535.00
584.50	65535.00
584.66	65535.00
584.82	65535.00
584.98	65535.00
585.14	65535.00
585.30	65535.00
585.46	65535.00
585.62	65535.00
585.78	65535.00
585.94	65535.00
586.10	65535.00
586.26	65535.00
586.42	65535.00
586.58	65535.00
586.74	65535.00
586.90	65535.00
587.06	65535.00
587.22	65535.00
587.38	65535.00
587.54	65535.00
587.70	65535.00
