SpectraSuite Data File
++++++++++++++++++++++++++++++++++++
Date: Fri Oct 04 11:39:26 GMT-05:00 2013
User: price-jones
Dark Spectrum Present: No
Reference Spectrum Present: No
Number of Sampled Component Spectra: 1
Spectrometers: USB2+H05261
Integration Time (usec): 100000 (USB2+H05261)
Spectra Averaged: 1 (USB2+H05261)
Boxcar Smoothing: 0 (USB2+H05261)
Correct for Electrical Dark: No (USB2+H05261)
Strobe/Lamp Enabled: No (USB2+H05261)
Correct for Detector Non-linearity: No (USB2+H05261)
Correct for Stray Light: No (USB2+H05261)
Number of Pixels in Processed Spectrum: 2048
>>>>>Begin Processed Spectral Data<<<<<
365.73	37.45
365.92	37.45
366.12	37.45
366.32	0.00
366.52	0.00
366.72	4.68
366.91	0.00
367.11	0.00
367.31	0.00
367.51	0.00
367.70	0.00
367.90	4.68
368.10	0.00
368.30	0.00
368.49	0.00
368.69	0.00
368.89	0.00
369.09	0.00
369.28	56.17
369.48	0.00
369.68	105.32
369.87	0.00
370.07	56.17
370.27	49.15
370.47	51.49
370.66	168.52
370.86	212.99
371.06	241.08
371.25	194.26
371.45	182.56
371.65	210.65
371.84	180.22
372.04	196.60
372.24	203.63
372.44	196.60
372.63	299.59
372.83	327.68
373.03	210.65
373.22	196.60
373.42	191.92
373.62	210.65
373.81	187.24
374.01	234.05
374.21	325.33
374.40	276.18
374.60	276.18
374.79	292.57
374.99	252.78
375.19	327.68
375.38	276.18
375.58	175.54
375.78	306.61
375.97	444.70
376.17	301.93
376.37	306.61
376.56	257.46
376.76	290.23
376.95	266.82
377.15	250.44
377.35	301.93
377.54	315.97
377.74	290.23
377.93	276.18
378.13	362.78
378.33	386.19
378.52	271.50
378.72	264.48
378.91	362.78
379.11	320.65
379.31	337.04
379.50	266.82
379.70	301.93
379.89	374.49
380.09	238.73
380.28	353.42
380.48	379.17
380.68	257.46
380.87	269.16
381.07	292.57
381.26	372.15
381.46	294.91
381.65	353.42
381.85	339.38
382.04	362.78
382.24	344.06
382.43	276.18
382.63	339.38
382.83	341.72
383.02	386.19
383.22	388.53
383.41	362.78
383.61	290.23
383.80	308.95
384.00	297.25
384.19	315.97
384.39	306.61
384.58	332.36
384.78	322.99
384.97	414.27
385.17	304.27
385.36	358.10
385.56	341.72
385.75	292.57
385.95	374.49
386.14	397.89
386.34	393.21
386.53	409.59
386.72	407.25
386.92	374.49
387.11	458.74
387.31	379.17
387.50	344.06
387.70	376.83
387.89	360.44
388.09	414.27
388.28	407.25
388.48	404.91
388.67	404.91
388.86	437.68
389.06	407.25
389.25	447.04
389.45	517.26
389.64	437.68
389.84	456.40
390.03	407.25
390.22	425.98
390.42	465.77
390.61	388.53
390.81	390.87
391.00	449.38
391.19	433.00
391.39	503.22
391.58	444.70
391.78	393.21
391.97	454.06
392.16	470.45
392.36	533.64
392.55	475.13
392.75	475.13
392.94	428.32
393.13	573.43
393.33	461.09
393.52	414.27
393.71	491.51
393.91	479.81
394.10	573.43
394.29	573.43
394.49	526.62
394.68	524.28
394.88	547.69
395.07	533.64
395.26	524.28
395.46	554.71
395.65	552.37
395.84	596.84
396.04	622.58
396.23	564.07
396.42	550.03
396.62	592.16
396.81	552.37
397.00	596.84
397.19	634.29
397.39	601.52
397.58	702.16
397.77	678.76
397.97	664.71
398.16	620.24
398.35	704.50
398.55	690.46
398.74	678.76
398.93	671.73
399.12	634.29
399.32	634.29
399.51	734.93
399.70	795.78
399.90	709.18
400.09	746.63
400.28	699.82
400.47	699.82
400.67	786.42
400.86	709.18
401.05	702.16
401.24	711.52
401.44	774.72
401.63	720.88
401.82	737.27
402.01	706.84
402.21	837.91
402.40	788.76
402.59	786.42
402.78	755.99
402.97	798.12
403.17	770.04
403.36	882.38
403.55	781.74
403.74	940.90
403.93	896.43
404.13	912.81
404.32	880.04
404.51	945.58
404.70	1027.50
404.89	924.51
405.09	1018.13
405.28	997.07
405.47	1006.43
405.66	957.28
405.85	1111.75
406.05	997.07
406.24	1011.11
406.43	1032.18
406.62	1086.01
406.81	1125.80
407.00	1158.57
407.20	1104.73
407.39	1039.20
407.58	1114.10
407.77	1135.16
407.96	1170.27
408.15	1221.76
408.34	1123.46
408.54	1109.41
408.73	1165.59
408.92	1233.46
409.11	1287.29
409.30	1158.57
409.49	1203.04
409.68	1207.72
409.87	1247.51
410.07	1231.12
410.26	1329.42
410.45	1376.24
410.64	1313.04
410.83	1334.11
411.02	1331.76
411.21	1348.15
411.40	1458.15
411.59	1439.43
411.78	1465.18
411.98	1451.13
412.17	1441.77
412.36	1437.09
412.55	1423.05
412.74	1589.22
412.93	1561.14
413.12	1526.03
413.31	1645.40
413.50	1558.80
413.69	1657.10
413.88	1703.91
414.07	1675.82
414.26	1743.70
414.45	1748.38
414.64	1654.76
414.83	1799.87
415.02	1921.58
415.22	1881.79
415.41	1874.77
415.60	1895.83
415.79	1898.17
415.98	1905.20
416.17	1994.14
416.36	1844.34
416.55	1839.66
416.74	1877.11
416.93	1956.69
417.12	1902.86
417.31	2066.69
417.50	2026.90
417.69	2181.38
417.88	2090.10
418.07	2099.46
418.26	2148.61
418.45	2097.12
418.64	2183.72
418.83	2188.40
419.02	2211.81
419.21	2148.61
419.39	2235.21
419.58	2202.44
419.77	2134.57
419.96	2251.60
420.15	2363.94
420.34	2300.75
420.53	2221.17
420.72	2368.62
420.91	2431.82
421.10	2305.43
421.29	2429.48
421.48	2298.41
421.67	2406.07
421.86	2377.98
422.05	2410.75
422.24	2438.84
422.43	2389.69
422.61	2375.64
422.80	2509.05
422.99	2497.35
423.18	2455.22
423.37	2553.52
423.56	2546.50
423.75	2569.91
423.94	2429.48
424.13	2429.48
424.32	2429.48
424.50	2490.33
424.69	2497.35
424.88	2581.61
425.07	2450.54
425.26	2502.03
425.45	2558.21
425.64	2389.69
425.83	2520.76
426.01	2558.21
426.20	2560.55
426.39	2607.36
426.58	2506.71
426.77	2621.40
426.96	2679.91
427.15	2607.36
427.33	2626.08
427.52	2640.12
427.71	2595.65
427.90	2642.46
428.09	2588.63
428.28	2572.25
428.46	2792.26
428.65	2768.85
428.84	2923.33
429.03	2867.16
429.22	2661.19
429.40	2848.43
429.59	2761.83
429.78	2799.28
429.97	2670.55
430.16	2698.64
430.34	2911.63
430.53	2974.82
430.72	2883.54
430.91	2825.03
431.10	2897.58
431.28	2913.97
431.47	2935.03
431.66	3066.10
431.85	2862.48
432.03	2963.12
432.22	3082.49
432.41	3042.70
432.60	3049.72
432.79	2979.50
432.97	3035.67
433.16	2995.89
433.35	3047.38
433.54	3089.51
433.72	3206.53
433.91	3016.95
434.10	3180.79
434.28	3108.23
434.47	3183.13
434.66	3302.50
434.85	3208.87
435.03	3349.31
435.22	3403.14
435.41	3669.96
435.59	3705.07
435.78	3559.95
435.97	3407.82
436.16	3499.10
436.34	3339.94
436.53	3201.85
436.72	3449.95
436.90	3398.46
437.09	3506.12
437.28	3304.84
437.46	3407.82
437.65	3475.70
437.84	3578.68
438.02	3445.27
438.21	3487.40
438.40	3300.16
438.58	3651.24
438.77	3527.19
438.96	3517.83
439.14	3623.15
439.33	3751.88
439.52	3768.26
439.70	3798.69
439.89	3676.98
440.08	3681.66
440.26	3735.50
440.45	3733.15
440.63	3838.48
440.82	3824.44
441.01	3808.05
441.19	3761.24
441.38	3829.12
441.57	4016.36
441.75	3925.08
441.94	3964.87
442.12	4114.66
442.31	4109.98
442.50	4058.49
442.68	4140.41
442.87	4121.68
443.05	4159.13
443.24	4147.43
443.43	4262.12
443.61	4255.09
443.80	4353.40
443.98	4234.03
444.17	4079.55
444.35	4210.62
444.54	4311.27
444.73	4423.61
444.91	4297.22
445.10	4304.25
445.28	4184.88
445.47	4145.09
445.65	4219.99
445.84	4365.10
446.02	4402.55
446.21	4304.25
446.39	4262.12
446.58	4217.65
446.77	4381.48
446.95	4224.67
447.14	4201.26
447.32	4395.53
447.51	4315.95
447.69	4395.53
447.88	4355.74
448.06	4390.84
448.25	4280.84
448.43	4432.97
448.62	4463.40
448.80	4472.76
448.99	4259.78
449.17	4407.23
449.36	4479.79
449.54	4573.41
449.73	4568.73
449.91	4657.67
450.10	4507.87
450.28	4683.41
450.46	4652.98
450.65	4613.20
450.83	4690.43
451.02	4535.96
451.20	4674.05
451.39	4643.62
451.57	4606.17
451.76	4798.10
451.94	4734.90
452.13	4856.61
452.31	4863.63
452.49	4849.59
452.68	4706.82
452.86	4770.01
453.05	4873.00
453.23	4884.70
453.42	4720.86
453.60	4650.64
453.78	4734.90
453.97	4704.48
454.15	4784.06
454.34	4844.91
454.52	4997.04
454.70	4912.78
454.89	5135.14
455.07	4924.49
455.26	5078.96
455.44	5186.63
455.62	5149.18
455.81	5039.17
455.99	5198.33
456.17	5109.39
456.36	5060.24
456.54	5247.48
456.73	5277.91
456.91	5256.84
457.09	5413.66
457.28	5490.90
457.46	5308.34
457.64	5437.06
457.83	5324.72
458.01	5434.72
458.19	5341.10
458.38	5296.63
458.56	5509.62
458.74	5343.44
458.93	5313.02
459.11	5439.40
459.29	5364.51
459.48	5544.73
459.66	5495.58
459.84	5659.42
460.03	5640.69
460.21	5659.42
460.39	5554.09
460.57	5701.54
460.76	5638.35
460.94	5797.51
461.12	5706.23
461.31	5582.18
461.49	5502.60
461.67	5579.84
461.85	5790.49
462.04	5893.47
462.22	5937.94
462.40	5895.81
462.59	5874.74
462.77	5727.29
462.95	5802.19
463.13	5893.47
463.32	5872.40
463.50	5980.07
463.68	5996.45
463.86	5973.05
464.05	5802.19
464.23	5858.36
464.41	6122.84
464.59	5738.99
464.78	6059.65
464.96	5834.96
465.14	6015.18
465.32	6080.71
465.50	6211.78
465.69	6122.84
465.87	6169.65
466.05	6069.01
466.23	5989.43
466.41	6150.93
466.60	6363.92
466.78	6104.12
466.96	6071.35
467.14	6080.71
467.32	6197.74
467.51	6356.90
467.69	6188.38
467.87	6251.57
468.05	6366.26
468.23	6282.00
468.41	6331.15
468.60	6324.13
468.78	6335.83
468.96	6279.66
469.14	6494.99
469.32	6492.65
469.50	6429.45
469.69	6696.27
469.87	6544.14
470.05	6780.53
470.23	6679.89
470.41	6555.84
470.59	6600.31
470.77	6623.72
470.95	6534.78
471.14	6738.40
471.32	6651.80
471.50	6918.62
471.68	6862.45
471.86	6839.05
472.04	6813.30
472.22	7026.29
472.40	6729.04
472.58	7026.29
472.77	6808.62
472.95	7026.29
473.13	7204.17
473.31	7183.10
473.49	7019.27
473.67	6988.84
473.85	7108.21
474.03	7300.13
474.21	7297.79
474.39	7279.07
474.57	7351.62
474.75	7440.56
474.93	7379.71
475.12	7447.58
475.30	7641.85
475.48	7541.21
475.66	7576.31
475.84	7655.89
476.02	7672.28
476.20	7789.30
476.38	7613.76
476.56	8013.99
476.74	7810.37
476.92	7880.58
477.10	7988.25
477.28	8145.06
477.46	8161.45
477.64	8037.40
477.82	8341.67
478.00	8365.07
478.18	8470.40
478.36	8489.12
478.54	8540.61
478.72	8489.12
478.90	8659.98
479.08	8622.53
479.26	8592.11
479.44	8947.87
479.62	8819.14
479.80	8692.75
479.98	9083.62
480.16	9018.08
480.34	9121.07
480.52	9235.75
480.70	9156.18
480.88	9310.65
481.06	9504.92
481.24	9357.46
481.41	9224.05
481.59	9502.58
481.77	9832.59
481.95	9727.27
482.13	9865.36
482.31	9802.16
482.49	10043.24
482.67	10022.17
482.85	10033.88
483.03	10043.24
483.21	10576.88
483.39	10267.93
483.57	10420.06
483.74	10623.69
483.92	10555.82
484.10	10366.23
484.28	10707.95
484.46	11112.86
484.64	11257.98
484.82	10991.16
485.00	11091.80
485.18	11253.30
485.35	11585.65
485.53	11157.33
485.71	11534.16
485.89	11618.42
486.07	11522.46
486.25	11651.19
486.43	11709.70
486.61	12056.10
486.78	12002.27
486.96	12142.70
487.14	12201.21
487.32	12219.94
487.50	12369.73
487.68	12039.72
487.85	12500.80
488.03	12755.92
488.21	12882.31
488.39	12776.98
488.57	13004.02
488.75	13074.23
488.92	13202.96
489.10	13144.45
489.28	13350.42
489.46	13329.35
489.64	13291.90
489.81	13532.98
489.99	13453.40
490.17	13673.41
490.35	14019.81
490.53	13654.69
490.70	14040.87
490.88	13963.64
491.06	13996.40
491.24	14281.95
491.41	14356.85
491.59	14349.82
491.77	14342.80
491.95	14368.55
492.13	14654.09
492.30	14630.69
492.48	14747.72
492.66	14902.19
492.84	14846.02
493.01	14806.23
493.19	15112.84
493.37	15014.54
493.54	15382.00
493.72	15384.34
493.90	15452.22
494.08	15236.89
494.25	15653.50
494.43	15777.55
494.61	15882.88
494.79	15974.16
494.96	16116.93
495.14	16236.30
495.32	16070.12
495.49	16023.31
495.67	16606.10
495.85	16479.71
496.02	16477.37
496.20	16807.39
496.38	16645.89
496.55	17003.99
496.73	16884.62
496.91	16945.48
497.09	16863.56
497.26	17298.90
497.44	17191.23
497.62	17352.73
497.79	17397.20
497.97	17369.12
498.14	17774.03
498.32	17844.24
498.50	17703.81
498.67	17689.77
498.85	17647.64
499.03	17884.03
499.20	18045.53
499.38	18192.98
499.56	17940.21
499.73	18457.46
499.91	18307.67
500.08	18420.02
500.26	18192.98
500.44	18274.90
500.61	18483.21
500.79	18651.73
500.97	18733.65
501.14	19033.24
501.32	18941.96
501.49	19007.49
501.67	18583.85
501.84	19073.03
502.02	19117.50
502.20	19328.14
502.37	19391.34
502.55	18998.13
502.72	19058.98
502.90	19311.76
503.07	19417.08
503.25	19658.16
503.43	19630.07
503.60	19843.06
503.78	19630.07
503.95	19585.60
504.13	19499.00
504.30	19861.79
504.48	19913.28
504.65	20088.82
504.83	20006.90
505.01	20203.50
505.18	20243.29
505.36	20477.35
505.53	19950.73
505.71	20493.73
505.88	20554.58
506.06	20428.20
506.23	20386.07
506.41	20472.67
506.58	21029.71
506.76	20676.29
506.93	20875.24
507.11	20779.28
507.28	20893.96
507.46	21146.74
507.63	20730.12
507.81	21160.78
507.98	21380.79
508.16	21259.09
508.33	21128.02
508.50	21322.28
508.68	21633.57
508.85	21493.14
509.03	21439.31
509.20	21722.51
509.38	21799.75
509.55	21626.55
509.73	21762.30
509.90	22029.12
510.08	21998.70
510.25	22089.98
510.42	22115.72
510.60	22349.78
510.77	22553.40
510.95	22651.70
511.12	22045.51
511.30	22448.08
511.47	22515.95
511.64	22883.42
511.82	22836.61
511.99	22295.94
512.17	23030.87
512.34	22663.41
512.51	22932.57
512.69	22906.82
512.86	22986.40
513.04	23290.67
513.21	23255.56
513.38	23534.09
513.56	23253.22
513.73	23388.97
513.90	23398.34
514.08	23349.18
514.25	23363.23
514.43	23730.69
514.60	23531.75
514.77	23374.93
514.95	23791.55
515.12	23377.27
515.29	23552.81
515.47	23625.37
515.64	24142.63
515.81	23828.99
515.99	24056.03
516.16	24245.61
516.33	24407.11
516.51	24177.73
516.68	24130.92
516.85	24287.74
517.03	24517.11
517.20	24517.11
517.37	24577.97
517.54	24781.59
517.72	24369.66
517.89	24362.64
518.06	25029.69
518.24	24709.04
518.41	24510.09
518.58	25013.31
518.75	24889.26
518.93	24739.46
519.10	25069.48
519.27	25291.83
519.45	24943.09
519.62	25029.69
519.79	24950.11
519.96	25483.75
520.14	25305.87
520.31	25268.42
520.48	25326.94
520.65	25193.53
520.83	25472.05
521.00	25277.79
521.17	25280.13
521.34	25689.72
521.52	25692.06
521.69	25692.06
521.86	25839.51
522.03	26036.12
522.20	26265.49
522.38	25823.13
522.55	25982.29
522.72	26237.41
522.89	26199.96
523.07	26492.52
523.24	26307.62
523.41	26199.96
523.58	26260.81
523.75	26251.45
523.92	26490.18
524.10	26562.74
524.27	26703.17
524.44	26656.36
524.61	26630.62
524.78	26911.48
524.96	26918.50
525.13	26927.86
525.30	26794.45
525.47	26995.74
525.64	26927.86
525.81	27197.02
525.98	27094.04
526.16	26885.73
526.33	27342.14
526.50	27332.78
526.67	26806.16
526.84	27138.51
527.01	27103.40
527.18	27311.71
527.36	27431.08
527.53	27597.26
527.70	27615.98
527.87	27962.38
528.04	27859.40
528.21	27751.73
528.38	27777.48
528.55	27653.43
528.72	27892.16
528.89	28149.62
529.07	28046.64
529.24	27852.38
529.41	27908.55
529.58	27840.67
529.75	28023.23
529.92	27931.95
530.09	28254.95
530.26	28470.28
530.43	28343.89
530.60	28198.77
530.77	28166.01
530.94	28423.47
531.11	28254.95
531.28	28538.15
531.46	28367.29
531.63	28210.48
531.80	28491.34
531.97	28865.83
532.14	28470.28
532.31	28732.42
532.48	28680.92
532.65	28601.35
532.82	28737.10
532.99	28643.48
533.16	28795.61
533.33	29383.09
533.50	29518.84
533.67	29408.83
533.84	28802.63
534.01	28872.85
534.18	28655.18
534.35	29109.24
534.52	29240.31
534.69	29357.34
534.86	29605.44
535.03	29216.91
535.20	29387.77
535.37	29282.44
535.54	29474.37
535.71	29483.73
535.88	29163.08
536.05	29504.79
536.22	29500.11
536.38	29930.77
536.55	29874.60
536.72	29626.50
536.89	29589.05
537.06	29708.42
537.23	29935.45
537.40	29890.98
537.57	29907.37
537.74	29567.99
537.91	30000.99
538.08	30132.06
538.25	29937.79
538.42	30057.16
538.59	30169.51
538.75	29893.32
538.92	29989.28
539.09	30586.12
539.26	30206.95
539.43	30672.72
539.60	30253.76
539.77	30504.20
539.94	30764.00
540.11	30455.05
540.28	30581.44
540.44	30597.82
540.61	30506.54
540.78	30728.89
540.95	30745.28
541.12	30742.94
541.29	31094.02
541.46	30941.88
541.62	31049.55
541.79	30831.88
541.96	30796.77
542.13	31131.47
542.30	31075.29
542.47	31541.06
542.63	31824.26
542.80	31480.21
542.97	31316.37
543.14	31454.46
543.31	31466.16
543.48	31473.18
543.64	31531.70
543.81	31899.16
543.98	31913.20
544.15	31669.79
544.32	31931.93
544.48	31857.03
544.65	31700.22
544.82	31594.89
544.99	31501.27
545.16	31992.78
545.32	31585.53
545.49	32203.43
545.66	32914.95
545.83	32968.79
546.00	32526.42
546.16	32353.23
546.33	32205.77
546.50	31697.88
546.67	32224.50
546.83	31779.79
547.00	32009.17
547.17	31952.99
547.34	31903.84
547.50	32210.45
547.67	32343.86
547.84	32400.04
548.00	32098.11
548.17	32325.14
548.34	32236.20
548.51	32212.79
548.67	31903.84
548.84	32423.44
549.01	32322.80
549.18	32002.14
549.34	32381.31
549.51	32196.41
549.68	32180.03
549.84	32236.20
550.01	31992.78
550.18	32465.57
550.34	32533.45
550.51	32549.83
550.68	32388.33
550.84	31934.27
551.01	32465.57
551.18	32467.91
551.34	32102.79
551.51	32500.68
551.68	32643.45
551.84	32678.56
552.01	32400.04
552.18	32776.86
552.34	32397.70
552.51	32865.80
552.68	32545.15
552.84	32704.31
553.01	32835.38
553.18	32910.27
553.34	32924.32
553.51	32823.67
553.67	32503.02
553.84	33006.23
554.01	33144.33
554.17	32973.47
554.34	32730.05
554.51	33048.36
554.67	33198.16
554.84	33010.92
555.00	32797.93
555.17	33081.13
555.33	33280.08
555.50	32865.80
555.67	33139.65
555.83	33160.71
556.00	33102.20
556.16	33460.30
556.33	32971.13
556.50	33319.87
556.66	33373.70
556.83	33067.09
556.99	33362.00
557.16	33174.75
557.32	33352.63
557.49	33277.74
557.65	32790.91
557.82	33134.96
557.98	33324.55
558.15	33064.75
558.32	33455.62
558.48	33528.17
558.65	33565.62
558.81	33333.91
558.98	33507.11
559.14	33223.90
559.31	33074.11
559.47	33104.54
559.64	33544.56
559.80	33362.00
559.97	33617.11
560.13	33226.24
560.30	33434.55
560.46	33046.02
560.63	33546.90
560.79	33507.11
560.96	33551.58
561.12	33296.46
561.29	33528.17
561.45	33350.29
561.61	33717.76
561.78	33890.96
561.94	33329.23
562.11	34223.31
562.27	33532.86
562.44	33610.09
562.60	33294.12
562.77	33563.28
562.93	33237.95
563.10	33783.29
563.26	33612.43
563.42	33670.95
563.59	33586.69
563.75	33989.26
563.92	33762.23
564.08	33820.74
564.24	33720.10
564.41	33565.62
564.57	33479.02
564.74	33853.51
564.90	33986.92
565.07	34157.78
565.23	34272.46
565.39	33710.74
565.56	33961.17
565.72	33708.40
565.88	33940.11
566.05	33764.57
566.21	33776.27
566.38	33809.04
566.54	34012.66
566.70	34148.42
566.87	34375.45
567.03	33806.70
567.19	34125.01
567.36	34012.66
567.52	33677.97
567.68	34199.91
567.85	33823.08
568.01	33783.29
568.17	33649.88
568.34	34106.29
568.50	33991.60
568.66	34087.56
568.83	34010.32
568.99	34031.39
569.15	34082.88
569.32	34089.90
569.48	33560.94
569.64	33940.11
569.81	34237.36
569.97	33809.04
570.13	34096.92
570.30	33937.77
570.46	34101.61
570.62	33748.18
570.78	33748.18
570.95	33790.31
571.11	34073.52
571.27	33462.64
571.43	33935.43
571.60	34113.31
571.76	34087.56
571.92	34218.63
572.09	34017.35
572.25	34211.61
572.41	34251.40
572.57	34373.11
572.74	34029.05
572.90	33890.96
573.06	34181.18
573.22	33811.38
573.38	34108.63
573.55	34155.44
573.71	34443.32
573.87	34349.70
574.03	34417.58
574.20	34120.33
574.36	34094.58
574.52	33970.54
574.68	34490.13
574.84	34274.80
575.01	34089.90
575.17	34052.45
575.33	34019.69
575.49	34033.73
575.65	34272.46
575.82	34398.85
575.98	34366.09
576.14	34005.64
576.30	34593.12
576.46	34319.28
576.62	33867.55
576.79	34419.92
576.95	33914.36
577.11	34487.79
577.27	34473.75
577.43	34078.20
577.59	34223.31
577.75	34110.97
577.92	33982.24
578.08	33869.89
578.24	33865.21
578.40	34157.78
578.56	34167.14
578.72	34628.23
578.88	34412.90
579.04	34202.25
579.21	34115.65
579.37	34220.97
579.53	34422.26
579.69	33638.18
579.85	34520.56
580.01	34377.79
580.17	34073.52
580.33	34246.72
580.49	34281.83
580.65	34129.69
580.82	34670.36
580.98	34281.83
581.14	34352.04
581.30	34604.82
581.46	34157.78
581.62	34232.68
581.78	33944.79
581.94	34473.75
582.10	34211.61
582.26	34291.19
582.42	34155.44
582.58	34258.42
582.74	34518.22
582.90	34239.70
583.06	34532.26
583.22	34295.87
583.38	34120.33
583.54	34174.16
583.70	34087.56
583.86	34642.27
584.02	33958.83
584.18	34525.24
584.34	34766.32
584.50	34295.87
584.66	34653.97
584.82	33975.22
584.98	34150.76
585.14	34174.16
585.30	34211.61
585.46	34064.16
585.62	34459.71
585.78	34227.99
585.94	34099.26
586.10	34490.13
586.26	34242.04
586.42	34864.62
586.58	34555.67
586.74	34265.44
586.90	34550.99
587.06	34000.96
587.22	34649.29
587.38	34031.39
587.54	34377.79
587.70	34864.62
587.86	34274.80
588.02	34670.36
588.18	34700.78
588.34	34593.12
588.49	34438.64
588.65	34333.32
588.81	34155.44
588.97	34134.37
589.13	34129.69
589.29	34466.73
589.45	34412.90
589.61	34567.37
589.77	34773.34
589.93	34438.64
590.08	34639.93
590.24	34499.50
590.40	34803.77
590.56	34820.15
590.72	34506.52
590.88	34330.98
591.04	34352.04
591.20	34618.86
591.35	34873.98
591.51	34698.44
