SpectraSuite Data File
++++++++++++++++++++++++++++++++++++
Date: Fri Oct 04 11:39:19 GMT-05:00 2013
User: price-jones
Dark Spectrum Present: No
Reference Spectrum Present: No
Number of Sampled Component Spectra: 1
Spectrometers: USB2+H05261
Integration Time (usec): 100000 (USB2+H05261)
Spectra Averaged: 1 (USB2+H05261)
Boxcar Smoothing: 0 (USB2+H05261)
Correct for Electrical Dark: No (USB2+H05261)
Strobe/Lamp Enabled: No (USB2+H05261)
Correct for Detector Non-linearity: No (USB2+H05261)
Correct for Stray Light: No (USB2+H05261)
Number of Pixels in Processed Spectrum: 2048
>>>>>Begin Processed Spectral Data<<<<<
365.73	30.43
365.92	30.43
366.12	30.43
366.32	0.00
366.52	0.00
366.72	2.34
366.91	0.00
367.11	0.00
367.31	0.00
367.51	0.00
367.70	21.06
367.90	0.00
368.10	0.00
368.30	0.00
368.49	18.72
368.69	0.00
368.89	0.00
369.09	0.00
369.28	0.00
369.48	0.00
369.68	0.00
369.87	39.79
370.07	49.15
370.27	93.62
370.47	2.34
370.66	189.58
370.86	205.97
371.06	266.82
371.25	325.33
371.45	313.63
371.65	299.59
371.84	189.58
372.04	287.89
372.24	299.59
372.44	231.71
372.63	241.08
372.83	393.21
373.03	376.83
373.22	285.55
373.42	379.17
373.62	339.38
373.81	327.68
374.01	416.62
374.21	404.91
374.40	341.72
374.60	404.91
374.79	407.25
374.99	414.27
375.19	400.23
375.38	372.15
375.58	271.50
375.78	376.83
375.97	414.27
376.17	404.91
376.37	325.33
376.56	360.44
376.76	337.04
376.95	379.17
377.15	376.83
377.35	400.23
377.54	409.59
377.74	416.62
377.93	463.43
378.13	395.55
378.33	397.89
378.52	372.15
378.72	416.62
378.91	388.53
379.11	414.27
379.31	374.49
379.50	435.34
379.70	409.59
379.89	454.06
380.09	472.79
380.28	428.32
380.48	444.70
380.68	430.66
380.87	332.36
381.07	484.49
381.26	458.74
381.46	440.02
381.65	409.59
381.85	477.47
382.04	444.70
382.24	461.09
382.43	519.60
382.63	517.26
382.83	447.04
383.02	496.19
383.22	449.38
383.41	449.38
383.61	489.17
383.80	463.43
384.00	411.93
384.19	437.68
384.39	472.79
384.58	585.13
384.78	484.49
384.97	540.66
385.17	528.96
385.36	500.87
385.56	517.26
385.75	437.68
385.95	500.87
386.14	655.35
386.34	447.04
386.53	521.94
386.72	505.56
386.92	636.63
387.11	540.66
387.31	617.90
387.50	503.22
387.70	528.96
387.89	580.45
388.09	468.11
388.28	533.64
388.48	575.77
388.67	594.50
388.86	507.90
389.06	552.37
389.25	554.71
389.45	573.43
389.64	573.43
389.84	645.99
390.03	622.58
390.22	620.24
390.42	664.71
390.61	582.79
390.81	571.09
391.00	592.16
391.19	653.01
391.39	629.60
391.58	655.35
391.78	645.99
391.97	557.05
392.16	599.18
392.36	643.65
392.55	683.44
392.75	730.25
392.94	667.05
393.13	681.10
393.33	664.71
393.52	629.60
393.71	692.80
393.91	702.16
394.10	734.93
394.29	650.67
394.49	704.50
394.68	734.93
394.88	774.72
395.07	737.27
395.26	716.20
395.46	767.70
395.65	833.23
395.84	695.14
396.04	844.93
396.23	788.76
396.42	755.99
396.62	802.80
396.81	816.85
397.00	781.74
397.19	851.96
397.39	791.10
397.58	755.99
397.77	753.65
397.97	819.19
398.16	873.02
398.35	858.98
398.55	847.27
398.74	854.30
398.93	875.36
399.12	854.30
399.32	821.53
399.51	851.96
399.70	933.87
399.90	905.79
400.09	992.39
400.28	936.21
400.47	1001.75
400.67	1006.43
400.86	947.92
401.05	1020.47
401.24	954.94
401.44	1032.18
401.63	1011.11
401.82	980.68
402.01	983.02
402.21	1067.28
402.40	978.34
402.59	1053.24
402.78	1088.35
402.97	1090.69
403.17	1029.84
403.36	1074.31
403.55	1081.33
403.74	1039.20
403.93	1125.80
404.13	1116.44
404.32	1196.01
404.51	1069.62
404.70	1315.38
404.89	1212.40
405.09	1233.46
405.28	1191.33
405.47	1266.23
405.66	1334.11
405.85	1287.29
406.05	1261.55
406.24	1261.55
406.43	1280.27
406.62	1221.76
406.81	1352.83
407.00	1240.48
407.20	1315.38
407.39	1348.15
407.58	1306.02
407.77	1364.53
407.96	1467.52
408.15	1427.73
408.34	1345.81
408.54	1469.86
408.73	1423.05
408.92	1355.17
409.11	1481.56
409.30	1453.47
409.49	1380.92
409.68	1565.82
409.87	1451.13
410.07	1535.39
410.26	1519.01
410.45	1451.13
410.64	1568.16
410.83	1746.04
411.02	1610.29
411.21	1689.87
411.40	1643.06
411.59	1673.48
411.78	1643.06
411.98	1640.72
412.17	1701.57
412.36	1774.13
412.55	1729.66
412.74	1755.40
412.93	1792.85
413.12	1842.00
413.31	1895.83
413.50	1842.00
413.69	1842.00
413.88	1907.54
414.07	1970.73
414.26	1921.58
414.45	1975.41
414.64	1984.77
414.83	1944.99
415.02	2143.93
415.22	2069.03
415.41	2085.42
415.60	2106.48
415.79	2181.38
415.98	2160.31
416.17	2005.84
416.36	2083.08
416.55	2258.62
416.74	2181.38
416.93	2223.51
417.12	2251.60
417.31	2282.02
417.50	2338.20
417.69	2349.90
417.88	2197.76
418.07	2370.96
418.26	2314.79
418.45	2452.88
418.64	2457.56
418.83	2466.92
419.02	2363.94
419.21	2506.71
419.39	2424.80
419.58	2417.77
419.77	2389.69
419.96	2448.20
420.15	2567.57
420.34	2431.82
420.53	2520.76
420.72	2602.68
420.91	2630.76
421.10	2649.49
421.29	2679.91
421.48	2642.46
421.67	2782.90
421.86	2640.12
422.05	2703.32
422.24	2726.72
422.43	2628.42
422.61	2572.25
422.80	2649.49
422.99	2789.92
423.18	2810.98
423.37	2846.09
423.56	2736.09
423.75	2841.41
423.94	2836.73
424.13	2677.57
424.32	2705.66
424.50	2848.43
424.69	2853.11
424.88	2899.92
425.07	2761.83
425.26	2815.66
425.45	2745.45
425.64	2801.62
425.83	2850.77
426.01	2920.99
426.20	2789.92
426.39	2942.05
426.58	2848.43
426.77	2972.48
426.96	2923.33
427.15	2881.20
427.33	2911.63
427.52	2808.64
427.71	2970.14
427.90	3033.33
428.09	3030.99
428.28	3021.63
428.46	3059.08
428.65	2946.73
428.84	3002.91
429.03	3066.10
429.22	3016.95
429.40	3166.74
429.59	3098.87
429.78	3063.76
429.97	3162.06
430.16	3101.21
430.34	3115.25
430.53	3253.34
430.72	3234.62
430.91	3150.36
431.10	3225.26
431.28	3300.16
431.47	3218.24
431.66	3304.84
431.85	3236.96
432.03	3335.26
432.22	3389.10
432.41	3309.52
432.60	3379.73
432.79	3321.22
432.97	3386.76
433.16	3405.48
433.35	3492.08
433.54	3478.04
433.72	3445.27
433.91	3361.01
434.10	3321.22
434.28	3410.16
434.47	3456.97
434.66	3468.67
434.85	3599.74
435.03	3475.70
435.22	3742.52
435.41	4084.23
435.59	3978.91
435.78	3777.62
435.97	3845.50
436.16	3744.86
436.34	3506.12
436.53	3705.07
436.72	3695.71
436.90	3691.02
437.09	3859.54
437.28	3714.43
437.46	3681.66
437.65	3679.32
437.84	3794.01
438.02	3833.80
438.21	3822.09
438.40	3878.27
438.58	3873.59
438.77	3964.87
438.96	3822.09
439.14	3983.59
439.33	4077.21
439.52	4093.60
439.70	4180.20
439.89	4152.11
440.08	3967.21
440.26	4243.39
440.45	4320.63
440.63	4217.65
440.82	4381.48
441.01	4287.86
441.19	4238.71
441.38	4416.59
441.57	4564.04
441.75	4463.40
441.94	4547.66
442.12	4500.85
442.31	4456.38
442.50	4503.19
442.68	4550.00
442.87	4578.09
443.05	4603.83
443.24	4617.88
443.43	4655.33
443.61	4610.86
443.80	4739.58
443.98	4573.41
444.17	4491.49
444.35	4608.51
444.54	4667.03
444.73	4744.27
444.91	4844.91
445.10	4732.56
445.28	4730.22
445.47	4720.86
445.65	4791.08
445.84	4716.18
446.02	4760.65
446.21	4669.37
446.39	4732.56
446.58	4875.34
446.77	4807.46
446.95	4723.20
447.14	4629.58
447.32	4809.80
447.51	4863.63
447.69	4685.75
447.88	4755.97
448.06	4828.53
448.25	4973.64
448.43	4863.63
448.62	4777.03
448.80	4931.51
448.99	4833.21
449.17	4940.87
449.36	5022.79
449.54	5095.35
449.73	5142.16
449.91	5116.41
450.10	5130.45
450.28	5226.42
450.46	5025.13
450.65	5151.52
450.83	5062.58
451.02	4966.62
451.20	5263.86
451.39	5303.65
451.57	5210.03
451.76	5191.31
451.94	5231.10
452.13	5315.36
452.31	5287.27
452.49	5242.80
452.68	5104.71
452.86	5310.68
453.05	5570.48
453.23	5289.61
453.42	5408.98
453.60	5158.54
453.78	5399.62
453.97	5362.17
454.15	5331.74
454.34	5343.44
454.52	5462.81
454.70	5439.40
454.89	5584.52
455.07	5423.02
455.26	5465.15
455.44	5521.32
455.62	5708.57
455.81	5762.40
455.99	5511.96
456.17	5771.76
456.36	5757.72
456.54	5823.25
456.73	5755.38
456.91	5998.79
457.09	5741.33
457.28	6066.67
457.46	5731.97
457.64	6033.90
457.83	5699.20
458.01	5853.68
458.19	5996.45
458.38	5926.24
458.56	5914.53
458.74	5916.87
458.93	6043.26
459.11	6129.86
459.29	5937.94
459.48	6069.01
459.66	6242.21
459.84	6249.23
460.03	6260.93
460.21	6069.01
460.39	6146.25
460.57	6237.53
460.76	6122.84
460.94	6282.00
461.12	6272.64
461.31	6200.08
461.49	6225.82
461.67	6312.42
461.85	6743.08
462.04	6443.49
462.22	6895.22
462.40	6593.29
462.59	6551.16
462.77	6546.48
462.95	6448.18
463.13	6523.07
463.32	6637.76
463.50	6516.05
463.68	6553.50
463.86	6504.35
464.05	6668.19
464.23	6656.48
464.41	6738.40
464.59	6459.88
464.78	6752.45
464.96	6682.23
465.14	6649.46
465.32	6972.46
465.50	6834.36
465.69	6822.66
465.87	6801.60
466.05	6974.80
466.23	6759.47
466.41	6925.65
466.60	7075.44
466.78	6874.15
466.96	6850.75
467.14	6843.73
467.32	6913.94
467.51	7157.36
467.69	6946.71
467.87	6808.62
468.05	7012.24
468.23	6892.88
468.41	7126.93
468.60	7143.32
468.78	6995.86
468.96	7087.14
469.14	7054.37
469.32	7150.34
469.50	7066.08
469.69	7211.19
469.87	7358.64
470.05	7286.09
470.23	7241.62
470.41	7379.71
470.59	7265.02
470.77	7382.05
470.95	7466.31
471.14	7646.53
471.32	7499.08
471.50	7541.21
471.68	7845.48
471.86	7681.64
472.04	7592.70
472.22	7967.18
472.40	7709.72
472.58	7831.43
472.77	7894.63
472.95	7903.99
473.13	8011.65
473.31	7925.05
473.49	7946.12
473.67	7983.57
473.85	7981.23
474.03	8231.66
474.21	8051.44
474.39	8049.10
474.57	8390.82
474.75	8353.37
474.93	8423.59
475.12	8278.47
475.30	8526.57
475.48	8351.03
475.66	8454.02
475.84	8685.73
476.02	8669.34
476.20	8688.07
476.38	8692.75
476.56	8985.32
476.74	8901.06
476.92	8901.06
477.10	8798.07
477.28	8898.72
477.46	8879.99
477.64	9114.05
477.82	9284.91
478.00	9474.49
478.18	9352.78
478.36	9413.63
478.54	9439.38
478.72	9530.66
478.90	9797.48
479.08	9870.04
479.26	9888.76
479.44	10094.73
479.62	10061.96
479.80	10047.92
479.98	10008.13
480.16	10380.28
480.34	10237.50
480.52	10408.36
480.70	10452.83
480.88	10539.43
481.06	10597.95
481.24	10356.87
481.41	10661.14
481.59	10640.08
481.77	10878.81
481.95	10822.64
482.13	10934.98
482.31	11007.54
482.49	11255.64
482.67	11279.04
482.85	11225.21
483.03	11503.73
483.21	11538.84
483.39	11489.69
483.57	11662.89
483.74	11789.28
483.92	11873.54
484.10	11857.15
484.28	12152.06
484.46	12189.51
484.64	12505.48
484.82	12386.12
485.00	12315.90
485.18	12556.97
485.35	12760.60
485.53	12812.09
485.71	12629.53
485.89	12954.87
486.07	13125.72
486.25	12954.87
486.43	13242.75
486.61	13397.23
486.78	13727.24
486.96	13441.70
487.14	13385.52
487.32	13710.86
487.50	13783.41
487.68	13832.57
487.85	13998.74
488.03	14490.26
488.21	14417.70
488.39	14370.89
488.57	14354.51
488.75	14267.91
488.92	14703.25
489.10	14941.98
489.28	15138.58
489.46	15389.02
489.64	15234.55
489.81	15173.69
489.99	15300.08
490.17	15501.37
490.35	15709.68
490.53	15840.75
490.70	16013.95
490.88	15847.77
491.06	15960.11
491.24	15770.53
491.41	16205.87
491.59	16423.54
491.77	16226.93
491.95	16470.35
492.13	16463.33
492.30	16690.36
492.48	16631.85
492.66	17177.19
492.84	16758.24
493.01	17111.66
493.19	17034.42
493.37	17315.28
493.54	17057.82
493.72	17584.44
493.90	17322.30
494.08	17802.11
494.25	17853.61
494.43	17804.46
494.61	18101.70
494.79	17834.88
494.96	17982.34
495.14	18143.83
495.32	18366.18
495.49	18253.84
495.67	18415.34
495.85	18902.17
496.02	18721.95
496.20	18609.60
496.38	18834.29
496.55	18972.38
496.73	19536.45
496.91	19250.91
497.09	19208.78
497.26	19524.75
497.44	19513.05
497.62	19587.94
497.79	19852.42
497.97	19580.92
498.14	20051.37
498.32	19777.53
498.50	20114.56
498.67	20175.42
498.85	20189.46
499.03	20404.79
499.20	20383.73
499.38	20299.47
499.56	20561.61
499.73	20849.49
499.91	20739.49
500.08	20884.60
500.26	20849.49
500.44	20870.56
500.61	20762.89
500.79	21090.57
500.97	21109.29
501.14	21170.15
501.32	21153.76
501.49	21626.55
501.67	21507.18
501.84	21689.74
502.02	21483.78
502.20	21764.64
502.37	22057.21
502.55	21678.04
502.72	22235.09
502.90	22281.90
503.07	21577.40
503.25	22331.05
503.43	21865.28
503.60	22373.18
503.78	22443.40
503.95	22366.16
504.13	22391.91
504.30	22677.45
504.48	22401.27
504.65	22752.35
504.83	22796.82
505.01	22986.40
505.18	22761.71
505.36	23147.90
505.53	23080.02
505.71	23108.11
505.88	23133.86
506.06	23061.30
506.23	23335.14
506.41	23330.46
506.58	23613.66
506.76	23571.54
506.93	23566.85
507.11	23513.02
507.28	23559.83
507.46	24051.34
507.63	23917.93
507.81	24079.43
507.98	24037.30
508.16	24311.14
508.33	24013.90
508.50	24236.25
508.68	24240.93
508.85	24411.79
509.03	24411.79
509.20	24702.01
509.38	24980.54
509.55	25067.14
509.73	24929.05
509.90	25085.86
510.08	24783.93
510.25	24959.47
510.42	25036.71
510.60	25448.64
510.77	25476.73
510.95	25661.63
511.12	25235.66
511.30	25413.54
511.47	25860.58
511.64	25366.73
511.82	25708.44
511.99	25720.15
512.17	25832.49
512.34	25891.01
512.51	26139.10
512.69	26192.94
512.86	26272.51
513.04	26075.91
513.21	26197.62
513.38	26410.60
513.56	26616.57
513.73	26544.02
513.90	26328.69
514.08	26647.00
514.25	26897.44
514.43	26759.34
514.60	26611.89
514.77	27288.31
514.95	26703.17
515.12	27222.77
515.29	26824.88
515.47	27300.01
515.64	26967.65
515.81	27426.40
515.99	27440.44
516.16	27770.46
516.33	27527.04
516.51	27524.70
516.68	27414.69
516.85	27590.24
517.03	27711.94
517.20	27992.81
517.37	27999.83
517.54	27735.35
517.72	27962.38
517.89	28091.11
518.06	27578.53
518.24	28074.73
518.41	28170.69
518.58	28435.17
518.75	28329.84
518.93	28374.31
519.10	28329.84
519.27	28205.80
519.45	28137.92
519.62	28673.90
519.79	28411.76
519.96	28727.74
520.14	28929.02
520.31	28816.68
520.48	28690.29
520.65	28959.45
520.83	29326.91
521.00	29022.64
521.17	29099.88
521.34	29247.33
521.52	29511.81
521.69	29638.20
521.86	29350.32
522.03	29638.20
522.20	29792.68
522.38	29893.32
522.55	29401.81
522.72	29392.45
522.89	29656.93
523.07	30272.49
523.24	29970.56
523.41	30342.70
523.58	30113.33
523.75	30331.00
523.92	30281.85
524.10	30541.65
524.27	30258.45
524.44	30319.30
524.61	30768.68
524.78	30473.78
524.96	30480.80
525.13	30850.60
525.30	30810.81
525.47	30822.51
525.64	30663.36
525.81	31033.16
525.98	30969.97
526.16	30661.02
526.33	30857.62
526.50	31316.37
526.67	30939.54
526.84	31101.04
527.01	30813.15
527.18	31065.93
527.36	31173.60
527.53	31407.65
527.70	31915.54
527.87	31798.52
528.04	31435.74
528.21	31227.43
528.38	31534.04
528.55	31665.11
528.72	31929.59
528.89	31634.68
529.07	31688.51
529.24	31548.08
529.41	32133.21
529.58	31716.60
529.75	31878.10
529.92	32165.98
530.09	31917.89
530.26	31903.84
530.43	32165.98
530.60	31817.24
530.77	32315.78
530.94	32765.16
531.11	32357.91
531.28	32158.96
531.46	32374.29
531.63	32488.98
531.80	32683.24
531.97	32596.64
532.14	33085.81
532.31	32634.09
532.48	32589.62
532.65	32847.08
532.82	32823.67
532.99	32587.28
533.16	32779.20
533.33	32959.42
533.50	33490.73
533.67	33371.36
533.84	32797.93
534.01	33003.89
534.18	33144.33
534.35	33280.08
534.52	33120.92
534.69	33727.12
534.86	33563.28
535.03	33233.27
535.20	33369.02
535.37	33731.80
535.54	33415.83
535.71	33354.97
535.88	33706.05
536.05	33586.69
536.22	34122.67
536.38	34330.98
536.55	33947.13
536.72	34260.76
536.89	33603.07
537.06	34089.90
537.23	34497.16
537.40	34040.75
537.57	34424.60
537.74	34017.35
537.91	34270.12
538.08	34520.56
538.25	33928.41
538.42	34675.04
538.59	34415.24
538.75	34534.60
538.92	34614.18
539.09	34471.41
539.26	34586.10
539.43	34649.29
539.60	34686.74
539.77	35035.48
539.94	35201.66
540.11	34991.01
540.28	35075.27
540.44	35026.12
540.61	35164.21
540.78	35292.94
540.95	35061.22
541.12	35622.95
541.29	35379.54
541.46	35318.68
541.62	35131.44
541.79	35730.62
541.96	35365.49
542.13	35416.99
542.30	35885.09
542.47	35875.73
542.63	35475.50
542.80	35901.48
542.97	36025.53
543.14	36271.28
543.31	35608.91
543.48	35967.01
543.64	36222.13
543.81	36355.54
543.98	36620.02
544.15	36423.42
544.32	36411.71
544.48	36563.85
544.65	36210.43
544.82	36191.70
544.99	36437.46
545.16	36318.09
545.32	36634.06
545.49	37141.96
545.66	37371.33
545.83	37811.35
546.00	37017.91
546.16	36325.11
546.33	36552.15
546.50	36205.75
546.67	36837.69
546.83	36503.00
547.00	36865.78
547.17	36907.91
547.34	36858.76
547.50	36758.11
547.67	37067.06
547.84	36762.79
548.00	37102.17
548.17	37099.83
548.34	36917.27
548.51	37038.98
548.67	37280.05
548.84	36978.12
549.01	37013.23
549.18	36926.63
549.34	37106.85
549.51	36968.76
549.68	37237.92
549.84	37179.41
550.01	37116.22
550.18	37429.85
550.34	37883.91
550.51	37331.54
550.68	37291.76
550.84	37397.08
551.01	37399.42
551.18	36786.20
551.34	37284.73
551.51	37067.06
551.68	37553.90
551.84	37497.72
552.01	37687.31
552.18	37841.78
552.34	37397.08
552.51	37881.57
552.68	37125.58
552.84	37860.51
553.01	37495.38
553.18	37879.23
553.34	37755.18
553.51	38059.45
553.67	37837.10
553.84	38052.43
554.01	37940.08
554.17	38012.64
554.34	37881.57
554.51	38260.74
554.67	37872.21
554.84	37694.33
555.00	38007.96
555.17	37916.68
555.33	38120.31
555.50	37963.49
555.67	38314.57
555.83	38389.47
556.00	38291.16
556.16	38588.41
556.33	37886.25
556.50	38209.25
556.66	38515.86
556.83	38204.56
556.99	38955.88
557.16	38345.00
557.32	38553.30
557.49	38464.36
557.65	37937.74
557.82	38209.25
557.98	38419.89
558.15	38672.67
558.32	38447.98
558.48	38279.46
558.65	38316.91
558.81	38649.27
558.98	38686.71
559.14	38536.92
559.31	38160.09
559.47	38518.20
559.64	38560.33
559.80	38752.25
559.97	38876.30
560.13	38869.28
560.30	38932.47
560.46	39005.03
560.63	38934.81
560.79	38873.96
560.96	39166.52
561.12	38511.17
561.29	39040.14
561.45	38958.22
561.61	38939.49
561.78	39086.95
561.94	38822.47
562.11	39208.65
562.27	38913.75
562.44	39047.16
562.60	39531.65
562.77	39009.71
562.93	38728.84
563.10	39002.69
563.26	39269.51
563.42	39445.05
563.59	39311.64
563.75	39543.35
563.92	39295.25
564.08	39292.91
564.24	39210.99
564.41	39576.12
564.57	39180.57
564.74	39178.23
564.90	39295.25
565.07	39440.37
565.23	39459.09
565.39	39269.51
565.56	39431.01
565.72	39161.84
565.88	39105.67
566.05	39372.49
566.21	39241.42
566.38	39023.75
566.54	39222.70
566.70	39798.47
566.87	39697.83
567.03	39772.72
567.19	39917.84
567.36	39304.62
567.52	38930.13
567.68	39866.34
567.85	38937.15
568.01	39725.91
568.17	39721.23
568.34	39735.27
568.50	39505.90
568.66	39618.25
568.83	39826.56
568.99	39442.71
569.15	39861.66
569.32	39805.49
569.48	38930.13
569.64	39566.76
569.81	39461.43
569.97	39440.37
570.13	39665.06
570.30	39955.29
570.46	40072.31
570.62	39335.04
570.78	39299.94
570.95	39648.68
571.11	40350.84
571.27	39845.28
571.43	39185.25
571.60	39875.71
571.76	39634.63
571.92	40076.99
572.09	39721.23
572.25	39777.40
572.41	40009.12
572.57	40025.50
572.74	39931.88
572.90	39721.23
573.06	39948.26
573.22	39803.15
573.38	40065.29
573.55	39950.60
573.71	40477.22
573.87	40116.78
574.03	39798.47
574.20	39988.05
574.36	39402.92
574.52	39976.35
574.68	39728.25
574.84	39878.05
575.01	40165.93
575.17	39709.53
575.33	39786.77
575.49	39735.27
575.65	40109.76
575.82	40179.98
575.98	39992.73
576.14	40196.36
576.30	40048.91
576.46	39971.67
576.62	40060.61
576.79	40023.16
576.95	39861.66
577.11	40112.10
577.27	40453.82
577.43	40058.27
577.59	39924.86
577.75	40385.94
577.92	39882.73
578.08	40121.46
578.24	39765.70
578.40	40271.26
578.56	40409.35
578.72	39983.37
578.88	40285.30
579.04	40271.26
579.21	40479.57
579.37	40432.75
579.53	40374.24
579.69	40177.64
579.85	40329.77
580.01	40039.54
580.17	40025.50
580.33	40278.28
580.49	39983.37
580.65	40301.68
580.82	40414.03
580.98	40044.23
581.14	40285.30
581.30	40617.66
581.46	40282.96
581.62	40231.47
581.78	40212.74
581.94	40236.15
582.10	40163.59
582.26	40325.09
582.42	40460.84
582.58	40762.77
582.74	40259.55
582.90	40783.83
583.06	40294.66
583.22	40254.87
583.38	40313.39
583.54	40378.92
583.70	40638.72
583.86	40058.27
584.02	40264.24
584.18	40053.59
584.34	40505.31
584.50	40620.00
584.66	40374.24
584.82	40233.81
584.98	40629.36
585.14	40704.26
585.30	39665.06
585.46	40119.12
585.62	40395.31
585.78	40154.23
585.94	39952.94
586.10	40018.48
586.26	40170.61
586.42	40741.71
586.58	40542.76
586.74	40605.95
586.90	39920.18
587.06	40156.57
587.22	40669.15
587.38	40133.17
587.54	40662.13
587.70	40608.29
587.86	40748.73
588.02	40563.82
588.18	41034.27
588.34	40362.54
588.49	40266.58
588.65	40577.87
588.81	40030.18
588.97	40500.63
589.13	40425.73
589.29	40594.25
589.45	40566.16
589.61	40542.76
589.77	40800.22
589.93	40484.25
590.08	40811.92
590.24	40715.96
590.40	40744.05
590.56	40973.42
590.72	40914.90
590.88	40428.07
591.04	40278.28
