SpectraSuite Data File
++++++++++++++++++++++++++++++++++++
Date: Fri Oct 04 11:39:39 GMT-05:00 2013
User: price-jones
Dark Spectrum Present: No
Reference Spectrum Present: No
Number of Sampled Component Spectra: 1
Spectrometers: USB2+H05261
Integration Time (usec): 100000 (USB2+H05261)
Spectra Averaged: 1 (USB2+H05261)
Boxcar Smoothing: 0 (USB2+H05261)
Correct for Electrical Dark: No (USB2+H05261)
Strobe/Lamp Enabled: No (USB2+H05261)
Correct for Detector Non-linearity: No (USB2+H05261)
Correct for Stray Light: No (USB2+H05261)
Number of Pixels in Processed Spectrum: 2048
>>>>>Begin Processed Spectral Data<<<<<
365.73	93.62
365.92	93.62
366.12	93.62
366.32	0.00
366.52	4.68
366.72	0.00
366.91	0.00
367.11	4.68
367.31	0.00
367.51	0.00
367.70	0.00
367.90	63.19
368.10	0.00
368.30	0.00
368.49	0.00
368.69	0.00
368.89	51.49
369.09	0.00
369.28	0.00
369.48	0.00
369.68	0.00
369.87	63.19
370.07	28.09
370.27	105.32
370.47	70.22
370.66	182.56
370.86	250.44
371.06	315.97
371.25	292.57
371.45	250.44
371.65	290.23
371.84	205.97
372.04	262.14
372.24	290.23
372.44	262.14
372.63	301.93
372.83	367.46
373.03	271.50
373.22	318.31
373.42	341.72
373.62	367.46
373.81	290.23
374.01	276.18
374.21	372.15
374.40	311.29
374.60	376.83
374.79	322.99
374.99	367.46
375.19	327.68
375.38	404.91
375.58	351.08
375.78	372.15
375.97	273.84
376.17	304.27
376.37	294.91
376.56	449.38
376.76	301.93
376.95	269.16
377.15	390.87
377.35	449.38
377.54	400.23
377.74	414.27
377.93	283.20
378.13	416.62
378.33	456.40
378.52	418.96
378.72	351.08
378.91	421.30
379.11	404.91
379.31	402.57
379.50	435.34
379.70	449.38
379.89	486.83
380.09	418.96
380.28	388.53
380.48	386.19
380.68	393.21
380.87	456.40
381.07	433.00
381.26	421.30
381.46	409.59
381.65	472.79
381.85	372.15
382.04	332.36
382.24	454.06
382.43	433.00
382.63	528.96
382.83	447.04
383.02	479.81
383.22	486.83
383.41	386.19
383.61	470.45
383.80	433.00
384.00	470.45
384.19	442.36
384.39	404.91
384.58	456.40
384.78	451.72
384.97	468.11
385.17	447.04
385.36	442.36
385.56	486.83
385.75	449.38
385.95	447.04
386.14	425.98
386.34	479.81
386.53	484.49
386.72	479.81
386.92	578.11
387.11	533.64
387.31	491.51
387.50	456.40
387.70	512.58
387.89	545.34
388.09	493.85
388.28	524.28
388.48	489.17
388.67	596.84
388.86	557.05
389.06	533.64
389.25	547.69
389.45	517.26
389.64	566.41
389.84	477.47
390.03	681.10
390.22	601.52
390.42	545.34
390.61	596.84
390.81	585.13
391.00	531.30
391.19	638.97
391.39	578.11
391.58	641.31
391.78	627.26
391.97	671.73
392.16	631.94
392.36	631.94
392.55	697.48
392.75	671.73
392.94	620.24
393.13	587.47
393.33	615.56
393.52	683.44
393.71	716.20
393.91	739.61
394.10	676.41
394.29	678.76
394.49	702.16
394.68	734.93
394.88	648.33
395.07	755.99
395.26	732.59
395.46	648.33
395.65	744.29
395.84	819.19
396.04	840.25
396.23	755.99
396.42	835.57
396.62	798.12
396.81	870.68
397.00	903.45
397.19	739.61
397.39	819.19
397.58	835.57
397.77	858.98
397.97	793.44
398.16	840.25
398.35	795.78
398.55	889.40
398.74	873.02
398.93	926.85
399.12	821.53
399.32	856.64
399.51	821.53
399.70	929.19
399.90	910.47
400.09	961.96
400.28	924.51
400.47	976.00
400.67	1029.84
400.86	1008.77
401.05	1011.11
401.24	1032.18
401.44	1013.45
401.63	1060.26
401.82	1022.81
402.01	1060.26
402.21	1130.48
402.40	990.05
402.59	1238.14
402.78	1067.28
402.97	1144.52
403.17	1100.05
403.36	1076.65
403.55	1186.65
403.74	1163.25
403.93	1331.76
404.13	1294.32
404.32	1315.38
404.51	1275.59
404.70	1341.13
404.89	1303.68
405.09	1355.17
405.28	1226.44
405.47	1317.72
405.66	1338.79
405.85	1427.73
406.05	1343.47
406.24	1383.26
406.43	1376.24
406.62	1310.70
406.81	1474.54
407.00	1434.75
407.20	1357.51
407.39	1390.28
407.58	1530.71
407.77	1467.52
407.96	1542.41
408.15	1540.07
408.34	1511.99
408.54	1504.96
408.73	1519.01
408.92	1561.14
409.11	1542.41
409.30	1678.16
409.49	1706.25
409.68	1666.46
409.87	1666.46
410.07	1717.95
410.26	1678.16
410.45	1832.64
410.64	1811.57
410.83	1813.92
411.02	1783.49
411.21	1839.66
411.40	1860.73
411.59	1926.26
411.78	1863.07
411.98	1973.07
412.17	1977.75
412.36	1928.60
412.55	1959.03
412.74	2017.54
412.93	2012.86
413.12	2008.18
413.31	2165.00
413.50	2038.61
413.69	2146.27
413.88	2239.89
414.07	2174.36
414.26	2204.78
414.45	2249.25
414.64	2223.51
414.83	2333.51
415.02	2314.79
415.22	2370.96
415.41	2420.11
415.60	2385.01
415.79	2427.14
415.98	2478.63
416.17	2602.68
416.36	2504.37
416.55	2518.42
416.74	2562.89
416.93	2553.52
417.12	2626.08
417.31	2644.81
417.50	2670.55
417.69	2722.04
417.88	2738.43
418.07	2675.23
418.26	2724.38
418.45	2768.85
418.64	2904.60
418.83	2853.11
419.02	2806.30
419.21	2956.10
419.39	2895.24
419.58	2874.18
419.77	2949.08
419.96	2874.18
420.15	3030.99
420.34	2977.16
420.53	3023.97
420.72	3056.74
420.91	3070.78
421.10	3124.62
421.29	3187.81
421.48	3162.06
421.67	3225.26
421.86	3169.09
422.05	3197.17
422.24	3211.22
422.43	3122.27
422.61	3229.94
422.80	3356.33
422.99	3330.58
423.18	3361.01
423.37	3412.50
423.56	3274.41
423.75	3232.28
423.94	3248.66
424.13	3103.55
424.32	3208.87
424.50	3344.63
424.69	3471.01
424.88	3337.60
425.07	3267.39
425.26	3267.39
425.45	3307.18
425.64	3382.07
425.83	3302.50
426.01	3346.97
426.20	3398.46
426.39	3246.32
426.58	3438.25
426.77	3487.40
426.96	3412.50
427.15	3447.61
427.33	3503.78
427.52	3480.38
427.71	3522.51
427.90	3407.82
428.09	3606.77
428.28	3630.17
428.46	3499.10
428.65	3499.10
428.84	3686.34
429.03	3707.41
429.22	3566.98
429.40	3772.94
429.59	3824.44
429.78	3609.11
429.97	3536.55
430.16	3733.15
430.34	3772.94
430.53	3932.10
430.72	3805.71
430.91	3845.50
431.10	3882.95
431.28	3779.97
431.47	3880.61
431.66	3988.27
431.85	3866.56
432.03	4070.19
432.22	4102.96
432.41	4224.67
432.60	4196.58
432.79	3990.61
432.97	4128.70
433.16	4007.00
433.35	4168.49
433.54	3985.93
433.72	4189.56
433.91	4149.77
434.10	4109.98
434.28	3969.55
434.47	4227.01
434.66	4173.18
434.85	4280.84
435.03	4292.54
435.22	4510.21
435.41	4762.99
435.59	4809.80
435.78	4589.79
435.97	4540.64
436.16	4358.08
436.34	4535.96
436.53	4468.08
436.72	4566.39
436.90	4482.13
437.09	4638.94
437.28	4369.78
437.46	4388.50
437.65	4507.87
437.84	4777.03
438.02	4547.66
438.21	4690.43
438.40	4594.47
438.58	4781.71
438.77	4669.37
438.96	4723.20
439.14	4730.22
439.33	4835.55
439.52	4922.15
439.70	5071.94
439.89	4926.83
440.08	5050.88
440.26	4999.38
440.45	5125.77
440.63	5036.83
440.82	5207.69
441.01	5132.79
441.19	5069.60
441.38	5233.44
441.57	5324.72
441.75	5331.74
441.94	5327.06
442.12	5348.12
442.31	5516.64
442.50	5434.72
442.68	5490.90
442.87	5364.51
443.05	5483.88
443.24	5561.11
443.43	5387.91
443.61	5514.30
443.80	5837.30
443.98	5537.71
444.17	5425.36
444.35	5675.80
444.54	5640.69
444.73	5804.53
444.91	5671.12
445.10	5657.07
445.28	5542.39
445.47	5423.02
445.65	5621.97
445.84	5823.25
446.02	5841.98
446.21	5717.93
446.39	5760.06
446.58	5799.85
446.77	5771.76
446.95	5518.98
447.14	5760.06
447.32	5879.43
447.51	5776.44
447.69	5849.00
447.88	5727.29
448.06	5795.17
448.25	5830.27
448.43	5802.19
448.62	5881.77
448.80	5811.55
448.99	5790.49
449.17	6015.18
449.36	5767.08
449.54	5966.03
449.73	6022.20
449.91	6015.18
450.10	6033.90
450.28	6216.46
450.46	6118.16
450.65	6141.57
450.83	6202.42
451.02	6193.06
451.20	6267.95
451.39	6274.98
451.57	6078.37
451.76	6188.38
451.94	6193.06
452.13	6321.79
452.31	6384.98
452.49	6157.95
452.68	6387.32
452.86	6443.49
453.05	6258.59
453.23	6335.83
453.42	6417.75
453.60	6375.62
453.78	6415.41
453.97	6221.14
454.15	6459.88
454.34	6436.47
454.52	6647.12
454.70	6574.56
454.89	6775.85
455.07	6551.16
455.26	6691.59
455.44	6862.45
455.62	6656.48
455.81	6588.61
455.99	6724.36
456.17	6895.22
456.36	6719.68
456.54	6651.80
456.73	6956.07
456.91	7059.06
457.09	7016.93
457.28	7056.72
457.46	6909.26
457.64	7061.40
457.83	7077.78
458.01	7007.56
458.19	7218.21
458.38	7171.40
458.56	7339.92
458.74	7176.08
458.93	7117.57
459.11	7227.57
459.29	7218.21
459.48	7295.45
459.66	7304.81
459.84	7468.65
460.03	7492.05
460.21	7389.07
460.39	7604.40
460.57	7239.28
460.76	7417.16
460.94	7339.92
461.12	7602.06
461.31	7569.29
461.49	7461.63
461.67	7592.70
461.85	7648.87
462.04	7674.62
462.22	7707.38
462.40	7655.89
462.59	7850.16
462.77	7709.72
462.95	7726.11
463.13	7723.77
463.32	7791.64
463.50	7990.59
463.68	7911.01
463.86	7913.35
464.05	7763.56
464.23	7812.71
464.41	8028.04
464.59	7824.41
464.78	8088.89
464.96	7948.46
465.14	8184.85
465.32	8257.41
465.50	8248.05
465.69	8229.32
465.87	7819.73
466.05	8105.28
466.23	8074.85
466.41	8095.91
466.60	8351.03
466.78	8060.80
466.96	8138.04
467.14	8238.69
467.32	8404.86
467.51	8360.39
467.69	8344.01
467.87	8219.96
468.05	8372.10
468.23	8414.23
468.41	8465.72
468.60	8454.02
468.78	8388.48
468.96	8547.64
469.14	8561.68
469.32	8568.70
469.50	8276.13
469.69	8664.66
469.87	8575.72
470.05	8617.85
470.23	8650.62
470.41	8585.08
470.59	8945.53
470.77	8809.78
470.95	8835.52
471.14	9074.26
471.32	8999.36
471.50	9095.32
471.68	9043.83
471.86	9034.47
472.04	9025.11
472.22	9348.10
472.40	9064.89
472.58	9334.06
472.77	9095.32
472.95	9635.99
473.13	9535.34
473.31	9273.20
473.49	9329.38
473.67	9619.60
473.85	9511.94
474.03	9415.98
474.21	9535.34
474.39	9652.37
474.57	9921.53
474.75	10094.73
474.93	9907.49
475.12	9839.61
475.30	10031.54
475.48	10087.71
475.66	10071.33
475.84	10054.94
476.02	10188.35
476.20	10160.27
476.38	10256.23
476.56	10670.50
476.74	10597.95
476.92	10483.26
477.10	10586.24
477.28	10726.68
477.46	10796.89
477.64	10815.62
477.82	11112.86
478.00	11487.35
478.18	11096.48
478.36	11318.83
478.54	11473.31
478.72	11452.24
478.90	11431.18
479.08	11480.33
479.26	11477.99
479.44	11517.78
479.62	11817.36
479.80	11754.17
479.98	11974.18
480.16	12088.87
480.34	12208.23
480.52	12163.76
480.70	12248.02
480.88	12233.98
481.06	12287.81
481.24	12299.52
481.41	12500.80
481.59	12657.62
481.77	12659.96
481.95	12725.49
482.13	13043.81
482.31	12959.55
482.49	13434.68
482.67	13109.34
482.85	13511.91
483.03	13687.45
483.21	13652.34
483.39	13853.63
483.57	13675.75
483.74	13675.75
483.92	13965.98
484.10	14019.81
484.28	14033.85
484.46	14349.82
484.64	14497.28
484.82	14506.64
485.00	14642.39
485.18	15103.48
485.35	14927.94
485.53	15147.95
485.71	15101.14
485.89	15351.57
486.07	15281.36
486.25	15566.90
486.43	15800.96
486.61	15632.44
486.78	15995.22
486.96	16025.65
487.14	16079.48
487.32	16231.62
487.50	16442.26
487.68	16287.79
487.85	16533.54
488.03	16697.38
488.21	16837.81
488.39	16968.88
488.57	16858.88
488.75	17270.81
488.92	17724.88
489.10	17458.06
489.28	17605.51
489.46	18059.57
489.64	17987.02
489.81	18200.01
489.99	18340.44
490.17	17762.33
490.35	18052.55
490.53	18466.83
490.70	18675.13
490.88	18604.92
491.06	18869.40
491.24	18923.23
491.41	19089.41
491.59	19307.08
491.77	19098.77
491.95	19349.21
492.13	19330.48
492.30	19784.55
492.48	19545.81
492.66	19536.45
492.84	19487.30
493.01	19922.64
493.19	19814.98
493.37	20320.53
493.54	20547.56
493.72	20400.11
493.90	20540.54
494.08	20582.67
494.25	21022.69
494.43	21102.27
494.61	21137.38
494.79	21149.08
494.96	21233.34
495.14	21392.50
495.32	21628.89
495.49	21757.62
495.67	21935.50
495.85	21778.68
496.02	22174.24
496.20	21902.73
496.38	22260.84
496.55	22047.85
496.73	22567.45
496.91	22902.14
497.09	22752.35
497.26	22890.44
497.44	22686.81
497.62	22527.66
497.79	23314.08
497.97	23009.81
498.14	23494.30
498.32	23576.22
498.50	23791.55
498.67	23917.93
498.85	23784.52
499.03	23873.46
499.20	23807.93
499.38	24166.03
499.56	24177.73
499.73	24535.84
499.91	24250.29
500.08	24460.94
500.26	24409.45
500.44	24552.22
500.61	24325.19
500.79	24716.06
500.97	25130.33
501.14	25167.78
501.32	25312.89
501.49	24924.36
501.67	25039.05
501.84	25078.84
502.02	25378.43
502.20	25832.49
502.37	25429.92
502.55	25795.04
502.72	25797.38
502.90	25591.42
503.07	25745.89
503.25	25914.41
503.43	25797.38
503.60	25720.15
503.78	26108.68
503.95	26176.55
504.13	26199.96
504.30	26331.03
504.48	26579.12
504.65	26464.44
504.83	26705.51
505.01	26665.72
505.18	26859.99
505.36	27103.40
505.53	26878.71
505.71	26965.31
505.88	27117.45
506.06	26909.14
506.23	27264.90
506.41	27613.64
506.58	27491.93
506.76	27161.92
506.93	27452.14
507.11	27747.05
507.28	27391.29
507.46	27665.13
507.63	28215.16
507.81	28278.35
507.98	28086.43
508.16	28039.62
508.33	28215.16
508.50	28362.61
508.68	28381.34
508.85	28751.14
509.03	28395.38
509.20	28678.58
509.38	28933.70
509.55	29273.08
509.73	29266.06
509.90	28802.63
510.08	29046.05
510.25	28891.57
510.42	29380.74
510.60	29575.01
510.77	29694.38
510.95	29790.34
511.12	29436.92
511.30	29656.93
511.47	29954.18
511.64	30010.35
511.82	30237.38
511.99	30230.36
512.17	30525.27
512.34	30120.35
512.51	30473.78
512.69	30506.54
512.86	30787.41
513.04	30780.39
513.21	30733.57
513.38	30855.28
513.56	30426.96
513.73	30464.41
513.90	30904.43
514.08	30738.26
514.25	31019.12
514.43	31115.08
514.60	31068.27
514.77	31077.63
514.95	30988.69
515.12	31356.16
515.29	31147.85
515.47	31206.36
515.64	31934.27
515.81	31246.15
515.99	31852.35
516.16	31943.63
516.33	31913.20
516.51	32236.20
516.68	32060.66
516.85	32247.90
517.03	31803.20
517.20	32566.21
517.37	32341.52
517.54	32446.85
517.72	32622.39
517.89	32287.69
518.06	32435.14
518.24	32474.93
518.41	32409.40
518.58	32884.53
518.75	32699.62
518.93	32746.44
519.10	32868.14
519.27	33003.89
519.45	33010.92
519.62	33614.77
519.79	32966.45
519.96	33036.66
520.14	33333.91
520.31	33539.88
520.48	33759.89
520.65	33628.82
520.83	33975.22
521.00	34117.99
521.17	33717.76
521.34	34064.16
521.52	34270.12
521.69	34033.73
521.86	34508.86
522.03	34412.90
522.20	33923.72
522.38	34150.76
522.55	34506.52
522.72	34637.59
522.89	34359.06
523.07	34801.43
523.24	34881.00
523.41	34892.71
523.58	34892.71
523.75	34953.56
523.92	34672.70
524.10	34918.45
524.27	35042.50
524.44	35323.36
524.61	35477.84
524.78	35297.62
524.96	35346.77
525.13	35016.75
525.30	35325.71
525.47	35817.22
525.64	35517.63
525.81	35665.08
525.98	35931.90
526.16	35868.71
526.33	35672.10
526.50	36442.14
526.67	35702.53
526.84	35807.86
527.01	35761.05
527.18	35967.01
527.36	36156.60
527.53	36421.08
527.70	36828.33
527.87	36388.31
528.04	36240.86
528.21	36720.66
528.38	36346.18
528.55	36402.35
528.72	36713.64
528.89	36552.15
529.07	36624.70
529.24	36053.61
529.41	36924.29
529.58	36556.83
529.75	36882.16
529.92	36945.36
530.09	37134.94
530.26	37221.54
530.43	37156.00
530.60	37130.26
530.77	37003.87
530.94	37406.44
531.11	36912.59
531.28	37528.15
531.46	37626.45
531.63	37542.19
531.80	37633.47
531.97	37956.47
532.14	38122.65
532.31	37535.17
532.48	37790.29
532.65	37823.06
532.82	37806.67
532.99	38012.64
533.16	37935.40
533.33	37764.54
533.50	38295.85
533.67	38305.21
533.84	37893.27
534.01	37916.68
534.18	37839.44
534.35	38375.42
534.52	38176.48
534.69	38455.00
534.86	38799.06
535.03	38810.76
535.20	38855.23
535.37	38967.58
535.54	38726.50
535.71	38246.69
535.88	38731.18
536.05	38754.59
536.22	38859.91
536.38	38939.49
536.55	38691.40
536.72	39229.72
536.89	38731.18
537.06	39278.87
537.23	39103.33
537.40	39096.31
537.57	39119.71
537.74	39288.23
537.91	39517.60
538.08	39402.92
538.25	39587.82
538.42	39470.79
538.59	39466.11
538.75	39555.05
538.92	39473.13
539.09	39739.96
539.26	39412.28
539.43	39798.47
539.60	39789.11
539.77	39496.54
539.94	40123.80
540.11	39931.88
540.28	39929.54
540.44	40135.51
540.61	40416.37
540.78	40065.29
540.95	40250.19
541.12	40205.72
541.29	40402.33
541.46	40563.82
541.62	40559.14
541.79	40779.15
541.96	39765.70
542.13	40554.46
542.30	40392.97
542.47	41146.62
542.63	41109.17
542.80	41427.48
542.97	41387.69
543.14	41490.68
543.31	41081.08
543.48	41031.93
543.64	41235.56
543.81	41446.21
543.98	41177.04
544.15	41500.04
544.32	41357.27
544.48	41818.35
544.65	41497.70
544.82	41123.21
544.99	41696.64
545.16	41478.97
545.32	41050.66
545.49	42747.54
545.66	43058.84
545.83	42873.93
546.00	42534.56
546.16	42398.80
546.33	41801.97
546.50	41141.94
546.67	41432.16
546.83	41385.35
547.00	41673.24
547.17	41907.29
547.34	42223.26
547.50	42211.56
547.67	42026.66
547.84	42038.36
548.00	41832.39
548.17	41862.82
548.34	41961.12
548.51	42169.43
548.67	42108.58
548.84	42532.22
549.01	42380.08
549.18	42267.73
549.34	41900.27
549.51	42167.09
549.68	42237.31
549.84	42314.55
550.01	41865.16
550.18	42452.64
550.34	42494.77
550.51	42541.58
550.68	42674.99
550.84	42302.84
551.01	42438.59
551.18	42047.72
551.34	42227.95
551.51	42412.85
551.68	42569.66
551.84	42794.36
552.01	42705.41
552.18	42642.22
552.34	42506.47
552.51	42794.36
552.68	42178.79
552.84	42667.97
553.01	42817.76
553.18	42429.23
553.34	42862.23
553.51	43023.73
553.67	43070.54
553.84	43103.31
554.01	42703.07
554.17	43171.18
554.34	42909.04
554.51	43016.71
554.67	43122.03
554.84	42876.27
555.00	42906.70
555.17	43063.52
555.33	43152.46
555.50	42885.64
555.67	43000.32
555.83	43332.68
556.00	42946.49
556.16	43494.18
556.33	43433.32
556.50	43189.91
556.66	43456.73
556.83	42923.08
556.99	43599.50
557.16	43370.13
557.32	43379.49
557.49	43653.33
557.65	43044.79
557.82	43274.16
557.98	42838.83
558.15	43402.89
558.32	43735.25
558.48	43316.29
558.65	43728.23
558.81	43744.61
558.98	43796.10
559.14	43594.82
559.31	43318.64
559.47	43969.30
559.64	43672.06
559.80	43185.22
559.97	43777.38
560.13	43445.02
560.30	43430.98
560.46	43470.77
560.63	44044.20
560.79	43746.95
560.96	43318.64
561.12	43372.47
561.29	43763.34
561.45	43753.97
561.61	44191.65
561.78	43875.68
561.94	44163.57
562.11	44020.80
562.27	43533.96
562.44	43805.47
562.60	44037.18
562.77	43480.13
562.93	43896.75
563.10	44161.23
563.26	43945.90
563.42	44257.19
563.59	44081.65
563.75	44088.67
563.92	43536.30
564.08	43971.64
564.24	43969.30
564.41	44189.31
564.57	44315.70
564.74	43672.06
564.90	44238.47
565.07	44453.79
565.23	44062.93
565.39	43901.43
565.56	44072.29
565.72	44060.58
565.88	43990.37
566.05	43981.01
566.21	44165.91
566.38	43580.78
566.54	43896.75
566.70	44339.11
566.87	44275.91
567.03	44109.74
567.19	44655.08
567.36	44053.56
567.52	43950.58
567.68	44250.17
567.85	44060.58
568.01	44051.22
568.17	44055.90
568.34	44257.19
568.50	44055.90
568.66	44704.23
568.83	44486.56
568.99	44353.15
569.15	44226.76
569.32	43704.82
569.48	44322.72
569.64	43880.36
569.81	43976.33
569.97	44128.46
570.13	44058.24
570.30	43868.66
570.46	44533.37
570.62	44215.06
570.78	44226.76
570.95	44215.06
571.11	44219.74
571.27	43721.21
571.43	44004.41
571.60	44463.16
571.76	44437.41
571.92	44552.10
572.09	44493.58
572.25	44416.35
572.41	44655.08
572.57	44311.02
572.74	44243.15
572.90	44392.94
573.06	44645.72
573.22	43899.09
573.38	44442.09
573.55	44065.27
573.71	44917.22
573.87	44554.44
574.03	44509.97
574.20	44027.82
574.36	44179.95
574.52	44027.82
574.68	44240.81
574.84	44086.33
575.01	44741.68
575.17	44444.43
575.33	44418.69
575.49	44222.08
575.65	44325.07
575.82	44439.75
575.98	44313.36
576.14	44769.77
576.30	44793.17
576.46	44390.60
576.62	44594.23
576.79	44570.82
576.95	44210.38
577.11	44734.66
577.27	44406.98
577.43	44678.49
577.59	44292.30
577.75	44299.32
577.92	44151.87
578.08	44280.60
578.24	44165.91
578.40	44346.13
578.56	44545.08
578.72	44725.30
578.88	45174.68
579.04	45151.27
579.21	44334.43
579.37	44676.15
579.53	44559.12
579.69	44531.03
579.85	44385.92
580.01	44687.85
580.17	44414.01
580.33	44058.24
580.49	44392.94
580.65	44547.42
580.82	44634.02
580.98	44603.59
581.14	44437.41
581.30	44947.65
581.46	43990.37
581.62	44313.36
581.78	44189.31
581.94	44762.75
582.10	44306.34
582.26	44746.36
582.42	44626.99
582.58	44879.77
582.74	44608.27
582.90	44247.83
583.06	44533.37
583.22	44205.70
583.38	44608.27
583.54	44313.36
583.70	44893.82
583.86	44533.37
584.02	44074.63
584.18	44949.99
584.34	44718.28
584.50	44737.00
584.66	44402.30
584.82	44528.69
584.98	44491.24
585.14	44566.14
585.30	44105.06
585.46	44744.02
585.62	44121.44
585.78	44350.81
585.94	44552.10
586.10	44884.45
586.26	44622.31
586.42	44477.20
586.58	44779.13
586.74	44493.58
586.90	44428.05
587.06	44470.18
587.22	44762.75
587.38	44027.82
587.54	44947.65
587.70	44835.30
587.86	44369.54
588.02	44570.82
588.18	44729.98
588.34	44493.58
588.49	44582.52
588.65	44215.06
588.81	44664.44
588.97	44687.85
589.13	44603.59
589.29	44711.25
589.45	44524.01
589.61	44697.21
589.77	44903.18
589.93	45017.86
590.08	45141.91
590.24	45045.95
590.40	44739.34
590.56	44769.77
590.72	44610.61
590.88	44133.14
