SpectraSuite Data File
++++++++++++++++++++++++++++++++++++
Date: Fri Oct 04 11:39:11 GMT-05:00 2013
User: price-jones
Dark Spectrum Present: No
Reference Spectrum Present: No
Number of Sampled Component Spectra: 1
Spectrometers: USB2+H05261
Integration Time (usec): 100000 (USB2+H05261)
Spectra Averaged: 1 (USB2+H05261)
Boxcar Smoothing: 0 (USB2+H05261)
Correct for Electrical Dark: No (USB2+H05261)
Strobe/Lamp Enabled: No (USB2+H05261)
Correct for Detector Non-linearity: No (USB2+H05261)
Correct for Stray Light: No (USB2+H05261)
Number of Pixels in Processed Spectrum: 2048
>>>>>Begin Processed Spectral Data<<<<<
365.73	32.77
365.92	32.77
366.12	32.77
366.32	0.00
366.52	0.00
366.72	0.00
366.91	0.00
367.11	0.00
367.31	0.00
367.51	0.00
367.70	0.00
367.90	0.00
368.10	0.00
368.30	0.00
368.49	2.34
368.69	0.00
368.89	0.00
369.09	0.00
369.28	7.02
369.48	0.00
369.68	0.00
369.87	0.00
370.07	0.00
370.27	14.04
370.47	0.00
370.66	74.90
370.86	51.49
371.06	88.94
371.25	110.01
371.45	53.83
371.65	135.75
371.84	110.01
372.04	79.58
372.24	124.05
372.44	133.41
372.63	131.07
372.83	168.52
373.03	170.86
373.22	86.60
373.42	156.82
373.62	147.45
373.81	180.22
374.01	238.73
374.21	182.56
374.40	145.11
374.60	124.05
374.79	180.22
374.99	222.35
375.19	227.03
375.38	140.43
375.58	257.46
375.78	222.35
375.97	126.39
376.17	184.90
376.37	112.35
376.56	191.92
376.76	212.99
376.95	105.32
377.15	215.33
377.35	124.05
377.54	227.03
377.74	140.43
377.93	166.18
378.13	198.95
378.33	142.77
378.52	161.50
378.72	194.26
378.91	147.45
379.11	215.33
379.31	112.35
379.50	140.43
379.70	142.77
379.89	212.99
380.09	210.65
380.28	128.73
380.48	135.75
380.68	112.35
380.87	124.05
381.07	238.73
381.26	234.05
381.46	170.86
381.65	177.88
381.85	255.12
382.04	184.90
382.24	203.63
382.43	152.13
382.63	147.45
382.83	187.24
383.02	196.60
383.22	182.56
383.41	142.77
383.61	138.09
383.80	170.86
384.00	166.18
384.19	203.63
384.39	168.52
384.58	182.56
384.78	177.88
384.97	196.60
385.17	177.88
385.36	133.41
385.56	203.63
385.75	159.16
385.95	161.50
386.14	210.65
386.34	163.84
386.53	208.31
386.72	149.79
386.92	182.56
387.11	189.58
387.31	212.99
387.50	220.01
387.70	229.37
387.89	215.33
388.09	128.73
388.28	159.16
388.48	220.01
388.67	205.97
388.86	264.48
389.06	173.20
389.25	238.73
389.45	205.97
389.64	236.39
389.84	280.86
390.03	220.01
390.22	248.10
390.42	203.63
390.61	196.60
390.81	133.41
391.00	222.35
391.19	194.26
391.39	227.03
391.58	227.03
391.78	121.71
391.97	175.54
392.16	154.48
392.36	294.91
392.55	156.82
392.75	269.16
392.94	201.29
393.13	154.48
393.33	257.46
393.52	217.67
393.71	264.48
393.91	234.05
394.10	210.65
394.29	177.88
394.49	140.43
394.68	283.20
394.88	262.14
395.07	250.44
395.26	243.42
395.46	315.97
395.65	285.55
395.84	252.78
396.04	330.02
396.23	236.39
396.42	280.86
396.62	306.61
396.81	266.82
397.00	234.05
397.19	215.33
397.39	248.10
397.58	227.03
397.77	330.02
397.97	292.57
398.16	238.73
398.35	322.99
398.55	252.78
398.74	266.82
398.93	332.36
399.12	248.10
399.32	266.82
399.51	229.37
399.70	306.61
399.90	248.10
400.09	358.10
400.28	287.89
400.47	276.18
400.67	252.78
400.86	257.46
401.05	269.16
401.24	346.40
401.44	311.29
401.63	337.04
401.82	390.87
402.01	243.42
402.21	315.97
402.40	390.87
402.59	306.61
402.78	297.25
402.97	257.46
403.17	243.42
403.36	348.74
403.55	315.97
403.74	301.93
403.93	313.63
404.13	447.04
404.32	365.12
404.51	376.83
404.70	301.93
404.89	266.82
405.09	301.93
405.28	355.76
405.47	264.48
405.66	306.61
405.85	353.42
406.05	287.89
406.24	285.55
406.43	304.27
406.62	322.99
406.81	353.42
407.00	374.49
407.20	374.49
407.39	308.95
407.58	337.04
407.77	393.21
407.96	411.93
408.15	341.72
408.34	407.25
408.54	348.74
408.73	337.04
408.92	297.25
409.11	437.68
409.30	397.89
409.49	318.31
409.68	351.08
409.87	351.08
410.07	351.08
410.26	435.34
410.45	365.12
410.64	334.70
410.83	388.53
411.02	365.12
411.21	400.23
411.40	475.13
411.59	465.77
411.78	362.78
411.98	425.98
412.17	428.32
412.36	416.62
412.55	421.30
412.74	451.72
412.93	526.62
413.12	414.27
413.31	472.79
413.50	372.15
413.69	411.93
413.88	454.06
414.07	491.51
414.26	512.58
414.45	500.87
414.64	507.90
414.83	482.15
415.02	435.34
415.22	482.15
415.41	470.45
415.60	440.02
415.79	463.43
415.98	531.30
416.17	475.13
416.36	500.87
416.55	465.77
416.74	531.30
416.93	503.22
417.12	543.00
417.31	456.40
417.50	479.81
417.69	594.50
417.88	479.81
418.07	524.28
418.26	566.41
418.45	484.49
418.64	535.98
418.83	526.62
419.02	603.86
419.21	554.71
419.39	587.47
419.58	512.58
419.77	538.32
419.96	524.28
420.15	585.13
420.34	543.00
420.53	610.88
420.72	650.67
420.91	496.19
421.10	650.67
421.29	564.07
421.48	636.63
421.67	571.09
421.86	592.16
422.05	561.73
422.24	610.88
422.43	543.00
422.61	627.26
422.80	589.82
422.99	587.47
423.18	582.79
423.37	641.31
423.56	573.43
423.75	599.18
423.94	470.45
424.13	510.24
424.32	510.24
424.50	671.73
424.69	554.71
424.88	622.58
425.07	606.20
425.26	559.39
425.45	608.54
425.64	538.32
425.83	671.73
426.01	610.88
426.20	704.50
426.39	631.94
426.58	723.23
426.77	636.63
426.96	676.41
427.15	575.77
427.33	629.60
427.52	599.18
427.71	664.71
427.90	657.69
428.09	648.33
428.28	638.97
428.46	606.20
428.65	678.76
428.84	704.50
429.03	674.07
429.22	678.76
429.40	624.92
429.59	634.29
429.78	690.46
429.97	653.01
430.16	650.67
430.34	627.26
430.53	706.84
430.72	723.23
430.91	699.82
431.10	664.71
431.28	732.59
431.47	704.50
431.66	636.63
431.85	718.54
432.03	688.12
432.22	779.40
432.41	681.10
432.60	791.10
432.79	671.73
432.97	737.27
433.16	753.65
433.35	678.76
433.54	662.37
433.72	718.54
433.91	564.07
434.10	669.39
434.28	767.70
434.47	641.31
434.66	716.20
434.85	730.25
435.03	734.93
435.22	887.06
435.41	1153.88
435.59	1121.12
435.78	1027.50
435.97	905.79
436.16	821.53
436.34	746.63
436.53	844.93
436.72	814.51
436.90	734.93
437.09	704.50
437.28	713.86
437.46	819.19
437.65	767.70
437.84	807.48
438.02	788.76
438.21	784.08
438.40	718.54
438.58	835.57
438.77	774.72
438.96	805.14
439.14	718.54
439.33	837.91
439.52	837.91
439.70	828.55
439.89	880.04
440.08	774.72
440.26	840.25
440.45	903.45
440.63	866.00
440.82	915.15
441.01	931.53
441.19	896.43
441.38	891.74
441.57	901.11
441.75	903.45
441.94	936.21
442.12	800.46
442.31	823.87
442.50	985.37
442.68	952.60
442.87	884.72
443.05	959.62
443.24	947.92
443.43	978.34
443.61	877.70
443.80	940.90
443.98	910.47
444.17	912.81
444.35	973.66
444.54	875.36
444.73	933.87
444.91	903.45
445.10	873.02
445.28	915.15
445.47	807.48
445.65	933.87
445.84	924.51
446.02	1025.15
446.21	840.25
446.39	950.26
446.58	917.49
446.77	926.85
446.95	854.30
447.14	985.37
447.32	924.51
447.51	938.55
447.69	943.24
447.88	898.77
448.06	894.08
448.25	950.26
448.43	952.60
448.62	917.49
448.80	884.72
448.99	901.11
449.17	957.28
449.36	896.43
449.54	1027.50
449.73	1022.81
449.91	1060.26
450.10	901.11
450.28	1041.54
450.46	973.66
450.65	1020.47
450.83	917.49
451.02	1022.81
451.20	938.55
451.39	983.02
451.57	992.39
451.76	1034.52
451.94	1111.75
452.13	1013.45
452.31	1029.84
452.49	1046.22
452.68	961.96
452.86	1032.18
453.05	1055.58
453.23	1048.56
453.42	1018.13
453.60	964.30
453.78	1036.86
453.97	976.00
454.15	1013.45
454.34	983.02
454.52	1004.09
454.70	1076.65
454.89	1025.15
455.07	1107.07
455.26	1132.82
455.44	1022.81
455.62	1086.01
455.81	1057.92
455.99	1029.84
456.17	1062.60
456.36	1062.60
456.54	1027.50
456.73	1055.58
456.91	1179.63
457.09	1088.35
457.28	1123.46
457.46	1128.14
457.64	1121.12
457.83	1121.12
458.01	1167.93
458.19	1097.71
458.38	1114.10
458.56	1170.27
458.74	1177.29
458.93	1076.65
459.11	1142.18
459.29	1160.91
459.48	1224.10
459.66	1156.22
459.84	1238.14
460.03	1240.48
460.21	1163.25
460.39	1221.76
460.57	1179.63
460.76	1214.74
460.94	1240.48
461.12	1205.38
461.31	1294.32
461.49	1200.69
461.67	1181.97
461.85	1207.72
462.04	1188.99
462.22	1350.49
462.40	1247.51
462.59	1254.53
462.77	1268.57
462.95	1163.25
463.13	1226.44
463.32	1277.93
463.50	1238.14
463.68	1181.97
463.86	1184.31
464.05	1289.64
464.23	1233.46
464.41	1378.58
464.59	1228.78
464.78	1130.48
464.96	1200.69
465.14	1100.05
465.32	1226.44
465.50	1214.74
465.69	1266.23
465.87	1198.35
466.05	1268.57
466.23	1177.29
466.41	1273.25
466.60	1315.38
466.78	1287.29
466.96	1270.91
467.14	1252.19
467.32	1240.48
467.51	1348.15
467.69	1224.10
467.87	1336.45
468.05	1270.91
468.23	1331.76
468.41	1275.59
468.60	1282.61
468.78	1275.59
468.96	1259.21
469.14	1324.74
469.32	1373.89
469.50	1172.61
469.69	1376.24
469.87	1385.60
470.05	1371.55
470.23	1376.24
470.41	1256.87
470.59	1341.13
470.77	1378.58
470.95	1378.58
471.14	1439.43
471.32	1469.86
471.50	1451.13
471.68	1352.83
471.86	1385.60
472.04	1329.42
472.22	1416.02
472.40	1359.85
472.58	1448.79
472.77	1413.68
472.95	1437.09
473.13	1535.39
473.31	1387.94
473.49	1420.71
473.67	1500.28
473.85	1504.96
474.03	1497.94
474.21	1474.54
474.39	1533.05
474.57	1479.22
474.75	1547.09
474.93	1591.56
475.12	1516.67
475.30	1495.60
475.48	1502.62
475.66	1563.48
475.84	1568.16
476.02	1643.06
476.20	1572.84
476.38	1577.52
476.56	1652.42
476.74	1593.90
476.92	1378.58
477.10	1460.49
477.28	1626.67
477.46	1399.64
477.64	1703.91
477.82	1582.20
478.00	1762.42
478.18	1680.50
478.36	1762.42
478.54	1717.95
478.72	1591.56
478.90	1710.93
479.08	1748.38
479.26	1715.61
479.44	1746.04
479.62	1771.79
479.80	1657.10
479.98	1727.32
480.16	1813.92
480.34	1792.85
480.52	1778.81
480.70	1799.87
480.88	1853.70
481.06	1842.00
481.24	1886.47
481.41	1966.05
481.59	1928.60
481.77	1935.62
481.95	1930.94
482.13	1879.45
482.31	1874.77
482.49	1952.01
482.67	2047.97
482.85	2064.35
483.03	1930.94
483.21	2127.55
483.39	1975.41
483.57	2078.40
483.74	2064.35
483.92	2047.97
484.10	2115.84
484.28	2033.93
484.46	2113.50
484.64	2216.49
484.82	2143.93
485.00	2188.40
485.18	2080.74
485.35	2249.25
485.53	2183.72
485.71	2195.42
485.89	2214.15
486.07	2172.02
486.25	2218.83
486.43	2335.85
486.61	2310.11
486.78	2267.98
486.96	2279.68
487.14	2251.60
487.32	2225.85
487.50	2389.69
487.68	2314.79
487.85	2373.30
488.03	2504.37
488.21	2406.07
488.39	2396.71
488.57	2389.69
488.75	2406.07
488.92	2818.00
489.10	2602.68
489.28	2691.62
489.46	2574.59
489.64	2560.55
489.81	2637.78
489.99	2628.42
490.17	2616.72
490.35	2698.64
490.53	2593.31
490.70	2656.51
490.88	2731.41
491.06	2738.43
491.24	2546.50
491.41	2623.74
491.59	2808.64
491.77	2656.51
491.95	2733.75
492.13	2796.94
492.30	2782.90
492.48	2686.94
492.66	2820.35
492.84	2743.11
493.01	2841.41
493.19	2799.28
493.37	2799.28
493.54	2768.85
493.72	2930.35
493.90	2937.37
494.08	2801.62
494.25	2965.46
494.43	2874.18
494.61	2895.24
494.79	2981.84
494.96	2846.09
495.14	3110.57
495.32	2876.52
495.49	3012.27
495.67	2998.23
495.85	3183.13
496.02	3070.78
496.20	3045.04
496.38	3007.59
496.55	3040.36
496.73	3157.38
496.91	3049.72
497.09	3178.45
497.26	3253.34
497.44	3094.19
497.62	3176.11
497.79	3251.00
497.97	3281.43
498.14	3199.51
498.32	3288.45
498.50	3267.39
498.67	3229.94
498.85	3314.20
499.03	3361.01
499.20	3297.81
499.38	3281.43
499.56	3403.14
499.73	3386.76
499.91	3356.33
500.08	3274.41
500.26	3428.88
500.44	3440.59
500.61	3405.48
500.79	3258.03
500.97	3456.97
501.14	3487.40
501.32	3531.87
501.49	3468.67
501.67	3492.08
501.84	3571.66
502.02	3393.78
502.20	3524.85
502.37	3524.85
502.55	3501.44
502.72	3531.87
502.90	3508.46
503.07	3515.48
503.25	3435.91
503.43	3531.87
503.60	3667.62
503.78	3637.19
503.95	3461.65
504.13	3555.27
504.30	3595.06
504.48	3665.28
504.65	3726.13
504.83	3735.50
505.01	3606.77
505.18	3770.60
505.36	3709.75
505.53	3768.26
505.71	3737.84
505.88	3693.37
506.06	3786.99
506.23	3765.92
506.41	3714.43
506.58	3728.47
506.76	3684.00
506.93	3695.71
507.11	3772.94
507.28	3873.59
507.46	3763.58
507.63	3920.40
507.81	3786.99
507.98	3803.37
508.16	3822.09
508.33	3920.40
508.50	3882.95
508.68	3920.40
508.85	3896.99
509.03	3822.09
509.20	4016.36
509.38	4070.19
509.55	3875.93
509.73	3934.44
509.90	3878.27
510.08	3936.78
510.25	3976.57
510.42	4018.70
510.60	3992.95
510.77	3850.18
510.95	4051.47
511.12	4128.70
511.30	4037.42
511.47	3941.46
511.64	4035.08
511.82	4236.37
511.99	4081.89
512.17	4173.18
512.34	4023.38
512.51	4105.30
512.69	4227.01
512.86	4292.54
513.04	4229.35
513.21	4243.39
513.38	4126.36
513.56	4201.26
513.73	4053.81
513.90	4154.45
514.08	4060.83
514.25	4248.07
514.43	4222.33
514.60	4269.14
514.77	4301.90
514.95	4266.80
515.12	4318.29
515.29	4201.26
515.47	4212.96
515.64	4358.08
515.81	4461.06
515.99	4224.67
516.16	4280.84
516.33	4180.20
516.51	4203.60
516.68	4189.56
516.85	4266.80
517.03	4351.06
517.20	4271.48
517.37	4278.50
517.54	4388.50
517.72	4409.57
517.89	4308.93
518.06	4489.15
518.24	4442.34
518.41	4276.16
518.58	4231.69
518.75	4374.46
518.93	4285.52
519.10	4346.37
519.27	4432.97
519.45	4498.51
519.62	4456.38
519.79	4535.96
519.96	4477.44
520.14	4395.53
520.31	4542.98
520.48	4519.57
520.65	4540.64
520.83	4435.32
521.00	4599.15
521.17	4468.08
521.34	4589.79
521.52	4449.36
521.69	4507.87
521.86	4528.94
522.03	4575.75
522.20	4648.30
522.38	4554.68
522.55	4713.84
522.72	4465.74
522.89	4704.48
523.07	4786.40
523.24	4667.03
523.41	4638.94
523.58	4571.07
523.75	4786.40
523.92	4711.50
524.10	4732.56
524.27	4641.28
524.44	4676.39
524.61	4723.20
524.78	4615.54
524.96	4615.54
525.13	4695.11
525.30	4898.74
525.47	4833.21
525.64	4699.80
525.81	4791.08
525.98	4699.80
526.16	4737.24
526.33	4727.88
526.50	4849.59
526.67	4723.20
526.84	4807.46
527.01	4758.31
527.18	4821.50
527.36	4720.86
527.53	4863.63
527.70	4980.66
527.87	4863.63
528.04	4784.06
528.21	4833.21
528.38	4741.93
528.55	4870.65
528.72	4936.19
528.89	4959.60
529.07	4919.81
529.24	4910.44
529.41	4926.83
529.58	4865.97
529.75	4830.87
529.92	5015.77
530.09	4873.00
530.26	4973.64
530.43	5193.65
530.60	4957.25
530.77	4844.91
530.94	4898.74
531.11	5004.07
531.28	4868.31
531.46	4877.68
531.63	4973.64
531.80	4889.38
531.97	5048.54
532.14	5034.49
532.31	4959.60
532.48	5018.11
532.65	4992.36
532.82	5048.54
532.99	4985.34
533.16	4968.96
533.33	5214.71
533.50	5055.56
533.67	5137.48
533.84	5107.05
534.01	5095.35
534.18	5121.09
534.35	5184.29
534.52	4997.04
534.69	5123.43
534.86	5186.63
535.03	5135.14
535.20	4959.60
535.37	5095.35
535.54	5203.01
535.71	5172.58
535.88	5132.79
536.05	5121.09
536.22	5205.35
536.38	5153.86
536.55	5043.85
536.72	5355.15
536.89	5048.54
537.06	4966.62
537.23	5135.14
537.40	5139.82
537.57	5179.61
537.74	5207.69
537.91	5268.55
538.08	5261.52
538.25	5287.27
538.42	5191.31
538.59	5233.44
538.75	5109.39
538.92	5153.86
539.09	5298.97
539.26	5224.08
539.43	5231.10
539.60	5446.43
539.77	5343.44
539.94	5387.91
540.11	5404.30
540.28	5291.95
540.44	5352.81
540.61	5343.44
540.78	5603.24
540.95	5540.05
541.12	5654.73
541.29	5387.91
541.46	5692.18
541.62	5563.45
541.79	5558.77
541.96	5526.00
542.13	5434.72
542.30	5696.86
542.47	5628.99
542.63	5633.67
542.80	5699.20
542.97	5682.82
543.14	5462.81
543.31	5472.17
543.48	5652.39
543.64	5572.82
543.81	5614.95
543.98	5645.37
544.15	5748.36
544.32	5813.89
544.48	5804.53
544.65	5664.10
544.82	5636.01
544.99	5680.48
545.16	5715.59
545.32	5724.95
545.49	5923.90
545.66	6179.01
545.83	6338.17
546.00	6242.21
546.16	5884.11
546.33	5727.29
546.50	5687.50
546.67	5561.11
546.83	5696.86
547.00	5565.79
547.17	5659.42
547.34	5586.86
547.50	5696.86
547.67	5612.60
547.84	5535.37
548.00	5544.73
548.17	5753.04
548.34	5657.07
548.51	5720.27
548.67	5687.50
548.84	5720.27
549.01	5556.43
549.18	5638.35
549.34	5462.81
549.51	5572.82
549.68	5614.95
549.84	5586.86
550.01	5722.61
550.18	5624.31
550.34	5668.78
550.51	5685.16
550.68	5640.69
550.84	5586.86
551.01	5844.32
551.18	5589.20
551.34	5680.48
551.51	5551.75
551.68	5401.96
551.84	5696.86
552.01	5746.02
552.18	5612.60
552.34	5533.03
552.51	5692.18
552.68	5603.24
552.84	5636.01
553.01	5563.45
553.18	5746.02
553.34	5626.65
553.51	5734.31
553.67	5535.37
553.84	5738.99
554.01	5643.03
554.17	5717.93
554.34	5518.98
554.51	5738.99
554.67	5762.40
554.84	5666.44
555.00	5547.07
555.17	5598.56
555.33	5720.27
555.50	5671.12
555.67	5657.07
555.83	5603.24
556.00	5518.98
556.16	5851.34
556.33	5708.57
556.50	5678.14
556.66	5722.61
556.83	5636.01
556.99	5638.35
557.16	5694.52
557.32	5879.43
557.49	5638.35
557.65	5631.33
557.82	5668.78
557.98	5678.14
558.15	5509.62
558.32	5699.20
558.48	5767.08
558.65	5577.50
558.81	5806.87
558.98	5715.59
559.14	5722.61
559.31	5680.48
559.47	5650.05
559.64	5748.36
559.80	5682.82
559.97	5717.93
560.13	5692.18
560.30	5682.82
560.46	5806.87
560.63	5717.93
560.79	5643.03
560.96	5561.11
561.12	5790.49
561.29	5891.13
561.45	5764.74
561.61	5680.48
561.78	5909.85
561.94	5827.93
562.11	5806.87
562.27	5621.97
562.44	5664.10
562.60	5598.56
562.77	5682.82
562.93	5844.32
563.10	5713.25
563.26	5809.21
563.42	5767.08
563.59	5907.51
563.75	5746.02
563.92	5699.20
564.08	5762.40
564.24	5947.30
564.41	5881.77
564.57	5849.00
564.74	5738.99
564.90	5547.07
565.07	5600.90
565.23	5647.71
565.39	5811.55
565.56	5694.52
565.72	5755.38
565.88	5654.73
566.05	5731.97
566.21	5666.44
566.38	5802.19
566.54	5832.62
566.70	5710.91
566.87	5905.17
567.03	5729.63
567.19	5750.70
567.36	5778.78
567.52	5614.95
567.68	5837.30
567.85	5767.08
568.01	5799.85
568.17	5731.97
568.34	5909.85
568.50	5638.35
568.66	5715.59
568.83	5837.30
568.99	5619.63
569.15	5771.76
569.32	5659.42
569.48	5764.74
569.64	5818.57
569.81	5898.15
569.97	5818.57
570.13	5659.42
570.30	5790.49
570.46	5771.76
570.62	5671.12
570.78	5753.04
570.95	5846.66
571.11	5778.78
571.27	5790.49
571.43	5703.89
571.60	5575.16
571.76	5764.74
571.92	5856.02
572.09	5734.31
572.25	5619.63
572.41	5898.15
572.57	5727.29
572.74	5753.04
572.90	5795.17
573.06	5790.49
573.22	5741.33
573.38	5846.66
573.55	5797.51
573.71	5795.17
573.87	5692.18
574.03	5762.40
574.20	5837.30
574.36	5872.40
574.52	5729.63
574.68	5753.04
574.84	5879.43
575.01	5856.02
575.17	5715.59
575.33	5720.27
575.49	5727.29
575.65	5729.63
575.82	5886.45
575.98	5811.55
576.14	5673.46
576.30	5729.63
576.46	5984.75
576.62	5877.09
576.79	5825.59
576.95	5760.06
577.11	5652.39
577.27	5797.51
577.43	5788.14
577.59	5715.59
577.75	5729.63
577.92	5750.70
578.08	5612.60
578.24	5650.05
578.40	5949.64
578.56	5975.39
578.72	6008.16
578.88	5996.45
579.04	5804.53
579.21	5872.40
579.37	5902.83
579.53	5724.95
579.69	5933.26
579.85	5680.48
580.01	5909.85
580.17	5844.32
580.33	5743.67
580.49	5734.31
580.65	5886.45
580.82	5841.98
580.98	5942.62
581.14	5722.61
581.30	5781.12
581.46	5881.77
581.62	5811.55
581.78	5888.79
581.94	5844.32
582.10	5778.78
582.26	5748.36
582.42	5834.96
582.58	5930.92
582.74	5867.72
582.90	5755.38
583.06	5877.09
583.22	5743.67
583.38	5802.19
583.54	5785.80
583.70	5907.51
583.86	5823.25
584.02	5722.61
584.18	5872.40
584.34	5687.50
584.50	5944.96
584.66	5902.83
584.82	5956.66
584.98	5820.91
585.14	5722.61
585.30	5959.00
585.46	5762.40
585.62	5961.34
585.78	5886.45
585.94	5795.17
586.10	5841.98
586.26	5881.77
586.42	5769.42
586.58	5781.12
586.74	5668.78
586.90	5804.53
587.06	5769.42
587.22	5954.32
587.38	5907.51
587.54	5898.15
587.70	5942.62
587.86	5919.21
588.02	6022.20
588.18	5921.56
588.34	5830.27
588.49	5549.41
588.65	5748.36
588.81	5823.25
588.97	5891.13
589.13	5806.87
589.29	5659.42
589.45	5809.21
589.61	5813.89
589.77	5865.38
589.93	5753.04
590.08	5795.17
590.24	6001.13
590.40	5872.40
590.56	5888.79
590.72	5778.78
590.88	5797.51
591.04	5900.49
591.20	5844.32
591.35	5849.00
591.51	5982.41
591.67	5881.77
591.83	5919.21
591.99	5888.79
592.15	5717.93
592.31	5830.27
592.46	5867.72
592.62	5834.96
592.78	5860.70
592.94	5998.79
593.10	5902.83
593.26	5788.14
593.41	5783.46
593.57	5870.06
593.73	5727.29
593.89	5839.64
594.05	5806.87
594.20	5820.91
594.36	5823.25
594.52	5755.38
594.68	5767.08
594.84	5682.82
594.99	5579.84
595.15	5792.83
595.31	5792.83
595.47	5790.49
595.62	5746.02
595.78	5872.40
595.94	5799.85
596.10	5942.62
596.25	5682.82
596.41	5825.59
596.57	5743.67
596.73	5839.64
596.88	5809.21
597.04	5785.80
597.20	5870.06
597.36	5813.89
597.51	5839.64
597.67	5654.73
597.83	5760.06
597.99	5820.91
598.14	5806.87
598.30	5841.98
598.46	5785.80
598.61	5935.60
598.77	5645.37
598.93	5778.78
599.09	5755.38
599.24	5881.77
599.40	5778.78
599.56	5785.80
599.71	5820.91
599.87	5813.89
600.03	5806.87
600.18	5760.06
600.34	5809.21
600.50	5715.59
600.65	5715.59
600.81	5830.27
600.97	5717.93
