SpectraSuite Data File
++++++++++++++++++++++++++++++++++++
Date: Fri Oct 04 11:39:42 GMT-05:00 2013
User: price-jones
Dark Spectrum Present: No
Reference Spectrum Present: No
Number of Sampled Component Spectra: 1
Spectrometers: USB2+H05261
Integration Time (usec): 100000 (USB2+H05261)
Spectra Averaged: 1 (USB2+H05261)
Boxcar Smoothing: 0 (USB2+H05261)
Correct for Electrical Dark: No (USB2+H05261)
Strobe/Lamp Enabled: No (USB2+H05261)
Correct for Detector Non-linearity: No (USB2+H05261)
Correct for Stray Light: No (USB2+H05261)
Number of Pixels in Processed Spectrum: 2048
>>>>>Begin Processed Spectral Data<<<<<
365.73	35.11
365.92	35.11
366.12	35.11
366.32	0.00
366.52	0.00
366.72	0.00
366.91	58.51
367.11	0.00
367.31	0.00
367.51	0.00
367.70	0.00
367.90	0.00
368.10	0.00
368.30	0.00
368.49	0.00
368.69	0.00
368.89	0.00
369.09	11.70
369.28	0.00
369.48	0.00
369.68	0.00
369.87	0.00
370.07	32.77
370.27	0.00
370.47	107.66
370.66	154.48
370.86	234.05
371.06	224.69
371.25	311.29
371.45	229.37
371.65	304.27
371.84	245.76
372.04	205.97
372.24	297.25
372.44	320.65
372.63	360.44
372.83	383.85
373.03	299.59
373.22	390.87
373.42	269.16
373.62	372.15
373.81	367.46
374.01	374.49
374.21	322.99
374.40	381.51
374.60	442.36
374.79	388.53
374.99	393.21
375.19	297.25
375.38	379.17
375.58	351.08
375.78	374.49
375.97	344.06
376.17	411.93
376.37	402.57
376.56	458.74
376.76	409.59
376.95	400.23
377.15	339.38
377.35	411.93
377.54	447.04
377.74	423.64
377.93	365.12
378.13	397.89
378.33	418.96
378.52	461.09
378.72	435.34
378.91	418.96
379.11	393.21
379.31	400.23
379.50	402.57
379.70	433.00
379.89	402.57
380.09	369.80
380.28	496.19
380.48	397.89
380.68	418.96
380.87	475.13
381.07	435.34
381.26	447.04
381.46	489.17
381.65	414.27
381.85	489.17
382.04	512.58
382.24	451.72
382.43	444.70
382.63	444.70
382.83	454.06
383.02	589.82
383.22	491.51
383.41	505.56
383.61	479.81
383.80	482.15
384.00	575.77
384.19	465.77
384.39	521.94
384.58	444.70
384.78	472.79
384.97	503.22
385.17	545.34
385.36	547.69
385.56	482.15
385.75	580.45
385.95	564.07
386.14	571.09
386.34	440.02
386.53	587.47
386.72	535.98
386.92	580.45
387.11	580.45
387.31	592.16
387.50	493.85
387.70	550.03
387.89	470.45
388.09	521.94
388.28	521.94
388.48	578.11
388.67	601.52
388.86	603.86
389.06	683.44
389.25	596.84
389.45	662.37
389.64	580.45
389.84	655.35
390.03	650.67
390.22	671.73
390.42	645.99
390.61	627.26
390.81	624.92
391.00	606.20
391.19	671.73
391.39	596.84
391.58	638.97
391.78	526.62
391.97	720.88
392.16	727.91
392.36	674.07
392.55	774.72
392.75	711.52
392.94	678.76
393.13	688.12
393.33	702.16
393.52	709.18
393.71	669.39
393.91	758.33
394.10	751.31
394.29	702.16
394.49	744.29
394.68	676.41
394.88	720.88
395.07	788.76
395.26	840.25
395.46	786.42
395.65	781.74
395.84	732.59
396.04	898.77
396.23	882.38
396.42	950.26
396.62	802.80
396.81	924.51
397.00	858.98
397.19	887.06
397.39	936.21
397.58	884.72
397.77	835.57
397.97	896.43
398.16	877.70
398.35	863.66
398.55	814.51
398.74	830.89
398.93	973.66
399.12	903.45
399.32	922.17
399.51	957.28
399.70	954.94
399.90	891.74
400.09	1006.43
400.28	1048.56
400.47	1039.20
400.67	1135.16
400.86	940.90
401.05	1062.60
401.24	1074.31
401.44	1069.62
401.63	1156.22
401.82	1078.99
402.01	1097.71
402.21	1109.41
402.40	1252.19
402.59	1174.95
402.78	1116.44
402.97	1125.80
403.17	1095.37
403.36	1151.54
403.55	1188.99
403.74	1203.04
403.93	1310.70
404.13	1324.74
404.32	1301.34
404.51	1242.82
404.70	1362.19
404.89	1221.76
405.09	1362.19
405.28	1317.72
405.47	1355.17
405.66	1441.77
405.85	1399.64
406.05	1394.96
406.24	1338.79
406.43	1376.24
406.62	1380.92
406.81	1521.35
407.00	1472.20
407.20	1500.28
407.39	1472.20
407.58	1493.26
407.77	1551.78
407.96	1469.86
408.15	1577.52
408.34	1537.73
408.54	1612.63
408.73	1614.97
408.92	1600.93
409.11	1666.46
409.30	1661.78
409.49	1720.29
409.68	1748.38
409.87	1694.55
410.07	1767.10
410.26	1806.89
410.45	1778.81
410.64	1926.26
410.83	1898.17
411.02	1870.09
411.21	1916.90
411.40	1928.60
411.59	1975.41
411.78	1879.45
411.98	2008.18
412.17	1942.64
412.36	2008.18
412.55	2090.10
412.74	2029.24
412.93	2064.35
413.12	2038.61
413.31	2113.50
413.50	2050.31
413.69	2167.34
413.88	2190.74
414.07	2179.04
414.26	2293.72
414.45	2312.45
414.64	2242.23
414.83	2260.96
415.02	2436.50
415.22	2457.56
415.41	2527.78
415.60	2417.77
415.79	2436.50
415.98	2473.95
416.17	2590.97
416.36	2588.63
416.55	2551.18
416.74	2555.86
416.93	2677.57
417.12	2661.19
417.31	2705.66
417.50	2719.70
417.69	2785.24
417.88	2705.66
418.07	2750.13
418.26	2715.02
418.45	2825.03
418.64	2916.31
418.83	2892.90
419.02	2855.45
419.21	3009.93
419.39	3009.93
419.58	2930.35
419.77	2953.76
419.96	3141.00
420.15	3007.59
420.34	2974.82
420.53	3117.59
420.72	3185.47
420.91	3112.91
421.10	3227.60
421.29	3141.00
421.48	3054.40
421.67	3222.92
421.86	3136.32
422.05	3197.17
422.24	3222.92
422.43	3187.81
422.61	3356.33
422.80	3253.34
422.99	3300.16
423.18	3337.60
423.37	3349.31
423.56	3330.58
423.75	3276.75
423.94	3344.63
424.13	3054.40
424.32	3258.03
424.50	3288.45
424.69	3459.31
424.88	3398.46
425.07	3349.31
425.26	3234.62
425.45	3442.93
425.64	3389.10
425.83	3400.80
426.01	3400.80
426.20	3351.65
426.39	3456.97
426.58	3456.97
426.77	3358.67
426.96	3342.28
427.15	3440.59
427.33	3520.17
427.52	3389.10
427.71	3361.01
427.90	3536.55
428.09	3588.04
428.28	3466.33
428.46	3534.21
428.65	3744.86
428.84	3641.87
429.03	3836.14
429.22	3585.70
429.40	3672.30
429.59	3852.52
429.78	3506.12
429.97	3684.00
430.16	3712.09
430.34	3772.94
430.53	3868.91
430.72	3847.84
430.91	3765.92
431.10	3733.15
431.28	4035.08
431.47	3885.29
431.66	4058.49
431.85	3978.91
432.03	4002.32
432.22	4053.81
432.41	4004.66
432.60	4002.32
432.79	4112.32
432.97	4217.65
433.16	4065.51
433.35	4124.02
433.54	4194.24
433.72	4322.97
433.91	4142.75
434.10	4250.41
434.28	4109.98
434.47	4138.07
434.66	4236.37
434.85	4313.61
435.03	4238.71
435.22	4418.93
435.41	4770.01
435.59	4739.58
435.78	4617.88
435.97	4557.02
436.16	4533.62
436.34	4315.95
436.53	4395.53
436.72	4514.89
436.90	4468.08
437.09	4496.17
437.28	4440.00
437.46	4573.41
437.65	4627.24
437.84	4652.98
438.02	4671.71
438.21	4739.58
438.40	4624.90
438.58	4765.33
438.77	4833.21
438.96	4664.69
439.14	4798.10
439.33	4842.57
439.52	4912.78
439.70	4741.93
439.89	4858.95
440.08	4961.94
440.26	5050.88
440.45	5032.15
440.63	5078.96
440.82	5083.64
441.01	5266.21
441.19	5277.91
441.38	5118.75
441.57	5315.36
441.75	5221.74
441.94	5432.38
442.12	5320.04
442.31	5387.91
442.50	5472.17
442.68	5542.39
442.87	5434.72
443.05	5504.94
443.24	5572.82
443.43	5647.71
443.61	5645.37
443.80	5645.37
443.98	5678.14
444.17	5481.53
444.35	5610.26
444.54	5792.83
444.73	5722.61
444.91	5762.40
445.10	5764.74
445.28	5661.76
445.47	5579.84
445.65	5488.56
445.84	5619.63
446.02	5762.40
446.21	5612.60
446.39	5755.38
446.58	5877.09
446.77	5760.06
446.95	5687.50
447.14	5666.44
447.32	5844.32
447.51	5804.53
447.69	5738.99
447.88	5830.27
448.06	5785.80
448.25	5771.76
448.43	5799.85
448.62	5841.98
448.80	5806.87
448.99	5989.43
449.17	6003.47
449.36	5809.21
449.54	6099.44
449.73	6146.25
449.91	5989.43
450.10	6122.84
450.28	6122.84
450.46	6101.78
450.65	6033.90
450.83	6221.14
451.02	6125.18
451.20	6401.37
451.39	6197.74
451.57	6249.23
451.76	6183.70
451.94	6174.33
452.13	6466.90
452.31	6298.38
452.49	6153.27
452.68	6342.85
452.86	6403.71
453.05	6368.60
453.23	6401.37
453.42	6326.47
453.60	6251.57
453.78	6267.95
453.97	6450.52
454.15	6572.22
454.34	6387.32
454.52	6565.20
454.70	6558.18
454.89	6626.06
455.07	6532.44
455.26	6593.29
455.44	6761.81
455.62	6663.51
455.81	6670.53
455.99	6801.60
456.17	6738.40
456.36	6757.13
456.54	6813.30
456.73	6949.05
456.91	7037.99
457.09	6930.33
457.28	7138.63
457.46	6991.18
457.64	7115.23
457.83	7033.31
458.01	7162.04
458.19	7140.97
458.38	7080.12
458.56	7183.10
458.74	7155.02
458.93	7236.94
459.11	7131.61
459.29	7232.26
459.48	7330.56
459.66	7246.30
459.84	7473.33
460.03	7344.60
460.21	7281.41
460.39	7349.28
460.57	7150.34
460.76	7634.83
460.94	7370.35
461.12	7634.83
461.31	7403.11
461.49	7356.30
461.67	7400.77
461.85	7599.72
462.04	7452.27
462.22	8159.11
462.40	7632.49
462.59	7758.88
462.77	7683.98
462.95	7733.13
463.13	7665.25
463.32	7824.41
463.50	7836.11
463.68	7962.50
463.86	7896.97
464.05	7861.86
464.23	7768.24
464.41	8121.66
464.59	7775.26
464.78	8042.08
464.96	8002.29
465.14	7971.86
465.32	8149.75
465.50	8198.90
465.69	8245.71
465.87	8203.58
466.05	8053.78
466.23	8077.19
466.41	8093.57
466.60	8383.80
466.78	8058.46
466.96	8271.45
467.14	8304.22
467.32	8196.56
467.51	8486.78
467.69	8067.83
467.87	8294.86
468.05	8332.31
468.23	8119.32
468.41	8369.76
468.60	8418.91
468.78	8285.50
468.96	8517.21
469.14	8638.92
469.32	8472.74
469.50	8407.20
469.69	8678.71
469.87	8683.39
470.05	8868.29
470.23	8699.77
470.41	8889.35
470.59	8638.92
470.77	8861.27
470.95	8903.40
471.14	8999.36
471.32	8999.36
471.50	9128.09
471.68	8840.20
471.86	9109.36
472.04	8966.59
472.22	9315.33
472.40	9043.83
472.58	9343.42
472.77	9371.50
472.95	9327.03
473.13	9493.21
473.31	9266.18
473.49	9338.74
473.67	9518.96
473.85	9579.81
474.03	9493.21
474.21	9476.83
474.39	9940.26
474.57	9905.15
474.75	10017.49
474.93	10232.82
475.12	9928.55
475.30	9987.07
475.48	9767.06
475.66	9806.84
475.84	10064.30
476.02	10214.10
476.20	10293.68
476.38	10281.97
476.56	10480.92
476.74	10422.41
476.92	10366.23
477.10	10611.99
477.28	10815.62
477.46	10750.08
477.64	10864.77
477.82	10862.43
478.00	11094.14
478.18	11164.36
478.36	11176.06
478.54	11337.56
478.72	11367.98
478.90	11466.28
479.08	11346.92
479.26	11391.39
479.44	11721.40
479.62	11690.98
479.80	11903.96
479.98	11988.22
480.16	12088.87
480.34	11866.52
480.52	12248.02
480.70	12360.37
480.88	12002.27
481.06	12348.67
481.24	12414.20
481.41	12491.44
481.59	12711.45
481.77	12643.57
481.95	12821.45
482.13	12945.50
482.31	13004.02
482.49	13305.95
482.67	13198.28
482.85	13352.76
483.03	13584.47
483.21	13661.71
483.39	13820.86
483.57	13558.72
483.74	13877.04
483.92	13996.40
484.10	14029.17
484.28	14108.75
484.46	14527.71
484.64	14661.12
484.82	14347.48
485.00	14621.33
485.18	14834.32
485.35	15159.65
485.53	15183.06
485.71	15138.58
485.89	15365.62
486.07	15014.54
486.25	15543.50
486.43	15585.63
486.61	15447.54
486.78	15948.41
486.96	16074.80
487.14	16294.81
487.32	16271.40
487.50	16425.88
487.68	16549.93
487.85	16556.95
488.03	16795.68
488.21	17022.72
488.39	16870.58
488.57	17076.55
488.75	17095.27
488.92	17415.93
489.10	17352.73
489.28	17666.36
489.46	18176.60
489.64	17809.14
489.81	18071.28
489.99	18218.73
490.17	18382.57
490.35	18452.78
490.53	18457.46
490.70	18764.07
490.88	18469.17
491.06	18717.26
491.24	18904.51
491.41	18810.89
491.59	18995.79
491.77	18899.83
491.95	19484.96
492.13	19496.66
492.30	19370.27
492.48	19843.06
492.66	19583.26
492.84	19850.08
493.01	20013.92
493.19	20187.12
493.37	20341.60
493.54	20210.53
493.72	20545.22
493.90	20341.60
494.08	20655.23
494.25	20802.68
494.43	21165.46
494.61	21205.25
494.79	21333.98
494.96	21408.88
495.14	21277.81
495.32	21537.61
495.49	21624.21
495.67	21886.35
495.85	21965.93
496.02	22274.88
496.20	21984.65
496.38	22003.38
496.55	22125.08
496.73	22286.58
496.91	22317.01
497.09	22679.79
497.26	22632.98
497.44	22981.72
497.62	23133.86
497.79	23129.17
497.97	23145.56
498.14	23250.88
498.32	23623.03
498.50	23339.82
498.67	23843.04
498.85	23613.66
499.03	23896.87
499.20	23920.28
499.38	23819.63
499.56	24180.07
499.73	24397.74
499.91	24222.20
500.08	24589.67
500.26	24428.17
500.44	24346.25
500.61	24589.67
500.79	24411.79
500.97	24886.92
501.14	25249.70
501.32	25046.07
501.49	24989.90
501.67	25209.91
501.84	25338.64
502.02	25188.85
502.20	25450.99
502.37	25717.81
502.55	25551.63
502.72	25605.46
502.90	25909.73
503.07	25614.82
503.25	25703.76
503.43	25986.97
503.60	26324.01
503.78	26352.09
503.95	25977.61
504.13	26288.90
504.30	26174.21
504.48	26497.20
504.65	26630.62
504.83	26412.95
505.01	27185.32
505.18	26642.32
505.36	27159.58
505.53	26822.54
505.71	26988.72
505.88	26984.04
506.06	27314.05
506.23	27484.91
506.41	27550.45
506.58	27625.34
506.76	27761.09
506.93	27747.05
507.11	27866.42
507.28	27564.49
507.46	27728.33
507.63	27967.06
507.81	27910.89
507.98	27866.42
508.16	28046.64
508.33	28067.70
508.50	28252.61
508.68	28559.22
508.85	28889.23
509.03	28603.69
509.20	28650.50
509.38	28655.18
509.55	29036.69
509.73	29032.00
509.90	29230.95
510.08	29333.93
510.25	29235.63
510.42	29163.08
510.60	29380.74
510.77	29399.47
510.95	29544.58
511.12	29195.84
511.30	29762.25
511.47	30136.74
511.64	29893.32
511.82	29956.52
511.99	29839.49
512.17	30202.27
512.34	29977.58
512.51	30316.96
512.69	30291.21
512.86	30436.33
513.04	30541.65
513.21	30459.73
513.38	30513.56
513.56	30862.30
513.73	30448.03
513.90	30733.57
514.08	30780.39
514.25	31000.40
514.43	30665.70
514.60	31246.15
514.77	31206.36
514.95	31819.58
515.12	31309.35
515.29	31344.45
515.47	30941.88
515.64	31740.00
515.81	31749.37
515.99	31842.99
516.16	32084.06
516.33	31934.27
516.51	32245.56
516.68	31494.25
516.85	31978.74
517.03	32231.52
517.20	32577.92
517.37	32844.74
517.54	32437.48
517.72	32121.51
517.89	32339.18
518.06	32830.69
518.24	32222.16
518.41	32900.91
518.58	32385.99
518.75	32807.29
518.93	32914.95
519.10	32924.32
519.27	33111.56
519.45	32961.76
519.62	33163.05
519.79	32826.01
519.96	33273.06
520.14	33579.67
520.31	33406.47
520.48	33757.55
520.65	33954.15
520.83	33729.46
521.00	34195.23
521.17	33883.94
521.34	33649.88
521.52	34054.79
521.69	33710.74
521.86	34316.93
522.03	34490.13
522.20	34593.12
522.38	34284.17
522.55	34227.99
522.72	34326.30
522.89	34670.36
523.07	34859.94
523.24	34653.97
523.41	34869.30
523.58	34527.58
523.75	34623.54
523.92	34944.20
524.10	34719.51
524.27	34501.84
524.44	35306.98
524.61	35379.54
524.78	35304.64
524.96	35117.40
525.13	35215.70
525.30	35414.65
525.47	35475.50
525.64	35416.99
525.81	35718.92
525.98	35810.20
526.16	35625.29
526.33	35402.94
526.50	35868.71
526.67	35611.25
526.84	35690.83
527.01	35969.35
527.18	36016.16
527.36	35791.47
527.53	36222.13
527.70	36311.07
527.87	36683.22
528.04	36172.98
528.21	36268.94
528.38	36432.78
528.55	36893.86
528.72	36364.90
528.89	36678.54
529.07	36840.03
529.24	36369.58
529.41	36751.09
529.58	36545.12
529.75	36526.40
529.92	37305.80
530.09	37256.65
530.26	36847.05
530.43	37184.09
530.60	36769.82
530.77	36926.63
530.94	37214.52
531.11	36905.57
531.28	37284.73
531.46	37324.52
531.63	37244.94
531.80	37474.32
531.97	37860.51
532.14	37912.00
532.31	37806.67
532.48	37624.11
532.65	37638.15
532.82	37741.14
532.99	37689.65
533.16	37610.07
533.33	38054.77
533.50	38038.39
533.67	38279.46
533.84	38174.14
534.01	38216.27
534.18	37813.70
534.35	38096.90
534.52	38497.13
534.69	38822.47
534.86	38557.99
535.03	38820.13
535.20	38319.25
535.37	38408.19
535.54	38614.16
535.71	38651.61
535.88	38330.95
536.05	38349.68
536.22	38604.80
536.38	38864.60
536.55	39065.88
536.72	38714.80
536.89	39026.09
537.06	38749.91
537.23	38951.20
537.40	38948.85
537.57	38932.47
537.74	39023.75
537.91	39168.87
538.08	39440.37
538.25	39337.38
538.42	39466.11
538.59	39676.76
538.75	38932.47
538.92	39466.11
539.09	39269.51
539.26	39569.10
539.43	39412.28
539.60	39548.03
539.77	40247.85
539.94	39915.50
540.11	39489.52
540.28	39959.97
540.44	39981.03
540.61	39538.67
540.78	40119.12
540.95	40343.81
541.12	40275.94
541.29	40369.56
541.46	40072.31
541.62	40463.18
541.79	40657.45
541.96	40259.55
542.13	40552.12
542.30	40257.21
542.47	40575.53
542.63	40605.95
542.80	41205.13
542.97	41137.26
543.14	40882.14
543.31	41069.38
543.48	40727.66
543.64	41350.24
543.81	41085.76
543.98	41148.96
544.15	41083.42
544.32	41668.56
544.48	41385.35
544.65	40907.88
544.82	41160.66
544.99	41233.22
545.16	41027.25
545.32	41350.24
545.49	41993.89
545.66	42656.26
545.83	42646.90
546.00	42878.61
546.16	41961.12
546.33	41579.62
546.50	41298.75
546.67	41415.78
546.83	41354.93
547.00	41563.23
547.17	41862.82
547.34	41380.67
547.50	41839.42
547.67	42033.68
547.84	41724.73
548.00	42309.86
548.17	42309.86
548.34	42024.32
548.51	42265.39
548.67	42174.11
548.84	42139.00
549.01	41954.10
549.18	41996.23
549.34	42078.15
549.51	42253.69
549.68	41968.15
549.84	41691.96
550.01	42096.88
550.18	41968.15
550.34	42260.71
550.51	42745.20
550.68	42820.10
550.84	41792.61
551.01	42513.49
551.18	42197.52
551.34	42581.37
551.51	42202.20
551.68	42459.66
551.84	42440.93
552.01	42483.06
552.18	42721.80
552.34	42600.09
552.51	42866.91
552.68	42197.52
552.84	42953.51
553.01	42384.76
553.18	42923.08
553.34	42841.17
553.51	43033.09
553.67	42850.53
553.84	43058.84
554.01	43384.17
554.17	43330.34
554.34	42810.74
554.51	42934.79
554.67	43379.49
554.84	42958.19
555.00	43150.12
555.17	42742.86
555.33	42855.21
555.50	43440.34
555.67	43091.60
555.83	42831.80
556.00	43000.32
556.16	43426.30
556.33	43000.32
556.50	42951.17
556.66	43667.37
556.83	43033.09
556.99	43796.10
557.16	43262.46
557.32	43320.98
557.49	43335.02
557.65	43367.79
557.82	43304.59
557.98	43105.65
558.15	43526.94
558.32	43363.11
558.48	43856.96
558.65	43803.13
558.81	43522.26
558.98	43459.07
559.14	43433.32
559.31	43248.42
559.47	43433.32
559.64	43435.66
559.80	43332.68
559.97	43721.21
560.13	43531.62
560.30	43592.48
560.46	43643.97
560.63	43702.48
560.79	43423.96
560.96	43615.88
561.12	43030.75
561.29	43409.92
561.45	43365.45
561.61	43746.95
561.78	43700.14
561.94	43819.51
562.11	43735.25
562.27	43524.60
562.44	43505.88
562.60	43339.70
562.77	44048.88
562.93	43646.31
563.10	43903.77
563.26	43569.07
563.42	44540.39
563.59	43995.05
563.75	44275.91
563.92	43978.67
564.08	43655.67
564.24	43863.98
564.41	43611.20
564.57	44034.84
564.74	44093.35
564.90	44287.62
565.07	44044.20
565.23	44236.12
565.39	43908.45
565.56	44058.24
565.72	43915.47
565.88	44025.48
566.05	43957.60
566.21	43842.92
566.38	44053.56
566.54	43847.60
566.70	44404.64
566.87	44346.13
567.03	44051.22
567.19	44425.71
567.36	43885.04
567.52	44315.70
567.68	44296.98
567.85	43988.03
568.01	44294.64
568.17	43725.89
568.34	44123.78
568.50	44273.57
568.66	43964.62
568.83	44198.68
568.99	44315.70
569.15	44067.61
569.32	44203.36
569.48	44126.12
569.64	44437.41
569.81	44107.40
569.97	43983.35
570.13	44020.80
570.30	44399.96
570.46	43875.68
570.62	44165.91
570.78	43969.30
570.95	44004.41
571.11	44191.65
571.27	43969.30
571.43	44013.77
571.60	43910.79
571.76	44435.07
571.92	44488.90
572.09	44294.64
572.25	43945.90
572.41	44079.31
572.57	44289.96
572.74	44744.02
572.90	44385.92
573.06	44229.10
573.22	44205.70
573.38	44086.33
573.55	44224.42
573.71	44790.83
573.87	44191.65
574.03	44877.43
574.20	44409.32
574.36	43878.02
574.52	44126.12
574.68	44381.24
574.84	44460.82
575.01	44643.38
575.17	44568.48
575.33	44493.58
575.49	44067.61
575.65	44828.28
575.82	44619.97
575.98	44289.96
576.14	44987.44
576.30	43995.05
576.46	44093.35
576.62	44390.60
576.79	44835.30
576.95	44339.11
577.11	44168.25
577.27	44844.66
577.43	44676.15
577.59	44568.48
577.75	44161.23
577.92	44109.74
578.08	44163.57
578.24	44259.53
578.40	44072.29
578.56	44327.41
578.72	44421.03
578.88	44608.27
579.04	45221.49
579.21	44406.98
579.37	44622.31
579.53	44741.68
579.69	44072.29
579.85	44444.43
580.01	44367.20
580.17	43999.73
580.33	44561.46
580.49	44350.81
580.65	44889.13
580.82	44884.45
580.98	44240.81
581.14	44484.22
581.30	44582.52
581.46	44669.12
581.62	44062.93
581.78	44072.29
581.94	44383.58
582.10	44577.84
582.26	44507.63
582.42	44554.44
582.58	44596.57
582.74	44573.16
582.90	44472.52
583.06	44472.52
583.22	44626.99
583.38	44411.67
583.54	44430.39
583.70	44088.67
583.86	44217.40
584.02	44357.83
584.18	44643.38
584.34	44842.32
584.50	44856.37
584.66	44402.30
584.82	44261.87
584.98	44563.80
585.14	44210.38
585.30	44093.35
585.46	44486.56
585.62	44453.79
585.78	44563.80
585.94	44161.23
586.10	44575.50
586.26	44458.48
586.42	44830.62
586.58	44669.12
586.74	44336.77
586.90	44528.69
587.06	44563.80
587.22	44561.46
587.38	44219.74
587.54	44479.54
587.70	44816.58
587.86	44399.96
588.02	44711.25
588.18	44781.47
588.34	44847.00
588.49	44666.78
588.65	44327.41
588.81	44622.31
588.97	44451.45
589.13	44737.00
589.29	44432.73
589.45	44861.05
589.61	44528.69
589.77	44720.62
589.93	45043.61
590.08	44886.79
590.24	45045.95
590.40	45132.55
590.56	45064.67
590.72	44744.02
590.88	44715.93
