SpectraSuite Data File
++++++++++++++++++++++++++++++++++++
Date: Fri Oct 04 11:39:34 GMT-05:00 2013
User: price-jones
Dark Spectrum Present: No
Reference Spectrum Present: No
Number of Sampled Component Spectra: 1
Spectrometers: USB2+H05261
Integration Time (usec): 100000 (USB2+H05261)
Spectra Averaged: 1 (USB2+H05261)
Boxcar Smoothing: 0 (USB2+H05261)
Correct for Electrical Dark: No (USB2+H05261)
Strobe/Lamp Enabled: No (USB2+H05261)
Correct for Detector Non-linearity: No (USB2+H05261)
Correct for Stray Light: No (USB2+H05261)
Number of Pixels in Processed Spectrum: 2048
>>>>>Begin Processed Spectral Data<<<<<
365.73	53.83
365.92	53.83
366.12	53.83
366.32	0.00
366.52	0.00
366.72	0.00
366.91	0.00
367.11	0.00
367.31	0.00
367.51	0.00
367.70	0.00
367.90	0.00
368.10	0.00
368.30	0.00
368.49	0.00
368.69	0.00
368.89	0.00
369.09	0.00
369.28	0.00
369.48	51.49
369.68	0.00
369.87	84.26
370.07	28.09
370.27	0.00
370.47	16.38
370.66	58.51
370.86	168.52
371.06	44.47
371.25	180.22
371.45	220.01
371.65	112.35
371.84	112.35
372.04	63.19
372.24	135.75
372.44	95.96
372.63	133.41
372.83	252.78
373.03	198.95
373.22	180.22
373.42	128.73
373.62	128.73
373.81	196.60
374.01	238.73
374.21	173.20
374.40	255.12
374.60	241.08
374.79	212.99
374.99	259.80
375.19	184.90
375.38	126.39
375.58	224.69
375.78	234.05
375.97	222.35
376.17	287.89
376.37	114.69
376.56	191.92
376.76	189.58
376.95	187.24
377.15	266.82
377.35	161.50
377.54	241.08
377.74	250.44
377.93	168.52
378.13	224.69
378.33	222.35
378.52	210.65
378.72	273.84
378.91	257.46
379.11	210.65
379.31	182.56
379.50	224.69
379.70	194.26
379.89	227.03
380.09	210.65
380.28	119.37
380.48	205.97
380.68	170.86
380.87	124.05
381.07	191.92
381.26	166.18
381.46	262.14
381.65	198.95
381.85	252.78
382.04	255.12
382.24	161.50
382.43	191.92
382.63	236.39
382.83	166.18
383.02	273.84
383.22	250.44
383.41	184.90
383.61	248.10
383.80	269.16
384.00	161.50
384.19	283.20
384.39	220.01
384.58	205.97
384.78	290.23
384.97	201.29
385.17	187.24
385.36	128.73
385.56	252.78
385.75	245.76
385.95	227.03
386.14	257.46
386.34	241.08
386.53	238.73
386.72	231.71
386.92	243.42
387.11	280.86
387.31	276.18
387.50	208.31
387.70	262.14
387.89	257.46
388.09	273.84
388.28	180.22
388.48	234.05
388.67	290.23
388.86	264.48
389.06	220.01
389.25	269.16
389.45	285.55
389.64	243.42
389.84	332.36
390.03	217.67
390.22	191.92
390.42	252.78
390.61	234.05
390.81	334.70
391.00	203.63
391.19	297.25
391.39	346.40
391.58	278.52
391.78	285.55
391.97	255.12
392.16	271.50
392.36	379.17
392.55	400.23
392.75	348.74
392.94	315.97
393.13	315.97
393.33	360.44
393.52	259.80
393.71	374.49
393.91	390.87
394.10	292.57
394.29	388.53
394.49	358.10
394.68	376.83
394.88	320.65
395.07	355.76
395.26	379.17
395.46	355.76
395.65	369.80
395.84	332.36
396.04	514.92
396.23	383.85
396.42	360.44
396.62	390.87
396.81	416.62
397.00	421.30
397.19	435.34
397.39	451.72
397.58	468.11
397.77	379.17
397.97	346.40
398.16	472.79
398.35	498.53
398.55	388.53
398.74	451.72
398.93	475.13
399.12	531.30
399.32	475.13
399.51	465.77
399.70	512.58
399.90	512.58
400.09	477.47
400.28	524.28
400.47	573.43
400.67	524.28
400.86	564.07
401.05	468.11
401.24	543.00
401.44	582.79
401.63	622.58
401.82	561.73
402.01	575.77
402.21	596.84
402.40	589.82
402.59	681.10
402.78	650.67
402.97	622.58
403.17	645.99
403.36	587.47
403.55	596.84
403.74	622.58
403.93	678.76
404.13	690.46
404.32	730.25
404.51	685.78
404.70	781.74
404.89	631.94
405.09	739.61
405.28	800.46
405.47	709.18
405.66	800.46
405.85	767.70
406.05	779.40
406.24	889.40
406.43	919.83
406.62	793.44
406.81	922.17
407.00	842.59
407.20	770.04
407.39	856.64
407.58	861.32
407.77	908.13
407.96	924.51
408.15	1029.84
408.34	926.85
408.54	957.28
408.73	1039.20
408.92	997.07
409.11	1025.15
409.30	922.17
409.49	1008.77
409.68	987.71
409.87	1076.65
410.07	1032.18
410.26	1081.33
410.45	1116.44
410.64	1095.37
410.83	1198.35
411.02	1123.46
411.21	1179.63
411.40	1200.69
411.59	1263.89
411.78	1212.40
411.98	1263.89
412.17	1268.57
412.36	1270.91
412.55	1308.36
412.74	1306.02
412.93	1313.04
413.12	1299.00
413.31	1420.71
413.50	1334.11
413.69	1420.71
413.88	1490.92
414.07	1509.65
414.26	1383.26
414.45	1467.52
414.64	1423.05
414.83	1579.86
415.02	1565.82
415.22	1523.69
415.41	1650.08
415.60	1547.09
415.79	1633.69
415.98	1586.88
416.17	1689.87
416.36	1699.23
416.55	1640.72
416.74	1666.46
416.93	1750.72
417.12	1729.66
417.31	1678.16
417.50	1732.00
417.69	1760.08
417.88	1767.10
418.07	1832.64
418.26	1870.09
418.45	1858.39
418.64	1952.01
418.83	1891.15
419.02	1970.73
419.21	1874.77
419.39	2057.33
419.58	1921.58
419.77	1942.64
419.96	1900.52
420.15	2160.31
420.34	1944.99
420.53	1982.43
420.72	2059.67
420.91	2078.40
421.10	2083.08
421.29	1975.41
421.48	2024.56
421.67	2214.15
421.86	2036.27
422.05	2036.27
422.24	2125.21
422.43	2106.48
422.61	2122.87
422.80	2099.46
422.99	2179.04
423.18	2284.36
423.37	2244.57
423.56	2181.38
423.75	2150.95
423.94	2200.10
424.13	2059.67
424.32	2092.44
424.50	2225.85
424.69	2209.47
424.88	2146.27
425.07	2242.23
425.26	2286.70
425.45	2258.62
425.64	2172.02
425.83	2155.63
426.01	2291.38
426.20	2249.25
426.39	2307.77
426.58	2328.83
426.77	2282.02
426.96	2363.94
427.15	2286.70
427.33	2382.67
427.52	2333.51
427.71	2293.72
427.90	2422.45
428.09	2256.28
428.28	2335.85
428.46	2382.67
428.65	2537.14
428.84	2509.05
429.03	2422.45
429.22	2408.41
429.40	2459.90
429.59	2480.97
429.78	2396.71
429.97	2422.45
430.16	2455.22
430.34	2537.14
430.53	2661.19
430.72	2619.06
430.91	2661.19
431.10	2506.71
431.28	2567.57
431.47	2686.94
431.66	2761.83
431.85	2583.95
432.03	2778.22
432.22	2670.55
432.41	2827.37
432.60	2813.32
432.79	2724.38
432.97	2810.98
433.16	2818.00
433.35	2761.83
433.54	2757.15
433.72	2829.71
433.91	2698.64
434.10	2745.45
434.28	2736.09
434.47	2794.60
434.66	2801.62
434.85	2928.01
435.03	2951.42
435.22	3052.06
435.41	3288.45
435.59	3300.16
435.78	3279.09
435.97	3068.44
436.16	3143.34
436.34	2942.05
436.53	3030.99
436.72	3138.66
436.90	3056.74
437.09	3080.14
437.28	2932.69
437.46	3180.79
437.65	3061.42
437.84	3054.40
438.02	3145.68
438.21	3052.06
438.40	3066.10
438.58	3187.81
438.77	3187.81
438.96	3110.57
439.14	3190.15
439.33	3206.53
439.52	3239.30
439.70	3375.05
439.89	3267.39
440.08	3391.44
440.26	3358.67
440.45	3328.24
440.63	3428.88
440.82	3482.72
441.01	3372.71
441.19	3456.97
441.38	3534.21
441.57	3538.89
441.75	3599.74
441.94	3667.62
442.12	3590.38
442.31	3749.54
442.50	3705.07
442.68	3702.73
442.87	3716.77
443.05	3740.18
443.24	3854.86
443.43	3681.66
443.61	3815.07
443.80	3758.90
443.98	3756.56
444.17	3716.77
444.35	3796.35
444.54	3845.50
444.73	3850.18
444.91	3768.26
445.10	3831.46
445.28	3857.20
445.47	3791.67
445.65	3751.88
445.84	3747.20
446.02	3777.62
446.21	3822.09
446.39	3702.73
446.58	3934.44
446.77	3899.33
446.95	3831.46
447.14	3934.44
447.32	3929.76
447.51	4032.74
447.69	3941.46
447.88	3967.21
448.06	3946.14
448.25	3894.65
448.43	3791.67
448.62	4035.08
448.80	4014.02
448.99	3948.48
449.17	4028.06
449.36	3857.20
449.54	4084.23
449.73	4095.94
449.91	4212.96
450.10	4098.28
450.28	4067.85
450.46	4243.39
450.65	4077.21
450.83	4049.13
451.02	4056.15
451.20	4189.56
451.39	4262.12
451.57	4259.78
451.76	4166.15
451.94	4201.26
452.13	4355.74
452.31	4149.77
452.49	4294.88
452.68	4381.48
452.86	4196.58
453.05	4449.36
453.23	4369.78
453.42	4299.56
453.60	4528.94
453.78	4376.80
453.97	4278.50
454.15	4301.90
454.34	4484.47
454.52	4486.81
454.70	4484.47
454.89	4552.34
455.07	4444.68
455.26	4428.29
455.44	4500.85
455.62	4629.58
455.81	4503.19
455.99	4669.37
456.17	4510.21
456.36	4564.04
456.54	4526.60
456.73	4620.22
456.91	4894.06
457.09	4854.27
457.28	4894.06
457.46	4669.37
457.64	4788.74
457.83	4809.80
458.01	4884.70
458.19	4933.85
458.38	4737.24
458.56	4861.29
458.74	4826.18
458.93	4877.68
459.11	4926.83
459.29	4821.50
459.48	4940.87
459.66	4891.72
459.84	5004.07
460.03	5004.07
460.21	4959.60
460.39	5018.11
460.57	5036.83
460.76	5121.09
460.94	5142.16
461.12	5060.24
461.31	5296.63
461.49	5097.69
461.67	5114.07
461.85	5146.84
462.04	5107.05
462.22	5315.36
462.40	5247.48
462.59	5231.10
462.77	5191.31
462.95	5233.44
463.13	5294.29
463.32	5315.36
463.50	5217.05
463.68	5439.40
463.86	5535.37
464.05	5233.44
464.23	5324.72
464.41	5434.72
464.59	5289.61
464.78	5495.58
464.96	5366.85
465.14	5343.44
465.32	5509.62
465.50	5558.77
465.69	5343.44
465.87	5495.58
466.05	5479.19
466.23	5448.77
466.41	5617.29
466.60	5844.32
466.78	5610.26
466.96	5619.63
467.14	5465.15
467.32	5476.85
467.51	5724.95
467.69	5469.83
467.87	5750.70
468.05	5593.88
468.23	5645.37
468.41	5509.62
468.60	5682.82
468.78	5750.70
468.96	5722.61
469.14	5851.34
469.32	5823.25
469.50	5788.14
469.69	5795.17
469.87	5715.59
470.05	5963.68
470.23	5912.19
470.41	6118.16
470.59	5849.00
470.77	5956.66
470.95	5996.45
471.14	6129.86
471.32	5921.56
471.50	6225.82
471.68	6139.23
471.86	6099.44
472.04	6115.82
472.22	6406.05
472.40	6345.19
472.58	6202.42
472.77	6242.21
472.95	6366.26
473.13	6715.00
473.31	6303.06
473.49	6286.68
473.67	6443.49
473.85	6513.71
474.03	6586.27
474.21	6436.47
474.39	6607.33
474.57	6775.85
474.75	6560.52
474.93	6836.70
475.12	6621.38
475.30	6633.08
475.48	6813.30
475.66	6796.92
475.84	6930.33
476.02	7082.46
476.20	6963.09
476.38	7007.56
476.56	7176.08
476.74	7045.01
476.92	7021.61
477.10	7176.08
477.28	7126.93
477.46	7073.10
477.64	7255.66
477.82	7353.96
478.00	7597.38
478.18	7485.03
478.36	7772.92
478.54	7644.19
478.72	7686.32
478.90	7763.56
479.08	7686.32
479.26	7822.07
479.44	7925.05
479.62	7981.23
479.80	8044.42
479.98	8285.50
480.16	8138.04
480.34	8278.47
480.52	8241.03
480.70	8257.41
480.88	8238.69
481.06	8374.44
481.24	8177.83
481.41	8432.95
481.59	8638.92
481.77	8760.63
481.95	8823.82
482.13	8826.16
482.31	8627.21
482.49	9020.42
482.67	9029.79
482.85	8945.53
483.03	9235.75
483.21	9078.94
483.39	9301.29
483.57	9408.95
483.74	9420.66
483.92	9734.29
484.10	9451.08
484.28	9692.16
484.46	9900.47
484.64	9703.86
484.82	9760.03
485.00	9933.23
485.18	10132.18
485.35	10193.03
485.53	10281.97
485.71	10136.86
485.89	10354.53
486.07	10377.94
486.25	10281.97
486.43	10438.79
486.61	10595.61
486.78	10829.66
486.96	10874.13
487.14	11028.60
487.32	11000.52
487.50	11124.57
487.68	11117.54
487.85	11159.67
488.03	11297.77
488.21	11360.96
488.39	11309.47
488.57	11529.48
488.75	11735.45
488.92	11913.33
489.10	12109.93
489.28	11880.56
489.46	12102.91
489.64	11962.48
489.81	12259.73
489.99	12210.57
490.17	12252.70
490.35	12500.80
490.53	12280.79
490.70	12629.53
490.88	12416.54
491.06	12875.29
491.24	12800.39
491.41	12828.48
491.59	12938.48
491.77	12973.59
491.95	13088.28
492.13	13224.03
492.30	13261.48
492.48	13114.02
492.66	13249.77
492.84	13434.68
493.01	13486.17
493.19	13373.82
493.37	13593.83
493.54	13727.24
493.72	13764.69
493.90	13757.67
494.08	14059.60
494.25	14209.39
494.43	14108.75
494.61	14335.78
494.79	14361.53
494.96	14288.97
495.14	14408.34
495.32	14567.49
495.49	14635.37
495.67	14600.26
495.85	14658.78
496.02	14857.72
496.20	14998.15
496.38	15152.63
496.55	15197.10
496.73	15325.83
496.91	15328.17
497.09	15618.39
497.26	15513.07
497.44	15513.07
497.62	15496.69
497.79	15632.44
497.97	15513.07
498.14	15763.51
498.32	15763.51
498.50	15721.38
498.67	16217.57
498.85	16229.27
499.03	16255.02
499.20	16301.83
499.38	16372.05
499.56	16329.92
499.73	16137.99
499.91	16137.99
500.08	16507.80
500.26	16372.05
500.44	16381.41
500.61	16681.00
500.79	16748.87
500.97	16776.96
501.14	16762.92
501.32	16844.84
501.49	16980.59
501.67	16989.95
501.84	16922.07
502.02	17280.18
502.20	17319.96
502.37	17357.41
502.55	17392.52
502.72	17678.07
502.90	17418.27
503.07	17404.22
503.25	17521.25
503.43	17523.59
503.60	17666.36
503.78	18073.62
503.95	17476.78
504.13	17589.13
504.30	17888.71
504.48	17699.13
504.65	18001.06
504.83	18064.25
505.01	18560.45
505.18	18277.24
505.36	18328.74
505.53	18129.79
505.71	18377.89
505.88	18508.96
506.06	18071.28
506.23	18677.48
506.41	18466.83
506.58	18637.69
506.76	18731.31
506.93	18738.33
507.11	18991.11
507.28	18810.89
507.46	18759.39
507.63	18871.74
507.81	19248.57
507.98	18881.10
508.16	19159.63
508.33	18897.49
508.50	19215.80
508.68	19267.29
508.85	19520.07
509.03	19396.02
509.20	19482.62
509.38	19688.59
509.55	19866.47
509.73	19751.78
509.90	19805.61
510.08	19810.29
510.25	19889.87
510.42	19941.36
510.60	20009.24
510.77	20194.14
510.95	20285.42
511.12	19985.83
511.30	20166.06
511.47	20292.44
511.64	20285.42
511.82	20428.20
511.99	20233.93
512.17	20496.07
512.34	20692.68
512.51	20669.27
512.69	20599.05
512.86	20823.75
513.04	20500.75
513.21	20865.88
513.38	20727.78
513.56	20893.96
513.73	20837.79
513.90	20959.50
514.08	21048.44
514.25	21193.55
514.43	21308.24
514.60	21116.31
514.77	21097.59
514.95	21383.13
515.12	21149.08
515.29	21289.51
515.47	21249.72
515.64	21703.79
515.81	21633.57
515.99	21762.30
516.16	21972.95
516.33	21717.83
516.51	21975.29
516.68	21832.52
516.85	21415.90
517.03	21937.84
517.20	22054.87
517.37	22036.14
517.54	22087.64
517.72	22328.71
517.89	22001.04
518.06	22228.07
518.24	22352.12
518.41	22389.56
518.58	22319.35
518.75	22288.92
518.93	22473.82
519.10	22707.88
519.27	22773.41
519.45	22478.50
519.62	22588.51
519.79	22504.25
519.96	22838.95
520.14	22955.97
520.31	22792.14
520.48	23026.19
520.65	22644.68
520.83	23300.03
521.00	22918.53
521.17	23201.73
521.34	23477.91
521.52	23218.11
521.69	23370.25
521.86	23192.37
522.03	23679.20
522.20	23262.58
522.38	23718.99
522.55	23503.66
522.72	23613.66
522.89	23484.94
523.07	23967.09
523.24	23873.46
523.41	23786.86
523.58	23948.36
523.75	23777.50
523.92	24011.56
524.10	23878.15
524.27	23976.45
524.44	24149.65
524.61	24386.04
524.78	24299.44
524.96	24177.73
525.13	24343.91
525.30	24151.99
525.47	24458.60
525.64	24418.81
525.81	24453.92
525.98	24617.75
526.16	24547.54
526.33	24568.60
526.50	24744.14
526.67	24472.64
526.84	24273.70
527.01	24435.19
527.18	24994.58
527.36	25195.87
527.53	24732.44
527.70	25280.13
527.87	25043.73
528.04	24765.21
528.21	25053.09
528.38	25256.72
528.55	25247.36
528.72	25177.14
528.89	24985.22
529.07	24964.15
529.24	25167.78
529.41	25530.56
529.58	25069.48
529.75	25174.80
529.92	25310.55
530.09	25415.88
530.26	25394.81
530.43	25682.70
530.60	25521.20
530.77	25598.44
530.94	25860.58
531.11	25928.45
531.28	25694.40
531.46	25542.27
531.63	25797.38
531.80	25748.23
531.97	25612.48
532.14	26073.57
532.31	25612.48
532.48	25942.50
532.65	25848.88
532.82	25965.90
532.99	26075.91
533.16	25811.43
533.33	26040.80
533.50	26497.20
533.67	26483.16
533.84	26024.42
534.01	26499.55
534.18	26190.59
534.35	26260.81
534.52	26307.62
534.69	26326.35
534.86	26480.82
535.03	26508.91
535.20	26398.90
535.37	26747.64
535.54	26693.81
535.71	26647.00
535.88	26551.04
536.05	26902.12
536.22	26878.71
536.38	26916.16
536.55	26808.50
536.72	27087.02
536.89	26738.28
537.06	26733.60
537.23	27054.25
537.40	27000.42
537.57	27161.92
537.74	27108.08
537.91	27206.39
538.08	27615.98
538.25	27211.07
538.42	26939.57
538.59	27496.61
538.75	26883.39
538.92	27145.53
539.09	27613.64
539.26	27428.74
539.43	27880.46
539.60	27700.24
539.77	27323.41
539.94	27615.98
540.11	27491.93
540.28	27847.69
540.44	27871.10
540.61	27620.66
540.78	27831.31
540.95	27613.64
541.12	28105.15
541.29	28095.79
541.46	28130.90
541.62	28163.67
541.79	28219.84
541.96	27662.79
542.13	28254.95
542.30	28252.61
542.47	28056.00
542.63	28156.64
542.80	28489.00
542.97	28369.63
543.14	28863.49
543.31	28613.05
543.48	28512.41
543.64	28591.98
543.81	29001.58
543.98	28755.82
544.15	28692.63
544.32	29078.82
544.48	29244.99
544.65	28800.29
544.82	28737.10
544.99	28655.18
545.16	28837.74
545.32	28659.86
545.49	29453.30
545.66	30003.33
545.83	29935.45
546.00	29893.32
546.16	29324.57
546.33	29132.65
546.50	29127.97
546.67	29310.53
546.83	28341.55
547.00	28961.79
547.17	28835.40
547.34	28938.38
547.50	29247.33
547.67	29322.23
547.84	28734.76
548.00	28943.06
548.17	29205.20
548.34	29104.56
548.51	29333.93
548.67	28966.47
548.84	28987.53
549.01	29469.69
549.18	29434.58
549.34	29497.77
549.51	29221.59
549.68	29591.39
549.84	29495.43
550.01	29415.85
550.18	28954.77
550.34	29378.40
550.51	29532.88
550.68	29097.54
550.84	29015.62
551.01	29907.37
551.18	29209.89
551.34	29350.32
551.51	29240.31
551.68	29493.09
551.84	29209.89
552.01	29443.94
552.18	29628.84
552.34	29811.40
552.51	29958.86
552.68	29120.95
552.84	29472.03
553.01	29764.59
553.18	29762.25
553.34	30103.97
553.51	29493.09
553.67	30155.46
553.84	30331.00
554.01	29752.89
554.17	29839.49
554.34	29703.74
554.51	29921.41
554.67	29883.96
554.84	29947.15
555.00	30047.80
555.17	30059.50
555.33	30064.18
555.50	29514.16
555.67	29977.58
555.83	29722.46
556.00	29600.76
556.16	30368.45
556.33	30132.06
556.50	29935.45
556.66	30078.22
556.83	30040.78
556.99	30246.74
557.16	30169.51
557.32	30242.06
557.49	29830.13
557.65	29970.56
557.82	29818.42
557.98	29919.07
558.15	30148.44
558.32	30443.35
558.48	30052.48
558.65	30143.76
558.81	30024.39
558.98	30359.09
559.14	30223.34
559.31	29912.05
559.47	30202.27
559.64	30452.71
559.80	30113.33
559.97	30244.40
560.13	30185.89
560.30	30422.28
560.46	30548.67
560.63	30249.08
560.79	30192.91
560.96	30326.32
561.12	30478.46
561.29	30108.65
561.45	30630.59
561.61	30457.39
561.78	30497.18
561.94	30586.12
562.11	30345.05
562.27	29947.15
562.44	30668.04
562.60	30352.07
562.77	30471.43
562.93	30490.16
563.10	30707.83
563.26	30487.82
563.42	30693.79
563.59	30235.04
563.75	30712.51
563.92	30543.99
564.08	30326.32
564.24	30480.80
564.41	30291.21
564.57	30511.22
564.74	30410.58
564.90	30518.25
565.07	30607.19
565.23	30953.58
565.39	30717.19
565.56	30686.76
565.72	30452.71
565.88	30012.69
566.05	30649.32
566.21	30534.63
566.38	30543.99
566.54	30728.89
566.70	30714.85
566.87	30864.64
567.03	30630.59
567.19	30869.33
567.36	30843.58
567.52	30766.34
567.68	30792.09
567.85	30412.92
568.01	30993.37
568.17	30986.35
568.34	30838.90
568.50	30754.64
568.66	31101.04
568.83	30728.89
568.99	30796.77
569.15	30672.72
569.32	30717.19
569.48	30480.80
569.64	30607.19
569.81	30728.89
569.97	30583.78
570.13	30848.26
570.30	30703.15
570.46	31204.02
570.62	30639.95
570.78	30443.35
570.95	30773.36
571.11	30803.79
571.27	30913.80
571.43	30632.93
571.60	30962.95
571.76	30848.26
571.92	30792.09
572.09	30988.69
572.25	31208.70
572.41	30682.08
572.57	30841.24
572.74	30778.04
572.90	30543.99
573.06	30693.79
573.22	30836.56
573.38	30778.04
573.55	30780.39
573.71	30913.80
573.87	31250.83
574.03	30623.57
574.20	30583.78
574.36	30637.61
574.52	30522.93
574.68	31070.61
574.84	30735.92
575.01	31089.34
575.17	30754.64
575.33	30689.10
575.49	30972.31
575.65	30986.35
575.82	30934.86
575.98	30771.02
576.14	30888.05
576.30	30976.99
576.46	30754.64
576.62	31129.12
576.79	31201.68
576.95	31028.48
577.11	30946.56
577.27	30862.30
577.43	31108.06
577.59	30927.84
577.75	31101.04
577.92	30689.10
578.08	31023.80
578.24	30925.50
578.40	31180.62
578.56	31143.17
578.72	31206.36
578.88	31168.91
579.04	31164.23
579.21	31091.68
579.37	31281.26
579.53	31365.52
579.69	30473.78
579.85	31019.12
580.01	31229.77
580.17	31103.38
580.33	31194.66
580.49	30934.86
580.65	31204.02
580.82	31180.62
580.98	30881.03
581.14	31173.60
581.30	31094.02
581.46	31159.55
581.62	30981.67
581.78	31218.07
581.94	31037.84
582.10	30899.75
582.26	31105.72
582.42	31229.77
582.58	30972.31
582.74	31543.40
582.90	31321.05
583.06	31424.03
583.22	31278.92
583.38	30785.07
583.54	30979.33
583.70	30948.90
583.86	30993.37
584.02	31009.76
584.18	31199.34
584.34	31189.98
584.50	31426.37
584.66	31192.32
584.82	31054.23
584.98	31246.15
585.14	31091.68
585.30	31161.89
585.46	31250.83
585.62	31087.00
585.78	31276.58
585.94	31173.60
586.10	31115.08
586.26	30876.35
586.42	31145.51
586.58	31239.13
586.74	31241.47
586.90	30747.62
587.06	31262.54
587.22	31168.91
587.38	30661.02
587.54	31424.03
587.70	31470.84
587.86	31409.99
588.02	31246.15
588.18	31262.54
588.34	30976.99
588.49	31248.49
588.65	31044.87
588.81	31344.45
588.97	31044.87
589.13	30843.58
589.29	31250.83
589.45	31662.77
589.61	31545.74
589.77	31599.57
589.93	31000.40
590.08	31365.52
590.24	31433.39
590.40	31386.58
590.56	31578.51
590.72	31154.87
590.88	31094.02
591.04	31129.12
591.20	31461.48
591.35	31576.17
591.51	31447.44
591.67	31386.58
591.83	31473.18
