SpectraSuite Data File
++++++++++++++++++++++++++++++++++++
Date: Fri Oct 04 11:40:07 GMT-05:00 2013
User: price-jones
Dark Spectrum Present: No
Reference Spectrum Present: No
Number of Sampled Component Spectra: 1
Spectrometers: USB2+H05261
Integration Time (usec): 100000 (USB2+H05261)
Spectra Averaged: 1 (USB2+H05261)
Boxcar Smoothing: 0 (USB2+H05261)
Correct for Electrical Dark: No (USB2+H05261)
Strobe/Lamp Enabled: No (USB2+H05261)
Correct for Detector Non-linearity: No (USB2+H05261)
Correct for Stray Light: No (USB2+H05261)
Number of Pixels in Processed Spectrum: 2048
>>>>>Begin Processed Spectral Data<<<<<
365.73	46.81
365.92	46.81
366.12	46.81
366.32	0.00
366.52	0.00
366.72	0.00
366.91	0.00
367.11	0.00
367.31	0.00
367.51	0.00
367.70	0.00
367.90	0.00
368.10	0.00
368.30	0.00
368.49	0.00
368.69	0.00
368.89	0.00
369.09	0.00
369.28	0.00
369.48	0.00
369.68	16.38
369.87	14.04
370.07	0.00
370.27	77.24
370.47	138.09
370.66	493.85
370.86	557.05
371.06	578.11
371.25	599.18
371.45	512.58
371.65	547.69
371.84	533.64
372.04	507.90
372.24	615.56
372.44	512.58
372.63	578.11
372.83	573.43
373.03	533.64
373.22	468.11
373.42	477.47
373.62	578.11
373.81	582.79
374.01	641.31
374.21	543.00
374.40	540.66
374.60	505.56
374.79	627.26
374.99	596.84
375.19	571.09
375.38	718.54
375.58	678.76
375.78	624.92
375.97	716.20
376.17	692.80
376.37	765.36
376.56	660.03
376.76	662.37
376.95	734.93
377.15	821.53
377.35	898.77
377.54	943.24
377.74	866.00
377.93	840.25
378.13	884.72
378.33	816.85
378.52	772.38
378.72	795.78
378.91	695.14
379.11	709.18
379.31	697.48
379.50	683.44
379.70	737.27
379.89	844.93
380.09	723.23
380.28	823.87
380.48	819.19
380.68	816.85
380.87	763.01
381.07	770.04
381.26	739.61
381.46	805.14
381.65	667.05
381.85	599.18
382.04	634.29
382.24	631.94
382.43	587.47
382.63	526.62
382.83	601.52
383.02	631.94
383.22	566.41
383.41	491.51
383.61	610.88
383.80	603.86
384.00	767.70
384.19	760.67
384.39	807.48
384.58	905.79
384.78	912.81
384.97	842.59
385.17	772.38
385.36	713.86
385.56	660.03
385.75	716.20
385.95	809.83
386.14	896.43
386.34	858.98
386.53	840.25
386.72	786.42
386.92	777.06
387.11	922.17
387.31	819.19
387.50	779.40
387.70	858.98
387.89	847.27
388.09	751.31
388.28	753.65
388.48	833.23
388.67	894.08
388.86	936.21
389.06	976.00
389.25	1036.86
389.45	1048.56
389.64	1029.84
389.84	1048.56
390.03	1015.79
390.22	1025.15
390.42	940.90
390.61	1069.62
390.81	1107.07
391.00	1177.29
391.19	1224.10
391.39	1125.80
391.58	1149.20
391.78	1067.28
391.97	1020.47
392.16	1032.18
392.36	833.23
392.55	690.46
392.75	510.24
392.94	540.66
393.13	484.49
393.33	676.41
393.52	784.08
393.71	917.49
393.91	915.15
394.10	1041.54
394.29	1123.46
394.49	1097.71
394.68	1324.74
394.88	1266.23
395.07	1245.16
395.26	1207.72
395.46	1289.64
395.65	1188.99
395.84	1064.94
396.04	917.49
396.23	819.19
396.42	709.18
396.62	706.84
396.81	734.93
397.00	830.89
397.19	1046.22
397.39	1191.33
397.58	1448.79
397.77	1427.73
397.97	1385.60
398.16	1516.67
398.35	1572.84
398.55	1591.56
398.74	1586.88
398.93	1692.21
399.12	1720.29
399.32	1692.21
399.51	1685.19
399.70	1769.44
399.90	1788.17
400.09	1753.06
400.28	1701.57
400.47	1682.85
400.67	1872.43
400.86	1722.63
401.05	1792.85
401.24	1795.19
401.44	1952.01
401.63	1898.17
401.82	1717.95
402.01	1799.87
402.21	1867.75
402.40	1837.32
402.59	1827.96
402.78	1884.13
402.97	1799.87
403.17	1804.55
403.36	1914.56
403.55	2050.31
403.74	1940.30
403.93	1832.64
404.13	1888.81
404.32	1750.72
404.51	1795.19
404.70	1888.81
404.89	1886.47
405.09	1884.13
405.28	1811.57
405.47	1827.96
405.66	1771.79
405.85	1895.83
406.05	1762.42
406.24	1727.32
406.43	1879.45
406.62	1844.34
406.81	1912.22
407.00	1818.60
407.20	1919.24
407.39	1870.09
407.58	1827.96
407.77	1905.20
407.96	1987.11
408.15	2022.22
408.34	2017.54
408.54	2146.27
408.73	2113.50
408.92	2225.85
409.11	2115.84
409.30	1998.82
409.49	1933.28
409.68	1804.55
409.87	1668.80
410.07	1825.62
410.26	1937.96
410.45	2085.42
410.64	2073.71
410.83	2193.08
411.02	2113.50
411.21	2333.51
411.40	2225.85
411.59	2293.72
411.78	2132.23
411.98	2153.29
412.17	2160.31
412.36	2265.64
412.55	2155.63
412.74	2174.36
412.93	2246.91
413.12	2094.78
413.31	2165.00
413.50	2270.32
413.69	2401.39
413.88	2356.92
414.07	2223.51
414.26	2228.19
414.45	2267.98
414.64	2464.58
414.83	2415.43
415.02	2345.22
415.22	2211.81
415.41	2377.98
415.60	2459.90
415.79	2394.37
415.98	2593.31
416.17	2541.82
416.36	2502.03
416.55	2457.56
416.74	2399.05
416.93	2289.04
417.12	2356.92
417.31	2429.48
417.50	2516.08
417.69	2399.05
417.88	2555.86
418.07	2427.14
418.26	2347.56
418.45	2366.28
418.64	2527.78
418.83	2523.10
419.02	2431.82
419.21	2518.42
419.39	2373.30
419.58	2377.98
419.77	2267.98
419.96	2340.54
420.15	2553.52
420.34	2630.76
420.53	2644.81
420.72	2689.28
420.91	2712.68
421.10	2534.80
421.29	2733.75
421.48	2490.33
421.67	2635.44
421.86	2640.12
422.05	2473.95
422.24	2228.19
422.43	2193.08
422.61	2417.77
422.80	2548.84
422.99	2614.38
423.18	2544.16
423.37	2471.61
423.56	2595.65
423.75	2572.25
423.94	2555.86
424.13	2427.14
424.32	2333.51
424.50	2436.50
424.69	2466.92
424.88	2452.88
425.07	2420.11
425.26	2431.82
425.45	2363.94
425.64	2211.81
425.83	2359.26
426.01	2506.71
426.20	2572.25
426.39	2579.27
426.58	2363.94
426.77	2223.51
426.96	2195.42
427.15	2225.85
427.33	2298.41
427.52	2385.01
427.71	2420.11
427.90	2394.37
428.09	2387.35
428.28	2333.51
428.46	2239.89
428.65	2265.64
428.84	2263.30
429.03	2345.22
429.22	2193.08
429.40	2127.55
429.59	1973.07
429.78	1769.44
429.97	1732.00
430.16	1696.89
430.34	1853.70
430.53	1820.94
430.72	1708.59
430.91	2008.18
431.10	2232.87
431.28	2691.62
431.47	2792.26
431.66	2841.41
431.85	2600.34
432.03	2490.33
432.22	2333.51
432.41	2464.58
432.60	2588.63
432.79	2724.38
432.97	2738.43
433.16	2773.53
433.35	2476.29
433.54	2333.51
433.72	2183.72
433.91	2186.06
434.10	2319.47
434.28	2553.52
434.47	2759.49
434.66	2848.43
434.85	2787.58
435.03	2771.19
435.22	2918.65
435.41	3208.87
435.59	3059.08
435.78	3094.19
435.97	2977.16
436.16	2967.80
436.34	2918.65
436.53	2920.99
436.72	2825.03
436.90	2785.24
437.09	2724.38
437.28	2871.84
437.46	2736.09
437.65	2794.60
437.84	2640.12
438.02	2429.48
438.21	2450.54
438.40	2434.16
438.58	2724.38
438.77	2752.47
438.96	2808.64
439.14	2909.29
439.33	2916.31
439.52	3045.04
439.70	2904.60
439.89	2925.67
440.08	2822.69
440.26	2799.28
440.45	2906.95
440.63	2960.78
440.82	3173.77
441.01	3176.11
441.19	3108.23
441.38	3108.23
441.57	3208.87
441.75	3311.86
441.94	3351.65
442.12	3300.16
442.31	3253.34
442.50	3269.73
442.68	3386.76
442.87	3220.58
443.05	3286.11
443.24	3204.19
443.43	3428.88
443.61	3382.07
443.80	3398.46
443.98	3215.90
444.17	3330.58
444.35	3393.78
444.54	3419.52
444.73	3389.10
444.91	3358.67
445.10	3091.85
445.28	2993.55
445.47	2960.78
445.65	2878.86
445.84	3159.72
446.02	3155.04
446.21	3300.16
446.39	3255.69
446.58	3363.35
446.77	3316.54
446.95	3330.58
447.14	3363.35
447.32	3550.59
447.51	3473.36
447.69	3471.01
447.88	3363.35
448.06	3316.54
448.25	3328.24
448.43	3365.69
448.62	3307.18
448.80	3393.78
448.99	3435.91
449.17	3449.95
449.36	3255.69
449.54	3405.48
449.73	3520.17
449.91	3592.72
450.10	3672.30
450.28	3737.84
450.46	3812.73
450.65	3796.35
450.83	3756.56
451.02	3585.70
451.20	3564.64
451.39	3625.49
451.57	3590.38
451.76	3541.23
451.94	3393.78
452.13	3571.66
452.31	3421.86
452.49	3239.30
452.68	3187.81
452.86	3236.96
453.05	3302.50
453.23	3389.10
453.42	3368.03
453.60	3377.39
453.78	3494.42
453.97	3555.27
454.15	3562.30
454.34	3543.57
454.52	3435.91
454.70	3515.48
454.89	3438.25
455.07	3475.70
455.26	3566.98
455.44	3536.55
455.62	3695.71
455.81	3695.71
455.99	3712.09
456.17	3735.50
456.36	3616.13
456.54	3758.90
456.73	3609.11
456.91	3833.80
457.09	3873.59
457.28	3929.76
457.46	3861.88
457.64	3676.98
457.83	3599.74
458.01	3515.48
458.19	3522.51
458.38	3588.04
458.56	3721.45
458.74	3730.81
458.93	3581.02
459.11	3707.41
459.29	3700.39
459.48	3747.20
459.66	3669.96
459.84	3648.90
460.03	3896.99
460.21	3840.82
460.39	3840.82
460.57	3831.46
460.76	3779.97
460.94	3845.50
461.12	3932.10
461.31	3880.61
461.49	3810.39
461.67	3840.82
461.85	3857.20
462.04	3962.53
462.22	4329.99
462.40	4051.47
462.59	4044.45
462.77	4028.06
462.95	3985.93
463.13	3777.62
463.32	3847.84
463.50	3831.46
463.68	3843.16
463.86	3810.39
464.05	3674.64
464.23	3730.81
464.41	3655.92
464.59	3616.13
464.78	3786.99
464.96	3885.29
465.14	3772.94
465.32	3822.09
465.50	3763.58
465.69	3932.10
465.87	3756.56
466.05	3770.60
466.23	3665.28
466.41	3538.89
466.60	3494.42
466.78	3672.30
466.96	3714.43
467.14	3735.50
467.32	3712.09
467.51	3782.31
467.69	3672.30
467.87	3747.20
468.05	3840.82
468.23	3822.09
468.41	3702.73
468.60	3784.65
468.78	3566.98
468.96	3679.32
469.14	3845.50
469.32	3770.60
469.50	3700.39
469.69	3749.54
469.87	3784.65
470.05	3707.41
470.23	3667.62
470.41	3684.00
470.59	3651.24
470.77	3749.54
470.95	3819.75
471.14	3817.41
471.32	3866.56
471.50	4030.40
471.68	3950.82
471.86	4009.34
472.04	4067.85
472.22	4077.21
472.40	3950.82
472.58	3946.14
472.77	3798.69
472.95	4002.32
473.13	4032.74
473.31	3911.04
473.49	3889.97
473.67	3983.59
473.85	4079.55
474.03	4056.15
474.21	4088.92
474.39	4102.96
474.57	4084.23
474.75	4093.60
474.93	4093.60
475.12	3971.89
475.30	4060.83
475.48	4023.38
475.66	4175.52
475.84	3974.23
476.02	3894.65
476.20	4105.30
476.38	4081.89
476.56	4208.28
476.74	4189.56
476.92	4273.82
477.10	4386.16
477.28	4421.27
477.46	4346.37
477.64	4437.66
477.82	4533.62
478.00	4582.77
478.18	4348.72
478.36	4374.46
478.54	4528.94
478.72	4517.23
478.90	4510.21
479.08	4875.34
479.26	4779.37
479.44	4683.41
479.62	4704.48
479.80	4699.80
479.98	4631.92
480.16	4767.67
480.34	4774.69
480.52	5015.77
480.70	4720.86
480.88	4884.70
481.06	4891.72
481.24	4910.44
481.41	5004.07
481.59	5137.48
481.77	5053.22
481.95	5069.60
482.13	5050.88
482.31	5064.92
482.49	4954.91
482.67	5256.84
482.85	5153.86
483.03	5259.18
483.21	5181.95
483.39	5163.22
483.57	5153.86
483.74	5100.03
483.92	5207.69
484.10	5076.62
484.28	5137.48
484.46	5268.55
484.64	5441.75
484.82	5263.86
485.00	5156.20
485.18	5118.75
485.35	5029.81
485.53	4851.93
485.71	4341.69
485.89	4266.80
486.07	4358.08
486.25	4690.43
486.43	4922.15
486.61	5067.26
486.78	4980.66
486.96	5198.33
487.14	5383.23
487.32	5444.09
487.50	5556.43
487.68	5802.19
487.85	5607.92
488.03	5907.51
488.21	5619.63
488.39	5778.78
488.57	5584.52
488.75	5518.98
488.92	5685.16
489.10	5987.09
489.28	6195.40
489.46	6202.42
489.64	6221.14
489.81	6387.32
489.99	6132.20
490.17	6417.75
490.35	6363.92
490.53	6277.32
490.70	6043.26
490.88	6179.01
491.06	6380.30
491.24	6246.89
491.41	6050.28
491.59	5930.92
491.77	5664.10
491.95	5961.34
492.13	6204.76
492.30	6293.70
492.48	6441.15
492.66	6539.46
492.84	6588.61
493.01	6513.71
493.19	6511.37
493.37	6443.49
493.54	6469.24
493.72	6569.88
493.90	6649.46
494.08	6946.71
494.25	6864.79
494.43	7054.37
494.61	7164.38
494.79	7007.56
494.96	7002.88
495.14	7023.95
495.32	6722.02
495.49	6616.69
495.67	6691.59
495.85	7143.32
496.02	7293.11
496.20	7138.63
496.38	6909.26
496.55	6953.73
496.73	7213.53
496.91	7016.93
497.09	7255.66
497.26	7403.11
497.44	7178.42
497.62	7087.14
497.79	6911.60
497.97	6546.48
498.14	6686.91
498.32	6771.17
498.50	6942.03
498.67	7040.33
498.85	7269.70
499.03	7243.96
499.20	7255.66
499.38	7351.62
499.56	7250.98
499.73	7248.64
499.91	7255.66
500.08	7063.74
500.26	6707.98
500.44	7005.22
500.61	6939.69
500.79	7005.22
500.97	7002.88
501.14	6927.99
501.32	6846.07
501.49	6860.11
501.67	6761.81
501.84	7162.04
502.02	7236.94
502.20	7089.48
502.37	7136.29
502.55	7171.40
502.72	6965.43
502.90	7267.36
503.07	7234.60
503.25	6956.07
503.43	6752.45
503.60	6534.78
503.78	6457.54
503.95	6579.25
504.13	6918.62
504.30	7129.27
504.48	7318.86
504.65	7204.17
504.83	7206.51
505.01	7529.50
505.18	7454.61
505.36	7550.57
505.53	7569.29
505.71	7543.55
505.88	7763.56
506.06	7531.84
506.23	7316.51
506.41	7246.30
506.58	7358.64
506.76	7412.48
506.93	7274.38
507.11	7265.02
507.28	7335.24
507.46	7131.61
507.63	7084.80
507.81	6899.90
507.98	7098.84
508.16	7389.07
508.33	7372.69
508.50	7569.29
508.68	7609.08
508.85	7747.17
509.03	7688.66
509.20	7765.90
509.38	7581.00
509.55	7403.11
509.73	7473.33
509.90	7679.30
510.08	7363.33
510.25	7501.42
510.42	7459.29
510.60	7442.90
510.77	7653.55
510.95	7655.89
511.12	7747.17
511.30	7932.08
511.47	7957.82
511.64	8149.75
511.82	7712.07
511.99	7510.78
512.17	7510.78
512.34	7438.22
512.51	7391.41
512.69	7335.24
512.86	7529.50
513.04	7585.68
513.21	7566.95
513.38	7599.72
513.56	7447.58
513.73	7396.09
513.90	7162.04
514.08	7332.90
514.25	7524.82
514.43	7562.27
514.60	7311.83
514.77	7557.59
514.95	7396.09
515.12	7478.01
515.29	7639.51
515.47	7808.03
515.64	7793.98
515.81	7843.14
515.99	7515.46
516.16	7370.35
516.33	6717.34
516.51	6305.40
516.68	6249.23
516.85	6150.93
517.03	6179.01
517.20	6658.82
517.37	7328.22
517.54	7569.29
517.72	7405.46
517.89	7101.19
518.06	6321.79
518.24	6494.99
518.41	6799.26
518.58	7126.93
518.75	7236.94
518.93	7323.54
519.10	7208.85
519.27	7368.01
519.45	7470.99
519.62	7573.97
519.79	7723.77
519.96	7803.35
520.14	7627.81
520.31	7258.00
520.48	7461.63
520.65	7311.83
520.83	7660.57
521.00	7562.27
521.17	7772.92
521.34	7478.01
521.52	7632.49
521.69	7850.16
521.86	7887.61
522.03	7927.39
522.20	7632.49
522.38	7272.04
522.55	7206.51
522.72	7468.65
522.89	7648.87
523.07	7564.61
523.24	7611.42
523.41	7906.33
523.58	7995.27
523.75	7932.08
523.92	8093.57
524.10	8065.49
524.27	7882.92
524.44	7929.74
524.61	7843.14
524.78	7803.35
524.96	7723.77
525.13	7791.64
525.30	7995.27
525.47	8042.08
525.64	8032.72
525.81	7756.54
525.98	7548.23
526.16	7213.53
526.33	6942.03
526.50	6836.70
526.67	6839.05
526.84	6799.26
527.01	7215.87
527.18	7335.24
527.36	7503.76
527.53	7836.11
527.70	7985.91
527.87	7754.19
528.04	7674.62
528.21	7712.07
528.38	7939.10
528.55	8114.64
528.72	8273.79
528.89	8166.13
529.07	8175.49
529.24	8074.85
529.41	7861.86
529.58	7667.60
529.75	7634.83
529.92	7822.07
530.09	7892.29
530.26	7873.56
530.43	7962.50
530.60	8039.74
530.77	8088.89
530.94	8290.18
531.11	8065.49
531.28	7941.44
531.46	7824.41
531.63	8067.83
531.80	7754.19
531.97	7676.96
532.14	7683.98
532.31	7150.34
532.48	7108.21
532.65	7040.33
532.82	7222.89
532.99	7637.17
533.16	7822.07
533.33	7840.79
533.50	7852.50
533.67	7857.18
533.84	7585.68
534.01	7527.16
534.18	7473.33
534.35	7627.81
534.52	7728.45
534.69	7808.03
534.86	7880.58
535.03	7911.01
535.20	8142.72
535.37	8224.64
535.54	8166.13
535.71	7997.61
535.88	8013.99
536.05	7880.58
536.22	7686.32
536.38	7531.84
536.55	7543.55
536.72	7372.69
536.89	7358.64
537.06	7625.47
537.23	7866.54
537.40	7906.33
537.57	7836.11
537.74	7866.54
537.91	7953.14
538.08	7901.65
538.25	7712.07
538.42	7845.48
538.59	7676.96
538.75	7595.04
538.92	7662.91
539.09	7595.04
539.26	7581.00
539.43	7482.69
539.60	7573.97
539.77	7751.85
539.94	7721.43
540.11	7307.15
540.28	7370.35
540.44	7258.00
540.61	7073.10
540.78	7295.45
540.95	7400.77
541.12	7494.40
541.29	7667.60
541.46	7761.22
541.62	7922.71
541.79	7932.08
541.96	7555.25
542.13	7595.04
542.30	7658.23
542.47	7854.84
542.63	7751.85
542.80	7566.95
542.97	7662.91
543.14	7405.46
543.31	7314.17
543.48	7676.96
543.64	8037.40
543.81	8060.80
543.98	8070.17
544.15	7686.32
544.32	7625.47
544.48	7712.07
544.65	7730.79
544.82	7660.57
544.99	7683.98
545.16	7840.79
545.32	7588.02
545.49	8081.87
545.66	8458.70
545.83	8182.51
546.00	8013.99
546.16	7859.52
546.33	7698.02
546.50	7641.85
546.67	7740.15
546.83	7763.56
547.00	7822.07
547.17	7613.76
547.34	7424.18
547.50	7328.22
547.67	7412.48
547.84	7304.81
548.00	7382.05
548.17	7630.15
548.34	7536.52
548.51	7602.06
548.67	7597.38
548.84	7695.68
549.01	7733.13
549.18	7583.34
549.34	7527.16
549.51	7618.44
549.68	7506.10
549.84	7510.78
550.01	7566.95
550.18	7573.97
550.34	7435.88
550.51	7363.33
550.68	7548.23
550.84	7386.73
551.01	7412.48
551.18	7386.73
551.34	7653.55
551.51	7468.65
551.68	7365.67
551.84	7660.57
552.01	7424.18
552.18	7595.04
552.34	7246.30
552.51	7325.88
552.68	7208.85
552.84	7293.11
553.01	7384.39
553.18	7197.15
553.34	7351.62
553.51	7316.51
553.67	7447.58
553.84	7712.07
554.01	7602.06
554.17	7473.33
554.34	7267.36
554.51	7419.50
554.67	7581.00
554.84	7555.25
555.00	7323.54
555.17	7323.54
555.33	7318.86
555.50	7358.64
555.67	7428.86
555.83	7012.24
556.00	7077.78
556.16	7375.03
556.33	7180.76
556.50	7068.42
556.66	6958.41
556.83	6958.41
556.99	7197.15
557.16	7094.16
557.32	7091.82
557.49	7162.04
557.65	7197.15
557.82	7023.95
557.98	7033.31
558.15	7215.87
558.32	6881.18
558.48	6693.93
558.65	6562.86
558.81	6857.77
558.98	6757.13
559.14	6832.02
559.31	6733.72
559.47	6986.50
559.64	6792.23
559.80	6829.68
559.97	6834.36
560.13	6953.73
560.30	7066.08
560.46	7297.79
560.63	7140.97
560.79	7290.77
560.96	7225.23
561.12	7075.44
561.29	6913.94
561.45	6766.49
561.61	6822.66
561.78	6963.09
561.94	7040.33
562.11	6881.18
562.27	6899.90
562.44	6895.22
562.60	7014.59
562.77	7056.72
562.93	7028.63
563.10	7152.68
563.26	6644.78
563.42	6909.26
563.59	6902.24
563.75	6789.89
563.92	6988.84
564.08	6902.24
564.24	6773.51
564.41	7096.50
564.57	6810.96
564.74	6787.55
564.90	6827.34
565.07	6752.45
565.23	6836.70
565.39	6464.56
565.56	6471.58
565.72	6305.40
565.88	6387.32
566.05	6586.27
566.21	6630.74
566.38	6726.70
566.54	6684.57
566.70	6796.92
566.87	6839.05
567.03	6717.34
567.19	6726.70
567.36	6654.14
567.52	6651.80
567.68	6729.04
567.85	6520.73
568.01	6289.02
568.17	6188.38
568.34	6450.52
568.50	6162.63
568.66	5980.07
568.83	6270.30
568.99	6274.98
569.15	6415.41
569.32	6319.45
569.48	6314.77
569.64	6232.85
569.81	6251.57
569.97	6326.47
570.13	6265.61
570.30	6354.55
570.46	6181.35
570.62	6024.54
570.78	6005.81
570.95	6052.63
571.11	6300.72
571.27	6286.68
571.43	6066.67
571.60	6176.67
571.76	6211.78
571.92	6237.53
572.09	6277.32
572.25	6389.66
572.41	6394.34
572.57	6249.23
572.74	6471.58
572.90	6300.72
573.06	6422.43
573.22	6342.85
573.38	6246.89
573.55	6361.58
573.71	6333.49
573.87	6534.78
574.03	6235.19
574.20	6258.59
574.36	6225.82
574.52	5975.39
574.68	6010.50
574.84	6211.78
575.01	6026.88
575.17	5900.49
575.33	6200.08
575.49	6132.20
575.65	6115.82
575.82	6099.44
575.98	6022.20
576.14	6139.23
576.30	6022.20
576.46	6282.00
576.62	6310.08
576.79	6181.35
576.95	6270.30
577.11	5973.05
577.27	6274.98
577.43	6129.86
577.59	5973.05
577.75	6038.58
577.92	5968.37
578.08	5783.46
578.24	5762.40
578.40	6047.94
578.56	6141.57
578.72	6188.38
578.88	6136.88
579.04	6286.68
579.21	6033.90
579.37	6101.78
579.53	6033.90
579.69	6251.57
579.85	6134.54
580.01	6118.16
580.17	6141.57
580.33	6106.46
580.49	6036.24
580.65	6101.78
580.82	6193.06
580.98	6211.78
581.14	6101.78
581.30	6244.55
581.46	5987.09
581.62	6099.44
581.78	6174.33
581.94	6258.59
582.10	6289.02
582.26	6221.14
582.42	6162.63
582.58	6195.40
582.74	6300.72
582.90	6263.27
583.06	6228.17
583.22	6052.63
583.38	6090.07
583.54	5975.39
583.70	6183.70
583.86	6120.50
584.02	6038.58
584.18	6221.14
584.34	5888.79
584.50	6134.54
584.66	6003.47
584.82	5802.19
584.98	5947.30
585.14	5797.51
585.30	5884.11
585.46	5699.20
585.62	5696.86
585.78	5722.61
585.94	5858.36
586.10	5830.27
586.26	5914.53
586.42	5888.79
586.58	6003.47
586.74	5863.04
586.90	5746.02
587.06	5991.77
587.22	5738.99
587.38	5661.76
587.54	5720.27
587.70	5437.06
587.86	5289.61
588.02	5219.39
588.18	5172.58
588.34	4959.60
588.49	4795.76
588.65	4348.72
588.81	4315.95
588.97	4351.06
589.13	4468.08
589.29	4236.37
589.45	4369.78
589.61	4334.67
589.77	4596.81
589.93	4713.84
590.08	4964.28
590.24	5207.69
590.40	5043.85
590.56	5036.83
590.72	4744.27
590.88	4947.89
591.04	5116.41
591.20	4788.74
591.35	4865.97
591.51	4966.62
591.67	4674.05
591.83	4819.16
591.99	4840.23
592.15	5027.47
592.31	4966.62
592.46	5053.22
592.62	5149.18
592.78	5137.48
592.94	5217.05
593.10	5144.50
593.26	5275.57
593.41	5282.59
593.57	5317.70
593.73	5062.58
593.89	4814.48
594.05	4575.75
594.20	4660.01
594.36	4631.92
594.52	4440.00
594.68	4589.79
594.84	4753.63
594.99	4877.68
595.15	4968.96
595.31	5048.54
595.47	5053.22
595.62	4938.53
595.78	5050.88
595.94	5151.52
596.10	5191.31
596.25	5301.31
596.41	5135.14
596.57	4992.36
596.73	5111.73
596.88	5015.77
597.04	5090.67
597.20	5006.41
597.36	5004.07
597.51	4828.53
