SpectraSuite Data File
++++++++++++++++++++++++++++++++++++
Date: Tue Oct 01 18:27:27 GMT-05:00 2013
User: stostad
Dark Spectrum Present: No
Reference Spectrum Present: No
Number of Sampled Component Spectra: 1
Spectrometers: USB2+H05261
Integration Time (usec): 100000 (USB2+H05261)
Spectra Averaged: 1 (USB2+H05261)
Boxcar Smoothing: 0 (USB2+H05261)
Correct for Electrical Dark: No (USB2+H05261)
Strobe/Lamp Enabled: No (USB2+H05261)
Correct for Detector Non-linearity: No (USB2+H05261)
Correct for Stray Light: No (USB2+H05261)
Number of Pixels in Processed Spectrum: 2048
>>>>>Begin Processed Spectral Data<<<<<
365.73	126.39
365.92	126.39
366.12	126.39
366.32	0.00
366.52	0.00
366.72	98.30
366.91	0.00
367.11	0.00
367.31	0.00
367.51	0.00
367.70	0.00
367.90	18.72
368.10	0.00
368.30	0.00
368.49	7.02
368.69	51.49
368.89	0.00
369.09	0.00
369.28	44.47
369.48	25.75
369.68	11.70
369.87	35.11
370.07	0.00
370.27	39.79
370.47	175.54
370.66	217.67
370.86	252.78
371.06	322.99
371.25	332.36
371.45	273.84
371.65	381.51
371.84	351.08
372.04	395.55
372.24	351.08
372.44	411.93
372.63	360.44
372.83	372.15
373.03	362.78
373.22	468.11
373.42	355.76
373.62	414.27
373.81	411.93
374.01	463.43
374.21	468.11
374.40	421.30
374.60	407.25
374.79	477.47
374.99	458.74
375.19	425.98
375.38	524.28
375.58	472.79
375.78	503.22
375.97	444.70
376.17	507.90
376.37	528.96
376.56	423.64
376.76	428.32
376.95	456.40
377.15	533.64
377.35	470.45
377.54	503.22
377.74	545.34
377.93	543.00
378.13	463.43
378.33	543.00
378.52	423.64
378.72	500.87
378.91	531.30
379.11	552.37
379.31	503.22
379.50	461.09
379.70	552.37
379.89	491.51
380.09	521.94
380.28	493.85
380.48	596.84
380.68	524.28
380.87	496.19
381.07	660.03
381.26	571.09
381.46	631.94
381.65	564.07
381.85	475.13
382.04	554.71
382.24	580.45
382.43	503.22
382.63	559.39
382.83	599.18
383.02	739.61
383.22	690.46
383.41	538.32
383.61	692.80
383.80	594.50
384.00	606.20
384.19	641.31
384.39	624.92
384.58	552.37
384.78	638.97
384.97	653.01
385.17	690.46
385.36	641.31
385.56	688.12
385.75	552.37
385.95	641.31
386.14	690.46
386.34	645.99
386.53	641.31
386.72	638.97
386.92	624.92
387.11	695.14
387.31	702.16
387.50	706.84
387.70	587.47
387.89	727.91
388.09	702.16
388.28	699.82
388.48	706.84
388.67	800.46
388.86	690.46
389.06	695.14
389.25	741.95
389.45	737.27
389.64	671.73
389.84	807.48
390.03	713.86
390.22	765.36
390.42	784.08
390.61	798.12
390.81	734.93
391.00	786.42
391.19	826.21
391.39	755.99
391.58	830.89
391.78	847.27
391.97	788.76
392.16	828.55
392.36	950.26
392.55	856.64
392.75	823.87
392.94	833.23
393.13	915.15
393.33	929.19
393.52	915.15
393.71	931.53
393.91	947.92
394.10	936.21
394.29	863.66
394.49	903.45
394.68	954.94
394.88	854.30
395.07	976.00
395.26	1018.13
395.46	1036.86
395.65	971.32
395.84	985.37
396.04	1100.05
396.23	1011.11
396.42	959.62
396.62	978.34
396.81	1076.65
397.00	968.98
397.19	987.71
397.39	1041.54
397.58	1137.50
397.77	1121.12
397.97	1100.05
398.16	1034.52
398.35	1104.73
398.55	1146.86
398.74	1125.80
398.93	1163.25
399.12	1109.41
399.32	1057.92
399.51	1172.61
399.70	1205.38
399.90	1308.36
400.09	1177.29
400.28	1245.16
400.47	1280.27
400.67	1263.89
400.86	1256.87
401.05	1294.32
401.24	1310.70
401.44	1179.63
401.63	1366.87
401.82	1376.24
402.01	1299.00
402.21	1437.09
402.40	1301.34
402.59	1376.24
402.78	1366.87
402.97	1373.89
403.17	1371.55
403.36	1343.47
403.55	1404.32
403.74	1446.45
403.93	1425.39
404.13	1561.14
404.32	1533.05
404.51	1467.52
404.70	1540.07
404.89	1528.37
405.09	1535.39
405.28	1472.20
405.47	1540.07
405.66	1621.99
405.85	1673.48
406.05	1685.19
406.24	1614.97
406.43	1629.01
406.62	1710.93
406.81	1732.00
407.00	1614.97
407.20	1682.85
407.39	1640.72
407.58	1839.66
407.77	1781.15
407.96	1837.32
408.15	1837.32
408.34	1874.77
408.54	1832.64
408.73	1769.44
408.92	1827.96
409.11	1944.99
409.30	1937.96
409.49	1956.69
409.68	2050.31
409.87	1961.37
410.07	2019.88
410.26	1982.43
410.45	2073.71
410.64	1959.03
410.83	2045.63
411.02	2050.31
411.21	2069.03
411.40	2172.02
411.59	2237.55
411.78	2225.85
411.98	2195.42
412.17	2263.30
412.36	2260.96
412.55	2202.44
412.74	2326.49
412.93	2399.05
413.12	2464.58
413.31	2436.50
413.50	2408.41
413.69	2483.31
413.88	2497.35
414.07	2588.63
414.26	2619.06
414.45	2497.35
414.64	2523.10
414.83	2647.15
415.02	2518.42
415.22	2642.46
415.41	2703.32
415.60	2729.06
415.79	2792.26
415.98	2705.66
416.17	2729.06
416.36	2860.13
416.55	2874.18
416.74	2953.76
416.93	2799.28
417.12	2871.84
417.31	2888.22
417.50	2977.16
417.69	3098.87
417.88	3038.02
418.07	3033.33
418.26	2967.80
418.45	3103.55
418.64	3236.96
418.83	3143.34
419.02	3080.14
419.21	3042.70
419.39	3208.87
419.58	3129.30
419.77	3148.02
419.96	3241.64
420.15	3227.60
420.34	3194.83
420.53	3311.86
420.72	3417.18
420.91	3335.26
421.10	3419.52
421.29	3379.73
421.48	3300.16
421.67	3475.70
421.86	3461.65
422.05	3461.65
422.24	3449.95
422.43	3321.22
422.61	3522.51
422.80	3515.48
422.99	3559.95
423.18	3449.95
423.37	3559.95
423.56	3639.53
423.75	3440.59
423.94	3414.84
424.13	3215.90
424.32	3499.10
424.50	3588.04
424.69	3625.49
424.88	3590.38
425.07	3515.48
425.26	3534.21
425.45	3501.44
425.64	3520.17
425.83	3620.81
426.01	3702.73
426.20	3644.21
426.39	3655.92
426.58	3590.38
426.77	3592.72
426.96	3611.45
427.15	3758.90
427.33	3824.44
427.52	3641.87
427.71	3651.24
427.90	3723.79
428.09	3772.94
428.28	3833.80
428.46	3904.01
428.65	3962.53
428.84	3957.85
429.03	4004.66
429.22	3808.05
429.40	3971.89
429.59	3967.21
429.78	3866.56
429.97	3653.58
430.16	3822.09
430.34	3962.53
430.53	3978.91
430.72	4067.85
430.91	3946.14
431.10	4133.39
431.28	4079.55
431.47	4156.79
431.66	4355.74
431.85	4145.09
432.03	4383.82
432.22	4390.84
432.41	4259.78
432.60	4351.06
432.79	4341.69
432.97	4379.14
433.16	4292.54
433.35	4248.07
433.54	4390.84
433.72	4538.30
433.91	4421.27
434.10	4397.87
434.28	4606.17
434.47	4622.56
434.66	4533.62
434.85	4407.23
435.03	4568.73
435.22	4622.56
435.41	4505.53
435.59	4521.92
435.78	4681.07
435.97	4524.26
436.16	4521.92
436.34	4454.04
436.53	4751.29
436.72	4830.87
436.90	4592.13
437.09	4812.14
437.28	4798.10
437.46	4681.07
437.65	4741.93
437.84	4709.16
438.02	4912.78
438.21	4926.83
438.40	5046.20
438.58	4954.91
438.77	5078.96
438.96	4952.57
439.14	5254.50
439.33	5259.18
439.52	5296.63
439.70	5224.08
439.89	5390.25
440.08	5270.89
440.26	5453.45
440.45	5420.68
440.63	5462.81
440.82	5462.81
441.01	5528.35
441.19	5591.54
441.38	5636.01
441.57	5437.06
441.75	5673.46
441.94	5638.35
442.12	5699.20
442.31	5785.80
442.50	5790.49
442.68	5823.25
442.87	5832.62
443.05	5788.14
443.24	5970.71
443.43	6031.56
443.61	6017.52
443.80	6069.01
443.98	5724.95
444.17	5776.44
444.35	6050.28
444.54	6080.71
444.73	5888.79
444.91	6003.47
445.10	5994.11
445.28	6029.22
445.47	5947.30
445.65	6054.97
445.84	6059.65
446.02	6232.85
446.21	6057.31
446.39	5996.45
446.58	6239.87
446.77	6148.59
446.95	5963.68
447.14	6080.71
447.32	6274.98
447.51	6270.30
447.69	6052.63
447.88	6141.57
448.06	6218.80
448.25	6293.70
448.43	6246.89
448.62	6239.87
448.80	6232.85
448.99	6221.14
449.17	6331.15
449.36	6377.96
449.54	6188.38
449.73	6457.54
449.91	6480.94
450.10	6719.68
450.28	6677.55
450.46	6726.70
450.65	6808.62
450.83	6600.31
451.02	6523.07
451.20	6579.25
451.39	6693.93
451.57	6525.41
451.76	6677.55
451.94	6792.23
452.13	6640.10
452.31	6871.81
452.49	6775.85
452.68	6899.90
452.86	6939.69
453.05	6944.37
453.23	6815.64
453.42	6768.83
453.60	6778.19
453.78	6850.75
453.97	6670.53
454.15	7066.08
454.34	6731.38
454.52	7056.72
454.70	6949.05
454.89	7112.89
455.07	7068.42
455.26	7269.70
455.44	7119.91
455.62	7096.50
455.81	7131.61
455.99	7403.11
456.17	7309.49
456.36	7300.13
456.54	7368.01
456.73	7335.24
456.91	7559.93
457.09	7592.70
457.28	7730.79
457.46	7501.42
457.64	7552.91
457.83	7461.63
458.01	7529.50
458.19	7669.94
458.38	7637.17
458.56	7854.84
458.74	7665.25
458.93	7606.74
459.11	7716.75
459.29	7908.67
459.48	7763.56
459.66	7873.56
459.84	8077.19
460.03	8053.78
460.21	7885.26
460.39	8058.46
460.57	7894.63
460.76	7875.90
460.94	7782.28
461.12	7946.12
461.31	8081.87
461.49	8334.65
461.67	8194.22
461.85	8210.60
462.04	8332.31
462.22	8802.75
462.40	8456.36
462.59	8334.65
462.77	8526.57
462.95	8390.82
463.13	8390.82
463.32	8606.15
463.50	8439.97
463.68	8596.79
463.86	8575.72
464.05	8411.89
464.23	8561.68
464.41	8650.62
464.59	8545.30
464.78	8671.68
464.96	8751.26
465.14	8411.89
465.32	8727.86
465.50	8769.99
465.69	8788.71
465.87	8627.21
466.05	8917.44
466.23	8798.07
466.41	8840.20
466.60	9123.41
466.78	8858.93
466.96	8858.93
467.14	8959.57
467.32	9025.11
467.51	9172.56
467.69	8833.18
467.87	9165.54
468.05	9006.38
468.23	9125.75
468.41	9231.07
468.60	9151.49
468.78	9315.33
468.96	9153.84
469.14	9270.86
469.32	9481.51
469.50	9163.20
469.69	9453.42
469.87	9593.86
470.05	9621.94
470.23	9554.07
470.41	9586.83
470.59	9753.01
470.77	9804.50
470.95	9713.22
471.14	9830.25
471.32	9406.61
471.50	9856.00
471.68	9907.49
471.86	9998.77
472.04	9830.25
472.22	10113.45
472.40	9970.68
472.58	10001.11
472.77	10223.46
472.95	10391.98
473.13	10541.77
473.31	10338.15
473.49	10164.95
473.67	10303.04
473.85	10394.32
474.03	10532.41
474.21	10509.01
474.39	10824.98
474.57	10949.03
474.75	10555.82
474.93	10939.66
475.12	10712.63
475.30	10888.17
475.48	10813.28
475.66	11169.04
475.84	10958.39
476.02	10991.16
476.20	11225.21
476.38	11660.55
476.56	11480.33
476.74	11541.18
476.92	11454.58
477.10	11623.10
477.28	11623.10
477.46	11651.19
477.64	11960.14
477.82	12262.07
478.00	12355.69
478.18	12320.58
478.36	12273.77
478.54	12449.31
478.72	12395.48
478.90	12762.94
479.08	12442.29
479.26	12912.74
479.44	12828.48
479.62	12877.63
479.80	13069.55
479.98	13294.24
480.16	13385.52
480.34	13287.22
480.52	13422.97
480.70	13345.73
480.88	13500.21
481.06	13467.44
481.24	13827.88
481.41	13774.05
481.59	14122.79
481.77	14178.97
481.95	14181.31
482.13	14277.27
482.31	14303.01
482.49	14719.63
482.67	14721.97
482.85	15033.26
483.03	15211.14
483.21	15140.93
483.39	15171.35
483.57	15098.80
483.74	15286.04
483.92	15555.20
484.10	15609.03
484.28	15861.81
484.46	15962.45
484.64	16528.86
484.82	15838.41
485.00	16226.93
485.18	16561.63
485.35	16617.80
485.53	16580.36
485.71	16856.54
485.89	17149.11
486.07	17062.51
486.25	17142.08
486.43	17357.41
486.61	17429.97
486.78	17549.34
486.96	17589.13
487.14	18090.00
487.32	17858.29
487.50	17851.27
487.68	18286.61
487.85	18637.69
488.03	18555.77
488.21	18986.43
488.39	18752.37
488.57	19110.47
488.75	19105.79
488.92	19613.69
489.10	19548.15
489.28	19440.49
489.46	19606.67
489.64	19740.08
489.81	20240.95
489.99	20023.28
490.17	20402.45
490.35	20343.94
490.53	20683.31
490.70	20716.08
490.88	21064.82
491.06	20545.22
491.24	21046.10
491.41	21240.36
491.59	21371.43
491.77	21593.78
491.95	21685.06
492.13	21722.51
492.30	22012.74
492.48	22104.02
492.66	22050.19
492.84	22197.64
493.01	22389.56
493.19	22551.06
493.37	22462.12
493.54	22855.33
493.72	22867.03
493.90	22965.34
494.08	23391.31
494.25	23498.98
494.43	23433.44
494.61	23510.68
494.79	23295.35
494.96	23438.12
495.14	24231.57
495.32	24257.31
495.49	23974.11
495.67	24290.08
495.85	24350.93
496.02	24528.81
496.20	25319.92
496.38	24519.45
496.55	24868.19
496.73	25343.32
496.91	25230.98
497.09	25385.45
497.26	25563.33
497.44	25333.96
497.62	26033.78
497.79	25869.94
497.97	25757.60
498.14	26520.61
498.32	26307.62
498.50	26565.08
498.67	26387.20
498.85	26820.20
499.03	26422.31
499.20	27267.24
499.38	26902.12
499.56	26897.44
499.73	27115.11
499.91	27302.35
500.08	27264.90
500.26	27356.18
500.44	27302.35
500.61	27702.58
500.79	27758.75
500.97	27690.88
501.14	28521.77
501.32	28229.20
501.49	27871.10
501.67	28194.09
501.84	28556.88
502.02	28369.63
502.20	28875.19
502.37	28542.83
502.55	28823.70
502.72	28933.70
502.90	28863.49
503.07	28875.19
503.25	29088.18
503.43	29191.16
503.60	29570.33
503.78	29654.59
503.95	29675.65
504.13	29694.38
504.30	29666.29
504.48	29748.21
504.65	29820.77
504.83	29963.54
505.01	30225.68
505.18	29839.49
505.36	30380.15
505.53	30455.05
505.71	30422.28
505.88	31000.40
506.06	30944.22
506.23	30878.69
506.41	30827.20
506.58	30347.39
506.76	31182.96
506.93	31105.72
507.11	31229.77
507.28	31569.15
507.46	31859.37
507.63	31875.76
507.81	31630.00
507.98	31395.95
508.16	31838.31
508.33	32037.25
508.50	31894.48
508.68	32608.34
508.85	32336.84
509.03	32121.51
509.20	32458.55
509.38	32100.45
509.55	32971.13
509.73	33083.47
509.90	33034.32
510.08	33020.28
510.25	33053.05
510.42	32910.27
510.60	33287.10
510.77	33446.26
510.95	33558.60
511.12	33289.44
511.30	33464.98
511.47	33797.34
511.64	33612.43
511.82	33675.63
511.99	33633.50
512.17	33933.09
512.34	34040.75
512.51	34518.22
512.69	34373.11
512.86	34822.49
513.04	34756.96
513.21	34646.95
513.38	34792.06
513.56	34785.04
513.73	34848.24
513.90	34712.49
514.08	35051.86
514.25	35372.52
514.43	35372.52
514.60	34873.98
514.77	35452.09
514.95	35686.15
515.12	35489.54
515.29	35592.53
515.47	35503.59
515.64	36369.58
515.81	35894.46
515.99	35927.22
516.16	36392.99
516.33	35948.29
516.51	36334.48
516.68	35859.35
516.85	36556.83
517.03	36510.02
517.20	37205.16
517.37	36149.57
517.54	36641.09
517.72	36865.78
517.89	36268.94
518.06	37022.59
518.24	37151.32
518.41	36940.68
518.58	37427.51
518.75	37228.56
518.93	37359.63
519.10	37488.36
519.27	37581.98
519.45	37528.15
519.62	37832.42
519.79	37673.26
519.96	38054.77
520.14	38302.87
520.31	37778.59
520.48	38314.57
520.65	38450.32
520.83	38192.86
521.00	38286.48
521.17	38066.47
521.34	38373.08
521.52	38480.75
521.69	38525.22
521.86	38686.71
522.03	38508.83
522.20	39264.83
522.38	39100.99
522.55	39199.29
522.72	39276.53
522.89	39077.58
523.07	39391.22
523.24	39278.87
523.41	39452.07
523.58	39110.35
523.75	39676.76
523.92	39618.25
524.10	39585.48
524.27	39948.26
524.44	39920.18
524.61	40032.52
524.78	40198.70
524.96	40119.12
525.13	40065.29
525.30	40641.06
525.47	40835.33
525.64	40671.49
525.81	40292.32
525.98	40299.34
526.16	40488.93
526.33	40636.38
526.50	40868.09
526.67	40573.19
526.84	40959.38
527.01	40882.14
527.18	41036.61
527.36	41155.98
527.53	40982.78
527.70	41127.89
527.87	41202.79
528.04	41029.59
528.21	41378.33
528.38	41766.86
528.55	41457.91
528.72	41537.49
528.89	41596.00
529.07	41549.19
529.24	41509.40
529.41	41968.15
529.58	41680.26
529.75	41633.45
529.92	42258.37
530.09	42277.10
530.26	42649.24
530.43	42117.94
530.60	41673.24
530.77	42560.30
530.94	42293.48
531.11	42651.58
531.28	42532.22
531.46	42969.90
531.63	42611.79
531.80	42639.88
531.97	42735.84
532.14	42799.04
532.31	42745.20
532.48	42300.50
532.65	43323.32
532.82	42904.36
532.99	43531.62
533.16	42927.77
533.33	43288.21
533.50	43606.52
533.67	43302.25
533.84	43122.03
534.01	43143.09
534.18	42794.36
534.35	44062.93
534.52	43367.79
534.69	44102.71
534.86	43938.88
535.03	43871.00
535.20	43655.67
535.37	43899.09
535.54	43913.13
535.71	43913.13
535.88	44081.65
536.05	44165.91
536.22	44280.60
536.38	44453.79
536.55	44058.24
536.72	44252.51
536.89	43966.96
537.06	43917.81
537.23	44470.18
537.40	44423.37
537.57	44570.82
537.74	44568.48
537.91	44800.19
538.08	44524.01
538.25	44095.69
538.42	44381.24
538.59	45642.79
538.75	45001.48
538.92	44994.46
539.09	45216.81
539.26	45298.73
539.43	45544.48
539.60	45382.99
539.77	45333.84
539.94	45640.45
540.11	45301.07
540.28	45272.98
540.44	45635.77
540.61	46021.95
540.78	45645.13
540.95	45612.36
541.12	45497.67
541.29	45556.19
541.46	45619.38
541.62	45436.82
541.79	45827.69
541.96	45659.17
542.13	45532.78
542.30	46038.34
542.47	46131.96
542.63	46043.02
542.80	45975.14
542.97	46574.32
543.14	46756.88
543.31	46398.78
543.48	46749.86
543.64	46579.00
543.81	46667.94
543.98	46972.21
544.15	46497.08
544.32	46667.94
544.48	46770.93
544.65	46574.32
544.82	46986.25
544.99	46955.83
545.16	46817.74
545.32	47138.39
545.49	47484.79
545.66	47585.43
545.83	47201.58
546.00	47227.33
546.16	47227.33
546.33	47129.03
546.50	46913.70
546.67	47599.47
546.83	46934.76
547.00	46988.60
547.17	47033.07
547.34	47564.37
547.50	47281.16
547.67	48100.35
547.84	48119.07
548.00	47903.74
548.17	48065.24
548.34	48107.37
548.51	47908.43
548.67	48090.99
548.84	47613.52
549.01	47377.12
549.18	47730.54
549.34	48037.16
549.51	48413.98
549.68	48072.26
549.84	48456.11
550.01	48287.59
550.18	48172.91
550.34	47999.71
550.51	48282.91
550.68	47945.87
550.84	48182.27
551.01	48353.13
551.18	47922.47
551.34	48275.89
551.51	48671.44
551.68	48664.42
551.84	48821.23
552.01	48430.36
552.18	48409.30
552.34	48362.49
552.51	48222.06
552.68	48390.58
552.84	48294.61
553.01	49139.55
553.18	48692.50
553.34	49027.20
553.51	49031.88
553.67	48641.01
553.84	49172.31
554.01	48938.26
554.17	48872.73
554.34	49263.60
554.51	49401.69
554.67	49338.49
554.84	49301.04
555.00	49172.31
555.17	49116.14
555.33	49502.33
555.50	49020.18
555.67	48889.11
555.83	49001.46
556.00	49153.59
556.16	49628.72
556.33	49418.07
556.50	49591.27
556.66	49766.81
556.83	49354.88
556.99	49811.28
557.16	49209.76
557.32	49378.28
557.49	49808.94
557.65	49453.18
557.82	49755.11
557.98	49642.76
558.15	49762.13
558.32	49432.11
558.48	49755.11
558.65	49602.97
558.81	49219.13
558.98	49649.78
559.14	49752.77
559.31	49553.82
559.47	49720.00
559.64	49869.79
559.80	50012.57
559.97	50204.49
560.13	49932.99
560.30	49684.89
560.46	49820.64
560.63	49881.50
560.79	49979.80
560.96	50110.87
561.12	49855.75
561.29	50330.88
561.45	50120.23
561.61	50054.70
561.78	49972.78
561.94	50145.98
562.11	50349.60
562.27	50057.04
562.44	49841.71
562.60	50312.16
562.77	50391.73
562.93	50138.96
563.10	50658.56
563.26	50363.65
563.42	50447.91
563.59	49996.18
563.75	50110.87
563.92	50389.39
564.08	50258.32
564.24	50307.47
564.41	50309.82
564.57	50511.10
564.74	50429.18
564.90	50550.89
565.07	50349.60
565.23	50115.55
565.39	50450.25
565.56	50124.91
565.72	50642.17
565.88	50581.32
566.05	50646.85
566.21	50625.79
566.38	50595.36
566.54	50742.81
566.70	50789.62
566.87	50731.11
567.03	50440.89
567.19	50681.96
567.36	50515.78
567.52	50237.26
567.68	50864.52
567.85	50684.30
568.01	50920.70
568.17	50698.34
568.34	50590.68
568.50	50813.03
568.66	50630.47
568.83	50894.95
568.99	50614.08
569.15	50438.54
569.32	50628.13
569.48	50939.42
569.64	51051.76
569.81	50478.33
569.97	50967.51
570.13	51133.68
570.30	50684.30
570.46	50789.62
570.62	50403.44
570.78	50490.04
570.95	50962.82
571.11	50990.91
571.27	50993.25
571.43	51019.00
571.60	50855.16
571.76	50901.97
571.92	51042.40
572.09	50983.89
572.25	50862.18
572.41	51028.36
572.57	50920.70
572.74	51231.99
572.90	51178.15
573.06	51213.26
573.22	50892.61
573.38	51255.39
573.55	50871.54
573.71	50995.59
573.87	50504.08
574.03	50894.95
574.20	50965.17
574.36	50782.60
574.52	51049.42
574.68	50857.50
574.84	51337.31
575.01	51435.61
575.17	51325.61
575.33	51276.46
575.49	50770.90
575.65	51435.61
575.82	51056.45
575.98	50969.85
576.14	51374.76
576.30	51278.80
576.46	51571.36
576.62	51061.13
576.79	51079.85
576.95	51124.32
577.11	51185.18
577.27	51398.16
577.43	51391.14
577.59	50960.48
577.75	51264.75
577.92	51143.05
578.08	51173.47
578.24	51323.27
578.40	51442.63
578.56	51381.78
578.72	51147.73
578.88	51224.96
579.04	51168.79
579.21	51257.73
579.37	51201.56
579.53	51182.84
579.69	51257.73
579.85	51194.54
580.01	51473.06
580.17	51271.78
580.33	51159.43
580.49	51419.23
580.65	51220.28
580.82	51363.06
580.98	51414.55
581.14	51192.20
581.30	51440.29
581.46	51391.14
581.62	51201.56
581.78	51412.21
581.94	51533.92
582.10	51082.19
582.26	51351.35
582.42	50988.57
582.58	50897.29
582.74	51171.13
582.90	51187.52
583.06	51124.32
583.22	51367.74
583.38	51222.62
583.54	51531.57
583.70	51423.91
583.86	51657.96
584.02	51093.89
584.18	51199.22
584.34	51428.59
584.50	51625.20
584.66	51283.48
584.82	51257.73
584.98	51545.62
585.14	51604.13
585.30	51491.79
585.46	51323.27
585.62	51171.13
585.78	51985.64
585.94	51309.22
586.10	51620.52
586.26	51236.67
586.42	51751.59
586.58	51524.55
586.74	51309.22
586.90	51512.85
587.06	51697.75
587.22	51789.03
587.38	51686.05
587.54	51679.03
587.70	51889.68
587.86	51512.85
588.02	51746.90
588.18	51409.87
588.34	51557.32
588.49	51681.37
588.65	51524.55
588.81	51880.31
588.97	51964.57
589.13	52011.38
589.29	51985.64
589.45	51950.53
589.61	51950.53
589.77	51751.59
589.93	51707.12
590.08	51896.70
590.24	51894.36
590.40	51899.04
