SpectraSuite Data File
++++++++++++++++++++++++++++++++++++
Date: Fri Oct 04 11:40:06 GMT-05:00 2013
User: price-jones
Dark Spectrum Present: No
Reference Spectrum Present: No
Number of Sampled Component Spectra: 1
Spectrometers: USB2+H05261
Integration Time (usec): 100000 (USB2+H05261)
Spectra Averaged: 1 (USB2+H05261)
Boxcar Smoothing: 0 (USB2+H05261)
Correct for Electrical Dark: No (USB2+H05261)
Strobe/Lamp Enabled: No (USB2+H05261)
Correct for Detector Non-linearity: No (USB2+H05261)
Correct for Stray Light: No (USB2+H05261)
Number of Pixels in Processed Spectrum: 2048
>>>>>Begin Processed Spectral Data<<<<<
365.73	14.04
365.92	14.04
366.12	14.04
366.32	0.00
366.52	0.00
366.72	0.00
366.91	0.00
367.11	0.00
367.31	0.00
367.51	0.00
367.70	11.70
367.90	0.00
368.10	0.00
368.30	0.00
368.49	0.00
368.69	32.77
368.89	0.00
369.09	0.00
369.28	0.00
369.48	0.00
369.68	0.00
369.87	25.75
370.07	0.00
370.27	37.45
370.47	163.84
370.66	355.76
370.86	498.53
371.06	657.69
371.25	592.16
371.45	475.13
371.65	503.22
371.84	454.06
372.04	449.38
372.24	568.75
372.44	557.05
372.63	498.53
372.83	552.37
373.03	540.66
373.22	393.21
373.42	519.60
373.62	540.66
373.81	613.22
374.01	550.03
374.21	552.37
374.40	454.06
374.60	547.69
374.79	610.88
374.99	676.41
375.19	683.44
375.38	678.76
375.58	575.77
375.78	653.01
375.97	617.90
376.17	641.31
376.37	613.22
376.56	660.03
376.76	695.14
376.95	720.88
377.15	723.23
377.35	791.10
377.54	788.76
377.74	873.02
377.93	711.52
378.13	772.38
378.33	720.88
378.52	664.71
378.72	739.61
378.91	798.12
379.11	774.72
379.31	695.14
379.50	650.67
379.70	791.10
379.89	755.99
380.09	758.33
380.28	763.01
380.48	800.46
380.68	781.74
380.87	793.44
381.07	676.41
381.26	763.01
381.46	634.29
381.65	596.84
381.85	601.52
382.04	571.09
382.24	568.75
382.43	554.71
382.63	491.51
382.83	535.98
383.02	599.18
383.22	613.22
383.41	575.77
383.61	498.53
383.80	671.73
384.00	791.10
384.19	753.65
384.39	847.27
384.58	837.91
384.78	788.76
384.97	802.80
385.17	784.08
385.36	695.14
385.56	809.83
385.75	699.82
385.95	744.29
386.14	856.64
386.34	795.78
386.53	765.36
386.72	709.18
386.92	725.57
387.11	901.11
387.31	870.68
387.50	767.70
387.70	823.87
387.89	758.33
388.09	814.51
388.28	793.44
388.48	798.12
388.67	866.00
388.86	882.38
389.06	1074.31
389.25	1001.75
389.45	1069.62
389.64	1050.90
389.84	1015.79
390.03	994.73
390.22	983.02
390.42	1046.22
390.61	1086.01
390.81	1186.65
391.00	1275.59
391.19	1240.48
391.39	1137.50
391.58	1107.07
391.78	1001.75
391.97	1008.77
392.16	912.81
392.36	905.79
392.55	823.87
392.75	636.63
392.94	573.43
393.13	517.26
393.33	517.26
393.52	657.69
393.71	870.68
393.91	861.32
394.10	1006.43
394.29	1046.22
394.49	1146.86
394.68	1273.25
394.88	1231.12
395.07	1268.57
395.26	1259.21
395.46	1224.10
395.65	1191.33
395.84	1055.58
396.04	1064.94
396.23	758.33
396.42	650.67
396.62	725.57
396.81	746.63
397.00	929.19
397.19	1069.62
397.39	1224.10
397.58	1397.30
397.77	1413.68
397.97	1561.14
398.16	1519.01
398.35	1547.09
398.55	1621.99
398.74	1673.48
398.93	1713.27
399.12	1682.85
399.32	1575.18
399.51	1643.06
399.70	1715.61
399.90	1703.91
400.09	1734.34
400.28	1682.85
400.47	1582.20
400.67	1830.30
400.86	1820.94
401.05	1771.79
401.24	1771.79
401.44	1863.07
401.63	1851.36
401.82	1830.30
402.01	1795.19
402.21	1764.76
402.40	1806.89
402.59	1776.47
402.78	1792.85
402.97	1820.94
403.17	1774.13
403.36	1863.07
403.55	1832.64
403.74	2017.54
403.93	1825.62
404.13	1760.08
404.32	1790.51
404.51	1778.81
404.70	1844.34
404.89	1987.11
405.09	1802.21
405.28	1811.57
405.47	1851.36
405.66	1849.02
405.85	1774.13
406.05	1755.40
406.24	1680.50
406.43	1816.26
406.62	1987.11
406.81	1907.54
407.00	1940.30
407.20	1820.94
407.39	1820.94
407.58	1902.86
407.77	1996.48
407.96	2017.54
408.15	1952.01
408.34	2078.40
408.54	2090.10
408.73	2143.93
408.92	2104.14
409.11	2036.27
409.30	1994.14
409.49	1874.77
409.68	1708.59
409.87	1612.63
410.07	1802.21
410.26	1881.79
410.45	1980.09
410.64	2045.63
410.83	2078.40
411.02	2101.80
411.21	2260.96
411.40	2232.87
411.59	2167.34
411.78	2293.72
411.98	2169.68
412.17	2270.32
412.36	2097.12
412.55	2207.13
412.74	2066.69
412.93	2190.74
413.12	2141.59
413.31	2368.62
413.50	2179.04
413.69	2333.51
413.88	2197.76
414.07	2146.27
414.26	2202.44
414.45	2359.26
414.64	2392.03
414.83	2310.11
415.02	2246.91
415.22	2209.47
415.41	2232.87
415.60	2333.51
415.79	2483.31
415.98	2551.18
416.17	2462.24
416.36	2530.12
416.55	2438.84
416.74	2333.51
416.93	2272.66
417.12	2352.24
417.31	2293.72
417.50	2401.39
417.69	2478.63
417.88	2406.07
418.07	2438.84
418.26	2377.98
418.45	2354.58
418.64	2476.29
418.83	2537.14
419.02	2504.37
419.21	2649.49
419.39	2256.28
419.58	2270.32
419.77	2204.78
419.96	2499.69
420.15	2530.12
420.34	2434.16
420.53	2581.61
420.72	2731.41
420.91	2590.97
421.10	2530.12
421.29	2593.31
421.48	2462.24
421.67	2651.83
421.86	2668.21
422.05	2455.22
422.24	2237.55
422.43	2176.70
422.61	2232.87
422.80	2502.03
422.99	2583.95
423.18	2478.63
423.37	2537.14
423.56	2340.54
423.75	2619.06
423.94	2574.59
424.13	2382.67
424.32	2406.07
424.50	2399.05
424.69	2450.54
424.88	2473.95
425.07	2401.39
425.26	2368.62
425.45	2525.44
425.64	2359.26
425.83	2305.43
426.01	2377.98
426.20	2441.18
426.39	2530.12
426.58	2305.43
426.77	2211.81
426.96	2242.23
427.15	2050.31
427.33	2326.49
427.52	2478.63
427.71	2413.09
427.90	2487.99
428.09	2427.14
428.28	2256.28
428.46	2265.64
428.65	2148.61
428.84	2282.02
429.03	2354.58
429.22	2232.87
429.40	2104.14
429.59	1991.80
429.78	1696.89
429.97	1724.97
430.16	1621.99
430.34	1781.15
430.53	1732.00
430.72	1746.04
430.91	1905.20
431.10	2150.95
431.28	2558.21
431.47	2855.45
431.66	2829.71
431.85	2719.70
432.03	2530.12
432.22	2434.16
432.41	2485.65
432.60	2635.44
432.79	2832.05
432.97	2818.00
433.16	2717.36
433.35	2534.80
433.54	2249.25
433.72	2272.66
433.91	2043.29
434.10	2509.05
434.28	2583.95
434.47	2691.62
434.66	2590.97
434.85	2663.53
435.03	2785.24
435.22	2782.90
435.41	2951.42
435.59	3038.02
435.78	3042.70
435.97	3012.27
436.16	2906.95
436.34	3005.25
436.53	3052.06
436.72	2888.22
436.90	2654.17
437.09	2752.47
437.28	2663.53
437.46	2696.30
437.65	2729.06
437.84	2539.48
438.02	2429.48
438.21	2450.54
438.40	2382.67
438.58	2698.64
438.77	2731.41
438.96	2822.69
439.14	2986.52
439.33	3002.91
439.52	2960.78
439.70	2787.58
439.89	2846.09
440.08	2846.09
440.26	2789.92
440.45	2967.80
440.63	3047.38
440.82	3096.53
441.01	3061.42
441.19	3082.49
441.38	3246.32
441.57	3204.19
441.75	3337.60
441.94	3440.59
442.12	3243.98
442.31	3276.75
442.50	3248.66
442.68	3248.66
442.87	3368.03
443.05	3302.50
443.24	3311.86
443.43	3290.79
443.61	3370.37
443.80	3211.22
443.98	3316.54
444.17	3155.04
444.35	3482.72
444.54	3466.33
444.73	3428.88
444.91	3311.86
445.10	3199.51
445.28	3220.58
445.47	3021.63
445.65	3084.83
445.84	3056.74
446.02	3208.87
446.21	3110.57
446.39	3323.56
446.58	3286.11
446.77	3375.05
446.95	3279.09
447.14	3471.01
447.32	3489.74
447.51	3403.14
447.69	3236.96
447.88	3255.69
448.06	3377.39
448.25	3456.97
448.43	3393.78
448.62	3419.52
448.80	3492.08
448.99	3487.40
449.17	3253.34
449.36	3337.60
449.54	3527.19
449.73	3508.46
449.91	3688.68
450.10	3571.66
450.28	3829.12
450.46	3679.32
450.65	3698.05
450.83	3808.05
451.02	3672.30
451.20	3545.91
451.39	3623.15
451.57	3569.32
451.76	3461.65
451.94	3538.89
452.13	3496.76
452.31	3372.71
452.49	3276.75
452.68	3459.31
452.86	3353.99
453.05	3307.18
453.23	3335.26
453.42	3478.04
453.60	3489.74
453.78	3548.25
453.97	3461.65
454.15	3461.65
454.34	3372.71
454.52	3421.86
454.70	3461.65
454.89	3449.95
455.07	3400.80
455.26	3480.38
455.44	3534.21
455.62	3784.65
455.81	3576.34
455.99	3618.47
456.17	3702.73
456.36	3543.57
456.54	3742.52
456.73	3726.13
456.91	3852.52
457.09	3819.75
457.28	3896.99
457.46	3719.11
457.64	3747.20
457.83	3611.45
458.01	3588.04
458.19	3555.27
458.38	3559.95
458.56	3749.54
458.74	3571.66
458.93	3712.09
459.11	3543.57
459.29	3627.83
459.48	3534.21
459.66	3728.47
459.84	3742.52
460.03	3847.84
460.21	3812.73
460.39	3728.47
460.57	3936.78
460.76	3887.63
460.94	3779.97
461.12	3971.89
461.31	3920.40
461.49	3794.01
461.67	3805.71
461.85	3990.61
462.04	3805.71
462.22	4243.39
462.40	4018.70
462.59	3878.27
462.77	3997.64
462.95	3997.64
463.13	3861.88
463.32	3770.60
463.50	3882.95
463.68	3819.75
463.86	3754.22
464.05	3901.67
464.23	3557.61
464.41	3726.13
464.59	3681.66
464.78	3794.01
464.96	3698.05
465.14	3840.82
465.32	3911.04
465.50	3871.25
465.69	3850.18
465.87	3810.39
466.05	3719.11
466.23	3538.89
466.41	3562.30
466.60	3700.39
466.78	3527.19
466.96	3695.71
467.14	3770.60
467.32	3875.93
467.51	3960.19
467.69	3730.81
467.87	3794.01
468.05	3744.86
468.23	3784.65
468.41	3798.69
468.60	3763.58
468.78	3885.29
468.96	3913.38
469.14	3913.38
469.32	3822.09
469.50	3709.75
469.69	3705.07
469.87	3712.09
470.05	3644.21
470.23	3620.81
470.41	3641.87
470.59	3712.09
470.77	3749.54
470.95	3850.18
471.14	3791.67
471.32	3885.29
471.50	4037.42
471.68	4093.60
471.86	4114.66
472.04	4119.34
472.22	4095.94
472.40	3955.51
472.58	3772.94
472.77	3815.07
472.95	3941.46
473.13	4032.74
473.31	3742.52
473.49	3920.40
473.67	4093.60
473.85	3964.87
474.03	4109.98
474.21	4135.73
474.39	4243.39
474.57	4074.87
474.75	4234.03
474.93	4149.77
475.12	4168.49
475.30	4025.72
475.48	4021.04
475.66	4117.00
475.84	3922.74
476.02	4084.23
476.20	4056.15
476.38	4093.60
476.56	4278.50
476.74	4131.05
476.92	4140.41
477.10	4301.90
477.28	4388.50
477.46	4337.01
477.64	4411.91
477.82	4491.49
478.00	4503.19
478.18	4573.41
478.36	4418.93
478.54	4322.97
478.72	4320.63
478.90	4510.21
479.08	4552.34
479.26	4784.06
479.44	4884.70
479.62	4737.24
479.80	4683.41
479.98	4720.86
480.16	4798.10
480.34	4777.03
480.52	4802.78
480.70	4917.47
480.88	4774.69
481.06	4802.78
481.24	4999.38
481.41	4980.66
481.59	5137.48
481.77	5252.16
481.95	5167.90
482.13	5132.79
482.31	5025.13
482.49	5050.88
482.67	5179.61
482.85	5057.90
483.03	5177.26
483.21	5144.50
483.39	5371.53
483.57	5256.84
483.74	5214.71
483.92	5121.09
484.10	5144.50
484.28	5245.14
484.46	5416.00
484.64	5371.53
484.82	5163.22
485.00	5219.39
485.18	5151.52
485.35	4975.98
485.53	4629.58
485.71	4381.48
485.89	4212.96
486.07	4393.19
486.25	4772.35
486.43	4964.28
486.61	5055.56
486.78	5149.18
486.96	5055.56
487.14	5221.74
487.32	5280.25
487.50	5549.41
487.68	5645.37
487.85	5830.27
488.03	5816.23
488.21	5671.12
488.39	5598.56
488.57	5444.09
488.75	5509.62
488.92	5781.12
489.10	6073.69
489.28	6223.48
489.46	6235.19
489.64	6300.72
489.81	6399.02
489.99	6331.15
490.17	6209.44
490.35	6284.34
490.53	6157.95
490.70	6064.33
490.88	6078.37
491.06	6270.30
491.24	6265.61
491.41	6193.06
491.59	5867.72
491.77	5816.23
491.95	5865.38
492.13	5989.43
492.30	6389.66
492.48	6565.20
492.66	6663.51
492.84	6595.63
493.01	6586.27
493.19	6565.20
493.37	6492.65
493.54	6356.90
493.72	6438.81
493.90	6499.67
494.08	6782.87
494.25	7030.97
494.43	6722.02
494.61	7045.01
494.79	7157.36
494.96	7180.76
495.14	6885.86
495.32	6939.69
495.49	6633.08
495.67	6715.00
495.85	7187.79
496.02	7040.33
496.20	7152.68
496.38	7021.61
496.55	7014.59
496.73	7096.50
496.91	7353.96
497.09	7398.43
497.26	7403.11
497.44	7286.09
497.62	7173.74
497.79	7021.61
497.97	6569.88
498.14	6595.63
498.32	6988.84
498.50	7014.59
498.67	7246.30
498.85	7124.59
499.03	7262.68
499.20	7316.51
499.38	7213.53
499.56	7304.81
499.73	7218.21
499.91	7040.33
500.08	7047.35
500.26	6729.04
500.44	6846.07
500.61	7026.29
500.79	7000.54
500.97	7000.54
501.14	6890.54
501.32	6857.77
501.49	6977.14
501.67	6871.81
501.84	6979.48
502.02	6935.01
502.20	7108.21
502.37	7073.10
502.55	7145.66
502.72	7293.11
502.90	7431.20
503.07	7084.80
503.25	6991.18
503.43	6787.55
503.60	6502.01
503.78	6555.84
503.95	6525.41
504.13	6918.62
504.30	7220.55
504.48	7372.69
504.65	7204.17
504.83	7262.68
505.01	7606.74
505.18	7400.77
505.36	7478.01
505.53	7356.30
505.71	7669.94
505.88	7728.45
506.06	7641.85
506.23	7398.43
506.41	7356.30
506.58	7300.13
506.76	7349.28
506.93	7466.31
507.11	7316.51
507.28	7351.62
507.46	7335.24
507.63	7073.10
507.81	7012.24
507.98	7040.33
508.16	7283.75
508.33	7368.01
508.50	7522.48
508.68	7857.18
508.85	7779.94
509.03	7812.71
509.20	7864.20
509.38	7770.58
509.55	7431.20
509.73	7426.52
509.90	7482.69
510.08	7321.20
510.25	7557.59
510.42	7683.98
510.60	7370.35
510.77	7625.47
510.95	7695.68
511.12	7779.94
511.30	7740.15
511.47	8037.40
511.64	7941.44
511.82	7885.26
511.99	7478.01
512.17	7613.76
512.34	7414.82
512.51	7487.37
512.69	7538.87
512.86	7613.76
513.04	7646.53
513.21	7492.05
513.38	7508.44
513.56	7599.72
513.73	7365.67
513.90	7140.97
514.08	7269.70
514.25	7470.99
514.43	7379.71
514.60	7288.43
514.77	7648.87
514.95	7602.06
515.12	7686.32
515.29	7564.61
515.47	7749.51
515.64	7875.90
515.81	7695.68
515.99	7789.30
516.16	7386.73
516.33	6782.87
516.51	6656.48
516.68	6286.68
516.85	6066.67
517.03	6050.28
517.20	6633.08
517.37	7187.79
517.54	7454.61
517.72	7522.48
517.89	6951.39
518.06	6532.44
518.24	6384.98
518.41	6951.39
518.58	7234.60
518.75	7246.30
518.93	7304.81
519.10	7286.09
519.27	7417.16
519.45	7463.97
519.62	7492.05
519.79	7796.32
519.96	7833.77
520.14	7618.44
520.31	7309.49
520.48	7405.46
520.65	7449.93
520.83	7658.23
521.00	7791.64
521.17	7808.03
521.34	7803.35
521.52	7595.04
521.69	7915.69
521.86	8025.70
522.03	7978.89
522.20	7651.21
522.38	7236.94
522.55	7145.66
522.72	7351.62
522.89	7391.41
523.07	7618.44
523.24	7473.33
523.41	7819.73
523.58	8042.08
523.75	8023.36
523.92	7960.16
524.10	7950.80
524.27	7985.91
524.44	8084.21
524.61	8002.29
524.78	7801.01
524.96	7707.38
525.13	7815.05
525.30	7906.33
525.47	8091.23
525.64	7971.86
525.81	7838.45
525.98	7520.14
526.16	7220.55
526.33	6864.79
526.50	6951.39
526.67	6850.75
526.84	6860.11
527.01	7101.19
527.18	7494.40
527.36	7468.65
527.53	7805.69
527.70	7864.20
527.87	7889.95
528.04	7581.00
528.21	7510.78
528.38	7922.71
528.55	8072.51
528.72	8044.42
528.89	8393.16
529.07	8177.83
529.24	8098.25
529.41	7864.20
529.58	7606.74
529.75	7524.82
529.92	7658.23
530.09	7960.16
530.26	7887.61
530.43	8095.91
530.60	8124.00
530.77	8098.25
530.94	8149.75
531.11	8198.90
531.28	7915.69
531.46	7915.69
531.63	8283.16
531.80	8051.44
531.97	7796.32
532.14	7772.92
532.31	7559.93
532.48	7351.62
532.65	7047.35
532.82	7330.56
532.99	7627.81
533.16	7948.46
533.33	7857.18
533.50	7885.26
533.67	7672.28
533.84	7644.19
534.01	7592.70
534.18	7789.30
534.35	7868.88
534.52	7845.48
534.69	7812.71
534.86	7911.01
535.03	7861.86
535.20	8006.97
535.37	8215.28
535.54	8021.02
535.71	8105.28
535.88	8081.87
536.05	7733.13
536.22	7808.03
536.38	7646.53
536.55	7559.93
536.72	7489.71
536.89	7538.87
537.06	7660.57
537.23	7829.09
537.40	7873.56
537.57	7976.55
537.74	7770.58
537.91	7941.44
538.08	7826.75
538.25	7847.82
538.42	7648.87
538.59	7850.16
538.75	7768.24
538.92	7571.63
539.09	7681.64
539.26	7599.72
539.43	7463.97
539.60	7309.49
539.77	7417.16
539.94	7595.04
540.11	7396.09
540.28	7325.88
540.44	7330.56
540.61	7220.55
540.78	7496.74
540.95	7442.90
541.12	7679.30
541.29	7602.06
541.46	8023.36
541.62	7590.36
541.79	7817.39
541.96	7463.97
542.13	7468.65
542.30	7740.15
542.47	7698.02
542.63	7674.62
542.80	7562.27
542.97	7833.77
543.14	7438.22
543.31	7386.73
543.48	7854.84
543.64	7974.21
543.81	8056.12
543.98	8056.12
544.15	8004.63
544.32	7815.05
544.48	7669.94
544.65	7861.86
544.82	7988.25
544.99	7847.82
545.16	7903.99
545.32	7726.11
545.49	8147.40
545.66	8257.41
545.83	8423.59
546.00	8159.11
546.16	7936.76
546.33	7751.85
546.50	7454.61
546.67	7728.45
546.83	7475.67
547.00	7641.85
547.17	7644.19
547.34	7328.22
547.50	7267.36
547.67	7379.71
547.84	7578.65
548.00	7527.16
548.17	7665.25
548.34	7412.48
548.51	7662.91
548.67	7812.71
548.84	7695.68
549.01	7681.64
549.18	7559.93
549.34	7606.74
549.51	7709.72
549.68	7588.02
549.84	7581.00
550.01	7473.33
550.18	7562.27
550.34	7527.16
550.51	7517.80
550.68	7449.93
550.84	7363.33
551.01	7356.30
551.18	7349.28
551.34	7438.22
551.51	7494.40
551.68	7613.76
551.84	7609.08
552.01	7456.95
552.18	7665.25
552.34	7335.24
552.51	7384.39
552.68	7103.53
552.84	7122.25
553.01	7426.52
553.18	7407.80
553.34	7330.56
553.51	7529.50
553.67	7396.09
553.84	7625.47
554.01	7630.15
554.17	7435.88
554.34	7463.97
554.51	7557.59
554.67	7545.89
554.84	7599.72
555.00	7531.84
555.17	7241.62
555.33	7463.97
555.50	7351.62
555.67	7424.18
555.83	7403.11
556.00	7281.41
556.16	7487.37
556.33	7042.67
556.50	7096.50
556.66	7052.03
556.83	7115.23
556.99	6956.07
557.16	7152.68
557.32	6946.71
557.49	7314.17
557.65	7162.04
557.82	7014.59
557.98	7103.53
558.15	7124.59
558.32	6986.50
558.48	6935.01
558.65	6682.23
558.81	6612.01
558.98	6778.19
559.14	7075.44
559.31	6963.09
559.47	7035.65
559.64	6829.68
559.80	6712.66
559.97	6710.32
560.13	7019.27
560.30	7169.06
560.46	7187.79
560.63	7272.04
560.79	7157.36
560.96	7105.87
561.12	7040.33
561.29	6843.73
561.45	6841.39
561.61	6822.66
561.78	7059.06
561.94	6897.56
562.11	6986.50
562.27	6913.94
562.44	6974.80
562.60	7112.89
562.77	7101.19
562.93	7108.21
563.10	7131.61
563.26	6883.52
563.42	6832.02
563.59	6817.98
563.75	6930.33
563.92	7014.59
564.08	6846.07
564.24	6888.20
564.41	6829.68
564.57	6942.03
564.74	6895.22
564.90	6981.82
565.07	7080.12
565.23	6932.67
565.39	6654.14
565.56	6712.66
565.72	6438.81
565.88	6553.50
566.05	6576.91
566.21	6682.23
566.38	6686.91
566.54	6668.19
566.70	6860.11
566.87	6890.54
567.03	6834.36
567.19	6731.38
567.36	6944.37
567.52	6808.62
567.68	6780.53
567.85	6553.50
568.01	6349.87
568.17	6291.36
568.34	6050.28
568.50	6186.04
568.66	6183.70
568.83	6335.83
568.99	6200.08
569.15	6354.55
569.32	6523.07
569.48	6483.28
569.64	6155.61
569.81	6235.19
569.97	6260.93
570.13	6408.39
570.30	6338.17
570.46	6347.53
570.62	6160.29
570.78	6022.20
570.95	5916.87
571.11	6073.69
571.27	6258.59
571.43	6197.74
571.60	6274.98
571.76	6347.53
571.92	6429.45
572.09	6305.40
572.25	6642.44
572.41	6492.65
572.57	6113.48
572.74	6366.26
572.90	6443.49
573.06	6373.28
573.22	6310.08
573.38	6436.47
573.55	6143.91
573.71	6277.32
573.87	6375.62
574.03	6223.48
574.20	6150.93
574.36	6059.65
574.52	6129.86
574.68	6153.27
574.84	6141.57
575.01	6064.33
575.17	5944.96
575.33	6179.01
575.49	6113.48
575.65	6115.82
575.82	6031.56
575.98	6104.12
576.14	6076.03
576.30	6129.86
576.46	6188.38
576.62	6314.77
576.79	6193.06
576.95	6340.51
577.11	6061.99
577.27	6083.05
577.43	6113.48
577.59	6153.27
577.75	6108.80
577.92	5895.81
578.08	5809.21
578.24	5825.59
578.40	6125.18
578.56	6071.35
578.72	6080.71
578.88	6087.73
579.04	6083.05
579.21	6087.73
579.37	6174.33
579.53	6094.76
579.69	6202.42
579.85	6162.63
580.01	6141.57
580.17	6235.19
580.33	6043.26
580.49	6010.50
580.65	6214.12
580.82	6174.33
580.98	6204.76
581.14	6200.08
581.30	6289.02
581.46	6090.07
581.62	6120.50
581.78	6003.47
581.94	6211.78
582.10	6143.91
582.26	6111.14
582.42	6160.29
582.58	6265.61
582.74	6331.15
582.90	6193.06
583.06	6277.32
583.22	6244.55
583.38	5914.53
583.54	6146.25
583.70	6120.50
583.86	5980.07
584.02	6174.33
584.18	6296.04
584.34	6118.16
584.50	6179.01
584.66	6099.44
584.82	6064.33
584.98	6047.94
585.14	5987.09
585.30	5902.83
585.46	5846.66
585.62	5767.08
585.78	5940.28
585.94	5851.34
586.10	5921.56
586.26	5837.30
586.42	5804.53
586.58	5881.77
586.74	5935.60
586.90	5947.30
587.06	5881.77
587.22	5678.14
587.38	5650.05
587.54	5575.16
587.70	5495.58
587.86	5486.22
588.02	5252.16
588.18	5256.84
588.34	5025.13
588.49	4631.92
588.65	4447.02
588.81	4290.20
588.97	4414.25
589.13	4458.72
589.29	4278.50
589.45	4348.72
589.61	4472.76
589.77	4554.68
589.93	4770.01
590.08	5006.41
590.24	5020.45
590.40	4980.66
590.56	5020.45
590.72	4847.25
590.88	4933.85
591.04	4887.04
591.20	4912.78
591.35	4931.51
591.51	4812.14
591.67	4929.17
591.83	4905.76
591.99	4858.95
592.15	4851.93
592.31	5004.07
592.46	5093.01
592.62	5238.12
592.78	5076.62
592.94	5130.45
593.10	5163.22
593.26	5263.86
593.41	5270.89
593.57	5256.84
593.73	5011.09
593.89	4975.98
594.05	4774.69
594.20	4685.75
594.36	4540.64
594.52	4451.70
594.68	4596.81
594.84	4662.35
594.99	4936.19
595.15	5004.07
595.31	4961.94
595.47	4983.00
595.62	4800.44
595.78	5277.91
595.94	5130.45
596.10	5296.63
596.25	4983.00
596.41	4978.32
596.57	4926.83
596.73	4961.94
596.88	4975.98
597.04	5093.01
597.20	5081.30
597.36	4898.74
597.51	5004.07
