SpectraSuite Data File
++++++++++++++++++++++++++++++++++++
Date: Fri Oct 04 11:39:41 GMT-05:00 2013
User: price-jones
Dark Spectrum Present: No
Reference Spectrum Present: No
Number of Sampled Component Spectra: 1
Spectrometers: USB2+H05261
Integration Time (usec): 100000 (USB2+H05261)
Spectra Averaged: 1 (USB2+H05261)
Boxcar Smoothing: 0 (USB2+H05261)
Correct for Electrical Dark: No (USB2+H05261)
Strobe/Lamp Enabled: No (USB2+H05261)
Correct for Detector Non-linearity: No (USB2+H05261)
Correct for Stray Light: No (USB2+H05261)
Number of Pixels in Processed Spectrum: 2048
>>>>>Begin Processed Spectral Data<<<<<
365.73	67.88
365.92	67.88
366.12	67.88
366.32	0.00
366.52	0.00
366.72	0.00
366.91	0.00
367.11	18.72
367.31	0.00
367.51	0.00
367.70	0.00
367.90	0.00
368.10	0.00
368.30	0.00
368.49	0.00
368.69	0.00
368.89	0.00
369.09	0.00
369.28	0.00
369.48	0.00
369.68	0.00
369.87	25.75
370.07	21.06
370.27	84.26
370.47	135.75
370.66	140.43
370.86	266.82
371.06	278.52
371.25	348.74
371.45	348.74
371.65	365.12
371.84	306.61
372.04	262.14
372.24	355.76
372.44	337.04
372.63	311.29
372.83	367.46
373.03	341.72
373.22	353.42
373.42	365.12
373.62	404.91
373.81	276.18
374.01	421.30
374.21	372.15
374.40	353.42
374.60	442.36
374.79	437.68
374.99	437.68
375.19	379.17
375.38	402.57
375.58	425.98
375.78	442.36
375.97	409.59
376.17	418.96
376.37	465.77
376.56	491.51
376.76	397.89
376.95	472.79
377.15	479.81
377.35	465.77
377.54	503.22
377.74	416.62
377.93	327.68
378.13	442.36
378.33	465.77
378.52	493.85
378.72	472.79
378.91	411.93
379.11	372.15
379.31	479.81
379.50	482.15
379.70	479.81
379.89	489.17
380.09	486.83
380.28	381.51
380.48	533.64
380.68	449.38
380.87	489.17
381.07	416.62
381.26	524.28
381.46	458.74
381.65	468.11
381.85	547.69
382.04	528.96
382.24	573.43
382.43	585.13
382.63	547.69
382.83	470.45
383.02	496.19
383.22	629.60
383.41	533.64
383.61	559.39
383.80	498.53
384.00	519.60
384.19	538.32
384.39	559.39
384.58	566.41
384.78	561.73
384.97	622.58
385.17	538.32
385.36	547.69
385.56	601.52
385.75	479.81
385.95	580.45
386.14	587.47
386.34	568.75
386.53	657.69
386.72	592.16
386.92	669.39
387.11	634.29
387.31	648.33
387.50	573.43
387.70	643.65
387.89	667.05
388.09	634.29
388.28	629.60
388.48	601.52
388.67	678.76
388.86	727.91
389.06	617.90
389.25	678.76
389.45	713.86
389.64	681.10
389.84	662.37
390.03	793.44
390.22	704.50
390.42	739.61
390.61	627.26
390.81	655.35
391.00	681.10
391.19	732.59
391.39	704.50
391.58	739.61
391.78	751.31
391.97	755.99
392.16	786.42
392.36	851.96
392.55	772.38
392.75	830.89
392.94	861.32
393.13	781.74
393.33	807.48
393.52	746.63
393.71	812.17
393.91	746.63
394.10	765.36
394.29	788.76
394.49	828.55
394.68	877.70
394.88	807.48
395.07	898.77
395.26	840.25
395.46	901.11
395.65	896.43
395.84	884.72
396.04	931.53
396.23	844.93
396.42	884.72
396.62	992.39
396.81	891.74
397.00	973.66
397.19	978.34
397.39	858.98
397.58	938.55
397.77	950.26
397.97	966.64
398.16	1029.84
398.35	1041.54
398.55	1074.31
398.74	978.34
398.93	1111.75
399.12	1153.88
399.32	1043.88
399.51	1039.20
399.70	1146.86
399.90	1191.33
400.09	1144.52
400.28	1203.04
400.47	1151.54
400.67	1118.78
400.86	1130.48
401.05	1266.23
401.24	1231.12
401.44	1203.04
401.63	1219.42
401.82	1247.51
402.01	1217.08
402.21	1196.01
402.40	1280.27
402.59	1282.61
402.78	1214.74
402.97	1294.32
403.17	1327.08
403.36	1350.49
403.55	1268.57
403.74	1511.99
403.93	1394.96
404.13	1516.67
404.32	1413.68
404.51	1343.47
404.70	1453.47
404.89	1481.56
405.09	1497.94
405.28	1383.26
405.47	1425.39
405.66	1493.26
405.85	1558.80
406.05	1558.80
406.24	1486.24
406.43	1500.28
406.62	1472.20
406.81	1584.54
407.00	1584.54
407.20	1516.67
407.39	1685.19
407.58	1629.01
407.77	1689.87
407.96	1724.97
408.15	1668.80
408.34	1710.93
408.54	1722.63
408.73	1799.87
408.92	1671.14
409.11	1881.79
409.30	1771.79
409.49	1902.86
409.68	1776.47
409.87	1959.03
410.07	1884.13
410.26	2005.84
410.45	1872.43
410.64	1959.03
410.83	1919.24
411.02	2160.31
411.21	2087.76
411.40	1980.09
411.59	2097.12
411.78	2101.80
411.98	2146.27
412.17	2080.74
412.36	2155.63
412.55	2239.89
412.74	2291.38
412.93	2394.37
413.12	2214.15
413.31	2403.73
413.50	2249.25
413.69	2305.43
413.88	2485.65
414.07	2370.96
414.26	2375.64
414.45	2504.37
414.64	2448.20
414.83	2487.99
415.02	2553.52
415.22	2619.06
415.41	2565.23
415.60	2712.68
415.79	2700.98
415.98	2731.41
416.17	2897.58
416.36	2726.72
416.55	2860.13
416.74	2778.22
416.93	2796.94
417.12	2925.67
417.31	2857.79
417.50	2928.01
417.69	3030.99
417.88	3000.57
418.07	2970.14
418.26	2932.69
418.45	3000.57
418.64	3194.83
418.83	3023.97
419.02	2906.95
419.21	3016.95
419.39	3162.06
419.58	3148.02
419.77	3143.34
419.96	3255.69
420.15	3225.26
420.34	3286.11
420.53	3356.33
420.72	3349.31
420.91	3265.05
421.10	3323.56
421.29	3356.33
421.48	3382.07
421.67	3463.99
421.86	3370.37
422.05	3438.25
422.24	3562.30
422.43	3323.56
422.61	3588.04
422.80	3442.93
422.99	3496.76
423.18	3499.10
423.37	3625.49
423.56	3604.42
423.75	3627.83
423.94	3466.33
424.13	3412.50
424.32	3456.97
424.50	3555.27
424.69	3564.64
424.88	3716.77
425.07	3471.01
425.26	3524.85
425.45	3627.83
425.64	3499.10
425.83	3648.90
426.01	3611.45
426.20	3632.51
426.39	3700.39
426.58	3559.95
426.77	3684.00
426.96	3700.39
427.15	3700.39
427.33	3693.37
427.52	3758.90
427.71	3742.52
427.90	3822.09
428.09	3744.86
428.28	3918.06
428.46	3838.48
428.65	3878.27
428.84	4100.62
429.03	3990.61
429.22	3901.67
429.40	3983.59
429.59	3997.64
429.78	3805.71
429.97	3829.12
430.16	3779.97
430.34	3978.91
430.53	4212.96
430.72	4117.00
430.91	3950.82
431.10	4079.55
431.28	4189.56
431.47	4175.52
431.66	4241.05
431.85	4229.35
432.03	4297.22
432.22	4334.67
432.41	4315.95
432.60	4313.61
432.79	4189.56
432.97	4395.53
433.16	4191.90
433.35	4297.22
433.54	4381.48
433.72	4379.14
433.91	4507.87
434.10	4514.89
434.28	4339.35
434.47	4435.32
434.66	4475.10
434.85	4685.75
435.03	4571.07
435.22	4657.67
435.41	4980.66
435.59	5032.15
435.78	4936.19
435.97	4887.04
436.16	4744.27
436.34	4540.64
436.53	4685.75
436.72	4669.37
436.90	4667.03
437.09	4835.55
437.28	4585.11
437.46	4896.40
437.65	4880.02
437.84	4936.19
438.02	4961.94
438.21	4865.97
438.40	4847.25
438.58	5081.30
438.77	4985.34
438.96	5088.32
439.14	5238.12
439.33	5242.80
439.52	5348.12
439.70	5203.01
439.89	5263.86
440.08	5322.38
440.26	5397.28
440.45	5287.27
440.63	5434.72
440.82	5490.90
441.01	5596.22
441.19	5689.84
441.38	5596.22
441.57	5514.30
441.75	5610.26
441.94	5846.66
442.12	5853.68
442.31	5701.54
442.50	5659.42
442.68	5757.72
442.87	5886.45
443.05	5937.94
443.24	5884.11
443.43	6076.03
443.61	6015.18
443.80	5987.09
443.98	5860.70
444.17	5610.26
444.35	5856.02
444.54	6040.92
444.73	6090.07
444.91	5767.08
445.10	6094.76
445.28	6001.13
445.47	5844.32
445.65	6017.52
445.84	5970.71
446.02	6113.48
446.21	6001.13
446.39	6071.35
446.58	6197.74
446.77	6045.60
446.95	6015.18
447.14	6162.63
447.32	6108.80
447.51	6162.63
447.69	6260.93
447.88	6143.91
448.06	6134.54
448.25	6132.20
448.43	6284.34
448.62	6134.54
448.80	6148.59
448.99	6298.38
449.17	6401.37
449.36	6272.64
449.54	6352.21
449.73	6441.15
449.91	6356.90
450.10	6576.91
450.28	6630.74
450.46	6513.71
450.65	6502.01
450.83	6707.98
451.02	6642.44
451.20	6654.14
451.39	6719.68
451.57	6597.97
451.76	6614.35
451.94	6544.14
452.13	6724.36
452.31	6862.45
452.49	6593.29
452.68	6724.36
452.86	6736.06
453.05	6867.13
453.23	6712.66
453.42	6857.77
453.60	6658.82
453.78	6817.98
453.97	6808.62
454.15	6825.00
454.34	6759.47
454.52	6942.03
454.70	6909.26
454.89	6888.20
455.07	6932.67
455.26	7176.08
455.44	7014.59
455.62	7229.91
455.81	7105.87
455.99	7204.17
456.17	7272.04
456.36	7126.93
456.54	7375.03
456.73	7433.54
456.91	7337.58
457.09	7480.35
457.28	7660.57
457.46	7431.20
457.64	7356.30
457.83	7489.71
458.01	7461.63
458.19	7730.79
458.38	7660.57
458.56	7812.71
458.74	7749.51
458.93	7625.47
459.11	7595.04
459.29	7742.49
459.48	7660.57
459.66	7810.37
459.84	7941.44
460.03	7854.84
460.21	7866.54
460.39	7850.16
460.57	7658.23
460.76	7861.86
460.94	7850.16
461.12	7918.03
461.31	7903.99
461.49	7906.33
461.67	8053.78
461.85	8051.44
462.04	8147.40
462.22	8496.14
462.40	8229.32
462.59	8140.38
462.77	8116.98
462.95	8248.05
463.13	8241.03
463.32	8196.56
463.50	8446.99
463.68	8388.48
463.86	8327.63
464.05	8407.20
464.23	8372.10
464.41	8528.91
464.59	8329.97
464.78	8557.00
464.96	8439.97
465.14	8512.53
465.32	8421.25
465.50	8655.30
465.69	8779.35
465.87	8561.68
466.05	8760.63
466.23	8624.87
466.41	8746.58
466.60	8879.99
466.78	8538.27
466.96	8751.26
467.14	8727.86
467.32	8809.78
467.51	9043.83
467.69	8524.23
467.87	8931.48
468.05	8779.35
468.23	8887.01
468.41	8856.59
468.60	8807.44
468.78	9081.28
468.96	8933.82
469.14	9008.72
469.32	9217.03
469.50	8908.08
469.69	9245.12
469.87	9341.08
470.05	9401.93
470.23	9004.04
470.41	9261.50
470.59	9430.02
470.77	9224.05
470.95	9434.70
471.14	9336.40
471.32	9298.95
471.50	9696.84
471.68	9486.19
471.86	9666.41
472.04	9568.11
472.22	9724.93
472.40	9460.45
472.58	9820.89
472.77	9713.22
472.95	10092.39
473.13	10129.84
473.31	10040.90
473.49	10092.39
473.67	10073.67
473.85	9874.72
474.03	10193.03
474.21	10225.80
474.39	10607.31
474.57	10363.89
474.75	10586.24
474.93	10452.83
475.12	10473.90
475.30	10595.61
475.48	10485.60
475.66	10848.38
475.84	10766.46
476.02	10846.04
476.20	10736.04
476.38	10757.10
476.56	11337.56
476.74	11250.96
476.92	11087.12
477.10	11257.98
477.28	11508.41
477.46	11332.87
477.64	11410.11
477.82	11487.35
478.00	12020.99
478.18	11913.33
478.36	11887.58
478.54	11990.56
478.72	11920.35
478.90	12224.62
479.08	12386.12
479.26	12437.61
479.44	12299.52
479.62	12360.37
479.80	12381.43
479.98	12571.02
480.16	12683.36
480.34	12776.98
480.52	13022.74
480.70	13078.91
480.88	12903.37
481.06	13015.72
481.24	12950.18
481.41	13479.15
481.59	13350.42
481.77	13781.07
481.95	13619.58
482.13	13731.92
482.31	13970.66
482.49	13914.48
482.67	14113.43
482.85	14197.69
483.03	14429.40
483.21	14906.87
483.39	14710.27
483.57	14607.28
483.74	14736.01
483.92	14764.10
484.10	14766.44
484.28	15304.76
484.46	15365.62
484.64	15807.98
484.82	15330.51
485.00	15351.57
485.18	15697.97
485.35	15946.07
485.53	15971.82
485.71	15941.39
485.89	16421.20
486.07	16339.28
486.25	16369.71
486.43	16343.96
486.61	16617.80
486.78	17029.74
486.96	17212.30
487.14	17177.19
487.32	17214.64
487.50	17284.86
487.68	17334.01
487.85	17448.69
488.03	17783.39
488.21	17905.10
488.39	18218.73
488.57	17907.44
488.75	18242.14
488.92	18555.77
489.10	18347.46
489.28	18761.73
489.46	18932.59
489.64	18700.88
489.81	19215.80
489.99	19405.38
490.17	19026.21
490.35	19494.32
490.53	19353.89
490.70	19763.48
490.88	19829.02
491.06	19786.89
491.24	19676.88
491.41	20224.57
491.59	20482.03
491.77	20137.97
491.95	20482.03
492.13	20512.46
492.30	20971.20
492.48	20891.62
492.66	20739.49
492.84	21022.69
493.01	21490.80
493.19	21516.54
493.37	21572.72
493.54	21827.84
493.72	21664.00
493.90	21734.21
494.08	21956.57
494.25	22066.57
494.43	22377.86
494.61	22218.71
494.79	22726.60
494.96	22630.64
495.14	22651.70
495.32	22607.23
495.49	22974.70
495.67	23033.21
495.85	23358.55
496.02	23220.45
496.20	23562.17
496.38	23365.57
496.55	23623.03
496.73	23824.31
496.91	23887.51
497.09	23899.21
497.26	24444.56
497.44	24109.86
497.62	24458.60
497.79	24652.86
497.97	24643.50
498.14	25076.50
498.32	25069.48
498.50	24863.51
498.67	25436.94
498.85	24950.11
499.03	25186.50
499.20	25441.62
499.38	25542.27
499.56	25530.56
499.73	25521.20
499.91	26155.49
500.08	26043.14
500.26	25795.04
500.44	25956.54
500.61	25958.88
500.79	25816.11
500.97	26242.09
501.14	26642.32
501.32	26586.15
501.49	26583.80
501.67	26672.74
501.84	26511.25
502.02	26565.08
502.20	26988.72
502.37	26962.97
502.55	27005.10
502.72	27424.06
502.90	27016.80
503.07	27054.25
503.25	27410.01
503.43	27314.05
503.60	27456.82
503.78	27953.02
503.95	27798.54
504.13	27866.42
504.30	27864.08
504.48	27550.45
504.65	28348.57
504.83	28322.82
505.01	28622.41
505.18	28458.57
505.36	28603.69
505.53	28203.46
505.71	28673.90
505.88	28519.43
506.06	28634.11
506.23	28865.83
506.41	28739.44
506.58	29137.33
506.76	29209.89
506.93	29167.76
507.11	29179.46
507.28	29284.78
507.46	29350.32
507.63	29759.91
507.81	29546.92
507.98	29387.77
508.16	29635.86
508.33	29703.74
508.50	29975.24
508.68	29851.19
508.85	30396.54
509.03	30426.96
509.20	30389.52
509.38	30562.72
509.55	30597.82
509.73	30696.13
509.90	30778.04
510.08	30632.93
510.25	30918.48
510.42	30869.33
510.60	31290.62
510.77	31110.40
510.95	31377.22
511.12	30689.10
511.30	31243.81
511.47	31487.23
511.64	31552.76
511.82	31889.80
511.99	32158.96
512.17	31826.60
512.34	31756.39
512.51	31983.42
512.69	31976.40
512.86	31845.33
513.04	32690.26
513.21	32545.15
513.38	32271.31
513.56	32921.98
513.73	32275.99
513.90	32514.72
514.08	32400.04
514.25	32725.37
514.43	32631.75
514.60	33106.88
514.77	32826.01
514.95	33282.42
515.12	33149.01
515.29	33242.63
515.47	33298.80
515.64	33336.25
515.81	33329.23
515.99	33816.06
516.16	34089.90
516.33	33699.03
516.51	34122.67
516.68	33820.74
516.85	33640.52
517.03	34382.47
517.20	33820.74
517.37	34230.33
517.54	34375.45
517.72	33923.72
517.89	34284.17
518.06	34197.57
518.24	34485.45
518.41	34469.07
518.58	34698.44
518.75	34494.82
518.93	34829.51
519.10	34583.76
519.27	35154.85
519.45	34941.86
519.62	35072.93
519.79	35171.23
519.96	35009.73
520.14	35330.39
520.31	34747.59
520.48	35622.95
520.65	35274.21
520.83	35948.29
521.00	35707.21
521.17	35407.62
521.34	35655.72
521.52	35704.87
521.69	35831.26
521.86	36414.05
522.03	36318.09
522.20	36229.15
522.38	36285.33
522.55	36552.15
522.72	35955.31
522.89	36201.07
523.07	36807.26
523.24	36346.18
523.41	36662.15
523.58	36222.13
523.75	36964.08
523.92	36666.83
524.10	36584.91
524.27	37261.33
524.44	36575.55
524.61	37170.05
524.78	36994.51
524.96	37373.67
525.13	37230.90
525.30	37413.46
525.47	37486.02
525.64	37144.30
525.81	38000.94
525.98	37818.38
526.16	37869.87
526.33	37626.45
526.50	37890.93
526.67	37628.79
526.84	37799.65
527.01	37507.08
527.18	38017.32
527.36	38499.47
527.53	38188.18
527.70	38340.32
527.87	38068.81
528.04	38096.90
528.21	38511.17
528.38	38183.50
528.55	38345.00
528.72	38342.66
528.89	38981.62
529.07	38637.56
529.24	38792.04
529.41	38983.96
529.58	38593.09
529.75	38848.21
529.92	38660.97
530.09	38848.21
530.26	39182.91
530.43	39033.11
530.60	39171.21
530.77	39199.29
530.94	38899.70
531.11	39182.91
531.28	39206.31
531.46	39210.99
531.63	39604.20
531.80	39391.22
531.97	39564.42
532.14	39655.70
532.31	39711.87
532.48	39590.16
532.65	39601.86
532.82	39643.99
532.99	39658.04
533.16	39541.01
533.33	40055.93
533.50	40329.77
533.67	40091.04
533.84	39754.00
534.01	39959.97
534.18	39758.68
534.35	40210.40
534.52	40390.62
534.69	40456.16
534.86	40556.80
535.03	40484.25
535.20	40318.07
535.37	40641.06
535.54	40641.06
535.71	40498.29
535.88	40704.26
536.05	40416.37
536.22	41146.62
536.38	40933.63
536.55	41116.19
536.72	41296.41
536.89	40783.83
537.06	40912.56
537.23	40858.73
537.40	40891.50
537.57	40975.76
537.74	41055.34
537.91	41209.81
538.08	41406.42
538.25	41148.96
538.42	41361.95
538.59	41530.47
538.75	41034.27
538.92	41434.50
539.09	41244.92
539.26	41574.94
539.43	41663.88
539.60	41670.90
539.77	42230.29
539.94	42075.81
540.11	42326.25
540.28	41703.67
540.44	41762.18
540.61	42351.99
540.78	42309.86
540.95	42520.51
541.12	42579.03
541.29	42483.06
541.46	42396.46
541.62	42321.57
541.79	42335.61
541.96	41935.38
542.13	42721.80
542.30	42375.40
542.47	42782.65
542.63	43068.20
542.80	43313.95
542.97	42939.47
543.14	43414.60
543.31	42838.83
543.48	43019.05
543.64	43440.34
543.81	43419.28
543.98	43658.01
544.15	43466.09
544.32	43737.59
544.48	43761.00
544.65	43145.44
544.82	43374.81
544.99	42909.04
545.16	43749.29
545.32	43482.47
545.49	44069.95
545.66	44879.77
545.83	44634.02
546.00	44706.57
546.16	43959.94
546.33	43847.60
546.50	43302.25
546.67	43634.61
546.83	43082.24
547.00	43852.28
547.17	43569.07
547.34	43847.60
547.50	43887.39
547.67	44224.42
547.84	43775.04
548.00	44062.93
548.17	44509.97
548.34	44156.55
548.51	44332.09
548.67	44435.07
548.84	43934.20
549.01	44381.24
549.18	43859.30
549.34	43964.62
549.51	43969.30
549.68	44072.29
549.84	44179.95
550.01	44055.90
550.18	44041.86
550.34	44334.43
550.51	44348.47
550.68	44322.72
550.84	44334.43
551.01	44507.63
551.18	44390.60
551.34	44156.55
551.51	44875.09
551.68	44547.42
551.84	44325.07
552.01	44568.48
552.18	45116.17
552.34	44835.30
552.51	44507.63
552.68	44542.74
552.84	44687.85
553.01	44762.75
553.18	44612.95
553.34	44706.57
553.51	44697.21
553.67	45200.43
553.84	45689.60
554.01	44935.95
554.17	45216.81
554.34	45340.86
554.51	44856.37
554.67	45020.20
554.84	45170.00
555.00	44755.72
555.17	45015.52
555.33	45064.67
555.50	45193.40
555.67	45443.84
555.83	45329.16
556.00	45474.27
556.16	45301.07
556.33	44980.42
556.50	45092.76
556.66	45418.10
556.83	45937.69
556.99	45621.72
557.16	45085.74
557.32	45338.52
557.49	45371.28
557.65	45361.92
557.82	45099.78
557.98	45038.93
558.15	45394.69
558.32	45436.82
558.48	45200.43
558.65	45502.35
558.81	45603.00
558.98	45832.37
559.14	45326.81
559.31	45427.46
559.47	45869.82
559.64	45535.12
559.80	45647.47
559.97	45799.60
560.13	45705.98
560.30	45797.26
560.46	45612.36
560.63	45586.61
560.79	45563.21
560.96	45918.97
561.12	45757.47
561.29	45432.14
561.45	45565.55
561.61	45895.56
561.78	45893.22
561.94	46010.25
562.11	46513.47
562.27	46005.57
562.44	46237.28
562.60	45963.44
562.77	45883.86
562.93	45888.54
563.10	46396.44
563.26	45937.69
563.42	46197.49
563.59	46036.00
563.75	46026.63
563.92	46593.04
564.08	46106.21
564.24	45944.72
564.41	45776.20
564.57	45839.39
564.74	46206.86
564.90	45984.51
565.07	45888.54
565.23	46054.72
565.39	45895.56
565.56	45827.69
565.72	45495.33
565.88	45914.29
566.05	46033.66
566.21	46113.23
566.38	45921.31
566.54	46089.83
566.70	46108.55
566.87	46204.52
567.03	45862.80
567.19	46597.73
567.36	46700.71
567.52	45935.35
567.68	45869.82
567.85	45820.67
568.01	46309.84
568.17	46087.49
568.34	46017.27
568.50	46380.06
568.66	46026.63
568.83	46520.49
568.99	46178.77
569.15	45806.62
569.32	46314.52
569.48	46344.95
569.64	46380.06
569.81	46284.09
569.97	45989.19
570.13	46391.76
570.30	46763.90
570.46	45954.08
570.62	46256.01
570.78	45993.87
570.95	46440.91
571.11	46571.98
571.27	45818.33
571.43	46007.91
571.60	46777.95
571.76	46153.02
571.92	46225.58
572.09	46527.51
572.25	46955.83
572.41	46080.47
572.57	46508.79
572.74	46293.46
572.90	46368.35
573.06	46099.19
573.22	46419.84
573.38	46246.65
573.55	46747.52
573.71	46607.09
573.87	46686.67
574.03	46459.63
574.20	46527.51
574.36	46234.94
574.52	46387.08
574.68	46312.18
574.84	46213.88
575.01	46614.11
575.17	46674.96
575.33	46501.76
575.49	46241.96
575.65	46841.14
575.82	46754.54
575.98	46459.63
576.14	46288.77
576.30	46436.23
576.46	46742.84
576.62	46529.85
576.79	46763.90
576.95	46417.50
577.11	46745.18
577.27	46621.13
577.43	46305.16
577.59	46824.76
577.75	46646.88
577.92	46213.88
578.08	46131.96
578.24	45769.18
578.40	46602.41
578.56	46827.10
578.72	46672.62
578.88	46735.82
579.04	46749.86
579.21	46464.32
579.37	46876.25
579.53	46801.35
579.69	46527.51
579.85	46410.48
580.01	46319.20
580.17	46419.84
580.33	46230.26
580.49	46167.07
580.65	46611.77
580.82	46499.42
580.98	46429.21
581.14	46564.96
581.30	46700.71
581.46	46204.52
581.62	46373.03
581.78	46309.84
581.94	46621.13
582.10	46485.38
582.26	46665.60
582.42	46469.00
582.58	46969.87
582.74	46763.90
582.90	46965.19
583.06	46553.26
583.22	46377.72
583.38	46354.31
583.54	46461.97
583.70	46806.03
583.86	46714.75
584.02	46174.09
584.18	46646.88
584.34	46871.57
584.50	46670.28
584.66	46476.02
584.82	46440.91
584.98	46560.28
585.14	46415.16
585.30	45879.18
585.46	46389.42
585.62	46401.12
585.78	46700.71
585.94	46000.89
586.10	46724.11
586.26	46438.57
586.42	46555.60
586.58	47105.62
586.74	46696.03
586.90	46511.13
587.06	46431.55
587.22	46775.61
587.38	46520.49
587.54	46670.28
587.70	46651.56
587.86	46815.40
588.02	47262.44
588.18	46974.55
588.34	46256.01
588.49	46806.03
588.65	46178.77
588.81	46532.19
588.97	46894.97
589.13	46649.22
589.29	46532.19
589.45	46941.78
589.61	46990.94
589.77	46815.40
589.93	46576.66
590.08	46710.07
590.24	46869.23
590.40	46773.27
590.56	46806.03
