SpectraSuite Data File
++++++++++++++++++++++++++++++++++++
Date: Fri Oct 04 11:39:17 GMT-05:00 2013
User: price-jones
Dark Spectrum Present: No
Reference Spectrum Present: No
Number of Sampled Component Spectra: 1
Spectrometers: USB2+H05261
Integration Time (usec): 100000 (USB2+H05261)
Spectra Averaged: 1 (USB2+H05261)
Boxcar Smoothing: 0 (USB2+H05261)
Correct for Electrical Dark: No (USB2+H05261)
Strobe/Lamp Enabled: No (USB2+H05261)
Correct for Detector Non-linearity: No (USB2+H05261)
Correct for Stray Light: No (USB2+H05261)
Number of Pixels in Processed Spectrum: 2048
>>>>>Begin Processed Spectral Data<<<<<
365.73	56.17
365.92	56.17
366.12	56.17
366.32	0.00
366.52	7.02
366.72	18.72
366.91	0.00
367.11	0.00
367.31	0.00
367.51	0.00
367.70	0.00
367.90	0.00
368.10	0.00
368.30	14.04
368.49	0.00
368.69	9.36
368.89	0.00
369.09	0.00
369.28	100.64
369.48	0.00
369.68	0.00
369.87	14.04
370.07	16.38
370.27	25.75
370.47	4.68
370.66	112.35
370.86	241.08
371.06	259.80
371.25	351.08
371.45	227.03
371.65	320.65
371.84	266.82
372.04	306.61
372.24	322.99
372.44	322.99
372.63	311.29
372.83	276.18
373.03	344.06
373.22	344.06
373.42	348.74
373.62	372.15
373.81	351.08
374.01	374.49
374.21	341.72
374.40	400.23
374.60	397.89
374.79	360.44
374.99	383.85
375.19	351.08
375.38	393.21
375.58	388.53
375.78	416.62
375.97	386.19
376.17	409.59
376.37	379.17
376.56	423.64
376.76	372.15
376.95	414.27
377.15	425.98
377.35	493.85
377.54	470.45
377.74	425.98
377.93	435.34
378.13	369.80
378.33	400.23
378.52	388.53
378.72	418.96
378.91	454.06
379.11	365.12
379.31	430.66
379.50	449.38
379.70	425.98
379.89	470.45
380.09	404.91
380.28	486.83
380.48	463.43
380.68	395.55
380.87	435.34
381.07	447.04
381.26	531.30
381.46	463.43
381.65	475.13
381.85	458.74
382.04	411.93
382.24	521.94
382.43	477.47
382.63	447.04
382.83	451.72
383.02	526.62
383.22	566.41
383.41	496.19
383.61	458.74
383.80	580.45
384.00	479.81
384.19	517.26
384.39	531.30
384.58	538.32
384.78	519.60
384.97	521.94
385.17	526.62
385.36	552.37
385.56	442.36
385.75	475.13
385.95	648.33
386.14	561.73
386.34	587.47
386.53	610.88
386.72	603.86
386.92	636.63
387.11	578.11
387.31	580.45
387.50	613.22
387.70	528.96
387.89	676.41
388.09	620.24
388.28	641.31
388.48	559.39
388.67	669.39
388.86	540.66
389.06	528.96
389.25	599.18
389.45	683.44
389.64	624.92
389.84	587.47
390.03	660.03
390.22	688.12
390.42	681.10
390.61	608.54
390.81	648.33
391.00	645.99
391.19	662.37
391.39	678.76
391.58	748.97
391.78	657.69
391.97	730.25
392.16	641.31
392.36	741.95
392.55	730.25
392.75	692.80
392.94	734.93
393.13	702.16
393.33	730.25
393.52	730.25
393.71	732.59
393.91	844.93
394.10	753.65
394.29	786.42
394.49	763.01
394.68	730.25
394.88	774.72
395.07	812.17
395.26	791.10
395.46	840.25
395.65	950.26
395.84	802.80
396.04	826.21
396.23	873.02
396.42	851.96
396.62	812.17
396.81	858.98
397.00	875.36
397.19	833.23
397.39	905.79
397.58	922.17
397.77	915.15
397.97	814.51
398.16	919.83
398.35	997.07
398.55	945.58
398.74	964.30
398.93	976.00
399.12	971.32
399.32	957.28
399.51	954.94
399.70	1011.11
399.90	1027.50
400.09	1034.52
400.28	1039.20
400.47	990.05
400.67	1064.94
400.86	1032.18
401.05	1043.88
401.24	1107.07
401.44	1083.67
401.63	1151.54
401.82	1114.10
402.01	1118.78
402.21	1146.86
402.40	1184.31
402.59	1104.73
402.78	1013.45
402.97	1165.59
403.17	1156.22
403.36	1245.16
403.55	1128.14
403.74	1207.72
403.93	1294.32
404.13	1287.29
404.32	1277.93
404.51	1249.85
404.70	1291.98
404.89	1306.02
405.09	1380.92
405.28	1256.87
405.47	1303.68
405.66	1369.21
405.85	1383.26
406.05	1427.73
406.24	1373.89
406.43	1380.92
406.62	1420.71
406.81	1474.54
407.00	1409.00
407.20	1355.17
407.39	1420.71
407.58	1455.81
407.77	1521.35
407.96	1556.46
408.15	1509.65
408.34	1544.75
408.54	1547.09
408.73	1568.16
408.92	1603.27
409.11	1589.22
409.30	1668.80
409.49	1600.93
409.68	1547.09
409.87	1643.06
410.07	1720.29
410.26	1687.53
410.45	1657.10
410.64	1713.27
410.83	1870.09
411.02	1760.08
411.21	1734.34
411.40	1874.77
411.59	1778.81
411.78	1858.39
411.98	1867.75
412.17	1837.32
412.36	1893.49
412.55	1891.15
412.74	1949.67
412.93	2005.84
413.12	1928.60
413.31	2078.40
413.50	2113.50
413.69	2139.25
413.88	2118.18
414.07	2157.97
414.26	2097.12
414.45	2064.35
414.64	2200.10
414.83	2352.24
415.02	2162.66
415.22	2310.11
415.41	2246.91
415.60	2338.20
415.79	2298.41
415.98	2385.01
416.17	2410.75
416.36	2317.13
416.55	2345.22
416.74	2441.18
416.93	2410.75
417.12	2438.84
417.31	2499.69
417.50	2377.98
417.69	2637.78
417.88	2504.37
418.07	2537.14
418.26	2616.72
418.45	2527.78
418.64	2682.25
418.83	2722.04
419.02	2693.96
419.21	2679.91
419.39	2700.98
419.58	2621.40
419.77	2670.55
419.96	2693.96
420.15	2602.68
420.34	2892.90
420.53	2773.53
420.72	2944.39
420.91	2848.43
421.10	2885.88
421.29	2836.73
421.48	2839.07
421.67	3026.31
421.86	2839.07
422.05	2944.39
422.24	2920.99
422.43	2878.86
422.61	2913.97
422.80	2953.76
422.99	2981.84
423.18	3103.55
423.37	2951.42
423.56	3033.33
423.75	2928.01
423.94	2981.84
424.13	2832.05
424.32	2846.09
424.50	3035.67
424.69	2991.20
424.88	3159.72
425.07	3054.40
425.26	2956.10
425.45	3016.95
425.64	3035.67
425.83	3023.97
426.01	3087.17
426.20	3169.09
426.39	3091.85
426.58	3152.70
426.77	3103.55
426.96	3145.68
427.15	3101.21
427.33	3169.09
427.52	3155.04
427.71	3258.03
427.90	3178.45
428.09	3222.92
428.28	3325.90
428.46	3344.63
428.65	3346.97
428.84	3361.01
429.03	3363.35
429.22	3211.22
429.40	3246.32
429.59	3370.37
429.78	3384.41
429.97	3155.04
430.16	3253.34
430.34	3309.52
430.53	3456.97
430.72	3489.74
430.91	3424.20
431.10	3332.92
431.28	3578.68
431.47	3536.55
431.66	3581.02
431.85	3604.42
432.03	3674.64
432.22	3620.81
432.41	3559.95
432.60	3658.26
432.79	3648.90
432.97	3618.47
433.16	3686.34
433.35	3744.86
433.54	3735.50
433.72	3693.37
433.91	3735.50
434.10	3705.07
434.28	3845.50
434.47	3953.16
434.66	3925.08
434.85	3833.80
435.03	3868.91
435.22	4086.58
435.41	4297.22
435.59	4381.48
435.78	4196.58
435.97	4182.54
436.16	4152.11
436.34	4007.00
436.53	4095.94
436.72	4177.86
436.90	3943.80
437.09	4095.94
437.28	4072.53
437.46	4037.42
437.65	4201.26
437.84	4100.62
438.02	4081.89
438.21	3985.93
438.40	4252.75
438.58	4346.37
438.77	4287.86
438.96	4334.67
439.14	4402.55
439.33	4362.76
439.52	4465.74
439.70	4482.13
439.89	4517.23
440.08	4404.89
440.26	4512.55
440.45	4489.15
440.63	4718.52
440.82	4744.27
441.01	4758.31
441.19	4816.82
441.38	4711.50
441.57	4936.19
441.75	4779.37
441.94	4910.44
442.12	4908.10
442.31	5046.20
442.50	4994.70
442.68	4964.28
442.87	4959.60
443.05	5097.69
443.24	5034.49
443.43	5132.79
443.61	5109.39
443.80	5245.14
443.98	4931.51
444.17	4894.06
444.35	4999.38
444.54	5036.83
444.73	5313.02
444.91	5231.10
445.10	5125.77
445.28	4919.81
445.47	4994.70
445.65	5128.11
445.84	5200.67
446.02	5329.40
446.21	5252.16
446.39	5163.22
446.58	5198.33
446.77	5224.08
446.95	5095.35
447.14	5397.28
447.32	5327.06
447.51	5357.49
447.69	5287.27
447.88	5401.96
448.06	5305.99
448.25	5198.33
448.43	5383.23
448.62	5212.37
448.80	5219.39
448.99	5245.14
449.17	5418.34
449.36	5479.19
449.54	5530.69
449.73	5675.80
449.91	5533.03
450.10	5551.75
450.28	5603.24
450.46	5734.31
450.65	5710.91
450.83	5685.16
451.02	5575.16
451.20	5713.25
451.39	5760.06
451.57	5701.54
451.76	5511.96
451.94	5664.10
452.13	5832.62
452.31	5954.32
452.49	5593.88
452.68	5692.18
452.86	5731.97
453.05	5727.29
453.23	5886.45
453.42	5856.02
453.60	5820.91
453.78	5895.81
453.97	5865.38
454.15	5785.80
454.34	5858.36
454.52	5996.45
454.70	5949.64
454.89	6022.20
455.07	5968.37
455.26	6054.97
455.44	6195.40
455.62	6141.57
455.81	6008.16
455.99	6225.82
456.17	6204.76
456.36	6211.78
456.54	6216.46
456.73	6328.81
456.91	6464.56
457.09	6490.31
457.28	6483.28
457.46	6347.53
457.64	6595.63
457.83	6640.10
458.01	6384.98
458.19	6630.74
458.38	6443.49
458.56	6726.70
458.74	6595.63
458.93	6574.56
459.11	6738.40
459.29	6607.33
459.48	6796.92
459.66	6789.89
459.84	6890.54
460.03	6888.20
460.21	6810.96
460.39	6785.21
460.57	6686.91
460.76	6799.26
460.94	7112.89
461.12	6857.77
461.31	6766.49
461.49	6935.01
461.67	6932.67
461.85	7126.93
462.04	7040.33
462.22	7597.38
462.40	7117.57
462.59	7129.27
462.77	7133.95
462.95	7140.97
463.13	7185.44
463.32	7084.80
463.50	7325.88
463.68	7253.32
463.86	7318.86
464.05	7110.55
464.23	7339.92
464.41	7456.95
464.59	7351.62
464.78	7480.35
464.96	7478.01
465.14	7307.15
465.32	7265.02
465.50	7522.48
465.69	7478.01
465.87	7485.03
466.05	7431.20
466.23	7302.47
466.41	7714.41
466.60	7733.13
466.78	7412.48
466.96	7517.80
467.14	7293.11
467.32	7765.90
467.51	7768.24
467.69	7506.10
467.87	7602.06
468.05	7983.57
468.23	7686.32
468.41	8074.85
468.60	7611.42
468.78	7875.90
468.96	7719.09
469.14	7918.03
469.32	7943.78
469.50	7768.24
469.69	7939.10
469.87	8053.78
470.05	8166.13
470.23	8105.28
470.41	8109.96
470.59	8365.07
470.77	7992.93
470.95	8191.88
471.14	8299.54
471.32	8255.07
471.50	8393.16
471.68	8320.60
471.86	8512.53
472.04	8589.77
472.22	8641.26
472.40	8533.59
472.58	8702.11
472.77	8662.32
472.95	8734.88
473.13	8842.54
473.31	8901.06
473.49	8589.77
473.67	8671.68
473.85	8681.05
474.03	8891.70
474.21	9011.06
474.39	9266.18
474.57	9095.32
474.75	9011.06
474.93	9345.76
475.12	9423.00
475.30	9373.85
475.48	9336.40
475.66	9235.75
475.84	9404.27
476.02	9511.94
476.20	9525.98
476.38	9764.72
476.56	9734.29
476.74	9858.34
476.92	9582.15
477.10	9708.54
477.28	10083.03
477.46	9750.67
477.64	10052.60
477.82	10223.46
478.00	10504.32
478.18	10366.23
478.36	10494.96
478.54	10516.03
478.72	10562.84
478.90	10754.76
479.08	10773.49
479.26	10876.47
479.44	11012.22
479.62	11232.23
479.80	10890.51
479.98	11005.20
480.16	11367.98
480.34	11372.66
480.52	11473.31
480.70	11520.12
480.88	11389.05
481.06	11325.85
481.24	11520.12
481.41	11499.05
481.59	11850.13
481.77	11941.41
481.95	12201.21
482.13	12107.59
482.31	12093.55
482.49	12432.93
482.67	12245.68
482.85	12608.47
483.03	12884.65
483.21	12840.18
483.39	12884.65
483.57	12816.77
483.74	12833.16
483.92	13099.98
484.10	12957.21
484.28	13217.01
484.46	13352.76
484.64	13715.54
484.82	13659.37
485.00	13385.52
485.18	14239.82
485.35	14157.90
485.53	14167.26
485.71	13923.85
485.89	14473.87
486.07	14204.71
486.25	14263.22
486.43	14565.15
486.61	14649.41
486.78	14658.78
486.96	14520.68
487.14	15103.48
487.32	15190.08
487.50	14927.94
487.68	15398.38
487.85	15751.81
488.03	15662.86
488.21	15953.09
488.39	15903.94
488.57	16081.82
488.75	15939.05
488.92	16491.41
489.10	16620.14
489.28	16486.73
489.46	16865.90
489.64	16526.52
489.81	16936.12
489.99	17001.65
490.17	17106.98
490.35	17254.43
490.53	17064.85
490.70	17652.32
490.88	17504.87
491.06	17839.56
491.24	17776.37
491.41	17738.92
491.59	17991.70
491.77	18045.53
491.95	18010.42
492.13	18326.39
492.30	18277.24
492.48	18588.53
492.66	18679.82
492.84	18539.38
493.01	18927.91
493.19	19091.75
493.37	18883.44
493.54	19122.18
493.72	19150.26
493.90	19339.85
494.08	19445.17
494.25	19719.01
494.43	19742.42
494.61	20194.14
494.79	20016.26
494.96	19903.92
495.14	20212.87
495.32	20044.35
495.49	20182.44
495.67	20320.53
495.85	20592.03
496.02	20844.81
496.20	20945.45
496.38	20931.41
496.55	21041.42
496.73	21563.36
496.91	20985.24
497.09	21755.28
497.26	21322.28
497.44	21301.22
497.62	21561.02
497.79	21696.77
497.97	22185.94
498.14	22188.28
498.32	22520.63
498.50	22260.84
498.67	22183.60
498.85	22534.68
499.03	22405.95
499.20	22738.30
499.38	22508.93
499.56	22895.12
499.73	23101.09
499.91	23124.49
500.08	23061.30
500.26	23084.70
500.44	22927.89
500.61	23002.78
500.79	23435.78
500.97	23328.12
501.14	23669.84
501.32	23833.68
501.49	24084.11
501.67	23431.10
501.84	23786.86
502.02	24009.22
502.20	24126.24
502.37	24283.06
502.55	24428.17
502.72	24379.02
502.90	24526.47
503.07	24320.51
503.25	24582.65
503.43	24596.69
503.60	24774.57
503.78	24676.27
503.95	24968.84
504.13	25053.09
504.30	24889.26
504.48	25039.05
504.65	25097.56
504.83	25378.43
505.01	25340.98
505.18	25401.83
505.36	25497.80
505.53	25319.92
505.71	25523.54
505.88	25937.82
506.06	25575.03
506.23	25752.91
506.41	25745.89
506.58	26057.18
506.76	26038.46
506.93	26146.12
507.11	26246.77
507.28	26515.93
507.46	26382.52
507.63	26703.17
507.81	26815.52
507.98	26572.10
508.16	26663.38
508.33	26457.42
508.50	26494.86
508.68	26838.92
508.85	27239.15
509.03	27096.38
509.20	27154.90
509.38	27454.48
509.55	27835.99
509.73	27367.88
509.90	27522.36
510.08	27793.86
510.25	27662.79
510.42	27737.69
510.60	28552.20
510.77	27985.79
510.95	28105.15
511.12	28187.07
511.30	27803.22
511.47	28217.50
511.64	28343.89
511.82	28503.04
511.99	28524.11
512.17	28687.95
512.34	28790.93
512.51	28734.76
512.69	28896.25
512.86	28989.88
513.04	29394.79
513.21	29373.72
513.38	29446.28
513.56	29755.23
513.73	29212.23
513.90	29324.57
514.08	29113.92
514.25	29729.48
514.43	29839.49
514.60	29607.78
514.77	29844.17
514.95	30368.45
515.12	29682.67
515.29	29670.97
515.47	29790.34
515.64	30588.46
515.81	29940.13
515.99	30513.56
516.16	30693.79
516.33	30279.51
516.51	30635.27
516.68	30265.47
516.85	30546.33
517.03	30335.68
517.20	30691.44
517.37	30951.24
517.54	31211.04
517.72	30817.83
517.89	31140.83
518.06	31171.25
518.24	31159.55
518.41	31250.83
518.58	31601.91
518.75	31236.79
518.93	31386.58
519.10	31236.79
519.27	31318.71
519.45	31438.08
519.62	31630.00
519.79	31566.81
519.96	32063.00
520.14	32086.40
520.31	31747.03
520.48	32175.34
520.65	31960.02
520.83	31803.20
521.00	32114.49
521.17	31896.82
521.34	32620.05
521.52	32165.98
521.69	32404.72
521.86	32659.84
522.03	32940.70
522.20	33151.35
522.38	32662.18
522.55	32685.58
522.72	32800.27
522.89	32818.99
523.07	33329.23
523.24	33495.41
523.41	33715.42
523.58	33298.80
523.75	33535.20
523.92	33244.97
524.10	33144.33
524.27	33699.03
524.44	33642.86
524.61	33841.81
524.78	33865.21
524.96	33755.21
525.13	33982.24
525.30	34106.29
525.47	34171.82
525.64	33907.34
525.81	34274.80
525.98	34410.56
526.16	34267.78
526.33	34691.42
526.50	34389.49
526.67	34527.58
526.84	34230.33
527.01	34366.09
527.18	34342.68
527.36	35063.57
527.53	35093.99
527.70	35189.95
527.87	35236.77
528.04	34789.72
528.21	35129.10
528.38	34845.90
528.55	35173.57
528.72	34962.92
528.89	35180.59
529.07	35255.49
529.24	35047.18
529.41	35377.20
529.58	35372.52
529.75	35227.40
529.92	35466.14
530.09	35501.25
530.26	35608.91
530.43	35498.91
530.60	35138.46
530.77	35725.94
530.94	35763.39
531.11	35941.27
531.28	35707.21
531.46	35772.75
531.63	36100.42
531.80	35761.05
531.97	36322.77
532.14	36348.52
532.31	36032.55
532.48	36261.92
532.65	36175.32
532.82	36666.83
532.99	36364.90
533.16	36610.66
533.33	36437.46
533.50	37148.98
533.67	36975.78
533.84	36500.65
534.01	36435.12
534.18	36821.31
534.35	36465.55
534.52	36645.77
534.69	36882.16
534.86	37336.23
535.03	37111.53
535.20	37289.42
535.37	37060.04
535.54	37202.82
535.71	36980.46
535.88	37453.25
536.05	37069.40
536.22	37235.58
536.38	37785.61
536.55	37764.54
536.72	37656.88
536.89	37567.94
537.06	37851.14
537.23	37764.54
537.40	37493.04
537.57	37708.37
537.74	37977.53
537.91	38139.03
538.08	38398.83
538.25	37773.91
538.42	37844.12
538.59	37883.91
538.75	37684.97
538.92	37928.38
539.09	38574.37
539.26	38513.52
539.43	38656.29
539.60	38267.76
539.77	38471.39
539.94	38789.70
540.11	38490.11
540.28	38532.24
540.44	38880.98
540.61	38735.87
540.78	38597.77
540.95	38644.59
541.12	39318.66
541.29	39021.41
541.46	39571.44
541.62	39126.74
541.79	39250.78
541.96	38787.36
542.13	39063.54
542.30	39264.83
542.47	39433.35
542.63	39746.98
542.80	39653.36
542.97	39966.99
543.14	39746.98
543.31	40065.29
543.48	39824.22
543.64	40238.49
543.81	39873.37
543.98	39941.24
544.15	40187.00
544.32	40521.69
544.48	40622.34
544.65	39974.01
544.82	40187.00
544.99	40009.12
545.16	39981.03
545.32	40212.74
545.49	40966.40
545.66	41497.70
545.83	41741.11
546.00	41984.53
546.16	40664.47
546.33	40568.51
546.50	40245.51
546.67	40624.68
546.83	40018.48
547.00	40376.58
547.17	40512.33
547.34	40135.51
547.50	40507.65
547.67	40629.36
547.84	40905.54
548.00	40753.41
548.17	40928.95
548.34	40964.06
548.51	41106.83
548.67	41097.47
548.84	40935.97
549.01	40992.14
549.18	41247.26
549.34	40795.54
549.51	41244.92
549.68	40980.44
549.84	41291.73
550.01	41125.55
550.18	41038.95
550.34	41165.34
550.51	41493.02
550.68	41397.06
550.84	41200.45
551.01	41310.46
551.18	40933.63
551.34	41055.34
551.51	41521.10
551.68	41581.96
551.84	41633.45
552.01	41289.39
552.18	42005.59
552.34	41518.76
552.51	41848.78
552.68	41294.07
552.84	41764.52
553.01	41734.09
553.18	41502.38
553.34	41827.71
553.51	42003.25
553.67	41823.03
553.84	42108.58
554.01	41998.57
554.17	42038.36
554.34	42232.63
554.51	41617.07
554.67	42141.35
554.84	41998.57
555.00	41656.85
555.17	42146.03
555.33	42082.83
555.50	42298.16
555.67	42258.37
555.83	42087.51
556.00	42370.72
556.16	42623.50
556.33	42167.09
556.50	42604.77
556.66	42487.74
556.83	42579.03
556.99	42969.90
557.16	42918.40
557.32	42457.32
557.49	42471.36
557.65	42274.76
557.82	42298.16
557.98	42256.03
558.15	42564.98
558.32	42342.63
558.48	42799.04
558.65	42784.99
558.81	42911.38
558.98	42356.67
559.14	42745.20
559.31	42288.80
559.47	42766.27
559.64	42958.19
559.80	42895.00
559.97	43225.01
560.13	43096.28
560.30	42925.42
560.46	43700.14
560.63	43304.59
560.79	43304.59
560.96	42740.52
561.12	42937.13
561.29	42953.51
561.45	43023.73
561.61	43168.84
561.78	43409.92
561.94	43037.77
562.11	43274.16
562.27	43250.76
562.44	42965.21
562.60	43232.04
562.77	43405.23
562.93	42852.87
563.10	42862.23
563.26	43257.78
563.42	43730.57
563.59	43346.72
563.75	43180.54
563.92	43484.81
564.08	43395.87
564.24	43512.90
564.41	43306.93
564.57	43395.87
564.74	43309.27
564.90	43569.07
565.07	43966.96
565.23	43386.51
565.39	43571.41
565.56	43627.59
565.72	43585.46
565.88	43456.73
566.05	43182.88
566.21	43140.75
566.38	43428.64
566.54	43491.83
566.70	43964.62
566.87	44053.56
567.03	43632.27
567.19	43948.24
567.36	43239.06
567.52	43180.54
567.68	43679.08
567.85	43393.53
568.01	43503.54
568.17	43597.16
568.34	43852.28
568.50	43964.62
568.66	43480.13
568.83	43814.83
568.99	44016.11
569.15	43550.35
569.32	43842.92
569.48	43587.80
569.64	44271.23
569.81	43714.19
569.97	43936.54
570.13	43854.62
570.30	43669.72
570.46	43934.20
570.62	44196.34
570.78	43885.04
570.95	43573.75
571.11	44074.63
571.27	43709.50
571.43	43679.08
571.60	43845.26
571.76	44128.46
571.92	44650.40
572.09	44507.63
572.25	44172.93
572.41	44144.84
572.57	44013.77
572.74	43887.39
572.90	43725.89
573.06	43941.22
573.22	43803.13
573.38	43627.59
573.55	44327.41
573.71	44451.45
573.87	44617.63
574.03	44271.23
574.20	43859.30
574.36	43878.02
574.52	44266.55
574.68	43999.73
574.84	44009.09
575.01	44329.75
575.17	43981.01
575.33	44219.74
575.49	43910.79
575.65	43964.62
575.82	44329.75
575.98	44027.82
576.14	44856.37
576.30	44636.36
576.46	44009.09
576.62	44301.66
576.79	44383.58
576.95	43999.73
577.11	44212.72
577.27	44261.87
577.43	44158.89
577.59	44566.14
577.75	44446.77
577.92	43985.69
578.08	44315.70
578.24	44112.08
578.40	44313.36
578.56	44339.11
578.72	43976.33
578.88	44591.89
579.04	44905.52
579.21	44456.14
579.37	44626.99
579.53	44851.69
579.69	44275.91
579.85	44135.48
580.01	44411.67
580.17	44261.87
580.33	44402.30
580.49	44243.15
580.65	44804.88
580.82	44161.23
580.98	44414.01
581.14	44502.95
581.30	44318.04
581.46	44474.86
581.62	44205.70
581.78	44285.28
581.94	44837.64
582.10	44362.51
582.26	44657.42
582.42	44985.10
582.58	44706.57
582.74	44629.34
582.90	44905.52
583.06	44744.02
583.22	44589.55
583.38	44659.76
583.54	44619.97
583.70	44687.85
583.86	44477.20
584.02	44582.52
584.18	44704.23
584.34	45034.25
584.50	44694.87
584.66	44701.89
584.82	44488.90
584.98	44512.31
585.14	44507.63
585.30	44657.42
585.46	44376.56
585.62	44634.02
585.78	44512.31
585.94	44425.71
586.10	44664.44
586.26	44877.43
586.42	44839.98
586.58	44849.35
586.74	44856.37
586.90	44896.16
587.06	44168.25
587.22	44886.79
587.38	44694.87
587.54	44896.16
587.70	44507.63
587.86	45118.51
588.02	45165.32
588.18	45027.23
588.34	45034.25
588.49	44800.19
588.65	44811.90
588.81	44362.51
588.97	45296.39
589.13	44570.82
589.29	44533.37
589.45	45071.70
589.61	45008.50
589.77	45059.99
589.93	45219.15
590.08	45277.66
590.24	45125.53
590.40	45200.43
590.56	45237.87
590.72	45085.74
590.88	44692.53
