SpectraSuite Data File
++++++++++++++++++++++++++++++++++++
Date: Fri Oct 04 11:39:29 GMT-05:00 2013
User: price-jones
Dark Spectrum Present: No
Reference Spectrum Present: No
Number of Sampled Component Spectra: 1
Spectrometers: USB2+H05261
Integration Time (usec): 100000 (USB2+H05261)
Spectra Averaged: 1 (USB2+H05261)
Boxcar Smoothing: 0 (USB2+H05261)
Correct for Electrical Dark: No (USB2+H05261)
Strobe/Lamp Enabled: No (USB2+H05261)
Correct for Detector Non-linearity: No (USB2+H05261)
Correct for Stray Light: No (USB2+H05261)
Number of Pixels in Processed Spectrum: 2048
>>>>>Begin Processed Spectral Data<<<<<
365.73	39.79
365.92	39.79
366.12	39.79
366.32	0.00
366.52	0.00
366.72	0.00
366.91	0.00
367.11	0.00
367.31	0.00
367.51	0.00
367.70	0.00
367.90	0.00
368.10	0.00
368.30	0.00
368.49	0.00
368.69	70.22
368.89	7.02
369.09	0.00
369.28	0.00
369.48	0.00
369.68	0.00
369.87	0.00
370.07	0.00
370.27	0.00
370.47	0.00
370.66	88.94
370.86	163.84
371.06	145.11
371.25	138.09
371.45	140.43
371.65	156.82
371.84	161.50
372.04	224.69
372.24	149.79
372.44	159.16
372.63	140.43
372.83	241.08
373.03	170.86
373.22	154.48
373.42	121.71
373.62	168.52
373.81	210.65
374.01	262.14
374.21	308.95
374.40	198.95
374.60	210.65
374.79	177.88
374.99	194.26
375.19	294.91
375.38	271.50
375.58	198.95
375.78	266.82
375.97	285.55
376.17	243.42
376.37	173.20
376.56	306.61
376.76	220.01
376.95	168.52
377.15	175.54
377.35	196.60
377.54	264.48
377.74	156.82
377.93	212.99
378.13	189.58
378.33	184.90
378.52	276.18
378.72	250.44
378.91	187.24
379.11	220.01
379.31	245.76
379.50	203.63
379.70	215.33
379.89	229.37
380.09	243.42
380.28	231.71
380.48	152.13
380.68	170.86
380.87	208.31
381.07	203.63
381.26	231.71
381.46	177.88
381.65	196.60
381.85	266.82
382.04	250.44
382.24	198.95
382.43	215.33
382.63	198.95
382.83	194.26
383.02	208.31
383.22	238.73
383.41	189.58
383.61	189.58
383.80	107.66
384.00	184.90
384.19	220.01
384.39	203.63
384.58	196.60
384.78	243.42
384.97	276.18
385.17	290.23
385.36	278.52
385.56	156.82
385.75	236.39
385.95	283.20
386.14	241.08
386.34	208.31
386.53	248.10
386.72	238.73
386.92	243.42
387.11	210.65
387.31	313.63
387.50	245.76
387.70	170.86
387.89	271.50
388.09	238.73
388.28	243.42
388.48	278.52
388.67	257.46
388.86	294.91
389.06	327.68
389.25	241.08
389.45	250.44
389.64	306.61
389.84	290.23
390.03	308.95
390.22	205.97
390.42	252.78
390.61	278.52
390.81	299.59
391.00	280.86
391.19	348.74
391.39	280.86
391.58	344.06
391.78	344.06
391.97	238.73
392.16	187.24
392.36	337.04
392.55	318.31
392.75	346.40
392.94	330.02
393.13	245.76
393.33	278.52
393.52	301.93
393.71	400.23
393.91	379.17
394.10	322.99
394.29	306.61
394.49	308.95
394.68	355.76
394.88	409.59
395.07	353.42
395.26	381.51
395.46	285.55
395.65	341.72
395.84	369.80
396.04	437.68
396.23	383.85
396.42	332.36
396.62	355.76
396.81	440.02
397.00	449.38
397.19	365.12
397.39	351.08
397.58	376.83
397.77	348.74
397.97	344.06
398.16	430.66
398.35	458.74
398.55	451.72
398.74	425.98
398.93	493.85
399.12	411.93
399.32	540.66
399.51	397.89
399.70	484.49
399.90	486.83
400.09	409.59
400.28	367.46
400.47	479.81
400.67	521.94
400.86	496.19
401.05	472.79
401.24	517.26
401.44	578.11
401.63	543.00
401.82	557.05
402.01	524.28
402.21	552.37
402.40	566.41
402.59	582.79
402.78	531.30
402.97	566.41
403.17	599.18
403.36	636.63
403.55	554.71
403.74	571.09
403.93	643.65
404.13	634.29
404.32	695.14
404.51	629.60
404.70	657.69
404.89	711.52
405.09	662.37
405.28	585.13
405.47	634.29
405.66	725.57
405.85	723.23
406.05	683.44
406.24	765.36
406.43	709.18
406.62	643.65
406.81	819.19
407.00	772.38
407.20	767.70
407.39	671.73
407.58	711.52
407.77	755.99
407.96	802.80
408.15	861.32
408.34	781.74
408.54	835.57
408.73	805.14
408.92	894.08
409.11	863.66
409.30	926.85
409.49	868.34
409.68	924.51
409.87	945.58
410.07	826.21
410.26	901.11
410.45	1029.84
410.64	945.58
410.83	1020.47
411.02	943.24
411.21	1048.56
411.40	1083.67
411.59	1025.15
411.78	1020.47
411.98	1121.12
412.17	1083.67
412.36	1071.97
412.55	1123.46
412.74	1088.35
412.93	1146.86
413.12	1179.63
413.31	1277.93
413.50	1177.29
413.69	1343.47
413.88	1273.25
414.07	1254.53
414.26	1188.99
414.45	1217.08
414.64	1282.61
414.83	1380.92
415.02	1306.02
415.22	1345.81
415.41	1380.92
415.60	1416.02
415.79	1345.81
415.98	1462.83
416.17	1409.00
416.36	1453.47
416.55	1490.92
416.74	1516.67
416.93	1540.07
417.12	1544.75
417.31	1544.75
417.50	1490.92
417.69	1619.65
417.88	1593.90
418.07	1509.65
418.26	1526.03
418.45	1650.08
418.64	1600.93
418.83	1636.03
419.02	1575.18
419.21	1577.52
419.39	1678.16
419.58	1640.72
419.77	1657.10
419.96	1624.33
420.15	1703.91
420.34	1710.93
420.53	1746.04
420.72	1879.45
420.91	1825.62
421.10	1849.02
421.29	1825.62
421.48	1823.28
421.67	1837.32
421.86	1776.47
422.05	1813.92
422.24	1755.40
422.43	1834.98
422.61	1907.54
422.80	1923.92
422.99	1865.41
423.18	1914.56
423.37	1919.24
423.56	1830.30
423.75	1944.99
423.94	1792.85
424.13	1799.87
424.32	1879.45
424.50	1975.41
424.69	1902.86
424.88	1984.77
425.07	1856.04
425.26	1839.66
425.45	1952.01
425.64	1865.41
425.83	1879.45
426.01	2022.22
426.20	1919.24
426.39	2022.22
426.58	1923.92
426.77	1949.67
426.96	2071.37
427.15	1870.09
427.33	2169.68
427.52	2050.31
427.71	2104.14
427.90	1947.33
428.09	2033.93
428.28	2064.35
428.46	2080.74
428.65	2136.91
428.84	2260.96
429.03	2165.00
429.22	2069.03
429.40	2104.14
429.59	2064.35
429.78	2038.61
429.97	1996.48
430.16	2097.12
430.34	2143.93
430.53	2099.46
430.72	2190.74
430.91	2113.50
431.10	2293.72
431.28	2260.96
431.47	2244.57
431.66	2214.15
431.85	2195.42
432.03	2314.79
432.22	2361.60
432.41	2356.92
432.60	2429.48
432.79	2342.88
432.97	2260.96
433.16	2282.02
433.35	2387.35
433.54	2387.35
433.72	2452.88
433.91	2483.31
434.10	2406.07
434.28	2401.39
434.47	2455.22
434.66	2356.92
434.85	2464.58
435.03	2492.67
435.22	2630.76
435.41	2918.65
435.59	2799.28
435.78	2696.30
435.97	2654.17
436.16	2497.35
436.34	2555.86
436.53	2583.95
436.72	2700.98
436.90	2576.93
437.09	2600.34
437.28	2539.48
437.46	2609.70
437.65	2553.52
437.84	2534.80
438.02	2665.87
438.21	2602.68
438.40	2626.08
438.58	2759.49
438.77	2698.64
438.96	2703.32
439.14	2846.09
439.33	2949.08
439.52	2750.13
439.70	2841.41
439.89	2677.57
440.08	2810.98
440.26	2876.52
440.45	3035.67
440.63	2939.71
440.82	2986.52
441.01	2911.63
441.19	2963.12
441.38	2904.60
441.57	3038.02
441.75	3077.80
441.94	3075.46
442.12	3019.29
442.31	3185.47
442.50	3173.77
442.68	3204.19
442.87	3162.06
443.05	3056.74
443.24	3087.17
443.43	3208.87
443.61	3253.34
443.80	3293.13
443.98	3199.51
444.17	3119.93
444.35	3248.66
444.54	3269.73
444.73	3269.73
444.91	3251.00
445.10	3251.00
445.28	3300.16
445.47	3164.40
445.65	3398.46
445.84	3361.01
446.02	3475.70
446.21	3274.41
446.39	3133.98
446.58	3356.33
446.77	3311.86
446.95	3133.98
447.14	3265.05
447.32	3358.67
447.51	3396.12
447.69	3375.05
447.88	3452.29
448.06	3379.73
448.25	3328.24
448.43	3391.44
448.62	3375.05
448.80	3241.64
448.99	3248.66
449.17	3501.44
449.36	3379.73
449.54	3456.97
449.73	3590.38
449.91	3534.21
450.10	3576.34
450.28	3471.01
450.46	3569.32
450.65	3534.21
450.83	3496.76
451.02	3466.33
451.20	3585.70
451.39	3658.26
451.57	3492.08
451.76	3623.15
451.94	3566.98
452.13	3566.98
452.31	3728.47
452.49	3744.86
452.68	3658.26
452.86	3620.81
453.05	3693.37
453.23	3557.61
453.42	3566.98
453.60	3653.58
453.78	3609.11
453.97	3712.09
454.15	3742.52
454.34	3719.11
454.52	3805.71
454.70	3782.31
454.89	3794.01
455.07	3777.62
455.26	3901.67
455.44	3892.31
455.62	3852.52
455.81	3777.62
455.99	3861.88
456.17	3920.40
456.36	3894.65
456.54	4051.47
456.73	4070.19
456.91	4109.98
457.09	3967.21
457.28	4184.88
457.46	4084.23
457.64	4128.70
457.83	4009.34
458.01	4039.76
458.19	4212.96
458.38	4016.36
458.56	4138.07
458.74	4067.85
458.93	4049.13
459.11	4212.96
459.29	4287.86
459.48	4262.12
459.66	4079.55
459.84	4187.22
460.03	4280.84
460.21	4339.35
460.39	4418.93
460.57	4334.67
460.76	4245.73
460.94	4400.21
461.12	4416.59
461.31	4278.50
461.49	4418.93
461.67	4269.14
461.85	4468.08
462.04	4475.10
462.22	4573.41
462.40	4432.97
462.59	4594.47
462.77	4461.06
462.95	4421.27
463.13	4425.95
463.32	4451.70
463.50	4622.56
463.68	4655.33
463.86	4596.81
464.05	4484.47
464.23	4489.15
464.41	4484.47
464.59	4414.25
464.78	4723.20
464.96	4545.32
465.14	4606.17
465.32	4695.11
465.50	4723.20
465.69	4681.07
465.87	4685.75
466.05	4650.64
466.23	4507.87
466.41	4760.65
466.60	4805.12
466.78	4685.75
466.96	4723.20
467.14	4678.73
467.32	4713.84
467.51	4954.91
467.69	4683.41
467.87	4800.44
468.05	4926.83
468.23	4809.80
468.41	4770.01
468.60	4947.89
468.78	4816.82
468.96	4957.25
469.14	4877.68
469.32	4990.02
469.50	4868.31
469.69	5135.14
469.87	4947.89
470.05	4952.57
470.23	5097.69
470.41	5013.43
470.59	5144.50
470.77	5032.15
470.95	5205.35
471.14	5242.80
471.32	5210.03
471.50	5219.39
471.68	5100.03
471.86	5411.32
472.04	5352.81
472.22	5371.53
472.40	5348.12
472.58	5439.40
472.77	5334.08
472.95	5362.17
473.13	5713.25
473.31	5298.97
473.49	5467.49
473.67	5352.81
473.85	5427.70
474.03	5575.16
474.21	5455.79
474.39	5694.52
474.57	5699.20
474.75	5680.48
474.93	5661.76
475.12	5671.12
475.30	5809.21
475.48	5743.67
475.66	5902.83
475.84	5909.85
476.02	5966.03
476.20	5923.90
476.38	5806.87
476.56	6083.05
476.74	6001.13
476.92	6008.16
477.10	6045.60
477.28	5977.73
477.46	6076.03
477.64	6207.10
477.82	6286.68
478.00	6534.78
478.18	6513.71
478.36	6544.14
478.54	6569.88
478.72	6511.37
478.90	6520.73
479.08	6621.38
479.26	6527.75
479.44	6581.59
479.62	6740.74
479.80	6841.39
479.98	6853.09
480.16	6930.33
480.34	6902.24
480.52	7035.65
480.70	7176.08
480.88	7110.55
481.06	7192.47
481.24	7166.72
481.41	7229.91
481.59	7218.21
481.77	7302.47
481.95	7377.37
482.13	7595.04
482.31	7454.61
482.49	7456.95
482.67	7735.47
482.85	7824.41
483.03	7850.16
483.21	8074.85
483.39	7894.63
483.57	7843.14
483.74	7960.16
483.92	8109.96
484.10	8067.83
484.28	8098.25
484.46	8369.76
484.64	8524.23
484.82	8336.99
485.00	8336.99
485.18	8613.17
485.35	8643.60
485.53	8493.80
485.71	8603.81
485.89	9013.40
486.07	8823.82
486.25	9048.51
486.43	8879.99
486.61	9132.77
486.78	9151.49
486.96	9191.28
487.14	9294.27
487.32	9338.74
487.50	9287.25
487.68	9345.76
487.85	9628.96
488.03	9738.97
488.21	9884.08
488.39	9678.12
488.57	9895.78
488.75	9724.93
488.92	9991.75
489.10	9909.83
489.28	10050.26
489.46	10125.16
489.64	10345.17
489.81	10293.68
489.99	10368.57
490.17	10377.94
490.35	10642.42
490.53	10424.75
490.70	10909.24
490.88	10389.64
491.06	10602.63
491.24	10883.49
491.41	10925.62
491.59	10949.03
491.77	10792.21
491.95	11147.97
492.13	11197.12
492.30	11122.23
492.48	11351.60
492.66	11220.53
492.84	11370.32
493.01	11377.34
493.19	11398.41
493.37	11847.79
493.54	11665.23
493.72	11831.41
493.90	11857.15
494.08	11765.87
494.25	11880.56
494.43	12056.10
494.61	12042.06
494.79	12217.60
494.96	12131.00
495.14	12472.71
495.32	12353.35
495.49	12442.29
495.67	12365.05
495.85	12477.40
496.02	12615.49
496.20	12535.91
496.38	12475.06
496.55	12678.68
496.73	12858.90
496.91	12922.10
497.09	13071.89
497.26	13081.25
497.44	13078.91
497.62	13219.35
497.79	13322.33
497.97	13125.72
498.14	13467.44
498.32	13870.01
498.50	13401.91
498.67	13530.64
498.85	13605.53
499.03	13685.11
499.20	13839.59
499.38	13319.99
499.56	13654.69
499.73	13771.71
499.91	13963.64
500.08	14164.92
500.26	13970.66
500.44	13984.70
500.61	14324.08
500.79	14094.71
500.97	14230.46
501.14	14492.60
501.32	14354.51
501.49	14398.98
501.67	14286.63
501.84	14352.16
502.02	14574.52
502.20	14600.26
502.37	14618.99
502.55	14387.27
502.72	14682.18
502.90	14817.93
503.07	14848.36
503.25	14895.17
503.43	14710.27
503.60	14883.47
503.78	14890.49
503.95	15028.58
504.13	15026.24
504.30	14965.39
504.48	15133.90
504.65	15204.12
504.83	15068.37
505.01	15147.95
505.18	15122.20
505.36	15421.79
505.53	15374.98
505.71	15431.15
505.88	15779.89
506.06	15370.30
506.23	15723.72
506.41	15681.59
506.58	15693.29
506.76	15817.34
506.93	15885.22
507.11	15807.98
507.28	15824.36
507.46	15819.68
507.63	16039.69
507.81	16147.36
507.98	16091.18
508.16	15978.84
508.33	16215.23
508.50	16374.39
508.68	16325.24
508.85	16442.26
509.03	16451.63
509.20	16411.84
509.38	16547.59
509.55	16477.37
509.73	16809.73
509.90	16924.41
510.08	16840.15
510.25	16716.11
510.42	16814.41
510.60	17013.35
510.77	17099.95
510.95	17090.59
511.12	17092.93
511.30	17046.12
511.47	17142.08
511.64	17109.32
511.82	17207.62
511.99	17212.30
512.17	17392.52
512.34	17209.96
512.51	17465.08
512.69	17631.26
512.86	17549.34
513.04	17493.16
513.21	17666.36
513.38	17783.39
513.56	17816.16
513.73	17710.83
513.90	18005.74
514.08	17582.10
514.25	18001.06
514.43	18038.51
514.60	17792.75
514.77	18075.96
514.95	18251.50
515.12	17832.54
515.29	18092.34
515.47	17998.72
515.64	18354.48
515.81	18394.27
515.99	18293.63
516.16	18427.04
516.33	18574.49
516.51	18574.49
516.68	18291.29
516.85	18328.74
517.03	18420.02
517.20	18579.17
517.37	18953.66
517.54	18539.38
517.72	18714.92
517.89	18504.28
518.06	18995.79
518.24	18743.01
518.41	19016.85
518.58	18892.80
518.75	19012.17
518.93	18977.06
519.10	18986.43
519.27	19178.35
519.45	19122.18
519.62	19323.46
519.79	19000.47
519.96	19234.52
520.14	19286.01
520.31	19096.43
520.48	19555.18
520.65	19283.67
520.83	19496.66
521.00	19623.05
521.17	19405.38
521.34	19639.44
521.52	19658.16
521.69	19798.59
521.86	19845.40
522.03	19803.27
522.20	19983.49
522.38	19878.17
522.55	19995.20
522.72	20004.56
522.89	19978.81
523.07	19988.18
523.24	19964.77
523.41	20198.82
523.58	19981.15
523.75	20423.51
523.92	19997.54
524.10	20360.32
524.27	20287.76
524.44	20409.47
524.61	20568.63
524.78	20573.31
524.96	20435.22
525.13	20416.49
525.30	20428.20
525.47	20788.64
525.64	20510.11
525.81	20524.16
525.98	20580.33
526.16	20879.92
526.33	20662.25
526.50	21064.82
526.67	20793.32
526.84	20786.30
527.01	20744.17
527.18	20910.35
527.36	21015.67
527.53	21308.24
527.70	21008.65
527.87	21151.42
528.04	21062.48
528.21	21315.26
528.38	21132.70
528.55	21109.29
528.72	21113.97
528.89	21493.14
529.07	21303.56
529.24	21170.15
529.41	21551.65
529.58	21226.32
529.75	21064.82
529.92	21633.57
530.09	21518.89
530.26	21273.13
530.43	21687.40
530.60	21315.26
530.77	21589.10
530.94	21401.86
531.11	21451.01
531.28	21546.97
531.46	21511.86
531.63	21858.26
531.80	21781.03
531.97	21916.78
532.14	22155.51
532.31	22017.42
532.48	22143.81
532.65	22160.19
532.82	21979.97
532.99	21909.75
533.16	21706.13
533.33	22251.47
533.50	22300.62
533.67	22370.84
533.84	22384.88
534.01	22054.87
534.18	22057.21
534.35	22471.48
534.52	22122.74
534.69	22670.43
534.86	22410.63
535.03	22410.63
535.20	22455.10
535.37	22860.01
535.54	22693.83
535.71	22115.72
535.88	22438.72
536.05	22391.91
536.22	22888.10
536.38	22665.75
536.55	22838.95
536.72	22600.21
536.89	22782.77
537.06	22558.08
537.23	22925.55
537.40	22857.67
537.57	22909.16
537.74	22625.96
537.91	23005.13
538.08	22960.66
538.25	22946.61
538.42	23152.58
538.59	23243.86
538.75	22785.12
538.92	22792.14
539.09	23166.62
539.26	23206.41
539.43	23243.86
539.60	23381.95
539.77	23379.61
539.94	23407.70
540.11	23344.50
540.28	23445.15
540.44	23721.33
540.61	23711.97
540.78	23744.73
540.95	23608.98
541.12	23875.80
541.29	23810.27
541.46	23775.16
541.62	23644.09
541.79	23939.00
541.96	23770.48
542.13	23637.07
542.30	23749.42
542.47	24074.75
542.63	24159.01
542.80	24332.21
542.97	24507.75
543.14	24013.90
543.31	23981.13
543.48	24133.26
543.64	24669.25
543.81	24311.14
543.98	24606.05
544.15	24563.92
544.32	24687.97
544.48	24584.99
544.65	24592.01
544.82	24308.80
544.99	24240.93
545.16	24533.50
545.32	24198.80
545.49	25008.62
545.66	25413.54
545.83	25530.56
546.00	25364.39
546.16	25172.46
546.33	24828.40
546.50	24191.78
546.67	24517.11
546.83	24386.04
547.00	24360.30
547.17	24542.86
547.34	24664.57
547.50	24690.31
547.67	24896.28
547.84	24634.14
548.00	24947.77
548.17	24931.39
548.34	24795.64
548.51	24884.58
548.67	25289.49
548.84	24851.81
549.01	24842.45
549.18	24528.81
549.34	24765.21
549.51	24744.14
549.68	24596.69
549.84	24687.97
550.01	24404.77
550.18	24711.38
550.34	24854.15
550.51	25109.27
550.68	25074.16
550.84	24599.03
551.01	24786.27
551.18	24641.16
551.34	24526.47
551.51	24760.53
551.68	24996.92
551.84	24898.62
552.01	25015.65
552.18	24877.55
552.34	25057.78
552.51	25198.21
552.68	24741.80
552.84	25188.85
553.01	24952.45
553.18	25273.10
553.34	25163.10
553.51	24919.68
553.67	25207.57
553.84	25350.34
554.01	25628.87
554.17	25254.38
554.34	25364.39
554.51	25202.89
554.67	25240.34
554.84	25219.27
555.00	25209.91
555.17	25111.61
555.33	25352.68
555.50	25420.56
555.67	25656.95
555.83	25296.51
556.00	25198.21
556.16	25673.34
556.33	25556.31
556.50	25490.77
556.66	25261.40
556.83	25785.68
556.99	25460.35
557.16	25682.70
557.32	25125.65
557.49	25474.39
557.65	25619.50
557.82	25465.03
557.98	25528.22
558.15	25631.21
558.32	25652.27
558.48	25504.82
558.65	25624.18
558.81	25345.66
558.98	25500.14
559.14	25668.66
559.31	25390.13
559.47	25415.88
559.64	25507.16
559.80	25649.93
559.97	25518.86
560.13	25645.25
560.30	25678.02
560.46	25420.56
560.63	25638.23
560.79	25745.89
560.96	25722.49
561.12	25387.79
561.29	25853.56
561.45	25757.60
561.61	25448.64
561.78	26174.21
561.94	25942.50
562.11	25776.32
562.27	25982.29
562.44	26008.03
562.60	25427.58
562.77	25652.27
562.93	25523.54
563.10	25455.67
563.26	25954.20
563.42	26244.43
563.59	25645.25
563.75	25820.79
563.92	25809.09
564.08	25933.14
564.24	25673.34
564.41	25731.85
564.57	26113.36
564.74	25898.03
564.90	25748.23
565.07	26169.53
565.23	25869.94
565.39	26066.55
565.56	26103.99
565.72	25921.43
565.88	26001.01
566.05	25954.20
566.21	25820.79
566.38	25352.68
566.54	25799.73
566.70	26026.76
566.87	26136.76
567.03	25886.32
567.19	25687.38
567.36	26134.42
567.52	25972.92
567.68	26087.61
567.85	25898.03
568.01	25900.37
568.17	25685.04
568.34	25991.65
568.50	25968.24
568.66	26136.76
568.83	26176.55
568.99	25982.29
569.15	25755.26
569.32	26251.45
569.48	25589.08
569.64	26162.51
569.81	25935.48
569.97	25968.24
570.13	26345.07
570.30	26061.87
570.46	26022.08
570.62	26066.55
570.78	25949.52
570.95	25820.79
571.11	25982.29
571.27	25699.08
571.43	26038.46
571.60	26309.96
571.76	25729.51
571.92	25902.71
572.09	26043.14
572.25	25975.27
572.41	26096.97
572.57	26092.29
572.74	26244.43
572.90	26581.46
573.06	26031.44
573.22	26073.57
573.38	26326.35
573.55	26071.23
573.71	26471.46
573.87	26185.91
574.03	26359.11
574.20	26178.89
574.36	26307.62
574.52	25806.75
574.68	26171.87
574.84	26483.16
575.01	26239.75
575.17	26209.32
575.33	25926.11
575.49	25860.58
575.65	26010.37
575.82	26450.39
575.98	26258.47
576.14	26183.57
576.30	26029.10
576.46	26314.64
576.62	26225.70
576.79	26211.66
576.95	26181.23
577.11	26094.63
577.27	26583.80
577.43	26340.39
577.59	26125.06
577.75	26305.28
577.92	25788.02
578.08	26092.29
578.24	26075.91
578.40	25968.24
578.56	26429.33
578.72	26738.28
578.88	26637.64
579.04	26551.04
579.21	26118.04
579.37	26670.40
579.53	26169.53
579.69	26279.54
579.85	26153.15
580.01	26302.94
580.17	26160.17
580.33	26272.51
580.49	26225.70
580.65	26309.96
580.82	26389.54
580.98	26541.68
581.14	26536.99
581.30	26307.62
581.46	25790.36
581.62	26225.70
581.78	26146.12
581.94	26462.10
582.10	26382.52
582.26	26324.01
582.42	26658.70
582.58	26204.64
582.74	26389.54
582.90	26785.09
583.06	26195.28
583.22	26377.84
583.38	25895.69
583.54	26281.88
583.70	26396.56
583.86	26476.14
584.02	26022.08
584.18	26532.31
584.34	26143.78
584.50	26340.39
584.66	26548.70
584.82	26286.56
584.98	26363.79
585.14	26445.71
585.30	26518.27
585.46	26398.90
585.62	26162.51
585.78	26600.19
585.94	26352.09
586.10	26237.41
586.26	26380.18
586.42	26838.92
586.58	26408.26
586.74	26380.18
586.90	26242.09
587.06	26410.60
587.22	26623.59
587.38	26625.93
587.54	26778.07
587.70	26614.23
587.86	26850.63
588.02	26501.89
588.18	26574.44
588.34	26806.16
588.49	26419.97
588.65	26277.19
588.81	26331.03
588.97	26487.84
589.13	26178.89
589.29	26368.48
589.45	26302.94
589.61	26405.92
589.77	26567.42
589.93	26361.45
590.08	26529.97
590.24	26642.32
590.40	26445.71
590.56	26279.54
590.72	26387.20
590.88	26417.63
591.04	26106.34
591.20	26562.74
591.35	26527.63
591.51	27131.49
591.67	26635.30
591.83	26658.70
591.99	26625.93
592.15	26497.20
