SpectraSuite Data File
++++++++++++++++++++++++++++++++++++
Date: Fri Oct 04 11:39:52 GMT-05:00 2013
User: price-jones
Dark Spectrum Present: No
Reference Spectrum Present: No
Number of Sampled Component Spectra: 1
Spectrometers: USB2+H05261
Integration Time (usec): 100000 (USB2+H05261)
Spectra Averaged: 1 (USB2+H05261)
Boxcar Smoothing: 0 (USB2+H05261)
Correct for Electrical Dark: No (USB2+H05261)
Strobe/Lamp Enabled: No (USB2+H05261)
Correct for Detector Non-linearity: No (USB2+H05261)
Correct for Stray Light: No (USB2+H05261)
Number of Pixels in Processed Spectrum: 2048
>>>>>Begin Processed Spectral Data<<<<<
365.73	142.77
365.92	142.77
366.12	142.77
366.32	0.00
366.52	0.00
366.72	0.00
366.91	0.00
367.11	0.00
367.31	0.00
367.51	0.00
367.70	0.00
367.90	0.00
368.10	0.00
368.30	0.00
368.49	0.00
368.69	28.09
368.89	0.00
369.09	0.00
369.28	0.00
369.48	0.00
369.68	0.00
369.87	2.34
370.07	0.00
370.27	49.15
370.47	0.00
370.66	142.77
370.86	126.39
371.06	161.50
371.25	259.80
371.45	173.20
371.65	177.88
371.84	159.16
372.04	124.05
372.24	196.60
372.44	140.43
372.63	107.66
372.83	229.37
373.03	245.76
373.22	231.71
373.42	135.75
373.62	238.73
373.81	210.65
374.01	241.08
374.21	217.67
374.40	187.24
374.60	278.52
374.79	189.58
374.99	222.35
375.19	238.73
375.38	276.18
375.58	215.33
375.78	276.18
375.97	285.55
376.17	257.46
376.37	224.69
376.56	229.37
376.76	243.42
376.95	243.42
377.15	325.33
377.35	231.71
377.54	222.35
377.74	215.33
377.93	227.03
378.13	177.88
378.33	208.31
378.52	250.44
378.72	301.93
378.91	280.86
379.11	224.69
379.31	308.95
379.50	255.12
379.70	285.55
379.89	273.84
380.09	259.80
380.28	255.12
380.48	262.14
380.68	276.18
380.87	203.63
381.07	290.23
381.26	264.48
381.46	306.61
381.65	227.03
381.85	212.99
382.04	266.82
382.24	322.99
382.43	285.55
382.63	191.92
382.83	283.20
383.02	266.82
383.22	262.14
383.41	248.10
383.61	292.57
383.80	276.18
384.00	285.55
384.19	285.55
384.39	224.69
384.58	325.33
384.78	231.71
384.97	280.86
385.17	280.86
385.36	210.65
385.56	322.99
385.75	248.10
385.95	290.23
386.14	285.55
386.34	320.65
386.53	264.48
386.72	234.05
386.92	414.27
387.11	332.36
387.31	301.93
387.50	379.17
387.70	292.57
387.89	318.31
388.09	276.18
388.28	276.18
388.48	318.31
388.67	348.74
388.86	325.33
389.06	299.59
389.25	369.80
389.45	299.59
389.64	320.65
389.84	414.27
390.03	358.10
390.22	381.51
390.42	374.49
390.61	287.89
390.81	280.86
391.00	313.63
391.19	390.87
391.39	395.55
391.58	339.38
391.78	461.09
391.97	390.87
392.16	390.87
392.36	470.45
392.55	451.72
392.75	379.17
392.94	404.91
393.13	397.89
393.33	388.53
393.52	365.12
393.71	440.02
393.91	423.64
394.10	404.91
394.29	416.62
394.49	418.96
394.68	454.06
394.88	437.68
395.07	374.49
395.26	407.25
395.46	402.57
395.65	491.51
395.84	458.74
396.04	564.07
396.23	444.70
396.42	374.49
396.62	428.32
396.81	510.24
397.00	465.77
397.19	519.60
397.39	526.62
397.58	521.94
397.77	435.34
397.97	482.15
398.16	503.22
398.35	484.49
398.55	500.87
398.74	475.13
398.93	585.13
399.12	557.05
399.32	498.53
399.51	437.68
399.70	491.51
399.90	552.37
400.09	528.96
400.28	552.37
400.47	507.90
400.67	491.51
400.86	606.20
401.05	657.69
401.24	617.90
401.44	592.16
401.63	535.98
401.82	629.60
402.01	535.98
402.21	629.60
402.40	638.97
402.59	617.90
402.78	664.71
402.97	631.94
403.17	650.67
403.36	627.26
403.55	645.99
403.74	681.10
403.93	603.86
404.13	706.84
404.32	667.05
404.51	718.54
404.70	746.63
404.89	779.40
405.09	720.88
405.28	683.44
405.47	763.01
405.66	805.14
405.85	849.61
406.05	800.46
406.24	781.74
406.43	823.87
406.62	772.38
406.81	823.87
407.00	847.27
407.20	760.67
407.39	755.99
407.58	819.19
407.77	826.21
407.96	889.40
408.15	840.25
408.34	823.87
408.54	798.12
408.73	858.98
408.92	931.53
409.11	882.38
409.30	908.13
409.49	968.98
409.68	964.30
409.87	870.68
410.07	943.24
410.26	1039.20
410.45	840.25
410.64	952.60
410.83	978.34
411.02	919.83
411.21	950.26
411.40	1083.67
411.59	1043.88
411.78	1074.31
411.98	1116.44
412.17	961.96
412.36	1137.50
412.55	1062.60
412.74	1083.67
412.93	1095.37
413.12	1050.90
413.31	1191.33
413.50	1125.80
413.69	1231.12
413.88	1252.19
414.07	1261.55
414.26	1172.61
414.45	1299.00
414.64	1259.21
414.83	1270.91
415.02	1240.48
415.22	1345.81
415.41	1306.02
415.60	1359.85
415.79	1324.74
415.98	1355.17
416.17	1357.51
416.36	1371.55
416.55	1383.26
416.74	1355.17
416.93	1439.43
417.12	1425.39
417.31	1420.71
417.50	1366.87
417.69	1568.16
417.88	1521.35
418.07	1533.05
418.26	1434.75
418.45	1544.75
418.64	1481.56
418.83	1614.97
419.02	1521.35
419.21	1614.97
419.39	1607.95
419.58	1439.43
419.77	1589.22
419.96	1666.46
420.15	1636.03
420.34	1575.18
420.53	1614.97
420.72	1636.03
420.91	1701.57
421.10	1771.79
421.29	1696.89
421.48	1741.36
421.67	1710.93
421.86	1689.87
422.05	1722.63
422.24	1701.57
422.43	1671.14
422.61	1666.46
422.80	1678.16
422.99	1671.14
423.18	1624.33
423.37	1659.44
423.56	1722.63
423.75	1727.32
423.94	1650.08
424.13	1715.61
424.32	1715.61
424.50	1830.30
424.69	1778.81
424.88	1874.77
425.07	1729.66
425.26	1743.70
425.45	1689.87
425.64	1816.26
425.83	1827.96
426.01	1776.47
426.20	1701.57
426.39	1839.66
426.58	1809.23
426.77	1863.07
426.96	1746.04
427.15	1769.44
427.33	1797.53
427.52	1757.74
427.71	1907.54
427.90	1921.58
428.09	1839.66
428.28	1895.83
428.46	1902.86
428.65	1849.02
428.84	2057.33
429.03	2045.63
429.22	1970.73
429.40	1898.17
429.59	1989.46
429.78	1902.86
429.97	1923.92
430.16	1898.17
430.34	1973.07
430.53	1912.22
430.72	2066.69
430.91	2015.20
431.10	1928.60
431.28	2118.18
431.47	2101.80
431.66	2120.53
431.85	1947.33
432.03	2204.78
432.22	2162.66
432.41	2134.57
432.60	2127.55
432.79	2200.10
432.97	2162.66
433.16	2139.25
433.35	2099.46
433.54	2181.38
433.72	2169.68
433.91	2195.42
434.10	2293.72
434.28	2193.08
434.47	2284.36
434.66	2284.36
434.85	2296.07
435.03	2361.60
435.22	2420.11
435.41	2717.36
435.59	2588.63
435.78	2532.46
435.97	2410.75
436.16	2445.86
436.34	2289.04
436.53	2263.30
436.72	2387.35
436.90	2324.15
437.09	2354.58
437.28	2422.45
437.46	2441.18
437.65	2434.16
437.84	2385.01
438.02	2406.07
438.21	2497.35
438.40	2434.16
438.58	2623.74
438.77	2502.03
438.96	2539.48
439.14	2466.92
439.33	2623.74
439.52	2520.76
439.70	2590.97
439.89	2708.00
440.08	2722.04
440.26	2712.68
440.45	2686.94
440.63	2715.02
440.82	2644.81
441.01	2672.89
441.19	2820.35
441.38	2810.98
441.57	2700.98
441.75	2801.62
441.94	2773.53
442.12	2839.07
442.31	2916.31
442.50	2920.99
442.68	2853.11
442.87	2956.10
443.05	2881.20
443.24	2981.84
443.43	3009.93
443.61	2963.12
443.80	2991.20
443.98	2892.90
444.17	2832.05
444.35	2937.37
444.54	3002.91
444.73	3052.06
444.91	3016.95
445.10	3066.10
445.28	2874.18
445.47	2843.75
445.65	2984.18
445.84	3185.47
446.02	3206.53
446.21	2939.71
446.39	3040.36
446.58	2935.03
446.77	3019.29
446.95	3087.17
447.14	3164.40
447.32	3112.91
447.51	3047.38
447.69	3075.46
447.88	3164.40
448.06	3068.44
448.25	3119.93
448.43	3023.97
448.62	2960.78
448.80	3040.36
448.99	3138.66
449.17	3152.70
449.36	3110.57
449.54	3131.64
449.73	3094.19
449.91	3199.51
450.10	3241.64
450.28	3288.45
450.46	3218.24
450.65	3281.43
450.83	3363.35
451.02	3208.87
451.20	3379.73
451.39	3309.52
451.57	3349.31
451.76	3236.96
451.94	3323.56
452.13	3407.82
452.31	3522.51
452.49	3281.43
452.68	3391.44
452.86	3206.53
453.05	3485.06
453.23	3452.29
453.42	3368.03
453.60	3358.67
453.78	3433.57
453.97	3459.31
454.15	3478.04
454.34	3456.97
454.52	3541.23
454.70	3536.55
454.89	3566.98
455.07	3471.01
455.26	3541.23
455.44	3602.08
455.62	3529.53
455.81	3564.64
455.99	3604.42
456.17	3606.77
456.36	3669.96
456.54	3627.83
456.73	3716.77
456.91	3786.99
457.09	3852.52
457.28	3934.44
457.46	3684.00
457.64	3765.92
457.83	3824.44
458.01	3686.34
458.19	3749.54
458.38	3658.26
458.56	3997.64
458.74	3817.41
458.93	3859.54
459.11	3953.16
459.29	3852.52
459.48	3906.35
459.66	3953.16
459.84	4021.04
460.03	4051.47
460.21	3934.44
460.39	3878.27
460.57	3967.21
460.76	3974.23
460.94	3999.98
461.12	4030.40
461.31	4030.40
461.49	4032.74
461.67	3880.61
461.85	4114.66
462.04	4016.36
462.22	4533.62
462.40	4219.99
462.59	4088.92
462.77	4196.58
462.95	4198.92
463.13	4011.68
463.32	4166.15
463.50	4121.68
463.68	4353.40
463.86	4161.47
464.05	4138.07
464.23	4112.32
464.41	4381.48
464.59	4065.51
464.78	4297.22
464.96	4269.14
465.14	4149.77
465.32	4257.43
465.50	4400.21
465.69	4421.27
465.87	4451.70
466.05	4351.06
466.23	4329.99
466.41	4444.68
466.60	4430.63
466.78	4351.06
466.96	4318.29
467.14	4278.50
467.32	4402.55
467.51	4491.49
467.69	4362.76
467.87	4634.26
468.05	4643.62
468.23	4568.73
468.41	4386.16
468.60	4432.97
468.78	4559.36
468.96	4512.55
469.14	4655.33
469.32	4531.28
469.50	4620.22
469.69	4662.35
469.87	4603.83
470.05	4561.70
470.23	4648.30
470.41	4699.80
470.59	4734.90
470.77	4734.90
470.95	4751.29
471.14	4791.08
471.32	4550.00
471.50	4924.49
471.68	4908.10
471.86	4739.58
472.04	4964.28
472.22	5029.81
472.40	4868.31
472.58	4901.08
472.77	5015.77
472.95	4980.66
473.13	5205.35
473.31	4968.96
473.49	5064.92
473.67	5057.90
473.85	5097.69
474.03	5160.88
474.21	5217.05
474.39	5303.65
474.57	5266.21
474.75	5390.25
474.93	5446.43
475.12	5135.14
475.30	5430.04
475.48	5462.81
475.66	5530.69
475.84	5549.41
476.02	5444.09
476.20	5476.85
476.38	5603.24
476.56	5774.10
476.74	5650.05
476.92	5591.54
477.10	5834.96
477.28	5617.29
477.46	5652.39
477.64	5715.59
477.82	5893.47
478.00	5933.26
478.18	6092.41
478.36	6017.52
478.54	6045.60
478.72	5987.09
478.90	6129.86
479.08	6167.31
479.26	6342.85
479.44	6366.26
479.62	6284.34
479.80	6193.06
479.98	6434.13
480.16	6546.48
480.34	6305.40
480.52	6600.31
480.70	6544.14
480.88	6457.54
481.06	6729.04
481.24	6640.10
481.41	6576.91
481.59	6822.66
481.77	6935.01
481.95	6920.96
482.13	7033.31
482.31	6979.48
482.49	7028.63
482.67	7180.76
482.85	7232.26
483.03	7321.20
483.21	7473.33
483.39	7356.30
483.57	7482.69
483.74	7398.43
483.92	7552.91
484.10	7630.15
484.28	7655.89
484.46	7772.92
484.64	8049.10
484.82	7782.28
485.00	7946.12
485.18	7953.14
485.35	8182.51
485.53	8051.44
485.71	8201.24
485.89	8334.65
486.07	8243.37
486.25	8212.94
486.43	8360.39
486.61	8301.88
486.78	8465.72
486.96	8573.38
487.14	8564.02
487.32	8645.94
487.50	8718.50
487.68	8826.16
487.85	8704.45
488.03	9015.74
488.21	9116.39
488.39	9032.13
488.57	9057.87
488.75	8940.85
488.92	9474.49
489.10	9238.09
489.28	9406.61
489.46	9612.58
489.64	9575.13
489.81	9628.96
489.99	9579.81
490.17	9905.15
490.35	9729.61
490.53	9853.66
490.70	10090.05
490.88	9839.61
491.06	10052.60
491.24	10010.47
491.41	10223.46
491.59	10310.06
491.77	10277.29
491.95	10516.03
492.13	10434.11
492.30	10408.36
492.48	10293.68
492.66	10523.05
492.84	10616.67
493.01	10668.16
493.19	10789.87
493.37	10853.06
493.54	10876.47
493.72	11171.38
493.90	11063.71
494.08	11136.27
494.25	11059.03
494.43	11016.90
494.61	11398.41
494.79	11609.06
494.96	11412.45
495.14	11534.16
495.32	11459.26
495.49	11456.92
495.67	11690.98
495.85	11681.61
496.02	11852.47
496.20	11702.68
496.38	11920.35
496.55	11765.87
496.73	11990.56
496.91	12023.33
497.09	12327.60
497.26	12231.64
497.44	12079.50
497.62	12107.59
497.79	12388.46
497.97	12327.60
498.14	12430.59
498.32	12739.54
498.50	12732.51
498.67	12648.26
498.85	12564.00
499.03	12376.75
499.20	12791.03
499.38	12996.99
499.56	12912.74
499.73	12989.97
499.91	13036.78
500.08	13202.96
500.26	12903.37
500.44	13121.04
500.61	13205.30
500.79	13097.64
500.97	13240.41
501.14	13448.72
501.32	13399.57
501.49	13500.21
501.67	13444.04
501.84	13537.66
502.02	13474.46
502.20	13874.70
502.37	13830.23
502.55	13757.67
502.72	13731.92
502.90	13664.05
503.07	14083.00
503.25	13792.78
503.43	13970.66
503.60	13973.00
503.78	14487.92
503.95	14380.25
504.13	14026.83
504.30	14377.91
504.48	14218.75
504.65	14422.38
504.83	14272.59
505.01	14441.11
505.18	14291.31
505.36	14508.98
505.53	14738.35
505.71	14539.41
505.88	14654.09
506.06	14801.55
506.23	14834.32
506.41	14597.92
506.58	14799.21
506.76	14787.50
506.93	14728.99
507.11	14710.27
507.28	14789.85
507.46	15035.60
507.63	15227.53
507.81	15513.07
507.98	15105.82
508.16	15342.21
508.33	15281.36
508.50	15213.48
508.68	15688.61
508.85	15564.56
509.03	15709.68
509.20	15655.84
509.38	15576.27
509.55	15887.56
509.73	15580.95
509.90	15875.85
510.08	15925.00
510.25	15871.17
510.42	16051.39
510.60	16035.01
510.77	15971.82
510.95	16077.14
511.12	15791.59
511.30	15803.30
511.47	16226.93
511.64	16269.06
511.82	16446.94
511.99	16058.42
512.17	16503.12
512.34	16189.49
512.51	16606.10
512.69	16428.22
512.86	16526.52
513.04	16872.92
513.21	16798.02
513.38	16678.66
513.56	16776.96
513.73	16723.13
513.90	16673.98
514.08	16503.12
514.25	16989.95
514.43	16861.22
514.60	16989.95
514.77	17027.40
514.95	17111.66
515.12	16823.77
515.29	16903.35
515.47	17146.76
515.64	17341.03
515.81	17221.66
515.99	17502.53
516.16	17406.56
516.33	17308.26
516.51	17551.68
516.68	17224.00
516.85	17216.98
517.03	17568.06
517.20	17692.11
517.37	17799.77
517.54	17591.47
517.72	17781.05
517.89	17919.14
518.06	17565.72
518.24	17586.79
518.41	17792.75
518.58	17998.72
518.75	17577.42
518.93	17860.63
519.10	17682.75
519.27	18043.19
519.45	17848.93
519.62	18033.83
519.79	17958.93
519.96	18066.60
520.14	18342.78
520.31	18113.41
520.48	18480.87
520.65	18368.52
520.83	18546.40
521.00	18384.91
521.17	18307.67
521.34	18403.63
521.52	18876.42
521.69	18656.41
521.86	18642.37
522.03	18490.23
522.20	18848.33
522.38	19005.15
522.55	18888.12
522.72	18628.32
522.89	18902.17
523.07	19201.76
523.24	18787.48
523.41	19147.92
523.58	19232.18
523.75	18925.57
523.92	19014.51
524.10	18808.54
524.27	19066.00
524.44	19344.53
524.61	19337.51
524.78	19356.23
524.96	19255.59
525.13	19271.97
525.30	19267.29
525.47	19466.24
525.64	19405.38
525.81	19569.22
525.98	19665.18
526.16	19686.25
526.33	19737.74
526.50	19557.52
526.67	19452.19
526.84	19772.85
527.01	19468.58
527.18	19641.78
527.36	20154.35
527.53	19932.00
527.70	20091.16
527.87	19908.60
528.04	20086.48
528.21	20194.14
528.38	19793.91
528.55	20093.50
528.72	20072.43
528.89	20098.18
529.07	20049.03
529.24	20325.21
529.41	20154.35
529.58	20144.99
529.75	20247.97
529.92	20432.88
530.09	20372.02
530.26	20283.08
530.43	20386.07
530.60	20287.76
530.77	20259.68
530.94	20528.84
531.11	20709.06
531.28	20699.70
531.46	20421.17
531.63	20549.90
531.80	20718.42
531.97	20943.11
532.14	20954.82
532.31	20814.38
532.48	20561.61
532.65	20755.87
532.82	20556.93
532.99	20615.44
533.16	20847.15
533.33	21055.46
533.50	21273.13
533.67	20819.07
533.84	21123.33
534.01	20762.89
534.18	20629.48
534.35	20854.17
534.52	21041.42
534.69	21212.28
534.86	21181.85
535.03	21216.96
535.20	21142.06
535.37	21312.92
535.54	21348.03
535.71	21184.19
535.88	21511.86
536.05	21383.13
536.22	21811.45
536.38	21710.81
536.55	21631.23
536.72	21706.13
536.89	21422.92
537.06	21502.50
537.23	21940.18
537.40	21605.49
537.57	21692.08
537.74	21797.41
537.91	21834.86
538.08	21614.85
538.25	21748.26
538.42	21781.03
538.59	22085.30
538.75	21429.94
538.92	21729.53
539.09	22019.76
539.26	22057.21
539.43	22099.34
539.60	22003.38
539.77	22368.50
539.94	22335.73
540.11	22155.51
540.28	21956.57
540.44	22171.89
540.61	22328.71
540.78	22277.22
540.95	22506.59
541.12	22640.00
541.29	22499.57
541.46	22698.52
541.62	22464.46
541.79	22574.47
541.96	22600.21
542.13	22452.76
542.30	22665.75
542.47	22443.40
542.63	23103.43
542.80	22899.80
542.97	23077.68
543.14	22909.16
543.31	22621.28
543.48	22984.06
543.64	23007.47
543.81	23049.60
543.98	22944.27
544.15	23702.61
544.32	23232.16
544.48	23477.91
544.65	23042.57
544.82	23040.23
544.99	22792.14
545.16	23063.64
545.32	23257.90
545.49	23768.14
545.66	24453.92
545.83	24393.06
546.00	23920.28
546.16	23433.44
546.33	23367.91
546.50	23494.30
546.67	23365.57
546.83	23311.74
547.00	23192.37
547.17	23367.91
547.34	23496.64
547.50	23576.22
547.67	23793.89
547.84	23365.57
548.00	23557.49
548.17	23473.23
548.34	23515.36
548.51	23969.43
548.67	23733.03
548.84	23639.41
549.01	23597.28
549.18	23569.19
549.34	23412.38
549.51	23697.92
549.68	23709.63
549.84	23531.75
550.01	23482.59
550.18	23821.97
550.34	23686.22
550.51	23697.92
550.68	23718.99
550.84	23594.94
551.01	23838.36
551.18	23789.20
551.34	23529.41
551.51	23789.20
551.68	23983.47
551.84	24020.92
552.01	23950.70
552.18	23962.40
552.34	23845.38
552.51	24161.35
552.68	23625.37
552.84	24095.82
553.01	23971.77
553.18	23871.12
553.34	23969.43
553.51	24154.33
553.67	24395.40
553.84	24308.80
554.01	24355.61
554.17	24023.26
554.34	24554.56
554.51	24114.54
554.67	24294.76
554.84	24081.77
555.00	23971.77
555.17	23927.30
555.33	24292.42
555.50	24201.14
555.67	24350.93
555.83	24320.51
556.00	24100.50
556.16	24566.26
556.33	24512.43
556.50	24327.53
556.66	24746.48
556.83	24407.11
556.99	24304.12
557.16	24350.93
557.32	24393.06
557.49	24528.81
557.65	24252.63
557.82	24395.40
557.98	24205.82
558.15	24622.44
558.32	24786.27
558.48	24257.31
558.65	24671.59
558.81	24559.24
558.98	24533.50
559.14	24659.88
559.31	24414.13
559.47	24615.41
559.64	24334.55
559.80	24496.05
559.97	24584.99
560.13	24512.43
560.30	24830.74
560.46	24510.09
560.63	24474.98
560.79	24411.79
560.96	25118.63
561.12	24592.01
561.29	24482.00
561.45	24669.25
561.61	24856.49
561.78	24718.40
561.94	24945.43
562.11	24823.72
562.27	24723.08
562.44	24547.54
562.60	24636.48
562.77	25165.44
562.93	24739.46
563.10	24915.00
563.26	24400.08
563.42	24856.49
563.59	24938.41
563.75	25352.68
563.92	25104.59
564.08	24687.97
564.24	24964.15
564.41	24463.28
564.57	24631.80
564.74	24802.66
564.90	25338.64
565.07	25090.54
565.23	24809.68
565.39	25017.99
565.56	24950.11
565.72	24814.36
565.88	25006.28
566.05	25186.50
566.21	24952.45
566.38	25111.61
566.54	25081.18
566.70	25319.92
566.87	25113.95
567.03	25102.25
567.19	25518.86
567.36	25029.69
567.52	25181.82
567.68	25013.31
567.85	24793.29
568.01	24980.54
568.17	25050.75
568.34	25500.14
568.50	25301.19
568.66	25090.54
568.83	24952.45
568.99	24889.26
569.15	25149.06
569.32	25228.63
569.48	25041.39
569.64	25362.04
569.81	25233.32
569.97	24943.09
570.13	25202.89
570.30	25137.35
570.46	25280.13
570.62	25338.64
570.78	24786.27
570.95	25319.92
571.11	25476.73
571.27	24987.56
571.43	24863.51
571.60	25427.58
571.76	25127.99
571.92	25453.33
572.09	25340.98
572.25	25455.67
572.41	25591.42
572.57	24992.24
572.74	25429.92
572.90	25207.57
573.06	25151.40
573.22	25432.26
573.38	25483.75
573.55	25284.81
573.71	25448.64
573.87	25448.64
574.03	25425.24
574.20	25329.28
574.36	25261.40
574.52	25144.38
574.68	25357.36
574.84	25493.12
575.01	25245.02
575.17	25731.85
575.33	25434.60
575.49	25352.68
575.65	25706.10
575.82	25357.36
575.98	25394.81
576.14	25605.46
576.30	25448.64
576.46	25401.83
576.62	25289.49
576.79	25340.98
576.95	25841.85
577.11	25528.22
577.27	25570.35
577.43	25392.47
577.59	26022.08
577.75	25589.08
577.92	25069.48
578.08	25303.53
578.24	25186.50
578.40	25483.75
578.56	25778.66
578.72	25933.14
578.88	25860.58
579.04	25642.91
579.21	25518.86
579.37	25558.65
579.53	25268.42
579.69	25366.73
579.85	25453.33
580.01	25434.60
580.17	25385.45
580.33	25701.42
580.49	25675.68
580.65	25891.01
580.82	25624.18
580.98	25448.64
581.14	25446.30
581.30	25549.29
581.46	25659.29
581.62	25324.60
581.78	25458.01
581.94	25757.60
582.10	25799.73
582.26	25745.89
582.42	25678.02
582.58	25617.16
582.74	25830.15
582.90	25483.75
583.06	25883.98
583.22	25586.74
583.38	25663.97
583.54	25727.17
583.70	25596.10
583.86	25909.73
584.02	25551.63
584.18	25855.90
584.34	25738.87
584.50	25628.87
584.66	25715.47
584.82	25621.84
584.98	25474.39
585.14	25610.14
585.30	25392.47
585.46	25703.76
585.62	25621.84
585.78	25933.14
585.94	25518.86
586.10	25827.81
586.26	25434.60
586.42	25834.83
586.58	25893.35
586.74	25956.54
586.90	25577.37
587.06	25795.04
587.22	25694.40
587.38	25811.43
587.54	25888.67
587.70	25799.73
587.86	26216.34
588.02	25834.83
588.18	26246.77
588.34	25956.54
588.49	25788.02
588.65	25792.70
588.81	25593.76
588.97	25837.17
589.13	25748.23
589.29	25820.79
589.45	25809.09
589.61	25951.86
589.77	25944.84
589.93	26391.88
590.08	25912.07
590.24	26202.30
590.40	25930.80
590.56	26071.23
590.72	25832.49
590.88	25682.70
591.04	25757.60
591.20	25855.90
591.35	26202.30
591.51	26380.18
591.67	25993.99
591.83	26302.94
591.99	26293.58
592.15	26223.36
592.31	26211.66
