SpectraSuite Data File
++++++++++++++++++++++++++++++++++++
Date: Tue Oct 01 18:27:26 GMT-05:00 2013
User: stostad
Dark Spectrum Present: No
Reference Spectrum Present: No
Number of Sampled Component Spectra: 1
Spectrometers: USB2+H05261
Integration Time (usec): 100000 (USB2+H05261)
Spectra Averaged: 1 (USB2+H05261)
Boxcar Smoothing: 0 (USB2+H05261)
Correct for Electrical Dark: No (USB2+H05261)
Strobe/Lamp Enabled: No (USB2+H05261)
Correct for Detector Non-linearity: No (USB2+H05261)
Correct for Stray Light: No (USB2+H05261)
Number of Pixels in Processed Spectrum: 2048
>>>>>Begin Processed Spectral Data<<<<<
365.73	114.69
365.92	114.69
366.12	114.69
366.32	0.00
366.52	0.00
366.72	32.77
366.91	0.00
367.11	0.00
367.31	7.02
367.51	0.00
367.70	0.00
367.90	49.15
368.10	0.00
368.30	0.00
368.49	0.00
368.69	0.00
368.89	30.43
369.09	0.00
369.28	0.00
369.48	0.00
369.68	65.54
369.87	37.45
370.07	30.43
370.27	0.00
370.47	154.48
370.66	299.59
370.86	283.20
371.06	283.20
371.25	271.50
371.45	285.55
371.65	315.97
371.84	311.29
372.04	304.27
372.24	306.61
372.44	477.47
372.63	379.17
372.83	395.55
373.03	369.80
373.22	414.27
373.42	383.85
373.62	458.74
373.81	437.68
374.01	381.51
374.21	465.77
374.40	444.70
374.60	428.32
374.79	421.30
374.99	416.62
375.19	458.74
375.38	425.98
375.58	468.11
375.78	482.15
375.97	395.55
376.17	482.15
376.37	444.70
376.56	407.25
376.76	514.92
376.95	493.85
377.15	486.83
377.35	489.17
377.54	491.51
377.74	533.64
377.93	449.38
378.13	472.79
378.33	489.17
378.52	482.15
378.72	561.73
378.91	587.47
379.11	500.87
379.31	463.43
379.50	503.22
379.70	634.29
379.89	589.82
380.09	519.60
380.28	540.66
380.48	456.40
380.68	486.83
380.87	498.53
381.07	578.11
381.26	533.64
381.46	580.45
381.65	550.03
381.85	603.86
382.04	557.05
382.24	575.77
382.43	547.69
382.63	540.66
382.83	496.19
383.02	559.39
383.22	564.07
383.41	638.97
383.61	603.86
383.80	580.45
384.00	655.35
384.19	603.86
384.39	596.84
384.58	561.73
384.78	662.37
384.97	582.79
385.17	720.88
385.36	592.16
385.56	725.57
385.75	587.47
385.95	685.78
386.14	645.99
386.34	727.91
386.53	716.20
386.72	587.47
386.92	713.86
387.11	697.48
387.31	664.71
387.50	613.22
387.70	678.76
387.89	645.99
388.09	741.95
388.28	641.31
388.48	702.16
388.67	667.05
388.86	681.10
389.06	760.67
389.25	814.51
389.45	727.91
389.64	669.39
389.84	781.74
390.03	767.70
390.22	746.63
390.42	791.10
390.61	720.88
390.81	753.65
391.00	809.83
391.19	866.00
391.39	737.27
391.58	753.65
391.78	720.88
391.97	758.33
392.16	774.72
392.36	891.74
392.55	812.17
392.75	887.06
392.94	828.55
393.13	875.36
393.33	814.51
393.52	779.40
393.71	851.96
393.91	987.71
394.10	842.59
394.29	938.55
394.49	947.92
394.68	919.83
394.88	1027.50
395.07	990.05
395.26	910.47
395.46	940.90
395.65	1029.84
395.84	1039.20
396.04	1029.84
396.23	971.32
396.42	961.96
396.62	1083.67
396.81	994.73
397.00	971.32
397.19	1064.94
397.39	1090.69
397.58	1064.94
397.77	1046.22
397.97	1053.24
398.16	1057.92
398.35	1013.45
398.55	1032.18
398.74	1132.82
398.93	1217.08
399.12	990.05
399.32	1135.16
399.51	1174.95
399.70	1188.99
399.90	1163.25
400.09	1207.72
400.28	1268.57
400.47	1203.04
400.67	1266.23
400.86	1203.04
401.05	1268.57
401.24	1254.53
401.44	1301.34
401.63	1303.68
401.82	1308.36
402.01	1380.92
402.21	1324.74
402.40	1357.51
402.59	1378.58
402.78	1327.08
402.97	1369.21
403.17	1399.64
403.36	1469.86
403.55	1376.24
403.74	1404.32
403.93	1483.90
404.13	1500.28
404.32	1458.15
404.51	1533.05
404.70	1619.65
404.89	1556.46
405.09	1521.35
405.28	1584.54
405.47	1603.27
405.66	1570.50
405.85	1575.18
406.05	1547.09
406.24	1621.99
406.43	1624.33
406.62	1640.72
406.81	1668.80
407.00	1710.93
407.20	1657.10
407.39	1666.46
407.58	1806.89
407.77	1720.29
407.96	1804.55
408.15	1790.51
408.34	1769.44
408.54	1923.92
408.73	1844.34
408.92	1916.90
409.11	1846.68
409.30	1926.26
409.49	1849.02
409.68	1867.75
409.87	1888.81
410.07	1994.14
410.26	1879.45
410.45	1977.75
410.64	2069.03
410.83	2012.86
411.02	2113.50
411.21	2099.46
411.40	2167.34
411.59	2237.55
411.78	2099.46
411.98	2246.91
412.17	2176.70
412.36	2300.75
412.55	2235.21
412.74	2235.21
412.93	2406.07
413.12	2401.39
413.31	2480.97
413.50	2466.92
413.69	2441.18
413.88	2452.88
414.07	2385.01
414.26	2485.65
414.45	2487.99
414.64	2539.48
414.83	2565.23
415.02	2539.48
415.22	2567.57
415.41	2658.85
415.60	2752.47
415.79	2799.28
415.98	2743.11
416.17	2633.10
416.36	2754.81
416.55	2867.16
416.74	2775.88
416.93	2843.75
417.12	2801.62
417.31	2832.05
417.50	2916.31
417.69	2906.95
417.88	2949.08
418.07	3038.02
418.26	2897.58
418.45	3080.14
418.64	3133.98
418.83	3115.25
419.02	3117.59
419.21	3169.09
419.39	3166.74
419.58	3080.14
419.77	3094.19
419.96	3393.78
420.15	3176.11
420.34	3171.43
420.53	3232.28
420.72	3300.16
420.91	3375.05
421.10	3391.44
421.29	3382.07
421.48	3344.63
421.67	3468.67
421.86	3389.10
422.05	3407.82
422.24	3363.35
422.43	3391.44
422.61	3471.01
422.80	3433.57
422.99	3389.10
423.18	3545.91
423.37	3520.17
423.56	3531.87
423.75	3557.61
423.94	3456.97
424.13	3218.24
424.32	3337.60
424.50	3431.23
424.69	3576.34
424.88	3693.37
425.07	3562.30
425.26	3442.93
425.45	3611.45
425.64	3559.95
425.83	3555.27
426.01	3552.93
426.20	3550.59
426.39	3620.81
426.58	3496.76
426.77	3679.32
426.96	3648.90
427.15	3588.04
427.33	3599.74
427.52	3559.95
427.71	3536.55
427.90	3782.31
428.09	3859.54
428.28	3859.54
428.46	3850.18
428.65	3932.10
428.84	3983.59
429.03	3962.53
429.22	3777.62
429.40	3946.14
429.59	3904.01
429.78	3770.60
429.97	3761.24
430.16	3733.15
430.34	3967.21
430.53	4098.28
430.72	3999.98
430.91	3925.08
431.10	3988.27
431.28	4109.98
431.47	4124.02
431.66	4102.96
431.85	4016.36
432.03	4308.93
432.22	4280.84
432.41	4201.26
432.60	4224.67
432.79	4212.96
432.97	4313.61
433.16	4168.49
433.35	4299.56
433.54	4344.03
433.72	4177.86
433.91	4278.50
434.10	4447.02
434.28	4351.06
434.47	4388.50
434.66	4594.47
434.85	4482.13
435.03	4575.75
435.22	4470.42
435.41	4620.22
435.59	4517.23
435.78	4503.19
435.97	4533.62
436.16	4655.33
436.34	4578.09
436.53	4702.14
436.72	4720.86
436.90	4688.09
437.09	4706.82
437.28	4578.09
437.46	4709.16
437.65	4847.25
437.84	4695.11
438.02	4961.94
438.21	4870.65
438.40	4788.74
438.58	4973.64
438.77	5046.20
438.96	4983.00
439.14	5116.41
439.33	5018.11
439.52	5226.42
439.70	5238.12
439.89	5256.84
440.08	5240.46
440.26	5317.70
440.45	5369.19
440.63	5533.03
440.82	5406.64
441.01	5462.81
441.19	5427.70
441.38	5600.90
441.57	5509.62
441.75	5474.51
441.94	5624.31
442.12	5717.93
442.31	5921.56
442.50	5631.33
442.68	5753.04
442.87	5654.73
443.05	5792.83
443.24	5781.12
443.43	6005.81
443.61	5746.02
443.80	6087.73
443.98	5790.49
444.17	5771.76
444.35	5933.26
444.54	6118.16
444.73	5874.74
444.91	6012.84
445.10	5984.75
445.28	6120.50
445.47	6076.03
445.65	5942.62
445.84	5987.09
446.02	6101.78
446.21	5907.51
446.39	6019.86
446.58	6193.06
446.77	6132.20
446.95	5959.00
447.14	5921.56
447.32	6118.16
447.51	6015.18
447.69	6167.31
447.88	6108.80
448.06	6045.60
448.25	6061.99
448.43	6150.93
448.62	6148.59
448.80	6200.08
448.99	6265.61
449.17	6267.95
449.36	6164.97
449.54	6324.13
449.73	6452.86
449.91	6249.23
450.10	6342.85
450.28	6487.96
450.46	6530.09
450.65	6490.31
450.83	6534.78
451.02	6455.20
451.20	6509.03
451.39	6305.40
451.57	6572.22
451.76	6647.12
451.94	6490.31
452.13	6670.53
452.31	6689.25
452.49	6462.22
452.68	6663.51
452.86	6682.23
453.05	6888.20
453.23	6637.76
453.42	6726.70
453.60	6682.23
453.78	6736.06
453.97	6665.85
454.15	6782.87
454.34	6853.09
454.52	6892.88
454.70	7005.22
454.89	7012.24
455.07	6942.03
455.26	7110.55
455.44	7281.41
455.62	7089.48
455.81	7094.16
455.99	7265.02
456.17	7080.12
456.36	7215.87
456.54	7335.24
456.73	7407.80
456.91	7489.71
457.09	7463.97
457.28	7545.89
457.46	7356.30
457.64	7541.21
457.83	7590.36
458.01	7559.93
458.19	7625.47
458.38	7562.27
458.56	7693.34
458.74	7845.48
458.93	7754.19
459.11	7770.58
459.29	7782.28
459.48	7801.01
459.66	8013.99
459.84	7786.96
460.03	7889.95
460.21	7899.31
460.39	7894.63
460.57	7892.29
460.76	8252.73
460.94	7955.48
461.12	7901.65
461.31	8035.06
461.49	8154.43
461.67	8030.38
461.85	8390.82
462.04	8212.94
462.22	8514.87
462.40	8376.78
462.59	8241.03
462.77	8180.17
462.95	8510.19
463.13	8163.79
463.32	8348.69
463.50	8407.20
463.68	8383.80
463.86	8271.45
464.05	8400.18
464.23	8278.47
464.41	8650.62
464.59	8226.98
464.78	8596.79
464.96	8659.98
465.14	8414.23
465.32	8617.85
465.50	8720.84
465.69	8498.49
465.87	8769.99
466.05	8922.12
466.23	8709.13
466.41	8875.31
466.60	8933.82
466.78	8826.16
466.96	8753.60
467.14	8652.96
467.32	9018.08
467.51	8985.32
467.69	8713.81
467.87	8905.74
468.05	8924.46
468.23	9109.36
468.41	8805.10
468.60	9137.45
468.78	9001.70
468.96	8954.89
469.14	9111.71
469.32	9050.85
469.50	8966.59
469.69	9247.46
469.87	9554.07
470.05	9441.72
470.23	9341.08
470.41	9327.03
470.59	9476.83
470.77	9561.09
470.95	9376.19
471.14	9593.86
471.32	9462.79
471.50	9841.95
471.68	9628.96
471.86	9767.06
472.04	9785.78
472.22	10087.71
472.40	9764.72
472.58	9785.78
472.77	9844.29
472.95	10181.33
473.13	10403.68
473.31	10050.26
473.49	10040.90
473.67	10368.57
473.85	10190.69
474.03	10289.00
474.21	10630.71
474.39	10527.73
474.57	10455.17
474.75	10609.65
474.93	10817.96
475.12	10703.27
475.30	10782.85
475.48	10656.46
475.66	10703.27
475.84	10932.64
476.02	11056.69
476.20	11105.84
476.38	11367.98
476.56	11375.00
476.74	11463.94
476.92	11276.70
477.10	11447.56
477.28	11665.23
477.46	11630.12
477.64	11580.97
477.82	11908.65
478.00	12266.75
478.18	12020.99
478.36	12259.73
478.54	12294.83
478.72	12390.80
478.90	12341.64
479.08	12767.62
479.26	12486.76
479.44	12540.59
479.62	12758.26
479.80	12723.15
479.98	12968.91
480.16	13284.88
480.34	13202.96
480.52	13390.20
480.70	13860.65
480.88	13242.75
481.06	13312.97
481.24	13598.51
481.41	13645.32
481.59	13921.51
481.77	13940.23
481.95	14113.43
482.13	14223.44
482.31	14188.33
482.49	14300.67
482.67	14349.82
482.85	14773.46
483.03	14841.34
483.21	15152.63
483.39	15208.80
483.57	14916.23
483.74	15384.34
483.92	15602.01
484.10	15124.54
484.28	15609.03
484.46	15749.46
484.64	15974.16
484.82	15487.32
485.00	15960.11
485.18	16439.92
485.35	16421.20
485.53	16465.67
485.71	16128.63
485.89	16922.07
486.07	16758.24
486.25	17097.61
486.43	17067.19
486.61	16992.29
486.78	17256.77
486.96	17530.61
487.14	17891.06
487.32	17984.68
487.50	17694.45
487.68	17853.61
487.85	18305.33
488.03	18246.82
488.21	18860.04
488.39	18644.71
488.57	19007.49
488.75	18916.21
488.92	19115.16
489.10	19136.22
489.28	19548.15
489.46	19339.85
489.64	19269.63
489.81	19889.87
489.99	19950.73
490.17	20081.80
490.35	20437.56
490.53	20093.50
490.70	20353.30
490.88	20348.62
491.06	20493.73
491.24	20690.34
491.41	21179.51
491.59	20957.16
491.77	21174.83
491.95	21420.58
492.13	21699.11
492.30	21432.29
492.48	21577.40
492.66	21928.48
492.84	21926.14
493.01	22148.49
493.19	22300.62
493.37	22298.28
493.54	22370.84
493.72	22450.42
493.90	22892.78
494.08	23040.23
494.25	23269.61
494.43	23112.79
494.61	23246.20
494.79	23463.87
494.96	23381.95
495.14	23660.48
495.32	24058.37
495.49	23838.36
495.67	24095.82
495.85	24198.80
496.02	24514.77
496.20	24556.90
496.38	24601.37
496.55	24821.38
496.73	24919.68
496.91	24968.84
497.09	25198.21
497.26	24950.11
497.44	25378.43
497.62	25462.69
497.79	25832.49
497.97	25542.27
498.14	25846.54
498.32	26010.37
498.50	26267.83
498.67	26277.19
498.85	25912.07
499.03	26642.32
499.20	26504.23
499.38	26609.55
499.56	27145.53
499.73	27065.96
499.91	26834.24
500.08	27257.88
500.26	26946.59
500.44	27021.48
500.61	27206.39
500.79	27431.08
500.97	27562.15
501.14	27850.03
501.32	27704.92
501.49	27796.20
501.67	27852.38
501.84	28376.66
502.02	28409.42
502.20	28098.13
502.37	28046.64
502.55	28280.69
502.72	28140.26
502.90	28748.80
503.07	28348.57
503.25	28872.85
503.43	28858.81
503.60	28788.59
503.78	28980.51
503.95	29078.82
504.13	29392.45
504.30	29514.16
504.48	29500.11
504.65	29500.11
504.83	29883.96
505.01	30017.37
505.18	29764.59
505.36	30029.07
505.53	30003.33
505.71	30026.73
505.88	30469.09
506.06	30298.23
506.23	30225.68
506.41	30429.30
506.58	31103.38
506.76	30735.92
506.93	30665.70
507.11	30590.80
507.28	30845.92
507.46	30920.82
507.63	31606.59
507.81	31440.42
507.98	30895.07
508.16	31634.68
508.33	31622.98
508.50	31599.57
508.68	31761.07
508.85	32023.21
509.03	32112.15
509.20	31952.99
509.38	32531.11
509.55	32341.52
509.73	32350.88
509.90	32725.37
510.08	32442.17
510.25	32465.57
510.42	32547.49
510.60	32786.22
510.77	32910.27
510.95	33160.71
511.12	32786.22
511.30	33057.73
511.47	33333.91
511.64	33472.00
511.82	33752.87
511.99	33287.10
512.17	33565.62
512.34	33537.54
512.51	33855.85
512.69	34389.49
512.86	34073.52
513.04	34581.42
513.21	34359.06
513.38	34272.46
513.56	34515.88
513.73	34483.11
513.90	34532.26
514.08	34443.32
514.25	34873.98
514.43	35002.71
514.60	34457.37
514.77	35033.14
514.95	35248.47
515.12	35091.65
515.29	34700.78
515.47	35281.24
515.64	35599.55
515.81	35229.74
515.99	35831.26
516.16	36004.46
516.33	35974.03
516.51	36135.53
516.68	35826.58
516.85	36418.74
517.03	36105.10
517.20	36341.50
517.37	35835.94
517.54	36446.82
517.72	36215.11
517.89	36364.90
518.06	36451.50
518.24	36458.52
518.41	36531.08
518.58	36409.37
518.75	36598.96
518.93	36917.27
519.10	37102.17
519.27	37523.47
519.45	37282.39
519.62	37322.18
519.79	37132.60
519.96	37202.82
520.14	37811.35
520.31	37467.30
520.48	37654.54
520.65	37544.53
520.83	38087.54
521.00	37879.23
521.17	38354.36
521.34	37926.04
521.52	37914.34
521.69	38036.05
521.86	38267.76
522.03	38431.60
522.20	38473.73
522.38	38520.54
522.55	38370.74
522.72	39009.71
522.89	38513.52
523.07	39456.75
523.24	38656.29
523.41	38986.30
523.58	38150.73
523.75	39445.05
523.92	38979.28
524.10	39185.25
524.27	39351.43
524.44	39388.88
524.61	39765.70
524.78	39440.37
524.96	39363.13
525.13	39915.50
525.30	40371.90
525.47	39761.02
525.64	40065.29
525.81	40091.04
525.98	39775.06
526.16	40477.22
526.33	39871.03
526.50	40629.36
526.67	40264.24
526.84	40753.41
527.01	40428.07
527.18	40926.61
527.36	41053.00
527.53	40746.39
527.70	40959.38
527.87	40643.40
528.04	40945.33
528.21	41294.07
528.38	41024.91
528.55	41425.14
528.72	41415.78
528.89	40814.26
529.07	41104.49
529.24	41209.81
529.41	40811.92
529.58	41104.49
529.75	41514.08
529.92	41928.36
530.09	41401.74
530.26	41738.77
530.43	41212.15
530.60	41071.72
530.77	41546.85
530.94	41486.00
531.11	42347.31
531.28	41989.21
531.46	42391.78
531.63	41984.53
531.80	42623.50
531.97	42541.58
532.14	42967.55
532.31	42050.06
532.48	42614.13
532.65	43047.13
532.82	42237.31
532.99	42916.06
533.16	42539.24
533.33	42930.11
533.50	42780.31
533.67	42515.83
533.84	42770.95
534.01	43058.84
534.18	43007.34
534.35	42990.96
534.52	42850.53
534.69	43562.05
534.86	43442.68
535.03	42733.50
535.20	43047.13
535.37	43136.07
535.54	43650.99
535.71	43775.04
535.88	43772.70
536.05	43629.93
536.22	43990.37
536.38	43629.93
536.55	43686.10
536.72	43751.63
536.89	43466.09
537.06	43927.17
537.23	44182.29
537.40	44044.20
537.57	44313.36
537.74	43992.71
537.91	44395.28
538.08	44341.45
538.25	43976.33
538.42	44072.29
538.59	44933.60
538.75	44318.04
538.92	44669.12
539.09	44729.98
539.26	45158.30
539.43	44547.42
539.60	44861.05
539.77	44741.68
539.94	44762.75
540.11	44872.75
540.28	44861.05
540.44	45202.77
540.61	45045.95
540.78	45081.06
540.95	45345.54
541.12	44795.51
541.29	45249.58
541.46	44947.65
541.62	44884.45
541.79	45546.82
541.96	45212.13
542.13	45258.94
542.30	45502.35
542.47	45532.78
542.63	45907.27
542.80	45872.16
542.97	46169.41
543.14	45865.14
543.31	46169.41
543.48	46057.06
543.64	46649.22
543.81	46492.40
543.98	46347.29
544.15	45921.31
544.32	46375.37
544.48	46815.40
544.65	46328.56
544.82	46316.86
544.99	46234.94
545.16	46539.21
545.32	46913.70
545.49	46803.69
545.66	46960.51
545.83	46691.35
546.00	46450.27
546.16	46602.41
546.33	46693.69
546.50	46775.61
546.67	46862.21
546.83	46206.86
547.00	46930.08
547.17	46997.96
547.34	46836.46
547.50	46876.25
547.67	47473.09
547.84	46925.40
548.00	47302.23
548.17	47660.33
548.34	47381.80
548.51	47697.78
548.67	47215.63
548.84	47447.34
549.01	47430.96
549.18	46799.01
549.34	47519.90
549.51	47084.56
549.68	47683.73
549.84	47941.19
550.01	47880.34
550.18	47241.37
550.34	47800.76
550.51	47767.99
550.68	47789.06
550.84	47264.78
551.01	47873.32
551.18	47718.84
551.34	47908.43
551.51	48343.77
551.68	48226.74
551.84	48158.86
552.01	47709.48
552.18	47995.03
552.34	47999.71
552.51	47980.98
552.68	47917.79
552.84	48367.17
553.01	48547.39
553.18	48673.78
553.34	48685.48
553.51	48418.66
553.67	48203.33
553.84	48257.17
554.01	48463.13
554.17	48334.40
554.34	48769.74
554.51	48495.90
554.67	49130.19
554.84	48898.47
555.00	48729.95
555.17	48619.95
555.33	48846.98
555.50	48369.51
555.67	48692.50
555.83	48594.20
556.00	48741.66
556.16	49254.23
556.33	49141.89
556.50	49013.16
556.66	49265.94
556.83	48926.56
556.99	48889.11
557.16	48968.69
557.32	48968.69
557.49	49282.32
557.65	49279.98
557.82	49518.71
557.98	49186.36
558.15	48889.11
558.32	49282.32
558.48	49448.50
558.65	49226.15
558.81	49256.57
558.98	49230.83
559.14	49059.97
559.31	49352.54
559.47	49574.89
559.64	49258.91
559.80	49205.08
559.97	49743.41
560.13	49317.43
560.30	49572.55
560.46	49546.80
560.63	49331.47
560.79	49263.60
560.96	49647.44
561.12	49773.83
561.29	49689.57
561.45	49783.19
561.61	49705.96
561.78	49977.46
561.94	49654.47
562.11	49708.30
562.27	49797.24
562.44	49490.63
562.60	49705.96
562.77	49818.30
562.93	49949.37
563.10	50064.06
563.26	49883.84
563.42	50265.34
563.59	49776.17
563.75	49837.03
563.92	49755.11
564.08	49961.08
564.24	49893.20
564.41	50014.91
564.57	50012.57
564.74	50167.04
564.90	50368.33
565.07	49743.41
565.23	49682.55
565.39	49703.62
565.56	50150.66
565.72	50192.79
565.88	49682.55
566.05	49989.16
566.21	50094.49
566.38	50108.53
566.54	50143.64
566.70	50061.72
566.87	50567.27
567.03	50153.00
567.19	50230.24
567.36	49991.50
567.52	50080.44
567.68	50618.77
567.85	50698.34
568.01	50532.17
568.17	50307.47
568.34	50581.32
568.50	50000.86
568.66	50042.99
568.83	50248.96
568.99	50354.29
569.15	50347.26
569.32	50656.21
569.48	50342.58
569.64	50527.48
569.81	50426.84
569.97	50251.30
570.13	50431.52
570.30	50305.13
570.46	50323.86
570.62	50129.59
570.78	50363.65
570.95	50431.52
571.11	50721.75
571.27	50333.22
571.43	50452.59
571.60	50597.70
571.76	50578.98
571.92	50368.33
572.09	50511.10
572.25	50796.65
572.41	50265.34
572.57	50527.48
572.74	51047.08
572.90	51007.29
573.06	50387.05
573.22	50745.15
573.38	50604.72
573.55	50611.74
573.71	50518.12
573.87	50382.37
574.03	50621.11
574.20	50707.71
574.36	50625.79
574.52	50637.49
574.68	50251.30
574.84	50937.08
575.01	50798.99
575.17	50710.05
575.33	50394.07
575.49	50461.95
575.65	51044.74
575.82	51164.11
575.98	50511.10
576.14	50564.93
576.30	50789.62
576.46	50822.39
576.62	50880.91
576.79	50951.12
576.95	50541.53
577.11	50761.54
577.27	50927.72
577.43	50829.41
577.59	50639.83
577.75	50635.15
577.92	50403.44
578.08	50703.03
578.24	51082.19
578.40	51498.81
578.56	51126.66
578.72	50932.40
578.88	50976.87
579.04	50911.33
579.21	50099.17
579.37	50920.70
579.53	51011.98
579.69	50490.04
579.85	51016.66
580.01	50752.18
580.17	50927.72
580.33	51091.55
580.49	50857.50
580.65	50983.89
580.82	50665.58
580.98	50611.74
581.14	50672.60
581.30	51260.07
581.46	51107.94
581.62	50976.87
581.78	50946.44
581.94	51033.04
582.10	50974.53
582.26	51121.98
582.42	50995.59
582.58	50787.28
582.74	51002.61
582.90	51224.96
583.06	50571.96
583.22	50775.58
583.38	51030.70
583.54	51084.53
583.70	50932.40
583.86	51171.13
584.02	50733.45
584.18	50901.97
584.34	51243.69
584.50	51409.87
584.66	51227.31
584.82	50719.41
584.98	51007.29
585.14	51250.71
585.30	50693.66
585.46	51096.24
585.62	51145.39
585.78	51079.85
585.94	50717.07
586.10	50815.37
586.26	50527.48
586.42	50993.25
586.58	51009.64
586.74	50850.48
586.90	51084.53
587.06	50951.12
587.22	51498.81
587.38	50934.74
587.54	51187.52
587.70	51330.29
587.86	51222.62
588.02	50930.06
588.18	51157.09
588.34	51304.54
588.49	51344.33
588.65	50969.85
588.81	51049.42
588.97	51414.55
589.13	51248.37
589.29	51414.55
589.45	51744.56
589.61	51276.46
589.77	51407.53
589.93	51253.05
590.08	51524.55
590.24	51409.87
590.40	51545.62
