SpectraSuite Data File
++++++++++++++++++++++++++++++++++++
Date: Fri Oct 04 11:39:15 GMT-05:00 2013
User: price-jones
Dark Spectrum Present: No
Reference Spectrum Present: No
Number of Sampled Component Spectra: 1
Spectrometers: USB2+H05261
Integration Time (usec): 100000 (USB2+H05261)
Spectra Averaged: 1 (USB2+H05261)
Boxcar Smoothing: 0 (USB2+H05261)
Correct for Electrical Dark: No (USB2+H05261)
Strobe/Lamp Enabled: No (USB2+H05261)
Correct for Detector Non-linearity: No (USB2+H05261)
Correct for Stray Light: No (USB2+H05261)
Number of Pixels in Processed Spectrum: 2048
>>>>>Begin Processed Spectral Data<<<<<
365.73	65.54
365.92	65.54
366.12	65.54
366.32	0.00
366.52	0.00
366.72	0.00
366.91	0.00
367.11	0.00
367.31	0.00
367.51	0.00
367.70	0.00
367.90	0.00
368.10	0.00
368.30	0.00
368.49	0.00
368.69	0.00
368.89	0.00
369.09	0.00
369.28	0.00
369.48	0.00
369.68	28.09
369.87	0.00
370.07	0.00
370.27	0.00
370.47	86.60
370.66	166.18
370.86	196.60
371.06	159.16
371.25	327.68
371.45	203.63
371.65	264.48
371.84	166.18
372.04	222.35
372.24	194.26
372.44	227.03
372.63	292.57
372.83	297.25
373.03	248.10
373.22	259.80
373.42	301.93
373.62	285.55
373.81	330.02
374.01	339.38
374.21	372.15
374.40	322.99
374.60	238.73
374.79	273.84
374.99	379.17
375.19	297.25
375.38	294.91
375.58	393.21
375.78	351.08
375.97	315.97
376.17	360.44
376.37	332.36
376.56	353.42
376.76	383.85
376.95	353.42
377.15	376.83
377.35	397.89
377.54	341.72
377.74	348.74
377.93	299.59
378.13	351.08
378.33	322.99
378.52	372.15
378.72	400.23
378.91	404.91
379.11	346.40
379.31	322.99
379.50	411.93
379.70	414.27
379.89	425.98
380.09	353.42
380.28	320.65
380.48	440.02
380.68	416.62
380.87	299.59
381.07	360.44
381.26	475.13
381.46	470.45
381.65	400.23
381.85	390.87
382.04	362.78
382.24	430.66
382.43	465.77
382.63	374.49
382.83	414.27
383.02	367.46
383.22	498.53
383.41	416.62
383.61	416.62
383.80	313.63
384.00	407.25
384.19	514.92
384.39	402.57
384.58	451.72
384.78	442.36
384.97	465.77
385.17	477.47
385.36	496.19
385.56	470.45
385.75	486.83
385.95	440.02
386.14	430.66
386.34	435.34
386.53	418.96
386.72	482.15
386.92	444.70
387.11	433.00
387.31	498.53
387.50	559.39
387.70	489.17
387.89	519.60
388.09	451.72
388.28	484.49
388.48	489.17
388.67	557.05
388.86	540.66
389.06	545.34
389.25	571.09
389.45	505.56
389.64	472.79
389.84	559.39
390.03	433.00
390.22	554.71
390.42	545.34
390.61	585.13
390.81	461.09
391.00	505.56
391.19	566.41
391.39	543.00
391.58	582.79
391.78	571.09
391.97	643.65
392.16	449.38
392.36	648.33
392.55	606.20
392.75	535.98
392.94	599.18
393.13	589.82
393.33	601.52
393.52	540.66
393.71	636.63
393.91	638.97
394.10	653.01
394.29	648.33
394.49	645.99
394.68	699.82
394.88	648.33
395.07	720.88
395.26	681.10
395.46	641.31
395.65	697.48
395.84	697.48
396.04	727.91
396.23	648.33
396.42	702.16
396.62	725.57
396.81	636.63
397.00	636.63
397.19	711.52
397.39	842.59
397.58	814.51
397.77	695.14
397.97	727.91
398.16	758.33
398.35	763.01
398.55	763.01
398.74	781.74
398.93	851.96
399.12	798.12
399.32	741.95
399.51	699.82
399.70	908.13
399.90	938.55
400.09	772.38
400.28	877.70
400.47	849.61
400.67	873.02
400.86	866.00
401.05	894.08
401.24	931.53
401.44	877.70
401.63	844.93
401.82	933.87
402.01	877.70
402.21	873.02
402.40	903.45
402.59	884.72
402.78	889.40
402.97	931.53
403.17	922.17
403.36	964.30
403.55	1046.22
403.74	933.87
403.93	990.05
404.13	964.30
404.32	1001.75
404.51	1029.84
404.70	1081.33
404.89	940.90
405.09	1008.77
405.28	1086.01
405.47	978.34
405.66	999.41
405.85	1132.82
406.05	1039.20
406.24	1095.37
406.43	1137.50
406.62	1205.38
406.81	1196.01
407.00	1263.89
407.20	1093.03
407.39	1107.07
407.58	1174.95
407.77	1221.76
407.96	1191.33
408.15	1254.53
408.34	1191.33
408.54	1160.91
408.73	1198.35
408.92	1245.16
409.11	1373.89
409.30	1348.15
409.49	1259.21
409.68	1299.00
409.87	1320.06
410.07	1256.87
410.26	1364.53
410.45	1329.42
410.64	1399.64
410.83	1406.66
411.02	1383.26
411.21	1362.19
411.40	1331.76
411.59	1448.79
411.78	1460.49
411.98	1418.36
412.17	1392.62
412.36	1406.66
412.55	1521.35
412.74	1678.16
412.93	1612.63
413.12	1568.16
413.31	1591.56
413.50	1617.31
413.69	1600.93
413.88	1685.19
414.07	1610.29
414.26	1607.95
414.45	1647.74
414.64	1645.40
414.83	1769.44
415.02	1732.00
415.22	1734.34
415.41	1813.92
415.60	1844.34
415.79	1809.23
415.98	1750.72
416.17	1865.41
416.36	1867.75
416.55	1858.39
416.74	1863.07
416.93	1884.13
417.12	1884.13
417.31	1963.71
417.50	1921.58
417.69	2026.90
417.88	2106.48
418.07	1996.48
418.26	1856.04
418.45	1994.14
418.64	2111.16
418.83	1996.48
419.02	1994.14
419.21	2108.82
419.39	2033.93
419.58	2024.56
419.77	2111.16
419.96	2141.59
420.15	2136.91
420.34	2111.16
420.53	2230.53
420.72	2179.04
420.91	2129.89
421.10	2232.87
421.29	2282.02
421.48	2090.10
421.67	2298.41
421.86	2197.76
422.05	2204.78
422.24	2172.02
422.43	2305.43
422.61	2277.34
422.80	2277.34
422.99	2389.69
423.18	2289.04
423.37	2399.05
423.56	2324.15
423.75	2445.86
423.94	2188.40
424.13	2108.82
424.32	2242.23
424.50	2328.83
424.69	2380.32
424.88	2401.39
425.07	2396.71
425.26	2293.72
425.45	2324.15
425.64	2406.07
425.83	2345.22
426.01	2359.26
426.20	2366.28
426.39	2284.36
426.58	2342.88
426.77	2464.58
426.96	2413.09
427.15	2385.01
427.33	2420.11
427.52	2417.77
427.71	2452.88
427.90	2523.10
428.09	2476.29
428.28	2495.01
428.46	2518.42
428.65	2492.67
428.84	2443.52
429.03	2684.59
429.22	2499.69
429.40	2555.86
429.59	2621.40
429.78	2434.16
429.97	2579.27
430.16	2567.57
430.34	2642.46
430.53	2581.61
430.72	2738.43
430.91	2642.46
431.10	2726.72
431.28	2750.13
431.47	2733.75
431.66	2729.06
431.85	2731.41
432.03	2836.73
432.22	2871.84
432.41	2820.35
432.60	2944.39
432.79	2665.87
432.97	2780.56
433.16	2906.95
433.35	2841.41
433.54	2867.16
433.72	2974.82
433.91	2771.19
434.10	3000.57
434.28	2869.50
434.47	2946.73
434.66	2918.65
434.85	3012.27
435.03	3042.70
435.22	3197.17
435.41	3375.05
435.59	3428.88
435.78	3262.71
435.97	3204.19
436.16	3166.74
436.34	3014.61
436.53	3190.15
436.72	3166.74
436.90	3141.00
437.09	3108.23
437.28	3049.72
437.46	3105.89
437.65	3155.04
437.84	3208.87
438.02	3038.02
438.21	3213.56
438.40	3211.22
438.58	3297.81
438.77	3407.82
438.96	3300.16
439.14	3414.84
439.33	3272.07
439.52	3365.69
439.70	3431.23
439.89	3496.76
440.08	3463.99
440.26	3562.30
440.45	3452.29
440.63	3569.32
440.82	3433.57
441.01	3382.07
441.19	3571.66
441.38	3616.13
441.57	3719.11
441.75	3623.15
441.94	3810.39
442.12	3777.62
442.31	3833.80
442.50	3798.69
442.68	3691.02
442.87	3826.78
443.05	3672.30
443.24	3833.80
443.43	3913.38
443.61	3927.42
443.80	4044.45
443.98	3815.07
444.17	3723.79
444.35	3836.14
444.54	3929.76
444.73	3871.25
444.91	3899.33
445.10	3822.09
445.28	3936.78
445.47	3868.91
445.65	4084.23
445.84	3901.67
446.02	3918.06
446.21	3826.78
446.39	3840.82
446.58	4098.28
446.77	3908.69
446.95	3791.67
447.14	4016.36
447.32	4140.41
447.51	3915.72
447.69	4091.26
447.88	4138.07
448.06	4070.19
448.25	4030.40
448.43	3922.74
448.62	3978.91
448.80	4112.32
448.99	4058.49
449.17	4088.92
449.36	4079.55
449.54	4299.56
449.73	4252.75
449.91	4074.87
450.10	4351.06
450.28	4411.91
450.46	4294.88
450.65	4236.37
450.83	4189.56
451.02	4241.05
451.20	4358.08
451.39	4191.90
451.57	4322.97
451.76	4334.67
451.94	4358.08
452.13	4418.93
452.31	4393.19
452.49	4369.78
452.68	4430.63
452.86	4447.02
453.05	4404.89
453.23	4381.48
453.42	4491.49
453.60	4407.23
453.78	4540.64
453.97	4519.57
454.15	4540.64
454.34	4493.83
454.52	4617.88
454.70	4582.77
454.89	4638.94
455.07	4535.96
455.26	4652.98
455.44	4695.11
455.62	4774.69
455.81	4669.37
455.99	4791.08
456.17	4772.35
456.36	4688.09
456.54	4772.35
456.73	4821.50
456.91	4851.93
457.09	4880.02
457.28	4933.85
457.46	5001.72
457.64	4971.30
457.83	4943.21
458.01	4933.85
458.19	4973.64
458.38	4868.31
458.56	4950.23
458.74	4992.36
458.93	5022.79
459.11	5006.41
459.29	5125.77
459.48	5123.43
459.66	5228.76
459.84	5235.78
460.03	5469.83
460.21	4997.04
460.39	5130.45
460.57	5163.22
460.76	5195.99
460.94	5301.31
461.12	5174.92
461.31	5247.48
461.49	5088.32
461.67	5261.52
461.85	5373.87
462.04	5217.05
462.22	5334.08
462.40	5500.26
462.59	5397.28
462.77	5359.83
462.95	5612.60
463.13	5284.93
463.32	5420.68
463.50	5607.92
463.68	5444.09
463.86	5671.12
464.05	5423.02
464.23	5444.09
464.41	5579.84
464.59	5380.89
464.78	5760.06
464.96	5675.80
465.14	5685.16
465.32	5816.23
465.50	5724.95
465.69	5703.89
465.87	5603.24
466.05	5643.03
466.23	5523.66
466.41	5703.89
466.60	5741.33
466.78	5689.84
466.96	5624.31
467.14	5664.10
467.32	5797.51
467.51	5790.49
467.69	5551.75
467.87	5788.14
468.05	5717.93
468.23	5783.46
468.41	5832.62
468.60	5767.08
468.78	5827.93
468.96	5846.66
469.14	5928.58
469.32	6141.57
469.50	5975.39
469.69	5935.60
469.87	6139.23
470.05	6146.25
470.23	6106.46
470.41	6129.86
470.59	6228.17
470.77	6094.76
470.95	6291.36
471.14	6272.64
471.32	6104.12
471.50	6399.02
471.68	6363.92
471.86	6296.04
472.04	6352.21
472.22	6480.94
472.40	6399.02
472.58	6520.73
472.77	6663.51
472.95	6602.65
473.13	6738.40
473.31	6621.38
473.49	6389.66
473.67	6736.06
473.85	6597.97
474.03	7035.65
474.21	6878.83
474.39	6981.82
474.57	6878.83
474.75	6960.75
474.93	7042.67
475.12	6942.03
475.30	7077.78
475.48	6937.35
475.66	7112.89
475.84	7080.12
476.02	7173.74
476.20	7178.42
476.38	7332.90
476.56	7288.43
476.74	7440.56
476.92	7335.24
477.10	7492.05
477.28	7541.21
477.46	7609.08
477.64	7513.12
477.82	7627.81
478.00	7885.26
478.18	7964.84
478.36	7932.08
478.54	8049.10
478.72	7981.23
478.90	7981.23
479.08	8081.87
479.26	8095.91
479.44	8177.83
479.62	8322.94
479.80	8271.45
479.98	8407.20
480.16	8400.18
480.34	8393.16
480.52	8613.17
480.70	8582.74
480.88	8706.79
481.06	8624.87
481.24	8435.29
481.41	8725.52
481.59	8940.85
481.77	9029.79
481.95	8968.93
482.13	9221.71
482.31	9179.58
482.49	9153.84
482.67	9212.35
482.85	9528.32
483.03	9425.34
483.21	9603.22
483.39	9563.43
483.57	9724.93
483.74	9905.15
483.92	9893.44
484.10	9750.67
484.28	9954.30
484.46	10003.45
484.64	10347.51
484.82	10176.65
485.00	10377.94
485.18	10642.42
485.35	10422.41
485.53	10604.97
485.71	10644.76
485.89	10822.64
486.07	10626.03
486.25	10794.55
486.43	10637.73
486.61	11049.67
486.78	11253.30
486.96	11311.81
487.14	11571.61
487.32	11419.47
487.50	11318.83
487.68	11580.97
487.85	11681.61
488.03	11793.96
488.21	11992.90
488.39	11953.12
488.57	11953.12
488.75	12020.99
488.92	12629.53
489.10	12163.76
489.28	12285.47
489.46	12496.12
489.64	12463.35
489.81	12929.12
489.99	12753.58
490.17	12758.26
490.35	13011.04
490.53	13249.77
490.70	13071.89
490.88	13200.62
491.06	13392.55
491.24	13078.91
491.41	13179.56
491.59	13425.31
491.77	13441.70
491.95	13654.69
492.13	13661.71
492.30	14015.13
492.48	13675.75
492.66	13912.14
492.84	13973.00
493.01	14094.71
493.19	14202.37
493.37	14305.35
493.54	14263.22
493.72	14356.85
493.90	14413.02
494.08	14633.03
494.25	14422.38
494.43	14857.72
494.61	15042.62
494.79	15077.73
494.96	15023.90
495.14	15110.50
495.32	15246.25
495.49	15316.47
495.67	15218.16
495.85	15456.90
496.02	15761.17
496.20	15634.78
496.38	15555.20
496.55	15880.53
496.73	16030.33
496.91	15669.89
497.09	16100.55
497.26	15971.82
497.44	16051.39
497.62	16252.68
497.79	16301.83
497.97	16243.32
498.14	16264.38
498.32	16650.57
498.50	16840.15
498.67	16713.77
498.85	16837.81
499.03	16966.54
499.20	16891.65
499.38	16662.27
499.56	17022.72
499.73	17224.00
499.91	17350.39
500.08	17432.31
500.26	17013.35
500.44	17507.21
500.61	17399.54
500.79	17486.14
500.97	17530.61
501.14	17879.35
501.32	17788.07
501.49	17752.96
501.67	17631.26
501.84	17944.89
502.02	17830.20
502.20	18024.47
502.37	18202.35
502.55	18073.62
502.72	18417.68
502.90	18377.89
503.07	18148.51
503.25	18410.65
503.43	18455.12
503.60	18586.19
503.78	18693.86
503.95	18565.13
504.13	18789.82
504.30	18867.06
504.48	18806.20
504.65	18719.60
504.83	19007.49
505.01	19115.16
505.18	19239.20
505.36	19157.28
505.53	19164.31
505.71	19234.52
505.88	19363.25
506.06	18991.11
506.23	19178.35
506.41	19475.60
506.58	19609.01
506.76	19487.30
506.93	19564.54
507.11	19534.11
507.28	19646.46
507.46	19761.14
507.63	19702.63
507.81	20287.76
507.98	19953.07
508.16	19899.23
508.33	19927.32
508.50	20430.54
508.68	20226.91
508.85	20135.63
509.03	19943.70
509.20	20084.14
509.38	20519.48
509.55	20659.91
509.73	20886.94
509.90	20828.43
510.08	20517.14
510.25	20524.16
510.42	20933.75
510.60	20868.22
510.77	21010.99
510.95	21336.32
511.12	21092.91
511.30	21067.16
511.47	21128.02
511.64	21530.59
511.82	21298.88
511.99	20987.58
512.17	21397.18
512.34	21537.61
512.51	21273.13
512.69	21713.15
512.86	21862.94
513.04	22089.98
513.21	22101.68
513.38	22171.89
513.56	21848.90
513.73	22059.55
513.90	21844.22
514.08	21841.88
514.25	22309.99
514.43	22431.69
514.60	22183.60
514.77	22419.99
514.95	22471.48
515.12	22040.82
515.29	21965.93
515.47	22808.52
515.64	22742.99
515.81	22438.72
515.99	22703.20
516.16	22963.00
516.33	22862.35
516.51	23040.23
516.68	23009.81
516.85	22766.39
517.03	23201.73
517.20	23082.36
517.37	22977.04
517.54	23035.55
517.72	23143.22
517.89	23037.89
518.06	23187.69
518.24	23271.95
518.41	23091.73
518.58	23459.19
518.75	23379.61
518.93	23892.19
519.10	23431.10
519.27	23702.61
519.45	23754.10
519.62	23660.48
519.79	23718.99
519.96	23866.44
520.14	24067.73
520.31	23761.12
520.48	23737.71
520.65	24273.70
520.83	24196.46
521.00	24229.23
521.17	24182.42
521.34	24144.97
521.52	24367.32
521.69	24247.95
521.86	24496.05
522.03	24489.03
522.20	24449.24
522.38	24563.92
522.55	24746.48
522.72	24638.82
522.89	24741.80
523.07	25001.60
523.24	24720.74
523.41	25064.80
523.58	24725.42
523.75	25015.65
523.92	25071.82
524.10	25298.85
524.27	25209.91
524.44	25202.89
524.61	25661.63
524.78	25764.62
524.96	25362.04
525.13	24987.56
525.30	25198.21
525.47	25504.82
525.64	25502.48
525.81	25490.77
525.98	25832.49
526.16	25685.04
526.33	25593.76
526.50	25888.67
526.67	25582.06
526.84	25778.66
527.01	25560.99
527.18	25750.57
527.36	25956.54
527.53	25916.75
527.70	26558.06
527.87	26008.03
528.04	26188.25
528.21	26223.36
528.38	26115.70
528.55	26244.43
528.72	26417.63
528.89	26125.06
529.07	26211.66
529.24	26188.25
529.41	26490.18
529.58	26443.37
529.75	26291.24
529.92	26586.15
530.09	26670.40
530.26	26485.50
530.43	26869.35
530.60	26757.00
530.77	27000.42
530.94	27136.17
531.11	26728.92
531.28	26808.50
531.46	27147.87
531.63	26869.35
531.80	27274.26
531.97	27220.43
532.14	27304.69
532.31	27370.22
532.48	26836.58
532.65	27112.77
532.82	26867.01
532.99	27126.81
533.16	27234.47
533.33	27793.86
533.50	27583.21
533.67	27431.08
533.84	27426.40
534.01	27276.60
534.18	27379.59
534.35	27683.86
534.52	27878.12
534.69	27615.98
534.86	27964.72
535.03	27810.25
535.20	27915.57
535.37	28184.73
535.54	27976.42
535.71	27997.49
535.88	28137.92
536.05	27938.97
536.22	27817.27
536.38	28208.14
536.55	28339.21
536.72	28538.15
536.89	28250.27
537.06	28484.32
537.23	28250.27
537.40	28137.92
537.57	28313.46
537.74	28496.02
537.91	28510.07
538.08	28671.56
538.25	28704.33
538.42	28961.79
538.59	28755.82
538.75	28128.56
538.92	28521.77
539.09	28793.27
539.26	28828.38
539.43	28809.65
539.60	29369.04
539.77	28790.93
539.94	28877.53
540.11	28891.57
540.28	29130.31
540.44	29219.25
540.61	29181.80
540.78	29216.91
540.95	29411.17
541.12	29193.50
541.29	29413.51
541.46	29663.95
541.62	29642.88
541.79	29418.19
541.96	29453.30
542.13	29102.22
542.30	29790.34
542.47	29773.95
542.63	29898.00
542.80	29603.10
542.97	29982.26
543.14	30394.20
543.31	30054.82
543.48	30162.48
543.64	29933.11
543.81	30354.41
543.98	30213.98
544.15	30045.46
544.32	30190.57
544.48	30504.20
544.65	30075.88
544.82	30417.60
544.99	30335.68
545.16	30288.87
545.32	30216.32
545.49	30754.64
545.66	31054.23
545.83	31131.47
546.00	31145.51
546.16	31192.32
546.33	30646.97
546.50	30143.76
546.67	30462.07
546.83	30103.97
547.00	30998.06
547.17	30230.36
547.34	30614.21
547.50	30710.17
547.67	30609.53
547.84	30532.29
548.00	30876.35
548.17	30698.47
548.34	30707.83
548.51	30881.03
548.67	31367.86
548.84	31414.67
549.01	30848.26
549.18	30876.35
549.34	30501.86
549.51	31070.61
549.68	30717.19
549.84	30714.85
550.01	30857.62
550.18	30976.99
550.34	31299.98
550.51	31351.48
550.68	31014.44
550.84	30766.34
551.01	31356.16
551.18	30899.75
551.34	30878.69
551.51	31150.19
551.68	31157.21
551.84	31037.84
552.01	31496.59
552.18	31358.50
552.34	31049.55
552.51	31454.46
552.68	31370.20
552.84	31112.74
553.01	31562.12
553.18	31461.48
553.34	31117.42
553.51	31772.77
553.67	31868.73
553.84	31751.71
554.01	31672.13
554.17	31512.97
554.34	31152.53
554.51	31534.04
554.67	32189.39
554.84	31819.58
555.00	31599.57
555.17	31697.88
555.33	31625.32
555.50	31749.37
555.67	31524.68
555.83	32133.21
556.00	32325.14
556.16	32474.93
556.33	32063.00
556.50	31648.72
556.66	31938.95
556.83	31625.32
556.99	32706.65
557.16	32105.13
557.32	32507.70
557.49	32240.88
557.65	31941.29
557.82	32194.07
557.98	32231.52
558.15	31906.18
558.32	32463.23
558.48	32367.27
558.65	32355.57
558.81	32383.65
558.98	32439.82
559.14	32311.10
559.31	32617.71
559.47	32638.77
559.64	32294.71
559.80	32627.07
559.97	32582.60
560.13	32130.87
560.30	32737.07
560.46	32765.16
560.63	32940.70
560.79	32327.48
560.96	32652.81
561.12	32755.80
561.29	32456.21
561.45	32596.64
561.61	32348.54
561.78	32926.66
561.94	32589.62
562.11	32760.48
562.27	32460.89
562.44	32280.67
562.60	32540.47
562.77	32594.30
562.93	32788.56
563.10	32285.35
563.26	32886.87
563.42	33235.61
563.59	32975.81
563.75	32627.07
563.92	32781.54
564.08	32173.00
564.24	32917.29
564.41	32790.91
564.57	32685.58
564.74	32404.72
564.90	32481.95
565.07	32816.65
565.23	32779.20
565.39	32800.27
565.56	33078.79
565.72	32360.25
565.88	32772.18
566.05	32858.78
566.21	32701.96
566.38	32610.68
566.54	33029.64
566.70	33324.55
566.87	33104.54
567.03	32964.10
567.19	33619.46
567.36	32980.49
567.52	32790.91
567.68	32959.42
567.85	33099.86
568.01	33092.83
568.17	33200.50
568.34	33284.76
568.50	33205.18
568.66	33319.87
568.83	33261.35
568.99	33214.54
569.15	32828.35
569.32	33186.46
569.48	32851.76
569.64	33317.53
569.81	33200.50
569.97	33305.82
570.13	33397.10
570.30	33020.28
570.46	33191.14
570.62	33153.69
570.78	33371.36
570.95	33324.55
571.11	33282.42
571.27	33092.83
571.43	32795.59
571.60	32975.81
571.76	33745.84
571.92	33474.34
572.09	33139.65
572.25	33455.62
572.41	33706.05
572.57	33425.19
572.74	33408.81
572.90	33069.43
573.06	33331.57
573.22	33111.56
573.38	33628.82
573.55	33546.90
573.71	33472.00
573.87	33144.33
574.03	33200.50
574.20	33411.15
574.36	33371.36
574.52	33727.12
574.68	33628.82
574.84	33734.14
575.01	33649.88
575.17	33415.83
575.33	33116.24
575.49	33214.54
575.65	33670.95
575.82	33731.80
575.98	33479.02
576.14	33582.01
576.30	34120.33
576.46	33572.64
576.62	33680.31
576.79	33603.07
576.95	33514.13
577.11	33516.47
577.27	33528.17
577.43	33722.44
577.59	33769.25
577.75	33453.28
577.92	33357.32
578.08	33528.17
578.24	33427.53
578.40	33706.05
578.56	33759.89
578.72	33289.44
578.88	33869.89
579.04	34148.42
579.21	33778.61
579.37	33125.60
579.53	33638.18
579.69	33537.54
579.85	33731.80
580.01	33450.94
580.17	33359.66
580.33	33706.05
580.49	33457.96
580.65	34040.75
580.82	33989.26
580.98	33809.04
581.14	34080.54
581.30	34206.93
581.46	33757.55
581.62	33886.28
581.78	33354.97
581.94	34010.32
582.10	33621.80
582.26	33640.52
582.42	33584.35
582.58	33942.45
582.74	33766.91
582.90	33766.91
583.06	33993.94
583.22	33689.67
583.38	33345.61
583.54	33818.40
583.70	34216.29
583.86	34010.32
584.02	33876.91
584.18	34120.33
584.34	34244.38
584.50	33493.07
584.66	33310.50
584.82	33668.61
584.98	34445.66
585.14	33706.05
585.30	33455.62
585.46	33659.24
585.62	33684.99
585.78	33914.36
585.94	33839.47
586.10	33827.76
586.26	33598.39
586.42	33947.13
586.58	33926.07
586.74	33783.29
586.90	33869.89
587.06	33773.93
587.22	33937.77
587.38	33710.74
587.54	34092.24
587.70	34068.84
587.86	33813.72
588.02	34143.74
588.18	34284.17
588.34	33968.19
588.49	33893.30
588.65	34045.43
588.81	33745.84
588.97	33848.83
589.13	34029.05
589.29	33876.91
589.45	34012.66
589.61	34005.64
589.77	34513.54
589.93	34286.51
590.08	34550.99
590.24	34213.95
590.40	34291.19
590.56	34391.83
590.72	34160.12
590.88	33919.04
591.04	34078.20
591.20	34373.11
591.35	34410.56
591.51	34522.90
