SpectraSuite Data File
++++++++++++++++++++++++++++++++++++
Date: Fri Oct 04 11:40:00 GMT-05:00 2013
User: price-jones
Dark Spectrum Present: No
Reference Spectrum Present: No
Number of Sampled Component Spectra: 1
Spectrometers: USB2+H05261
Integration Time (usec): 100000 (USB2+H05261)
Spectra Averaged: 1 (USB2+H05261)
Boxcar Smoothing: 0 (USB2+H05261)
Correct for Electrical Dark: No (USB2+H05261)
Strobe/Lamp Enabled: No (USB2+H05261)
Correct for Detector Non-linearity: No (USB2+H05261)
Correct for Stray Light: No (USB2+H05261)
Number of Pixels in Processed Spectrum: 2048
>>>>>Begin Processed Spectral Data<<<<<
365.73	84.26
365.92	84.26
366.12	84.26
366.32	0.00
366.52	0.00
366.72	0.00
366.91	0.00
367.11	0.00
367.31	0.00
367.51	0.00
367.70	2.34
367.90	0.00
368.10	0.00
368.30	9.36
368.49	0.00
368.69	0.00
368.89	0.00
369.09	0.00
369.28	0.00
369.48	9.36
369.68	0.00
369.87	0.00
370.07	0.00
370.27	72.56
370.47	74.90
370.66	102.98
370.86	184.90
371.06	159.16
371.25	220.01
371.45	142.77
371.65	217.67
371.84	121.71
372.04	124.05
372.24	269.16
372.44	180.22
372.63	198.95
372.83	262.14
373.03	182.56
373.22	304.27
373.42	248.10
373.62	238.73
373.81	276.18
374.01	278.52
374.21	234.05
374.40	250.44
374.60	280.86
374.79	248.10
374.99	287.89
375.19	196.60
375.38	241.08
375.58	292.57
375.78	285.55
375.97	276.18
376.17	287.89
376.37	283.20
376.56	220.01
376.76	222.35
376.95	266.82
377.15	224.69
377.35	236.39
377.54	203.63
377.74	196.60
377.93	257.46
378.13	271.50
378.33	208.31
378.52	252.78
378.72	266.82
378.91	283.20
379.11	320.65
379.31	255.12
379.50	252.78
379.70	344.06
379.89	341.72
380.09	238.73
380.28	208.31
380.48	212.99
380.68	220.01
380.87	189.58
381.07	322.99
381.26	348.74
381.46	311.29
381.65	313.63
381.85	252.78
382.04	283.20
382.24	365.12
382.43	236.39
382.63	276.18
382.83	280.86
383.02	311.29
383.22	269.16
383.41	234.05
383.61	339.38
383.80	236.39
384.00	262.14
384.19	322.99
384.39	351.08
384.58	325.33
384.78	269.16
384.97	353.42
385.17	301.93
385.36	348.74
385.56	337.04
385.75	325.33
385.95	308.95
386.14	301.93
386.34	327.68
386.53	304.27
386.72	311.29
386.92	404.91
387.11	311.29
387.31	264.48
387.50	285.55
387.70	313.63
387.89	337.04
388.09	294.91
388.28	292.57
388.48	393.21
388.67	311.29
388.86	327.68
389.06	407.25
389.25	388.53
389.45	388.53
389.64	353.42
389.84	344.06
390.03	369.80
390.22	327.68
390.42	362.78
390.61	372.15
390.81	341.72
391.00	358.10
391.19	472.79
391.39	341.72
391.58	395.55
391.78	388.53
391.97	402.57
392.16	390.87
392.36	451.72
392.55	416.62
392.75	379.17
392.94	416.62
393.13	388.53
393.33	344.06
393.52	402.57
393.71	414.27
393.91	379.17
394.10	430.66
394.29	414.27
394.49	423.64
394.68	428.32
394.88	500.87
395.07	444.70
395.26	489.17
395.46	440.02
395.65	475.13
395.84	442.36
396.04	531.30
396.23	458.74
396.42	538.32
396.62	519.60
396.81	521.94
397.00	484.49
397.19	465.77
397.39	454.06
397.58	486.83
397.77	505.56
397.97	557.05
398.16	608.54
398.35	514.92
398.55	545.34
398.74	545.34
398.93	557.05
399.12	514.92
399.32	496.19
399.51	517.26
399.70	550.03
399.90	669.39
400.09	594.50
400.28	653.01
400.47	622.58
400.67	627.26
400.86	585.13
401.05	746.63
401.24	723.23
401.44	720.88
401.63	669.39
401.82	713.86
402.01	662.37
402.21	751.31
402.40	758.33
402.59	741.95
402.78	716.20
402.97	688.12
403.17	737.27
403.36	758.33
403.55	779.40
403.74	723.23
403.93	751.31
404.13	699.82
404.32	819.19
404.51	856.64
404.70	903.45
404.89	812.17
405.09	772.38
405.28	781.74
405.47	957.28
405.66	849.61
405.85	950.26
406.05	919.83
406.24	861.32
406.43	901.11
406.62	933.87
406.81	994.73
407.00	1022.81
407.20	938.55
407.39	950.26
407.58	884.72
407.77	1036.86
407.96	1036.86
408.15	1041.54
408.34	983.02
408.54	1006.43
408.73	1076.65
408.92	1062.60
409.11	1078.99
409.30	1086.01
409.49	1076.65
409.68	1123.46
409.87	1160.91
410.07	1071.97
410.26	1118.78
410.45	1123.46
410.64	1158.57
410.83	1231.12
411.02	1144.52
411.21	1249.85
411.40	1247.51
411.59	1268.57
411.78	1315.38
411.98	1263.89
412.17	1294.32
412.36	1345.81
412.55	1390.28
412.74	1380.92
412.93	1439.43
413.12	1359.85
413.31	1371.55
413.50	1472.20
413.69	1420.71
413.88	1516.67
414.07	1586.88
414.26	1528.37
414.45	1481.56
414.64	1537.73
414.83	1509.65
415.02	1549.43
415.22	1586.88
415.41	1682.85
415.60	1703.91
415.79	1607.95
415.98	1727.32
416.17	1619.65
416.36	1818.60
416.55	1643.06
416.74	1813.92
416.93	1790.51
417.12	1764.76
417.31	1783.49
417.50	1778.81
417.69	1895.83
417.88	1893.49
418.07	1942.64
418.26	1846.68
418.45	1933.28
418.64	2062.01
418.83	2024.56
419.02	1858.39
419.21	1935.62
419.39	2026.90
419.58	1982.43
419.77	1977.75
419.96	1956.69
420.15	2017.54
420.34	2125.21
420.53	2017.54
420.72	2106.48
420.91	2050.31
421.10	2197.76
421.29	2207.13
421.48	2132.23
421.67	2195.42
421.86	2120.53
422.05	2204.78
422.24	2225.85
422.43	2186.06
422.61	2258.62
422.80	2235.21
422.99	2270.32
423.18	2291.38
423.37	2209.47
423.56	2331.17
423.75	2132.23
423.94	2246.91
424.13	2169.68
424.32	2132.23
424.50	2321.81
424.69	2359.26
424.88	2359.26
425.07	2256.28
425.26	2272.66
425.45	2317.13
425.64	2193.08
425.83	2256.28
426.01	2459.90
426.20	2331.17
426.39	2284.36
426.58	2326.49
426.77	2256.28
426.96	2342.88
427.15	2396.71
427.33	2349.90
427.52	2368.62
427.71	2317.13
427.90	2387.35
428.09	2443.52
428.28	2455.22
428.46	2307.77
428.65	2450.54
428.84	2511.39
429.03	2609.70
429.22	2420.11
429.40	2523.10
429.59	2441.18
429.78	2492.67
429.97	2417.77
430.16	2525.44
430.34	2612.04
430.53	2504.37
430.72	2511.39
430.91	2546.50
431.10	2541.82
431.28	2619.06
431.47	2633.10
431.66	2633.10
431.85	2675.23
432.03	2722.04
432.22	2841.41
432.41	2679.91
432.60	2822.69
432.79	2670.55
432.97	2740.77
433.16	2829.71
433.35	2792.26
433.54	2726.72
433.72	2752.47
433.91	2895.24
434.10	2775.88
434.28	2876.52
434.47	2904.60
434.66	2869.50
434.85	2895.24
435.03	2928.01
435.22	3162.06
435.41	3276.75
435.59	3344.63
435.78	3297.81
435.97	3108.23
436.16	2913.97
436.34	3094.19
436.53	3002.91
436.72	3141.00
436.90	3068.44
437.09	3105.89
437.28	3066.10
437.46	2984.18
437.65	3145.68
437.84	3096.53
438.02	3007.59
438.21	3049.72
438.40	3070.78
438.58	3300.16
438.77	3286.11
438.96	3258.03
439.14	3218.24
439.33	3363.35
439.52	3286.11
439.70	3253.34
439.89	3424.20
440.08	3370.37
440.26	3459.31
440.45	3398.46
440.63	3597.40
440.82	3459.31
441.01	3541.23
441.19	3552.93
441.38	3620.81
441.57	3616.13
441.75	3520.17
441.94	3733.15
442.12	3775.28
442.31	3770.60
442.50	3660.60
442.68	3691.02
442.87	3609.11
443.05	3777.62
443.24	3763.58
443.43	3871.25
443.61	3864.22
443.80	3925.08
443.98	3772.94
444.17	3674.64
444.35	3756.56
444.54	3833.80
444.73	3885.29
444.91	3829.12
445.10	3904.01
445.28	3737.84
445.47	3976.57
445.65	3838.48
445.84	3892.31
446.02	3929.76
446.21	3742.52
446.39	3868.91
446.58	3854.86
446.77	3911.04
446.95	3754.22
447.14	3939.12
447.32	3950.82
447.51	3843.16
447.69	3920.40
447.88	3873.59
448.06	3824.44
448.25	3782.31
448.43	3971.89
448.62	3896.99
448.80	4007.00
448.99	4117.00
449.17	4133.39
449.36	4035.08
449.54	4011.68
449.73	4098.28
449.91	4187.22
450.10	4124.02
450.28	4124.02
450.46	4102.96
450.65	4189.56
450.83	4297.22
451.02	4109.98
451.20	4222.33
451.39	4255.09
451.57	4159.13
451.76	4093.60
451.94	4224.67
452.13	4285.52
452.31	4411.91
452.49	4374.46
452.68	4320.63
452.86	4285.52
453.05	4430.63
453.23	4248.07
453.42	4255.09
453.60	4327.65
453.78	4383.82
453.97	4182.54
454.15	4248.07
454.34	4308.93
454.52	4346.37
454.70	4444.68
454.89	4503.19
455.07	4283.18
455.26	4451.70
455.44	4587.45
455.62	4571.07
455.81	4463.40
455.99	4608.51
456.17	4629.58
456.36	4662.35
456.54	4669.37
456.73	4746.61
456.91	4952.57
457.09	4676.39
457.28	4882.36
457.46	4727.88
457.64	4957.25
457.83	4772.35
458.01	4774.69
458.19	4767.67
458.38	4746.61
458.56	4865.97
458.74	5036.83
458.93	4905.76
459.11	4851.93
459.29	4933.85
459.48	4910.44
459.66	4856.61
459.84	4912.78
460.03	5247.48
460.21	4950.23
460.39	5109.39
460.57	4971.30
460.76	5050.88
460.94	5046.20
461.12	5118.75
461.31	5090.67
461.49	5153.86
461.67	5076.62
461.85	5217.05
462.04	5172.58
462.22	5795.17
462.40	5205.35
462.59	5245.14
462.77	5397.28
462.95	5305.99
463.13	5343.44
463.32	5273.23
463.50	5378.55
463.68	5317.70
463.86	5359.83
464.05	5287.27
464.23	5401.96
464.41	5434.72
464.59	5383.23
464.78	5444.09
464.96	5474.51
465.14	5380.89
465.32	5469.83
465.50	5509.62
465.69	5509.62
465.87	5486.22
466.05	5423.02
466.23	5366.85
466.41	5408.98
466.60	5640.69
466.78	5460.47
466.96	5537.71
467.14	5619.63
467.32	5528.35
467.51	5659.42
467.69	5586.86
467.87	5596.22
468.05	5645.37
468.23	5675.80
468.41	5624.31
468.60	5694.52
468.78	5806.87
468.96	5767.08
469.14	5729.63
469.32	5818.57
469.50	5717.93
469.69	5954.32
469.87	6052.63
470.05	5980.07
470.23	5851.34
470.41	6019.86
470.59	6043.26
470.77	6134.54
470.95	6101.78
471.14	6092.41
471.32	5928.58
471.50	6200.08
471.68	6169.65
471.86	6221.14
472.04	6211.78
472.22	6253.91
472.40	6228.17
472.58	6129.86
472.77	6326.47
472.95	6548.82
473.13	6492.65
473.31	6305.40
473.49	6333.49
473.67	6347.53
473.85	6352.21
474.03	6555.84
474.21	6576.91
474.39	6640.10
474.57	6516.05
474.75	6803.94
474.93	6768.83
475.12	6775.85
475.30	6754.79
475.48	6588.61
475.66	6930.33
475.84	6785.21
476.02	6810.96
476.20	6920.96
476.38	7110.55
476.56	7126.93
476.74	7103.53
476.92	7234.60
477.10	7229.91
477.28	7396.09
477.46	7337.58
477.64	7375.03
477.82	7358.64
478.00	7382.05
478.18	7433.54
478.36	7653.55
478.54	7681.64
478.72	7702.70
478.90	7721.43
479.08	7653.55
479.26	7901.65
479.44	7990.59
479.62	8109.96
479.80	7854.84
479.98	8245.71
480.16	8266.77
480.34	8042.08
480.52	8461.04
480.70	8362.73
480.88	8102.93
481.06	8521.89
481.24	8390.82
481.41	8674.03
481.59	8638.92
481.77	8669.34
481.95	8634.24
482.13	8861.27
482.31	8837.86
482.49	8910.42
482.67	9001.70
482.85	9006.38
483.03	9270.86
483.21	9242.78
483.39	9284.91
483.57	9392.57
483.74	9415.98
483.92	9540.02
484.10	9511.94
484.28	9554.07
484.46	9921.53
484.64	9980.04
484.82	9626.62
485.00	9893.44
485.18	10218.78
485.35	10178.99
485.53	10176.65
485.71	10066.64
485.89	10190.69
486.07	10541.77
486.25	10476.24
486.43	10413.04
486.61	10757.10
486.78	10867.11
486.96	11030.94
487.14	11014.56
487.32	10977.11
487.50	10904.56
487.68	10782.85
487.85	11136.27
488.03	11580.97
488.21	11651.19
488.39	11351.60
488.57	11592.67
488.75	11571.61
488.92	11941.41
489.10	11864.18
489.28	11910.99
489.46	11929.71
489.64	12018.65
489.81	12334.62
489.99	12465.69
490.17	12442.29
490.35	12233.98
490.53	12482.08
490.70	12585.06
490.88	12631.87
491.06	12580.38
491.24	12751.24
491.41	12849.54
491.59	13102.32
491.77	13128.06
491.95	13191.26
492.13	13109.34
492.30	13425.31
492.48	13121.04
492.66	13252.11
492.84	13371.48
493.01	13523.62
493.19	13600.85
493.37	13715.54
493.54	13839.59
493.72	13891.08
493.90	13937.89
494.08	14005.77
494.25	14115.77
494.43	14370.89
494.61	14267.91
494.79	14324.08
494.96	14490.26
495.14	14452.81
495.32	14745.38
495.49	14689.20
495.67	14778.14
495.85	14937.30
496.02	15091.77
496.20	15112.84
496.38	15035.60
496.55	14860.06
496.73	15250.93
496.91	15279.02
497.09	15332.85
497.26	15496.69
497.44	15459.24
497.62	15744.78
497.79	15676.91
497.97	15714.36
498.14	15712.02
498.32	15969.48
498.50	16002.24
498.67	16049.05
498.85	16191.83
499.03	16098.20
499.20	16130.97
499.38	16203.53
499.56	16582.70
499.73	16615.46
499.91	16636.53
500.08	16875.26
500.26	16491.41
500.44	16570.99
500.61	16622.48
500.79	16833.13
500.97	17130.38
501.14	17301.24
501.32	17064.85
501.49	17198.26
501.67	16915.05
501.84	17118.68
502.02	17216.98
502.20	17172.51
502.37	17305.92
502.55	17612.53
502.72	17479.12
502.90	17296.56
503.07	17212.30
503.25	17544.66
503.43	17539.97
503.60	17589.13
503.78	17823.18
503.95	17579.76
504.13	17841.90
504.30	17874.67
504.48	17987.02
504.65	18279.58
504.83	18324.05
505.01	18361.50
505.18	18415.34
505.36	18384.91
505.53	18228.09
505.71	18120.43
505.88	18424.70
506.06	18310.01
506.23	18743.01
506.41	18544.06
506.58	18930.25
506.76	18457.46
506.93	18806.20
507.11	18249.16
507.28	18836.63
507.46	19119.84
507.63	18761.73
507.81	19442.83
507.98	19159.63
508.16	19335.17
508.33	19594.96
508.50	19482.62
508.68	19454.53
508.85	19637.09
509.03	19271.97
509.20	19693.27
509.38	19587.94
509.55	19253.25
509.73	19618.37
509.90	19932.00
510.08	19824.34
510.25	19833.70
510.42	19770.51
510.60	20016.26
510.77	20037.33
510.95	20348.62
511.12	19896.89
511.30	20070.09
511.47	20191.80
511.64	20505.43
511.82	20425.86
511.99	20465.64
512.17	20365.00
512.34	20255.00
512.51	20798.00
512.69	20449.26
512.86	20893.96
513.04	20952.48
513.21	20985.24
513.38	20896.30
513.56	21191.21
513.73	20919.71
513.90	20936.09
514.08	21207.59
514.25	21247.38
514.43	21212.28
514.60	21502.50
514.77	21355.05
514.95	21610.17
515.12	21268.45
515.29	21516.54
515.47	21259.09
515.64	21617.19
515.81	21666.34
515.99	21774.00
516.16	21816.13
516.33	22087.64
516.51	21956.57
516.68	21603.14
516.85	22036.14
517.03	22129.77
517.20	22218.71
517.37	21862.94
517.54	22157.85
517.72	22197.64
517.89	22185.94
518.06	22218.71
518.24	22363.82
518.41	22291.26
518.58	22520.63
518.75	22485.53
518.93	22710.22
519.10	22890.44
519.27	22600.21
519.45	22583.83
519.62	22874.06
519.79	22611.92
519.96	22934.91
520.14	22951.29
520.31	22801.50
520.48	23131.51
520.65	22927.89
520.83	23105.77
521.00	22796.82
521.17	23157.26
521.34	23274.29
521.52	23330.46
521.69	23370.25
521.86	23377.27
522.03	23358.55
522.20	23510.68
522.38	23630.05
522.55	23718.99
522.72	23407.70
522.89	23730.69
523.07	23810.27
523.24	23597.28
523.41	23737.71
523.58	23660.48
523.75	24105.18
523.92	23948.36
524.10	23873.46
524.27	24121.56
524.44	24217.52
524.61	24327.53
524.78	24304.12
524.96	24067.73
525.13	24439.87
525.30	24304.12
525.47	24425.83
525.64	24526.47
525.81	24442.21
525.98	25085.86
526.16	24479.66
526.33	24531.15
526.50	24903.30
526.67	24638.82
526.84	24687.97
527.01	24690.31
527.18	24678.61
527.36	25036.71
527.53	24847.13
527.70	24966.49
527.87	25174.80
528.04	25137.35
528.21	24826.06
528.38	25104.59
528.55	25177.14
528.72	25132.67
528.89	25415.88
529.07	24954.79
529.24	25139.69
529.41	25687.38
529.58	25310.55
529.75	25170.12
529.92	25188.85
530.09	25467.37
530.26	25460.35
530.43	25584.40
530.60	25383.11
530.77	25324.60
530.94	25568.01
531.11	25366.73
531.28	25553.97
531.46	25752.91
531.63	25895.69
531.80	25928.45
531.97	26038.46
532.14	26047.82
532.31	25703.76
532.48	25832.49
532.65	26153.15
532.82	25738.87
532.99	26022.08
533.16	26066.55
533.33	26405.92
533.50	26429.33
533.67	26438.69
533.84	25970.58
534.01	26218.68
534.18	26057.18
534.35	26654.02
534.52	26452.73
534.69	26574.44
534.86	26485.50
535.03	26691.47
535.20	26625.93
535.37	26658.70
535.54	26305.28
535.71	26529.97
535.88	26635.30
536.05	26717.22
536.22	26684.45
536.38	26639.98
536.55	26752.32
536.72	27101.06
536.89	26686.79
537.06	26852.97
537.23	26998.08
537.40	26796.79
537.57	27136.17
537.74	26867.01
537.91	27175.96
538.08	27374.91
538.25	27421.72
538.42	27428.74
538.59	27077.66
538.75	27054.25
538.92	27356.18
539.09	27412.35
539.26	27262.56
539.43	27016.80
539.60	27658.11
539.77	27487.25
539.94	27515.34
540.11	27901.53
540.28	27861.74
540.44	27976.42
540.61	27632.36
540.78	27988.13
540.95	27871.10
541.12	27744.71
541.29	28224.52
541.46	28327.50
541.62	27999.83
541.79	28428.15
541.96	27756.41
542.13	28257.29
542.30	27992.81
542.47	28437.51
542.63	28184.73
542.80	28800.29
542.97	28896.25
543.14	29057.75
543.31	28613.05
543.48	28404.74
543.64	28786.25
543.81	29027.32
543.98	28926.68
544.15	28907.96
544.32	28809.65
544.48	28910.30
544.65	28690.29
544.82	28456.23
544.99	28751.14
545.16	28889.23
545.32	28521.77
545.49	29329.25
545.66	29855.87
545.83	30038.44
546.00	30019.71
546.16	29944.81
546.33	28737.10
546.50	29039.03
546.67	28783.91
546.83	28877.53
547.00	29397.13
547.17	29097.54
547.34	29249.67
547.50	29095.20
547.67	29518.84
547.84	29504.79
548.00	29165.42
548.17	29387.77
548.34	29207.55
548.51	29539.90
548.67	29481.39
548.84	29591.39
549.01	29223.93
549.18	29668.63
549.34	29326.91
549.51	29137.33
549.68	28961.79
549.84	29193.50
550.01	29207.55
550.18	29181.80
550.34	29504.79
550.51	29689.70
550.68	29345.64
550.84	29296.49
551.01	29694.38
551.18	29221.59
551.34	29186.48
551.51	29521.18
551.68	29237.97
551.84	29757.57
552.01	29275.42
552.18	30080.56
552.34	29249.67
552.51	29757.57
552.68	29275.42
552.84	29663.95
553.01	30003.33
553.18	29305.85
553.34	29921.41
553.51	29811.40
553.67	30073.54
553.84	29940.13
554.01	29846.51
554.17	30033.75
554.34	29755.23
554.51	29738.85
554.67	30022.05
554.84	30157.80
555.00	30150.78
555.17	30066.52
555.33	30176.53
555.50	29879.28
555.67	30305.26
555.83	29968.22
556.00	30291.21
556.16	30277.17
556.33	29876.94
556.50	30085.25
556.66	30270.15
556.83	29998.65
556.99	30394.20
557.16	30113.33
557.32	30721.87
557.49	30157.80
557.65	30096.95
557.82	30068.86
557.98	30153.12
558.15	30110.99
558.32	29993.97
558.48	30534.63
558.65	30654.00
558.81	30485.48
558.98	29839.49
559.14	30541.65
559.31	30206.95
559.47	30433.99
559.64	30506.54
559.80	30366.11
559.97	30717.19
560.13	30361.43
560.30	30534.63
560.46	30684.42
560.63	30462.07
560.79	30534.63
560.96	30066.52
561.12	30405.90
561.29	30183.55
561.45	30719.53
561.61	30726.55
561.78	30675.06
561.94	30607.19
562.11	30518.25
562.27	30705.49
562.44	30593.14
562.60	30644.63
562.77	30546.33
562.93	30436.33
563.10	30717.19
563.26	30487.82
563.42	30775.70
563.59	30967.63
563.75	30895.07
563.92	30433.99
564.08	30506.54
564.24	30501.86
564.41	30689.10
564.57	30820.17
564.74	30663.36
564.90	30965.29
565.07	30705.49
565.23	30473.78
565.39	30979.33
565.56	30661.02
565.72	30518.25
565.88	30745.28
566.05	30632.93
566.21	30333.34
566.38	30616.55
566.54	30948.90
566.70	30714.85
566.87	31133.81
567.03	30941.88
567.19	31058.91
567.36	30827.20
567.52	30551.01
567.68	30693.79
567.85	30789.75
568.01	30546.33
568.17	30712.51
568.34	31084.65
568.50	31089.34
568.66	31051.89
568.83	30841.24
568.99	30698.47
569.15	31108.06
569.32	31089.34
569.48	30466.75
569.64	30866.98
569.81	30845.92
569.97	30951.24
570.13	30993.37
570.30	30881.03
570.46	31037.84
570.62	30920.82
570.78	30555.69
570.95	30932.52
571.11	30764.00
571.27	30810.81
571.43	30553.35
571.60	30874.01
571.76	31278.92
571.92	30972.31
572.09	30710.17
572.25	30995.71
572.41	31215.72
572.57	30984.01
572.74	30749.96
572.90	30890.39
573.06	30871.67
573.22	30869.33
573.38	30890.39
573.55	31033.16
573.71	31281.26
573.87	31337.43
574.03	30632.93
574.20	30831.88
574.36	31201.68
574.52	30955.93
574.68	31147.85
574.84	31094.02
575.01	31009.76
575.17	31145.51
575.33	31449.78
575.49	30930.18
575.65	31571.49
575.82	31136.15
575.98	31035.50
576.14	31442.76
576.30	31204.02
576.46	30768.68
576.62	30848.26
576.79	31229.77
576.95	30850.60
577.11	31433.39
577.27	31400.63
577.43	31021.46
577.59	31330.41
577.75	31154.87
577.92	31164.23
578.08	31098.70
578.24	30920.82
578.40	31157.21
578.56	31421.69
578.72	30998.06
578.88	31220.41
579.04	31538.72
579.21	31232.11
579.37	31126.78
579.53	31047.21
579.69	31058.91
579.85	31197.00
580.01	31384.24
580.17	30995.71
580.33	31395.95
580.49	31161.89
580.65	31122.10
580.82	31292.96
580.98	31068.27
581.14	31129.12
581.30	31164.23
581.46	31161.89
581.62	31082.31
581.78	30899.75
581.94	31323.39
582.10	30946.56
582.26	30890.39
582.42	31119.76
582.58	31342.11
582.74	31409.99
582.90	31316.37
583.06	31358.50
583.22	30951.24
583.38	31332.75
583.54	31150.19
583.70	31131.47
583.86	31285.94
584.02	30843.58
584.18	31522.34
584.34	31309.35
584.50	31725.96
584.66	31747.03
584.82	31075.29
584.98	31014.44
585.14	31065.93
585.30	31248.49
585.46	31388.92
585.62	31168.91
585.78	31175.94
585.94	31199.34
586.10	30822.51
586.26	31648.72
586.42	31393.61
586.58	31178.28
586.74	31054.23
586.90	30960.61
587.06	30995.71
587.22	31515.31
587.38	31112.74
587.54	31550.42
587.70	31725.96
587.86	31063.59
588.02	31845.33
588.18	31398.29
588.34	31164.23
588.49	31119.76
588.65	31171.25
588.81	30967.63
588.97	31143.17
589.13	31208.70
589.29	31489.57
589.45	31314.03
589.61	31089.34
589.77	31552.76
589.93	31332.75
590.08	31587.87
590.24	31412.33
590.40	31445.10
590.56	31758.73
590.72	31117.42
590.88	31307.01
591.04	31168.91
591.20	31489.57
591.35	31737.66
591.51	31498.93
591.67	31276.58
591.83	31709.58
