SpectraSuite Data File
++++++++++++++++++++++++++++++++++++
Date: Fri Oct 04 11:39:17 GMT-05:00 2013
User: price-jones
Dark Spectrum Present: No
Reference Spectrum Present: No
Number of Sampled Component Spectra: 1
Spectrometers: USB2+H05261
Integration Time (usec): 100000 (USB2+H05261)
Spectra Averaged: 1 (USB2+H05261)
Boxcar Smoothing: 0 (USB2+H05261)
Correct for Electrical Dark: No (USB2+H05261)
Strobe/Lamp Enabled: No (USB2+H05261)
Correct for Detector Non-linearity: No (USB2+H05261)
Correct for Stray Light: No (USB2+H05261)
Number of Pixels in Processed Spectrum: 2048
>>>>>Begin Processed Spectral Data<<<<<
365.73	53.83
365.92	53.83
366.12	53.83
366.32	56.17
366.52	0.00
366.72	0.00
366.91	0.00
367.11	0.00
367.31	0.00
367.51	0.00
367.70	0.00
367.90	0.00
368.10	0.00
368.30	0.00
368.49	0.00
368.69	0.00
368.89	0.00
369.09	0.00
369.28	7.02
369.48	0.00
369.68	7.02
369.87	0.00
370.07	18.72
370.27	25.75
370.47	63.19
370.66	264.48
370.86	238.73
371.06	292.57
371.25	259.80
371.45	262.14
371.65	304.27
371.84	285.55
372.04	196.60
372.24	248.10
372.44	264.48
372.63	294.91
372.83	280.86
373.03	348.74
373.22	255.12
373.42	297.25
373.62	276.18
373.81	353.42
374.01	379.17
374.21	386.19
374.40	353.42
374.60	379.17
374.79	339.38
374.99	285.55
375.19	327.68
375.38	407.25
375.58	360.44
375.78	402.57
375.97	472.79
376.17	463.43
376.37	388.53
376.56	365.12
376.76	423.64
376.95	388.53
377.15	416.62
377.35	402.57
377.54	390.87
377.74	334.70
377.93	400.23
378.13	416.62
378.33	390.87
378.52	397.89
378.72	404.91
378.91	430.66
379.11	390.87
379.31	409.59
379.50	315.97
379.70	489.17
379.89	425.98
380.09	500.87
380.28	372.15
380.48	414.27
380.68	397.89
380.87	393.21
381.07	437.68
381.26	468.11
381.46	510.24
381.65	400.23
381.85	416.62
382.04	479.81
382.24	479.81
382.43	463.43
382.63	395.55
382.83	423.64
383.02	528.96
383.22	470.45
383.41	440.02
383.61	505.56
383.80	552.37
384.00	510.24
384.19	491.51
384.39	397.89
384.58	540.66
384.78	505.56
384.97	496.19
385.17	507.90
385.36	470.45
385.56	524.28
385.75	479.81
385.95	552.37
386.14	545.34
386.34	510.24
386.53	594.50
386.72	514.92
386.92	606.20
387.11	585.13
387.31	531.30
387.50	545.34
387.70	540.66
387.89	514.92
388.09	547.69
388.28	524.28
388.48	585.13
388.67	603.86
388.86	519.60
389.06	606.20
389.25	650.67
389.45	629.60
389.64	629.60
389.84	624.92
390.03	613.22
390.22	704.50
390.42	678.76
390.61	566.41
390.81	543.00
391.00	671.73
391.19	603.86
391.39	601.52
391.58	758.33
391.78	655.35
391.97	669.39
392.16	620.24
392.36	751.31
392.55	779.40
392.75	800.46
392.94	683.44
393.13	739.61
393.33	748.97
393.52	755.99
393.71	748.97
393.91	732.59
394.10	678.76
394.29	692.80
394.49	793.44
394.68	720.88
394.88	798.12
395.07	788.76
395.26	737.27
395.46	807.48
395.65	770.04
395.84	751.31
396.04	929.19
396.23	856.64
396.42	814.51
396.62	861.32
396.81	901.11
397.00	814.51
397.19	903.45
397.39	842.59
397.58	976.00
397.77	889.40
397.97	915.15
398.16	1001.75
398.35	915.15
398.55	898.77
398.74	812.17
398.93	973.66
399.12	802.80
399.32	999.41
399.51	964.30
399.70	1032.18
399.90	1015.79
400.09	1022.81
400.28	1011.11
400.47	880.04
400.67	1071.97
400.86	978.34
401.05	1067.28
401.24	1053.24
401.44	1102.39
401.63	1053.24
401.82	1090.69
402.01	1064.94
402.21	1020.47
402.40	1076.65
402.59	1123.46
402.78	1100.05
402.97	1074.31
403.17	1109.41
403.36	1177.29
403.55	1221.76
403.74	1217.08
403.93	1254.53
404.13	1277.93
404.32	1231.12
404.51	1261.55
404.70	1275.59
404.89	1320.06
405.09	1263.89
405.28	1263.89
405.47	1252.19
405.66	1233.46
405.85	1394.96
406.05	1296.66
406.24	1287.29
406.43	1280.27
406.62	1369.21
406.81	1434.75
407.00	1399.64
407.20	1306.02
407.39	1469.86
407.58	1509.65
407.77	1460.49
407.96	1511.99
408.15	1530.71
408.34	1507.30
408.54	1458.15
408.73	1519.01
408.92	1502.62
409.11	1570.50
409.30	1603.27
409.49	1591.56
409.68	1612.63
409.87	1685.19
410.07	1661.78
410.26	1661.78
410.45	1647.74
410.64	1816.26
410.83	1783.49
411.02	1715.61
411.21	1703.91
411.40	1710.93
411.59	1743.70
411.78	1839.66
411.98	1790.51
412.17	1916.90
412.36	1788.17
412.55	1844.34
412.74	1942.64
412.93	1989.46
413.12	1865.41
413.31	2071.37
413.50	2047.97
413.69	1984.77
413.88	1998.82
414.07	2015.20
414.26	2062.01
414.45	2045.63
414.64	2129.89
414.83	2066.69
415.02	2125.21
415.22	2200.10
415.41	2403.73
415.60	2214.15
415.79	2305.43
415.98	2253.94
416.17	2246.91
416.36	2317.13
416.55	2345.22
416.74	2420.11
416.93	2349.90
417.12	2246.91
417.31	2385.01
417.50	2382.67
417.69	2523.10
417.88	2504.37
418.07	2499.69
418.26	2464.58
418.45	2520.76
418.64	2497.35
418.83	2480.97
419.02	2684.59
419.21	2696.30
419.39	2801.62
419.58	2518.42
419.77	2530.12
419.96	2733.75
420.15	2635.44
420.34	2670.55
420.53	2696.30
420.72	2930.35
420.91	2717.36
421.10	2719.70
421.29	2834.39
421.48	2738.43
421.67	2878.86
421.86	2778.22
422.05	2822.69
422.24	2745.45
422.43	2876.52
422.61	2796.94
422.80	2977.16
422.99	2967.80
423.18	3112.91
423.37	2981.84
423.56	2916.31
423.75	2759.49
423.94	2813.32
424.13	2726.72
424.32	2787.58
424.50	2946.73
424.69	2993.55
424.88	2963.12
425.07	2928.01
425.26	2899.92
425.45	2850.77
425.64	3052.06
425.83	3000.57
426.01	3136.32
426.20	3047.38
426.39	3047.38
426.58	2988.86
426.77	3019.29
426.96	3103.55
427.15	3150.36
427.33	2960.78
427.52	2965.46
427.71	3141.00
427.90	3049.72
428.09	3136.32
428.28	3276.75
428.46	3159.72
428.65	3215.90
428.84	3148.02
429.03	3318.88
429.22	3356.33
429.40	3239.30
429.59	3318.88
429.78	3136.32
429.97	3108.23
430.16	3162.06
430.34	3391.44
430.53	3440.59
430.72	3342.28
430.91	3251.00
431.10	3361.01
431.28	3517.83
431.47	3506.12
431.66	3417.18
431.85	3396.12
432.03	3538.89
432.22	3634.85
432.41	3524.85
432.60	3552.93
432.79	3571.66
432.97	3552.93
433.16	3508.46
433.35	3545.91
433.54	3684.00
433.72	3784.65
433.91	3733.15
434.10	3765.92
434.28	3779.97
434.47	3637.19
434.66	3681.66
434.85	3772.94
435.03	3831.46
435.22	4021.04
435.41	4198.92
435.59	4084.23
435.78	4021.04
435.97	4025.72
436.16	3836.14
436.34	3896.99
436.53	3960.19
436.72	4021.04
436.90	3971.89
437.09	4011.68
437.28	3845.50
437.46	3997.64
437.65	3995.29
437.84	4044.45
438.02	4018.70
438.21	4056.15
438.40	3906.35
438.58	4208.28
438.77	4344.03
438.96	4121.68
439.14	4175.52
439.33	4205.94
439.52	4346.37
439.70	4294.88
439.89	4297.22
440.08	4229.35
440.26	4465.74
440.45	4397.87
440.63	4550.00
440.82	4514.89
441.01	4491.49
441.19	4496.17
441.38	4657.67
441.57	4493.83
441.75	4592.13
441.94	4704.48
442.12	4589.79
442.31	4821.50
442.50	4716.18
442.68	4699.80
442.87	4805.12
443.05	4870.65
443.24	4968.96
443.43	4812.14
443.61	4856.61
443.80	5163.22
443.98	5008.75
444.17	4685.75
444.35	4891.72
444.54	4952.57
444.73	5055.56
444.91	5095.35
445.10	4884.70
445.28	5053.22
445.47	4795.76
445.65	4952.57
445.84	4889.38
446.02	5057.90
446.21	4968.96
446.39	5118.75
446.58	4990.02
446.77	5137.48
446.95	4940.87
447.14	5032.15
447.32	4978.32
447.51	5144.50
447.69	5160.88
447.88	5085.98
448.06	5067.26
448.25	5188.97
448.43	5221.74
448.62	5228.76
448.80	5109.39
448.99	5149.18
449.17	5235.78
449.36	5128.11
449.54	5289.61
449.73	5266.21
449.91	5458.13
450.10	5385.57
450.28	5467.49
450.46	5383.23
450.65	5411.32
450.83	5458.13
451.02	5486.22
451.20	5378.55
451.39	5495.58
451.57	5406.64
451.76	5348.12
451.94	5434.72
452.13	5743.67
452.31	5680.48
452.49	5511.96
452.68	5504.94
452.86	5638.35
453.05	5743.67
453.23	5760.06
453.42	5556.43
453.60	5614.95
453.78	5631.33
453.97	5537.71
454.15	5565.79
454.34	5664.10
454.52	5806.87
454.70	5830.27
454.89	5818.57
455.07	5790.49
455.26	5788.14
455.44	6015.18
455.62	5877.09
455.81	5909.85
455.99	5947.30
456.17	5870.06
456.36	6106.46
456.54	6136.88
456.73	6090.07
456.91	6090.07
457.09	6078.37
457.28	6422.43
457.46	6174.33
457.64	6373.28
457.83	6321.79
458.01	6209.44
458.19	6312.42
458.38	6279.66
458.56	6392.00
458.74	6356.90
458.93	6413.07
459.11	6352.21
459.29	6487.96
459.48	6502.01
459.66	6614.35
459.84	6649.46
460.03	6516.05
460.21	6506.69
460.39	6516.05
460.57	6499.67
460.76	6537.12
460.94	6703.29
461.12	6703.29
461.31	6682.23
461.49	6579.25
461.67	6719.68
461.85	6981.82
462.04	6920.96
462.22	7173.74
462.40	6874.15
462.59	6899.90
462.77	6995.86
462.95	6808.62
463.13	6913.94
463.32	6920.96
463.50	6909.26
463.68	6890.54
463.86	6895.22
464.05	6951.39
464.23	6988.84
464.41	7026.29
464.59	6810.96
464.78	7229.91
464.96	7059.06
465.14	7063.74
465.32	7250.98
465.50	7342.26
465.69	7293.11
465.87	7052.03
466.05	7262.68
466.23	7393.75
466.41	7297.79
466.60	7585.68
466.78	7365.67
466.96	7208.85
467.14	7412.48
467.32	7400.77
467.51	7433.54
467.69	7103.53
467.87	7389.07
468.05	7662.91
468.23	7428.86
468.41	7344.60
468.60	7552.91
468.78	7522.48
468.96	7644.19
469.14	7779.94
469.32	7693.34
469.50	7417.16
469.69	7665.25
469.87	7588.02
470.05	7896.97
470.23	7737.81
470.41	7779.94
470.59	7803.35
470.77	7672.28
470.95	7967.18
471.14	8021.02
471.32	7971.86
471.50	8138.04
471.68	8138.04
471.86	7985.91
472.04	8086.55
472.22	8313.58
472.40	8051.44
472.58	8166.13
472.77	8121.66
472.95	8360.39
473.13	8669.34
473.31	8505.51
473.49	8411.89
473.67	8659.98
473.85	8505.51
474.03	8601.47
474.21	8561.68
474.39	8699.77
474.57	8816.80
474.75	9018.08
474.93	9029.79
475.12	8786.37
475.30	8812.12
475.48	9004.04
475.66	9043.83
475.84	9153.84
476.02	9100.00
476.20	9188.94
476.38	9231.07
476.56	9408.95
476.74	9350.44
476.92	9270.86
477.10	9390.23
477.28	9664.07
477.46	9563.43
477.64	9654.71
477.82	9631.30
478.00	10045.58
478.18	9706.20
478.36	9984.73
478.54	9895.78
478.72	10003.45
478.90	10174.31
479.08	10279.63
479.26	10464.54
479.44	10588.58
479.62	10649.44
479.80	10611.99
479.98	10663.48
480.16	10890.51
480.34	10806.25
480.52	11042.65
480.70	11159.67
480.88	10810.93
481.06	11098.82
481.24	11171.38
481.41	11372.66
481.59	11414.79
481.77	11662.89
481.95	11419.47
482.13	11716.72
482.31	11836.09
482.49	11810.34
482.67	12114.61
482.85	12074.82
483.03	12318.24
483.21	12131.00
483.39	12430.59
483.57	12451.65
483.74	12533.57
483.92	12746.56
484.10	12458.67
484.28	12769.96
484.46	12996.99
484.64	13401.91
484.82	13083.59
485.00	13327.01
485.18	13582.13
485.35	13521.27
485.53	13289.56
485.71	13853.63
485.89	13785.76
486.07	14017.47
486.25	13781.07
486.43	14193.01
486.61	14263.22
486.78	14335.78
486.96	14410.68
487.14	14352.16
487.32	14595.58
487.50	14871.76
487.68	14672.82
487.85	15119.86
488.03	14850.70
488.21	15501.37
488.39	15150.29
488.57	15374.98
488.75	15487.32
488.92	15686.27
489.10	15843.09
489.28	16049.05
489.46	16154.38
489.64	16112.25
489.81	16173.10
489.99	16308.85
490.17	16343.96
490.35	16702.06
490.53	16657.59
490.70	16739.51
490.88	16840.15
491.06	16957.18
491.24	17011.01
491.41	17221.66
491.59	17172.51
491.77	17329.33
491.95	17516.57
492.13	17657.00
492.30	17834.88
492.48	17738.92
492.66	17752.96
492.84	17776.37
493.01	18188.30
493.19	18216.39
493.37	18574.49
493.54	18560.45
493.72	18530.02
493.90	18637.69
494.08	18623.64
494.25	19000.47
494.43	19143.24
494.61	19101.11
494.79	19344.53
494.96	19239.20
495.14	19365.59
495.32	19665.18
495.49	19646.46
495.67	19878.17
495.85	19908.60
496.02	19768.16
496.20	19681.56
496.38	20194.14
496.55	20107.54
496.73	20685.65
496.91	20744.17
497.09	20814.38
497.26	20915.03
497.44	20854.17
497.62	20767.57
497.79	21062.48
497.97	21041.42
498.14	20919.71
498.32	21553.99
498.50	21362.07
498.67	21729.53
498.85	21504.84
499.03	21741.24
499.20	21872.31
499.38	21591.44
499.56	22043.17
499.73	22078.27
499.91	22141.47
500.08	22464.46
500.26	21965.93
500.44	22221.05
500.61	22572.13
500.79	22630.64
500.97	22761.71
501.14	22792.14
501.32	22649.36
501.49	22637.66
501.67	22951.29
501.84	22782.77
502.02	22845.97
502.20	23260.24
502.37	23445.15
502.55	23461.53
502.72	23367.91
502.90	23711.97
503.07	23255.56
503.25	23428.76
503.43	23498.98
503.60	23594.94
503.78	23976.45
503.95	23985.81
504.13	23578.56
504.30	24212.84
504.48	23545.79
504.65	24079.43
504.83	24524.13
505.01	24486.68
505.18	24524.13
505.36	24765.21
505.53	24524.13
505.71	24629.46
505.88	24898.62
506.06	24393.06
506.23	24987.56
506.41	24606.05
506.58	25151.40
506.76	25062.46
506.93	25280.13
507.11	25109.27
507.28	25523.54
507.46	25518.86
507.63	25359.70
507.81	25415.88
507.98	25392.47
508.16	25865.26
508.33	25575.03
508.50	26010.37
508.68	25851.22
508.85	26239.75
509.03	26143.78
509.20	26642.32
509.38	26476.14
509.55	26279.54
509.73	26693.81
509.90	26719.56
510.08	26595.51
510.25	26586.15
510.42	26480.82
510.60	27154.90
510.77	27019.14
510.95	27199.37
511.12	26604.87
511.30	26991.06
511.47	27063.61
511.64	27255.54
511.82	27763.43
511.99	27505.98
512.17	27452.14
512.34	27828.97
512.51	27604.28
512.69	28067.70
512.86	27674.49
513.04	28217.50
513.21	27709.60
513.38	28355.59
513.56	28332.18
513.73	27950.68
513.90	28313.46
514.08	28390.70
514.25	28374.31
514.43	28589.64
514.60	28648.16
514.77	28868.17
514.95	28907.96
515.12	28744.12
515.29	28872.85
515.47	28762.84
515.64	29413.51
515.81	28367.29
515.99	29394.79
516.16	29479.05
516.33	29598.41
516.51	29385.43
516.68	29097.54
516.85	29289.46
517.03	29532.88
517.20	29502.45
517.37	29542.24
517.54	29823.11
517.72	30005.67
517.89	29816.08
518.06	29539.90
518.24	29575.01
518.41	29991.62
518.58	30298.23
518.75	29731.83
518.93	30169.51
519.10	30302.92
519.27	30415.26
519.45	29876.94
519.62	30321.64
519.79	30471.43
519.96	30939.54
520.14	30597.82
520.31	30817.83
520.48	31079.97
520.65	31063.59
520.83	31236.79
521.00	31541.06
521.17	31271.90
521.34	31026.14
521.52	31538.72
521.69	31620.64
521.86	31218.07
522.03	31695.53
522.20	31924.91
522.38	31166.57
522.55	31627.66
522.72	31690.85
522.89	31466.16
523.07	32222.16
523.24	31838.31
523.41	32381.31
523.58	31882.78
523.75	31967.04
523.92	31864.05
524.10	31894.48
524.27	32526.42
524.44	32088.74
524.61	32732.39
524.78	32596.64
524.96	32355.57
525.13	32669.20
525.30	32921.98
525.47	32758.14
525.64	33127.94
525.81	32769.84
525.98	33378.38
526.16	33181.77
526.33	33146.67
526.50	33539.88
526.67	32900.91
526.84	33303.48
527.01	33251.99
527.18	33425.19
527.36	33268.37
527.53	33610.09
527.70	33769.25
527.87	33699.03
528.04	33670.95
528.21	33610.09
528.38	33666.27
528.55	33731.80
528.72	34192.89
528.89	33556.26
529.07	33867.55
529.24	34134.37
529.41	34211.61
529.58	34125.01
529.75	33823.08
529.92	34132.03
530.09	34054.79
530.26	34473.75
530.43	34450.35
530.60	34171.82
530.77	34265.44
530.94	34712.49
531.11	34403.53
531.28	34204.59
531.46	34141.39
531.63	34567.37
531.80	34623.54
531.97	35065.91
532.14	35255.49
532.31	34841.21
532.48	35166.55
532.65	35159.53
532.82	34792.06
532.99	35204.00
533.16	34944.20
533.33	35491.88
533.50	35491.88
533.67	35557.42
533.84	35222.72
534.01	35084.63
534.18	35243.79
534.35	35564.44
534.52	35599.55
534.69	35611.25
534.86	35894.46
535.03	35384.22
535.20	35796.15
535.37	35618.27
535.54	35634.66
535.71	35463.80
535.88	36112.13
536.05	35931.90
536.22	36329.80
536.38	36453.84
536.55	36025.53
536.72	36460.87
536.89	36299.37
537.06	36418.74
537.23	36261.92
537.40	36208.09
537.57	36280.64
537.74	36673.85
537.91	36528.74
538.08	37001.53
538.25	36315.75
538.42	36889.18
538.59	36781.52
538.75	36971.10
538.92	36947.70
539.09	37036.64
539.26	36865.78
539.43	37160.69
539.60	37017.91
539.77	37158.34
539.94	37258.99
540.11	37717.73
540.28	37371.33
540.44	37156.00
540.61	37530.49
540.78	36947.70
540.95	37500.06
541.12	37532.83
541.29	37612.41
541.46	37631.13
541.62	37736.46
541.79	38064.13
541.96	37670.92
542.13	37804.33
542.30	37860.51
542.47	38335.63
542.63	38295.85
542.80	38595.43
542.97	38373.08
543.14	38941.83
543.31	38342.66
543.48	38504.15
543.64	38834.17
543.81	38773.31
543.98	38841.19
544.15	38506.49
544.32	39065.88
544.48	38759.27
544.65	38675.01
544.82	38906.73
544.99	38611.82
545.16	39042.48
545.32	38976.94
545.49	39351.43
545.66	39566.76
545.83	39983.37
546.00	39634.63
546.16	39466.11
546.33	39077.58
546.50	38677.35
546.67	39126.74
546.83	38937.15
547.00	38817.78
547.17	39187.59
547.34	39227.38
547.50	39248.44
547.67	39164.18
547.84	39203.97
548.00	39260.15
548.17	39367.81
548.34	39491.86
548.51	39772.72
548.67	39796.13
548.84	39405.26
549.01	39566.76
549.18	39063.54
549.34	39302.28
549.51	39512.92
549.68	39250.78
549.84	39955.29
550.01	39620.59
550.18	39819.53
550.34	39964.65
550.51	40002.10
550.68	39758.68
550.84	39487.18
551.01	39756.34
551.18	39526.97
551.34	39714.21
551.51	40161.25
551.68	40182.32
551.84	40025.50
552.01	40037.20
552.18	39903.79
552.34	39770.38
552.51	39983.37
552.68	39859.32
552.84	39864.00
553.01	40229.13
553.18	40168.27
553.34	40135.51
553.51	40297.00
553.67	40582.55
553.84	40655.11
554.01	40704.26
554.17	40142.53
554.34	40374.24
554.51	40119.12
554.67	40512.33
554.84	40205.72
555.00	40577.87
555.17	40617.66
555.33	40671.49
555.50	40804.90
555.67	40739.36
555.83	40893.84
556.00	40952.35
556.16	40837.67
556.33	40318.07
556.50	41207.47
556.66	40765.11
556.83	40577.87
556.99	41198.11
557.16	41181.73
557.32	41141.94
557.49	41383.01
557.65	41308.11
557.82	41013.21
557.98	40870.43
558.15	41139.60
558.32	41207.47
558.48	41137.26
558.65	41326.84
558.81	41186.41
558.98	41219.17
559.14	41680.26
559.31	40987.46
559.47	41071.72
559.64	41645.15
559.80	41212.15
559.97	41476.63
560.13	41111.51
560.30	41486.00
560.46	41584.30
560.63	41682.60
560.79	41322.16
560.96	41511.74
561.12	41233.22
561.29	41404.08
561.45	41298.75
561.61	41521.10
561.78	41963.46
561.94	41361.95
562.11	41790.27
562.27	41544.51
562.44	41780.90
562.60	41783.24
562.77	41450.89
562.93	41818.35
563.10	41783.24
563.26	41904.95
563.42	42052.41
563.59	42253.69
563.75	42157.73
563.92	41734.09
564.08	41799.63
564.24	41858.14
564.41	41832.39
564.57	41897.93
564.74	41474.29
564.90	42092.19
565.07	41954.10
565.23	41911.97
565.39	41794.95
565.56	41921.34
565.72	41965.81
565.88	42351.99
566.05	41738.77
566.21	41776.22
566.38	42071.13
566.54	42192.84
566.70	42733.50
566.87	42682.01
567.03	41956.44
567.19	42548.60
567.36	42106.24
567.52	42185.82
567.68	42286.46
567.85	42050.06
568.01	42462.00
568.17	41766.86
568.34	42476.04
568.50	42672.65
568.66	41968.15
568.83	42569.66
568.99	42319.23
569.15	42120.28
569.32	42143.69
569.48	41862.82
569.64	42244.33
569.81	42323.91
569.97	41970.49
570.13	42630.52
570.30	42146.03
570.46	42370.72
570.62	42087.51
570.78	42368.38
570.95	42195.18
571.11	42789.67
571.27	41991.55
571.43	42256.03
571.60	42564.98
571.76	42707.76
571.92	42967.55
572.09	42653.92
572.25	42719.46
572.41	42415.19
572.57	42302.84
572.74	42733.50
572.90	42293.48
573.06	42462.00
573.22	42649.24
573.38	42370.72
573.55	42412.85
573.71	43005.00
573.87	43115.01
574.03	42745.20
574.20	42628.18
574.36	42454.98
574.52	42628.18
574.68	42550.94
574.84	42480.72
575.01	42494.77
575.17	42824.78
575.33	42281.78
575.49	42707.76
575.65	42986.28
575.82	42607.11
575.98	42344.97
576.14	43405.23
576.30	42742.86
576.46	42761.59
576.62	43026.07
576.79	42810.74
576.95	42462.00
577.11	42616.47
577.27	42747.54
577.43	42871.59
577.59	42820.10
577.75	42911.38
577.92	42644.56
578.08	42777.97
578.24	42602.43
578.40	42649.24
578.56	43077.56
578.72	42649.24
578.88	43016.71
579.04	43325.66
579.21	42618.81
579.37	42906.70
579.53	43377.15
579.69	42787.33
579.85	42653.92
580.01	42485.40
580.17	42363.70
580.33	42738.18
580.49	42810.74
580.65	43292.89
580.82	42780.31
580.98	42932.45
581.14	42738.18
581.30	43096.28
581.46	42988.62
581.62	43044.79
581.78	42677.33
581.94	43318.64
582.10	42803.72
582.26	42997.98
582.42	42763.93
582.58	43007.34
582.74	42759.25
582.90	43122.03
583.06	43040.11
583.22	43203.95
583.38	43615.88
583.54	43349.06
583.70	43056.50
583.86	43349.06
584.02	42806.06
584.18	43292.89
584.34	43349.06
584.50	43115.01
584.66	43089.26
584.82	42988.62
584.98	43325.66
585.14	43201.61
585.30	43189.91
585.46	42883.30
585.62	43002.66
585.78	43264.80
585.94	43325.66
586.10	43145.44
586.26	43599.50
586.42	43885.04
586.58	43463.75
586.74	42976.92
586.90	42981.60
587.06	42773.29
587.22	43129.05
587.38	42873.93
587.54	43189.91
587.70	43650.99
587.86	43257.78
588.02	43672.06
588.18	43531.62
588.34	43409.92
588.49	43468.43
588.65	43222.67
588.81	43021.39
588.97	43091.60
589.13	42960.53
589.29	43225.01
589.45	43536.30
589.61	43178.20
589.77	43604.18
589.93	43501.20
590.08	43618.22
590.24	43924.83
590.40	43831.21
590.56	43887.39
590.72	43840.57
590.88	43042.45
591.04	43833.55
