SpectraSuite Data File
++++++++++++++++++++++++++++++++++++
Date: Fri Oct 04 11:39:18 GMT-05:00 2013
User: price-jones
Dark Spectrum Present: No
Reference Spectrum Present: No
Number of Sampled Component Spectra: 1
Spectrometers: USB2+H05261
Integration Time (usec): 100000 (USB2+H05261)
Spectra Averaged: 1 (USB2+H05261)
Boxcar Smoothing: 0 (USB2+H05261)
Correct for Electrical Dark: No (USB2+H05261)
Strobe/Lamp Enabled: No (USB2+H05261)
Correct for Detector Non-linearity: No (USB2+H05261)
Correct for Stray Light: No (USB2+H05261)
Number of Pixels in Processed Spectrum: 2048
>>>>>Begin Processed Spectral Data<<<<<
365.73	0.00
365.92	0.00
366.12	0.00
366.32	0.00
366.52	0.00
366.72	0.00
366.91	0.00
367.11	0.00
367.31	0.00
367.51	0.00
367.70	0.00
367.90	0.00
368.10	0.00
368.30	0.00
368.49	0.00
368.69	0.00
368.89	0.00
369.09	0.00
369.28	0.00
369.48	0.00
369.68	0.00
369.87	72.56
370.07	0.00
370.27	86.60
370.47	84.26
370.66	177.88
370.86	194.26
371.06	259.80
371.25	315.97
371.45	269.16
371.65	325.33
371.84	304.27
372.04	290.23
372.24	276.18
372.44	339.38
372.63	367.46
372.83	423.64
373.03	325.33
373.22	348.74
373.42	325.33
373.62	393.21
373.81	383.85
374.01	325.33
374.21	339.38
374.40	430.66
374.60	344.06
374.79	294.91
374.99	348.74
375.19	411.93
375.38	388.53
375.58	437.68
375.78	381.51
375.97	332.36
376.17	433.00
376.37	416.62
376.56	447.04
376.76	428.32
376.95	404.91
377.15	383.85
377.35	416.62
377.54	409.59
377.74	358.10
377.93	374.49
378.13	374.49
378.33	451.72
378.52	383.85
378.72	409.59
378.91	430.66
379.11	425.98
379.31	393.21
379.50	437.68
379.70	472.79
379.89	442.36
380.09	486.83
380.28	418.96
380.48	503.22
380.68	454.06
380.87	418.96
381.07	456.40
381.26	498.53
381.46	528.96
381.65	521.94
381.85	477.47
382.04	456.40
382.24	552.37
382.43	433.00
382.63	505.56
382.83	500.87
383.02	482.15
383.22	503.22
383.41	491.51
383.61	500.87
383.80	465.77
384.00	470.45
384.19	418.96
384.39	507.90
384.58	550.03
384.78	477.47
384.97	561.73
385.17	550.03
385.36	526.62
385.56	589.82
385.75	596.84
385.95	517.26
386.14	622.58
386.34	573.43
386.53	575.77
386.72	528.96
386.92	557.05
387.11	596.84
387.31	594.50
387.50	559.39
387.70	613.22
387.89	547.69
388.09	592.16
388.28	631.94
388.48	643.65
388.67	730.25
388.86	624.92
389.06	674.07
389.25	620.24
389.45	746.63
389.64	669.39
389.84	641.31
390.03	638.97
390.22	727.91
390.42	711.52
390.61	603.86
390.81	636.63
391.00	622.58
391.19	727.91
391.39	662.37
391.58	706.84
391.78	655.35
391.97	744.29
392.16	802.80
392.36	720.88
392.55	751.31
392.75	737.27
392.94	791.10
393.13	767.70
393.33	697.48
393.52	748.97
393.71	823.87
393.91	788.76
394.10	791.10
394.29	800.46
394.49	774.72
394.68	777.06
394.88	833.23
395.07	781.74
395.26	840.25
395.46	744.29
395.65	924.51
395.84	753.65
396.04	954.94
396.23	777.06
396.42	835.57
396.62	856.64
396.81	901.11
397.00	910.47
397.19	919.83
397.39	849.61
397.58	912.81
397.77	887.06
397.97	882.38
398.16	919.83
398.35	891.74
398.55	1022.81
398.74	950.26
398.93	936.21
399.12	959.62
399.32	1004.09
399.51	983.02
399.70	1060.26
399.90	1013.45
400.09	1078.99
400.28	1081.33
400.47	1008.77
400.67	1167.93
400.86	1048.56
401.05	1095.37
401.24	1198.35
401.44	1050.90
401.63	1139.84
401.82	1095.37
402.01	1050.90
402.21	1160.91
402.40	1135.16
402.59	1100.05
402.78	1221.76
402.97	1228.78
403.17	1221.76
403.36	1275.59
403.55	1217.08
403.74	1198.35
403.93	1249.85
404.13	1336.45
404.32	1345.81
404.51	1273.25
404.70	1301.34
404.89	1252.19
405.09	1341.13
405.28	1299.00
405.47	1373.89
405.66	1301.34
405.85	1425.39
406.05	1376.24
406.24	1364.53
406.43	1430.07
406.62	1446.45
406.81	1366.87
407.00	1511.99
407.20	1409.00
407.39	1460.49
407.58	1537.73
407.77	1493.26
407.96	1502.62
408.15	1540.07
408.34	1488.58
408.54	1554.12
408.73	1533.05
408.92	1586.88
409.11	1652.42
409.30	1645.40
409.49	1760.08
409.68	1687.53
409.87	1596.25
410.07	1760.08
410.26	1659.44
410.45	1701.57
410.64	1708.59
410.83	1778.81
411.02	1842.00
411.21	1834.98
411.40	1842.00
411.59	1863.07
411.78	1881.79
411.98	1853.70
412.17	1982.43
412.36	1877.11
412.55	1980.09
412.74	1975.41
412.93	2001.16
413.12	1944.99
413.31	2047.97
413.50	2071.37
413.69	2167.34
413.88	2127.55
414.07	2101.80
414.26	2118.18
414.45	2214.15
414.64	2204.78
414.83	2221.17
415.02	2249.25
415.22	2359.26
415.41	2305.43
415.60	2235.21
415.79	2427.14
415.98	2544.16
416.17	2382.67
416.36	2345.22
416.55	2499.69
416.74	2483.31
416.93	2478.63
417.12	2534.80
417.31	2539.48
417.50	2441.18
417.69	2576.93
417.88	2574.59
418.07	2635.44
418.26	2612.04
418.45	2703.32
418.64	2803.96
418.83	2633.10
419.02	2654.17
419.21	2745.45
419.39	2815.66
419.58	2628.42
419.77	2773.53
419.96	2881.20
420.15	2888.22
420.34	2911.63
420.53	2937.37
420.72	3012.27
420.91	2864.82
421.10	2958.44
421.29	2937.37
421.48	2822.69
421.67	2916.31
421.86	2946.73
422.05	3038.02
422.24	2890.56
422.43	3094.19
422.61	2944.39
422.80	3178.45
422.99	3080.14
423.18	2942.05
423.37	3084.83
423.56	3152.70
423.75	3133.98
423.94	3040.36
424.13	2860.13
424.32	2871.84
424.50	3143.34
424.69	3108.23
424.88	3096.53
425.07	3026.31
425.26	3054.40
425.45	3014.61
425.64	3000.57
425.83	3094.19
426.01	3227.60
426.20	3258.03
426.39	3143.34
426.58	3152.70
426.77	3213.56
426.96	3178.45
427.15	3260.37
427.33	3124.62
427.52	3173.77
427.71	3211.22
427.90	3339.94
428.09	3405.48
428.28	3356.33
428.46	3393.78
428.65	3368.03
428.84	3421.86
429.03	3641.87
429.22	3321.22
429.40	3293.13
429.59	3545.91
429.78	3349.31
429.97	3293.13
430.16	3267.39
430.34	3513.14
430.53	3557.61
430.72	3599.74
430.91	3623.15
431.10	3541.23
431.28	3578.68
431.47	3585.70
431.66	3714.43
431.85	3597.40
432.03	3637.19
432.22	3786.99
432.41	3782.31
432.60	3786.99
432.79	3751.88
432.97	3723.79
433.16	3796.35
433.35	3679.32
433.54	3770.60
433.72	3943.80
433.91	3733.15
434.10	3887.63
434.28	3836.14
434.47	3957.85
434.66	3925.08
434.85	3847.84
435.03	4243.39
435.22	4229.35
435.41	4299.56
435.59	4390.84
435.78	4320.63
435.97	4166.15
436.16	4046.79
436.34	4252.75
436.53	4065.51
436.72	4152.11
436.90	4056.15
437.09	4135.73
437.28	4049.13
437.46	4212.96
437.65	4306.59
437.84	4341.69
438.02	4212.96
438.21	4301.90
438.40	4147.43
438.58	4362.76
438.77	4407.23
438.96	4332.33
439.14	4475.10
439.33	4393.19
439.52	4477.44
439.70	4559.36
439.89	4702.14
440.08	4655.33
440.26	4589.79
440.45	4517.23
440.63	4802.78
440.82	4823.84
441.01	4681.07
441.19	4844.91
441.38	4915.12
441.57	4926.83
441.75	4947.89
441.94	4891.72
442.12	4926.83
442.31	5240.46
442.50	5057.90
442.68	5050.88
442.87	5088.32
443.05	5076.62
443.24	5221.74
443.43	5174.92
443.61	5111.73
443.80	5408.98
443.98	5121.09
444.17	5153.86
444.35	5160.88
444.54	5259.18
444.73	5282.59
444.91	5287.27
445.10	5303.65
445.28	5195.99
445.47	5191.31
445.65	5317.70
445.84	5401.96
446.02	5359.83
446.21	5284.93
446.39	5315.36
446.58	5242.80
446.77	5298.97
446.95	5240.46
447.14	5331.74
447.32	5481.53
447.51	5460.47
447.69	5310.68
447.88	5423.02
448.06	5427.70
448.25	5352.81
448.43	5439.40
448.62	5327.06
448.80	5329.40
448.99	5376.21
449.17	5617.29
449.36	5561.11
449.54	5605.58
449.73	5610.26
449.91	5533.03
450.10	5605.58
450.28	5874.74
450.46	5701.54
450.65	5741.33
450.83	5860.70
451.02	5764.74
451.20	5734.31
451.39	5724.95
451.57	5778.78
451.76	5809.21
451.94	5858.36
452.13	5893.47
452.31	5991.77
452.49	5832.62
452.68	5923.90
452.86	5914.53
453.05	5926.24
453.23	5928.58
453.42	5853.68
453.60	5912.19
453.78	6181.35
453.97	5877.09
454.15	6054.97
454.34	5975.39
454.52	6179.01
454.70	6097.10
454.89	6122.84
455.07	5984.75
455.26	6148.59
455.44	6183.70
455.62	6307.74
455.81	6211.78
455.99	6466.90
456.17	6296.04
456.36	6200.08
456.54	6431.79
456.73	6513.71
456.91	6717.34
457.09	6546.48
457.28	6527.75
457.46	6511.37
457.64	6686.91
457.83	6574.56
458.01	6530.09
458.19	6609.67
458.38	6520.73
458.56	6743.08
458.74	6644.78
458.93	6764.15
459.11	6895.22
459.29	6726.70
459.48	6764.15
459.66	6773.51
459.84	6888.20
460.03	6970.12
460.21	6904.58
460.39	6743.08
460.57	6956.07
460.76	7098.84
460.94	7197.15
461.12	7091.82
461.31	7133.95
461.49	7126.93
461.67	6935.01
461.85	7435.88
462.04	7143.32
462.22	7695.68
462.40	7311.83
462.59	7391.41
462.77	7241.62
462.95	7321.20
463.13	7435.88
463.32	7281.41
463.50	7562.27
463.68	7578.65
463.86	7428.86
464.05	7407.80
464.23	7433.54
464.41	7637.17
464.59	7342.26
464.78	7655.89
464.96	7442.90
465.14	7375.03
465.32	7744.83
465.50	7595.04
465.69	7765.90
465.87	7536.52
466.05	7489.71
466.23	7639.51
466.41	7854.84
466.60	8053.78
466.78	7712.07
466.96	7784.62
467.14	7763.56
467.32	7861.86
467.51	8030.38
467.69	7648.87
467.87	7871.22
468.05	7978.89
468.23	7779.94
468.41	7903.99
468.60	7962.50
468.78	8138.04
468.96	7988.25
469.14	8004.63
469.32	8126.34
469.50	7913.35
469.69	8224.64
469.87	8278.47
470.05	8168.47
470.23	8287.84
470.41	8287.84
470.59	8568.70
470.77	8301.88
470.95	8411.89
471.14	8470.40
471.32	8215.28
471.50	8512.53
471.68	8552.32
471.86	8402.52
472.04	8496.14
472.22	8793.39
472.40	8826.16
472.58	8610.83
472.77	8648.28
472.95	9114.05
473.13	9078.94
473.31	8734.88
473.49	9011.06
473.67	9032.13
473.85	8992.34
474.03	9137.45
474.21	8898.72
474.39	9294.27
474.57	9373.85
474.75	9556.41
474.93	9294.27
475.12	9348.10
475.30	9348.10
475.48	9692.16
475.66	9706.20
475.84	9444.06
476.02	9685.14
476.20	9666.41
476.38	9966.00
476.56	9956.64
476.74	9949.62
476.92	10022.17
477.10	9888.76
477.28	10033.88
477.46	10085.37
477.64	10305.38
477.82	10558.16
478.00	10633.05
478.18	10490.28
478.36	10511.35
478.54	10944.34
478.72	10930.30
478.90	10764.12
479.08	11119.89
479.26	10944.34
479.44	11096.48
479.62	11253.30
479.80	11396.07
479.98	11328.19
480.16	11393.73
480.34	11435.86
480.52	11784.60
480.70	11653.53
480.88	11597.35
481.06	11749.49
481.24	11648.85
481.41	11969.50
481.59	12166.10
481.77	12159.08
481.95	12290.15
482.13	12180.15
482.31	12552.29
482.49	12662.30
482.67	12599.10
482.85	12879.97
483.03	12776.98
483.21	13149.13
483.39	13315.31
483.57	13022.74
483.74	13219.35
483.92	13233.39
484.10	13329.35
484.28	13806.82
484.46	13853.63
484.64	13933.21
484.82	13963.64
485.00	13874.70
485.18	13954.27
485.35	14394.29
485.53	14333.44
485.71	14462.17
485.89	14675.16
486.07	14640.05
486.25	14537.07
486.43	14824.95
486.61	14963.04
486.78	15159.65
486.96	15304.76
487.14	15346.89
487.32	15356.25
487.50	15440.51
487.68	15616.05
487.85	15695.63
488.03	16201.19
488.21	16444.60
488.39	16105.23
488.57	16194.17
488.75	16322.90
488.92	16882.28
489.10	16819.09
489.28	16884.62
489.46	17001.65
489.64	16851.86
489.81	17350.39
489.99	17216.98
490.17	17390.18
490.35	17837.22
490.53	17432.31
490.70	17638.28
490.88	17799.77
491.06	18059.57
491.24	18050.21
491.41	18092.34
491.59	18223.41
491.77	18286.61
491.95	18728.97
492.13	18616.62
492.30	18892.80
492.48	18728.97
492.66	18895.14
492.84	18988.77
493.01	19220.48
493.19	19431.13
493.37	19377.30
493.54	19323.46
493.72	19468.58
493.90	19445.17
494.08	19761.14
494.25	20290.10
494.43	19946.05
494.61	20147.33
494.79	20486.71
494.96	20610.76
495.14	20229.25
495.32	20465.64
495.49	20905.66
495.67	20924.39
495.85	21226.32
496.02	21078.86
496.20	21280.15
496.38	21256.75
496.55	21303.56
496.73	22008.06
496.91	21734.21
497.09	21839.54
497.26	21972.95
497.44	21638.25
497.62	22080.61
497.79	22183.60
497.97	22520.63
498.14	22436.38
498.32	22604.89
498.50	22862.35
498.67	23016.83
498.85	22787.46
499.03	22920.87
499.20	23030.87
499.38	22911.50
499.56	23131.51
499.73	23267.27
499.91	23316.42
500.08	23934.32
500.26	23091.73
500.44	23452.17
500.61	23920.28
500.79	23807.93
500.97	23772.82
501.14	24149.65
501.32	24086.45
501.49	23892.19
501.67	24053.69
501.84	24503.07
502.02	24336.89
502.20	24423.49
502.37	24826.06
502.55	24641.16
502.72	24711.38
502.90	24933.73
503.07	24849.47
503.25	24816.70
503.43	25113.95
503.60	25481.41
503.78	25151.40
503.95	25156.08
504.13	25418.22
504.30	25315.23
504.48	25387.79
504.65	25930.80
504.83	25551.63
505.01	26022.08
505.18	25879.30
505.36	25851.22
505.53	26005.69
505.71	25916.75
505.88	26293.58
506.06	25975.27
506.23	26279.54
506.41	26258.47
506.58	26654.02
506.76	26581.46
506.93	26551.04
507.11	26586.15
507.28	26469.12
507.46	26948.93
507.63	27056.59
507.81	27335.12
507.98	27075.32
508.16	27215.75
508.33	27318.73
508.50	27164.26
508.68	27402.99
508.85	27442.78
509.03	27590.24
509.20	27974.08
509.38	27908.55
509.55	27819.61
509.73	28271.33
509.90	28233.88
510.08	28257.29
510.25	28044.30
510.42	28180.05
510.60	28645.82
510.77	28467.94
510.95	28723.05
511.12	28486.66
511.30	28388.36
511.47	28709.01
511.64	29153.71
511.82	28950.09
511.99	28781.57
512.17	29378.40
512.34	29322.23
512.51	29284.78
512.69	29472.03
512.86	29221.59
513.04	29429.90
513.21	30185.89
513.38	29890.98
513.56	30068.86
513.73	29633.52
513.90	30171.85
514.08	29771.61
514.25	30286.53
514.43	30328.66
514.60	30288.87
514.77	30490.16
514.95	30614.21
515.12	30242.06
515.29	30419.94
515.47	30778.04
515.64	30492.50
515.81	30672.72
515.99	31108.06
516.16	31016.78
516.33	31285.94
516.51	30890.39
516.68	30756.98
516.85	31054.23
517.03	31248.49
517.20	31157.21
517.37	31480.21
517.54	31452.12
517.72	31381.90
517.89	31557.44
518.06	31817.24
518.24	31744.69
518.41	31604.25
518.58	31943.63
518.75	31744.69
518.93	32231.52
519.10	31763.41
519.27	32198.75
519.45	31927.25
519.62	32364.93
519.79	32020.87
519.96	32341.52
520.14	32641.11
520.31	32306.41
520.48	32636.43
520.65	32542.81
520.83	32706.65
521.00	32472.59
521.17	32884.53
521.34	32940.70
521.52	33053.05
521.69	32959.42
521.86	33273.06
522.03	33298.80
522.20	33666.27
522.38	33549.24
522.55	33109.22
522.72	33305.82
522.89	33895.64
523.07	33715.42
523.24	33874.57
523.41	34005.64
523.58	33682.65
523.75	33724.78
523.92	33530.51
524.10	34010.32
524.27	34052.45
524.44	34094.58
524.61	34642.27
524.78	34089.90
524.96	34326.30
525.13	34012.66
525.30	34534.60
525.47	35030.80
525.64	34766.32
525.81	35002.71
525.98	34866.96
526.16	34911.43
526.33	34841.21
526.50	35178.25
526.67	35056.54
526.84	34930.16
527.01	34920.79
527.18	35655.72
527.36	35173.57
527.53	35644.02
527.70	35840.62
527.87	35559.76
528.04	35393.58
528.21	35742.32
528.38	35082.29
528.55	35669.76
528.72	35779.77
528.89	35765.73
529.07	35805.52
529.24	36053.61
529.41	36250.22
529.58	35754.02
529.75	36023.19
529.92	36217.45
530.09	36065.31
530.26	36205.75
530.43	36144.89
530.60	35927.22
530.77	36077.02
530.94	36781.52
531.11	36566.19
531.28	36212.77
531.46	36421.08
531.63	36720.66
531.80	36250.22
531.97	37258.99
532.14	36835.35
532.31	36879.82
532.48	36821.31
532.65	37043.66
532.82	37132.60
532.99	37193.45
533.16	37034.30
533.33	37511.77
533.50	37673.26
533.67	37221.54
533.84	37251.97
534.01	37013.23
534.18	37186.43
534.35	37331.54
534.52	37113.87
534.69	38029.02
534.86	37848.80
535.03	37736.46
535.20	37656.88
535.37	37904.98
535.54	38157.75
535.71	37399.42
535.88	37890.93
536.05	37764.54
536.22	38377.76
536.38	38307.55
536.55	38560.33
536.72	38073.49
536.89	38054.77
537.06	37909.66
537.23	38244.35
537.40	38213.93
537.57	38183.50
537.74	38506.49
537.91	38515.86
538.08	38735.87
538.25	38396.49
538.42	38756.93
538.59	38785.02
538.75	38286.48
538.92	38918.43
539.09	38988.64
539.26	39112.69
539.43	38806.08
539.60	38885.66
539.77	39150.14
539.94	39241.42
540.11	39681.44
540.28	39393.56
540.44	39367.81
540.61	39318.66
540.78	39845.28
540.95	39629.95
541.12	39768.04
541.29	39800.81
541.46	39871.03
541.62	39775.06
541.79	40140.19
541.96	39381.85
542.13	39880.39
542.30	39831.24
542.47	40446.80
542.63	40168.27
542.80	40385.94
542.97	40479.57
543.14	40556.80
543.31	40512.33
543.48	40758.09
543.64	40620.00
543.81	40931.29
543.98	40779.15
544.15	40900.86
544.32	41013.21
544.48	40987.46
544.65	41067.04
544.82	40847.03
544.99	40552.12
545.16	41048.32
545.32	40910.22
545.49	41457.91
545.66	41865.16
545.83	41874.52
546.00	41989.21
546.16	41411.10
546.33	41240.24
546.50	40765.11
546.67	41301.09
546.83	40769.79
547.00	40910.22
547.17	40968.74
547.34	41698.98
547.50	41399.40
547.67	41324.50
547.84	41280.03
548.00	41523.44
548.17	41488.34
548.34	41453.23
548.51	42157.73
548.67	41914.31
548.84	41956.44
549.01	41596.00
549.18	41909.63
549.34	41656.85
549.51	41958.78
549.68	41926.02
549.84	41972.83
550.01	41804.31
550.18	41741.11
550.34	42204.54
550.51	42244.33
550.68	42249.01
550.84	41467.27
551.01	42335.61
551.18	41607.70
551.34	42239.65
551.51	42155.39
551.68	42347.31
551.84	42110.92
552.01	41720.05
552.18	42501.79
552.34	42408.17
552.51	42043.04
552.68	42445.62
552.84	42555.62
553.01	42504.13
553.18	42766.27
553.34	42651.58
553.51	42356.67
553.67	42897.34
553.84	42677.33
554.01	42838.83
554.17	42887.98
554.34	42440.93
554.51	42316.89
554.67	42827.12
554.84	42887.98
555.00	42719.46
555.17	42838.83
555.33	43236.72
555.50	42623.50
555.67	42981.60
555.83	42859.89
556.00	42960.53
556.16	43012.02
556.33	42576.69
556.50	42923.08
556.66	43192.25
556.83	42799.04
556.99	43302.25
557.16	43456.73
557.32	43030.75
557.49	43150.12
557.65	43150.12
557.82	43196.93
557.98	43136.07
558.15	43225.01
558.32	43379.49
558.48	43351.40
558.65	43452.05
558.81	43461.41
558.98	43552.69
559.14	43449.70
559.31	43281.19
559.47	43433.32
559.64	43391.19
559.80	43688.44
559.97	43580.78
560.13	43489.49
560.30	43856.96
560.46	44126.12
560.63	43557.37
560.79	44271.23
560.96	43887.39
561.12	43636.95
561.29	43709.50
561.45	44172.93
561.61	44151.87
561.78	44109.74
561.94	43611.20
562.11	43627.59
562.27	44095.69
562.44	44304.00
562.60	44294.64
562.77	43697.80
562.93	43791.42
563.10	44107.40
563.26	43627.59
563.42	44102.71
563.59	44147.18
563.75	44135.48
563.92	44399.96
564.08	44133.14
564.24	44622.31
564.41	43826.53
564.57	44032.50
564.74	44308.68
564.90	44062.93
565.07	44652.74
565.23	44641.04
565.39	44184.63
565.56	44631.68
565.72	43852.28
565.88	44444.43
566.05	43796.10
566.21	44250.17
566.38	43950.58
566.54	44720.62
566.70	44727.64
566.87	44856.37
567.03	44549.76
567.19	45027.23
567.36	44217.40
567.52	44748.70
567.68	44692.53
567.85	44280.60
568.01	44549.76
568.17	43871.00
568.34	44285.28
568.50	44470.18
568.66	44135.48
568.83	44573.16
568.99	44626.99
569.15	44343.79
569.32	44156.55
569.48	44055.90
569.64	44641.04
569.81	44135.48
569.97	44542.74
570.13	44629.34
570.30	44336.77
570.46	44769.77
570.62	44847.00
570.78	44409.32
570.95	44156.55
571.11	44978.07
571.27	44332.09
571.43	44250.17
571.60	44315.70
571.76	44554.44
571.92	44575.50
572.09	45184.04
572.25	44811.90
572.41	44500.61
572.57	44575.50
572.74	45104.46
572.90	44765.09
573.06	45144.25
573.22	44767.43
573.38	44839.98
573.55	44619.97
573.71	45544.48
573.87	45198.09
574.03	44835.30
574.20	44650.40
574.36	45109.14
574.52	44463.16
574.68	44378.90
574.84	44942.97
575.01	44992.12
575.17	45052.97
575.33	44842.32
575.49	44903.18
575.65	44980.42
575.82	45174.68
575.98	44868.07
576.14	45062.33
576.30	45422.78
576.46	44989.78
576.62	44879.77
576.79	44832.96
576.95	44638.70
577.11	44903.18
577.27	45186.38
577.43	45148.93
577.59	45155.96
577.75	44910.20
577.92	45043.61
578.08	44619.97
578.24	44516.99
578.40	44818.92
578.56	44861.05
578.72	44844.66
578.88	45581.93
579.04	45361.92
579.21	44753.38
579.37	45282.34
579.53	45071.70
579.69	44994.46
579.85	45373.63
580.01	45385.33
580.17	44638.70
580.33	45305.75
580.49	45081.06
580.65	45333.84
580.82	45382.99
580.98	45549.17
581.14	45195.74
581.30	45504.70
581.46	44839.98
581.62	45226.17
581.78	45155.96
581.94	45652.15
582.10	45212.13
582.26	45041.27
582.42	45670.87
582.58	45010.84
582.74	45113.83
582.90	45666.19
583.06	45223.83
583.22	45404.05
583.38	45123.19
583.54	45633.42
583.70	45214.47
583.86	45291.71
584.02	45251.92
584.18	45565.55
584.34	45567.89
584.50	45624.06
584.66	45539.80
584.82	45305.75
584.98	45179.36
585.14	45263.62
585.30	44463.16
585.46	45373.63
585.62	44996.80
585.78	44978.07
585.94	45233.19
586.10	45422.78
586.26	45006.16
586.42	45380.65
586.58	45265.96
586.74	45537.46
586.90	45303.41
587.06	45092.76
587.22	45708.32
587.38	45265.96
587.54	45485.97
587.70	45347.88
587.86	45471.93
588.02	45289.37
588.18	45722.37
588.34	45556.19
588.49	45546.82
588.65	45303.41
588.81	45254.26
588.97	45460.23
589.13	45425.12
589.29	45436.82
589.45	45617.04
589.61	45633.42
589.77	45514.06
589.93	45380.65
590.08	46019.61
590.24	46033.66
590.40	45921.31
590.56	45933.01
590.72	45691.94
590.88	45375.97
