SpectraSuite Data File
++++++++++++++++++++++++++++++++++++
Date: Fri Oct 04 11:39:31 GMT-05:00 2013
User: price-jones
Dark Spectrum Present: No
Reference Spectrum Present: No
Number of Sampled Component Spectra: 1
Spectrometers: USB2+H05261
Integration Time (usec): 100000 (USB2+H05261)
Spectra Averaged: 1 (USB2+H05261)
Boxcar Smoothing: 0 (USB2+H05261)
Correct for Electrical Dark: No (USB2+H05261)
Strobe/Lamp Enabled: No (USB2+H05261)
Correct for Detector Non-linearity: No (USB2+H05261)
Correct for Stray Light: No (USB2+H05261)
Number of Pixels in Processed Spectrum: 2048
>>>>>Begin Processed Spectral Data<<<<<
365.73	16.38
365.92	16.38
366.12	16.38
366.32	0.00
366.52	0.00
366.72	7.02
366.91	0.00
367.11	0.00
367.31	0.00
367.51	0.00
367.70	0.00
367.90	0.00
368.10	0.00
368.30	0.00
368.49	0.00
368.69	0.00
368.89	0.00
369.09	0.00
369.28	0.00
369.48	0.00
369.68	7.02
369.87	0.00
370.07	42.13
370.27	46.81
370.47	0.00
370.66	229.37
370.86	208.31
371.06	163.84
371.25	252.78
371.45	156.82
371.65	241.08
371.84	166.18
372.04	189.58
372.24	243.42
372.44	257.46
372.63	210.65
372.83	360.44
373.03	243.42
373.22	308.95
373.42	243.42
373.62	259.80
373.81	294.91
374.01	325.33
374.21	301.93
374.40	283.20
374.60	332.36
374.79	271.50
374.99	299.59
375.19	311.29
375.38	334.70
375.58	273.84
375.78	339.38
375.97	292.57
376.17	320.65
376.37	292.57
376.56	325.33
376.76	313.63
376.95	238.73
377.15	344.06
377.35	327.68
377.54	365.12
377.74	372.15
377.93	250.44
378.13	332.36
378.33	301.93
378.52	285.55
378.72	248.10
378.91	243.42
379.11	304.27
379.31	376.83
379.50	283.20
379.70	348.74
379.89	360.44
380.09	301.93
380.28	280.86
380.48	325.33
380.68	290.23
380.87	255.12
381.07	330.02
381.26	407.25
381.46	330.02
381.65	311.29
381.85	337.04
382.04	297.25
382.24	280.86
382.43	393.21
382.63	287.89
382.83	355.76
383.02	379.17
383.22	304.27
383.41	344.06
383.61	407.25
383.80	383.85
384.00	355.76
384.19	355.76
384.39	351.08
384.58	348.74
384.78	400.23
384.97	402.57
385.17	404.91
385.36	411.93
385.56	327.68
385.75	348.74
385.95	414.27
386.14	414.27
386.34	355.76
386.53	430.66
386.72	435.34
386.92	477.47
387.11	428.32
387.31	407.25
387.50	372.15
387.70	404.91
387.89	379.17
388.09	353.42
388.28	388.53
388.48	418.96
388.67	409.59
388.86	456.40
389.06	451.72
389.25	397.89
389.45	461.09
389.64	454.06
389.84	428.32
390.03	456.40
390.22	416.62
390.42	454.06
390.61	416.62
390.81	414.27
391.00	503.22
391.19	552.37
391.39	540.66
391.58	500.87
391.78	421.30
391.97	540.66
392.16	489.17
392.36	526.62
392.55	503.22
392.75	489.17
392.94	496.19
393.13	519.60
393.33	449.38
393.52	482.15
393.71	580.45
393.91	545.34
394.10	550.03
394.29	543.00
394.49	524.28
394.68	564.07
394.88	573.43
395.07	594.50
395.26	608.54
395.46	526.62
395.65	599.18
395.84	573.43
396.04	688.12
396.23	629.60
396.42	631.94
396.62	610.88
396.81	613.22
397.00	683.44
397.19	709.18
397.39	685.78
397.58	683.44
397.77	737.27
397.97	695.14
398.16	713.86
398.35	770.04
398.55	620.24
398.74	709.18
398.93	716.20
399.12	678.76
399.32	730.25
399.51	760.67
399.70	793.44
399.90	697.48
400.09	786.42
400.28	765.36
400.47	667.05
400.67	772.38
400.86	828.55
401.05	784.08
401.24	830.89
401.44	856.64
401.63	875.36
401.82	903.45
402.01	730.25
402.21	854.30
402.40	880.04
402.59	945.58
402.78	1011.11
402.97	926.85
403.17	809.83
403.36	910.47
403.55	933.87
403.74	992.39
403.93	1011.11
404.13	992.39
404.32	959.62
404.51	1039.20
404.70	1055.58
404.89	1060.26
405.09	1039.20
405.28	1015.79
405.47	1043.88
405.66	1109.41
405.85	1146.86
406.05	1039.20
406.24	1128.14
406.43	1254.53
406.62	1207.72
406.81	1203.04
407.00	1177.29
407.20	1165.59
407.39	1172.61
407.58	1268.57
407.77	1212.40
407.96	1219.42
408.15	1289.64
408.34	1275.59
408.54	1212.40
408.73	1355.17
408.92	1315.38
409.11	1275.59
409.30	1291.98
409.49	1310.70
409.68	1397.30
409.87	1373.89
410.07	1371.55
410.26	1425.39
410.45	1420.71
410.64	1439.43
410.83	1540.07
411.02	1575.18
411.21	1441.77
411.40	1579.86
411.59	1598.59
411.78	1605.61
411.98	1542.41
412.17	1584.54
412.36	1600.93
412.55	1654.76
412.74	1689.87
412.93	1797.53
413.12	1708.59
413.31	1846.68
413.50	1778.81
413.69	1783.49
413.88	1827.96
414.07	1865.41
414.26	1823.28
414.45	1984.77
414.64	1893.49
414.83	1937.96
415.02	1893.49
415.22	2033.93
415.41	2008.18
415.60	2083.08
415.79	2022.22
415.98	2108.82
416.17	2057.33
416.36	2017.54
416.55	2197.76
416.74	2214.15
416.93	2275.00
417.12	2113.50
417.31	2324.15
417.50	2136.91
417.69	2485.65
417.88	2246.91
418.07	2260.96
418.26	2305.43
418.45	2354.58
418.64	2335.85
418.83	2513.74
419.02	2347.56
419.21	2408.41
419.39	2457.56
419.58	2387.35
419.77	2394.37
419.96	2502.03
420.15	2626.08
420.34	2527.78
420.53	2588.63
420.72	2581.61
420.91	2668.21
421.10	2560.55
421.29	2715.02
421.48	2663.53
421.67	2724.38
421.86	2605.02
422.05	2792.26
422.24	2670.55
422.43	2675.23
422.61	2665.87
422.80	2708.00
422.99	2502.03
423.18	2712.68
423.37	2836.73
423.56	2871.84
423.75	2857.79
423.94	2750.13
424.13	2689.28
424.32	2579.27
424.50	2785.24
424.69	2843.75
424.88	2787.58
425.07	2810.98
425.26	2768.85
425.45	2794.60
425.64	2743.11
425.83	2841.41
426.01	2890.56
426.20	2801.62
426.39	2881.20
426.58	2822.69
426.77	2834.39
426.96	2935.03
427.15	2768.85
427.33	2839.07
427.52	2923.33
427.71	2942.05
427.90	2986.52
428.09	2981.84
428.28	2949.08
428.46	3049.72
428.65	3091.85
428.84	3080.14
429.03	3211.22
429.22	2909.29
429.40	3033.33
429.59	3141.00
429.78	2925.67
429.97	3005.25
430.16	3080.14
430.34	3206.53
430.53	3173.77
430.72	3150.36
430.91	3131.64
431.10	3176.11
431.28	3311.86
431.47	3323.56
431.66	3248.66
431.85	3339.94
432.03	3386.76
432.22	3325.90
432.41	3323.56
432.60	3391.44
432.79	3307.18
432.97	3410.16
433.16	3435.91
433.35	3396.12
433.54	3527.19
433.72	3480.38
433.91	3386.76
434.10	3588.04
434.28	3405.48
434.47	3543.57
434.66	3480.38
434.85	3440.59
435.03	3634.85
435.22	3796.35
435.41	4032.74
435.59	3964.87
435.78	3866.56
435.97	3819.75
436.16	3742.52
436.34	3676.98
436.53	3653.58
436.72	3801.03
436.90	3705.07
437.09	3758.90
437.28	3742.52
437.46	3684.00
437.65	3779.97
437.84	3803.37
438.02	3693.37
438.21	3859.54
438.40	3721.45
438.58	4046.79
438.77	3850.18
438.96	4016.36
439.14	4074.87
439.33	3997.64
439.52	4056.15
439.70	4079.55
439.89	4107.64
440.08	4262.12
440.26	4257.43
440.45	4241.05
440.63	4276.16
440.82	4138.07
441.01	4182.54
441.19	4365.10
441.38	4458.72
441.57	4489.15
441.75	4362.76
441.94	4395.53
442.12	4437.66
442.31	4608.51
442.50	4503.19
442.68	4510.21
442.87	4557.02
443.05	4587.45
443.24	4697.46
443.43	4732.56
443.61	4533.62
443.80	4667.03
443.98	4538.30
444.17	4404.89
444.35	4681.07
444.54	4873.00
444.73	4559.36
444.91	4788.74
445.10	4636.60
445.28	4765.33
445.47	4676.39
445.65	4585.11
445.84	4690.43
446.02	4770.01
446.21	4821.50
446.39	4692.77
446.58	4779.37
446.77	4849.59
446.95	4695.11
447.14	4784.06
447.32	4697.46
447.51	4777.03
447.69	4994.70
447.88	4912.78
448.06	4901.08
448.25	4781.71
448.43	4880.02
448.62	4774.69
448.80	4875.34
448.99	4755.97
449.17	4877.68
449.36	4959.60
449.54	5095.35
449.73	5179.61
449.91	4959.60
450.10	5032.15
450.28	5062.58
450.46	4936.19
450.65	5275.57
450.83	5076.62
451.02	5165.56
451.20	5130.45
451.39	5172.58
451.57	5151.52
451.76	5149.18
451.94	5254.50
452.13	5233.44
452.31	5247.48
452.49	5165.56
452.68	5291.95
452.86	5181.95
453.05	5366.85
453.23	5359.83
453.42	5303.65
453.60	5313.02
453.78	5406.64
453.97	5369.19
454.15	5439.40
454.34	5394.93
454.52	5467.49
454.70	5387.91
454.89	5413.66
455.07	5411.32
455.26	5439.40
455.44	5530.69
455.62	5650.05
455.81	5544.73
455.99	5589.20
456.17	5591.54
456.36	5600.90
456.54	5811.55
456.73	5760.06
456.91	5837.30
457.09	5790.49
457.28	6010.50
457.46	5783.46
457.64	5968.37
457.83	5928.58
458.01	6022.20
458.19	6106.46
458.38	5886.45
458.56	5973.05
458.74	5881.77
458.93	6066.67
459.11	6090.07
459.29	5959.00
459.48	5888.79
459.66	6256.25
459.84	6164.97
460.03	6258.59
460.21	6195.40
460.39	6174.33
460.57	6195.40
460.76	6118.16
460.94	6382.64
461.12	6314.77
461.31	6368.60
461.49	6267.95
461.67	6139.23
461.85	6576.91
462.04	6441.15
462.22	6406.05
462.40	6354.55
462.59	6492.65
462.77	6333.49
462.95	6518.39
463.13	6415.41
463.32	6590.95
463.50	6551.16
463.68	6736.06
463.86	6630.74
464.05	6537.12
464.23	6530.09
464.41	6583.93
464.59	6672.87
464.78	6775.85
464.96	6757.13
465.14	6506.69
465.32	6686.91
465.50	6654.14
465.69	6820.32
465.87	6736.06
466.05	6572.22
466.23	6736.06
466.41	6869.47
466.60	7110.55
466.78	6808.62
466.96	6857.77
467.14	6782.87
467.32	6888.20
467.51	7087.14
467.69	6862.45
467.87	7049.69
468.05	6888.20
468.23	7040.33
468.41	6867.13
468.60	7007.56
468.78	7063.74
468.96	7140.97
469.14	7246.30
469.32	7150.34
469.50	7061.40
469.69	7187.79
469.87	7049.69
470.05	7173.74
470.23	7309.49
470.41	7187.79
470.59	7370.35
470.77	7332.90
470.95	7293.11
471.14	7508.44
471.32	7426.52
471.50	7522.48
471.68	7604.40
471.86	7705.04
472.04	7641.85
472.22	7894.63
472.40	7487.37
472.58	7691.00
472.77	7700.36
472.95	7770.58
473.13	8081.87
473.31	7763.56
473.49	7971.86
473.67	7817.39
473.85	7992.93
474.03	8175.49
474.21	8070.17
474.39	8156.77
474.57	8205.92
474.75	8294.86
474.93	8278.47
475.12	8236.35
475.30	8259.75
475.48	8348.69
475.66	8524.23
475.84	8332.31
476.02	8393.16
476.20	8568.70
476.38	8800.41
476.56	8865.95
476.74	8887.01
476.92	8903.40
477.10	8875.31
477.28	8882.33
477.46	8791.05
477.64	8945.53
477.82	9121.07
478.00	9350.44
478.18	9224.05
478.36	9408.95
478.54	9385.55
478.72	9411.29
478.90	9610.24
479.08	9650.03
479.26	9743.65
479.44	9682.80
479.62	9895.78
479.80	9877.06
479.98	9898.13
480.16	10136.86
480.34	10057.28
480.52	10242.18
480.70	10300.70
480.88	10216.44
481.06	10104.09
481.24	10265.59
481.41	10560.50
481.59	10670.50
481.77	10597.95
481.95	11056.69
482.13	10721.99
482.31	11007.54
482.49	11037.97
482.67	11115.20
482.85	10946.69
483.03	11311.81
483.21	11365.64
483.39	11424.15
483.57	11424.15
483.74	11857.15
483.92	11665.23
484.10	11772.89
484.28	11747.15
484.46	12180.15
484.64	12051.42
484.82	12035.03
485.00	12238.66
485.18	12458.67
485.35	12674.00
485.53	12489.10
485.71	12624.85
485.89	12905.71
486.07	12828.48
486.25	12936.14
486.43	12945.50
486.61	13090.62
486.78	13231.05
486.96	13125.72
487.14	13549.36
487.32	13277.86
487.50	13575.11
487.68	13767.03
487.85	13820.86
488.03	14075.98
488.21	14146.20
488.39	13982.36
488.57	14178.97
488.75	14377.91
488.92	14572.18
489.10	14593.24
489.28	14693.88
489.46	14841.34
489.64	14876.44
489.81	15197.10
489.99	15033.26
490.17	14888.15
490.35	15466.26
490.53	15014.54
490.70	15676.91
490.88	15587.97
491.06	15714.36
491.24	15463.92
491.41	15599.67
491.59	15889.90
491.77	15941.39
491.95	16212.89
492.13	16280.77
492.30	16257.36
492.48	16528.86
492.66	16587.38
492.84	16402.47
493.01	16620.14
493.19	16617.80
493.37	17207.62
493.54	17032.08
493.72	16917.39
493.90	17048.46
494.08	17235.70
494.25	17476.78
494.43	17315.28
494.61	17631.26
494.79	17741.26
494.96	17844.24
495.14	17736.58
495.32	17759.98
495.49	18008.08
495.67	18129.79
495.85	18305.33
496.02	18258.52
496.20	18209.37
496.38	18377.89
496.55	18649.39
496.73	18923.23
496.91	18717.26
497.09	18944.30
497.26	19199.41
497.44	19101.11
497.62	18883.44
497.79	19370.27
497.97	19201.76
498.14	19737.74
498.32	19513.05
498.50	19711.99
498.67	20018.60
498.85	19962.43
499.03	20074.77
499.20	20063.07
499.38	19564.54
499.56	20077.12
499.73	20273.72
499.91	20285.42
500.08	20367.34
500.26	19932.00
500.44	20416.49
500.61	20240.95
500.79	20549.90
500.97	21219.30
501.14	21097.59
501.32	21130.36
501.49	20709.06
501.67	20971.20
501.84	21006.31
502.02	21186.53
502.20	21324.62
502.37	21472.07
502.55	21277.81
502.72	21493.14
502.90	21238.02
503.07	21294.19
503.25	21553.99
503.43	21589.10
503.60	21596.12
503.78	21851.24
503.95	21888.69
504.13	21642.93
504.30	22031.46
504.48	22071.25
504.65	22148.49
504.83	22127.42
505.01	22656.39
505.18	22225.73
505.36	22309.99
505.53	22326.37
505.71	22691.49
505.88	22876.40
506.06	22611.92
506.23	22632.98
506.41	22834.27
506.58	23108.11
506.76	22904.48
506.93	22834.27
507.11	23222.80
507.28	23257.90
507.46	23218.11
507.63	23307.05
507.81	23466.21
507.98	23363.23
508.16	23307.05
508.33	23616.01
508.50	23765.80
508.68	23976.45
508.85	24159.01
509.03	23924.96
509.20	24259.65
509.38	24135.60
509.55	24357.96
509.73	24159.01
509.90	23976.45
510.08	24264.33
510.25	24400.08
510.42	24519.45
510.60	24807.34
510.77	24753.51
510.95	24748.82
511.12	24400.08
511.30	24856.49
511.47	24699.67
511.64	24959.47
511.82	25017.99
511.99	25315.23
512.17	25324.60
512.34	25123.31
512.51	25539.93
512.69	25708.44
512.86	25682.70
513.04	25734.19
513.21	25656.95
513.38	25876.96
513.56	25762.28
513.73	25633.55
513.90	25757.60
514.08	25986.97
514.25	25937.82
514.43	25909.73
514.60	26405.92
514.77	25841.85
514.95	26279.54
515.12	26155.49
515.29	25991.65
515.47	26735.94
515.64	26782.75
515.81	26726.58
515.99	26721.90
516.16	26920.84
516.33	26668.06
516.51	27274.26
516.68	26434.01
516.85	26726.58
517.03	26742.96
517.20	27281.28
517.37	26974.67
517.54	27229.79
517.72	27253.20
517.89	27131.49
518.06	27625.34
518.24	27672.15
518.41	26969.99
518.58	27768.12
518.75	27428.74
518.93	27974.08
519.10	27800.88
519.27	27953.02
519.45	27693.22
519.62	27833.65
519.79	27915.57
519.96	27955.36
520.14	27803.22
520.31	27924.93
520.48	28362.61
520.65	28252.61
520.83	28374.31
521.00	28659.86
521.17	28657.52
521.34	28130.90
521.52	28446.87
521.69	28306.44
521.86	29003.92
522.03	29090.52
522.20	28985.19
522.38	28641.14
522.55	28865.83
522.72	29024.98
522.89	29331.59
523.07	28905.62
523.24	29057.75
523.41	29167.76
523.58	29247.33
523.75	29036.69
523.92	29322.23
524.10	29413.51
524.27	29500.11
524.44	29343.30
524.61	29827.79
524.78	29670.97
524.96	29223.93
525.13	29441.60
525.30	29724.80
525.47	29736.51
525.64	29797.36
525.81	29986.94
525.98	30232.70
526.16	29972.90
526.33	29993.97
526.50	30408.24
526.67	30017.37
526.84	30136.74
527.01	29804.38
527.18	30377.81
527.36	30120.35
527.53	30221.00
527.70	30586.12
527.87	30511.22
528.04	30492.50
528.21	30462.07
528.38	30501.86
528.55	30958.27
528.72	30794.43
528.89	30806.13
529.07	30565.06
529.24	30600.16
529.41	30876.35
529.58	30967.63
529.75	30862.30
529.92	30883.37
530.09	31168.91
530.26	31044.87
530.43	31328.07
530.60	30670.38
530.77	31295.30
530.94	31204.02
531.11	31164.23
531.28	31065.93
531.46	31426.37
531.63	31470.84
531.80	31683.83
531.97	31604.25
532.14	31960.02
532.31	31400.63
532.48	31667.45
532.65	31997.46
532.82	31615.96
532.99	31814.90
533.16	31927.25
533.33	31889.80
533.50	32421.10
533.67	32587.28
533.84	32114.49
534.01	31910.86
534.18	32002.14
534.35	32629.41
534.52	31971.72
534.69	32126.19
534.86	32500.68
535.03	32519.40
535.20	32409.40
535.37	32378.97
535.54	32514.72
535.71	32470.25
535.88	32364.93
536.05	32390.67
536.22	32772.18
536.38	32893.89
536.55	32891.55
536.72	32818.99
536.89	32992.19
537.06	32683.24
537.23	33249.65
537.40	32718.35
537.57	32746.44
537.74	32978.15
537.91	33589.03
538.08	33158.37
538.25	32730.05
538.42	32978.15
538.59	33586.69
538.75	33390.08
538.92	33127.94
539.09	33326.89
539.26	33507.11
539.43	33469.66
539.60	33598.39
539.77	33905.00
539.94	33853.51
540.11	34015.01
540.28	33715.42
540.44	33736.48
540.61	33837.12
540.78	33802.02
540.95	33703.71
541.12	33813.72
541.29	33841.81
541.46	34286.51
541.62	34216.29
541.79	34749.93
541.96	33809.04
542.13	34675.04
542.30	34373.11
542.47	34850.58
542.63	34433.96
542.80	34459.71
542.97	34888.03
543.14	34902.07
543.31	34630.57
543.48	34960.58
543.64	34754.61
543.81	35154.85
543.98	35012.07
544.15	34965.26
544.32	35400.60
544.48	35086.97
544.65	34918.45
544.82	35056.54
544.99	34923.13
545.16	35225.06
545.32	34955.90
545.49	35824.24
545.66	36219.79
545.83	36374.27
546.00	36423.42
546.16	35828.92
546.33	35157.19
546.50	34756.96
546.67	35578.48
546.83	35002.71
547.00	35218.04
547.17	35072.93
547.34	35227.40
547.50	35447.41
547.67	35878.07
547.84	35508.27
548.00	35765.73
548.17	35702.53
548.34	36016.16
548.51	35934.24
548.67	35627.63
548.84	35936.59
549.01	35964.67
549.18	35571.46
549.34	35770.41
549.51	35756.36
549.68	35622.95
549.84	35702.53
550.01	36041.91
550.18	35374.86
550.34	35854.67
550.51	36086.38
550.68	36165.96
550.84	35880.41
551.01	36172.98
551.18	35672.10
551.34	35751.68
551.51	35817.22
551.68	36004.46
551.84	36119.15
552.01	35922.54
552.18	36353.20
552.34	35906.16
552.51	35754.02
552.68	36067.66
552.84	35945.95
553.01	36177.66
553.18	36264.26
553.34	36353.20
553.51	35931.90
553.67	36203.41
553.84	36425.76
554.01	36430.44
554.17	36142.55
554.34	36184.68
554.51	36268.94
554.67	36418.74
554.84	36339.16
555.00	36451.50
555.17	36275.96
555.33	36748.75
555.50	36013.82
555.67	36638.75
555.83	36140.21
556.00	36280.64
556.16	37148.98
556.33	36212.77
556.50	36484.27
556.66	36931.31
556.83	36914.93
556.99	36580.23
557.16	37137.28
557.32	37017.91
557.49	36978.12
557.65	36746.41
557.82	36488.95
557.98	36442.14
558.15	36659.81
558.32	36893.86
558.48	37083.45
558.65	36690.24
558.81	37092.81
558.98	36687.90
559.14	37333.89
559.31	36552.15
559.47	36947.70
559.64	36788.54
559.80	37184.09
559.97	37015.57
560.13	37031.96
560.30	36800.24
560.46	37310.48
560.63	36847.05
560.79	37195.79
560.96	37167.71
561.12	37090.47
561.29	36779.18
561.45	37172.39
561.61	37230.90
561.78	36943.02
561.94	37392.40
562.11	36835.35
562.27	37179.41
562.44	36945.36
562.60	37034.30
562.77	37195.79
562.93	37270.69
563.10	37223.88
563.26	36914.93
563.42	37319.84
563.59	37432.19
563.75	37207.50
563.92	37684.97
564.08	37233.24
564.24	36872.80
564.41	37031.96
564.57	37329.20
564.74	37291.76
564.90	37596.03
565.07	37572.62
565.23	37340.91
565.39	37266.01
565.56	37179.41
565.72	37226.22
565.88	37273.03
566.05	36940.68
566.21	37361.97
566.38	37448.57
566.54	37340.91
566.70	37462.61
566.87	37617.09
567.03	37315.16
567.19	38036.05
567.36	37343.25
567.52	37099.83
567.68	37399.42
567.85	37497.72
568.01	37631.13
568.17	37240.26
568.34	37523.47
568.50	37963.49
568.66	37301.12
568.83	37738.80
568.99	37373.67
569.15	37521.13
569.32	37649.86
569.48	37301.12
569.64	37766.88
569.81	37642.84
569.97	37254.31
570.13	37413.46
570.30	37144.30
570.46	37523.47
570.62	37359.63
570.78	37291.76
570.95	37675.60
571.11	37256.65
571.27	37542.19
571.43	37270.69
571.60	37481.34
571.76	37626.45
571.92	37589.00
572.09	37598.37
572.25	37516.45
572.41	37464.96
572.57	37600.71
572.74	37699.01
572.90	37294.10
573.06	37647.52
573.22	37713.05
573.38	37811.35
573.55	37869.87
573.71	37610.07
573.87	37621.77
574.03	37872.21
574.20	37724.75
574.36	37780.93
574.52	37710.71
574.68	37464.96
574.84	37909.66
575.01	38132.01
575.17	37872.21
575.33	37303.46
575.49	37488.36
575.65	37933.06
575.82	37593.68
575.98	37560.92
576.14	37724.75
576.30	37720.07
576.46	37422.83
576.62	37860.51
576.79	38127.33
576.95	37570.28
577.11	37696.67
577.27	37865.19
577.43	38132.01
577.59	38071.15
577.75	37521.13
577.92	37429.85
578.08	37663.90
578.24	37317.50
578.40	37837.10
578.56	38092.22
578.72	37701.35
578.88	38115.62
579.04	38146.05
579.21	38040.73
579.37	38270.10
579.53	38031.36
579.69	37549.21
579.85	37794.97
580.01	37813.70
580.17	37273.03
580.33	37509.43
580.49	37998.60
580.65	38412.87
580.82	37757.52
580.98	38139.03
581.14	37607.73
581.30	37619.43
581.46	37734.12
581.62	37591.34
581.78	37553.90
581.94	37855.82
582.10	37589.00
582.26	37820.72
582.42	37661.56
582.58	37837.10
582.74	38017.32
582.90	37771.57
583.06	38209.25
583.22	37497.72
583.38	38150.73
583.54	37933.06
583.70	37982.21
583.86	37797.31
584.02	37350.27
584.18	37834.76
584.34	37577.30
584.50	37797.31
584.66	37792.63
584.82	37614.75
584.98	37844.12
585.14	37691.99
585.30	38057.11
585.46	37558.58
585.62	37858.17
585.78	37820.72
585.94	37722.41
586.10	37778.59
586.26	37708.37
586.42	38157.75
586.58	38101.58
586.74	37902.64
586.90	37699.01
587.06	37596.03
587.22	38202.22
587.38	37656.88
587.54	38185.84
587.70	38234.99
587.86	37731.78
588.02	38209.25
588.18	38136.69
588.34	38075.84
588.49	37858.17
588.65	37801.99
588.81	37860.51
588.97	38092.22
589.13	37879.23
589.29	37783.27
589.45	38057.11
589.61	38190.52
589.77	38572.03
589.93	37809.01
590.08	37897.95
590.24	38518.20
590.40	38153.07
590.56	38286.48
590.72	37965.83
590.88	37998.60
591.04	38242.01
591.20	38333.29
591.35	37926.04
