SpectraSuite Data File
++++++++++++++++++++++++++++++++++++
Date: Tue Oct 01 18:27:29 GMT-05:00 2013
User: stostad
Dark Spectrum Present: No
Reference Spectrum Present: No
Number of Sampled Component Spectra: 1
Spectrometers: USB2+H05261
Integration Time (usec): 100000 (USB2+H05261)
Spectra Averaged: 1 (USB2+H05261)
Boxcar Smoothing: 0 (USB2+H05261)
Correct for Electrical Dark: No (USB2+H05261)
Strobe/Lamp Enabled: No (USB2+H05261)
Correct for Detector Non-linearity: No (USB2+H05261)
Correct for Stray Light: No (USB2+H05261)
Number of Pixels in Processed Spectrum: 2048
>>>>>Begin Processed Spectral Data<<<<<
365.73	30.43
365.92	30.43
366.12	30.43
366.32	23.41
366.52	0.00
366.72	18.72
366.91	9.36
367.11	0.00
367.31	0.00
367.51	0.00
367.70	0.00
367.90	0.00
368.10	16.38
368.30	0.00
368.49	0.00
368.69	46.81
368.89	0.00
369.09	0.00
369.28	0.00
369.48	0.00
369.68	0.00
369.87	28.09
370.07	39.79
370.27	39.79
370.47	44.47
370.66	299.59
370.86	266.82
371.06	278.52
371.25	330.02
371.45	322.99
371.65	379.17
371.84	353.42
372.04	383.85
372.24	358.10
372.44	393.21
372.63	437.68
372.83	414.27
373.03	372.15
373.22	348.74
373.42	351.08
373.62	348.74
373.81	393.21
374.01	397.89
374.21	496.19
374.40	442.36
374.60	435.34
374.79	442.36
374.99	421.30
375.19	503.22
375.38	500.87
375.58	421.30
375.78	489.17
375.97	489.17
376.17	514.92
376.37	564.07
376.56	524.28
376.76	477.47
376.95	470.45
377.15	571.09
377.35	451.72
377.54	512.58
377.74	423.64
377.93	519.60
378.13	486.83
378.33	538.32
378.52	521.94
378.72	535.98
378.91	512.58
379.11	493.85
379.31	610.88
379.50	507.90
379.70	589.82
379.89	557.05
380.09	571.09
380.28	517.26
380.48	566.41
380.68	559.39
380.87	545.34
381.07	468.11
381.26	582.79
381.46	580.45
381.65	517.26
381.85	550.03
382.04	627.26
382.24	587.47
382.43	615.56
382.63	559.39
382.83	662.37
383.02	603.86
383.22	711.52
383.41	594.50
383.61	664.71
383.80	631.94
384.00	648.33
384.19	601.52
384.39	629.60
384.58	578.11
384.78	657.69
384.97	664.71
385.17	622.58
385.36	695.14
385.56	641.31
385.75	599.18
385.95	636.63
386.14	816.85
386.34	664.71
386.53	697.48
386.72	664.71
386.92	678.76
387.11	716.20
387.31	674.07
387.50	702.16
387.70	620.24
387.89	685.78
388.09	732.59
388.28	828.55
388.48	706.84
388.67	746.63
388.86	765.36
389.06	828.55
389.25	727.91
389.45	739.61
389.64	711.52
389.84	751.31
390.03	856.64
390.22	779.40
390.42	734.93
390.61	828.55
390.81	734.93
391.00	763.01
391.19	856.64
391.39	777.06
391.58	828.55
391.78	840.25
391.97	821.53
392.16	826.21
392.36	901.11
392.55	957.28
392.75	877.70
392.94	959.62
393.13	938.55
393.33	910.47
393.52	971.32
393.71	905.79
393.91	947.92
394.10	905.79
394.29	966.64
394.49	887.06
394.68	968.98
394.88	908.13
395.07	990.05
395.26	994.73
395.46	1011.11
395.65	994.73
395.84	1013.45
396.04	1043.88
396.23	1027.50
396.42	1025.15
396.62	1139.84
396.81	997.07
397.00	1025.15
397.19	1107.07
397.39	1076.65
397.58	1135.16
397.77	1219.42
397.97	1116.44
398.16	1123.46
398.35	1132.82
398.55	1214.74
398.74	1188.99
398.93	1196.01
399.12	1156.22
399.32	1217.08
399.51	1149.20
399.70	1252.19
399.90	1224.10
400.09	1238.14
400.28	1273.25
400.47	1341.13
400.67	1327.08
400.86	1458.15
401.05	1345.81
401.24	1238.14
401.44	1315.38
401.63	1444.11
401.82	1306.02
402.01	1275.59
402.21	1336.45
402.40	1289.64
402.59	1493.26
402.78	1467.52
402.97	1409.00
403.17	1467.52
403.36	1488.58
403.55	1427.73
403.74	1486.24
403.93	1614.97
404.13	1633.69
404.32	1537.73
404.51	1488.58
404.70	1530.71
404.89	1661.78
405.09	1675.82
405.28	1589.22
405.47	1633.69
405.66	1671.14
405.85	1696.89
406.05	1715.61
406.24	1717.95
406.43	1797.53
406.62	1739.02
406.81	1825.62
407.00	1757.74
407.20	1795.19
407.39	1799.87
407.58	1806.89
407.77	1820.94
407.96	1827.96
408.15	1879.45
408.34	1933.28
408.54	1811.57
408.73	1937.96
408.92	1956.69
409.11	1956.69
409.30	1977.75
409.49	2010.52
409.68	1935.62
409.87	1844.34
410.07	2024.56
410.26	2134.57
410.45	2054.99
410.64	2150.95
410.83	2073.71
411.02	2059.67
411.21	2277.34
411.40	2172.02
411.59	2228.19
411.78	2165.00
411.98	2237.55
412.17	2394.37
412.36	2363.94
412.55	2380.32
412.74	2408.41
412.93	2448.20
413.12	2305.43
413.31	2527.78
413.50	2459.90
413.69	2509.05
413.88	2544.16
414.07	2609.70
414.26	2602.68
414.45	2616.72
414.64	2651.83
414.83	2726.72
415.02	2759.49
415.22	2665.87
415.41	2623.74
415.60	2862.48
415.79	2806.30
415.98	2911.63
416.17	2860.13
416.36	2841.41
416.55	2867.16
416.74	2923.33
416.93	2888.22
417.12	2951.42
417.31	3009.93
417.50	2953.76
417.69	3089.51
417.88	3042.70
418.07	3061.42
418.26	3094.19
418.45	2995.89
418.64	3131.64
418.83	3272.07
419.02	3246.32
419.21	3265.05
419.39	3412.50
419.58	3194.83
419.77	3297.81
419.96	3293.13
420.15	3447.61
420.34	3318.88
420.53	3365.69
420.72	3372.71
420.91	3358.67
421.10	3405.48
421.29	3529.53
421.48	3424.20
421.67	3590.38
421.86	3452.29
422.05	3627.83
422.24	3571.66
422.43	3440.59
422.61	3723.79
422.80	3574.00
422.99	3686.34
423.18	3529.53
423.37	3803.37
423.56	3599.74
423.75	3557.61
423.94	3700.39
424.13	3297.81
424.32	3552.93
424.50	3686.34
424.69	3714.43
424.88	3824.44
425.07	3777.62
425.26	3684.00
425.45	3691.02
425.64	3644.21
425.83	3627.83
426.01	3719.11
426.20	3595.06
426.39	3728.47
426.58	3679.32
426.77	3627.83
426.96	3789.33
427.15	3798.69
427.33	3819.75
427.52	3904.01
427.71	3878.27
427.90	3936.78
428.09	3911.04
428.28	3943.80
428.46	3878.27
428.65	3882.95
428.84	4046.79
429.03	4152.11
429.22	4032.74
429.40	4058.49
429.59	4109.98
429.78	3885.29
429.97	3976.57
430.16	4016.36
430.34	4072.53
430.53	4236.37
430.72	4117.00
430.91	4072.53
431.10	4117.00
431.28	4149.77
431.47	4388.50
431.66	4322.97
431.85	4210.62
432.03	4341.69
432.22	4587.45
432.41	4430.63
432.60	4367.44
432.79	4358.08
432.97	4383.82
433.16	4423.61
433.35	4411.91
433.54	4449.36
433.72	4540.64
433.91	4561.70
434.10	4667.03
434.28	4435.32
434.47	4514.89
434.66	4575.75
434.85	4671.71
435.03	4812.14
435.22	4641.28
435.41	4709.16
435.59	4835.55
435.78	4784.06
435.97	4777.03
436.16	4821.50
436.34	4807.46
436.53	4791.08
436.72	4947.89
436.90	4816.82
437.09	4961.94
437.28	4931.51
437.46	4901.08
437.65	5022.79
437.84	5163.22
438.02	4863.63
438.21	5102.37
438.40	4983.00
438.58	5137.48
438.77	5221.74
438.96	5109.39
439.14	5392.59
439.33	5331.74
439.52	5266.21
439.70	5313.02
439.89	5483.88
440.08	5427.70
440.26	5750.70
440.45	5465.15
440.63	5558.77
440.82	5596.22
441.01	5640.69
441.19	5720.27
441.38	5809.21
441.57	5502.60
441.75	5746.02
441.94	6052.63
442.12	5811.55
442.31	5909.85
442.50	5970.71
442.68	5846.66
442.87	6169.65
443.05	6076.03
443.24	6118.16
443.43	6106.46
443.61	6113.48
443.80	6216.46
443.98	6069.01
444.17	5764.74
444.35	6207.10
444.54	6256.25
444.73	6274.98
444.91	6228.17
445.10	6242.21
445.28	6209.44
445.47	6176.67
445.65	6237.53
445.84	6085.39
446.02	6251.57
446.21	6356.90
446.39	6174.33
446.58	6403.71
446.77	6260.93
446.95	6305.40
447.14	6249.23
447.32	6478.60
447.51	6494.99
447.69	6345.19
447.88	6368.60
448.06	6436.47
448.25	6396.68
448.43	6431.79
448.62	6637.76
448.80	6455.20
448.99	6560.52
449.17	6579.25
449.36	6541.80
449.54	6789.89
449.73	6775.85
449.91	6663.51
450.10	6825.00
450.28	6717.34
450.46	6752.45
450.65	6750.10
450.83	6796.92
451.02	6834.36
451.20	6857.77
451.39	6768.83
451.57	6768.83
451.76	6743.08
451.94	6686.91
452.13	6932.67
452.31	6825.00
452.49	6883.52
452.68	6883.52
452.86	6960.75
453.05	7030.97
453.23	7276.73
453.42	6993.52
453.60	6932.67
453.78	7005.22
453.97	7194.81
454.15	7201.83
454.34	7061.40
454.52	7059.06
454.70	7248.64
454.89	7424.18
455.07	7236.94
455.26	7360.98
455.44	7571.63
455.62	7433.54
455.81	7482.69
455.99	7452.27
456.17	7503.76
456.36	7609.08
456.54	7686.32
456.73	7756.54
456.91	7882.92
457.09	7878.24
457.28	7948.46
457.46	7592.70
457.64	7878.24
457.83	7669.94
458.01	7894.63
458.19	7929.74
458.38	7742.49
458.56	8140.38
458.74	8046.76
458.93	8065.49
459.11	7969.52
459.29	8250.39
459.48	8044.42
459.66	8030.38
459.84	8379.12
460.03	8418.91
460.21	8072.51
460.39	8367.42
460.57	8217.62
460.76	8287.84
460.94	8456.36
461.12	8177.83
461.31	8325.29
461.49	8294.86
461.67	8358.05
461.85	8564.02
462.04	8549.98
462.22	8980.64
462.40	8606.15
462.59	8636.58
462.77	8554.66
462.95	8849.57
463.13	8690.41
463.32	8667.00
463.50	8718.50
463.68	8936.17
463.86	8629.56
464.05	8772.33
464.23	8730.20
464.41	8947.87
464.59	8706.79
464.78	9067.24
464.96	9008.72
465.14	9144.47
465.32	9083.62
465.50	9078.94
465.69	8961.91
465.87	8933.82
466.05	9083.62
466.23	8919.78
466.41	9090.64
466.60	9369.16
466.78	9048.51
466.96	8968.93
467.14	9226.39
467.32	9200.65
467.51	9310.65
467.69	9200.65
467.87	9378.53
468.05	9497.89
468.23	9301.29
468.41	9266.18
468.60	9408.95
468.78	9598.54
468.96	9554.07
469.14	9558.75
469.32	9745.99
469.50	9607.90
469.69	9830.25
469.87	9598.54
470.05	9710.88
470.23	9605.56
470.41	9614.92
470.59	9750.67
470.77	9923.87
470.95	9958.98
471.14	9982.38
471.32	9888.76
471.50	10087.71
471.68	10036.22
471.86	10125.16
472.04	10366.23
472.22	10471.56
472.40	10312.40
472.58	10363.89
472.77	10216.44
472.95	10607.31
473.13	10768.80
473.31	10333.47
473.49	10422.41
473.67	10661.14
473.85	10764.12
474.03	10911.58
474.21	10850.72
474.39	11075.42
474.57	11077.76
474.75	11176.06
474.93	11229.89
475.12	10944.34
475.30	11030.94
475.48	11269.68
475.66	11433.52
475.84	11407.77
476.02	11506.07
476.20	11688.64
476.38	11775.24
476.56	11894.60
476.74	11932.05
476.92	11763.53
477.10	11782.26
477.28	11960.14
477.46	11992.90
477.64	12453.99
477.82	12224.62
478.00	12587.40
478.18	12779.32
478.36	12917.42
478.54	12861.24
478.72	12751.24
478.90	13011.04
479.08	12807.41
479.26	13177.22
479.44	13233.39
479.62	13568.09
479.80	13446.38
479.98	13493.19
480.16	13748.31
480.34	13944.91
480.52	13907.46
480.70	13930.87
480.88	13448.72
481.06	13760.01
481.24	14075.98
481.41	14298.33
481.59	14523.02
481.77	14628.35
481.95	14705.59
482.13	14445.79
482.31	14782.82
482.49	15288.38
482.67	15119.86
482.85	15262.63
483.03	15510.73
483.21	15716.70
483.39	15880.53
483.57	15712.02
483.74	15871.17
483.92	16451.63
484.10	16166.08
484.28	16123.95
484.46	16484.39
484.64	16606.10
484.82	16315.87
485.00	16690.36
485.18	16989.95
485.35	17153.79
485.53	17188.89
485.71	17027.40
485.89	17635.94
486.07	17331.67
486.25	17701.47
486.43	17867.65
486.61	17998.72
486.78	18181.28
486.96	18029.15
487.14	18338.10
487.32	18548.75
487.50	18511.30
487.68	18892.80
487.85	19112.81
488.03	19143.24
488.21	19419.42
488.39	19208.78
488.57	19716.67
488.75	19789.23
488.92	19990.52
489.10	20098.18
489.28	20322.87
489.46	20662.25
489.64	20032.65
489.81	20737.15
489.99	20718.42
490.17	20823.75
490.35	21390.16
490.53	21308.24
490.70	21329.30
490.88	21387.82
491.06	21376.11
491.24	21401.86
491.41	21858.26
491.59	21926.14
491.77	22169.55
491.95	22136.79
492.13	21968.27
492.30	22492.55
492.48	22679.79
492.66	22654.05
492.84	22988.74
493.01	23124.49
493.19	23030.87
493.37	23201.73
493.54	23314.08
493.72	23850.06
493.90	23828.99
494.08	24208.16
494.25	24049.00
494.43	24219.86
494.61	24130.92
494.79	24226.89
494.96	24697.33
495.14	24826.06
495.32	25020.33
495.49	25013.31
495.67	24837.76
495.85	25343.32
496.02	24947.77
496.20	25392.47
496.38	25640.57
496.55	26036.12
496.73	26286.56
496.91	26167.19
497.09	26244.43
497.26	26228.04
497.44	26637.64
497.62	26525.29
497.79	26616.57
497.97	26998.08
498.14	27035.53
498.32	26920.84
498.50	26691.47
498.67	27489.59
498.85	27321.07
499.03	27660.45
499.20	27782.16
499.38	27653.43
499.56	27999.83
499.73	27920.25
499.91	28037.28
500.08	28304.10
500.26	27761.09
500.44	28496.02
500.61	28528.79
500.79	28177.71
500.97	28973.49
501.14	28992.22
501.32	29195.84
501.49	28992.22
501.67	29153.71
501.84	29427.56
502.02	29408.83
502.20	29736.51
502.37	29706.08
502.55	29628.84
502.72	29944.81
502.90	29876.94
503.07	29586.71
503.25	29750.55
503.43	30012.69
503.60	30408.24
503.78	30649.32
503.95	30185.89
504.13	30085.25
504.30	31005.08
504.48	30885.71
504.65	31061.25
504.83	31398.29
505.01	31037.84
505.18	30717.19
505.36	31253.17
505.53	31395.95
505.71	31840.65
505.88	31618.30
506.06	31590.21
506.23	32215.13
506.41	31564.46
506.58	31852.35
506.76	31735.32
506.93	31950.65
507.11	32208.11
507.28	32142.58
507.46	32229.18
507.63	32308.76
507.81	32496.00
507.98	32446.85
508.16	32826.01
508.33	32753.46
508.50	32982.83
508.68	32767.50
508.85	33312.84
509.03	33565.62
509.20	33230.93
509.38	33649.88
509.55	33780.95
509.73	33809.04
509.90	34010.32
510.08	34169.48
510.25	33656.90
510.42	34326.30
510.60	34227.99
510.77	34412.90
510.95	34373.11
511.12	34323.96
511.30	34543.97
511.47	34518.22
511.64	34845.90
511.82	35192.30
511.99	34752.27
512.17	34967.60
512.34	34890.37
512.51	35391.24
512.69	35358.47
512.86	35356.13
513.04	35791.47
513.21	35339.75
513.38	35777.43
513.56	35772.75
513.73	35866.37
513.90	35583.16
514.08	36222.13
514.25	36065.31
514.43	36465.55
514.60	36275.96
514.77	36753.43
514.95	36596.62
515.12	36545.12
515.29	36294.69
515.47	36472.57
515.64	37167.71
515.81	37062.38
515.99	36959.40
516.16	36910.25
516.33	37186.43
516.51	37439.21
516.68	37146.64
516.85	37303.46
517.03	37827.74
517.20	37993.92
517.37	37617.09
517.54	37846.46
517.72	37762.20
517.89	37699.01
518.06	38054.77
518.24	38141.37
518.41	38071.15
518.58	37839.44
518.75	37961.15
518.93	38234.99
519.10	38024.34
519.27	38492.45
519.45	38754.59
519.62	38604.80
519.79	38864.60
519.96	38550.96
520.14	38937.15
520.31	38525.22
520.48	39248.44
520.65	38827.15
520.83	39178.23
521.00	39459.09
521.17	39573.78
521.34	39234.40
521.52	39681.44
521.69	39807.83
521.86	39667.40
522.03	39714.21
522.20	39849.96
522.38	39974.01
522.55	40086.36
522.72	40093.38
522.89	40252.53
523.07	40945.33
523.24	39931.88
523.41	40788.52
523.58	40287.64
523.75	40802.56
523.92	40636.38
524.10	40964.06
524.27	40875.12
524.44	40959.38
524.61	40961.72
524.78	40952.35
524.96	41078.74
525.13	41750.48
525.30	41734.09
525.47	41881.55
525.64	41478.97
525.81	42010.28
525.98	41258.96
526.16	41717.71
526.33	41656.85
526.50	41816.01
526.67	41830.05
526.84	42351.99
527.01	42192.84
527.18	42267.73
527.36	42183.48
527.53	42007.94
527.70	42148.37
527.87	42698.39
528.04	42623.50
528.21	42600.09
528.38	42726.48
528.55	42672.65
528.72	42602.43
528.89	42869.25
529.07	42527.53
529.24	42850.53
529.41	42756.91
529.58	42815.42
529.75	42696.05
529.92	43264.80
530.09	43302.25
530.26	43484.81
530.43	43105.65
530.60	42859.89
530.77	43381.83
530.94	43438.00
531.11	43461.41
531.28	43709.50
531.46	43798.44
531.63	43840.57
531.80	43498.86
531.97	44149.53
532.14	44208.04
532.31	43847.60
532.48	44308.68
532.65	44236.12
532.82	44261.87
532.99	45052.97
533.16	44079.31
533.33	44612.95
533.50	44711.25
533.67	44252.51
533.84	43828.87
534.01	44615.29
534.18	44917.22
534.35	45020.20
534.52	44825.94
534.69	45518.74
534.86	45209.79
535.03	44563.80
535.20	44872.75
535.37	44973.39
535.54	45141.91
535.71	45097.44
535.88	45549.17
536.05	45432.14
536.22	45514.06
536.38	45502.35
536.55	45319.79
536.72	45539.80
536.89	45017.86
537.06	45846.41
537.23	45783.22
537.40	45918.97
537.57	45801.94
537.74	45769.18
537.91	45956.42
538.08	45811.31
538.25	45411.07
538.42	45614.70
538.59	46108.55
538.75	46066.42
538.92	46340.27
539.09	46270.05
539.26	46244.30
539.43	46253.67
539.60	46218.56
539.77	45930.67
539.94	46415.16
540.11	46649.22
540.28	46579.00
540.44	46574.32
540.61	46808.37
540.78	46588.36
540.95	46827.10
541.12	46721.77
541.29	46270.05
541.46	46817.74
541.62	46717.09
541.79	46876.25
541.96	46714.75
542.13	47021.36
542.30	46930.08
542.47	47152.43
542.63	47515.22
542.80	47023.70
542.97	47281.16
543.14	47892.04
543.31	47461.38
543.48	47555.00
543.64	47887.36
543.81	47992.68
543.98	47580.75
544.15	47849.91
544.32	47899.06
544.48	48175.25
544.65	47978.64
544.82	47915.45
544.99	47686.07
545.16	48142.48
545.32	48048.86
545.49	48341.42
545.66	48456.11
545.83	48346.11
546.00	48554.41
546.16	48245.46
546.33	47976.30
546.50	48339.08
546.67	48741.66
546.83	48439.73
547.00	48367.17
547.17	48552.07
547.34	48514.62
547.50	48552.07
547.67	49202.74
547.84	48666.76
548.00	48650.38
548.17	49441.48
548.34	49167.63
548.51	49628.72
548.67	49132.53
548.84	48760.38
549.01	48802.51
549.18	48968.69
549.34	48809.53
549.51	49200.40
549.68	49371.26
549.84	49439.14
550.01	49680.21
550.18	48910.17
550.34	49230.83
550.51	49113.80
550.68	49186.36
550.84	49392.33
551.01	49415.73
551.18	49291.68
551.34	49450.84
551.51	49923.63
551.68	49626.38
551.84	49602.97
552.01	49785.54
552.18	49474.24
552.34	49205.08
552.51	50099.17
552.68	49069.33
552.84	49797.24
553.01	49787.88
553.18	49652.12
553.34	49698.94
553.51	49626.38
553.67	49537.44
553.84	49932.99
554.01	49839.37
554.17	49818.30
554.34	49921.29
554.51	50440.89
554.67	50370.67
554.84	50468.97
555.00	50380.03
555.17	50092.15
555.33	49972.78
555.50	49890.86
555.67	49977.46
555.83	50302.79
556.00	50349.60
556.16	50784.94
556.33	50719.41
556.50	50803.67
556.66	50656.21
556.83	50277.05
556.99	50827.07
557.16	50145.98
557.32	50651.53
557.49	50773.24
557.65	50679.62
557.82	50742.81
557.98	50616.43
558.15	50674.94
558.32	51168.79
558.48	50878.57
558.65	50679.62
558.81	50436.20
558.98	51035.38
559.14	50848.14
559.31	50693.66
559.47	50815.37
559.64	51011.98
559.80	51206.24
559.97	51030.70
560.13	50726.43
560.30	50918.35
560.46	50841.12
560.63	50899.63
560.79	50742.81
560.96	51199.22
561.12	51444.98
561.29	51337.31
561.45	51360.72
561.61	51346.67
561.78	51098.58
561.94	51011.98
562.11	51028.36
562.27	51229.65
562.44	51110.28
562.60	51398.16
562.77	51480.08
562.93	51456.68
563.10	51508.17
563.26	51480.08
563.42	51409.87
563.59	50979.21
563.75	51641.58
563.92	51519.87
564.08	51297.52
564.24	51463.70
564.41	51334.97
564.57	51510.51
564.74	51306.88
564.90	51409.87
565.07	51267.09
565.23	51667.33
565.39	51288.16
565.56	51515.19
565.72	51543.28
565.88	51473.06
566.05	51477.74
566.21	51587.75
566.38	51618.17
566.54	51847.55
566.70	51817.12
566.87	51433.27
567.03	51660.30
567.19	51309.22
567.36	51339.65
567.52	51185.18
567.68	51604.13
567.85	51681.37
568.01	52095.64
568.17	51714.14
568.34	51920.10
568.50	51557.32
568.66	51608.81
568.83	51473.06
568.99	51641.58
569.15	51915.42
569.32	51854.57
569.48	51655.62
569.64	52121.39
569.81	51906.06
569.97	51817.12
570.13	51817.12
570.30	51920.10
570.46	51749.24
570.62	51847.55
570.78	51770.31
570.95	51681.37
571.11	52095.64
571.27	52037.13
571.43	51955.21
571.60	52238.42
571.76	51833.50
571.92	51767.97
572.09	51962.23
572.25	52198.63
572.41	51870.95
572.57	51826.48
572.74	51955.21
572.90	52081.60
573.06	52109.69
573.22	52273.52
573.38	51936.49
573.55	52348.42
573.71	52200.97
573.87	52168.20
574.03	51877.97
574.20	51779.67
574.36	51983.30
574.52	52086.28
574.68	52119.05
574.84	52156.50
575.01	51964.57
575.17	52093.30
575.33	51992.66
575.49	51810.10
575.65	52053.51
575.82	52236.08
575.98	51896.70
576.14	52130.75
576.30	52266.50
576.46	52301.61
576.62	52334.38
576.79	52353.10
576.95	52196.29
577.11	52020.75
577.27	52303.95
577.43	52266.50
577.59	52142.45
577.75	52432.68
577.92	51854.57
578.08	52147.14
578.24	52364.81
578.40	52212.67
578.56	52317.99
578.72	52027.77
578.88	52458.43
579.04	52163.52
579.21	52044.15
579.37	52355.44
579.53	52589.50
579.69	52268.84
579.85	52676.10
580.01	52350.76
580.17	52303.95
580.33	52479.49
580.49	52177.56
580.65	52200.97
580.82	52406.94
580.98	52259.48
581.14	52142.45
581.30	51973.94
581.46	52420.98
581.62	52472.47
581.78	52303.95
581.94	52638.65
582.10	52390.55
582.26	52395.23
582.42	52226.71
582.58	52245.44
582.74	52271.18
582.90	52121.39
583.06	52739.29
583.22	52416.30
583.38	52573.11
583.54	52774.40
583.70	52589.50
583.86	52568.43
584.02	52355.44
584.18	52640.99
584.34	52538.01
584.50	52727.59
584.66	52521.62
584.82	52095.64
584.98	52460.77
585.14	52779.08
585.30	52615.24
585.46	52509.92
585.62	52329.70
585.78	52680.78
585.94	52392.89
586.10	52158.84
586.26	52336.72
586.42	52280.55
586.58	52643.33
586.74	52313.31
586.90	52521.62
587.06	52336.72
587.22	52804.83
587.38	52619.92
587.54	52879.72
587.70	52734.61
587.86	52402.25
588.02	52472.47
588.18	52388.21
588.34	52530.98
588.49	52376.51
588.65	52325.02
588.81	52701.84
588.97	53179.31
589.13	52858.66
589.29	52746.31
589.45	52818.87
589.61	53006.11
589.77	52835.25
589.93	52683.12
590.08	52704.18
590.24	52861.00
590.40	52879.72
