SpectraSuite Data File
++++++++++++++++++++++++++++++++++++
Date: Fri Oct 04 11:39:46 GMT-05:00 2013
User: price-jones
Dark Spectrum Present: No
Reference Spectrum Present: No
Number of Sampled Component Spectra: 1
Spectrometers: USB2+H05261
Integration Time (usec): 100000 (USB2+H05261)
Spectra Averaged: 1 (USB2+H05261)
Boxcar Smoothing: 0 (USB2+H05261)
Correct for Electrical Dark: No (USB2+H05261)
Strobe/Lamp Enabled: No (USB2+H05261)
Correct for Detector Non-linearity: No (USB2+H05261)
Correct for Stray Light: No (USB2+H05261)
Number of Pixels in Processed Spectrum: 2048
>>>>>Begin Processed Spectral Data<<<<<
365.73	56.17
365.92	56.17
366.12	56.17
366.32	0.00
366.52	0.00
366.72	0.00
366.91	11.70
367.11	0.00
367.31	0.00
367.51	0.00
367.70	0.00
367.90	0.00
368.10	0.00
368.30	0.00
368.49	0.00
368.69	0.00
368.89	0.00
369.09	0.00
369.28	2.34
369.48	0.00
369.68	63.19
369.87	7.02
370.07	0.00
370.27	107.66
370.47	182.56
370.66	447.04
370.86	543.00
371.06	472.79
371.25	575.77
371.45	543.00
371.65	601.52
371.84	514.92
372.04	531.30
372.24	505.56
372.44	617.90
372.63	620.24
372.83	681.10
373.03	727.91
373.22	643.65
373.42	631.94
373.62	713.86
373.81	676.41
374.01	676.41
374.21	711.52
374.40	638.97
374.60	781.74
374.79	704.50
374.99	711.52
375.19	720.88
375.38	730.25
375.58	732.59
375.78	716.20
375.97	741.95
376.17	786.42
376.37	784.08
376.56	795.78
376.76	685.78
376.95	751.31
377.15	889.40
377.35	868.34
377.54	875.36
377.74	798.12
377.93	821.53
378.13	863.66
378.33	854.30
378.52	784.08
378.72	847.27
378.91	835.57
379.11	854.30
379.31	877.70
379.50	748.97
379.70	936.21
379.89	856.64
380.09	777.06
380.28	866.00
380.48	849.61
380.68	898.77
380.87	887.06
381.07	987.71
381.26	950.26
381.46	912.81
381.65	828.55
381.85	901.11
382.04	940.90
382.24	931.53
382.43	999.41
382.63	938.55
382.83	1048.56
383.02	1050.90
383.22	1104.73
383.41	957.28
383.61	929.19
383.80	936.21
384.00	983.02
384.19	1097.71
384.39	1086.01
384.58	973.66
384.78	1111.75
384.97	1102.39
385.17	1139.84
385.36	1130.48
385.56	1048.56
385.75	1067.28
385.95	1090.69
386.14	1102.39
386.34	1083.67
386.53	1163.25
386.72	1172.61
386.92	1060.26
387.11	1172.61
387.31	1203.04
387.50	1151.54
387.70	1277.93
387.89	1137.50
388.09	1174.95
388.28	1221.76
388.48	1174.95
388.67	1261.55
388.86	1261.55
389.06	1210.06
389.25	1294.32
389.45	1294.32
389.64	1284.95
389.84	1348.15
390.03	1329.42
390.22	1373.89
390.42	1343.47
390.61	1397.30
390.81	1434.75
391.00	1366.87
391.19	1397.30
391.39	1385.60
391.58	1409.00
391.78	1465.18
391.97	1511.99
392.16	1413.68
392.36	1500.28
392.55	1493.26
392.75	1561.14
392.94	1444.11
393.13	1495.60
393.33	1551.78
393.52	1516.67
393.71	1502.62
393.91	1563.48
394.10	1579.86
394.29	1593.90
394.49	1495.60
394.68	1659.44
394.88	1673.48
395.07	1636.03
395.26	1530.71
395.46	1570.50
395.65	1652.42
395.84	1708.59
396.04	1748.38
396.23	1767.10
396.42	1729.66
396.62	1647.74
396.81	1762.42
397.00	1671.14
397.19	1746.04
397.39	1739.02
397.58	1872.43
397.77	1764.76
397.97	1837.32
398.16	1844.34
398.35	1870.09
398.55	1837.32
398.74	1926.26
398.93	1973.07
399.12	1984.77
399.32	1891.15
399.51	1984.77
399.70	1940.30
399.90	2038.61
400.09	2010.52
400.28	1980.09
400.47	2085.42
400.67	2104.14
400.86	2076.06
401.05	2167.34
401.24	2209.47
401.44	2165.00
401.63	2228.19
401.82	2296.07
402.01	2242.23
402.21	2253.94
402.40	2375.64
402.59	2146.27
402.78	2200.10
402.97	2289.04
403.17	2305.43
403.36	2249.25
403.55	2296.07
403.74	2380.32
403.93	2497.35
404.13	2523.10
404.32	2450.54
404.51	2548.84
404.70	2595.65
404.89	2551.18
405.09	2485.65
405.28	2513.74
405.47	2569.91
405.66	2565.23
405.85	2637.78
406.05	2588.63
406.24	2586.29
406.43	2675.23
406.62	2750.13
406.81	2771.19
407.00	2794.60
407.20	2782.90
407.39	2637.78
407.58	2654.17
407.77	2925.67
407.96	2963.12
408.15	2888.22
408.34	2913.97
408.54	2930.35
408.73	2956.10
408.92	3080.14
409.11	3122.27
409.30	2958.44
409.49	3028.65
409.68	3035.67
409.87	3080.14
410.07	3178.45
410.26	3180.79
410.45	3248.66
410.64	3286.11
410.83	3274.41
411.02	3166.74
411.21	3445.27
411.40	3368.03
411.59	3461.65
411.78	3503.78
411.98	3304.84
412.17	3466.33
412.36	3426.54
412.55	3513.14
412.74	3592.72
412.93	3520.17
413.12	3604.42
413.31	3794.01
413.50	3777.62
413.69	3648.90
413.88	3815.07
414.07	3777.62
414.26	3770.60
414.45	3955.51
414.64	4051.47
414.83	4121.68
415.02	3929.76
415.22	4086.58
415.41	4222.33
415.60	4194.24
415.79	4248.07
415.98	4084.23
416.17	4201.26
416.36	4327.65
416.55	4341.69
416.74	4381.48
416.93	4283.18
417.12	4540.64
417.31	4393.19
417.50	4512.55
417.69	4582.77
417.88	4589.79
418.07	4681.07
418.26	4596.81
418.45	4702.14
418.64	4849.59
418.83	4933.85
419.02	4723.20
419.21	4865.97
419.39	4833.21
419.58	4660.01
419.77	4943.21
419.96	5034.49
420.15	5006.41
420.34	4952.57
420.53	4903.42
420.72	5165.56
420.91	4987.68
421.10	5317.70
421.29	5228.76
421.48	5057.90
421.67	5263.86
421.86	5172.58
422.05	5277.91
422.24	5310.68
422.43	5357.49
422.61	5226.42
422.80	5392.59
422.99	5502.60
423.18	5490.90
423.37	5434.72
423.56	5317.70
423.75	5273.23
423.94	5364.51
424.13	5057.90
424.32	5275.57
424.50	5437.06
424.69	5563.45
424.88	5425.36
425.07	5488.56
425.26	5439.40
425.45	5270.89
425.64	5490.90
425.83	5338.76
426.01	5521.32
426.20	5589.20
426.39	5472.17
426.58	5568.13
426.77	5596.22
426.96	5668.78
427.15	5647.71
427.33	5624.31
427.52	5741.33
427.71	5724.95
427.90	5813.89
428.09	5975.39
428.28	5741.33
428.46	5940.28
428.65	5860.70
428.84	5949.64
429.03	6157.95
429.22	5788.14
429.40	6031.56
429.59	6129.86
429.78	5699.20
429.97	5841.98
430.16	6066.67
430.34	6155.61
430.53	6162.63
430.72	6293.70
430.91	6251.57
431.10	6150.93
431.28	6279.66
431.47	6328.81
431.66	6539.46
431.85	6214.12
432.03	6464.56
432.22	6602.65
432.41	6422.43
432.60	6722.02
432.79	6509.03
432.97	6656.48
433.16	6551.16
433.35	6581.59
433.54	6604.99
433.72	6759.47
433.91	6609.67
434.10	6494.99
434.28	6602.65
434.47	6747.76
434.66	6848.41
434.85	6981.82
435.03	7143.32
435.22	7162.04
435.41	7440.56
435.59	7386.73
435.78	7356.30
435.97	7087.14
436.16	7112.89
436.34	7094.16
436.53	7068.42
436.72	7339.92
436.90	7070.76
437.09	7248.64
437.28	7180.76
437.46	7265.02
437.65	7363.33
437.84	7475.67
438.02	7524.82
438.21	7482.69
438.40	7375.03
438.58	7845.48
438.77	7655.89
438.96	7655.89
439.14	7826.75
439.33	7988.25
439.52	8100.59
439.70	8093.57
439.89	8175.49
440.08	8201.24
440.26	8318.26
440.45	8243.37
440.63	8292.52
440.82	8374.44
441.01	8280.82
441.19	8498.49
441.38	8627.21
441.57	8622.53
441.75	8599.13
441.94	8772.33
442.12	8650.62
442.31	8798.07
442.50	8868.29
442.68	9137.45
442.87	8943.19
443.05	9032.13
443.24	9210.01
443.43	9081.28
443.61	8982.98
443.80	9322.35
443.98	9174.90
444.17	8940.85
444.35	9348.10
444.54	9378.53
444.73	9317.67
444.91	9401.93
445.10	9392.57
445.28	9266.18
445.47	8999.36
445.65	9341.08
445.84	9441.72
446.02	9540.02
446.21	9284.91
446.39	9226.39
446.58	9558.75
446.77	9474.49
446.95	9345.76
447.14	9341.08
447.32	9418.32
447.51	9502.58
447.69	9385.55
447.88	9547.05
448.06	9317.67
448.25	9404.27
448.43	9383.21
448.62	9619.60
448.80	9781.10
448.99	9612.58
449.17	9881.74
449.36	9813.87
449.54	9820.89
449.73	9923.87
449.91	10099.41
450.10	10108.77
450.28	10253.89
450.46	10228.14
450.65	10143.88
450.83	10134.52
451.02	10176.65
451.20	10125.16
451.39	10333.47
451.57	10167.29
451.76	10099.41
451.94	10291.34
452.13	10420.06
452.31	10359.21
452.49	10188.35
452.68	10310.06
452.86	10298.36
453.05	10509.01
453.23	10532.41
453.42	10635.39
453.60	10244.52
453.78	10560.50
453.97	10567.52
454.15	10462.19
454.34	10642.42
454.52	10881.15
454.70	10874.13
454.89	10906.90
455.07	11255.64
455.26	11089.46
455.44	11133.93
455.62	11084.78
455.81	11042.65
455.99	11185.42
456.17	11349.26
456.36	11316.49
456.54	11459.26
456.73	11520.12
456.91	11733.11
457.09	11679.27
457.28	11826.73
457.46	11611.40
457.64	11747.15
457.83	11976.52
458.01	11723.74
458.19	12016.31
458.38	11791.62
458.56	11901.62
458.74	11882.90
458.93	11803.32
459.11	12060.78
459.29	12002.27
459.48	12273.77
459.66	12095.89
459.84	12486.76
460.03	12596.76
460.21	12315.90
460.39	12374.41
460.57	12402.50
460.76	12465.69
460.94	12446.97
461.12	12606.13
461.31	12800.39
461.49	12645.91
461.67	12325.26
461.85	12908.05
462.04	12760.60
462.22	13055.51
462.40	12877.63
462.59	12915.08
462.77	12964.23
462.95	12957.21
463.13	13041.46
463.32	13151.47
463.50	13083.59
463.68	13350.42
463.86	13261.48
464.05	13261.48
464.23	13198.28
464.41	13427.65
464.59	13167.85
464.78	13523.62
464.96	13345.73
465.14	13273.18
465.32	13708.52
465.50	13788.10
465.69	13687.45
465.87	13338.71
466.05	13708.52
466.23	13635.96
466.41	13848.95
466.60	14036.19
466.78	13832.57
466.96	13757.67
467.14	13762.35
467.32	13914.48
467.51	14139.18
467.69	13776.39
467.87	13635.96
468.05	13855.97
468.23	14075.98
468.41	13989.38
468.60	13963.64
468.78	14284.29
468.96	14225.78
469.14	14384.93
469.32	14448.13
469.50	14171.94
469.69	14555.79
469.87	15101.14
470.05	14981.77
470.23	14710.27
470.41	14998.15
470.59	15049.64
470.77	14663.46
470.95	14740.69
471.14	15239.23
471.32	14736.01
471.50	15382.00
471.68	15396.04
471.86	15234.55
472.04	15548.18
472.22	15770.53
472.40	15447.54
472.58	15674.57
472.77	15627.76
472.95	15943.73
473.13	16547.59
473.31	15597.33
473.49	15943.73
473.67	16102.89
473.85	16142.67
474.03	16332.26
474.21	16322.90
474.39	16606.10
474.57	16542.91
474.75	16732.49
474.93	16989.95
475.12	16924.41
475.30	16849.52
475.48	16915.05
475.66	16781.64
475.84	17294.22
476.02	17467.42
476.20	17289.54
476.38	17731.90
476.56	17884.03
476.74	18136.81
476.92	18019.78
477.10	18092.34
477.28	18506.62
477.46	17930.84
477.64	18504.28
477.82	18747.69
478.00	18899.83
478.18	18988.77
478.36	19349.21
478.54	19328.14
478.72	19370.27
478.90	19349.21
479.08	19496.66
479.26	19747.10
479.44	20013.92
479.62	20517.14
479.80	20568.63
479.98	20517.14
480.16	20760.55
480.34	20692.68
480.52	20823.75
480.70	20840.13
480.88	20730.12
481.06	21406.54
481.24	21139.72
481.41	21633.57
481.59	21895.71
481.77	22071.25
481.95	22246.79
482.13	22314.67
482.31	22078.27
482.49	22869.37
482.67	22806.18
482.85	23021.51
483.03	23484.94
483.21	23737.71
483.39	23995.17
483.57	24002.19
483.74	23873.46
483.92	24280.72
484.10	24074.75
484.28	24713.72
484.46	24599.03
484.64	25685.04
484.82	25006.28
485.00	25287.15
485.18	25474.39
485.35	25963.56
485.53	25975.27
485.71	26148.46
485.89	26398.90
486.07	26525.29
486.25	26267.83
486.43	26672.74
486.61	26836.58
486.78	27255.54
486.96	27627.68
487.14	28119.20
487.32	27934.29
487.50	28088.77
487.68	28283.03
487.85	28531.13
488.03	28844.76
488.21	29422.87
488.39	29717.78
488.57	30073.54
488.75	30141.42
488.92	29970.56
489.10	30052.48
489.28	30766.34
489.46	30855.28
489.64	30857.62
489.81	31302.32
489.99	31498.93
490.17	31709.58
490.35	31875.76
490.53	32074.70
490.70	32264.28
490.88	32147.26
491.06	32769.84
491.24	32613.02
491.41	32811.97
491.59	33413.49
491.77	33366.68
491.95	34136.71
492.13	33848.83
492.30	33996.28
492.48	33773.93
492.66	34178.84
492.84	34576.73
493.01	35047.18
493.19	35058.88
493.37	35194.64
493.54	35299.96
493.72	35861.69
493.90	35878.07
494.08	36322.77
494.25	36545.12
494.43	36638.75
494.61	36971.10
494.79	37083.45
494.96	37181.75
495.14	37024.93
495.32	37397.08
495.49	37776.25
495.67	38136.69
495.85	38539.26
496.02	38272.44
496.20	38780.34
496.38	38557.99
496.55	38677.35
496.73	39257.81
496.91	39236.74
497.09	39400.58
497.26	39992.73
497.44	39550.37
497.62	39674.42
497.79	40357.86
497.97	40172.96
498.14	40561.48
498.32	41102.15
498.50	41270.67
498.67	41617.07
498.85	41228.54
499.03	41301.09
499.20	41687.28
499.38	41869.84
499.56	42045.38
499.73	42403.49
499.91	41940.06
500.08	42878.61
500.26	42359.02
500.44	42646.90
500.61	42789.67
500.79	42866.91
500.97	43356.08
501.14	43608.86
501.32	43728.23
501.49	43863.98
501.67	43505.88
501.84	43803.13
502.02	43990.37
502.20	44133.14
502.37	44114.42
502.55	44287.62
502.72	44608.27
502.90	44308.68
503.07	44655.08
503.25	45081.06
503.43	44903.18
503.60	45492.99
503.78	45591.30
503.95	45598.32
504.13	45530.44
504.30	45764.49
504.48	45570.23
504.65	46003.23
504.83	45801.94
505.01	46873.91
505.18	46143.66
505.36	46878.59
505.53	46384.74
505.71	47049.45
505.88	46958.17
506.06	46742.84
506.23	47215.63
506.41	47161.79
506.58	47732.89
506.76	47562.03
506.93	47751.61
507.11	47826.51
507.28	47618.20
507.46	47906.08
507.63	47957.58
507.81	48432.71
507.98	48114.39
508.16	48210.35
508.33	48470.15
508.50	48395.26
508.68	48582.50
508.85	49144.23
509.03	48875.07
509.20	48917.20
509.38	49389.98
509.55	49591.27
509.73	49354.88
509.90	49602.97
510.08	49450.84
510.25	49724.68
510.42	49822.98
510.60	50511.10
510.77	50368.33
510.95	49970.44
511.12	50005.55
511.30	50162.36
511.47	50183.43
511.64	50611.74
511.82	50770.90
511.99	50733.45
512.17	50972.19
512.34	50571.96
512.51	51145.39
512.69	51248.37
512.86	51283.48
513.04	51526.89
513.21	51459.02
513.38	51810.10
513.56	51732.86
513.73	51810.10
513.90	51901.38
514.08	51583.07
514.25	51676.69
514.43	52170.54
514.60	52168.20
514.77	52222.03
514.95	52500.56
515.12	52114.37
515.29	52128.41
515.47	52296.93
515.64	52814.19
515.81	52793.12
515.99	52732.27
516.16	52879.72
516.33	53010.79
516.51	53399.32
516.68	53193.36
516.85	53268.25
517.03	53443.79
517.20	53481.24
517.37	53097.39
517.54	53607.63
517.72	53261.23
517.89	53626.35
518.06	53389.96
518.24	53542.10
518.41	53811.26
518.58	53647.42
518.75	53741.04
518.93	54082.76
519.10	53848.71
519.27	54286.39
519.45	53907.22
519.62	54000.84
519.79	54136.59
519.96	54028.93
520.14	54176.38
520.31	54288.73
520.48	54571.93
520.65	54728.75
520.83	54738.11
521.00	54637.47
521.17	54630.44
521.34	54632.78
521.52	55072.81
521.69	54820.03
521.86	55210.90
522.03	54995.57
522.20	55285.79
522.38	55330.26
522.55	55391.12
522.72	55246.00
522.89	55421.55
523.07	55620.49
523.24	55435.59
523.41	55641.56
523.58	55377.08
523.75	55789.01
523.92	55564.32
524.10	55781.99
524.27	55688.37
524.44	55791.35
524.61	56147.11
524.78	56088.60
524.96	56296.91
525.13	56193.92
525.30	56435.00
525.47	56280.52
525.64	56142.43
525.81	56589.47
525.98	56643.30
526.16	56435.00
526.33	56397.55
526.50	56640.96
526.67	56481.81
526.84	56687.78
527.01	56385.85
527.18	56617.56
527.36	56954.60
527.53	56924.17
527.70	57155.88
527.87	57277.59
528.04	57048.22
528.21	57137.16
528.38	57031.83
528.55	57223.76
528.72	57333.76
528.89	57462.49
529.07	57015.45
529.24	57364.19
529.41	57607.61
529.58	57312.70
529.75	57331.42
529.92	57446.11
530.09	57556.11
530.26	57602.92
530.43	57715.27
530.60	57612.29
530.77	57757.40
530.94	57844.00
531.11	57619.31
531.28	57567.82
531.46	57778.46
531.63	58085.07
531.80	57862.72
531.97	58262.96
532.14	58251.25
532.31	58096.78
532.48	58181.04
532.65	58412.75
532.82	58089.76
532.99	58328.49
533.16	58403.39
533.33	58518.07
533.50	58698.30
533.67	58548.50
533.84	58443.18
534.01	58494.67
534.18	58251.25
534.35	58557.86
534.52	58529.78
534.69	58714.68
534.86	58702.98
535.03	58546.16
535.20	58686.59
535.37	58651.48
535.54	58784.90
535.71	58630.42
535.88	58918.31
536.05	58857.45
536.22	59168.74
536.38	59138.32
536.55	59042.35
536.72	59014.27
536.89	59037.67
537.06	59040.01
537.23	59072.78
537.40	59079.80
537.57	59121.93
537.74	59215.55
537.91	59276.41
538.08	59536.21
538.25	59245.98
538.42	59353.65
538.59	59517.48
538.75	59323.22
538.92	59456.63
539.09	59332.58
539.26	59650.89
539.43	59709.41
539.60	59763.24
539.77	59636.85
539.94	60072.19
540.11	59934.10
540.28	59828.77
540.44	59917.71
540.61	59828.77
540.78	59922.40
540.95	60191.56
541.12	60069.85
541.29	60280.50
541.46	60238.37
541.62	60182.19
541.79	60093.25
541.96	59922.40
542.13	59948.14
542.30	60324.97
542.47	60388.16
542.63	60692.43
542.80	60528.59
542.97	60755.63
543.14	60631.58
543.31	60549.66
543.48	60474.76
543.64	60781.37
543.81	60905.42
543.98	60690.09
544.15	60917.12
544.32	61015.43
544.48	60977.98
544.65	60945.21
544.82	60741.58
544.99	60633.92
545.16	61076.28
545.32	60863.29
545.49	61146.50
545.66	61504.60
545.83	61378.21
546.00	61516.30
546.16	60973.30
546.33	61024.79
546.50	60900.74
546.67	60989.68
546.83	60818.82
547.00	60914.78
547.17	61141.81
547.34	61190.97
547.50	61511.62
547.67	61453.11
547.84	61315.01
548.00	61186.28
548.17	61284.59
548.34	61123.09
548.51	61354.80
548.67	61591.20
548.84	61485.87
549.01	61570.13
549.18	61371.19
549.34	61361.82
549.51	61565.45
549.68	61403.95
549.84	61317.35
550.01	61633.33
550.18	61717.59
550.34	61659.07
550.51	61630.99
550.68	61874.40
550.84	61738.65
551.01	61881.42
551.18	61598.22
551.34	61619.28
551.51	61499.92
551.68	61755.03
551.84	61846.32
552.01	61645.03
552.18	61961.00
552.34	61895.47
552.51	61951.64
552.68	61712.91
552.84	61925.89
553.01	62192.72
553.18	61890.79
553.34	62190.37
553.51	62045.26
553.67	62197.40
553.84	62468.90
554.01	62099.09
554.17	62124.84
554.34	62129.52
554.51	62173.99
554.67	62286.34
554.84	62253.57
555.00	62363.57
555.17	62227.82
555.33	62305.06
555.50	62155.27
555.67	62424.43
555.83	62237.19
556.00	62190.37
556.16	62255.91
556.33	62372.94
556.50	62459.54
556.66	62440.81
556.83	62536.77
556.99	62754.44
557.16	62606.99
557.32	62588.27
557.49	62630.40
557.65	62391.66
557.82	62468.90
557.98	62480.60
558.15	62642.10
558.32	62913.60
558.48	62805.94
558.65	62876.15
558.81	62754.44
558.98	62756.78
559.14	62653.80
559.31	62506.35
559.47	62632.74
559.64	62698.27
559.80	62719.34
559.97	62805.94
560.13	62679.55
560.30	62789.55
560.46	63014.24
560.63	62944.03
560.79	62836.36
560.96	63140.63
561.12	62812.96
561.29	62946.37
561.45	62974.45
561.61	63227.23
561.78	63032.97
561.94	63164.04
562.11	63044.67
562.27	63091.48
562.44	63126.59
562.60	63063.39
562.77	62897.22
562.93	62915.94
563.10	63126.59
563.26	63058.71
563.42	63295.11
563.59	63267.02
563.75	63252.98
563.92	63304.47
564.08	63079.78
564.24	63082.12
564.41	63189.78
564.57	63075.10
564.74	63234.25
564.90	63264.68
565.07	63203.83
565.23	63316.17
565.39	63157.02
565.56	63245.96
565.72	63264.68
565.88	63295.11
566.05	63175.74
566.21	63105.52
566.38	63168.72
566.54	63264.68
566.70	63477.67
566.87	63515.12
567.03	63370.00
567.19	63454.26
567.36	63447.24
567.52	63367.66
567.68	63391.07
567.85	63269.36
568.01	63414.47
568.17	63430.86
568.34	63573.63
568.50	63508.10
568.66	63465.97
568.83	63632.14
568.99	63337.24
569.15	63585.33
569.32	63337.24
569.48	63365.32
569.64	63409.79
569.81	63655.55
569.97	63370.00
570.13	63625.12
570.30	63444.90
570.46	63688.32
570.62	63646.19
570.78	63430.86
570.95	63428.52
571.11	63365.32
571.27	63442.56
571.43	63482.35
571.60	63634.48
571.76	63456.60
571.92	63714.06
572.09	63833.43
572.25	63643.85
572.41	63482.35
572.57	63786.62
572.74	64034.72
572.90	63730.45
573.06	63709.38
573.22	63650.87
573.38	63700.02
573.55	63737.47
573.71	64055.78
573.87	63873.22
574.03	63716.40
574.20	63922.37
574.36	63700.02
574.52	63805.34
574.68	63653.21
574.84	63634.48
575.01	63866.20
575.17	63803.00
575.33	63721.08
575.49	63721.08
575.65	63905.99
575.82	63875.56
575.98	63880.24
576.14	63903.65
576.30	63725.77
576.46	63688.32
576.62	63896.62
576.79	63791.30
576.95	63819.39
577.11	63875.56
577.27	63856.84
577.43	63929.39
577.59	63831.09
577.75	63913.01
577.92	63597.04
578.08	63639.17
578.24	63704.70
578.40	63957.48
578.56	63870.88
578.72	63884.92
578.88	64172.81
579.04	64243.02
579.21	63896.62
579.37	64072.17
579.53	64006.63
579.69	63814.71
579.85	63987.91
580.01	63810.03
580.17	63690.66
580.33	64001.95
580.49	63987.91
580.65	63941.10
580.82	64086.21
580.98	63945.78
581.14	63821.73
581.30	64037.06
581.46	63973.86
581.62	64046.42
581.78	63707.04
581.94	63978.54
582.10	63973.86
582.26	64224.30
582.42	64018.33
582.58	64079.19
582.74	64034.72
582.90	64175.15
583.06	64097.91
583.22	63931.73
583.38	63903.65
583.54	63875.56
583.70	63847.47
583.86	64030.04
584.02	64025.35
584.18	64100.25
584.34	64135.36
584.50	64179.83
584.66	64156.42
584.82	63917.69
584.98	64111.95
585.14	64044.08
585.30	63788.96
585.46	64065.14
585.62	64046.42
585.78	64095.57
585.94	63898.97
586.10	64081.53
586.26	64088.55
586.42	64090.89
586.58	64170.47
586.74	64128.34
586.90	64217.28
587.06	63922.37
587.22	64245.36
587.38	64205.58
587.54	64254.73
587.70	64289.84
587.86	64369.41
588.02	64243.02
588.18	64385.80
588.34	64273.45
588.49	64338.99
588.65	64299.20
