SpectraSuite Data File
++++++++++++++++++++++++++++++++++++
Date: Tue Oct 01 18:27:27 GMT-05:00 2013
User: stostad
Dark Spectrum Present: No
Reference Spectrum Present: No
Number of Sampled Component Spectra: 1
Spectrometers: USB2+H05261
Integration Time (usec): 100000 (USB2+H05261)
Spectra Averaged: 1 (USB2+H05261)
Boxcar Smoothing: 0 (USB2+H05261)
Correct for Electrical Dark: No (USB2+H05261)
Strobe/Lamp Enabled: No (USB2+H05261)
Correct for Detector Non-linearity: No (USB2+H05261)
Correct for Stray Light: No (USB2+H05261)
Number of Pixels in Processed Spectrum: 2048
>>>>>Begin Processed Spectral Data<<<<<
365.73	95.96
365.92	95.96
366.12	95.96
366.32	0.00
366.52	4.68
366.72	7.02
366.91	14.04
367.11	0.00
367.31	0.00
367.51	0.00
367.70	0.00
367.90	0.00
368.10	0.00
368.30	0.00
368.49	0.00
368.69	4.68
368.89	0.00
369.09	0.00
369.28	0.00
369.48	0.00
369.68	7.02
369.87	0.00
370.07	0.00
370.27	53.83
370.47	107.66
370.66	227.03
370.86	322.99
371.06	292.57
371.25	297.25
371.45	308.95
371.65	360.44
371.84	341.72
372.04	374.49
372.24	348.74
372.44	330.02
372.63	381.51
372.83	330.02
373.03	421.30
373.22	400.23
373.42	355.76
373.62	416.62
373.81	428.32
374.01	402.57
374.21	458.74
374.40	351.08
374.60	472.79
374.79	411.93
374.99	416.62
375.19	404.91
375.38	414.27
375.58	433.00
375.78	491.51
375.97	472.79
376.17	512.58
376.37	374.49
376.56	461.09
376.76	514.92
376.95	390.87
377.15	479.81
377.35	472.79
377.54	552.37
377.74	454.06
377.93	482.15
378.13	484.49
378.33	430.66
378.52	528.96
378.72	547.69
378.91	477.47
379.11	444.70
379.31	482.15
379.50	521.94
379.70	531.30
379.89	550.03
380.09	475.13
380.28	449.38
380.48	447.04
380.68	521.94
380.87	524.28
381.07	566.41
381.26	498.53
381.46	540.66
381.65	564.07
381.85	514.92
382.04	510.24
382.24	624.92
382.43	554.71
382.63	496.19
382.83	566.41
383.02	653.01
383.22	660.03
383.41	601.52
383.61	528.96
383.80	648.33
384.00	608.54
384.19	575.77
384.39	624.92
384.58	535.98
384.78	641.31
384.97	589.82
385.17	566.41
385.36	608.54
385.56	636.63
385.75	613.22
385.95	655.35
386.14	608.54
386.34	681.10
386.53	627.26
386.72	667.05
386.92	674.07
387.11	667.05
387.31	741.95
387.50	664.71
387.70	683.44
387.89	702.16
388.09	788.76
388.28	641.31
388.48	697.48
388.67	713.86
388.86	725.57
389.06	711.52
389.25	683.44
389.45	706.84
389.64	793.44
389.84	793.44
390.03	751.31
390.22	744.29
390.42	716.20
390.61	765.36
390.81	746.63
391.00	791.10
391.19	732.59
391.39	702.16
391.58	765.36
391.78	828.55
391.97	830.89
392.16	727.91
392.36	884.72
392.55	926.85
392.75	833.23
392.94	734.93
393.13	917.49
393.33	915.15
393.52	924.51
393.71	826.21
393.91	919.83
394.10	833.23
394.29	940.90
394.49	938.55
394.68	833.23
394.88	905.79
395.07	887.06
395.26	945.58
395.46	983.02
395.65	994.73
395.84	940.90
396.04	1053.24
396.23	1036.86
396.42	1008.77
396.62	1041.54
396.81	994.73
397.00	980.68
397.19	1029.84
397.39	1039.20
397.58	1039.20
397.77	1107.07
397.97	1039.20
398.16	1069.62
398.35	1109.41
398.55	1067.28
398.74	1128.14
398.93	1130.48
399.12	1125.80
399.32	1109.41
399.51	1109.41
399.70	1132.82
399.90	1095.37
400.09	1102.39
400.28	1170.27
400.47	1186.65
400.67	1160.91
400.86	1156.22
401.05	1245.16
401.24	1296.66
401.44	1397.30
401.63	1193.67
401.82	1270.91
402.01	1284.95
402.21	1273.25
402.40	1324.74
402.59	1291.98
402.78	1308.36
402.97	1235.80
403.17	1299.00
403.36	1425.39
403.55	1364.53
403.74	1409.00
403.93	1460.49
404.13	1444.11
404.32	1383.26
404.51	1493.26
404.70	1528.37
404.89	1533.05
405.09	1500.28
405.28	1458.15
405.47	1486.24
405.66	1556.46
405.85	1614.97
406.05	1666.46
406.24	1589.22
406.43	1610.29
406.62	1563.48
406.81	1778.81
407.00	1675.82
407.20	1633.69
407.39	1760.08
407.58	1816.26
407.77	1806.89
407.96	1825.62
408.15	1762.42
408.34	1624.33
408.54	1760.08
408.73	1844.34
408.92	1863.07
409.11	1774.13
409.30	1799.87
409.49	1900.52
409.68	1863.07
409.87	1937.96
410.07	2057.33
410.26	1947.33
410.45	1952.01
410.64	1954.35
410.83	1879.45
411.02	2125.21
411.21	2052.65
411.40	2087.76
411.59	2099.46
411.78	2139.25
411.98	2040.95
412.17	2059.67
412.36	2235.21
412.55	2237.55
412.74	2242.23
412.93	2345.22
413.12	2251.60
413.31	2338.20
413.50	2286.70
413.69	2349.90
413.88	2317.13
414.07	2399.05
414.26	2420.11
414.45	2487.99
414.64	2532.46
414.83	2466.92
415.02	2485.65
415.22	2614.38
415.41	2693.96
415.60	2623.74
415.79	2647.15
415.98	2600.34
416.17	2682.25
416.36	2710.34
416.55	2677.57
416.74	2752.47
416.93	2768.85
417.12	2761.83
417.31	2839.07
417.50	2890.56
417.69	2920.99
417.88	2979.50
418.07	2864.82
418.26	2932.69
418.45	2965.46
418.64	3211.22
418.83	3098.87
419.02	3077.80
419.21	2988.86
419.39	3162.06
419.58	3077.80
419.77	3002.91
419.96	3110.57
420.15	3220.58
420.34	3098.87
420.53	3098.87
420.72	3258.03
420.91	3332.92
421.10	3262.71
421.29	3316.54
421.48	3307.18
421.67	3372.71
421.86	3370.37
422.05	3393.78
422.24	3353.99
422.43	3370.37
422.61	3307.18
422.80	3501.44
422.99	3386.76
423.18	3417.18
423.37	3473.36
423.56	3485.06
423.75	3449.95
423.94	3365.69
424.13	3157.38
424.32	3342.28
424.50	3506.12
424.69	3639.53
424.88	3503.78
425.07	3480.38
425.26	3433.57
425.45	3503.78
425.64	3393.78
425.83	3524.85
426.01	3578.68
426.20	3501.44
426.39	3592.72
426.58	3599.74
426.77	3538.89
426.96	3716.77
427.15	3571.66
427.33	3709.75
427.52	3651.24
427.71	3679.32
427.90	3611.45
428.09	3667.62
428.28	3772.94
428.46	3763.58
428.65	3695.71
428.84	3850.18
429.03	3892.31
429.22	3726.13
429.40	3794.01
429.59	3882.95
429.78	3700.39
429.97	3700.39
430.16	3747.20
430.34	3758.90
430.53	4042.11
430.72	3964.87
430.91	4065.51
431.10	3999.98
431.28	4105.30
431.47	4184.88
431.66	4194.24
431.85	4072.53
432.03	4058.49
432.22	4163.81
432.41	4044.45
432.60	4088.92
432.79	4280.84
432.97	4109.98
433.16	4198.92
433.35	4318.29
433.54	4234.03
433.72	4369.78
433.91	4280.84
434.10	4320.63
434.28	4322.97
434.47	4278.50
434.66	4421.27
434.85	4423.61
435.03	4414.25
435.22	4524.26
435.41	4671.71
435.59	4524.26
435.78	4627.24
435.97	4531.28
436.16	4503.19
436.34	4727.88
436.53	4645.96
436.72	4702.14
436.90	4489.15
437.09	4645.96
437.28	4657.67
437.46	4512.55
437.65	4627.24
437.84	4755.97
438.02	4772.35
438.21	4816.82
438.40	4774.69
438.58	4933.85
438.77	4835.55
438.96	4985.34
439.14	4954.91
439.33	4896.40
439.52	5060.24
439.70	5172.58
439.89	5146.84
440.08	5125.77
440.26	5298.97
440.45	5247.48
440.63	5362.17
440.82	5205.35
441.01	5341.10
441.19	5331.74
441.38	5427.70
441.57	5526.00
441.75	5495.58
441.94	5533.03
442.12	5628.99
442.31	5605.58
442.50	5558.77
442.68	5652.39
442.87	5753.04
443.05	5687.50
443.24	5849.00
443.43	5930.92
443.61	5827.93
443.80	5968.37
443.98	5753.04
444.17	5783.46
444.35	5774.10
444.54	5996.45
444.73	5846.66
444.91	5804.53
445.10	5820.91
445.28	5785.80
445.47	5731.97
445.65	5874.74
445.84	5994.11
446.02	5935.60
446.21	5994.11
446.39	5741.33
446.58	6052.63
446.77	5898.15
446.95	5926.24
447.14	5937.94
447.32	6024.54
447.51	6087.73
447.69	5867.72
447.88	6061.99
448.06	5949.64
448.25	6092.41
448.43	6045.60
448.62	6136.88
448.80	6090.07
448.99	6104.12
449.17	6183.70
449.36	6150.93
449.54	6244.55
449.73	6272.64
449.91	6359.24
450.10	6319.45
450.28	6319.45
450.46	6352.21
450.65	6389.66
450.83	6403.71
451.02	6340.51
451.20	6574.56
451.39	6583.93
451.57	6502.01
451.76	6242.21
451.94	6422.43
452.13	6661.16
452.31	6520.73
452.49	6586.27
452.68	6466.90
452.86	6754.79
453.05	6827.34
453.23	6656.48
453.42	6663.51
453.60	6609.67
453.78	6637.76
453.97	6719.68
454.15	6745.42
454.34	6567.54
454.52	7117.57
454.70	6881.18
454.89	6902.24
455.07	6878.83
455.26	6963.09
455.44	7042.67
455.62	7084.80
455.81	7061.40
455.99	7140.97
456.17	7005.22
456.36	7124.59
456.54	7410.14
456.73	7281.41
456.91	7410.14
457.09	7227.57
457.28	7468.65
457.46	7297.79
457.64	7494.40
457.83	7363.33
458.01	7428.86
458.19	7559.93
458.38	7386.73
458.56	7627.81
458.74	7662.91
458.93	7627.81
459.11	7665.25
459.29	7796.32
459.48	7810.37
459.66	7606.74
459.84	7772.92
460.03	7836.11
460.21	7716.75
460.39	7875.90
460.57	7871.22
460.76	8002.29
460.94	7815.05
461.12	7756.54
461.31	8028.04
461.49	8086.55
461.67	7927.39
461.85	8081.87
462.04	8126.34
462.22	8629.56
462.40	8271.45
462.59	7995.27
462.77	8175.49
462.95	8318.26
463.13	8175.49
463.32	8086.55
463.50	8416.57
463.68	8252.73
463.86	8344.01
464.05	8234.00
464.23	8299.54
464.41	8437.63
464.59	8299.54
464.78	8641.26
464.96	8549.98
465.14	8503.17
465.32	8578.06
465.50	8568.70
465.69	8643.60
465.87	8430.61
466.05	8505.51
466.23	8446.99
466.41	8702.11
466.60	8828.50
466.78	8568.70
466.96	8706.79
467.14	8777.01
467.32	8807.44
467.51	8901.06
467.69	8578.06
467.87	8781.69
468.05	8868.29
468.23	8683.39
468.41	8746.58
468.60	8826.16
468.78	8901.06
468.96	8865.95
469.14	9071.92
469.32	9238.09
469.50	8868.29
469.69	9219.37
469.87	9200.65
470.05	9172.56
470.23	9210.01
470.41	9336.40
470.59	9540.02
470.77	9181.92
470.95	9434.70
471.14	9488.53
471.32	9425.34
471.50	9563.43
471.68	9614.92
471.86	9600.88
472.04	9689.82
472.22	9778.76
472.40	9727.27
472.58	9795.14
472.77	9832.59
472.95	10193.03
473.13	10209.42
473.31	9977.70
473.49	9982.38
473.67	10068.98
473.85	9921.53
474.03	10221.12
474.21	10291.34
474.39	10328.78
474.57	10483.26
474.75	10544.11
474.93	10483.26
475.12	10459.85
475.30	10626.03
475.48	10590.92
475.66	10700.93
475.84	10644.76
476.02	10977.11
476.20	10839.02
476.38	11103.50
476.56	11346.92
476.74	11222.87
476.92	11288.40
477.10	11241.59
477.28	11403.09
477.46	11384.37
477.64	11473.31
477.82	11815.02
478.00	11903.96
478.18	11971.84
478.36	12065.46
478.54	12044.40
478.72	12084.19
478.90	12116.95
479.08	12374.41
479.26	12575.70
479.44	12587.40
479.62	12461.01
479.80	12475.06
479.98	12833.16
480.16	12961.89
480.34	13064.87
480.52	13502.55
480.70	13067.21
480.88	13071.89
481.06	13179.56
481.24	13584.47
481.41	13511.91
481.59	13664.05
481.77	13923.85
481.95	13867.67
482.13	14026.83
482.31	13970.66
482.49	14345.14
482.67	14342.80
482.85	14621.33
483.03	14469.19
483.21	14731.33
483.39	14775.80
483.57	14857.72
483.74	15147.95
483.92	15140.93
484.10	15124.54
484.28	15274.34
484.46	15679.25
484.64	15793.94
484.82	15634.78
485.00	15838.41
485.18	15974.16
485.35	16233.96
485.53	16044.37
485.71	16250.34
485.89	16690.36
486.07	16411.84
486.25	16786.32
486.43	17018.04
486.61	17102.29
486.78	17111.66
486.96	16886.97
487.14	17322.30
487.32	17453.37
487.50	17572.74
487.68	17891.06
487.85	18207.03
488.03	18307.67
488.21	18305.33
488.39	18026.81
488.57	18347.46
488.75	18593.22
488.92	19218.14
489.10	18848.33
489.28	19152.60
489.46	19204.10
489.64	18850.67
489.81	19594.96
489.99	19658.16
490.17	19859.45
490.35	20084.14
490.53	20332.23
490.70	20154.35
490.88	20285.42
491.06	20472.67
491.24	20496.07
491.41	20671.61
491.59	20908.01
491.77	20790.98
491.95	20896.30
492.13	21036.74
492.30	21303.56
492.48	21645.27
492.66	21362.07
492.84	21680.38
493.01	21495.48
493.19	21802.09
493.37	22207.00
493.54	22141.47
493.72	22403.61
493.90	22504.25
494.08	22771.07
494.25	23119.81
494.43	22492.55
494.61	23154.92
494.79	22965.34
494.96	23365.57
495.14	23328.12
495.32	23606.64
495.49	23321.10
495.67	23786.86
495.85	23639.41
496.02	24084.11
496.20	24327.53
496.38	24175.39
496.55	24123.90
496.73	24486.68
496.91	24500.73
497.09	25027.35
497.26	24882.24
497.44	24790.95
497.62	24823.72
497.79	25680.36
497.97	25350.34
498.14	25830.15
498.32	25834.83
498.50	25511.84
498.67	25872.28
498.85	26206.98
499.03	26155.49
499.20	26295.92
499.38	26553.38
499.56	26499.55
499.73	26389.54
499.91	26679.77
500.08	26614.23
500.26	26314.64
500.44	26897.44
500.61	26705.51
500.79	27192.34
500.97	27372.57
501.14	27173.62
501.32	27386.61
501.49	27639.39
501.67	27618.32
501.84	27931.95
502.02	27555.13
502.20	27875.78
502.37	27784.50
502.55	27765.78
502.72	28198.77
502.90	27866.42
503.07	28156.64
503.25	28259.63
503.43	28044.30
503.60	28648.16
503.78	28737.10
503.95	28463.25
504.13	28893.91
504.30	28936.04
504.48	29076.48
504.65	29127.97
504.83	29345.64
505.01	29502.45
505.18	29303.51
505.36	29706.08
505.53	29521.18
505.71	29727.14
505.88	29876.94
506.06	29804.38
506.23	29827.79
506.41	29708.42
506.58	30253.76
506.76	30326.32
506.93	30394.20
507.11	30218.66
507.28	31049.55
507.46	30675.06
507.63	30295.89
507.81	30532.29
507.98	30590.80
508.16	30705.49
508.33	31065.93
508.50	31208.70
508.68	31019.12
508.85	31346.79
509.03	31262.54
509.20	31529.36
509.38	31840.65
509.55	31873.42
509.73	31962.36
509.90	32058.32
510.08	32065.34
510.25	32030.23
510.42	32123.85
510.60	32549.83
510.77	32397.70
510.95	32985.17
511.12	32521.74
511.30	32622.39
511.47	32741.75
511.64	32809.63
511.82	33085.81
511.99	33193.48
512.17	33174.75
512.34	33266.03
512.51	33813.72
512.69	33579.67
512.86	33762.23
513.04	33734.14
513.21	33975.22
513.38	33839.47
513.56	33635.84
513.73	33759.89
513.90	34136.71
514.08	33930.75
514.25	34162.46
514.43	34410.56
514.60	34656.31
514.77	34089.90
514.95	34707.80
515.12	33935.43
515.29	34628.23
515.47	34885.68
515.64	34944.20
515.81	35047.18
515.99	35168.89
516.16	35164.21
516.33	35093.99
516.51	35728.28
516.68	35702.53
516.85	35660.40
517.03	35641.68
517.20	35894.46
517.37	35639.34
517.54	35597.21
517.72	35908.50
517.89	36133.19
518.06	35871.05
518.24	36250.22
518.41	35810.20
518.58	35840.62
518.75	36116.81
518.93	36198.73
519.10	35821.90
519.27	36341.50
519.45	36657.47
519.62	36648.11
519.79	36683.22
519.96	36952.38
520.14	37071.75
520.31	36610.66
520.48	36589.59
520.65	36816.63
520.83	36943.02
521.00	37127.92
521.17	37364.31
521.34	37263.67
521.52	37329.20
521.69	37450.91
521.86	37759.86
522.03	37708.37
522.20	37598.37
522.38	37879.23
522.55	37874.55
522.72	37902.64
522.89	38153.07
523.07	38174.14
523.24	37954.13
523.41	38263.08
523.58	37860.51
523.75	38794.38
523.92	38447.98
524.10	38822.47
524.27	38831.83
524.44	38836.51
524.61	39049.50
524.78	38974.60
524.96	38946.51
525.13	39061.20
525.30	39409.94
525.47	39922.52
525.64	39363.13
525.81	39922.52
525.98	39629.95
526.16	39171.21
526.33	39402.92
526.50	39796.13
526.67	39470.79
526.84	39683.78
527.01	40226.79
527.18	39651.02
527.36	40250.19
527.53	39964.65
527.70	40311.05
527.87	40278.28
528.04	40119.12
528.21	40369.56
528.38	40069.97
528.55	40575.53
528.72	40524.04
528.89	40748.73
529.07	40404.67
529.24	40549.78
529.41	40837.67
529.58	40938.31
529.75	40715.96
529.92	41177.04
530.09	40828.30
530.26	41202.79
530.43	41106.83
530.60	41254.28
530.77	40985.12
530.94	41523.44
531.11	41457.91
531.28	41399.40
531.46	41336.20
531.63	41516.42
531.80	41876.86
531.97	41635.79
532.14	41790.27
532.31	41350.24
532.48	41570.25
532.65	42368.38
532.82	42127.30
532.99	42359.02
533.16	41958.78
533.33	42143.69
533.50	42426.89
533.67	42197.52
533.84	41890.91
534.01	42291.14
534.18	42131.98
534.35	42677.33
534.52	42644.56
534.69	43021.39
534.86	42433.91
535.03	42595.41
535.20	42305.18
535.37	42733.50
535.54	42976.92
535.71	42576.69
535.88	42787.33
536.05	43026.07
536.22	43360.76
536.38	43047.13
536.55	43241.40
536.72	43093.94
536.89	43035.43
537.06	43044.79
537.23	43342.04
537.40	43351.40
537.57	43658.01
537.74	43468.43
537.91	43697.80
538.08	43335.02
538.25	43840.57
538.42	43819.51
538.59	43714.19
538.75	43824.19
538.92	43856.96
539.09	44020.80
539.26	43990.37
539.43	43943.56
539.60	44069.95
539.77	43835.89
539.94	44601.25
540.11	44037.18
540.28	44629.34
540.44	44369.54
540.61	44687.85
540.78	44538.05
540.95	44418.69
541.12	44662.10
541.29	44439.75
541.46	44472.52
541.62	44444.43
541.79	45041.27
541.96	44240.81
542.13	44416.35
542.30	44940.63
542.47	44662.10
542.63	44839.98
542.80	44786.15
542.97	45350.22
543.14	45539.80
543.31	45436.82
543.48	45284.68
543.64	45595.98
543.81	45783.22
543.98	45907.27
544.15	45167.66
544.32	45514.06
544.48	46099.19
544.65	45553.85
544.82	45937.69
544.99	45626.40
545.16	46160.05
545.32	45794.92
545.49	46295.80
545.66	46754.54
545.83	46085.15
546.00	46176.43
546.16	45766.84
546.33	45879.18
546.50	46129.62
546.67	46403.46
546.83	46253.67
547.00	46452.61
547.17	46162.39
547.34	46218.56
547.50	46391.76
547.67	46674.96
547.84	46564.96
548.00	46857.52
548.17	46784.97
548.34	46829.44
548.51	47189.88
548.67	47014.34
548.84	46710.07
549.01	46761.56
549.18	46646.88
549.34	46808.37
549.51	46880.93
549.68	47437.98
549.84	47201.58
550.01	46850.50
550.18	46719.43
550.34	47236.69
550.51	46885.61
550.68	47007.32
550.84	46906.68
551.01	47459.04
551.18	46951.15
551.34	47089.24
551.51	47440.32
551.68	47442.66
551.84	47524.58
552.01	47196.90
552.18	47461.38
552.34	47508.19
552.51	47077.54
552.68	47133.71
552.84	47641.60
553.01	47618.20
553.18	47870.98
553.34	47969.28
553.51	47613.52
553.67	47917.79
553.84	47667.35
554.01	48002.05
554.17	47964.60
554.34	48044.18
554.51	48168.22
554.67	48423.34
554.84	47997.37
555.00	48072.26
555.17	47672.03
555.33	48037.16
555.50	47999.71
555.67	47906.08
555.83	48119.07
556.00	48154.18
556.16	48751.02
556.33	48514.62
556.50	48435.05
556.66	48315.68
556.83	48245.46
556.99	48584.84
557.16	48374.19
557.32	48273.55
557.49	48875.07
557.65	48708.89
557.82	48765.06
557.98	48753.36
558.15	48601.22
558.32	48701.87
558.48	48769.74
558.65	48729.95
558.81	48987.41
558.98	48612.93
559.14	48751.02
559.31	48428.02
559.47	48786.13
559.64	48727.61
559.80	48938.26
559.97	49066.99
560.13	48285.25
560.30	48320.36
560.46	48608.25
560.63	48851.66
560.79	48786.13
560.96	49050.61
561.12	49251.89
561.29	49090.40
561.45	48964.01
561.61	49301.04
561.78	48741.66
561.94	49076.35
562.11	48980.39
562.27	48739.32
562.44	49148.91
562.60	49167.63
562.77	49118.48
562.93	49158.27
563.10	49937.67
563.26	49078.69
563.42	49628.72
563.59	49104.44
563.75	49074.01
563.92	49359.56
564.08	49010.82
564.24	49446.16
564.41	49333.81
564.57	49350.20
564.74	49102.10
564.90	49464.88
565.07	49399.35
565.23	49549.14
565.39	49399.35
565.56	49584.25
565.72	49509.35
565.88	49301.04
566.05	49336.15
566.21	49694.25
566.38	49450.84
566.54	49574.89
566.70	49612.34
566.87	49532.76
567.03	49153.59
567.19	49780.85
567.36	49535.10
567.52	49382.96
567.68	49677.87
567.85	49888.52
568.01	49563.18
568.17	49710.64
568.34	49848.73
568.50	49450.84
568.66	49380.62
568.83	49471.90
568.99	49822.98
569.15	49848.73
569.32	49425.09
569.48	49392.33
569.64	49822.98
569.81	49567.87
569.97	49656.81
570.13	50000.86
570.30	49785.54
570.46	49923.63
570.62	49705.96
570.78	49474.24
570.95	49808.94
571.11	49790.22
571.27	49708.30
571.43	50085.12
571.60	49848.73
571.76	49769.15
571.92	49647.44
572.09	49839.37
572.25	49799.58
572.41	49830.01
572.57	50127.25
572.74	50038.31
572.90	50052.36
573.06	49830.01
573.22	50267.69
573.38	50380.03
573.55	50160.02
573.71	50050.02
573.87	50092.15
574.03	50059.38
574.20	49942.35
574.36	50092.15
574.52	50019.59
574.68	50021.93
574.84	50267.69
575.01	50539.19
575.17	50298.11
575.33	50167.04
575.49	49635.74
575.65	50270.03
575.82	50440.89
575.98	50033.63
576.14	50085.12
576.30	49928.31
576.46	50183.43
576.62	50321.52
576.79	50263.00
576.95	49858.09
577.11	50014.91
577.27	50082.78
577.43	50195.13
577.59	50106.19
577.75	49785.54
577.92	49830.01
578.08	50213.85
578.24	50209.17
578.40	50553.23
578.56	50405.78
578.72	50309.82
578.88	50267.69
579.04	50394.07
579.21	50408.12
579.37	50153.00
579.53	50415.14
579.69	49965.76
579.85	50468.97
580.01	50314.50
580.17	50312.16
580.33	50286.41
580.49	50560.25
580.65	50211.51
580.82	50375.35
580.98	50230.24
581.14	50209.17
581.30	50370.67
581.46	50284.07
581.62	50700.68
581.78	50457.27
581.94	50354.29
582.10	50342.58
582.26	50330.88
582.42	50475.99
582.58	50295.77
582.74	50047.68
582.90	50085.12
583.06	49979.80
583.22	50265.34
583.38	50323.86
583.54	50436.20
583.70	50459.61
583.86	50649.19
584.02	50216.19
584.18	50380.03
584.34	50450.25
584.50	50543.87
584.66	50389.39
584.82	50024.27
584.98	50686.64
585.14	50291.09
585.30	50665.58
585.46	50422.16
585.62	50759.20
585.78	50562.59
585.94	50052.36
586.10	50094.49
586.26	50382.37
586.42	50232.58
586.58	50457.27
586.74	50197.47
586.90	50412.80
587.06	50265.34
587.22	50773.24
587.38	50497.06
587.54	50834.10
587.70	50475.99
587.86	50483.01
588.02	50300.45
588.18	50405.78
588.34	50630.47
588.49	50560.25
588.65	50520.46
588.81	50616.43
588.97	50656.21
589.13	50855.16
589.29	50602.38
589.45	50583.66
589.61	50649.19
589.77	50487.70
589.93	51042.40
590.08	50738.13
590.24	50789.62
590.40	50850.48
590.56	51051.76
