SpectraSuite Data File
++++++++++++++++++++++++++++++++++++
Date: Fri Oct 04 11:39:29 GMT-05:00 2013
User: price-jones
Dark Spectrum Present: No
Reference Spectrum Present: No
Number of Sampled Component Spectra: 1
Spectrometers: USB2+H05261
Integration Time (usec): 100000 (USB2+H05261)
Spectra Averaged: 1 (USB2+H05261)
Boxcar Smoothing: 0 (USB2+H05261)
Correct for Electrical Dark: No (USB2+H05261)
Strobe/Lamp Enabled: No (USB2+H05261)
Correct for Detector Non-linearity: No (USB2+H05261)
Correct for Stray Light: No (USB2+H05261)
Number of Pixels in Processed Spectrum: 2048
>>>>>Begin Processed Spectral Data<<<<<
365.73	102.98
365.92	102.98
366.12	102.98
366.32	0.00
366.52	0.00
366.72	4.68
366.91	0.00
367.11	0.00
367.31	0.00
367.51	0.00
367.70	0.00
367.90	0.00
368.10	0.00
368.30	0.00
368.49	0.00
368.69	0.00
368.89	44.47
369.09	16.38
369.28	28.09
369.48	28.09
369.68	0.00
369.87	0.00
370.07	0.00
370.27	42.13
370.47	0.00
370.66	98.30
370.86	117.03
371.06	98.30
371.25	152.13
371.45	65.54
371.65	133.41
371.84	159.16
372.04	126.39
372.24	145.11
372.44	173.20
372.63	168.52
372.83	234.05
373.03	124.05
373.22	124.05
373.42	198.95
373.62	152.13
373.81	205.97
374.01	142.77
374.21	182.56
374.40	212.99
374.60	182.56
374.79	166.18
374.99	170.86
375.19	292.57
375.38	231.71
375.58	248.10
375.78	238.73
375.97	191.92
376.17	217.67
376.37	159.16
376.56	201.29
376.76	182.56
376.95	180.22
377.15	168.52
377.35	198.95
377.54	234.05
377.74	238.73
377.93	198.95
378.13	180.22
378.33	189.58
378.52	252.78
378.72	227.03
378.91	166.18
379.11	196.60
379.31	154.48
379.50	217.67
379.70	269.16
379.89	168.52
380.09	156.82
380.28	175.54
380.48	248.10
380.68	227.03
380.87	203.63
381.07	145.11
381.26	203.63
381.46	156.82
381.65	217.67
381.85	297.25
382.04	117.03
382.24	170.86
382.43	212.99
382.63	194.26
382.83	152.13
383.02	100.64
383.22	294.91
383.41	135.75
383.61	184.90
383.80	198.95
384.00	217.67
384.19	243.42
384.39	257.46
384.58	173.20
384.78	276.18
384.97	273.84
385.17	205.97
385.36	166.18
385.56	266.82
385.75	196.60
385.95	271.50
386.14	212.99
386.34	220.01
386.53	264.48
386.72	259.80
386.92	276.18
387.11	234.05
387.31	236.39
387.50	187.24
387.70	205.97
387.89	234.05
388.09	227.03
388.28	257.46
388.48	294.91
388.67	278.52
388.86	250.44
389.06	271.50
389.25	276.18
389.45	325.33
389.64	248.10
389.84	308.95
390.03	280.86
390.22	217.67
390.42	222.35
390.61	243.42
390.81	212.99
391.00	273.84
391.19	252.78
391.39	255.12
391.58	234.05
391.78	308.95
391.97	301.93
392.16	334.70
392.36	348.74
392.55	220.01
392.75	257.46
392.94	266.82
393.13	301.93
393.33	287.89
393.52	339.38
393.71	362.78
393.91	271.50
394.10	292.57
394.29	292.57
394.49	299.59
394.68	304.27
394.88	374.49
395.07	330.02
395.26	402.57
395.46	273.84
395.65	376.83
395.84	325.33
396.04	360.44
396.23	362.78
396.42	341.72
396.62	348.74
396.81	390.87
397.00	383.85
397.19	360.44
397.39	409.59
397.58	393.21
397.77	334.70
397.97	416.62
398.16	332.36
398.35	507.90
398.55	388.53
398.74	400.23
398.93	393.21
399.12	447.04
399.32	484.49
399.51	386.19
399.70	491.51
399.90	332.36
400.09	447.04
400.28	407.25
400.47	430.66
400.67	493.85
400.86	475.13
401.05	470.45
401.24	404.91
401.44	479.81
401.63	465.77
401.82	486.83
402.01	451.72
402.21	594.50
402.40	538.32
402.59	575.77
402.78	564.07
402.97	573.43
403.17	500.87
403.36	489.17
403.55	608.54
403.74	610.88
403.93	575.77
404.13	645.99
404.32	655.35
404.51	631.94
404.70	725.57
404.89	557.05
405.09	653.01
405.28	641.31
405.47	627.26
405.66	676.41
405.85	697.48
406.05	650.67
406.24	676.41
406.43	697.48
406.62	709.18
406.81	727.91
407.00	727.91
407.20	748.97
407.39	697.48
407.58	826.21
407.77	739.61
407.96	821.53
408.15	861.32
408.34	786.42
408.54	821.53
408.73	788.76
408.92	870.68
409.11	812.17
409.30	912.81
409.49	861.32
409.68	910.47
409.87	875.36
410.07	858.98
410.26	866.00
410.45	922.17
410.64	964.30
410.83	961.96
411.02	997.07
411.21	1048.56
411.40	1008.77
411.59	999.41
411.78	966.64
411.98	1039.20
412.17	1039.20
412.36	983.02
412.55	1011.11
412.74	1074.31
412.93	1170.27
413.12	1118.78
413.31	1181.97
413.50	1151.54
413.69	1135.16
413.88	1224.10
414.07	1125.80
414.26	1200.69
414.45	1233.46
414.64	1245.16
414.83	1289.64
415.02	1287.29
415.22	1327.08
415.41	1329.42
415.60	1315.38
415.79	1355.17
415.98	1385.60
416.17	1357.51
416.36	1380.92
416.55	1453.47
416.74	1432.41
416.93	1490.92
417.12	1493.26
417.31	1474.54
417.50	1411.34
417.69	1465.18
417.88	1540.07
418.07	1502.62
418.26	1519.01
418.45	1593.90
418.64	1724.97
418.83	1647.74
419.02	1591.56
419.21	1607.95
419.39	1626.67
419.58	1640.72
419.77	1579.86
419.96	1767.10
420.15	1671.14
420.34	1734.34
420.53	1799.87
420.72	1743.70
420.91	1727.32
421.10	1757.74
421.29	1870.09
421.48	1710.93
421.67	1696.89
421.86	1694.55
422.05	1767.10
422.24	1849.02
422.43	1802.21
422.61	1863.07
422.80	1811.57
422.99	1741.36
423.18	1823.28
423.37	1898.17
423.56	1912.22
423.75	1863.07
423.94	1783.49
424.13	1640.72
424.32	1914.56
424.50	1884.13
424.69	1818.60
424.88	1879.45
425.07	1842.00
425.26	1851.36
425.45	1820.94
425.64	1818.60
425.83	1820.94
426.01	1839.66
426.20	1870.09
426.39	1916.90
426.58	1905.20
426.77	1802.21
426.96	1893.49
427.15	1921.58
427.33	1949.67
427.52	1935.62
427.71	1849.02
427.90	1973.07
428.09	1987.11
428.28	1973.07
428.46	2040.95
428.65	1930.94
428.84	2132.23
429.03	2193.08
429.22	1923.92
429.40	2118.18
429.59	2097.12
429.78	2066.69
429.97	2008.18
430.16	2005.84
430.34	1989.46
430.53	2111.16
430.72	2139.25
430.91	2078.40
431.10	2136.91
431.28	2239.89
431.47	2167.34
431.66	2244.57
431.85	2305.43
432.03	2186.06
432.22	2335.85
432.41	2284.36
432.60	2331.17
432.79	2223.51
432.97	2270.32
433.16	2335.85
433.35	2207.13
433.54	2279.68
433.72	2258.62
433.91	2221.17
434.10	2417.77
434.28	2335.85
434.47	2310.11
434.66	2373.30
434.85	2333.51
435.03	2473.95
435.22	2597.99
435.41	2775.88
435.59	2785.24
435.78	2717.36
435.97	2602.68
436.16	2525.44
436.34	2462.24
436.53	2492.67
436.72	2628.42
436.90	2480.97
437.09	2553.52
437.28	2499.69
437.46	2525.44
437.65	2499.69
437.84	2548.84
438.02	2686.94
438.21	2647.15
438.40	2555.86
438.58	2420.11
438.77	2602.68
438.96	2597.99
439.14	2736.09
439.33	2750.13
439.52	2665.87
439.70	2668.21
439.89	2719.70
440.08	2806.30
440.26	2825.03
440.45	2710.34
440.63	2972.48
440.82	2860.13
441.01	2897.58
441.19	2916.31
441.38	2923.33
441.57	3066.10
441.75	2991.20
441.94	3030.99
442.12	3129.30
442.31	3063.76
442.50	2993.55
442.68	3066.10
442.87	3098.87
443.05	3045.04
443.24	3077.80
443.43	3094.19
443.61	3063.76
443.80	3070.78
443.98	2963.12
444.17	3059.08
444.35	3150.36
444.54	3248.66
444.73	3157.38
444.91	3133.98
445.10	3150.36
445.28	3131.64
445.47	3038.02
445.65	3105.89
445.84	3150.36
446.02	3222.92
446.21	3204.19
446.39	3110.57
446.58	3124.62
446.77	3094.19
446.95	3150.36
447.14	3215.90
447.32	3173.77
447.51	3155.04
447.69	3243.98
447.88	3295.47
448.06	3173.77
448.25	3194.83
448.43	3211.22
448.62	3321.22
448.80	3218.24
448.99	3368.03
449.17	3272.07
449.36	3211.22
449.54	3295.47
449.73	3293.13
449.91	3293.13
450.10	3325.90
450.28	3463.99
450.46	3480.38
450.65	3318.88
450.83	3368.03
451.02	3368.03
451.20	3508.46
451.39	3517.83
451.57	3466.33
451.76	3433.57
451.94	3510.80
452.13	3583.36
452.31	3646.55
452.49	3316.54
452.68	3534.21
452.86	3426.54
453.05	3548.25
453.23	3623.15
453.42	3543.57
453.60	3489.74
453.78	3487.40
453.97	3524.85
454.15	3623.15
454.34	3574.00
454.52	3707.41
454.70	3611.45
454.89	3632.51
455.07	3679.32
455.26	3707.41
455.44	3728.47
455.62	3712.09
455.81	3784.65
455.99	3845.50
456.17	3864.22
456.36	3794.01
456.54	3747.20
456.73	3796.35
456.91	3920.40
457.09	3932.10
457.28	3964.87
457.46	3868.91
457.64	3847.84
457.83	3988.27
458.01	3791.67
458.19	3901.67
458.38	3976.57
458.56	3960.19
458.74	4065.51
458.93	4070.19
459.11	4046.79
459.29	3929.76
459.48	4014.02
459.66	4004.66
459.84	4205.94
460.03	4250.41
460.21	4189.56
460.39	4163.81
460.57	4152.11
460.76	4175.52
460.94	4170.83
461.12	4236.37
461.31	4196.58
461.49	4231.69
461.67	4159.13
461.85	4395.53
462.04	4142.75
462.22	4264.46
462.40	4287.86
462.59	4276.16
462.77	4393.19
462.95	4278.50
463.13	4432.97
463.32	4290.20
463.50	4484.47
463.68	4294.88
463.86	4386.16
464.05	4292.54
464.23	4498.51
464.41	4512.55
464.59	4297.22
464.78	4463.40
464.96	4351.06
465.14	4507.87
465.32	4388.50
465.50	4519.57
465.69	4444.68
465.87	4566.39
466.05	4526.60
466.23	4409.57
466.41	4393.19
466.60	4610.86
466.78	4500.85
466.96	4587.45
467.14	4564.04
467.32	4538.30
467.51	4645.96
467.69	4505.53
467.87	4568.73
468.05	4629.58
468.23	4606.17
468.41	4713.84
468.60	4706.82
468.78	4725.54
468.96	4699.80
469.14	4592.13
469.32	4842.57
469.50	4636.60
469.69	4767.67
469.87	4828.53
470.05	4805.12
470.23	4875.34
470.41	4840.23
470.59	5027.47
470.77	4889.38
470.95	5029.81
471.14	4905.76
471.32	4851.93
471.50	4978.32
471.68	5083.64
471.86	4978.32
472.04	5121.09
472.22	5130.45
472.40	4865.97
472.58	5273.23
472.77	5195.99
472.95	5093.01
473.13	5383.23
473.31	5163.22
473.49	5210.03
473.67	5446.43
473.85	5203.01
474.03	5284.93
474.21	5523.66
474.39	5535.37
474.57	5575.16
474.75	5577.50
474.93	5556.43
475.12	5509.62
475.30	5521.32
475.48	5486.22
475.66	5603.24
475.84	5511.96
476.02	5673.46
476.20	5783.46
476.38	5795.17
476.56	5940.28
476.74	5867.72
476.92	5813.89
477.10	5872.40
477.28	5881.77
477.46	5858.36
477.64	5984.75
477.82	6097.10
478.00	6160.29
478.18	6045.60
478.36	6129.86
478.54	6057.31
478.72	6256.25
478.90	6387.32
479.08	6356.90
479.26	6487.96
479.44	6497.33
479.62	6516.05
479.80	6548.82
479.98	6590.95
480.16	6644.78
480.34	6626.06
480.52	6808.62
480.70	6829.68
480.88	6825.00
481.06	6813.30
481.24	6726.70
481.41	6993.52
481.59	7234.60
481.77	6981.82
481.95	7143.32
482.13	7180.76
482.31	7129.27
482.49	7239.28
482.67	7405.46
482.85	7431.20
483.03	7576.31
483.21	7691.00
483.39	7538.87
483.57	7775.26
483.74	7691.00
483.92	7885.26
484.10	7712.07
484.28	7929.74
484.46	8072.51
484.64	8086.55
484.82	8042.08
485.00	7981.23
485.18	8360.39
485.35	8341.67
485.53	8299.54
485.71	8437.63
485.89	8578.06
486.07	8613.17
486.25	8662.32
486.43	8528.91
486.61	8531.25
486.78	8772.33
486.96	8741.90
487.14	8851.91
487.32	8898.72
487.50	9055.53
487.68	8987.66
487.85	9181.92
488.03	9446.40
488.21	9142.13
488.39	9280.22
488.57	9586.83
488.75	9235.75
488.92	9926.21
489.10	9544.70
489.28	9804.50
489.46	9722.59
489.64	9795.14
489.81	9860.68
489.99	10022.17
490.17	9980.04
490.35	10319.42
490.53	10052.60
490.70	10263.25
490.88	10064.30
491.06	10457.51
491.24	10305.38
491.41	10501.98
491.59	10609.65
491.77	10466.88
491.95	10471.56
492.13	10663.48
492.30	10768.80
492.48	10635.39
492.66	10792.21
492.84	10956.05
493.01	10923.28
493.19	10778.17
493.37	11405.43
493.54	11391.39
493.72	11197.12
493.90	11211.17
494.08	11307.13
494.25	11503.73
494.43	11449.90
494.61	11768.21
494.79	11559.91
494.96	11934.39
495.14	11637.14
495.32	12109.93
495.49	11906.31
495.67	12030.35
495.85	12079.50
496.02	12198.87
496.20	12166.10
496.38	12163.76
496.55	12229.30
496.73	12592.08
496.91	12306.54
497.09	12594.42
497.26	12556.97
497.44	12465.69
497.62	12833.16
497.79	12788.69
497.97	12608.47
498.14	12737.20
498.32	13015.72
498.50	13146.79
498.67	13128.06
498.85	12933.80
499.03	12912.74
499.20	12807.41
499.38	13191.26
499.56	13366.80
499.73	13387.86
499.91	13462.76
500.08	13266.16
500.26	13132.75
500.44	13540.00
500.61	13591.49
500.79	13551.70
500.97	13640.64
501.14	13694.47
501.32	13664.05
501.49	13762.35
501.67	13760.01
501.84	13816.18
502.02	13790.44
502.20	14015.13
502.37	14078.32
502.55	14029.17
502.72	13951.93
502.90	14080.66
503.07	14036.19
503.25	14202.37
503.43	14113.43
503.60	14452.81
503.78	14455.15
503.95	14516.00
504.13	14506.64
504.30	14457.49
504.48	14654.09
504.65	14583.88
504.83	14815.59
505.01	14909.21
505.18	14944.32
505.36	14682.18
505.53	14963.04
505.71	14883.47
505.88	15063.69
506.06	14846.02
506.23	14918.57
506.41	14979.43
506.58	15297.74
506.76	15133.90
506.93	15171.35
507.11	15019.22
507.28	15382.00
507.46	15365.62
507.63	15517.75
507.81	15534.14
507.98	15309.44
508.16	15536.48
508.33	15468.60
508.50	15360.94
508.68	15616.05
508.85	15838.41
509.03	15468.60
509.20	15999.90
509.38	15985.86
509.55	16100.55
509.73	16032.67
509.90	16231.62
510.08	15999.90
510.25	15920.32
510.42	16222.25
510.60	16102.89
510.77	16435.24
510.95	16369.71
511.12	16418.86
511.30	16308.85
511.47	16463.33
511.64	16416.52
511.82	16416.52
511.99	16603.76
512.17	16856.54
512.34	16744.19
512.51	16919.73
512.69	16786.32
512.86	16786.32
513.04	17326.99
513.21	17308.26
513.38	17202.94
513.56	17181.87
513.73	17097.61
513.90	16791.00
514.08	16901.01
514.25	17296.56
514.43	17310.60
514.60	17193.58
514.77	17462.74
514.95	17593.81
515.12	16985.27
515.29	16849.52
515.47	17474.44
515.64	17476.78
515.81	17635.94
515.99	17703.81
516.16	17930.84
516.33	17687.43
516.51	17685.09
516.68	17893.40
516.85	17818.50
517.03	17970.63
517.20	18064.25
517.37	18279.58
517.54	18214.05
517.72	18377.89
517.89	18068.94
518.06	17968.29
518.24	18141.49
518.41	18073.62
518.58	18111.07
518.75	18052.55
518.93	18183.62
519.10	18452.78
519.27	18640.03
519.45	18410.65
519.62	18668.11
519.79	18412.99
519.96	18993.45
520.14	18710.24
520.31	18822.59
520.48	18792.16
520.65	18518.32
520.83	19021.53
521.00	18663.43
521.17	18565.13
521.34	19019.19
521.52	18679.82
521.69	19101.11
521.86	19274.31
522.03	18998.13
522.20	19239.20
522.38	19466.24
522.55	19253.25
522.72	18874.08
522.89	19391.34
523.07	19344.53
523.24	19496.66
523.41	19513.05
523.58	19026.21
523.75	19344.53
523.92	19143.24
524.10	19641.78
524.27	19508.37
524.44	19697.95
524.61	19833.70
524.78	19711.99
524.96	19948.39
525.13	19491.98
525.30	19756.46
525.47	19910.94
525.64	19583.26
525.81	19887.53
525.98	19992.86
526.16	19857.10
526.33	19992.86
526.50	20034.99
526.67	19831.36
526.84	20086.48
527.01	19908.60
527.18	20126.27
527.36	20011.58
527.53	20247.97
527.70	20423.51
527.87	20306.49
528.04	20217.55
528.21	20280.74
528.38	20676.29
528.55	20350.96
528.72	20365.00
528.89	20746.51
529.07	20203.50
529.24	20390.75
529.41	20753.53
529.58	20442.24
529.75	20475.01
529.92	20608.42
530.09	20563.95
530.26	20704.38
530.43	20807.36
530.60	20702.04
530.77	20587.35
530.94	20659.91
531.11	20856.51
531.28	20816.72
531.46	20788.64
531.63	20943.11
531.80	20945.45
531.97	21092.91
532.14	21212.28
532.31	21003.97
532.48	21268.45
532.65	21387.82
532.82	20926.73
532.99	21184.19
533.16	21128.02
533.33	21200.57
533.50	21441.65
533.67	21486.12
533.84	21443.99
534.01	21139.72
534.18	21029.71
534.35	21687.40
534.52	21336.32
534.69	21703.79
534.86	21448.67
535.03	21692.08
535.20	21715.49
535.37	21362.07
535.54	22099.34
535.71	21689.74
535.88	21717.83
536.05	21664.00
536.22	21710.81
536.38	21984.65
536.55	21991.67
536.72	21874.65
536.89	21781.03
537.06	22017.42
537.23	21919.12
537.40	22050.19
537.57	21891.03
537.74	21830.18
537.91	22424.67
538.08	22050.19
538.25	21827.84
538.42	22066.57
538.59	22302.96
538.75	22239.77
538.92	22242.11
539.09	22396.59
539.26	22354.46
539.43	22232.75
539.60	22558.08
539.77	22258.49
539.94	22565.10
540.11	22455.10
540.28	22672.77
540.44	22810.86
540.61	22637.66
540.78	22544.04
540.95	22864.69
541.12	23206.41
541.29	22977.04
541.46	22925.55
541.62	23124.49
541.79	23293.01
541.96	22794.48
542.13	23190.03
542.30	23351.52
542.47	23351.52
542.63	23349.18
542.80	23248.54
542.97	23367.91
543.14	23349.18
543.31	23513.02
543.48	23473.23
543.64	23477.91
543.81	23482.59
543.98	23332.80
544.15	23573.88
544.32	24016.24
544.48	23487.28
544.65	23381.95
544.82	23541.11
544.99	23517.70
545.16	23714.31
545.32	23716.65
545.49	24067.73
545.66	24627.12
545.83	24683.29
546.00	24484.34
546.16	23857.08
546.33	23690.90
546.50	23367.91
546.67	23676.86
546.83	23459.19
547.00	23667.50
547.17	23412.38
547.34	23487.28
547.50	23321.10
547.67	23803.25
547.84	23557.49
548.00	23828.99
548.17	23723.67
548.34	23843.04
548.51	23669.84
548.67	23793.89
548.84	24297.10
549.01	23803.25
549.18	23786.86
549.34	24168.37
549.51	23915.59
549.68	23939.00
549.84	23924.96
550.01	24372.00
550.18	23676.86
550.34	24067.73
550.51	23967.09
550.68	23910.91
550.84	23740.05
551.01	23819.63
551.18	23941.34
551.34	23751.76
551.51	24016.24
551.68	24278.38
551.84	24477.32
552.01	24229.23
552.18	24170.71
552.34	23910.91
552.51	24205.82
552.68	24187.10
552.84	24348.59
553.01	24184.76
553.18	24297.10
553.34	24329.87
553.51	24280.72
553.67	24081.77
553.84	24563.92
554.01	24442.21
554.17	24416.47
554.34	24243.27
554.51	23887.51
554.67	24072.41
554.84	23978.79
555.00	24308.80
555.17	24514.77
555.33	24421.15
555.50	24041.98
555.67	24032.62
555.83	24423.49
556.00	24343.91
556.16	24821.38
556.33	24060.71
556.50	24393.06
556.66	24271.36
556.83	24196.46
556.99	24788.61
557.16	24915.00
557.32	24477.32
557.49	24559.24
557.65	24290.08
557.82	24238.59
557.98	24407.11
558.15	24657.54
558.32	24837.76
558.48	25041.39
558.65	24568.60
558.81	24868.19
558.98	24306.46
559.14	24615.41
559.31	24465.62
559.47	24730.10
559.64	24788.61
559.80	24687.97
559.97	24676.27
560.13	24627.12
560.30	24603.71
560.46	24886.92
560.63	24847.13
560.79	24697.33
560.96	24842.45
561.12	24797.98
561.29	24718.40
561.45	24620.10
561.61	24751.17
561.78	24933.73
561.94	24788.61
562.11	24812.02
562.27	24758.19
562.44	24271.36
562.60	24966.49
562.77	24470.30
562.93	24570.94
563.10	24805.00
563.26	24603.71
563.42	24945.43
563.59	24451.58
563.75	24650.52
563.92	24933.73
564.08	24629.46
564.24	24648.18
564.41	25149.06
564.57	24872.87
564.74	24933.73
564.90	24989.90
565.07	24989.90
565.23	24847.13
565.39	24711.38
565.56	24961.81
565.72	24802.66
565.88	24788.61
566.05	24783.93
566.21	25144.38
566.38	24741.80
566.54	24793.29
566.70	25238.00
566.87	25319.92
567.03	24959.47
567.19	25273.10
567.36	25083.52
567.52	25013.31
567.68	25034.37
567.85	24692.65
568.01	25081.18
568.17	24783.93
568.34	25165.44
568.50	24580.31
568.66	25097.56
568.83	25017.99
568.99	25088.20
569.15	24709.04
569.32	24840.11
569.48	24741.80
569.64	25027.35
569.81	24856.49
569.97	24816.70
570.13	24893.94
570.30	25095.22
570.46	25263.74
570.62	24891.60
570.78	25212.25
570.95	25010.96
571.11	25156.08
571.27	24882.24
571.43	25256.72
571.60	25109.27
571.76	24919.68
571.92	25465.03
572.09	25006.28
572.25	25050.75
572.41	24978.20
572.57	25078.84
572.74	25399.49
572.90	25043.73
573.06	25006.28
573.22	25111.61
573.38	25216.93
573.55	25163.10
573.71	25106.93
573.87	25392.47
574.03	25104.59
574.20	24950.11
574.36	24987.56
574.52	25214.59
574.68	25245.02
574.84	25106.93
575.01	25193.53
575.17	25273.10
575.33	24947.77
575.49	25120.97
575.65	25322.26
575.82	25111.61
575.98	25348.00
576.14	25596.10
576.30	25156.08
576.46	25392.47
576.62	25074.16
576.79	25572.69
576.95	25729.51
577.11	25228.63
577.27	25322.26
577.43	25259.06
577.59	25392.47
577.75	25282.47
577.92	25184.16
578.08	25261.40
578.24	24772.23
578.40	25408.86
578.56	25532.90
578.72	25425.24
578.88	25575.03
579.04	25556.31
579.21	25729.51
579.37	25113.95
579.53	25247.36
579.69	25233.32
579.85	25296.51
580.01	25130.33
580.17	25050.75
580.33	25027.35
580.49	25184.16
580.65	25111.61
580.82	25551.63
580.98	25469.71
581.14	25184.16
581.30	25635.89
581.46	25017.99
581.62	25301.19
581.78	24971.18
581.94	25678.02
582.10	25191.19
582.26	25406.52
582.42	25357.36
582.58	25343.32
582.74	25205.23
582.90	25355.02
583.06	25486.09
583.22	24884.58
583.38	25305.87
583.54	25401.83
583.70	25509.50
583.86	25366.73
584.02	25057.78
584.18	25348.00
584.34	25364.39
584.50	25436.94
584.66	25064.80
584.82	25298.85
584.98	25352.68
585.14	25102.25
585.30	25303.53
585.46	25041.39
585.62	24840.11
585.78	25343.32
585.94	25167.78
586.10	25291.83
586.26	25343.32
586.42	25666.31
586.58	25282.47
586.74	25663.97
586.90	25247.36
587.06	25472.05
587.22	25238.00
587.38	25479.07
587.54	25614.82
587.70	25605.46
587.86	25514.18
588.02	25682.70
588.18	25582.06
588.34	25317.57
588.49	25238.00
588.65	25282.47
588.81	25319.92
588.97	25425.24
589.13	25207.57
589.29	25308.21
589.45	25348.00
589.61	25469.71
589.77	25724.83
589.93	26059.52
590.08	25834.83
590.24	25474.39
590.40	25933.14
590.56	25490.77
590.72	25434.60
590.88	25301.19
591.04	25230.98
591.20	25944.84
591.35	25741.21
591.51	25923.77
591.67	25268.42
591.83	25713.13
591.99	25607.80
592.15	25743.55
592.31	25600.78
