SpectraSuite Data File
++++++++++++++++++++++++++++++++++++
Date: Fri Oct 04 11:39:37 GMT-05:00 2013
User: price-jones
Dark Spectrum Present: No
Reference Spectrum Present: No
Number of Sampled Component Spectra: 1
Spectrometers: USB2+H05261
Integration Time (usec): 100000 (USB2+H05261)
Spectra Averaged: 1 (USB2+H05261)
Boxcar Smoothing: 0 (USB2+H05261)
Correct for Electrical Dark: No (USB2+H05261)
Strobe/Lamp Enabled: No (USB2+H05261)
Correct for Detector Non-linearity: No (USB2+H05261)
Correct for Stray Light: No (USB2+H05261)
Number of Pixels in Processed Spectrum: 2048
>>>>>Begin Processed Spectral Data<<<<<
365.73	91.28
365.92	91.28
366.12	91.28
366.32	37.45
366.52	0.00
366.72	0.00
366.91	0.00
367.11	0.00
367.31	0.00
367.51	0.00
367.70	0.00
367.90	0.00
368.10	0.00
368.30	0.00
368.49	0.00
368.69	0.00
368.89	0.00
369.09	18.72
369.28	0.00
369.48	0.00
369.68	0.00
369.87	35.11
370.07	16.38
370.27	0.00
370.47	124.05
370.66	252.78
370.86	301.93
371.06	341.72
371.25	397.89
371.45	383.85
371.65	465.77
371.84	367.46
372.04	346.40
372.24	440.02
372.44	440.02
372.63	482.15
372.83	423.64
373.03	458.74
373.22	393.21
373.42	491.51
373.62	486.83
373.81	468.11
374.01	538.32
374.21	540.66
374.40	561.73
374.60	566.41
374.79	468.11
374.99	458.74
375.19	423.64
375.38	531.30
375.58	514.92
375.78	524.28
375.97	538.32
376.17	552.37
376.37	559.39
376.56	610.88
376.76	538.32
376.95	587.47
377.15	622.58
377.35	599.18
377.54	606.20
377.74	571.09
377.93	552.37
378.13	650.67
378.33	575.77
378.52	540.66
378.72	627.26
378.91	543.00
379.11	517.26
379.31	573.43
379.50	615.56
379.70	655.35
379.89	627.26
380.09	711.52
380.28	594.50
380.48	655.35
380.68	592.16
380.87	573.43
381.07	664.71
381.26	624.92
381.46	711.52
381.65	713.86
381.85	720.88
382.04	606.20
382.24	676.41
382.43	671.73
382.63	704.50
382.83	725.57
383.02	695.14
383.22	720.88
383.41	695.14
383.61	786.42
383.80	664.71
384.00	669.39
384.19	706.84
384.39	709.18
384.58	653.01
384.78	732.59
384.97	734.93
385.17	723.23
385.36	683.44
385.56	802.80
385.75	770.04
385.95	758.33
386.14	793.44
386.34	758.33
386.53	683.44
386.72	784.08
386.92	840.25
387.11	809.83
387.31	720.88
387.50	856.64
387.70	814.51
387.89	842.59
388.09	854.30
388.28	800.46
388.48	837.91
388.67	809.83
388.86	908.13
389.06	849.61
389.25	828.55
389.45	936.21
389.64	933.87
389.84	863.66
390.03	917.49
390.22	891.74
390.42	851.96
390.61	931.53
390.81	866.00
391.00	985.37
391.19	966.64
391.39	940.90
391.58	971.32
391.78	837.91
391.97	964.30
392.16	966.64
392.36	1102.39
392.55	1081.33
392.75	1008.77
392.94	1015.79
393.13	997.07
393.33	964.30
393.52	1086.01
393.71	1034.52
393.91	1097.71
394.10	1046.22
394.29	1053.24
394.49	1053.24
394.68	1067.28
394.88	1062.60
395.07	1111.75
395.26	1156.22
395.46	1160.91
395.65	1224.10
395.84	1214.74
396.04	1165.59
396.23	1181.97
396.42	1221.76
396.62	1266.23
396.81	1226.44
397.00	1130.48
397.19	1315.38
397.39	1254.53
397.58	1242.82
397.77	1200.69
397.97	1291.98
398.16	1277.93
398.35	1294.32
398.55	1327.08
398.74	1291.98
398.93	1409.00
399.12	1409.00
399.32	1399.64
399.51	1366.87
399.70	1446.45
399.90	1416.02
400.09	1521.35
400.28	1413.68
400.47	1465.18
400.67	1411.34
400.86	1565.82
401.05	1467.52
401.24	1519.01
401.44	1547.09
401.63	1558.80
401.82	1673.48
402.01	1519.01
402.21	1493.26
402.40	1563.48
402.59	1514.33
402.78	1638.38
402.97	1507.30
403.17	1582.20
403.36	1542.41
403.55	1547.09
403.74	1678.16
403.93	1764.76
404.13	1720.29
404.32	1703.91
404.51	1757.74
404.70	1799.87
404.89	1696.89
405.09	1827.96
405.28	1764.76
405.47	1757.74
405.66	1785.83
405.85	1853.70
406.05	1685.19
406.24	1809.23
406.43	1865.41
406.62	1893.49
406.81	1991.80
407.00	1834.98
407.20	1851.36
407.39	1926.26
407.58	1940.30
407.77	2024.56
407.96	1987.11
408.15	2026.90
408.34	1961.37
408.54	1921.58
408.73	2029.24
408.92	2066.69
409.11	2209.47
409.30	2125.21
409.49	2059.67
409.68	2165.00
409.87	2139.25
410.07	2298.41
410.26	2246.91
410.45	2275.00
410.64	2260.96
410.83	2256.28
411.02	2338.20
411.21	2392.03
411.40	2417.77
411.59	2377.98
411.78	2352.24
411.98	2340.54
412.17	2356.92
412.36	2490.33
412.55	2562.89
412.74	2546.50
412.93	2670.55
413.12	2511.39
413.31	2710.34
413.50	2525.44
413.69	2562.89
413.88	2740.77
414.07	2726.72
414.26	2649.49
414.45	2764.17
414.64	2822.69
414.83	2778.22
415.02	2874.18
415.22	2850.77
415.41	3000.57
415.60	2972.48
415.79	2930.35
415.98	3047.38
416.17	3030.99
416.36	2998.23
416.55	3056.74
416.74	3115.25
416.93	3005.25
417.12	3094.19
417.31	3197.17
417.50	3227.60
417.69	3262.71
417.88	3180.79
418.07	3239.30
418.26	3386.76
418.45	3253.34
418.64	3452.29
418.83	3489.74
419.02	3447.61
419.21	3468.67
419.39	3480.38
419.58	3398.46
419.77	3426.54
419.96	3545.91
420.15	3503.78
420.34	3449.95
420.53	3618.47
420.72	3499.10
420.91	3676.98
421.10	3637.19
421.29	3714.43
421.48	3620.81
421.67	3803.37
421.86	3681.66
422.05	3768.26
422.24	3747.20
422.43	3744.86
422.61	3735.50
422.80	3817.41
422.99	3833.80
423.18	3812.73
423.37	3950.82
423.56	3894.65
423.75	3838.48
423.94	3747.20
424.13	3641.87
424.32	3641.87
424.50	3873.59
424.69	3810.39
424.88	3779.97
425.07	3833.80
425.26	3684.00
425.45	3805.71
425.64	3950.82
425.83	3899.33
426.01	3983.59
426.20	4018.70
426.39	3880.61
426.58	3901.67
426.77	4079.55
426.96	3857.20
427.15	3943.80
427.33	4032.74
427.52	4163.81
427.71	3953.16
427.90	4163.81
428.09	4147.43
428.28	4163.81
428.46	4259.78
428.65	4365.10
428.84	4283.18
429.03	4360.42
429.22	4009.34
429.40	4304.25
429.59	4353.40
429.78	4243.39
429.97	4093.60
430.16	4156.79
430.34	4241.05
430.53	4540.64
430.72	4489.15
430.91	4308.93
431.10	4351.06
431.28	4613.20
431.47	4482.13
431.66	4587.45
431.85	4489.15
432.03	4358.08
432.22	4461.06
432.41	4571.07
432.60	4589.79
432.79	4774.69
432.97	4671.71
433.16	4617.88
433.35	4683.41
433.54	4936.19
433.72	4795.76
433.91	4788.74
434.10	4699.80
434.28	4587.45
434.47	4753.63
434.66	4943.21
434.85	4819.16
435.03	4952.57
435.22	5128.11
435.41	5317.70
435.59	5125.77
435.78	5231.10
435.97	5135.14
436.16	5076.62
436.34	5025.13
436.53	5125.77
436.72	5069.60
436.90	5011.09
437.09	5067.26
437.28	5055.56
437.46	5104.71
437.65	5029.81
437.84	5198.33
438.02	5226.42
438.21	5270.89
438.40	5221.74
438.58	5331.74
438.77	5628.99
438.96	5399.62
439.14	5603.24
439.33	5614.95
439.52	5497.92
439.70	5610.26
439.89	5680.48
440.08	5853.68
440.26	5727.29
440.45	5680.48
440.63	5839.64
440.82	5968.37
441.01	5954.32
441.19	6080.71
441.38	6029.22
441.57	5923.90
441.75	5830.27
441.94	6326.47
442.12	6029.22
442.31	6127.52
442.50	6200.08
442.68	6143.91
442.87	6012.84
443.05	6296.04
443.24	6422.43
443.43	6244.55
443.61	6218.80
443.80	6473.92
443.98	6232.85
444.17	6090.07
444.35	6441.15
444.54	6494.99
444.73	6450.52
444.91	6480.94
445.10	6258.59
445.28	6349.87
445.47	6466.90
445.65	6438.81
445.84	6642.44
446.02	6576.91
446.21	6272.64
446.39	6427.11
446.58	6359.24
446.77	6420.09
446.95	6415.41
447.14	6576.91
447.32	6532.44
447.51	6675.21
447.69	6483.28
447.88	6707.98
448.06	6715.00
448.25	6576.91
448.43	6558.18
448.62	6485.62
448.80	6647.12
448.99	6637.76
449.17	6717.34
449.36	6656.48
449.54	6841.39
449.73	6874.15
449.91	6836.70
450.10	6853.09
450.28	6932.67
450.46	6698.61
450.65	6841.39
450.83	6925.65
451.02	7002.88
451.20	7073.10
451.39	7126.93
451.57	7108.21
451.76	7162.04
451.94	7197.15
452.13	7110.55
452.31	7176.08
452.49	7129.27
452.68	7311.83
452.86	7112.89
453.05	7239.28
453.23	7459.29
453.42	7419.50
453.60	7068.42
453.78	7487.37
453.97	7117.57
454.15	7449.93
454.34	7300.13
454.52	7431.20
454.70	7405.46
454.89	7562.27
455.07	7524.82
455.26	7658.23
455.44	7459.29
455.62	7501.42
455.81	7669.94
455.99	7618.44
456.17	7644.19
456.36	7698.02
456.54	7744.83
456.73	7850.16
456.91	7882.92
457.09	8002.29
457.28	8154.43
457.46	7920.37
457.64	8205.92
457.83	8084.21
458.01	7992.93
458.19	8159.11
458.38	7985.91
458.56	8166.13
458.74	8152.09
458.93	8121.66
459.11	8238.69
459.29	8058.46
459.48	8315.92
459.66	8006.97
459.84	8395.50
460.03	8463.38
460.21	8365.07
460.39	8372.10
460.57	8285.50
460.76	8367.42
460.94	8676.37
461.12	8322.94
461.31	8596.79
461.49	8292.52
461.67	8390.82
461.85	8596.79
462.04	8542.96
462.22	8650.62
462.40	8903.40
462.59	8807.44
462.77	8882.33
462.95	8898.72
463.13	8671.68
463.32	8891.70
463.50	8936.17
463.68	9032.13
463.86	9130.43
464.05	8849.57
464.23	8905.74
464.41	9043.83
464.59	8617.85
464.78	9327.03
464.96	9069.58
465.14	8936.17
465.32	9170.22
465.50	9408.95
465.69	9483.85
465.87	9130.43
466.05	9163.20
466.23	9048.51
466.41	9296.61
466.60	9334.06
466.78	9172.56
466.96	9338.74
467.14	9151.49
467.32	9467.47
467.51	9345.76
467.69	9301.29
467.87	9500.23
468.05	9556.41
468.23	9425.34
468.41	9462.79
468.60	9734.29
468.78	9600.88
468.96	9500.23
469.14	9678.12
469.32	9720.24
469.50	9451.08
469.69	9785.78
469.87	9790.46
470.05	9886.42
470.23	10057.28
470.41	9877.06
470.59	10204.74
470.77	9834.93
470.95	10132.18
471.14	10052.60
471.32	9797.48
471.50	10314.74
471.68	10097.07
471.86	10256.23
472.04	10176.65
472.22	10600.29
472.40	10450.49
472.58	10572.20
472.77	10553.48
472.95	10813.28
473.13	11103.50
473.31	10513.69
473.49	10864.77
473.67	10698.59
473.85	10656.46
474.03	10850.72
474.21	10841.36
474.39	11115.20
474.57	10930.30
474.75	11229.89
474.93	11391.39
475.12	11145.63
475.30	11300.11
475.48	11227.55
475.66	11389.05
475.84	11398.41
476.02	11602.04
476.20	11400.75
476.38	11758.85
476.56	12107.59
476.74	11829.07
476.92	11826.73
477.10	11915.67
477.28	12006.95
477.46	12131.00
477.64	12229.30
477.82	12163.76
478.00	12547.61
478.18	12676.34
478.36	12730.17
478.54	12580.38
478.72	12884.65
478.90	12912.74
479.08	13060.19
479.26	13132.75
479.44	13277.86
479.62	13446.38
479.80	13474.46
479.98	13348.08
480.16	13593.83
480.34	13635.96
480.52	13771.71
480.70	13940.23
480.88	13975.34
481.06	13975.34
481.24	14300.67
481.41	14162.58
481.59	14719.63
481.77	14820.27
481.95	14494.94
482.13	14932.62
482.31	14602.60
482.49	15033.26
482.67	14920.92
482.85	14916.23
483.03	15538.82
483.21	15543.50
483.39	15499.03
483.57	15419.45
483.74	15707.34
483.92	16088.84
484.10	15915.64
484.28	16456.31
484.46	16472.69
484.64	16451.63
484.82	16348.64
485.00	16535.88
485.18	16940.80
485.35	16802.71
485.53	16856.54
485.71	17329.33
485.89	17530.61
486.07	17104.64
486.25	17537.63
486.43	17788.07
486.61	17905.10
486.78	18162.56
486.96	17965.95
487.14	18293.63
487.32	18148.51
487.50	18668.11
487.68	18527.68
487.85	18614.28
488.03	18960.68
488.21	19351.55
488.39	19211.12
488.57	19370.27
488.75	19461.55
488.92	19887.53
489.10	20065.41
489.28	19903.92
489.46	20203.50
489.64	20229.25
489.81	20524.16
489.99	20601.40
490.17	20788.64
490.35	20861.19
490.53	20865.88
490.70	21050.78
490.88	21036.74
491.06	21628.89
491.24	20877.58
491.41	21556.33
491.59	21708.47
491.77	22185.94
491.95	21839.54
492.13	22052.53
492.30	22274.88
492.48	22363.82
492.66	22216.36
492.84	22204.66
493.01	22998.10
493.19	22724.26
493.37	23173.64
493.54	23007.47
493.72	23330.46
493.90	22932.57
494.08	23126.83
494.25	23803.25
494.43	23503.66
494.61	23824.31
494.79	24151.99
494.96	24287.74
495.14	24147.31
495.32	24486.68
495.49	24404.77
495.67	24430.51
495.85	24484.34
496.02	25146.72
496.20	25034.37
496.38	25340.98
496.55	25387.79
496.73	25628.87
496.91	25783.34
497.09	25486.09
497.26	25802.07
497.44	25841.85
497.62	26171.87
497.79	26195.28
497.97	26340.39
498.14	26522.95
498.32	26859.99
498.50	26644.66
498.67	26651.68
498.85	26817.86
499.03	26600.19
499.20	26663.38
499.38	27377.25
499.56	27496.61
499.73	27480.23
499.91	27433.42
500.08	27297.67
500.26	27990.47
500.44	27889.82
500.61	27946.00
500.79	28247.93
500.97	28233.88
501.14	28442.19
501.32	28301.76
501.49	28538.15
501.67	28327.50
501.84	28252.61
502.02	28498.36
502.20	28968.81
502.37	29266.06
502.55	29149.03
502.72	28804.97
502.90	29160.73
503.07	29046.05
503.25	29359.68
503.43	28966.47
503.60	29680.33
503.78	29940.13
503.95	29556.28
504.13	29666.29
504.30	30036.09
504.48	30029.07
504.65	30216.32
504.83	30096.95
505.01	30707.83
505.18	30672.72
505.36	31002.74
505.53	30256.11
505.71	30536.97
505.88	30696.13
506.06	30328.66
506.23	31201.68
506.41	31178.28
506.58	31101.04
506.76	30979.33
506.93	30988.69
507.11	31044.87
507.28	31239.13
507.46	31852.35
507.63	31639.36
507.81	31814.90
507.98	31496.59
508.16	31587.87
508.33	31967.04
508.50	31857.03
508.68	32503.02
508.85	32587.28
509.03	32283.01
509.20	32308.76
509.38	32837.72
509.55	32989.85
509.73	32636.43
509.90	32856.44
510.08	32669.20
510.25	32936.02
510.42	33205.18
510.60	33216.88
510.77	33345.61
510.95	33502.43
511.12	33226.24
511.30	33457.96
511.47	33619.46
511.64	33654.56
511.82	33996.28
511.99	33935.43
512.17	34227.99
512.34	33916.70
512.51	34253.74
512.69	34052.45
512.86	34038.41
513.04	34181.18
513.21	34684.40
513.38	34834.19
513.56	34672.70
513.73	34759.30
513.90	34546.31
514.08	34789.72
514.25	34916.11
514.43	35229.74
514.60	35512.95
514.77	35175.91
514.95	35557.42
515.12	35405.28
515.29	35534.01
515.47	35817.22
515.64	35569.12
515.81	35826.58
515.99	36367.24
516.16	35835.94
516.33	35770.41
516.51	36168.30
516.68	36208.09
516.85	36222.13
517.03	36318.09
517.20	35983.40
517.37	36638.75
517.54	36788.54
517.72	36437.46
517.89	36591.94
518.06	36463.21
518.24	36556.83
518.41	36795.56
518.58	37067.06
518.75	36957.06
518.93	37441.55
519.10	36697.26
519.27	36966.42
519.45	37256.65
519.62	37415.80
519.79	37394.74
519.96	37448.57
520.14	37567.94
520.31	37670.92
520.48	37689.65
520.65	37296.44
520.83	37923.70
521.00	37879.23
521.17	37745.82
521.34	37879.23
521.52	38227.97
521.69	38190.52
521.86	38576.71
522.03	38653.95
522.20	38745.23
522.38	38733.53
522.55	38466.70
522.72	38693.74
522.89	38490.11
523.07	39040.14
523.24	39086.95
523.41	38918.43
523.58	39016.73
523.75	38969.92
523.92	39122.05
524.10	39051.84
524.27	39108.01
524.44	39709.53
524.61	39723.57
524.78	40041.88
524.96	39627.61
525.13	39491.86
525.30	39817.19
525.47	40023.16
525.64	39901.45
525.81	40329.77
525.98	40215.08
526.16	40428.07
526.33	40105.08
526.50	40598.93
526.67	39700.17
526.84	40531.06
527.01	40219.77
527.18	40282.96
527.36	40608.29
527.53	40343.81
527.70	41148.96
527.87	40870.43
528.04	41202.79
528.21	40828.30
528.38	40861.07
528.55	41420.46
528.72	40849.37
528.89	41226.20
529.07	41366.63
529.24	40931.29
529.41	41235.56
529.58	40795.54
529.75	41282.37
529.92	41308.11
530.09	40821.28
530.26	41446.21
530.43	41757.50
530.60	41930.70
530.77	41310.46
530.94	41588.98
531.11	41518.76
531.28	41827.71
531.46	42000.91
531.63	42504.13
531.80	41827.71
531.97	42466.68
532.14	42298.16
532.31	41909.63
532.48	42068.79
532.65	42483.06
532.82	42237.31
532.99	41713.03
533.16	42068.79
533.33	42241.99
533.50	42529.87
533.67	42705.41
533.84	42274.76
534.01	42417.53
534.18	42394.12
534.35	42883.30
534.52	42799.04
534.69	42897.34
534.86	42909.04
535.03	42967.55
535.20	43091.60
535.37	42990.96
535.54	43023.73
535.71	42983.94
535.88	43145.44
536.05	43484.81
536.22	43746.95
536.38	43707.16
536.55	43945.90
536.72	43316.29
536.89	43318.64
537.06	43669.72
537.23	43744.61
537.40	43381.83
537.57	43344.38
537.74	43936.54
537.91	43969.30
538.08	44208.04
538.25	43997.39
538.42	43999.73
538.59	44240.81
538.75	43962.28
538.92	44154.21
539.09	44268.89
539.26	44374.22
539.43	44177.61
539.60	44072.29
539.77	44287.62
539.94	44460.82
540.11	44381.24
540.28	44556.78
540.44	44762.75
540.61	44631.68
540.78	44514.65
540.95	44797.85
541.12	44921.90
541.29	44968.71
541.46	44634.02
541.62	45155.96
541.79	44912.54
541.96	44596.57
542.13	44715.93
542.30	45375.97
542.47	45511.72
542.63	45265.96
542.80	45815.99
542.97	45572.57
543.14	46075.79
543.31	45457.88
543.48	45427.46
543.64	45890.88
543.81	45815.99
543.98	46169.41
544.15	46291.12
544.32	46349.63
544.48	46230.26
544.65	46033.66
544.82	45970.46
544.99	45825.35
545.16	46230.26
545.32	46174.09
545.49	46602.41
545.66	46930.08
545.83	46899.65
546.00	46976.89
546.16	46728.80
546.33	46377.72
546.50	46153.02
546.67	46230.26
546.83	45883.86
547.00	46312.18
547.17	46354.31
547.34	46351.97
547.50	46567.30
547.67	46892.63
547.84	46424.53
548.00	46677.30
548.17	46403.46
548.34	46780.29
548.51	46979.23
548.67	46438.57
548.84	46581.34
549.01	46745.18
549.18	47054.13
549.34	46560.28
549.51	46848.16
549.68	46756.88
549.84	46473.68
550.01	47288.18
550.18	46653.90
550.34	47086.90
550.51	47044.77
550.68	47332.65
550.84	46597.73
551.01	46794.33
551.18	46986.25
551.34	47007.32
551.51	47208.61
551.68	47320.95
551.84	47344.36
552.01	47136.05
552.18	47751.61
552.34	46822.42
552.51	47330.31
552.68	47213.29
552.84	47599.47
553.01	47426.28
553.18	47330.31
553.34	47756.29
553.51	47274.14
553.67	47922.47
553.84	47672.03
554.01	47707.14
554.17	47622.88
554.34	47910.77
554.51	47814.80
554.67	48112.05
554.84	47496.49
555.00	47723.52
555.17	47667.35
555.33	48095.67
555.50	47847.57
555.67	47863.96
555.83	48058.22
556.00	47983.32
556.16	47976.30
556.33	47440.32
556.50	48069.92
556.66	48250.14
556.83	47704.80
556.99	48076.94
557.16	48722.93
557.32	48151.84
557.49	48060.56
557.65	47894.38
557.82	47660.33
557.98	47948.21
558.15	48224.40
558.32	48261.85
558.48	48032.47
558.65	48397.60
558.81	48336.74
558.98	48343.77
559.14	48369.51
559.31	48095.67
559.47	48273.55
559.64	48126.10
559.80	48638.67
559.97	48339.08
560.13	48280.57
560.30	48355.47
560.46	48961.67
560.63	48451.43
560.79	48179.93
560.96	48371.85
561.12	48053.54
561.29	48161.20
561.45	48643.35
561.61	48514.62
561.78	48502.92
561.94	48652.72
562.11	48633.99
562.27	48830.60
562.44	48744.00
562.60	48341.42
562.77	48559.09
562.93	48500.58
563.10	48985.07
563.26	48708.89
563.42	49223.81
563.59	48463.13
563.75	48811.87
563.92	48360.15
564.08	48353.13
564.24	48917.20
564.41	48722.93
564.57	48339.08
564.74	48552.07
564.90	48842.30
565.07	48917.20
565.23	48825.92
565.39	48664.42
565.56	48622.29
565.72	48657.40
565.88	48725.27
566.05	48633.99
566.21	48722.93
566.38	48954.64
566.54	48680.80
566.70	49198.06
566.87	49006.14
567.03	48687.82
567.19	49064.65
567.36	49113.80
567.52	48374.19
567.68	49066.99
567.85	48484.20
568.01	48807.19
568.17	48886.77
568.34	48673.78
568.50	49034.22
568.66	49230.83
568.83	49378.28
568.99	48446.75
569.15	49024.86
569.32	48898.47
569.48	48727.61
569.64	49043.59
569.81	49001.46
569.97	48823.58
570.13	49057.63
570.30	48809.53
570.46	49008.48
570.62	48900.81
570.78	48865.70
570.95	49125.50
571.11	48746.34
571.27	48648.03
571.43	48872.73
571.60	49057.63
571.76	49066.99
571.92	48973.37
572.09	49467.22
572.25	49029.54
572.41	48999.12
572.57	48900.81
572.74	49270.62
572.90	48531.01
573.06	48924.22
573.22	49184.02
573.38	49034.22
573.55	49024.86
573.71	49528.08
573.87	49378.28
574.03	48994.43
574.20	49401.69
574.36	48797.83
574.52	49095.08
574.68	49071.67
574.84	49066.99
575.01	49125.50
575.17	49312.75
575.33	49202.74
575.49	49134.87
575.65	49485.95
575.82	49315.09
575.98	49050.61
576.14	49205.08
576.30	49134.87
576.46	49097.42
576.62	49055.29
576.79	48734.63
576.95	49155.93
577.11	49202.74
577.27	49563.18
577.43	49324.45
577.59	49504.67
577.75	48966.35
577.92	49050.61
578.08	48863.36
578.24	49298.70
578.40	48961.67
578.56	49233.17
578.72	49542.12
578.88	49532.76
579.04	49558.50
579.21	49352.54
579.37	49326.79
579.53	49242.53
579.69	49008.48
579.85	49099.76
580.01	49242.53
580.17	49188.70
580.33	49134.87
580.49	49258.91
580.65	49160.61
580.82	49389.98
580.98	49282.32
581.14	49148.91
581.30	49408.71
581.46	49167.63
581.62	49137.21
581.78	48671.44
581.94	49205.08
582.10	49186.36
582.26	49113.80
582.42	49663.83
582.58	49467.22
582.74	49027.20
582.90	49469.56
583.06	49113.80
583.22	48825.92
583.38	49160.61
583.54	49464.88
583.70	49064.65
583.86	48940.60
584.02	49015.50
584.18	49453.18
584.34	49244.87
584.50	49427.43
584.66	49083.37
584.82	49076.35
584.98	49071.67
585.14	49174.66
585.30	49205.08
585.46	49242.53
585.62	48910.17
585.78	49567.87
585.94	49120.82
586.10	49179.34
586.26	48870.39
586.42	49610.00
586.58	49815.96
586.74	49195.72
586.90	49120.82
587.06	49312.75
587.22	49193.38
587.38	49118.48
587.54	49310.41
587.70	49701.28
587.86	49214.44
588.02	49165.29
588.18	49677.87
588.34	49132.53
588.49	49469.56
588.65	48917.20
588.81	49258.91
588.97	49361.90
589.13	49062.31
589.29	49481.27
589.45	49525.74
589.61	49177.00
589.77	49638.08
589.93	49509.35
590.08	49598.29
590.24	49708.30
