SpectraSuite Data File
++++++++++++++++++++++++++++++++++++
Date: Fri Oct 04 11:39:49 GMT-05:00 2013
User: price-jones
Dark Spectrum Present: No
Reference Spectrum Present: No
Number of Sampled Component Spectra: 1
Spectrometers: USB2+H05261
Integration Time (usec): 100000 (USB2+H05261)
Spectra Averaged: 1 (USB2+H05261)
Boxcar Smoothing: 0 (USB2+H05261)
Correct for Electrical Dark: No (USB2+H05261)
Strobe/Lamp Enabled: No (USB2+H05261)
Correct for Detector Non-linearity: No (USB2+H05261)
Correct for Stray Light: No (USB2+H05261)
Number of Pixels in Processed Spectrum: 2048
>>>>>Begin Processed Spectral Data<<<<<
365.73	86.60
365.92	86.60
366.12	86.60
366.32	0.00
366.52	0.00
366.72	0.00
366.91	0.00
367.11	0.00
367.31	0.00
367.51	0.00
367.70	0.00
367.90	16.38
368.10	0.00
368.30	0.00
368.49	0.00
368.69	23.41
368.89	0.00
369.09	0.00
369.28	0.00
369.48	0.00
369.68	0.00
369.87	0.00
370.07	65.54
370.27	72.56
370.47	46.81
370.66	100.64
370.86	63.19
371.06	149.79
371.25	53.83
371.45	114.69
371.65	154.48
371.84	100.64
372.04	124.05
372.24	124.05
372.44	42.13
372.63	110.01
372.83	198.95
373.03	166.18
373.22	142.77
373.42	142.77
373.62	121.71
373.81	238.73
374.01	241.08
374.21	177.88
374.40	250.44
374.60	231.71
374.79	196.60
374.99	156.82
375.19	161.50
375.38	215.33
375.58	208.31
375.78	234.05
375.97	152.13
376.17	269.16
376.37	196.60
376.56	201.29
376.76	187.24
376.95	177.88
377.15	203.63
377.35	107.66
377.54	177.88
377.74	173.20
377.93	184.90
378.13	117.03
378.33	262.14
378.52	140.43
378.72	220.01
378.91	177.88
379.11	191.92
379.31	149.79
379.50	81.92
379.70	154.48
379.89	217.67
380.09	187.24
380.28	91.28
380.48	147.45
380.68	196.60
380.87	142.77
381.07	222.35
381.26	238.73
381.46	243.42
381.65	154.48
381.85	184.90
382.04	203.63
382.24	210.65
382.43	140.43
382.63	194.26
382.83	100.64
383.02	271.50
383.22	163.84
383.41	152.13
383.61	177.88
383.80	173.20
384.00	187.24
384.19	170.86
384.39	163.84
384.58	234.05
384.78	278.52
384.97	208.31
385.17	147.45
385.36	173.20
385.56	196.60
385.75	194.26
385.95	149.79
386.14	194.26
386.34	191.92
386.53	180.22
386.72	203.63
386.92	184.90
387.11	234.05
387.31	248.10
387.50	234.05
387.70	163.84
387.89	196.60
388.09	220.01
388.28	248.10
388.48	236.39
388.67	255.12
388.86	156.82
389.06	154.48
389.25	220.01
389.45	248.10
389.64	255.12
389.84	276.18
390.03	227.03
390.22	210.65
390.42	236.39
390.61	182.56
390.81	145.11
391.00	189.58
391.19	278.52
391.39	250.44
391.58	269.16
391.78	250.44
391.97	306.61
392.16	257.46
392.36	301.93
392.55	322.99
392.75	278.52
392.94	264.48
393.13	238.73
393.33	245.76
393.52	227.03
393.71	280.86
393.91	264.48
394.10	234.05
394.29	210.65
394.49	301.93
394.68	259.80
394.88	257.46
395.07	234.05
395.26	227.03
395.46	266.82
395.65	346.40
395.84	271.50
396.04	362.78
396.23	276.18
396.42	285.55
396.62	273.84
396.81	255.12
397.00	327.68
397.19	262.14
397.39	276.18
397.58	344.06
397.77	210.65
397.97	220.01
398.16	311.29
398.35	308.95
398.55	287.89
398.74	266.82
398.93	421.30
399.12	301.93
399.32	304.27
399.51	330.02
399.70	325.33
399.90	355.76
400.09	355.76
400.28	395.55
400.47	257.46
400.67	442.36
400.86	257.46
401.05	355.76
401.24	276.18
401.44	313.63
401.63	360.44
401.82	332.36
402.01	341.72
402.21	320.65
402.40	390.87
402.59	358.10
402.78	337.04
402.97	428.32
403.17	344.06
403.36	425.98
403.55	418.96
403.74	407.25
403.93	423.64
404.13	425.98
404.32	421.30
404.51	369.80
404.70	334.70
404.89	374.49
405.09	486.83
405.28	383.85
405.47	344.06
405.66	425.98
405.85	514.92
406.05	402.57
406.24	388.53
406.43	430.66
406.62	395.55
406.81	599.18
407.00	472.79
407.20	454.06
407.39	433.00
407.58	491.51
407.77	486.83
407.96	477.47
408.15	498.53
408.34	456.40
408.54	493.85
408.73	479.81
408.92	447.04
409.11	587.47
409.30	491.51
409.49	402.57
409.68	526.62
409.87	437.68
410.07	571.09
410.26	519.60
410.45	545.34
410.64	496.19
410.83	496.19
411.02	510.24
411.21	592.16
411.40	554.71
411.59	561.73
411.78	571.09
411.98	489.17
412.17	554.71
412.36	491.51
412.55	498.53
412.74	528.96
412.93	594.50
413.12	629.60
413.31	552.37
413.50	610.88
413.69	582.79
413.88	636.63
414.07	613.22
414.26	641.31
414.45	629.60
414.64	655.35
414.83	608.54
415.02	655.35
415.22	671.73
415.41	627.26
415.60	629.60
415.79	645.99
415.98	655.35
416.17	650.67
416.36	678.76
416.55	634.29
416.74	723.23
416.93	763.01
417.12	748.97
417.31	685.78
417.50	706.84
417.69	802.80
417.88	772.38
418.07	760.67
418.26	739.61
418.45	791.10
418.64	837.91
418.83	795.78
419.02	837.91
419.21	725.57
419.39	739.61
419.58	734.93
419.77	704.50
419.96	781.74
420.15	844.93
420.34	732.59
420.53	870.68
420.72	847.27
420.91	788.76
421.10	791.10
421.29	842.59
421.48	788.76
421.67	856.64
421.86	791.10
422.05	847.27
422.24	802.80
422.43	746.63
422.61	858.98
422.80	856.64
422.99	849.61
423.18	837.91
423.37	870.68
423.56	816.85
423.75	926.85
423.94	884.72
424.13	802.80
424.32	875.36
424.50	880.04
424.69	870.68
424.88	964.30
425.07	957.28
425.26	849.61
425.45	901.11
425.64	800.46
425.83	868.34
426.01	957.28
426.20	929.19
426.39	898.77
426.58	882.38
426.77	854.30
426.96	922.17
427.15	875.36
427.33	915.15
427.52	924.51
427.71	966.64
427.90	1006.43
428.09	891.74
428.28	933.87
428.46	856.64
428.65	901.11
428.84	966.64
429.03	917.49
429.22	924.51
429.40	999.41
429.59	943.24
429.78	830.89
429.97	924.51
430.16	1013.45
430.34	997.07
430.53	912.81
430.72	933.87
430.91	950.26
431.10	964.30
431.28	992.39
431.47	964.30
431.66	999.41
431.85	1001.75
432.03	908.13
432.22	1137.50
432.41	997.07
432.60	992.39
432.79	971.32
432.97	985.37
433.16	1043.88
433.35	1043.88
433.54	1025.15
433.72	1156.22
433.91	1022.81
434.10	1060.26
434.28	1107.07
434.47	1139.84
434.66	1022.81
434.85	1039.20
435.03	1160.91
435.22	1327.08
435.41	1455.81
435.59	1425.39
435.78	1385.60
435.97	1256.87
436.16	1184.31
436.34	1123.46
436.53	1060.26
436.72	1032.18
436.90	1130.48
437.09	1102.39
437.28	971.32
437.46	1144.52
437.65	1055.58
437.84	1142.18
438.02	1081.33
438.21	1137.50
438.40	1116.44
438.58	1231.12
438.77	1191.33
438.96	1158.57
439.14	1191.33
439.33	1188.99
439.52	1233.46
439.70	1275.59
439.89	1083.67
440.08	1193.67
440.26	1214.74
440.45	1254.53
440.63	1226.44
440.82	1177.29
441.01	1240.48
441.19	1277.93
441.38	1303.68
441.57	1226.44
441.75	1394.96
441.94	1437.09
442.12	1315.38
442.31	1310.70
442.50	1383.26
442.68	1310.70
442.87	1385.60
443.05	1373.89
443.24	1313.04
443.43	1474.54
443.61	1430.07
443.80	1385.60
443.98	1362.19
444.17	1352.83
444.35	1371.55
444.54	1376.24
444.73	1343.47
444.91	1420.71
445.10	1355.17
445.28	1270.91
445.47	1434.75
445.65	1282.61
445.84	1378.58
446.02	1394.96
446.21	1366.87
446.39	1409.00
446.58	1465.18
446.77	1418.36
446.95	1336.45
447.14	1413.68
447.32	1446.45
447.51	1308.36
447.69	1406.66
447.88	1451.13
448.06	1364.53
448.25	1425.39
448.43	1448.79
448.62	1420.71
448.80	1423.05
448.99	1383.26
449.17	1343.47
449.36	1394.96
449.54	1507.30
449.73	1488.58
449.91	1591.56
450.10	1469.86
450.28	1526.03
450.46	1617.31
450.65	1537.73
450.83	1390.28
451.02	1467.52
451.20	1521.35
451.39	1563.48
451.57	1523.69
451.76	1423.05
451.94	1509.65
452.13	1533.05
452.31	1495.60
452.49	1502.62
452.68	1455.81
452.86	1490.92
453.05	1530.71
453.23	1479.22
453.42	1504.96
453.60	1411.34
453.78	1504.96
453.97	1528.37
454.15	1537.73
454.34	1523.69
454.52	1612.63
454.70	1626.67
454.89	1629.01
455.07	1530.71
455.26	1605.61
455.44	1607.95
455.62	1540.07
455.81	1582.20
455.99	1556.46
456.17	1579.86
456.36	1586.88
456.54	1664.12
456.73	1624.33
456.91	1678.16
457.09	1664.12
457.28	1720.29
457.46	1710.93
457.64	1710.93
457.83	1764.76
458.01	1605.61
458.19	1668.80
458.38	1724.97
458.56	1678.16
458.74	1762.42
458.93	1717.95
459.11	1678.16
459.29	1692.21
459.48	1767.10
459.66	1753.06
459.84	1762.42
460.03	1795.19
460.21	1860.73
460.39	1809.23
460.57	1647.74
460.76	1706.25
460.94	1834.98
461.12	1853.70
461.31	1706.25
461.49	1902.86
461.67	1804.55
461.85	1809.23
462.04	1893.49
462.22	2324.15
462.40	1895.83
462.59	1734.34
462.77	1762.42
462.95	1785.83
463.13	1820.94
463.32	1849.02
463.50	1846.68
463.68	1741.36
463.86	1739.02
464.05	1823.28
464.23	1844.34
464.41	1856.04
464.59	1865.41
464.78	1881.79
464.96	1790.51
465.14	1930.94
465.32	1874.77
465.50	1870.09
465.69	1874.77
465.87	1820.94
466.05	1884.13
466.23	1795.19
466.41	1914.56
466.60	1989.46
466.78	1799.87
466.96	1933.28
467.14	1888.81
467.32	1947.33
467.51	1940.30
467.69	1966.05
467.87	1837.32
468.05	1980.09
468.23	2008.18
468.41	1949.67
468.60	1982.43
468.78	2073.71
468.96	1926.26
469.14	1975.41
469.32	1944.99
469.50	1982.43
469.69	2076.06
469.87	2026.90
470.05	1989.46
470.23	2008.18
470.41	2052.65
470.59	2069.03
470.77	2022.22
470.95	2101.80
471.14	2106.48
471.32	1940.30
471.50	2139.25
471.68	2115.84
471.86	2057.33
472.04	2057.33
472.22	2125.21
472.40	2141.59
472.58	2125.21
472.77	1977.75
472.95	2225.85
473.13	2209.47
473.31	2129.89
473.49	2181.38
473.67	2242.23
473.85	2230.53
474.03	2361.60
474.21	2214.15
474.39	2263.30
474.57	2303.09
474.75	2387.35
474.93	2216.49
475.12	2167.34
475.30	2211.81
475.48	2228.19
475.66	2352.24
475.84	2399.05
476.02	2438.84
476.20	2289.04
476.38	2401.39
476.56	2487.99
476.74	2441.18
476.92	2382.67
477.10	2361.60
477.28	2502.03
477.46	2471.61
477.64	2518.42
477.82	2546.50
478.00	2495.01
478.18	2565.23
478.36	2532.46
478.54	2626.08
478.72	2586.29
478.90	2565.23
479.08	2780.56
479.26	2766.51
479.44	2693.96
479.62	2607.36
479.80	2696.30
479.98	2640.12
480.16	2843.75
480.34	2663.53
480.52	2712.68
480.70	2733.75
480.88	2792.26
481.06	2874.18
481.24	2773.53
481.41	2916.31
481.59	2813.32
481.77	2895.24
481.95	2902.26
482.13	3077.80
482.31	2920.99
482.49	2979.50
482.67	2925.67
482.85	2944.39
483.03	3052.06
483.21	3035.67
483.39	3040.36
483.57	3101.21
483.74	3225.26
483.92	3208.87
484.10	3136.32
484.28	3269.73
484.46	3342.28
484.64	3276.75
484.82	3269.73
485.00	3335.26
485.18	3365.69
485.35	3337.60
485.53	3353.99
485.71	3407.82
485.89	3550.59
486.07	3478.04
486.25	3489.74
486.43	3410.16
486.61	3538.89
486.78	3658.26
486.96	3454.63
487.14	3658.26
487.32	3536.55
487.50	3665.28
487.68	3646.55
487.85	3737.84
488.03	3691.02
488.21	3803.37
488.39	3838.48
488.57	3826.78
488.75	3852.52
488.92	4046.79
489.10	3826.78
489.28	3920.40
489.46	3969.55
489.64	4091.26
489.81	4018.70
489.99	4021.04
490.17	3981.25
490.35	4053.81
490.53	3981.25
490.70	4100.62
490.88	4035.08
491.06	4255.09
491.24	4196.58
491.41	4119.34
491.59	4187.22
491.77	4189.56
491.95	4264.46
492.13	4313.61
492.30	4292.54
492.48	4294.88
492.66	4290.20
492.84	4266.80
493.01	4418.93
493.19	4318.29
493.37	4400.21
493.54	4411.91
493.72	4512.55
493.90	4505.53
494.08	4629.58
494.25	4645.96
494.43	4636.60
494.61	4575.75
494.79	4587.45
494.96	4580.43
495.14	4606.17
495.32	4837.89
495.49	4746.61
495.67	4798.10
495.85	4645.96
496.02	4734.90
496.20	4737.24
496.38	4940.87
496.55	4891.72
496.73	4922.15
496.91	4800.44
497.09	4830.87
497.26	5029.81
497.44	4835.55
497.62	4917.47
497.79	5011.09
497.97	5083.64
498.14	5048.54
498.32	5006.41
498.50	5158.54
498.67	4971.30
498.85	5153.86
499.03	5167.90
499.20	5179.61
499.38	5270.89
499.56	5289.61
499.73	5338.76
499.91	5296.63
500.08	5352.81
500.26	5228.76
500.44	5193.65
500.61	5324.72
500.79	5247.48
500.97	5270.89
501.14	5413.66
501.32	5465.15
501.49	5298.97
501.67	5329.40
501.84	5427.70
502.02	5359.83
502.20	5563.45
502.37	5416.00
502.55	5572.82
502.72	5432.38
502.90	5495.58
503.07	5631.33
503.25	5708.57
503.43	5507.28
503.60	5542.39
503.78	5603.24
503.95	5664.10
504.13	5556.43
504.30	5680.48
504.48	5788.14
504.65	5710.91
504.83	5776.44
505.01	5713.25
505.18	5750.70
505.36	5832.62
505.53	5661.76
505.71	5839.64
505.88	5966.03
506.06	5710.91
506.23	5837.30
506.41	5841.98
506.58	5755.38
506.76	5839.64
506.93	5984.75
507.11	6122.84
507.28	5898.15
507.46	6022.20
507.63	5907.51
507.81	6008.16
507.98	5982.41
508.16	6022.20
508.33	6078.37
508.50	6239.87
508.68	6150.93
508.85	6017.52
509.03	5923.90
509.20	6155.61
509.38	6101.78
509.55	6176.67
509.73	6176.67
509.90	6223.48
510.08	6190.72
510.25	6279.66
510.42	6272.64
510.60	6256.25
510.77	6200.08
510.95	6321.79
511.12	6225.82
511.30	6314.77
511.47	6197.74
511.64	6403.71
511.82	6499.67
511.99	6267.95
512.17	6586.27
512.34	6345.19
512.51	6469.24
512.69	6441.15
512.86	6511.37
513.04	6558.18
513.21	6705.63
513.38	6499.67
513.56	6530.09
513.73	6579.25
513.90	6633.08
514.08	6562.86
514.25	6551.16
514.43	6689.25
514.60	6415.41
514.77	6595.63
514.95	6719.68
515.12	6469.24
515.29	6497.33
515.47	6693.93
515.64	6736.06
515.81	6766.49
515.99	6888.20
516.16	6902.24
516.33	6729.04
516.51	6827.34
516.68	6740.74
516.85	6689.25
517.03	7005.22
517.20	6808.62
517.37	6930.33
517.54	7087.14
517.72	6876.49
517.89	6946.71
518.06	6958.41
518.24	6789.89
518.41	7056.72
518.58	6857.77
518.75	6761.81
518.93	6892.88
519.10	6932.67
519.27	6932.67
519.45	6995.86
519.62	7190.13
519.79	6988.84
519.96	7152.68
520.14	7098.84
520.31	7204.17
520.48	6986.50
520.65	7056.72
520.83	7148.00
521.00	7206.51
521.17	7162.04
521.34	7227.57
521.52	7253.32
521.69	7073.10
521.86	7136.29
522.03	7307.15
522.20	7241.62
522.38	7283.75
522.55	7220.55
522.72	7199.49
522.89	7426.52
523.07	7391.41
523.24	7330.56
523.41	7456.95
523.58	7346.94
523.75	7363.33
523.92	7368.01
524.10	7377.37
524.27	7431.20
524.44	7510.78
524.61	7669.94
524.78	7578.65
524.96	7456.95
525.13	7510.78
525.30	7466.31
525.47	7529.50
525.64	7475.67
525.81	7286.09
525.98	7478.01
526.16	7365.67
526.33	7375.03
526.50	7620.78
526.67	7686.32
526.84	7672.28
527.01	7571.63
527.18	7819.73
527.36	7653.55
527.53	7646.53
527.70	7772.92
527.87	7695.68
528.04	7831.43
528.21	7793.98
528.38	7672.28
528.55	7669.94
528.72	7805.69
528.89	7850.16
529.07	7679.30
529.24	7707.38
529.41	7815.05
529.58	7683.98
529.75	7751.85
529.92	7793.98
530.09	7866.54
530.26	7885.26
530.43	7758.88
530.60	7815.05
530.77	7925.05
530.94	7847.82
531.11	7943.78
531.28	7948.46
531.46	7735.47
531.63	7808.03
531.80	7882.92
531.97	7873.56
532.14	7969.52
532.31	7843.14
532.48	7913.35
532.65	8107.62
532.82	7913.35
532.99	7906.33
533.16	7819.73
533.33	8063.15
533.50	7983.57
533.67	7969.52
533.84	8100.59
534.01	7892.29
534.18	7976.55
534.35	8079.53
534.52	8189.53
534.69	8004.63
534.86	8229.32
535.03	8032.72
535.20	8264.43
535.37	8046.76
535.54	8212.94
535.71	8091.23
535.88	8138.04
536.05	8084.21
536.22	8229.32
536.38	8344.01
536.55	8318.26
536.72	8250.39
536.89	8168.47
537.06	8175.49
537.23	8266.77
537.40	8081.87
537.57	8098.25
537.74	8503.17
537.91	8336.99
538.08	8252.73
538.25	8336.99
538.42	8367.42
538.59	8468.06
538.75	8334.65
538.92	8124.00
539.09	8456.36
539.26	8325.29
539.43	8320.60
539.60	8615.51
539.77	8397.84
539.94	8496.14
540.11	8608.49
540.28	8589.77
540.44	8505.51
540.61	8561.68
540.78	8484.44
540.95	8472.74
541.12	8592.11
541.29	8835.52
541.46	8788.71
541.62	8786.37
541.79	8905.74
541.96	8744.24
542.13	8610.83
542.30	8875.31
542.47	8798.07
542.63	8798.07
542.80	8945.53
542.97	8950.21
543.14	8889.35
543.31	8980.64
543.48	8805.10
543.64	8830.84
543.81	8985.32
543.98	8973.61
544.15	8936.17
544.32	9125.75
544.48	8957.23
544.65	9039.15
544.82	8755.94
544.99	9057.87
545.16	8772.33
545.32	8931.48
545.49	9448.74
545.66	9657.05
545.83	9898.13
546.00	9635.99
546.16	9181.92
546.33	8987.66
546.50	9064.89
546.67	8938.51
546.83	8849.57
547.00	8901.06
547.17	8819.14
547.34	8964.25
547.50	8779.35
547.67	8814.46
547.84	8615.51
548.00	8823.82
548.17	9011.06
548.34	8781.69
548.51	8975.95
548.67	9032.13
548.84	8697.43
549.01	8863.61
549.18	8802.75
549.34	8940.85
549.51	9022.77
549.68	8882.33
549.84	8765.31
550.01	8947.87
550.18	8917.44
550.34	9046.17
550.51	8894.04
550.68	9085.96
550.84	8816.80
551.01	8901.06
551.18	8957.23
551.34	8858.93
551.51	9027.45
551.68	8858.93
551.84	8982.98
552.01	8828.50
552.18	8856.59
552.34	8777.01
552.51	8952.55
552.68	8826.16
552.84	8987.66
553.01	9041.49
553.18	8964.25
553.34	9114.05
553.51	8872.97
553.67	8959.57
553.84	9041.49
554.01	9095.32
554.17	8997.02
554.34	8744.24
554.51	8898.72
554.67	9092.98
554.84	9139.79
555.00	9046.17
555.17	9027.45
555.33	8938.51
555.50	8933.82
555.67	9139.79
555.83	9100.00
556.00	9090.64
556.16	9357.46
556.33	8931.48
556.50	8847.22
556.66	9043.83
556.83	9060.21
556.99	8982.98
557.16	8807.44
557.32	9165.54
557.49	9132.77
557.65	9020.42
557.82	9083.62
557.98	9071.92
558.15	9163.20
558.32	9039.15
558.48	9036.81
558.65	9046.17
558.81	9226.39
558.98	9008.72
559.14	8917.44
559.31	8971.27
559.47	9135.11
559.64	9109.36
559.80	8915.10
559.97	9090.64
560.13	9123.41
560.30	8910.42
560.46	9350.44
560.63	9048.51
560.79	9193.62
560.96	9022.77
561.12	9100.00
561.29	9149.15
561.45	9085.96
561.61	9018.08
561.78	9067.24
561.94	9221.71
562.11	9074.26
562.27	9193.62
562.44	9041.49
562.60	9252.14
562.77	9153.84
562.93	9207.67
563.10	9184.26
563.26	9132.77
563.42	9214.69
563.59	9371.50
563.75	9139.79
563.92	9221.71
564.08	9071.92
564.24	9172.56
564.41	9121.07
564.57	9135.11
564.74	9074.26
564.90	9142.13
565.07	9219.37
565.23	9324.69
565.39	9195.96
565.56	9100.00
565.72	9135.11
565.88	9160.86
566.05	9200.65
566.21	9142.13
566.38	8971.27
566.54	9036.81
566.70	9004.04
566.87	9378.53
567.03	9266.18
567.19	9408.95
567.36	9193.62
567.52	9092.98
567.68	9118.73
567.85	9057.87
568.01	9062.55
568.17	9167.88
568.34	9174.90
568.50	9181.92
568.66	9252.14
568.83	9280.22
568.99	9142.13
569.15	9156.18
569.32	9151.49
569.48	8990.00
569.64	9114.05
569.81	9179.58
569.97	9085.96
570.13	9305.97
570.30	9380.87
570.46	9076.60
570.62	8992.34
570.78	9308.31
570.95	9011.06
571.11	9408.95
571.27	9231.07
571.43	9121.07
571.60	9095.32
571.76	9280.22
571.92	9057.87
572.09	9263.84
572.25	9144.47
572.41	9095.32
572.57	9146.81
572.74	9408.95
572.90	9116.39
573.06	9090.64
573.22	9266.18
573.38	9151.49
573.55	9137.45
573.71	9221.71
573.87	9217.03
574.03	9317.67
574.20	9249.80
574.36	9125.75
574.52	9142.13
574.68	9095.32
574.84	9226.39
575.01	9217.03
575.17	9055.53
575.33	9130.43
575.49	9202.99
575.65	9352.78
575.82	9149.15
575.98	9460.45
576.14	9303.63
576.30	9310.65
576.46	9191.28
576.62	9448.74
576.79	9418.32
576.95	9401.93
577.11	9303.63
577.27	9202.99
577.43	9160.86
577.59	9282.56
577.75	9146.81
577.92	9198.31
578.08	9184.26
578.24	8938.51
578.40	9240.44
578.56	9366.82
578.72	9355.12
578.88	9465.13
579.04	9327.03
579.21	9404.27
579.37	9116.39
579.53	9041.49
579.69	9282.56
579.85	9245.12
580.01	9195.96
580.17	9116.39
580.33	9135.11
580.49	9282.56
580.65	9188.94
580.82	9373.85
580.98	9270.86
581.14	9359.80
581.30	9221.71
581.46	9322.35
581.62	9282.56
581.78	9177.24
581.94	9018.08
582.10	9273.20
582.26	9188.94
582.42	9095.32
582.58	9301.29
582.74	9146.81
582.90	9296.61
583.06	9254.48
583.22	9366.82
583.38	8957.23
583.54	9268.52
583.70	9394.91
583.86	9195.96
584.02	9097.66
584.18	9270.86
584.34	9308.31
584.50	9217.03
584.66	9275.54
584.82	9123.41
584.98	9158.52
585.14	9434.70
585.30	9308.31
585.46	9193.62
585.62	9186.60
585.78	9170.22
585.94	9263.84
586.10	9277.88
586.26	9242.78
586.42	9144.47
586.58	9439.38
586.74	9111.71
586.90	9198.31
587.06	9261.50
587.22	9315.33
587.38	9488.53
587.54	9355.12
587.70	9537.68
587.86	9270.86
588.02	9247.46
588.18	9301.29
588.34	9415.98
588.49	9165.54
588.65	9097.66
588.81	9090.64
588.97	9195.96
589.13	9100.00
589.29	9259.16
589.45	9121.07
589.61	9179.58
589.77	9350.44
589.93	9181.92
590.08	9212.35
590.24	9261.50
590.40	9460.45
590.56	9334.06
590.72	9298.95
590.88	9158.52
591.04	9210.01
591.20	9125.75
591.35	9263.84
591.51	9277.88
591.67	9427.68
591.83	9212.35
591.99	9291.93
592.15	9303.63
592.31	9177.24
592.46	9301.29
592.62	9114.05
592.78	9252.14
592.94	9186.60
593.10	9172.56
593.26	9277.88
593.41	9291.93
593.57	9249.80
593.73	9256.82
593.89	9380.87
594.05	9371.50
594.20	9210.01
594.36	9329.38
594.52	9249.80
594.68	9053.19
594.84	9151.49
594.99	9193.62
595.15	9217.03
595.31	9376.19
595.47	9390.23
595.62	9200.65
595.78	8971.27
595.94	9329.38
596.10	9228.73
596.25	9350.44
596.41	9287.25
596.57	9277.88
596.73	9263.84
596.88	9125.75
597.04	9228.73
597.20	8957.23
597.36	9165.54
597.51	9366.82
597.67	9043.83
597.83	9158.52
597.99	9268.52
598.14	9149.15
598.30	9268.52
598.46	9490.87
598.61	9102.34
598.77	9256.82
598.93	9303.63
599.09	9287.25
599.24	9432.36
599.40	9109.36
599.56	9305.97
599.71	9249.80
599.87	9226.39
