SpectraSuite Data File
++++++++++++++++++++++++++++++++++++
Date: Fri Oct 04 11:39:19 GMT-05:00 2013
User: price-jones
Dark Spectrum Present: No
Reference Spectrum Present: No
Number of Sampled Component Spectra: 1
Spectrometers: USB2+H05261
Integration Time (usec): 100000 (USB2+H05261)
Spectra Averaged: 1 (USB2+H05261)
Boxcar Smoothing: 0 (USB2+H05261)
Correct for Electrical Dark: No (USB2+H05261)
Strobe/Lamp Enabled: No (USB2+H05261)
Correct for Detector Non-linearity: No (USB2+H05261)
Correct for Stray Light: No (USB2+H05261)
Number of Pixels in Processed Spectrum: 2048
>>>>>Begin Processed Spectral Data<<<<<
365.73	0.00
365.92	0.00
366.12	0.00
366.32	21.06
366.52	0.00
366.72	0.00
366.91	0.00
367.11	0.00
367.31	0.00
367.51	0.00
367.70	0.00
367.90	49.15
368.10	0.00
368.30	0.00
368.49	0.00
368.69	0.00
368.89	0.00
369.09	0.00
369.28	0.00
369.48	0.00
369.68	9.36
369.87	30.43
370.07	0.00
370.27	30.43
370.47	126.39
370.66	135.75
370.86	236.39
371.06	313.63
371.25	344.06
371.45	203.63
371.65	212.99
371.84	299.59
372.04	306.61
372.24	320.65
372.44	330.02
372.63	330.02
372.83	315.97
373.03	273.84
373.22	337.04
373.42	301.93
373.62	311.29
373.81	351.08
374.01	369.80
374.21	351.08
374.40	315.97
374.60	393.21
374.79	379.17
374.99	425.98
375.19	332.36
375.38	414.27
375.58	374.49
375.78	449.38
375.97	376.83
376.17	470.45
376.37	425.98
376.56	409.59
376.76	381.51
376.95	397.89
377.15	428.32
377.35	416.62
377.54	409.59
377.74	311.29
377.93	418.96
378.13	381.51
378.33	423.64
378.52	437.68
378.72	425.98
378.91	458.74
379.11	358.10
379.31	404.91
379.50	493.85
379.70	428.32
379.89	423.64
380.09	369.80
380.28	346.40
380.48	425.98
380.68	411.93
380.87	451.72
381.07	416.62
381.26	475.13
381.46	540.66
381.65	491.51
381.85	360.44
382.04	519.60
382.24	545.34
382.43	477.47
382.63	503.22
382.83	465.77
383.02	507.90
383.22	528.96
383.41	472.79
383.61	484.49
383.80	449.38
384.00	475.13
384.19	407.25
384.39	571.09
384.58	543.00
384.78	505.56
384.97	613.22
385.17	547.69
385.36	500.87
385.56	599.18
385.75	592.16
385.95	531.30
386.14	592.16
386.34	617.90
386.53	531.30
386.72	519.60
386.92	592.16
387.11	636.63
387.31	578.11
387.50	557.05
387.70	535.98
387.89	622.58
388.09	575.77
388.28	521.94
388.48	528.96
388.67	566.41
388.86	585.13
389.06	688.12
389.25	657.69
389.45	601.52
389.64	744.29
389.84	585.13
390.03	650.67
390.22	655.35
390.42	599.18
390.61	620.24
390.81	692.80
391.00	664.71
391.19	643.65
391.39	622.58
391.58	711.52
391.78	608.54
391.97	758.33
392.16	739.61
392.36	732.59
392.55	744.29
392.75	767.70
392.94	674.07
393.13	697.48
393.33	676.41
393.52	732.59
393.71	697.48
393.91	725.57
394.10	709.18
394.29	737.27
394.49	819.19
394.68	840.25
394.88	842.59
395.07	833.23
395.26	814.51
395.46	802.80
395.65	903.45
395.84	807.48
396.04	875.36
396.23	882.38
396.42	814.51
396.62	863.66
396.81	861.32
397.00	896.43
397.19	889.40
397.39	851.96
397.58	926.85
397.77	873.02
397.97	861.32
398.16	1011.11
398.35	912.81
398.55	959.62
398.74	950.26
398.93	987.71
399.12	985.37
399.32	994.73
399.51	910.47
399.70	1046.22
399.90	971.32
400.09	978.34
400.28	1100.05
400.47	1015.79
400.67	938.55
400.86	1034.52
401.05	1048.56
401.24	1081.33
401.44	1093.03
401.63	1032.18
401.82	1064.94
402.01	1062.60
402.21	1046.22
402.40	1144.52
402.59	1149.20
402.78	1153.88
402.97	1165.59
403.17	1071.97
403.36	1165.59
403.55	1114.10
403.74	1259.21
403.93	1254.53
404.13	1303.68
404.32	1364.53
404.51	1238.14
404.70	1366.87
404.89	1294.32
405.09	1268.57
405.28	1315.38
405.47	1228.78
405.66	1317.72
405.85	1324.74
406.05	1322.40
406.24	1399.64
406.43	1467.52
406.62	1348.15
406.81	1483.90
407.00	1366.87
407.20	1350.49
407.39	1362.19
407.58	1439.43
407.77	1516.67
407.96	1565.82
408.15	1530.71
408.34	1446.45
408.54	1516.67
408.73	1521.35
408.92	1540.07
409.11	1570.50
409.30	1629.01
409.49	1542.41
409.68	1673.48
409.87	1533.05
410.07	1657.10
410.26	1713.27
410.45	1727.32
410.64	1722.63
410.83	1689.87
411.02	1732.00
411.21	1743.70
411.40	1724.97
411.59	1837.32
411.78	1881.79
411.98	1816.26
412.17	1879.45
412.36	1877.11
412.55	1968.39
412.74	1886.47
412.93	1952.01
413.12	1935.62
413.31	2031.58
413.50	2029.24
413.69	1968.39
413.88	2078.40
414.07	2132.23
414.26	2071.37
414.45	2005.84
414.64	2169.68
414.83	2162.66
415.02	2083.08
415.22	2235.21
415.41	2221.17
415.60	2326.49
415.79	2249.25
415.98	2223.51
416.17	2349.90
416.36	2356.92
416.55	2293.72
416.74	2415.43
416.93	2434.16
417.12	2487.99
417.31	2321.81
417.50	2588.63
417.69	2619.06
417.88	2541.82
418.07	2464.58
418.26	2422.45
418.45	2567.57
418.64	2691.62
418.83	2630.76
419.02	2635.44
419.21	2677.57
419.39	2745.45
419.58	2677.57
419.77	2658.85
419.96	2773.53
420.15	2740.77
420.34	2686.94
420.53	2794.60
420.72	2951.42
420.91	2686.94
421.10	2761.83
421.29	2918.65
421.48	2803.96
421.67	2888.22
421.86	2768.85
422.05	2848.43
422.24	2860.13
422.43	2902.26
422.61	2899.92
422.80	2902.26
422.99	2883.54
423.18	3021.63
423.37	2963.12
423.56	3023.97
423.75	2981.84
423.94	2946.73
424.13	2860.13
424.32	2953.76
424.50	2974.82
424.69	3028.65
424.88	3178.45
425.07	2984.18
425.26	3056.74
425.45	3023.97
425.64	3033.33
425.83	3023.97
426.01	3021.63
426.20	3045.04
426.39	3143.34
426.58	3009.93
426.77	3136.32
426.96	2974.82
427.15	3073.12
427.33	3258.03
427.52	3119.93
427.71	3052.06
427.90	3215.90
428.09	3038.02
428.28	3248.66
428.46	3262.71
428.65	3199.51
428.84	3361.01
429.03	3372.71
429.22	3150.36
429.40	3328.24
429.59	3344.63
429.78	3316.54
429.97	3173.77
430.16	3239.30
430.34	3258.03
430.53	3562.30
430.72	3487.40
430.91	3421.86
431.10	3454.63
431.28	3445.27
431.47	3468.67
431.66	3590.38
431.85	3452.29
432.03	3452.29
432.22	3693.37
432.41	3592.72
432.60	3595.06
432.79	3613.79
432.97	3669.96
433.16	3655.92
433.35	3681.66
433.54	3763.58
433.72	3705.07
433.91	3714.43
434.10	3763.58
434.28	3686.34
434.47	3775.28
434.66	3899.33
434.85	3857.20
435.03	3932.10
435.22	4053.81
435.41	4346.37
435.59	4264.46
435.78	4124.02
435.97	4004.66
436.16	4126.36
436.34	4095.94
436.53	4044.45
436.72	4102.96
436.90	3899.33
437.09	4011.68
437.28	3911.04
437.46	3995.29
437.65	4067.85
437.84	4112.32
438.02	4133.39
438.21	4149.77
438.40	4063.17
438.58	4229.35
438.77	4119.34
438.96	4147.43
439.14	4297.22
439.33	4311.27
439.52	4468.08
439.70	4400.21
439.89	4447.02
440.08	4519.57
440.26	4444.68
440.45	4484.47
440.63	4737.24
440.82	4561.70
441.01	4601.49
441.19	4692.77
441.38	4755.97
441.57	4669.37
441.75	4777.03
441.94	4915.12
442.12	4912.78
442.31	4840.23
442.50	5029.81
442.68	5027.47
442.87	5090.67
443.05	4990.02
443.24	5142.16
443.43	5121.09
443.61	4992.36
443.80	5188.97
443.98	4739.58
444.17	4851.93
444.35	5074.28
444.54	5027.47
444.73	4968.96
444.91	5130.45
445.10	5074.28
445.28	5165.56
445.47	5046.20
445.65	5123.43
445.84	5076.62
446.02	5205.35
446.21	5233.44
446.39	5032.15
446.58	5266.21
446.77	5151.52
446.95	5085.98
447.14	5151.52
447.32	5329.40
447.51	4992.36
447.69	5046.20
447.88	5331.74
448.06	5233.44
448.25	5165.56
448.43	5348.12
448.62	5273.23
448.80	5249.82
448.99	5408.98
449.17	5441.75
449.36	5226.42
449.54	5359.83
449.73	5416.00
449.91	5383.23
450.10	5486.22
450.28	5516.64
450.46	5596.22
450.65	5502.60
450.83	5472.17
451.02	5542.39
451.20	5465.15
451.39	5551.75
451.57	5497.92
451.76	5516.64
451.94	5444.09
452.13	5792.83
452.31	5664.10
452.49	5607.92
452.68	5624.31
452.86	5767.08
453.05	5767.08
453.23	5846.66
453.42	5703.89
453.60	5607.92
453.78	5856.02
453.97	5708.57
454.15	5757.72
454.34	5795.17
454.52	5865.38
454.70	6024.54
454.89	5989.43
455.07	5951.98
455.26	5930.92
455.44	6019.86
455.62	6054.97
455.81	6019.86
455.99	6104.12
456.17	6221.14
456.36	6157.95
456.54	6176.67
456.73	6111.14
456.91	6366.26
457.09	6242.21
457.28	6534.78
457.46	6307.74
457.64	6560.52
457.83	6534.78
458.01	6289.02
458.19	6375.62
458.38	6434.13
458.56	6619.04
458.74	6548.82
458.93	6548.82
459.11	6518.39
459.29	6520.73
459.48	6572.22
459.66	6562.86
459.84	6722.02
460.03	6773.51
460.21	6511.37
460.39	6836.70
460.57	6635.42
460.76	6759.47
460.94	6764.15
461.12	6736.06
461.31	6764.15
461.49	6616.69
461.67	6745.42
461.85	7068.42
462.04	6857.77
462.22	7358.64
462.40	6878.83
462.59	6906.92
462.77	6991.18
462.95	6949.05
463.13	6993.52
463.32	7054.37
463.50	7225.23
463.68	7112.89
463.86	7173.74
464.05	6974.80
464.23	7246.30
464.41	7382.05
464.59	7227.57
464.78	7267.36
464.96	7410.14
465.14	7171.40
465.32	7358.64
465.50	7501.42
465.69	7449.93
465.87	7295.45
466.05	7370.35
466.23	7466.31
466.41	7492.05
466.60	7620.78
466.78	7393.75
466.96	7400.77
467.14	7433.54
467.32	7440.56
467.51	7749.51
467.69	7384.39
467.87	7641.85
468.05	7676.96
468.23	7611.42
468.41	7658.23
468.60	7637.17
468.78	7824.41
468.96	7590.36
469.14	7770.58
469.32	7796.32
469.50	7740.15
469.69	7707.38
469.87	8018.68
470.05	7873.56
470.23	7948.46
470.41	7850.16
470.59	7903.99
470.77	8037.40
470.95	8060.80
471.14	8245.71
471.32	8095.91
471.50	8252.73
471.68	8320.60
471.86	8278.47
472.04	8304.22
472.22	8355.71
472.40	8196.56
472.58	8470.40
472.77	8568.70
472.95	8500.83
473.13	8652.96
473.31	8404.86
473.49	8652.96
473.67	8650.62
473.85	8784.03
474.03	8889.35
474.21	8809.78
474.39	9022.77
474.57	8915.10
474.75	8987.66
474.93	9188.94
475.12	8889.35
475.30	9151.49
475.48	8990.00
475.66	9076.60
475.84	9163.20
476.02	9315.33
476.20	9249.80
476.38	9385.55
476.56	9554.07
476.74	9703.86
476.92	9650.03
477.10	9706.20
477.28	9738.97
477.46	9741.31
477.64	9834.93
477.82	9968.34
478.00	10136.86
478.18	10054.94
478.36	10377.94
478.54	10321.76
478.72	10436.45
478.90	10445.81
479.08	10464.54
479.26	10633.05
479.44	10721.99
479.62	10663.48
479.80	10698.59
479.98	11054.35
480.16	10993.50
480.34	11138.61
480.52	11063.71
480.70	11295.43
480.88	11082.44
481.06	11370.32
481.24	11183.08
481.41	11342.24
481.59	11595.01
481.77	11625.44
481.95	11693.32
482.13	11655.87
482.31	11817.36
482.49	12091.21
482.67	12166.10
482.85	11990.56
483.03	12493.78
483.21	12629.53
483.39	12692.73
483.57	12343.99
483.74	12802.73
483.92	12760.60
484.10	13074.23
484.28	13144.45
484.46	13263.82
484.64	13369.14
484.82	13284.88
485.00	13427.65
485.18	13647.66
485.35	13865.33
485.53	13790.44
485.71	13760.01
485.89	14040.87
486.07	14038.53
486.25	13912.14
486.43	14420.04
486.61	14429.40
486.78	14640.05
486.96	14738.35
487.14	14761.76
487.32	14827.29
487.50	15044.96
487.68	15192.42
487.85	15094.11
488.03	15346.89
488.21	15482.64
488.39	15587.97
488.57	15719.04
488.75	15723.72
488.92	16189.49
489.10	15997.56
489.28	16023.31
489.46	16084.16
489.64	16372.05
489.81	16599.08
489.99	16460.99
490.17	16718.45
490.35	16821.43
490.53	17097.61
490.70	16950.16
490.88	17125.70
491.06	17497.84
491.24	17308.26
491.41	17319.96
491.59	17514.23
491.77	17605.51
491.95	17991.70
492.13	18094.68
492.30	17860.63
492.48	18312.35
492.66	17996.38
492.84	18125.11
493.01	18539.38
493.19	18335.76
493.37	18810.89
493.54	18630.66
493.72	18813.23
493.90	18988.77
494.08	18799.18
494.25	19351.55
494.43	19386.66
494.61	19496.66
494.79	19681.56
494.96	19697.95
495.14	19599.65
495.32	19955.41
495.49	19695.61
495.67	19969.45
495.85	20175.42
496.02	20346.28
496.20	20357.98
496.38	20638.84
496.55	20826.09
496.73	20938.43
496.91	20783.96
497.09	21099.93
497.26	21177.17
497.44	21207.59
497.62	21455.69
497.79	21331.64
497.97	21364.41
498.14	21666.34
498.32	21844.22
498.50	21909.75
498.67	21928.48
498.85	21994.01
499.03	22026.78
499.20	22164.87
499.38	22139.13
499.56	22443.40
499.73	22384.88
499.91	22511.27
500.08	22611.92
500.26	22668.09
500.44	22651.70
500.61	22932.57
500.79	22934.91
500.97	22988.74
501.14	23068.32
501.32	23384.29
501.49	23248.54
501.67	23070.66
501.84	23566.85
502.02	23253.22
502.20	23468.55
502.37	23789.20
502.55	23770.48
502.72	23896.87
502.90	23924.96
503.07	23552.81
503.25	23995.17
503.43	23981.13
503.60	24018.58
503.78	24423.49
503.95	24156.67
504.13	24498.39
504.30	24465.62
504.48	24159.01
504.65	24573.28
504.83	24596.69
505.01	24987.56
505.18	24802.66
505.36	25303.53
505.53	24882.24
505.71	24982.88
505.88	25029.69
506.06	25036.71
506.23	25235.66
506.41	25453.33
506.58	25160.76
506.76	25268.42
506.93	25348.00
507.11	25806.75
507.28	25886.32
507.46	26115.70
507.63	25860.58
507.81	26206.98
507.98	26286.56
508.16	26169.53
508.33	25975.27
508.50	26361.45
508.68	26546.36
508.85	26843.60
509.03	26511.25
509.20	26597.85
509.38	26691.47
509.55	26890.41
509.73	27257.88
509.90	26993.40
510.08	27201.71
510.25	27152.55
510.42	27180.64
510.60	27475.55
510.77	27480.23
510.95	27414.69
511.12	27641.73
511.30	27513.00
511.47	27913.23
511.64	28058.34
511.82	28151.96
511.99	27756.41
512.17	28212.82
512.34	27814.93
512.51	28435.17
512.69	28219.84
512.86	28187.07
513.04	28730.08
513.21	28793.27
513.38	28734.76
513.56	28896.25
513.73	28863.49
513.90	28519.43
514.08	28826.04
514.25	29127.97
514.43	29268.40
514.60	29553.94
514.77	28931.36
514.95	29120.95
515.12	28959.45
515.29	28989.88
515.47	29289.46
515.64	29343.30
515.81	29263.72
515.99	29820.77
516.16	30043.12
516.33	29923.75
516.51	29933.11
516.68	29523.52
516.85	29865.24
517.03	29879.28
517.20	30309.94
517.37	30607.19
517.54	30368.45
517.72	30359.09
517.89	30394.20
518.06	30328.66
518.24	30122.69
518.41	30242.06
518.58	30909.11
518.75	30827.20
518.93	30682.08
519.10	30649.32
519.27	31260.20
519.45	30792.09
519.62	30775.70
519.79	31325.73
519.96	30897.41
520.14	31229.77
520.31	31166.57
520.48	30976.99
520.65	31276.58
520.83	31487.23
521.00	31508.29
521.17	31527.02
521.34	31398.29
521.52	31653.40
521.69	31894.48
521.86	32053.64
522.03	32196.41
522.20	31866.39
522.38	32318.12
522.55	31845.33
522.72	32149.60
522.89	32102.79
523.07	32650.47
523.24	32563.87
523.41	32985.17
523.58	32458.55
523.75	32594.30
523.92	32594.30
524.10	32844.74
524.27	32779.20
524.44	32989.85
524.61	33429.87
524.78	33399.44
524.96	33486.04
525.13	32856.44
525.30	33343.27
525.47	33546.90
525.64	32842.40
525.81	33336.25
525.98	33474.34
526.16	33551.58
526.33	33408.81
526.50	34443.32
526.67	33582.01
526.84	33783.29
527.01	33497.75
527.18	34335.66
527.36	34010.32
527.53	33949.47
527.70	34204.59
527.87	34558.01
528.04	34410.56
528.21	34176.50
528.38	34513.54
528.55	34569.71
528.72	34117.99
528.89	34155.44
529.07	34630.57
529.24	34583.76
529.41	35005.05
529.58	34703.12
529.75	34387.15
529.92	34979.31
530.09	34480.77
530.26	34553.33
530.43	34829.51
530.60	34815.47
530.77	35250.81
530.94	35211.02
531.11	34803.77
531.28	35000.37
531.46	35323.36
531.63	35330.39
531.80	35398.26
531.97	35543.38
532.14	35089.31
532.31	35693.17
532.48	35559.76
532.65	35716.58
532.82	35096.33
532.99	35945.95
533.16	35454.44
533.33	36392.99
533.50	36041.91
533.67	36287.67
533.84	35587.85
534.01	35625.29
534.18	35709.55
534.35	36025.53
534.52	36275.96
534.69	35995.10
534.86	36254.90
535.03	36243.20
535.20	36446.82
535.37	36463.21
535.54	36388.31
535.71	36292.35
535.88	36568.53
536.05	36933.65
536.22	36755.77
536.38	37008.55
536.55	36683.22
536.72	36687.90
536.89	36425.76
537.06	36926.63
537.23	37394.74
537.40	36999.19
537.57	37076.43
537.74	36903.23
537.91	37350.27
538.08	37247.29
538.25	37364.31
538.42	37422.83
538.59	37230.90
538.75	36989.83
538.92	37488.36
539.09	37638.15
539.26	37474.32
539.43	37574.96
539.60	37755.18
539.77	37603.05
539.94	38017.32
540.11	37729.44
540.28	38183.50
540.44	37890.93
540.61	37827.74
540.78	37799.65
540.95	38543.94
541.12	38387.13
541.29	38195.20
541.46	38064.13
541.62	38660.97
541.79	38246.69
541.96	38225.63
542.13	38316.91
542.30	38347.34
542.47	38792.04
542.63	38232.65
542.80	38859.91
542.97	38845.87
543.14	38995.67
543.31	39126.74
543.48	38602.46
543.64	39171.21
543.81	39271.85
543.98	39419.30
544.15	39449.73
544.32	39358.45
544.48	39447.39
544.65	39388.88
544.82	39311.64
544.99	39044.82
545.16	39335.04
545.32	39407.60
545.49	39845.28
545.66	40315.73
545.83	40627.02
546.00	40617.66
546.16	39323.34
546.33	39423.98
546.50	39463.77
546.67	39908.47
546.83	39522.29
547.00	39641.65
547.17	39653.36
547.34	39922.52
547.50	39749.32
547.67	40224.45
547.84	40011.46
548.00	40088.70
548.17	39711.87
548.34	40144.87
548.51	40388.28
548.67	40622.34
548.84	40165.93
549.01	39810.17
549.18	39999.76
549.34	40196.36
549.51	39852.30
549.68	40294.66
549.84	40187.00
550.01	40292.32
550.18	40055.93
550.34	40170.61
550.51	40219.77
550.68	40392.97
550.84	39810.17
551.01	40470.20
551.18	40414.03
551.34	40287.64
551.51	40161.25
551.68	40470.20
551.84	40500.63
552.01	40533.40
552.18	40872.78
552.34	40715.96
552.51	40832.99
552.68	40678.51
552.84	41177.04
553.01	40844.69
553.18	41010.87
553.34	40624.68
553.51	40882.14
553.67	40989.80
553.84	41165.34
554.01	41420.46
554.17	41137.26
554.34	40809.58
554.51	40938.31
554.67	41191.09
554.84	41017.89
555.00	41048.32
555.17	41209.81
555.33	40910.22
555.50	41375.99
555.67	41544.51
555.83	41525.78
556.00	41551.53
556.16	41631.11
556.33	41205.13
556.50	41013.21
556.66	41507.06
556.83	41347.90
556.99	41984.53
557.16	41975.17
557.32	41794.95
557.49	41710.69
557.65	41294.07
557.82	41785.58
557.98	41429.82
558.15	41406.42
558.32	41937.72
558.48	41134.92
558.65	41841.76
558.81	42335.61
558.98	41825.37
559.14	41481.31
559.31	41368.97
559.47	41701.32
559.64	41902.61
559.80	41846.44
559.97	42050.06
560.13	41675.58
560.30	42082.83
560.46	42529.87
560.63	42171.77
560.79	42260.71
560.96	42000.91
561.12	42038.36
561.29	42043.04
561.45	42195.18
561.61	42115.60
561.78	42249.01
561.94	42403.49
562.11	42258.37
562.27	42611.79
562.44	42195.18
562.60	42457.32
562.77	42534.56
562.93	42085.17
563.10	42167.09
563.26	41816.01
563.42	42969.90
563.59	42469.02
563.75	42356.67
563.92	42344.97
564.08	42548.60
564.24	42440.93
564.41	42099.22
564.57	42230.29
564.74	42281.78
564.90	42286.46
565.07	42590.73
565.23	42958.19
565.39	42258.37
565.56	42927.77
565.72	42595.41
565.88	42466.68
566.05	41921.34
566.21	42340.29
566.38	42607.11
566.54	42363.70
566.70	43255.44
566.87	43042.45
567.03	42333.27
567.19	42887.98
567.36	42401.14
567.52	42417.53
567.68	42857.55
567.85	42389.44
568.01	42574.34
568.17	42913.72
568.34	42799.04
568.50	43203.95
568.66	42728.82
568.83	42653.92
568.99	42677.33
569.15	42387.10
569.32	42597.75
569.48	42487.74
569.64	42761.59
569.81	42459.66
569.97	42955.85
570.13	43161.82
570.30	43255.44
570.46	42784.99
570.62	43044.79
570.78	42408.17
570.95	42895.00
571.11	42972.24
571.27	42841.17
571.43	42705.41
571.60	42913.72
571.76	42887.98
571.92	43023.73
572.09	43269.48
572.25	43210.97
572.41	43196.93
572.57	43201.61
572.74	43309.27
572.90	42836.48
573.06	42806.06
573.22	42768.61
573.38	42932.45
573.55	43234.38
573.71	43913.13
573.87	43758.66
574.03	43042.45
574.20	43365.45
574.36	43414.60
574.52	42873.93
574.68	43075.22
574.84	43423.96
575.01	43318.64
575.17	43655.67
575.33	42955.85
575.49	42995.64
575.65	43695.46
575.82	43484.81
575.98	43206.29
576.14	43688.44
576.30	43430.98
576.46	43372.47
576.62	43316.29
576.79	43648.65
576.95	43175.86
577.11	43494.18
577.27	43332.68
577.43	43194.59
577.59	43299.91
577.75	43639.29
577.92	43363.11
578.08	43206.29
578.24	42864.57
578.40	43412.26
578.56	43494.18
578.72	43597.16
578.88	43681.42
579.04	43571.41
579.21	43377.15
579.37	43807.81
579.53	43849.94
579.69	43035.43
579.85	43386.51
580.01	43442.68
580.17	43255.44
580.33	43730.57
580.49	43473.11
580.65	43339.70
580.82	43335.02
580.98	43938.88
581.14	43538.65
581.30	43723.55
581.46	43065.86
581.62	43388.85
581.78	43349.06
581.94	43629.93
582.10	43288.21
582.26	43875.68
582.42	43945.90
582.58	43604.18
582.74	43491.83
582.90	44149.53
583.06	43866.32
583.22	43531.62
583.38	44004.41
583.54	43856.96
583.70	43508.22
583.86	43693.12
584.02	43608.86
584.18	43627.59
584.34	43913.13
584.50	43763.34
584.66	43599.50
584.82	43826.53
584.98	43459.07
585.14	43753.97
585.30	43257.78
585.46	43636.95
585.62	43349.06
585.78	43824.19
585.94	43629.93
586.10	43587.80
586.26	43105.65
586.42	44584.86
586.58	43938.88
586.74	43604.18
586.90	43131.39
587.06	43426.30
587.22	43885.04
587.38	43524.60
587.54	43751.63
587.70	44201.02
587.86	43992.71
588.02	44142.50
588.18	44243.15
588.34	43920.15
588.49	43842.92
588.65	43683.76
588.81	43524.60
588.97	43613.54
589.13	43737.59
589.29	43732.91
589.45	43817.17
589.61	43810.15
589.77	43842.92
589.93	44088.67
590.08	44025.48
590.24	44425.71
590.40	44292.30
590.56	44107.40
590.72	43641.63
590.88	43934.20
591.04	43377.15
