SpectraSuite Data File
++++++++++++++++++++++++++++++++++++
Date: Fri Oct 04 11:39:37 GMT-05:00 2013
User: price-jones
Dark Spectrum Present: No
Reference Spectrum Present: No
Number of Sampled Component Spectra: 1
Spectrometers: USB2+H05261
Integration Time (usec): 100000 (USB2+H05261)
Spectra Averaged: 1 (USB2+H05261)
Boxcar Smoothing: 0 (USB2+H05261)
Correct for Electrical Dark: No (USB2+H05261)
Strobe/Lamp Enabled: No (USB2+H05261)
Correct for Detector Non-linearity: No (USB2+H05261)
Correct for Stray Light: No (USB2+H05261)
Number of Pixels in Processed Spectrum: 2048
>>>>>Begin Processed Spectral Data<<<<<
365.73	63.19
365.92	63.19
366.12	63.19
366.32	0.00
366.52	11.70
366.72	0.00
366.91	0.00
367.11	0.00
367.31	0.00
367.51	0.00
367.70	0.00
367.90	4.68
368.10	0.00
368.30	0.00
368.49	9.36
368.69	46.81
368.89	11.70
369.09	0.00
369.28	0.00
369.48	0.00
369.68	16.38
369.87	16.38
370.07	11.70
370.27	44.47
370.47	72.56
370.66	276.18
370.86	297.25
371.06	304.27
371.25	271.50
371.45	252.78
371.65	341.72
371.84	301.93
372.04	344.06
372.24	407.25
372.44	339.38
372.63	400.23
372.83	379.17
373.03	369.80
373.22	327.68
373.42	409.59
373.62	500.87
373.81	430.66
374.01	479.81
374.21	500.87
374.40	475.13
374.60	428.32
374.79	507.90
374.99	430.66
375.19	435.34
375.38	458.74
375.58	435.34
375.78	407.25
375.97	521.94
376.17	533.64
376.37	421.30
376.56	554.71
376.76	505.56
376.95	400.23
377.15	585.13
377.35	514.92
377.54	505.56
377.74	444.70
377.93	430.66
378.13	498.53
378.33	479.81
378.52	482.15
378.72	524.28
378.91	461.09
379.11	493.85
379.31	543.00
379.50	507.90
379.70	468.11
379.89	531.30
380.09	543.00
380.28	540.66
380.48	613.22
380.68	451.72
380.87	512.58
381.07	524.28
381.26	512.58
381.46	617.90
381.65	587.47
381.85	650.67
382.04	559.39
382.24	557.05
382.43	592.16
382.63	624.92
382.83	655.35
383.02	580.45
383.22	627.26
383.41	613.22
383.61	608.54
383.80	545.34
384.00	540.66
384.19	582.79
384.39	650.67
384.58	650.67
384.78	671.73
384.97	713.86
385.17	643.65
385.36	629.60
385.56	620.24
385.75	617.90
385.95	683.44
386.14	695.14
386.34	631.94
386.53	692.80
386.72	624.92
386.92	610.88
387.11	741.95
387.31	730.25
387.50	664.71
387.70	671.73
387.89	758.33
388.09	631.94
388.28	751.31
388.48	746.63
388.67	720.88
388.86	713.86
389.06	678.76
389.25	727.91
389.45	723.23
389.64	718.54
389.84	784.08
390.03	816.85
390.22	763.01
390.42	779.40
390.61	767.70
390.81	837.91
391.00	779.40
391.19	826.21
391.39	772.38
391.58	819.19
391.78	821.53
391.97	748.97
392.16	760.67
392.36	870.68
392.55	887.06
392.75	873.02
392.94	814.51
393.13	802.80
393.33	826.21
393.52	781.74
393.71	926.85
393.91	917.49
394.10	894.08
394.29	861.32
394.49	919.83
394.68	983.02
394.88	976.00
395.07	961.96
395.26	898.77
395.46	898.77
395.65	983.02
395.84	990.05
396.04	992.39
396.23	952.60
396.42	997.07
396.62	1057.92
396.81	976.00
397.00	947.92
397.19	1102.39
397.39	1060.26
397.58	1083.67
397.77	1060.26
397.97	1121.12
398.16	1095.37
398.35	1109.41
398.55	1130.48
398.74	1128.14
398.93	1135.16
399.12	1167.93
399.32	1090.69
399.51	1128.14
399.70	1252.19
399.90	1196.01
400.09	1252.19
400.28	1174.95
400.47	1263.89
400.67	1420.71
400.86	1259.21
401.05	1186.65
401.24	1235.80
401.44	1299.00
401.63	1329.42
401.82	1348.15
402.01	1259.21
402.21	1254.53
402.40	1308.36
402.59	1406.66
402.78	1409.00
402.97	1313.04
403.17	1322.40
403.36	1430.07
403.55	1455.81
403.74	1451.13
403.93	1535.39
404.13	1448.79
404.32	1427.73
404.51	1500.28
404.70	1556.46
404.89	1509.65
405.09	1577.52
405.28	1526.03
405.47	1511.99
405.66	1535.39
405.85	1544.75
406.05	1689.87
406.24	1643.06
406.43	1652.42
406.62	1650.08
406.81	1652.42
407.00	1638.38
407.20	1666.46
407.39	1713.27
407.58	1657.10
407.77	1741.36
407.96	1842.00
408.15	1804.55
408.34	1748.38
408.54	1874.77
408.73	1844.34
408.92	1783.49
409.11	1849.02
409.30	1891.15
409.49	1795.19
409.68	1891.15
409.87	1853.70
410.07	1926.26
410.26	2106.48
410.45	1937.96
410.64	1930.94
410.83	1987.11
411.02	2078.40
411.21	2017.54
411.40	2193.08
411.59	2172.02
411.78	2277.34
411.98	2155.63
412.17	2214.15
412.36	2223.51
412.55	2228.19
412.74	2253.94
412.93	2349.90
413.12	2284.36
413.31	2296.07
413.50	2375.64
413.69	2354.58
413.88	2569.91
414.07	2569.91
414.26	2551.18
414.45	2436.50
414.64	2612.04
414.83	2588.63
415.02	2572.25
415.22	2525.44
415.41	2729.06
415.60	2612.04
415.79	2644.81
415.98	2705.66
416.17	2829.71
416.36	2827.37
416.55	2794.60
416.74	2796.94
416.93	2815.66
417.12	2843.75
417.31	2972.48
417.50	2867.16
417.69	3082.49
417.88	2984.18
418.07	2935.03
418.26	2984.18
418.45	3012.27
418.64	3201.85
418.83	3213.56
419.02	3220.58
419.21	3204.19
419.39	3272.07
419.58	3187.81
419.77	3171.43
419.96	3225.26
420.15	3215.90
420.34	3234.62
420.53	3220.58
420.72	3314.20
420.91	3403.14
421.10	3251.00
421.29	3492.08
421.48	3253.34
421.67	3365.69
421.86	3361.01
422.05	3396.12
422.24	3503.78
422.43	3393.78
422.61	3405.48
422.80	3405.48
422.99	3545.91
423.18	3548.25
423.37	3524.85
423.56	3604.42
423.75	3536.55
423.94	3574.00
424.13	3405.48
424.32	3400.80
424.50	3672.30
424.69	3707.41
424.88	3534.21
425.07	3550.59
425.26	3452.29
425.45	3508.46
425.64	3578.68
425.83	3618.47
426.01	3665.28
426.20	3520.17
426.39	3684.00
426.58	3569.32
426.77	3665.28
426.96	3756.56
427.15	3686.34
427.33	3522.51
427.52	3709.75
427.71	3831.46
427.90	3632.51
428.09	3719.11
428.28	3866.56
428.46	3810.39
428.65	3957.85
428.84	3904.01
429.03	4011.68
429.22	3854.86
429.40	3978.91
429.59	4035.08
429.78	3875.93
429.97	3918.06
430.16	3852.52
430.34	3955.51
430.53	4182.54
430.72	3974.23
430.91	4060.83
431.10	4105.30
431.28	4126.36
431.47	4184.88
431.66	4351.06
431.85	4121.68
432.03	4311.27
432.22	4383.82
432.41	4236.37
432.60	4257.43
432.79	4205.94
432.97	4304.25
433.16	4276.16
433.35	4257.43
433.54	4306.59
433.72	4416.59
433.91	4358.08
434.10	4362.76
434.28	4472.76
434.47	4568.73
434.66	4435.32
434.85	4615.54
435.03	4589.79
435.22	4690.43
435.41	4964.28
435.59	5036.83
435.78	4770.01
435.97	4833.21
436.16	4856.61
436.34	4645.96
436.53	4844.91
436.72	4919.81
436.90	4692.77
437.09	4767.67
437.28	4762.99
437.46	4748.95
437.65	4882.36
437.84	4865.97
438.02	4891.72
438.21	4730.22
438.40	4716.18
438.58	4973.64
438.77	4957.25
438.96	4905.76
439.14	5170.24
439.33	5004.07
439.52	5144.50
439.70	5235.78
439.89	5301.31
440.08	5331.74
440.26	5338.76
440.45	5296.63
440.63	5453.45
440.82	5427.70
441.01	5413.66
441.19	5504.94
441.38	5458.13
441.57	5631.33
441.75	5479.19
441.94	5628.99
442.12	5701.54
442.31	5930.92
442.50	5891.13
442.68	5757.72
442.87	5902.83
443.05	5699.20
443.24	5930.92
443.43	5888.79
443.61	5724.95
443.80	6214.12
443.98	5797.51
444.17	5792.83
444.35	5935.60
444.54	5996.45
444.73	6078.37
444.91	5893.47
445.10	5982.41
445.28	5996.45
445.47	5968.37
445.65	6052.63
445.84	5914.53
446.02	5944.96
446.21	6054.97
446.39	5975.39
446.58	6129.86
446.77	5996.45
446.95	5944.96
447.14	6001.13
447.32	6104.12
447.51	6047.94
447.69	5980.07
447.88	6001.13
448.06	6059.65
448.25	6092.41
448.43	6305.40
448.62	6150.93
448.80	6279.66
448.99	6251.57
449.17	6132.20
449.36	6235.19
449.54	6492.65
449.73	6375.62
449.91	6298.38
450.10	6483.28
450.28	6497.33
450.46	6457.54
450.65	6546.48
450.83	6532.44
451.02	6424.77
451.20	6579.25
451.39	6668.19
451.57	6422.43
451.76	6670.53
451.94	6616.69
452.13	6665.85
452.31	6600.31
452.49	6576.91
452.68	6469.24
452.86	6815.64
453.05	6656.48
453.23	6822.66
453.42	6871.81
453.60	6883.52
453.78	6967.77
453.97	6817.98
454.15	6546.48
454.34	6537.12
454.52	6930.33
454.70	6967.77
454.89	7014.59
455.07	6883.52
455.26	7045.01
455.44	7021.61
455.62	7183.10
455.81	7110.55
455.99	7080.12
456.17	7096.50
456.36	7208.85
456.54	7218.21
456.73	7323.54
456.91	7461.63
457.09	7433.54
457.28	7550.57
457.46	7485.03
457.64	7508.44
457.83	7552.91
458.01	7358.64
458.19	7552.91
458.38	7545.89
458.56	7583.34
458.74	7609.08
458.93	7737.81
459.11	7557.59
459.29	7667.60
459.48	7672.28
459.66	7742.49
459.84	7756.54
460.03	7679.30
460.21	7646.53
460.39	7763.56
460.57	7896.97
460.76	7808.03
460.94	7857.18
461.12	7985.91
461.31	7971.86
461.49	7936.76
461.67	7901.65
461.85	8060.80
462.04	8006.97
462.22	8266.77
462.40	8336.99
462.59	8205.92
462.77	8238.69
462.95	8271.45
463.13	8262.09
463.32	8353.37
463.50	8182.51
463.68	8442.31
463.86	8255.07
464.05	8210.60
464.23	8203.58
464.41	8432.95
464.59	8276.13
464.78	8472.74
464.96	8390.82
465.14	8414.23
465.32	8365.07
465.50	8620.19
465.69	8538.27
465.87	8498.49
466.05	8463.38
466.23	8514.87
466.41	8716.16
466.60	8777.01
466.78	8477.42
466.96	8400.18
467.14	8564.02
467.32	8606.15
467.51	8957.23
467.69	8493.80
467.87	8760.63
468.05	8898.72
468.23	8788.71
468.41	8711.47
468.60	8856.59
468.78	9074.26
468.96	8847.22
469.14	8891.70
469.32	8978.30
469.50	8652.96
469.69	9282.56
469.87	9355.12
470.05	9249.80
470.23	9144.47
470.41	9057.87
470.59	9207.67
470.77	9193.62
470.95	9371.50
471.14	9525.98
471.32	9130.43
471.50	9558.75
471.68	9387.89
471.86	9579.81
472.04	9736.63
472.22	9631.30
472.40	9472.15
472.58	9783.44
472.77	9645.35
472.95	9874.72
473.13	10305.38
473.31	9722.59
473.49	9926.21
473.67	10026.86
473.85	9900.47
474.03	10237.50
474.21	9856.00
474.39	10176.65
474.57	10520.71
474.75	10422.41
474.93	10410.70
475.12	10455.17
475.30	10434.11
475.48	10487.94
475.66	10670.50
475.84	10637.73
476.02	10853.06
476.20	10457.51
476.38	10895.19
476.56	11124.57
476.74	11026.26
476.92	11386.71
477.10	10878.81
477.28	11232.23
477.46	11377.34
477.64	11283.72
477.82	11265.00
478.00	11754.17
478.18	12025.67
478.36	11918.01
478.54	12098.23
478.72	12044.40
478.90	12255.04
479.08	12145.04
479.26	12353.35
479.44	12411.86
479.62	12613.15
479.80	12531.23
479.98	12620.17
480.16	13011.04
480.34	12592.08
480.52	13102.32
480.70	12849.54
480.88	12737.20
481.06	13015.72
481.24	13057.85
481.41	13233.39
481.59	13317.65
481.77	13495.53
481.95	13579.79
482.13	13540.00
482.31	13837.25
482.49	13675.75
482.67	13867.67
482.85	14434.08
483.03	14272.59
483.21	14204.71
483.39	14518.34
483.57	14391.95
483.74	14927.94
483.92	14630.69
484.10	14792.19
484.28	15279.02
484.46	15405.41
484.64	15775.21
484.82	15059.01
485.00	15571.58
485.18	15756.49
485.35	16343.96
485.53	15852.45
485.71	16091.18
485.89	16311.19
486.07	16353.32
486.25	16280.77
486.43	16430.56
486.61	16624.83
486.78	16709.08
486.96	16971.22
487.14	17116.34
487.32	16924.41
487.50	17245.07
487.68	17287.20
487.85	17319.96
488.03	17668.70
488.21	18092.34
488.39	17982.34
488.57	17961.27
488.75	18120.43
488.92	18492.57
489.10	18518.32
489.28	18422.36
489.46	18714.92
489.64	18677.48
489.81	19021.53
489.99	19183.03
490.17	19110.47
490.35	19311.76
490.53	19463.90
490.70	19978.81
490.88	19730.72
491.06	19885.19
491.24	19714.33
491.41	19744.76
491.59	20208.19
491.77	20350.96
491.95	20556.93
492.13	20931.41
492.30	20655.23
492.48	20805.02
492.66	20683.31
492.84	20699.70
493.01	20968.86
493.19	21165.46
493.37	21455.69
493.54	21387.82
493.72	21724.85
493.90	21720.17
494.08	21841.88
494.25	21895.71
494.43	22314.67
494.61	21975.29
494.79	22710.22
494.96	22913.84
495.14	22611.92
495.32	22771.07
495.49	23037.89
495.67	22911.50
495.85	23199.39
496.02	23108.11
496.20	23571.54
496.38	23311.74
496.55	23435.78
496.73	23847.72
496.91	23784.52
497.09	23817.29
497.26	24044.32
497.44	23810.27
497.62	24350.93
497.79	24297.10
497.97	24341.57
498.14	24437.53
498.32	24999.26
498.50	24863.51
498.67	25493.12
498.85	25097.56
499.03	25331.62
499.20	25418.22
499.38	25219.27
499.56	25472.05
499.73	25827.81
499.91	25729.51
500.08	25708.44
500.26	25357.36
500.44	25928.45
500.61	26115.70
500.79	26164.85
500.97	26382.52
501.14	26251.45
501.32	26677.43
501.49	26637.64
501.67	26445.71
501.84	26672.74
502.02	26466.78
502.20	26930.20
502.37	26705.51
502.55	26721.90
502.72	27391.29
502.90	27124.47
503.07	27140.85
503.25	27150.21
503.43	27323.41
503.60	27407.67
503.78	27770.46
503.95	27520.02
504.13	27887.48
504.30	27615.98
504.48	27630.02
504.65	28168.35
504.83	28322.82
505.01	28439.85
505.18	28315.80
505.36	28594.32
505.53	28198.77
505.71	28620.07
505.88	28804.97
506.06	28421.13
506.23	28734.76
506.41	28613.05
506.58	28914.98
506.76	29200.52
506.93	29214.57
507.11	29006.26
507.28	29247.33
507.46	29640.54
507.63	29518.84
507.81	30054.82
507.98	29371.38
508.16	29500.11
508.33	30171.85
508.50	29865.24
508.68	30066.52
508.85	30061.84
509.03	30029.07
509.20	30377.81
509.38	30675.06
509.55	30661.02
509.73	30359.09
509.90	30576.76
510.08	30951.24
510.25	30960.61
510.42	30457.39
510.60	30761.66
510.77	31208.70
510.95	31192.32
511.12	30862.30
511.30	31290.62
511.47	31428.71
511.64	31491.91
511.82	31594.89
511.99	31278.92
512.17	31779.79
512.34	31569.15
512.51	31566.81
512.69	31908.52
512.86	32229.18
513.04	32077.04
513.21	32486.64
513.38	32299.39
513.56	32582.60
513.73	32194.07
513.90	32606.00
514.08	32163.64
514.25	32676.22
514.43	33078.79
514.60	32835.38
514.77	32496.00
514.95	32870.48
515.12	32959.42
515.29	32978.15
515.47	33369.02
515.64	33385.40
515.81	33500.09
515.99	33694.35
516.16	33799.68
516.33	33771.59
516.51	33570.30
516.68	33457.96
516.85	33755.21
517.03	34270.12
517.20	33862.87
517.37	34422.26
517.54	34134.37
517.72	33872.23
517.89	34115.65
518.06	34038.41
518.24	34342.68
518.41	34244.38
518.58	34555.67
518.75	34707.80
518.93	34576.73
519.10	34700.78
519.27	34693.76
519.45	34778.02
519.62	34981.65
519.79	34806.11
519.96	35379.54
520.14	35321.02
520.31	35236.77
520.48	35517.63
520.65	35051.86
520.83	35309.32
521.00	35442.73
521.17	35557.42
521.34	35744.66
521.52	35463.80
521.69	35456.78
521.86	35999.78
522.03	35838.28
522.20	35578.48
522.38	35983.40
522.55	35868.71
522.72	35997.44
522.89	36598.96
523.07	36325.11
523.24	36512.36
523.41	36669.17
523.58	36519.38
523.75	36938.33
523.92	36629.38
524.10	36739.39
524.27	36994.51
524.44	36851.73
524.61	37340.91
524.78	37343.25
524.96	37214.52
525.13	37090.47
525.30	36769.82
525.47	37626.45
525.64	37174.73
525.81	37256.65
525.98	37937.74
526.16	37600.71
526.33	36943.02
526.50	37916.68
526.67	37074.09
526.84	37816.04
527.01	37462.61
527.18	37837.10
527.36	37947.11
527.53	37455.59
527.70	38586.07
527.87	38190.52
528.04	37998.60
528.21	38185.84
528.38	38162.43
528.55	38602.46
528.72	38162.43
528.89	38677.35
529.07	38607.14
529.24	38532.24
529.41	38806.08
529.58	38370.74
529.75	38431.60
529.92	38337.98
530.09	38527.56
530.26	38632.88
530.43	38576.71
530.60	38677.35
530.77	38925.45
530.94	39019.07
531.11	38927.79
531.28	38927.79
531.46	39239.08
531.63	38988.64
531.80	39227.38
531.97	39959.97
532.14	39636.97
532.31	39091.63
532.48	39627.61
532.65	39487.18
532.82	39632.29
532.99	39250.78
533.16	40046.57
533.33	39995.07
533.50	40147.21
533.67	40016.14
533.84	39648.68
534.01	40243.17
534.18	39555.05
534.35	40774.47
534.52	40039.54
534.69	40315.73
534.86	40519.35
535.03	40357.86
535.20	40753.41
535.37	40385.94
535.54	40699.58
535.71	40156.57
535.88	40662.13
536.05	40622.34
536.22	40634.04
536.38	40961.72
536.55	40957.03
536.72	40797.88
536.89	40421.05
537.06	40612.98
537.23	41116.19
537.40	40900.86
537.57	40800.22
537.74	41193.43
537.91	41263.64
538.08	41340.88
538.25	40722.98
538.42	41418.12
538.59	41371.31
538.75	41053.00
538.92	41581.96
539.09	41474.29
539.26	41694.30
539.43	41933.04
539.60	41776.22
539.77	41752.82
539.94	42139.00
540.11	41563.23
540.28	42181.13
540.44	42150.71
540.61	41682.60
540.78	42295.82
540.95	42146.03
541.12	42314.55
541.29	42494.77
541.46	42155.39
541.62	42525.19
541.79	42490.09
541.96	42033.68
542.13	41886.23
542.30	43129.05
542.47	43082.24
542.63	42761.59
542.80	42686.69
542.97	43185.22
543.14	43035.43
543.31	43192.25
543.48	42885.64
543.64	43409.92
543.81	43646.31
543.98	43157.14
544.15	43629.93
544.32	43372.47
544.48	43583.12
544.65	43358.42
544.82	42862.23
544.99	42733.50
545.16	43196.93
545.32	43107.99
545.49	43679.08
545.66	44601.25
545.83	44032.50
546.00	44526.35
546.16	43683.76
546.33	43489.49
546.50	43414.60
546.67	43735.25
546.83	43187.56
547.00	43746.95
547.17	43412.26
547.34	43599.50
547.50	44236.12
547.67	44149.53
547.84	44137.82
548.00	43985.69
548.17	44217.40
548.34	43632.27
548.51	44519.33
548.67	44189.31
548.84	44285.28
549.01	44039.52
549.18	44098.03
549.34	44062.93
549.51	43732.91
549.68	44091.01
549.84	44109.74
550.01	44285.28
550.18	44268.89
550.34	44570.82
550.51	44589.55
550.68	44643.38
550.84	44296.98
551.01	44772.11
551.18	44304.00
551.34	44009.09
551.51	44039.52
551.68	44074.63
551.84	44409.32
552.01	44144.84
552.18	44505.29
552.34	44198.68
552.51	44442.09
552.68	44308.68
552.84	44296.98
553.01	44926.58
553.18	44636.36
553.34	44552.10
553.51	44961.69
553.67	44704.23
553.84	45427.46
554.01	45165.32
554.17	45357.24
554.34	44994.46
554.51	44671.46
554.67	44917.22
554.84	44737.00
555.00	44982.76
555.17	44851.69
555.33	45062.33
555.50	44957.01
555.67	44919.56
555.83	44975.73
556.00	45137.23
556.16	45265.96
556.33	45467.25
556.50	45457.88
556.66	45848.75
556.83	45301.07
556.99	45404.05
557.16	45539.80
557.32	45488.31
557.49	45731.73
557.65	45158.30
557.82	45031.91
557.98	45488.31
558.15	45687.26
558.32	45315.11
558.48	45268.30
558.65	45631.08
558.81	45762.15
558.98	45570.23
559.14	45394.69
559.31	45120.85
559.47	45209.79
559.64	45574.91
559.80	45680.24
559.97	45848.75
560.13	46010.25
560.30	45343.20
560.46	45581.93
560.63	46117.92
560.79	45890.88
560.96	45635.77
561.12	45661.51
561.29	45724.71
561.45	45769.18
561.61	45748.11
561.78	46117.92
561.94	45860.46
562.11	46227.92
562.27	45935.35
562.44	45577.25
562.60	45984.51
562.77	45713.00
562.93	45834.71
563.10	45869.82
563.26	45954.08
563.42	46026.63
563.59	45940.04
563.75	46108.55
563.92	45823.01
564.08	45755.13
564.24	45970.46
564.41	45907.27
564.57	46012.59
564.74	46061.74
564.90	46258.35
565.07	45853.44
565.23	46340.27
565.39	46106.21
565.56	45815.99
565.72	45975.14
565.88	46064.08
566.05	46127.28
566.21	46026.63
566.38	45916.63
566.54	46148.34
566.70	46358.99
566.87	46316.86
567.03	46384.74
567.19	46300.48
567.36	46195.15
567.52	45963.44
567.68	46403.46
567.85	45708.32
568.01	46234.94
568.17	46295.80
568.34	46436.23
568.50	46550.91
568.66	46263.03
568.83	46314.52
568.99	46234.94
569.15	46237.28
569.32	45811.31
569.48	46124.94
569.64	46447.93
569.81	46511.13
569.97	46045.36
570.13	46553.26
570.30	46113.23
570.46	46349.63
570.62	46021.95
570.78	46461.97
570.95	46396.44
571.11	46075.79
571.27	46328.56
571.43	45677.90
571.60	46155.36
571.76	46344.95
571.92	46415.16
572.09	46609.43
572.25	46405.80
572.41	46279.41
572.57	46366.01
572.74	46646.88
572.90	46094.51
573.06	46171.75
573.22	46354.31
573.38	46071.10
573.55	46361.33
573.71	46656.24
573.87	46911.36
574.03	46171.75
574.20	46225.58
574.36	46403.46
574.52	46192.81
574.68	46108.55
574.84	46642.20
575.01	46050.04
575.17	46494.74
575.33	46305.16
575.49	46298.14
575.65	46188.13
575.82	46588.36
575.98	46281.75
576.14	46677.30
576.30	46337.93
576.46	46223.24
576.62	46883.27
576.79	46775.61
576.95	46571.98
577.11	46309.84
577.27	46457.29
577.43	46454.95
577.59	46323.88
577.75	46726.46
577.92	46160.05
578.08	46033.66
578.24	46632.83
578.40	46237.28
578.56	46698.37
578.72	46436.23
578.88	46433.89
579.04	46906.68
579.21	46490.06
579.37	46597.73
579.53	46520.49
579.69	46162.39
579.85	46181.11
580.01	46387.08
580.17	46160.05
580.33	46403.46
580.49	46356.65
580.65	46197.49
580.82	46534.53
580.98	46880.93
581.14	46679.64
581.30	46628.15
581.46	46712.41
581.62	46281.75
581.78	46438.57
581.94	46731.14
582.10	46272.39
582.26	46548.57
582.42	46930.08
582.58	46728.80
582.74	46911.36
582.90	46581.34
583.06	46677.30
583.22	46248.99
583.38	46429.21
583.54	46380.06
583.70	46635.17
583.86	46316.86
584.02	46370.69
584.18	47100.94
584.34	46719.43
584.50	47004.98
584.66	46546.23
584.82	46557.94
584.98	46576.66
585.14	46639.86
585.30	46244.30
585.46	46494.74
585.62	46469.00
585.78	46344.95
585.94	46445.59
586.10	46604.75
586.26	46862.21
586.42	46918.38
586.58	46618.79
586.74	46738.16
586.90	45766.84
587.06	46190.47
587.22	46373.03
587.38	46248.99
587.54	46885.61
587.70	46752.20
587.86	46426.87
588.02	47000.30
588.18	47028.38
588.34	46894.97
588.49	46555.60
588.65	46492.40
588.81	46745.18
588.97	46993.28
589.13	46501.76
589.29	46436.23
589.45	46852.84
589.61	46586.02
589.77	47154.77
589.93	47182.86
590.08	46890.29
590.24	46494.74
590.40	46969.87
590.56	47208.61
