SpectraSuite Data File
++++++++++++++++++++++++++++++++++++
Date: Fri Oct 04 11:39:12 GMT-05:00 2013
User: price-jones
Dark Spectrum Present: No
Reference Spectrum Present: No
Number of Sampled Component Spectra: 1
Spectrometers: USB2+H05261
Integration Time (usec): 100000 (USB2+H05261)
Spectra Averaged: 1 (USB2+H05261)
Boxcar Smoothing: 0 (USB2+H05261)
Correct for Electrical Dark: No (USB2+H05261)
Strobe/Lamp Enabled: No (USB2+H05261)
Correct for Detector Non-linearity: No (USB2+H05261)
Correct for Stray Light: No (USB2+H05261)
Number of Pixels in Processed Spectrum: 2048
>>>>>Begin Processed Spectral Data<<<<<
365.73	126.39
365.92	126.39
366.12	126.39
366.32	37.45
366.52	0.00
366.72	0.00
366.91	0.00
367.11	0.00
367.31	0.00
367.51	44.47
367.70	0.00
367.90	0.00
368.10	0.00
368.30	0.00
368.49	0.00
368.69	0.00
368.89	25.75
369.09	2.34
369.28	0.00
369.48	0.00
369.68	0.00
369.87	0.00
370.07	65.54
370.27	84.26
370.47	32.77
370.66	112.35
370.86	191.92
371.06	220.01
371.25	257.46
371.45	117.03
371.65	138.09
371.84	133.41
372.04	201.29
372.24	180.22
372.44	229.37
372.63	201.29
372.83	196.60
373.03	194.26
373.22	173.20
373.42	208.31
373.62	217.67
373.81	259.80
374.01	196.60
374.21	259.80
374.40	278.52
374.60	220.01
374.79	203.63
374.99	241.08
375.19	290.23
375.38	255.12
375.58	245.76
375.78	299.59
375.97	266.82
376.17	299.59
376.37	238.73
376.56	241.08
376.76	271.50
376.95	245.76
377.15	203.63
377.35	285.55
377.54	191.92
377.74	220.01
377.93	252.78
378.13	297.25
378.33	236.39
378.52	189.58
378.72	280.86
378.91	273.84
379.11	229.37
379.31	227.03
379.50	292.57
379.70	250.44
379.89	292.57
380.09	287.89
380.28	327.68
380.48	278.52
380.68	339.38
380.87	236.39
381.07	234.05
381.26	287.89
381.46	294.91
381.65	308.95
381.85	220.01
382.04	315.97
382.24	325.33
382.43	208.31
382.63	250.44
382.83	313.63
383.02	346.40
383.22	292.57
383.41	299.59
383.61	262.14
383.80	278.52
384.00	290.23
384.19	337.04
384.39	304.27
384.58	344.06
384.78	322.99
384.97	318.31
385.17	337.04
385.36	257.46
385.56	283.20
385.75	287.89
385.95	327.68
386.14	308.95
386.34	311.29
386.53	280.86
386.72	315.97
386.92	440.02
387.11	346.40
387.31	341.72
387.50	369.80
387.70	313.63
387.89	388.53
388.09	299.59
388.28	297.25
388.48	358.10
388.67	348.74
388.86	301.93
389.06	358.10
389.25	393.21
389.45	374.49
389.64	383.85
389.84	330.02
390.03	400.23
390.22	304.27
390.42	322.99
390.61	393.21
390.81	337.04
391.00	327.68
391.19	390.87
391.39	447.04
391.58	374.49
391.78	395.55
391.97	400.23
392.16	344.06
392.36	308.95
392.55	456.40
392.75	407.25
392.94	414.27
393.13	315.97
393.33	346.40
393.52	421.30
393.71	407.25
393.91	351.08
394.10	425.98
394.29	395.55
394.49	301.93
394.68	447.04
394.88	489.17
395.07	510.24
395.26	456.40
395.46	344.06
395.65	428.32
395.84	409.59
396.04	550.03
396.23	496.19
396.42	449.38
396.62	479.81
396.81	437.68
397.00	517.26
397.19	451.72
397.39	418.96
397.58	447.04
397.77	493.85
397.97	514.92
398.16	463.43
398.35	493.85
398.55	496.19
398.74	564.07
398.93	528.96
399.12	468.11
399.32	545.34
399.51	463.43
399.70	503.22
399.90	498.53
400.09	503.22
400.28	517.26
400.47	447.04
400.67	472.79
400.86	535.98
401.05	535.98
401.24	510.24
401.44	615.56
401.63	557.05
401.82	533.64
402.01	568.75
402.21	521.94
402.40	582.79
402.59	624.92
402.78	613.22
402.97	578.11
403.17	564.07
403.36	585.13
403.55	533.64
403.74	573.43
403.93	662.37
404.13	660.03
404.32	650.67
404.51	723.23
404.70	713.86
404.89	648.33
405.09	709.18
405.28	592.16
405.47	613.22
405.66	662.37
405.85	631.94
406.05	706.84
406.24	603.86
406.43	585.13
406.62	643.65
406.81	690.46
407.00	718.54
407.20	730.25
407.39	678.76
407.58	760.67
407.77	739.61
407.96	653.01
408.15	741.95
408.34	800.46
408.54	711.52
408.73	791.10
408.92	716.20
409.11	798.12
409.30	716.20
409.49	767.70
409.68	734.93
409.87	739.61
410.07	793.44
410.26	800.46
410.45	669.39
410.64	844.93
410.83	805.14
411.02	812.17
411.21	826.21
411.40	791.10
411.59	814.51
411.78	774.72
411.98	849.61
412.17	926.85
412.36	786.42
412.55	884.72
412.74	968.98
412.93	954.94
413.12	901.11
413.31	889.40
413.50	898.77
413.69	926.85
413.88	1013.45
414.07	1018.13
414.26	987.71
414.45	938.55
414.64	1027.50
414.83	992.39
415.02	1050.90
415.22	1027.50
415.41	1111.75
415.60	968.98
415.79	1015.79
415.98	1074.31
416.17	1022.81
416.36	1050.90
416.55	1055.58
416.74	1156.22
416.93	1142.18
417.12	1076.65
417.31	1132.82
417.50	1083.67
417.69	1135.16
417.88	1116.44
418.07	1219.42
418.26	1207.72
418.45	1116.44
418.64	1142.18
418.83	1263.89
419.02	1217.08
419.21	1233.46
419.39	1156.22
419.58	1186.65
419.77	1158.57
419.96	1327.08
420.15	1329.42
420.34	1289.64
420.53	1228.78
420.72	1373.89
420.91	1287.29
421.10	1294.32
421.29	1350.49
421.48	1273.25
421.67	1378.58
421.86	1336.45
422.05	1371.55
422.24	1268.57
422.43	1331.76
422.61	1394.96
422.80	1317.72
422.99	1437.09
423.18	1373.89
423.37	1390.28
423.56	1404.32
423.75	1409.00
423.94	1268.57
424.13	1245.16
424.32	1350.49
424.50	1430.07
424.69	1294.32
424.88	1366.87
425.07	1331.76
425.26	1378.58
425.45	1411.34
425.64	1418.36
425.83	1280.27
426.01	1490.92
426.20	1425.39
426.39	1453.47
426.58	1399.64
426.77	1387.94
426.96	1317.72
427.15	1427.73
427.33	1437.09
427.52	1502.62
427.71	1411.34
427.90	1511.99
428.09	1465.18
428.28	1516.67
428.46	1404.32
428.65	1404.32
428.84	1497.94
429.03	1458.15
429.22	1392.62
429.40	1444.11
429.59	1507.30
429.78	1411.34
429.97	1392.62
430.16	1493.26
430.34	1544.75
430.53	1533.05
430.72	1453.47
430.91	1511.99
431.10	1509.65
431.28	1598.59
431.47	1575.18
431.66	1619.65
431.85	1664.12
432.03	1551.78
432.22	1629.01
432.41	1657.10
432.60	1643.06
432.79	1511.99
432.97	1584.54
433.16	1678.16
433.35	1572.84
433.54	1633.69
433.72	1682.85
433.91	1638.38
434.10	1666.46
434.28	1699.23
434.47	1710.93
434.66	1755.40
434.85	1673.48
435.03	1748.38
435.22	1926.26
435.41	2122.87
435.59	2101.80
435.78	2026.90
435.97	1804.55
436.16	1720.29
436.34	1804.55
436.53	1774.13
436.72	1834.98
436.90	1788.17
437.09	1849.02
437.28	1795.19
437.46	1722.63
437.65	1778.81
437.84	1825.62
438.02	1856.04
438.21	1881.79
438.40	1753.06
438.58	1891.15
438.77	1879.45
438.96	1909.88
439.14	1898.17
439.33	1898.17
439.52	1851.36
439.70	2005.84
439.89	2017.54
440.08	2057.33
440.26	2127.55
440.45	2010.52
440.63	1977.75
440.82	2022.22
441.01	2043.29
441.19	1973.07
441.38	2153.29
441.57	2197.76
441.75	2136.91
441.94	2167.34
442.12	2101.80
442.31	2237.55
442.50	2256.28
442.68	2214.15
442.87	2097.12
443.05	2284.36
443.24	2167.34
443.43	2172.02
443.61	2153.29
443.80	2356.92
443.98	2282.02
444.17	2071.37
444.35	2363.94
444.54	2181.38
444.73	2275.00
444.91	2181.38
445.10	2157.97
445.28	2073.71
445.47	2244.57
445.65	2172.02
445.84	2202.44
446.02	2284.36
446.21	2223.51
446.39	2242.23
446.58	2277.34
446.77	2153.29
446.95	2202.44
447.14	2272.66
447.32	2408.41
447.51	2282.02
447.69	2387.35
447.88	2260.96
448.06	2228.19
448.25	2111.16
448.43	2331.17
448.62	2258.62
448.80	2300.75
448.99	2312.45
449.17	2373.30
449.36	2232.87
449.54	2286.70
449.73	2352.24
449.91	2497.35
450.10	2368.62
450.28	2298.41
450.46	2469.27
450.65	2420.11
450.83	2441.18
451.02	2359.26
451.20	2399.05
451.39	2441.18
451.57	2345.22
451.76	2483.31
451.94	2389.69
452.13	2490.33
452.31	2534.80
452.49	2469.27
452.68	2455.22
452.86	2546.50
453.05	2558.21
453.23	2562.89
453.42	2499.69
453.60	2466.92
453.78	2551.18
453.97	2537.14
454.15	2576.93
454.34	2506.71
454.52	2593.31
454.70	2597.99
454.89	2567.57
455.07	2649.49
455.26	2679.91
455.44	2595.65
455.62	2609.70
455.81	2628.42
455.99	2607.36
456.17	2607.36
456.36	2705.66
456.54	2670.55
456.73	2679.91
456.91	2712.68
457.09	2855.45
457.28	2705.66
457.46	2789.92
457.64	2736.09
457.83	2909.29
458.01	2733.75
458.19	2743.11
458.38	2745.45
458.56	2841.41
458.74	2796.94
458.93	2848.43
459.11	2768.85
459.29	2810.98
459.48	2869.50
459.66	2876.52
459.84	2890.56
460.03	2932.69
460.21	2705.66
460.39	2909.29
460.57	3005.25
460.76	2904.60
460.94	2925.67
461.12	2958.44
461.31	3007.59
461.49	2906.95
461.67	2895.24
461.85	2883.54
462.04	2848.43
462.22	3101.21
462.40	3105.89
462.59	2995.89
462.77	3059.08
462.95	3110.57
463.13	3030.99
463.32	2890.56
463.50	3077.80
463.68	3000.57
463.86	3138.66
464.05	3047.38
464.23	3091.85
464.41	3087.17
464.59	3096.53
464.78	3173.77
464.96	3155.04
465.14	3105.89
465.32	3068.44
465.50	3061.42
465.69	3152.70
465.87	3061.42
466.05	3145.68
466.23	3136.32
466.41	3213.56
466.60	3199.51
466.78	3030.99
466.96	3265.05
467.14	3232.28
467.32	3155.04
467.51	3302.50
467.69	3295.47
467.87	3258.03
468.05	3276.75
468.23	3178.45
468.41	3185.47
468.60	3281.43
468.78	3218.24
468.96	3386.76
469.14	3321.22
469.32	3234.62
469.50	3215.90
469.69	3372.71
469.87	3520.17
470.05	3349.31
470.23	3412.50
470.41	3414.84
470.59	3482.72
470.77	3396.12
470.95	3527.19
471.14	3452.29
471.32	3424.20
471.50	3438.25
471.68	3496.76
471.86	3571.66
472.04	3531.87
472.22	3541.23
472.40	3576.34
472.58	3559.95
472.77	3562.30
472.95	3564.64
473.13	3756.56
473.31	3712.09
473.49	3702.73
473.67	3805.71
473.85	3712.09
474.03	3786.99
474.21	3693.37
474.39	3836.14
474.57	3817.41
474.75	3822.09
474.93	3920.40
475.12	3723.79
475.30	3786.99
475.48	3904.01
475.66	3866.56
475.84	4065.51
476.02	3845.50
476.20	3950.82
476.38	3999.98
476.56	4070.19
476.74	4065.51
476.92	4131.05
477.10	3978.91
477.28	4133.39
477.46	4182.54
477.64	4231.69
477.82	4325.31
478.00	4259.78
478.18	4271.48
478.36	4407.23
478.54	4367.44
478.72	4365.10
478.90	4514.89
479.08	4524.26
479.26	4414.25
479.44	4484.47
479.62	4482.13
479.80	4554.68
479.98	4620.22
480.16	4610.86
480.34	4671.71
480.52	4592.13
480.70	4699.80
480.88	4557.02
481.06	4678.73
481.24	4765.33
481.41	4936.19
481.59	4945.55
481.77	4947.89
481.95	4957.25
482.13	5074.28
482.31	4919.81
482.49	5102.37
482.67	5294.29
482.85	5060.24
483.03	5195.99
483.21	5107.05
483.39	5242.80
483.57	5298.97
483.74	5238.12
483.92	5411.32
484.10	5413.66
484.28	5476.85
484.46	5509.62
484.64	5736.65
484.82	5493.24
485.00	5568.13
485.18	5741.33
485.35	5781.12
485.53	5715.59
485.71	5940.28
485.89	5748.36
486.07	5891.13
486.25	5844.32
486.43	5996.45
486.61	6076.03
486.78	6127.52
486.96	6057.31
487.14	6073.69
487.32	6087.73
487.50	6094.76
487.68	6129.86
487.85	6415.41
488.03	6274.98
488.21	6504.35
488.39	6511.37
488.57	6525.41
488.75	6548.82
488.92	6787.55
489.10	6679.89
489.28	6829.68
489.46	6722.02
489.64	6752.45
489.81	6942.03
489.99	6911.60
490.17	6909.26
490.35	6956.07
490.53	7056.72
490.70	7014.59
490.88	7068.42
491.06	7030.97
491.24	7164.38
491.41	7173.74
491.59	7325.88
491.77	7232.26
491.95	7449.93
492.13	7222.89
492.30	7412.48
492.48	7473.33
492.66	7557.59
492.84	7428.86
493.01	7681.64
493.19	7522.48
493.37	7934.42
493.54	7695.68
493.72	7585.68
493.90	7955.48
494.08	7906.33
494.25	7875.90
494.43	7992.93
494.61	8088.89
494.79	8030.38
494.96	7866.54
495.14	8065.49
495.32	8264.43
495.49	8269.11
495.67	8311.24
495.85	8269.11
496.02	8250.39
496.20	8582.74
496.38	8465.72
496.55	8484.44
496.73	8538.27
496.91	8376.78
497.09	8491.46
497.26	8664.66
497.44	8477.42
497.62	8641.26
497.79	8877.65
497.97	8578.06
498.14	8870.63
498.32	9001.70
498.50	9013.40
498.67	8877.65
498.85	9001.70
499.03	8978.30
499.20	9006.38
499.38	9027.45
499.56	9074.26
499.73	9114.05
499.91	9252.14
500.08	9320.01
500.26	9392.57
500.44	9160.86
500.61	9383.21
500.79	9467.47
500.97	9357.46
501.14	9734.29
501.32	9371.50
501.49	9490.87
501.67	9619.60
501.84	9638.33
502.02	9666.41
502.20	9685.14
502.37	9834.93
502.55	9638.33
502.72	9575.13
502.90	9495.55
503.07	9755.35
503.25	9619.60
503.43	9994.09
503.60	9781.10
503.78	9839.61
503.95	9982.38
504.13	9858.34
504.30	9994.09
504.48	9956.64
504.65	10003.45
504.83	10211.76
505.01	10127.50
505.18	10076.01
505.36	10190.69
505.53	10321.76
505.71	10204.74
505.88	10214.10
506.06	10382.62
506.23	10211.76
506.41	10155.58
506.58	10637.73
506.76	10401.34
506.93	10218.78
507.11	10155.58
507.28	10403.68
507.46	10530.07
507.63	10478.58
507.81	10703.27
507.98	10480.92
508.16	10494.96
508.33	10452.83
508.50	10724.33
508.68	10562.84
508.85	10913.92
509.03	10707.95
509.20	10897.53
509.38	10902.22
509.55	11288.40
509.73	10972.43
509.90	11124.57
510.08	10991.16
510.25	11042.65
510.42	11171.38
510.60	11272.02
510.77	11253.30
510.95	11073.07
511.12	11147.97
511.30	11236.91
511.47	11375.00
511.64	11358.62
511.82	11234.57
511.99	11227.55
512.17	11396.07
512.34	11527.14
512.51	11384.37
512.69	11358.62
512.86	11461.60
513.04	11716.72
513.21	11435.86
513.38	11517.78
513.56	11651.19
513.73	11318.83
513.90	11475.65
514.08	11702.68
514.25	11726.08
514.43	11988.22
514.60	11779.92
514.77	11751.83
514.95	11859.49
515.12	11791.62
515.29	11707.36
515.47	11810.34
515.64	12044.40
515.81	11950.78
515.99	12231.64
516.16	12208.23
516.33	12201.21
516.51	12133.34
516.68	11957.80
516.85	12072.48
517.03	12187.17
517.20	12044.40
517.37	12215.26
517.54	12301.86
517.72	12292.49
517.89	12168.45
518.06	12355.69
518.24	12383.77
518.41	12325.26
518.58	12257.39
518.75	12489.10
518.93	12669.32
519.10	12376.75
519.27	12484.42
519.45	12346.33
519.62	12400.16
519.79	12514.84
519.96	12430.59
520.14	12779.32
520.31	12388.46
520.48	12594.42
520.65	12746.56
520.83	12858.90
521.00	12861.24
521.17	12952.52
521.34	12685.70
521.52	12650.60
521.69	12964.23
521.86	12938.48
522.03	12994.65
522.20	12989.97
522.38	12982.95
522.55	12784.01
522.72	12879.97
522.89	13064.87
523.07	13387.86
523.24	13050.83
523.41	13369.14
523.58	13170.19
523.75	13273.18
523.92	12793.37
524.10	13371.48
524.27	13273.18
524.44	13317.65
524.61	13294.24
524.78	13511.91
524.96	13195.94
525.13	13331.69
525.30	13472.12
525.47	13511.91
525.64	13479.15
525.81	13479.15
525.98	13657.03
526.16	13334.03
526.33	13310.63
526.50	13490.85
526.67	13525.96
526.84	13694.47
527.01	13664.05
527.18	13617.24
527.36	13900.44
527.53	13914.48
527.70	13895.76
527.87	14019.81
528.04	13961.30
528.21	13905.12
528.38	13839.59
528.55	13804.48
528.72	13795.12
528.89	13987.04
529.07	13921.51
529.24	13900.44
529.41	13984.70
529.58	14038.53
529.75	13731.92
529.92	13778.73
530.09	14202.37
530.26	13980.02
530.43	14106.41
530.60	14001.08
530.77	13963.64
530.94	14136.84
531.11	13916.83
531.28	14150.88
531.46	14118.11
531.63	14251.52
531.80	14370.89
531.97	14410.68
532.14	14675.16
532.31	14335.78
532.48	14286.63
532.65	14305.35
532.82	14310.04
532.99	14181.31
533.16	14284.29
533.33	14745.38
533.50	14595.58
533.67	14630.69
533.84	14448.13
534.01	14546.43
534.18	14459.83
534.35	14630.69
534.52	14668.14
534.69	14736.01
534.86	14670.48
535.03	14611.96
535.20	14537.07
535.37	14848.36
535.54	14642.39
535.71	14562.81
535.88	14843.68
536.05	14626.01
536.22	15063.69
536.38	14801.55
536.55	14813.25
536.72	14930.28
536.89	14614.30
537.06	14960.70
537.23	15002.83
537.40	14839.00
537.57	14822.61
537.74	14705.59
537.91	14965.39
538.08	14941.98
538.25	14944.32
538.42	15091.77
538.59	15218.16
538.75	14878.79
538.92	14871.76
539.09	14934.96
539.26	15112.84
539.43	15056.67
539.60	15295.40
539.77	15262.63
539.94	15199.44
540.11	15311.78
540.28	15286.04
540.44	15557.54
540.61	15267.31
540.78	15243.91
540.95	15531.80
541.12	15805.64
541.29	15459.24
541.46	15742.44
541.62	15669.89
541.79	15632.44
541.96	15653.50
542.13	15606.69
542.30	15833.72
542.47	15707.34
542.63	15655.84
542.80	16191.83
542.97	15999.90
543.14	15730.74
543.31	15737.76
543.48	15831.38
543.64	15859.47
543.81	16294.81
543.98	15861.81
544.15	16042.03
544.32	15861.81
544.48	16161.40
544.65	16086.50
544.82	15791.59
544.99	15887.56
545.16	16070.12
545.32	16079.48
545.49	16460.99
545.66	16669.30
545.83	16760.58
546.00	16989.95
546.16	16346.30
546.33	16091.18
546.50	15786.91
546.67	16025.65
546.83	16011.60
547.00	16081.82
547.17	16032.67
547.34	16037.35
547.50	15995.22
547.67	16100.55
547.84	16233.96
548.00	16091.18
548.17	16093.52
548.34	16191.83
548.51	16372.05
548.67	16255.02
548.84	16304.17
549.01	16177.78
549.18	16203.53
549.34	16060.76
549.51	16231.62
549.68	16393.11
549.84	16393.11
550.01	16437.58
550.18	16425.88
550.34	16425.88
550.51	16456.31
550.68	16353.32
550.84	16292.47
551.01	16327.58
551.18	16292.47
551.34	16245.66
551.51	16348.64
551.68	16152.04
551.84	16535.88
552.01	16102.89
552.18	16484.39
552.34	16482.05
552.51	16407.16
552.68	16273.74
552.84	16503.12
553.01	16468.01
553.18	16563.97
553.34	16526.52
553.51	16217.57
553.67	16538.23
553.84	16503.12
554.01	16603.76
554.17	16863.56
554.34	16830.79
554.51	16826.11
554.67	16882.28
554.84	16669.30
555.00	16528.86
555.17	16486.73
555.33	16624.83
555.50	16491.41
555.67	16484.39
555.83	16514.82
556.00	16851.86
556.16	17160.81
556.33	16863.56
556.50	16744.19
556.66	16791.00
556.83	16606.10
556.99	16709.08
557.16	16931.44
557.32	16697.38
557.49	16681.00
557.65	16718.45
557.82	16615.46
557.98	16758.24
558.15	16615.46
558.32	16730.15
558.48	16582.70
558.65	17027.40
558.81	16800.37
558.98	16903.35
559.14	16650.57
559.31	16833.13
559.47	16966.54
559.64	16999.31
559.80	16776.96
559.97	17027.40
560.13	17167.83
560.30	17153.79
560.46	16730.15
560.63	17153.79
560.79	16879.94
560.96	16999.31
561.12	16861.22
561.29	17097.61
561.45	16793.34
561.61	16973.56
561.78	16978.25
561.94	17088.25
562.11	17013.35
562.27	16994.63
562.44	16912.71
562.60	16877.60
562.77	17099.95
562.93	17027.40
563.10	17212.30
563.26	17139.74
563.42	17319.96
563.59	17153.79
563.75	17041.44
563.92	17607.85
564.08	17078.89
564.24	17280.18
564.41	17146.76
564.57	17289.54
564.74	17158.47
564.90	16999.31
565.07	17219.32
565.23	17097.61
565.39	17078.89
565.56	16896.33
565.72	17142.08
565.88	17177.19
566.05	16987.61
566.21	16947.82
566.38	16856.54
566.54	17092.93
566.70	17062.51
566.87	17303.58
567.03	17144.42
567.19	17132.72
567.36	17261.45
567.52	17139.74
567.68	17268.47
567.85	16889.31
568.01	17106.98
568.17	17221.66
568.34	17467.42
568.50	17064.85
568.66	17408.90
568.83	17474.44
568.99	17235.70
569.15	17041.44
569.32	16889.31
569.48	17083.57
569.64	17362.09
569.81	17544.66
569.97	17130.38
570.13	17422.95
570.30	17179.53
570.46	17160.81
570.62	17186.55
570.78	17364.43
570.95	17099.95
571.11	17547.00
571.27	17247.41
571.43	17076.55
571.60	17125.70
571.76	17429.97
571.92	17146.76
572.09	17149.11
572.25	17247.41
572.41	16975.91
572.57	17334.01
572.74	17179.53
572.90	17156.13
573.06	17359.75
573.22	17364.43
573.38	17312.94
573.55	17301.24
573.71	17909.78
573.87	17958.93
574.03	16999.31
574.20	17572.74
574.36	17308.26
574.52	17502.53
574.68	17586.79
574.84	17151.45
575.01	17544.66
575.17	17418.27
575.33	17406.56
575.49	17444.01
575.65	17504.87
575.82	17373.80
575.98	17635.94
576.14	17350.39
576.30	17444.01
576.46	17284.86
576.62	17682.75
576.79	17448.69
576.95	17284.86
577.11	17378.48
577.27	17397.20
577.43	17624.23
577.59	17371.46
577.75	17685.09
577.92	17584.44
578.08	17289.54
578.24	17275.49
578.40	17556.36
578.56	17607.85
578.72	17191.23
578.88	17792.75
579.04	17799.77
579.21	17750.62
579.37	17362.09
579.53	17451.03
579.69	17301.24
579.85	17249.75
580.01	17666.36
580.17	17273.15
580.33	17441.67
580.49	17809.14
580.65	17542.32
580.82	17404.22
580.98	17228.68
581.14	17259.11
581.30	17469.76
581.46	17586.79
581.62	17341.03
581.78	17326.99
581.94	17425.29
582.10	17631.26
582.26	17287.20
582.42	17429.97
582.58	17694.45
582.74	17420.61
582.90	17467.42
583.06	17792.75
583.22	17589.13
583.38	17420.61
583.54	17291.88
583.70	17399.54
583.86	17811.48
584.02	17617.21
584.18	17577.42
584.34	17488.48
584.50	18106.38
584.66	17390.18
584.82	17343.37
584.98	17699.13
585.14	17584.44
585.30	17476.78
585.46	17432.31
585.62	17242.73
585.78	17689.77
585.94	17266.13
586.10	17453.37
586.26	17743.60
586.42	17675.73
586.58	17521.25
586.74	17511.89
586.90	17556.36
587.06	17628.92
587.22	17682.75
587.38	17598.49
587.54	17525.93
587.70	17813.82
587.86	17832.54
588.02	17647.64
588.18	17977.65
588.34	17668.70
588.49	17846.58
588.65	17436.99
588.81	17575.08
588.97	17614.87
589.13	17647.64
589.29	17696.79
589.45	17977.65
589.61	17724.88
589.77	17783.39
589.93	17542.32
590.08	17872.33
590.24	17619.55
590.40	17769.35
590.56	17619.55
590.72	17343.37
590.88	17738.92
591.04	17446.35
591.20	17912.12
591.35	17891.06
591.51	17928.50
591.67	18181.28
591.83	18073.62
591.99	17717.86
592.15	17724.88
592.31	17958.93
592.46	17893.40
592.62	17919.14
592.78	17432.31
592.94	17685.09
593.10	17486.14
