SpectraSuite Data File
++++++++++++++++++++++++++++++++++++
Date: Fri Oct 04 11:40:04 GMT-05:00 2013
User: price-jones
Dark Spectrum Present: No
Reference Spectrum Present: No
Number of Sampled Component Spectra: 1
Spectrometers: USB2+H05261
Integration Time (usec): 100000 (USB2+H05261)
Spectra Averaged: 1 (USB2+H05261)
Boxcar Smoothing: 0 (USB2+H05261)
Correct for Electrical Dark: No (USB2+H05261)
Strobe/Lamp Enabled: No (USB2+H05261)
Correct for Detector Non-linearity: No (USB2+H05261)
Correct for Stray Light: No (USB2+H05261)
Number of Pixels in Processed Spectrum: 2048
>>>>>Begin Processed Spectral Data<<<<<
365.73	67.88
365.92	67.88
366.12	67.88
366.32	0.00
366.52	0.00
366.72	56.17
366.91	0.00
367.11	0.00
367.31	0.00
367.51	0.00
367.70	0.00
367.90	0.00
368.10	0.00
368.30	21.06
368.49	0.00
368.69	0.00
368.89	0.00
369.09	0.00
369.28	0.00
369.48	0.00
369.68	0.00
369.87	0.00
370.07	0.00
370.27	56.17
370.47	11.70
370.66	0.00
370.86	14.04
371.06	107.66
371.25	126.39
371.45	86.60
371.65	95.96
371.84	84.26
372.04	70.22
372.24	98.30
372.44	56.17
372.63	93.62
372.83	135.75
373.03	110.01
373.22	95.96
373.42	159.16
373.62	142.77
373.81	133.41
374.01	145.11
374.21	88.94
374.40	131.07
374.60	93.62
374.79	140.43
374.99	105.32
375.19	222.35
375.38	166.18
375.58	114.69
375.78	180.22
375.97	138.09
376.17	166.18
376.37	227.03
376.56	142.77
376.76	128.73
376.95	177.88
377.15	140.43
377.35	110.01
377.54	168.52
377.74	65.54
377.93	98.30
378.13	91.28
378.33	112.35
378.52	107.66
378.72	98.30
378.91	147.45
379.11	170.86
379.31	154.48
379.50	168.52
379.70	77.24
379.89	114.69
380.09	84.26
380.28	147.45
380.48	95.96
380.68	88.94
380.87	53.83
381.07	121.71
381.26	124.05
381.46	135.75
381.65	91.28
381.85	105.32
382.04	154.48
382.24	135.75
382.43	119.37
382.63	168.52
382.83	88.94
383.02	95.96
383.22	142.77
383.41	105.32
383.61	131.07
383.80	121.71
384.00	84.26
384.19	114.69
384.39	114.69
384.58	93.62
384.78	100.64
384.97	131.07
385.17	44.47
385.36	88.94
385.56	156.82
385.75	79.58
385.95	72.56
386.14	194.26
386.34	46.81
386.53	46.81
386.72	35.11
386.92	65.54
387.11	128.73
387.31	159.16
387.50	147.45
387.70	133.41
387.89	65.54
388.09	180.22
388.28	117.03
388.48	81.92
388.67	100.64
388.86	173.20
389.06	124.05
389.25	140.43
389.45	112.35
389.64	117.03
389.84	133.41
390.03	84.26
390.22	161.50
390.42	121.71
390.61	145.11
390.81	77.24
391.00	65.54
391.19	154.48
391.39	161.50
391.58	98.30
391.78	58.51
391.97	180.22
392.16	98.30
392.36	88.94
392.55	180.22
392.75	110.01
392.94	119.37
393.13	168.52
393.33	145.11
393.52	110.01
393.71	105.32
393.91	140.43
394.10	126.39
394.29	126.39
394.49	112.35
394.68	175.54
394.88	107.66
395.07	126.39
395.26	51.49
395.46	128.73
395.65	152.13
395.84	124.05
396.04	236.39
396.23	180.22
396.42	177.88
396.62	147.45
396.81	248.10
397.00	74.90
397.19	110.01
397.39	187.24
397.58	112.35
397.77	119.37
397.97	184.90
398.16	138.09
398.35	184.90
398.55	135.75
398.74	138.09
398.93	163.84
399.12	44.47
399.32	210.65
399.51	114.69
399.70	187.24
399.90	191.92
400.09	161.50
400.28	121.71
400.47	126.39
400.67	212.99
400.86	117.03
401.05	194.26
401.24	159.16
401.44	88.94
401.63	168.52
401.82	184.90
402.01	145.11
402.21	114.69
402.40	131.07
402.59	126.39
402.78	194.26
402.97	121.71
403.17	187.24
403.36	124.05
403.55	128.73
403.74	95.96
403.93	196.60
404.13	313.63
404.32	266.82
404.51	245.76
404.70	262.14
404.89	184.90
405.09	215.33
405.28	198.95
405.47	112.35
405.66	170.86
405.85	166.18
406.05	163.84
406.24	145.11
406.43	138.09
406.62	131.07
406.81	224.69
407.00	152.13
407.20	152.13
407.39	222.35
407.58	229.37
407.77	210.65
407.96	217.67
408.15	142.77
408.34	119.37
408.54	126.39
408.73	166.18
408.92	194.26
409.11	135.75
409.30	248.10
409.49	156.82
409.68	196.60
409.87	159.16
410.07	156.82
410.26	184.90
410.45	182.56
410.64	138.09
410.83	177.88
411.02	126.39
411.21	231.71
411.40	208.31
411.59	173.20
411.78	173.20
411.98	201.29
412.17	177.88
412.36	191.92
412.55	159.16
412.74	217.67
412.93	201.29
413.12	227.03
413.31	250.44
413.50	203.63
413.69	234.05
413.88	234.05
414.07	175.54
414.26	184.90
414.45	142.77
414.64	198.95
414.83	173.20
415.02	170.86
415.22	196.60
415.41	241.08
415.60	177.88
415.79	215.33
415.98	222.35
416.17	128.73
416.36	175.54
416.55	215.33
416.74	271.50
416.93	196.60
417.12	236.39
417.31	205.97
417.50	189.58
417.69	262.14
417.88	248.10
418.07	196.60
418.26	248.10
418.45	238.73
418.64	241.08
418.83	264.48
419.02	271.50
419.21	140.43
419.39	229.37
419.58	229.37
419.77	229.37
419.96	248.10
420.15	255.12
420.34	273.84
420.53	280.86
420.72	180.22
420.91	287.89
421.10	271.50
421.29	311.29
421.48	276.18
421.67	252.78
421.86	168.52
422.05	294.91
422.24	194.26
422.43	220.01
422.61	273.84
422.80	304.27
422.99	222.35
423.18	210.65
423.37	250.44
423.56	271.50
423.75	255.12
423.94	180.22
424.13	189.58
424.32	273.84
424.50	145.11
424.69	212.99
424.88	252.78
425.07	229.37
425.26	248.10
425.45	313.63
425.64	168.52
425.83	297.25
426.01	243.42
426.20	259.80
426.39	227.03
426.58	212.99
426.77	222.35
426.96	271.50
427.15	224.69
427.33	229.37
427.52	229.37
427.71	215.33
427.90	243.42
428.09	205.97
428.28	222.35
428.46	168.52
428.65	262.14
428.84	262.14
429.03	301.93
429.22	229.37
429.40	245.76
429.59	262.14
429.78	334.70
429.97	271.50
430.16	264.48
430.34	243.42
430.53	227.03
430.72	271.50
430.91	285.55
431.10	255.12
431.28	271.50
431.47	348.74
431.66	325.33
431.85	311.29
432.03	264.48
432.22	313.63
432.41	285.55
432.60	313.63
432.79	161.50
432.97	330.02
433.16	271.50
433.35	189.58
433.54	320.65
433.72	304.27
433.91	255.12
434.10	273.84
434.28	292.57
434.47	297.25
434.66	308.95
434.85	308.95
435.03	414.27
435.22	699.82
435.41	1107.07
435.59	1245.16
435.78	915.15
435.97	568.75
436.16	430.66
436.34	334.70
436.53	306.61
436.72	360.44
436.90	273.84
437.09	292.57
437.28	283.20
437.46	330.02
437.65	283.20
437.84	367.46
438.02	299.59
438.21	290.23
438.40	264.48
438.58	250.44
438.77	301.93
438.96	341.72
439.14	236.39
439.33	315.97
439.52	306.61
439.70	301.93
439.89	304.27
440.08	269.16
440.26	353.42
440.45	358.10
440.63	334.70
440.82	297.25
441.01	344.06
441.19	416.62
441.38	327.68
441.57	283.20
441.75	348.74
441.94	346.40
442.12	322.99
442.31	341.72
442.50	283.20
442.68	297.25
442.87	306.61
443.05	276.18
443.24	346.40
443.43	421.30
443.61	365.12
443.80	362.78
443.98	297.25
444.17	315.97
444.35	416.62
444.54	372.15
444.73	280.86
444.91	360.44
445.10	344.06
445.28	297.25
445.47	334.70
445.65	301.93
445.84	280.86
446.02	386.19
446.21	327.68
446.39	297.25
446.58	330.02
446.77	372.15
446.95	344.06
447.14	372.15
447.32	425.98
447.51	334.70
447.69	348.74
447.88	341.72
448.06	423.64
448.25	306.61
448.43	297.25
448.62	280.86
448.80	346.40
448.99	404.91
449.17	367.46
449.36	311.29
449.54	379.17
449.73	327.68
449.91	409.59
450.10	327.68
450.28	372.15
450.46	376.83
450.65	397.89
450.83	334.70
451.02	386.19
451.20	437.68
451.39	437.68
451.57	308.95
451.76	341.72
451.94	365.12
452.13	430.66
452.31	393.21
452.49	348.74
452.68	287.89
452.86	451.72
453.05	360.44
453.23	395.55
453.42	346.40
453.60	376.83
453.78	404.91
453.97	379.17
454.15	383.85
454.34	369.80
454.52	334.70
454.70	418.96
454.89	362.78
455.07	337.04
455.26	365.12
455.44	351.08
455.62	367.46
455.81	430.66
455.99	376.83
456.17	367.46
456.36	411.93
456.54	421.30
456.73	367.46
456.91	390.87
457.09	386.19
457.28	409.59
457.46	454.06
457.64	472.79
457.83	505.56
458.01	397.89
458.19	341.72
458.38	362.78
458.56	383.85
458.74	348.74
458.93	294.91
459.11	388.53
459.29	423.64
459.48	348.74
459.66	397.89
459.84	416.62
460.03	479.81
460.21	482.15
460.39	388.53
460.57	421.30
460.76	477.47
460.94	374.49
461.12	425.98
461.31	451.72
461.49	386.19
461.67	442.36
461.85	447.04
462.04	320.65
462.22	868.34
462.40	397.89
462.59	388.53
462.77	484.49
462.95	311.29
463.13	433.00
463.32	461.09
463.50	425.98
463.68	472.79
463.86	414.27
464.05	400.23
464.23	503.22
464.41	400.23
464.59	339.38
464.78	454.06
464.96	388.53
465.14	461.09
465.32	440.02
465.50	386.19
465.69	498.53
465.87	381.51
466.05	411.93
466.23	461.09
466.41	388.53
466.60	465.77
466.78	477.47
466.96	454.06
467.14	411.93
467.32	528.96
467.51	447.04
467.69	414.27
467.87	437.68
468.05	409.59
468.23	486.83
468.41	486.83
468.60	416.62
468.78	461.09
468.96	390.87
469.14	433.00
469.32	435.34
469.50	402.57
469.69	449.38
469.87	477.47
470.05	475.13
470.23	461.09
470.41	362.78
470.59	447.04
470.77	456.40
470.95	327.68
471.14	456.40
471.32	505.56
471.50	500.87
471.68	484.49
471.86	528.96
472.04	491.51
472.22	454.06
472.40	454.06
472.58	535.98
472.77	472.79
472.95	416.62
473.13	416.62
473.31	510.24
473.49	477.47
473.67	444.70
473.85	463.43
474.03	503.22
474.21	510.24
474.39	512.58
474.57	531.30
474.75	521.94
474.93	454.06
475.12	491.51
475.30	482.15
475.48	470.45
475.66	519.60
475.84	482.15
476.02	500.87
476.20	440.02
476.38	479.81
476.56	578.11
476.74	514.92
476.92	372.15
477.10	538.32
477.28	540.66
477.46	547.69
477.64	526.62
477.82	454.06
478.00	564.07
478.18	564.07
478.36	479.81
478.54	543.00
478.72	477.47
478.90	568.75
479.08	505.56
479.26	564.07
479.44	456.40
479.62	528.96
479.80	521.94
479.98	571.09
480.16	543.00
480.34	533.64
480.52	528.96
480.70	610.88
480.88	552.37
481.06	510.24
481.24	514.92
481.41	573.43
481.59	578.11
481.77	634.29
481.95	587.47
482.13	695.14
482.31	592.16
482.49	498.53
482.67	589.82
482.85	585.13
483.03	631.94
483.21	671.73
483.39	589.82
483.57	610.88
483.74	702.16
483.92	699.82
484.10	690.46
484.28	636.63
484.46	772.38
484.64	697.48
484.82	660.03
485.00	711.52
485.18	791.10
485.35	770.04
485.53	739.61
485.71	856.64
485.89	695.14
486.07	760.67
486.25	861.32
486.43	702.16
486.61	772.38
486.78	791.10
486.96	737.27
487.14	791.10
487.32	786.42
487.50	713.86
487.68	748.97
487.85	849.61
488.03	830.89
488.21	842.59
488.39	763.01
488.57	763.01
488.75	833.23
488.92	1039.20
489.10	774.72
489.28	868.34
489.46	877.70
489.64	763.01
489.81	809.83
489.99	868.34
490.17	828.55
490.35	851.96
490.53	814.51
490.70	840.25
490.88	950.26
491.06	849.61
491.24	912.81
491.41	863.66
491.59	856.64
491.77	884.72
491.95	835.57
492.13	943.24
492.30	866.00
492.48	842.59
492.66	882.38
492.84	924.51
493.01	877.70
493.19	844.93
493.37	891.74
493.54	866.00
493.72	891.74
493.90	894.08
494.08	896.43
494.25	851.96
494.43	889.40
494.61	903.45
494.79	912.81
494.96	870.68
495.14	929.19
495.32	844.93
495.49	968.98
495.67	861.32
495.85	957.28
496.02	922.17
496.20	966.64
496.38	945.58
496.55	929.19
496.73	1006.43
496.91	880.04
497.09	940.90
497.26	1025.15
497.44	950.26
497.62	1022.81
497.79	964.30
497.97	950.26
498.14	945.58
498.32	887.06
498.50	992.39
498.67	912.81
498.85	954.94
499.03	936.21
499.20	1053.24
499.38	1041.54
499.56	961.96
499.73	1109.41
499.91	943.24
500.08	1025.15
500.26	929.19
500.44	912.81
500.61	945.58
500.79	924.51
500.97	940.90
501.14	1015.79
501.32	1004.09
501.49	1041.54
501.67	978.34
501.84	1100.05
502.02	915.15
502.20	983.02
502.37	999.41
502.55	978.34
502.72	1006.43
502.90	1043.88
503.07	961.96
503.25	1029.84
503.43	1004.09
503.60	983.02
503.78	990.05
503.95	985.37
504.13	980.68
504.30	983.02
504.48	1036.86
504.65	1116.44
504.83	973.66
505.01	1036.86
505.18	1027.50
505.36	1074.31
505.53	1071.97
505.71	947.92
505.88	1125.80
506.06	1013.45
506.23	1029.84
506.41	1036.86
506.58	1097.71
506.76	1062.60
506.93	1004.09
507.11	1071.97
507.28	1004.09
507.46	1156.22
507.63	1093.03
507.81	1088.35
507.98	1027.50
508.16	1046.22
508.33	1055.58
508.50	1032.18
508.68	1128.14
508.85	1076.65
509.03	1041.54
509.20	1048.56
509.38	1060.26
509.55	1064.94
509.73	1160.91
509.90	1196.01
510.08	1146.86
510.25	1135.16
510.42	1081.33
510.60	1025.15
510.77	1139.84
510.95	1149.20
511.12	1170.27
511.30	1116.44
511.47	1247.51
511.64	1107.07
511.82	1165.59
511.99	1165.59
512.17	1109.41
512.34	1160.91
512.51	1104.73
512.69	1069.62
512.86	1123.46
513.04	1071.97
513.21	1102.39
513.38	1142.18
513.56	1151.54
513.73	1139.84
513.90	1125.80
514.08	1123.46
514.25	1076.65
514.43	1076.65
514.60	1121.12
514.77	1167.93
514.95	1153.88
515.12	1167.93
515.29	1198.35
515.47	1158.57
515.64	1170.27
515.81	1139.84
515.99	1214.74
516.16	1102.39
516.33	1219.42
516.51	1135.16
516.68	1188.99
516.85	1128.14
517.03	1069.62
517.20	1179.63
517.37	1219.42
517.54	1144.52
517.72	1252.19
517.89	1118.78
518.06	1196.01
518.24	1221.76
518.41	1165.59
518.58	1207.72
518.75	1254.53
518.93	1186.65
519.10	1200.69
519.27	1205.38
519.45	1296.66
519.62	1090.69
519.79	1217.08
519.96	1121.12
520.14	1172.61
520.31	1226.44
520.48	1205.38
520.65	1228.78
520.83	1275.59
521.00	1233.46
521.17	1109.41
521.34	1242.82
521.52	1249.85
521.69	1238.14
521.86	1228.78
522.03	1256.87
522.20	1327.08
522.38	1310.70
522.55	1263.89
522.72	1163.25
522.89	1233.46
523.07	1301.34
523.24	1254.53
523.41	1352.83
523.58	1306.02
523.75	1263.89
523.92	1249.85
524.10	1226.44
524.27	1170.27
524.44	1207.72
524.61	1242.82
524.78	1238.14
524.96	1221.76
525.13	1306.02
525.30	1317.72
525.47	1263.89
525.64	1268.57
525.81	1254.53
525.98	1291.98
526.16	1334.11
526.33	1287.29
526.50	1254.53
526.67	1273.25
526.84	1280.27
527.01	1313.04
527.18	1315.38
527.36	1294.32
527.53	1303.68
527.70	1390.28
527.87	1315.38
528.04	1226.44
528.21	1341.13
528.38	1338.79
528.55	1350.49
528.72	1371.55
528.89	1369.21
529.07	1306.02
529.24	1348.15
529.41	1366.87
529.58	1380.92
529.75	1301.34
529.92	1355.17
530.09	1240.48
530.26	1350.49
530.43	1341.13
530.60	1423.05
530.77	1345.81
530.94	1247.51
531.11	1418.36
531.28	1416.02
531.46	1352.83
531.63	1299.00
531.80	1406.66
531.97	1439.43
532.14	1282.61
532.31	1371.55
532.48	1392.62
532.65	1453.47
532.82	1359.85
532.99	1299.00
533.16	1411.34
533.33	1409.00
533.50	1423.05
533.67	1380.92
533.84	1530.71
534.01	1378.58
534.18	1409.00
534.35	1350.49
534.52	1343.47
534.69	1448.79
534.86	1364.53
535.03	1401.98
535.20	1336.45
535.37	1392.62
535.54	1383.26
535.71	1404.32
535.88	1575.18
536.05	1364.53
536.22	1423.05
536.38	1472.20
536.55	1437.09
536.72	1507.30
536.89	1322.40
537.06	1399.64
537.23	1495.60
537.40	1549.43
537.57	1497.94
537.74	1472.20
537.91	1528.37
538.08	1519.01
538.25	1558.80
538.42	1600.93
538.59	1486.24
538.75	1556.46
538.92	1558.80
539.09	1652.42
539.26	1519.01
539.43	1802.21
539.60	1589.22
539.77	1806.89
539.94	1666.46
540.11	1750.72
540.28	1839.66
540.44	1795.19
540.61	1860.73
540.78	1870.09
540.95	2033.93
541.12	2134.57
541.29	2211.81
541.46	2373.30
541.62	2403.73
541.79	2401.39
541.96	2399.05
542.13	2289.04
542.30	2331.17
542.47	2441.18
542.63	2174.36
542.80	2169.68
542.97	2319.47
543.14	2188.40
543.31	2260.96
543.48	2361.60
543.64	2340.54
543.81	2293.72
543.98	2289.04
544.15	2186.06
544.32	2267.98
544.48	2225.85
544.65	2270.32
544.82	2214.15
544.99	2134.57
545.16	2115.84
545.32	2319.47
545.49	2736.09
545.66	3522.51
545.83	4074.87
546.00	3674.64
546.16	2995.89
546.33	2558.21
546.50	2246.91
546.67	2071.37
546.83	1919.24
547.00	1930.94
547.17	1942.64
547.34	1856.04
547.50	2001.16
547.67	1905.20
547.84	1778.81
548.00	1884.13
548.17	1858.39
548.34	1804.55
548.51	1849.02
548.67	1872.43
548.84	1811.57
549.01	1811.57
549.18	1802.21
549.34	1813.92
549.51	1788.17
549.68	1781.15
549.84	1774.13
550.01	1664.12
550.18	1783.49
550.34	1722.63
550.51	1600.93
550.68	1776.47
550.84	1640.72
551.01	1640.72
551.18	1614.97
551.34	1664.12
551.51	1584.54
551.68	1680.50
551.84	1629.01
552.01	1589.22
552.18	1619.65
552.34	1603.27
552.51	1675.82
552.68	1680.50
552.84	1612.63
553.01	1694.55
553.18	1638.38
553.34	1504.96
553.51	1664.12
553.67	1596.25
553.84	1568.16
554.01	1647.74
554.17	1636.03
554.34	1556.46
554.51	1544.75
554.67	1523.69
554.84	1542.41
555.00	1577.52
555.17	1633.69
555.33	1638.38
555.50	1446.45
555.67	1509.65
555.83	1472.20
556.00	1495.60
556.16	1631.35
556.33	1554.12
556.50	1511.99
556.66	1511.99
556.83	1453.47
556.99	1502.62
557.16	1444.11
557.32	1530.71
557.49	1502.62
557.65	1547.09
557.82	1465.18
557.98	1437.09
558.15	1540.07
558.32	1516.67
558.48	1493.26
558.65	1500.28
558.81	1593.90
558.98	1481.56
559.14	1479.22
559.31	1458.15
559.47	1486.24
559.64	1427.73
559.80	1561.14
559.97	1453.47
560.13	1439.43
560.30	1472.20
560.46	1427.73
560.63	1448.79
560.79	1514.33
560.96	1516.67
561.12	1479.22
561.29	1514.33
561.45	1488.58
561.61	1467.52
561.78	1556.46
561.94	1455.81
562.11	1530.71
562.27	1544.75
562.44	1526.03
562.60	1509.65
562.77	1432.41
562.93	1490.92
563.10	1486.24
563.26	1523.69
563.42	1488.58
563.59	1638.38
563.75	1469.86
563.92	1629.01
564.08	1479.22
564.24	1561.14
564.41	1544.75
564.57	1528.37
564.74	1507.30
564.90	1607.95
565.07	1451.13
565.23	1472.20
565.39	1511.99
565.56	1591.56
565.72	1444.11
565.88	1565.82
566.05	1528.37
566.21	1423.05
566.38	1507.30
566.54	1493.26
566.70	1497.94
566.87	1493.26
567.03	1479.22
567.19	1411.34
567.36	1598.59
567.52	1535.39
567.68	1504.96
567.85	1467.52
568.01	1371.55
568.17	1469.86
568.34	1430.07
568.50	1547.09
568.66	1591.56
568.83	1476.88
568.99	1465.18
569.15	1383.26
569.32	1556.46
569.48	1453.47
569.64	1523.69
569.81	1411.34
569.97	1479.22
570.13	1591.56
570.30	1549.43
570.46	1439.43
570.62	1465.18
570.78	1495.60
570.95	1488.58
571.11	1521.35
571.27	1476.88
571.43	1500.28
571.60	1451.13
571.76	1514.33
571.92	1401.98
572.09	1413.68
572.25	1509.65
572.41	1427.73
572.57	1497.94
572.74	1547.09
572.90	1465.18
573.06	1488.58
573.22	1533.05
573.38	1664.12
573.55	1495.60
573.71	1488.58
573.87	1493.26
574.03	1366.87
574.20	1432.41
574.36	1472.20
574.52	1401.98
574.68	1413.68
574.84	1556.46
575.01	1521.35
575.17	1462.83
575.33	1554.12
575.49	1483.90
575.65	1409.00
575.82	1409.00
575.98	1631.35
576.14	1493.26
576.30	1495.60
576.46	1757.74
576.62	1919.24
576.79	1933.28
576.95	1818.60
577.11	1755.40
577.27	1673.48
577.43	1591.56
577.59	1598.59
577.75	1504.96
577.92	1441.77
578.08	1540.07
578.24	1549.43
578.40	1586.88
578.56	1753.06
578.72	1893.49
578.88	1944.99
579.04	1900.52
579.21	1727.32
579.37	1685.19
579.53	1563.48
579.69	1607.95
579.85	1792.85
580.01	1675.82
580.17	1661.78
580.33	1769.44
580.49	1636.03
580.65	1600.93
580.82	1549.43
580.98	1558.80
581.14	1540.07
581.30	1633.69
581.46	1612.63
581.62	1727.32
581.78	1614.97
581.94	1727.32
582.10	1638.38
582.26	1652.42
582.42	1743.70
582.58	1717.95
582.74	1610.29
582.90	1636.03
583.06	1713.27
583.22	1624.33
583.38	1657.10
583.54	1685.19
583.70	1652.42
583.86	1636.03
584.02	1650.08
584.18	1776.47
584.34	1621.99
584.50	1771.79
584.66	1783.49
584.82	1526.03
584.98	1713.27
585.14	1600.93
585.30	1619.65
585.46	1666.46
585.62	1544.75
585.78	1652.42
585.94	1598.59
586.10	1673.48
586.26	1509.65
586.42	1729.66
586.58	1753.06
586.74	1750.72
586.90	1785.83
587.06	1874.77
587.22	1863.07
587.38	1750.72
587.54	1664.12
587.70	1827.96
587.86	1811.57
588.02	1636.03
588.18	1673.48
588.34	1612.63
588.49	1530.71
588.65	1689.87
588.81	1563.48
588.97	1554.12
589.13	1519.01
589.29	1556.46
589.45	1528.37
589.61	1584.54
589.77	1603.27
589.93	1626.67
590.08	1563.48
590.24	1652.42
590.40	1530.71
590.56	1605.61
590.72	1530.71
590.88	1572.84
591.04	1724.97
591.20	1568.16
591.35	1685.19
591.51	1643.06
591.67	1671.14
591.83	1631.35
591.99	1659.44
592.15	1643.06
592.31	1692.21
592.46	1724.97
592.62	1776.47
592.78	1750.72
592.94	1696.89
593.10	1783.49
593.26	1748.38
593.41	1668.80
593.57	1671.14
593.73	1605.61
593.89	1760.08
594.05	1530.71
594.20	1633.69
594.36	1666.46
594.52	1514.33
594.68	1558.80
594.84	1598.59
594.99	1647.74
595.15	1474.54
595.31	1631.35
595.47	1668.80
595.62	1533.05
595.78	1521.35
595.94	1547.09
596.10	1593.90
596.25	1629.01
596.41	1645.40
596.57	1563.48
596.73	1514.33
596.88	1556.46
597.04	1554.12
597.20	1558.80
597.36	1645.40
597.51	1561.14
597.67	1535.39
597.83	1476.88
597.99	1500.28
598.14	1540.07
598.30	1500.28
598.46	1535.39
598.61	1668.80
598.77	1572.84
598.93	1694.55
599.09	1673.48
599.24	1612.63
599.40	1685.19
599.56	1657.10
599.71	1626.67
599.87	1565.82
600.03	1600.93
600.18	1507.30
600.34	1607.95
600.50	1598.59
600.65	1600.93
600.81	1591.56
600.97	1591.56
601.12	1675.82
601.28	1579.86
601.44	1582.20
601.59	1535.39
601.75	1537.73
601.91	1476.88
602.06	1490.92
602.22	1645.40
602.37	1516.67
602.53	1511.99
602.69	1502.62
602.84	1530.71
603.00	1530.71
603.16	1455.81
603.31	1535.39
603.47	1568.16
603.62	1458.15
603.78	1511.99
603.94	1528.37
604.09	1490.92
604.25	1586.88
