SpectraSuite Data File
++++++++++++++++++++++++++++++++++++
Date: Fri Oct 04 11:39:21 GMT-05:00 2013
User: price-jones
Dark Spectrum Present: No
Reference Spectrum Present: No
Number of Sampled Component Spectra: 1
Spectrometers: USB2+H05261
Integration Time (usec): 100000 (USB2+H05261)
Spectra Averaged: 1 (USB2+H05261)
Boxcar Smoothing: 0 (USB2+H05261)
Correct for Electrical Dark: No (USB2+H05261)
Strobe/Lamp Enabled: No (USB2+H05261)
Correct for Detector Non-linearity: No (USB2+H05261)
Correct for Stray Light: No (USB2+H05261)
Number of Pixels in Processed Spectrum: 2048
>>>>>Begin Processed Spectral Data<<<<<
365.73	18.72
365.92	18.72
366.12	18.72
366.32	18.72
366.52	0.00
366.72	0.00
366.91	0.00
367.11	0.00
367.31	0.00
367.51	7.02
367.70	0.00
367.90	9.36
368.10	0.00
368.30	0.00
368.49	0.00
368.69	0.00
368.89	0.00
369.09	0.00
369.28	0.00
369.48	0.00
369.68	21.06
369.87	0.00
370.07	0.00
370.27	84.26
370.47	131.07
370.66	173.20
370.86	189.58
371.06	318.31
371.25	358.10
371.45	243.42
371.65	332.36
371.84	227.03
372.04	285.55
372.24	330.02
372.44	259.80
372.63	290.23
372.83	386.19
373.03	264.48
373.22	294.91
373.42	238.73
373.62	372.15
373.81	334.70
374.01	351.08
374.21	414.27
374.40	332.36
374.60	395.55
374.79	395.55
374.99	369.80
375.19	416.62
375.38	379.17
375.58	369.80
375.78	430.66
375.97	397.89
376.17	348.74
376.37	379.17
376.56	407.25
376.76	411.93
376.95	425.98
377.15	428.32
377.35	430.66
377.54	468.11
377.74	381.51
377.93	362.78
378.13	407.25
378.33	428.32
378.52	386.19
378.72	475.13
378.91	447.04
379.11	477.47
379.31	440.02
379.50	395.55
379.70	507.90
379.89	458.74
380.09	400.23
380.28	418.96
380.48	407.25
380.68	454.06
380.87	454.06
381.07	444.70
381.26	430.66
381.46	444.70
381.65	477.47
381.85	433.00
382.04	433.00
382.24	470.45
382.43	475.13
382.63	400.23
382.83	470.45
383.02	397.89
383.22	500.87
383.41	491.51
383.61	486.83
383.80	421.30
384.00	423.64
384.19	489.17
384.39	524.28
384.58	540.66
384.78	587.47
384.97	465.77
385.17	533.64
385.36	545.34
385.56	573.43
385.75	510.24
385.95	582.79
386.14	465.77
386.34	512.58
386.53	617.90
386.72	512.58
386.92	580.45
387.11	510.24
387.31	571.09
387.50	538.32
387.70	533.64
387.89	589.82
388.09	514.92
388.28	526.62
388.48	517.26
388.67	657.69
388.86	458.74
389.06	554.71
389.25	566.41
389.45	643.65
389.64	580.45
389.84	592.16
390.03	648.33
390.22	643.65
390.42	521.94
390.61	528.96
390.81	645.99
391.00	667.05
391.19	695.14
391.39	725.57
391.58	669.39
391.78	685.78
391.97	725.57
392.16	606.20
392.36	706.84
392.55	772.38
392.75	704.50
392.94	678.76
393.13	699.82
393.33	608.54
393.52	713.86
393.71	786.42
393.91	688.12
394.10	777.06
394.29	763.01
394.49	695.14
394.68	786.42
394.88	812.17
395.07	697.48
395.26	798.12
395.46	690.46
395.65	786.42
395.84	786.42
396.04	917.49
396.23	809.83
396.42	840.25
396.62	821.53
396.81	812.17
397.00	798.12
397.19	837.91
397.39	851.96
397.58	863.66
397.77	875.36
397.97	840.25
398.16	870.68
398.35	866.00
398.55	910.47
398.74	950.26
398.93	1001.75
399.12	999.41
399.32	891.74
399.51	954.94
399.70	905.79
399.90	997.07
400.09	1025.15
400.28	929.19
400.47	999.41
400.67	1027.50
400.86	1114.10
401.05	1078.99
401.24	1004.09
401.44	1050.90
401.63	1041.54
401.82	1125.80
402.01	1011.11
402.21	1144.52
402.40	1128.14
402.59	1083.67
402.78	1053.24
402.97	1137.50
403.17	1160.91
403.36	1144.52
403.55	1181.97
403.74	1301.34
403.93	1228.78
404.13	1275.59
404.32	1191.33
404.51	1261.55
404.70	1327.08
404.89	1306.02
405.09	1296.66
405.28	1228.78
405.47	1320.06
405.66	1263.89
405.85	1334.11
406.05	1357.51
406.24	1357.51
406.43	1343.47
406.62	1378.58
406.81	1409.00
407.00	1306.02
407.20	1343.47
407.39	1348.15
407.58	1579.86
407.77	1502.62
407.96	1465.18
408.15	1521.35
408.34	1523.69
408.54	1406.66
408.73	1416.02
408.92	1636.03
409.11	1640.72
409.30	1610.29
409.49	1617.31
409.68	1586.88
409.87	1668.80
410.07	1750.72
410.26	1710.93
410.45	1661.78
410.64	1687.53
410.83	1729.66
411.02	1710.93
411.21	1781.15
411.40	1795.19
411.59	1811.57
411.78	1788.17
411.98	1778.81
412.17	1867.75
412.36	1909.88
412.55	1909.88
412.74	2022.22
412.93	2047.97
413.12	1930.94
413.31	2024.56
413.50	2064.35
413.69	2036.27
413.88	2134.57
414.07	2174.36
414.26	2216.49
414.45	2078.40
414.64	2174.36
414.83	2338.20
415.02	2225.85
415.22	2202.44
415.41	2225.85
415.60	2160.31
415.79	2328.83
415.98	2377.98
416.17	2375.64
416.36	2361.60
416.55	2415.43
416.74	2403.73
416.93	2394.37
417.12	2471.61
417.31	2485.65
417.50	2464.58
417.69	2600.34
417.88	2480.97
418.07	2457.56
418.26	2684.59
418.45	2668.21
418.64	2738.43
418.83	2679.91
419.02	2614.38
419.21	2710.34
419.39	2832.05
419.58	2775.88
419.77	2703.32
419.96	2827.37
420.15	2759.49
420.34	2768.85
420.53	2832.05
420.72	2827.37
420.91	2895.24
421.10	2878.86
421.29	2895.24
421.48	2855.45
421.67	2895.24
421.86	2850.77
422.05	2956.10
422.24	3002.91
422.43	2972.48
422.61	2892.90
422.80	3173.77
422.99	3047.38
423.18	3038.02
423.37	3056.74
423.56	2960.78
423.75	3033.33
423.94	2956.10
424.13	2806.30
424.32	2970.14
424.50	3033.33
424.69	3115.25
424.88	3098.87
425.07	3030.99
425.26	3173.77
425.45	3077.80
425.64	3115.25
425.83	3131.64
426.01	3080.14
426.20	3131.64
426.39	3080.14
426.58	3110.57
426.77	3148.02
426.96	3126.96
427.15	3190.15
427.33	3218.24
427.52	3267.39
427.71	3272.07
427.90	3220.58
428.09	3342.28
428.28	3185.47
428.46	3407.82
428.65	3325.90
428.84	3213.56
429.03	3515.48
429.22	3353.99
429.40	3419.52
429.59	3349.31
429.78	3428.88
429.97	3276.75
430.16	3215.90
430.34	3541.23
430.53	3485.06
430.72	3691.02
430.91	3295.47
431.10	3487.40
431.28	3623.15
431.47	3648.90
431.66	3581.02
431.85	3548.25
432.03	3763.58
432.22	3808.05
432.41	3662.94
432.60	3871.25
432.79	3613.79
432.97	3763.58
433.16	3662.94
433.35	3747.20
433.54	3786.99
433.72	3700.39
433.91	3803.37
434.10	3896.99
434.28	3911.04
434.47	3880.61
434.66	3899.33
434.85	3920.40
435.03	3976.57
435.22	4124.02
435.41	4503.19
435.59	4362.76
435.78	4344.03
435.97	4140.41
436.16	4234.03
436.34	4114.66
436.53	4112.32
436.72	4161.47
436.90	4100.62
437.09	4159.13
437.28	4203.60
437.46	4107.64
437.65	4283.18
437.84	4304.25
438.02	4173.18
438.21	4320.63
438.40	4287.86
438.58	4294.88
438.77	4299.56
438.96	4470.42
439.14	4486.81
439.33	4557.02
439.52	4505.53
439.70	4449.36
439.89	4491.49
440.08	4603.83
440.26	4521.92
440.45	4634.26
440.63	4681.07
440.82	4723.20
441.01	4695.11
441.19	4716.18
441.38	4877.68
441.57	4636.60
441.75	4973.64
441.94	5034.49
442.12	4835.55
442.31	5102.37
442.50	4940.87
442.68	5074.28
442.87	4964.28
443.05	5022.79
443.24	5088.32
443.43	5277.91
443.61	5097.69
443.80	5364.51
443.98	5198.33
444.17	4865.97
444.35	5383.23
444.54	5338.76
444.73	5193.65
444.91	5156.20
445.10	5324.72
445.28	5153.86
445.47	5085.98
445.65	5193.65
445.84	5217.05
446.02	5252.16
446.21	5369.19
446.39	5266.21
446.58	5313.02
446.77	5287.27
446.95	5163.22
447.14	5320.04
447.32	5254.50
447.51	5406.64
447.69	5291.95
447.88	5423.02
448.06	5378.55
448.25	5341.10
448.43	5334.08
448.62	5397.28
448.80	5474.51
448.99	5448.77
449.17	5554.09
449.36	5317.70
449.54	5486.22
449.73	5591.54
449.91	5671.12
450.10	5675.80
450.28	5696.86
450.46	5511.96
450.65	5575.16
450.83	5795.17
451.02	5607.92
451.20	5636.01
451.39	5872.40
451.57	5640.69
451.76	5619.63
451.94	5685.16
452.13	5795.17
452.31	5839.64
452.49	5774.10
452.68	5783.46
452.86	5846.66
453.05	5865.38
453.23	5909.85
453.42	6045.60
453.60	5879.43
453.78	5902.83
453.97	5881.77
454.15	5980.07
454.34	6069.01
454.52	6033.90
454.70	5947.30
454.89	6171.99
455.07	6010.50
455.26	6071.35
455.44	6410.73
455.62	6045.60
455.81	6221.14
455.99	6204.76
456.17	6279.66
456.36	6324.13
456.54	6396.68
456.73	6417.75
456.91	6490.31
457.09	6487.96
457.28	6614.35
457.46	6548.82
457.64	6551.16
457.83	6553.50
458.01	6492.65
458.19	6649.46
458.38	6480.94
458.56	6722.02
458.74	6700.95
458.93	6654.14
459.11	6773.51
459.29	6817.98
459.48	6796.92
459.66	6677.55
459.84	6841.39
460.03	6956.07
460.21	6740.74
460.39	6942.03
460.57	6654.14
460.76	6867.13
460.94	6998.20
461.12	6979.48
461.31	6935.01
461.49	6958.41
461.67	6944.37
461.85	7169.06
462.04	7129.27
462.22	7648.87
462.40	7187.79
462.59	7206.51
462.77	7279.07
462.95	7077.78
463.13	7176.08
463.32	7321.20
463.50	7208.85
463.68	7368.01
463.86	7330.56
464.05	7265.02
464.23	7234.60
464.41	7559.93
464.59	7166.72
464.78	7424.18
464.96	7314.17
465.14	7431.20
465.32	7585.68
465.50	7581.00
465.69	7480.35
465.87	7693.34
466.05	7494.40
466.23	7487.37
466.41	7616.10
466.60	7833.77
466.78	7782.28
466.96	7644.19
467.14	7578.65
467.32	7740.15
467.51	7838.45
467.69	7566.95
467.87	7822.07
468.05	7751.85
468.23	7721.43
468.41	7747.17
468.60	7815.05
468.78	7908.67
468.96	7960.16
469.14	8070.17
469.32	8100.59
469.50	7887.61
469.69	8077.19
469.87	8147.40
470.05	8175.49
470.23	8255.07
470.41	8114.64
470.59	8212.94
470.77	7925.05
470.95	8271.45
471.14	8432.95
471.32	8271.45
471.50	8531.25
471.68	8484.44
471.86	8545.30
472.04	8395.50
472.22	8667.00
472.40	8638.92
472.58	8720.84
472.77	8840.20
472.95	8898.72
473.13	8968.93
473.31	8716.16
473.49	8830.84
473.67	8947.87
473.85	8865.95
474.03	9146.81
474.21	8922.12
474.39	8950.21
474.57	9320.01
474.75	9167.88
474.93	9425.34
475.12	9376.19
475.30	9277.88
475.48	9228.73
475.66	9352.78
475.84	9298.95
476.02	9584.49
476.20	9607.90
476.38	9699.18
476.56	9851.31
476.74	9689.82
476.92	9760.03
477.10	9750.67
477.28	9935.57
477.46	10043.24
477.64	10106.43
477.82	10406.02
478.00	10375.59
478.18	10628.37
478.36	10427.09
478.54	10455.17
478.72	10565.18
478.90	10693.91
479.08	10684.55
479.26	10892.85
479.44	11030.94
479.62	11002.86
479.80	11075.42
479.98	11239.25
480.16	11398.41
480.34	11208.83
480.52	11463.94
480.70	11421.81
480.88	11286.06
481.06	11545.86
481.24	11587.99
481.41	11843.11
481.59	12084.19
481.77	11908.65
481.95	11845.45
482.13	11988.22
482.31	12051.42
482.49	12407.18
482.67	12313.56
482.85	12812.09
483.03	12535.91
483.21	12805.07
483.39	12910.40
483.57	13015.72
483.74	13207.64
483.92	13188.92
484.10	13041.46
484.28	13366.80
484.46	13591.49
484.64	13685.11
484.82	13462.76
485.00	13605.53
485.18	13989.38
485.35	14129.81
485.53	13907.46
485.71	14284.29
485.89	14319.40
486.07	14148.54
486.25	14310.04
486.43	14670.48
486.61	14792.19
486.78	15082.41
486.96	15080.07
487.14	15218.16
487.32	14967.73
487.50	15220.50
487.68	15470.94
487.85	15726.06
488.03	15756.49
488.21	15953.09
488.39	15927.35
488.57	15744.78
488.75	16102.89
488.92	16449.28
489.10	16547.59
489.28	16432.90
489.46	16589.72
489.64	16432.90
489.81	16844.84
489.99	16975.91
490.17	17191.23
490.35	17209.96
490.53	17270.81
490.70	17451.03
490.88	17415.93
491.06	17635.94
491.24	17500.19
491.41	17813.82
491.59	18157.88
491.77	17797.43
491.95	18141.49
492.13	18443.42
492.30	18656.41
492.48	18508.96
492.66	18333.42
492.84	18611.94
493.01	19068.34
493.19	18850.67
493.37	18941.96
493.54	19400.70
493.72	19534.11
493.90	19318.78
494.08	19323.46
494.25	19889.87
494.43	19655.82
494.61	19704.97
494.79	20369.68
494.96	19894.55
495.14	20135.63
495.32	20545.22
495.49	20276.06
495.67	20648.21
495.85	20812.04
496.02	20568.63
496.20	20856.51
496.38	21113.97
496.55	20858.85
496.73	21434.63
496.91	21387.82
497.09	21144.40
497.26	21685.06
497.44	21296.53
497.62	21689.74
497.79	21771.66
497.97	21736.56
498.14	22164.87
498.32	22265.52
498.50	22071.25
498.67	22508.93
498.85	22307.65
499.03	22106.36
499.20	22860.01
499.38	22438.72
499.56	23026.19
499.73	23082.36
499.91	23019.17
500.08	22806.18
500.26	22843.63
500.44	23309.40
500.61	23651.11
500.79	23222.80
500.97	23243.86
501.14	23583.24
501.32	23798.57
501.49	23686.22
501.67	23800.91
501.84	23917.93
502.02	23924.96
502.20	24002.19
502.37	23868.78
502.55	24086.45
502.72	24416.47
502.90	24247.95
503.07	23929.64
503.25	24505.41
503.43	24437.53
503.60	24510.09
503.78	24432.85
503.95	24723.08
504.13	24788.61
504.30	24694.99
504.48	24985.22
504.65	25291.83
504.83	25490.77
505.01	25453.33
505.18	25455.67
505.36	25486.09
505.53	25539.93
505.71	25846.54
505.88	25729.51
506.06	25282.47
506.23	25872.28
506.41	25940.16
506.58	25783.34
506.76	25804.41
506.93	25883.98
507.11	26096.97
507.28	26412.95
507.46	26345.07
507.63	26630.62
507.81	26380.18
507.98	26525.29
508.16	26359.11
508.33	26473.80
508.50	26476.14
508.68	26705.51
508.85	26993.40
509.03	27346.82
509.20	26972.33
509.38	27508.32
509.55	27339.80
509.73	27234.47
509.90	27505.98
510.08	27276.60
510.25	27501.29
510.42	27864.08
510.60	28114.52
510.77	27978.76
510.95	28521.77
511.12	28105.15
511.30	27892.16
511.47	28098.13
511.64	28854.12
511.82	28622.41
511.99	28435.17
512.17	28584.96
512.34	28458.57
512.51	28510.07
512.69	29127.97
512.86	28671.56
513.04	29312.87
513.21	28802.63
513.38	29450.96
513.56	29179.46
513.73	28903.28
513.90	29373.72
514.08	29474.37
514.25	29247.33
514.43	29802.04
514.60	29935.45
514.77	30080.56
514.95	30143.76
515.12	29778.64
515.29	29851.19
515.47	29535.22
515.64	30101.63
515.81	30410.58
515.99	30265.47
516.16	30265.47
516.33	30586.12
516.51	30930.18
516.68	30384.83
516.85	30312.28
517.03	30724.21
517.20	30480.80
517.37	30927.84
517.54	30981.67
517.72	30686.76
517.89	31136.15
518.06	30742.94
518.24	30967.63
518.41	30888.05
518.58	31042.53
518.75	30771.02
518.93	31417.01
519.10	31454.46
519.27	31445.10
519.45	31566.81
519.62	31679.15
519.79	31412.33
519.96	31723.62
520.14	31742.35
520.31	32184.71
520.48	31981.08
520.65	31957.67
520.83	32306.41
521.00	32051.30
521.17	31775.11
521.34	32180.03
521.52	32472.59
521.69	32130.87
521.86	32788.56
522.03	32474.93
522.20	32840.06
522.38	32673.88
522.55	32814.31
522.72	32830.69
522.89	33055.39
523.07	33338.59
523.24	33390.08
523.41	33275.40
523.58	33244.97
523.75	33467.32
523.92	33031.98
524.10	33362.00
524.27	33579.67
524.44	33418.17
524.61	33825.42
524.78	33769.25
524.96	33750.52
525.13	33371.36
525.30	33724.78
525.47	33996.28
525.64	34073.52
525.81	34429.28
525.98	34377.79
526.16	34157.78
526.33	34227.99
526.50	34792.06
526.67	34092.24
526.84	34384.81
527.01	33879.25
527.18	34235.02
527.36	34719.51
527.53	35002.71
527.70	35000.37
527.87	34866.96
528.04	34897.39
528.21	34883.34
528.38	34656.31
528.55	34607.16
528.72	34789.72
528.89	35323.36
529.07	35007.39
529.24	35084.63
529.41	35196.98
529.58	34838.87
529.75	35173.57
529.92	35569.12
530.09	35040.16
530.26	35007.39
530.43	35585.50
530.60	35145.48
530.77	35555.08
530.94	35306.98
531.11	35564.44
531.28	35704.87
531.46	35526.99
531.63	35679.13
531.80	35690.83
531.97	35833.60
532.14	36163.62
532.31	35817.22
532.48	35924.88
532.65	36226.81
532.82	35517.63
532.99	36158.94
533.16	36025.53
533.33	36336.82
533.50	37095.15
533.67	36893.86
533.84	36135.53
534.01	36605.98
534.18	36421.08
534.35	36524.06
534.52	36568.53
534.69	36872.80
534.86	36683.22
535.03	36149.57
535.20	37003.87
535.37	37092.81
535.54	37205.16
535.71	36367.24
535.88	37331.54
536.05	36980.46
536.22	37345.59
536.38	37263.67
536.55	37132.60
536.72	37273.03
536.89	37078.77
537.06	37612.41
537.23	37504.74
537.40	37357.29
537.57	37806.67
537.74	37584.32
537.91	37940.08
538.08	37610.07
538.25	37797.31
538.42	37811.35
538.59	37708.37
538.75	37560.92
538.92	37495.38
539.09	38139.03
539.26	38206.90
539.43	37759.86
539.60	38223.29
539.77	38354.36
539.94	38033.71
540.11	38550.96
540.28	38380.10
540.44	38284.14
540.61	38157.75
540.78	38504.15
540.95	38930.13
541.12	39063.54
541.29	38979.28
541.46	38862.26
541.62	38546.28
541.79	38953.54
541.96	38808.42
542.13	38902.04
542.30	39182.91
542.47	39318.66
542.63	39248.44
542.80	39676.76
542.97	39454.41
543.14	39765.70
543.31	39311.64
543.48	39328.02
543.64	40004.44
543.81	40177.64
543.98	39700.17
544.15	40479.57
544.32	39992.73
544.48	40526.38
544.65	39845.28
544.82	39789.11
544.99	39976.35
545.16	40032.52
545.32	39971.67
545.49	40732.34
545.66	40903.20
545.83	41123.21
546.00	41249.60
546.16	40748.73
546.33	40289.98
546.50	40126.14
546.67	40259.55
546.83	39845.28
547.00	40362.54
547.17	40327.43
547.34	40250.19
547.50	40575.53
547.67	40730.00
547.84	40769.79
548.00	40545.10
548.17	40690.21
548.34	40313.39
548.51	40872.78
548.67	40954.69
548.84	40428.07
549.01	40652.76
549.18	40165.93
549.34	40603.61
549.51	40786.18
549.68	40737.02
549.84	40439.78
550.01	40856.39
550.18	40678.51
550.34	40905.54
550.51	41186.41
550.68	41366.63
550.84	40622.34
551.01	40807.24
551.18	41123.21
551.34	40762.77
551.51	40914.90
551.68	40364.88
551.84	41027.25
552.01	40931.29
552.18	41282.37
552.34	41235.56
552.51	41329.18
552.68	40896.18
552.84	41038.95
553.01	41172.36
553.18	41390.03
553.34	41134.92
553.51	41071.72
553.67	41867.50
553.84	41954.10
554.01	41544.51
554.17	41507.06
554.34	41979.85
554.51	41539.83
554.67	41605.36
554.84	41813.67
555.00	41996.23
555.17	41698.98
555.33	41654.51
555.50	41862.82
555.67	41748.14
555.83	41392.37
556.00	41696.64
556.16	42174.11
556.33	41720.05
556.50	41879.21
556.66	41701.32
556.83	42106.24
556.99	41869.84
557.16	42085.17
557.32	42000.91
557.49	42029.00
557.65	41631.11
557.82	41820.69
557.98	41970.49
558.15	41645.15
558.32	42464.34
558.48	42059.43
558.65	42349.65
558.81	42436.25
558.98	42000.91
559.14	42251.35
559.31	41907.29
559.47	42000.91
559.64	42026.66
559.80	42422.21
559.97	42653.92
560.13	42403.49
560.30	42700.73
560.46	42529.87
560.63	42387.10
560.79	42124.96
560.96	42579.03
561.12	42160.07
561.29	42438.59
561.45	42859.89
561.61	42838.83
561.78	42469.02
561.94	42876.27
562.11	42976.92
562.27	42595.41
562.44	42653.92
562.60	42199.86
562.77	43098.62
562.93	42412.85
563.10	43384.17
563.26	42728.82
563.42	43173.52
563.59	42623.50
563.75	42539.24
563.92	43229.69
564.08	42672.65
564.24	42813.08
564.41	42260.71
564.57	42593.07
564.74	42728.82
564.90	42850.53
565.07	43063.52
565.23	43203.95
565.39	42574.34
565.56	42693.71
565.72	42782.65
565.88	43199.27
566.05	42841.17
566.21	42747.54
566.38	42850.53
566.54	43122.03
566.70	43185.22
566.87	42979.26
567.03	42927.77
567.19	43049.47
567.36	42525.19
567.52	42948.83
567.68	42829.46
567.85	43072.88
568.01	43159.48
568.17	43346.72
568.34	43353.74
568.50	43040.11
568.66	43023.73
568.83	43328.00
568.99	42845.85
569.15	43353.74
569.32	43320.98
569.48	42700.73
569.64	43604.18
569.81	42841.17
569.97	43573.75
570.13	42965.21
570.30	43208.63
570.46	43210.97
570.62	43168.84
570.78	43210.97
570.95	42518.17
571.11	43470.77
571.27	43030.75
571.43	43164.16
571.60	42766.27
571.76	43372.47
571.92	43140.75
572.09	43824.19
572.25	43318.64
572.41	43318.64
572.57	43597.16
572.74	43377.15
572.90	43217.99
573.06	43810.15
573.22	43838.23
573.38	43313.95
573.55	43512.90
573.71	44025.48
573.87	43531.62
574.03	43178.20
574.20	43056.50
574.36	42993.30
574.52	43531.62
574.68	43650.99
574.84	43613.54
575.01	43906.11
575.17	43503.54
575.33	43299.91
575.49	43229.69
575.65	43433.32
575.82	43643.97
575.98	43335.02
576.14	43339.70
576.30	43639.29
576.46	43302.25
576.62	43416.94
576.79	43868.66
576.95	43501.20
577.11	43653.33
577.27	43166.50
577.43	43768.02
577.59	44048.88
577.75	43522.26
577.92	43028.41
578.08	43384.17
578.24	43473.11
578.40	43480.13
578.56	43234.38
578.72	44044.20
578.88	43768.02
579.04	43653.33
579.21	43737.59
579.37	43599.50
579.53	43377.15
579.69	43517.58
579.85	43662.69
580.01	43618.22
580.17	43107.99
580.33	43480.13
580.49	43360.76
580.65	43849.94
580.82	43674.40
580.98	43592.48
581.14	43529.28
581.30	44081.65
581.46	43533.96
581.62	43662.69
581.78	43459.07
581.94	43824.19
582.10	43665.03
582.26	44184.63
582.42	44020.80
582.58	44004.41
582.74	43648.65
582.90	43622.90
583.06	44069.95
583.22	43290.55
583.38	43952.92
583.54	43517.58
583.70	43430.98
583.86	43419.28
584.02	43351.40
584.18	43480.13
584.34	44201.02
584.50	43510.56
584.66	43716.53
584.82	43559.71
584.98	44044.20
585.14	43536.30
585.30	43592.48
585.46	43533.96
585.62	43456.73
585.78	44390.60
585.94	43826.53
586.10	43697.80
586.26	44072.29
586.42	44018.46
586.58	44715.93
586.74	43655.67
586.90	43819.51
587.06	43522.26
587.22	43910.79
587.38	43550.35
587.54	43779.72
587.70	44172.93
587.86	43688.44
588.02	44301.66
588.18	44278.25
588.34	44191.65
588.49	44357.83
588.65	43714.19
588.81	43697.80
588.97	44292.30
589.13	43845.26
589.29	43662.69
589.45	44318.04
589.61	44231.44
589.77	44423.37
589.93	44348.47
590.08	44046.54
590.24	43920.15
590.40	44360.17
590.56	44203.36
590.72	43866.32
590.88	43625.25
