SpectraSuite Data File
++++++++++++++++++++++++++++++++++++
Date: Fri Oct 04 11:39:59 GMT-05:00 2013
User: price-jones
Dark Spectrum Present: No
Reference Spectrum Present: No
Number of Sampled Component Spectra: 1
Spectrometers: USB2+H05261
Integration Time (usec): 100000 (USB2+H05261)
Spectra Averaged: 1 (USB2+H05261)
Boxcar Smoothing: 0 (USB2+H05261)
Correct for Electrical Dark: No (USB2+H05261)
Strobe/Lamp Enabled: No (USB2+H05261)
Correct for Detector Non-linearity: No (USB2+H05261)
Correct for Stray Light: No (USB2+H05261)
Number of Pixels in Processed Spectrum: 2048
>>>>>Begin Processed Spectral Data<<<<<
365.73	32.77
365.92	32.77
366.12	32.77
366.32	0.00
366.52	0.00
366.72	4.68
366.91	0.00
367.11	0.00
367.31	0.00
367.51	0.00
367.70	0.00
367.90	0.00
368.10	9.36
368.30	0.00
368.49	0.00
368.69	0.00
368.89	28.09
369.09	0.00
369.28	0.00
369.48	0.00
369.68	0.00
369.87	0.00
370.07	11.70
370.27	42.13
370.47	14.04
370.66	81.92
370.86	93.62
371.06	112.35
371.25	121.71
371.45	128.73
371.65	133.41
371.84	173.20
372.04	88.94
372.24	110.01
372.44	110.01
372.63	91.28
372.83	201.29
373.03	170.86
373.22	175.54
373.42	131.07
373.62	140.43
373.81	170.86
374.01	91.28
374.21	140.43
374.40	140.43
374.60	292.57
374.79	198.95
374.99	194.26
375.19	177.88
375.38	133.41
375.58	149.79
375.78	175.54
375.97	184.90
376.17	145.11
376.37	145.11
376.56	145.11
376.76	32.77
376.95	166.18
377.15	175.54
377.35	133.41
377.54	114.69
377.74	102.98
377.93	133.41
378.13	210.65
378.33	187.24
378.52	154.48
378.72	159.16
378.91	201.29
379.11	138.09
379.31	159.16
379.50	152.13
379.70	154.48
379.89	224.69
380.09	166.18
380.28	121.71
380.48	163.84
380.68	126.39
380.87	121.71
381.07	128.73
381.26	180.22
381.46	180.22
381.65	152.13
381.85	198.95
382.04	177.88
382.24	161.50
382.43	184.90
382.63	142.77
382.83	133.41
383.02	180.22
383.22	189.58
383.41	198.95
383.61	173.20
383.80	124.05
384.00	208.31
384.19	283.20
384.39	138.09
384.58	159.16
384.78	201.29
384.97	182.56
385.17	138.09
385.36	117.03
385.56	198.95
385.75	248.10
385.95	189.58
386.14	215.33
386.34	212.99
386.53	163.84
386.72	177.88
386.92	196.60
387.11	149.79
387.31	159.16
387.50	170.86
387.70	161.50
387.89	140.43
388.09	191.92
388.28	124.05
388.48	110.01
388.67	227.03
388.86	229.37
389.06	184.90
389.25	231.71
389.45	154.48
389.64	163.84
389.84	201.29
390.03	276.18
390.22	184.90
390.42	201.29
390.61	126.39
390.81	234.05
391.00	229.37
391.19	208.31
391.39	243.42
391.58	241.08
391.78	243.42
391.97	180.22
392.16	173.20
392.36	220.01
392.55	259.80
392.75	250.44
392.94	245.76
393.13	266.82
393.33	189.58
393.52	189.58
393.71	234.05
393.91	161.50
394.10	210.65
394.29	208.31
394.49	271.50
394.68	294.91
394.88	344.06
395.07	229.37
395.26	292.57
395.46	222.35
395.65	278.52
395.84	217.67
396.04	297.25
396.23	292.57
396.42	285.55
396.62	252.78
396.81	294.91
397.00	220.01
397.19	299.59
397.39	236.39
397.58	313.63
397.77	337.04
397.97	280.86
398.16	248.10
398.35	313.63
398.55	241.08
398.74	273.84
398.93	322.99
399.12	264.48
399.32	325.33
399.51	334.70
399.70	344.06
399.90	369.80
400.09	386.19
400.28	379.17
400.47	285.55
400.67	358.10
400.86	365.12
401.05	348.74
401.24	411.93
401.44	393.21
401.63	334.70
401.82	339.38
402.01	283.20
402.21	374.49
402.40	369.80
402.59	428.32
402.78	344.06
402.97	430.66
403.17	418.96
403.36	374.49
403.55	433.00
403.74	477.47
403.93	505.56
404.13	498.53
404.32	486.83
404.51	449.38
404.70	538.32
404.89	468.11
405.09	465.77
405.28	395.55
405.47	390.87
405.66	512.58
405.85	465.77
406.05	514.92
406.24	491.51
406.43	507.90
406.62	470.45
406.81	528.96
407.00	524.28
407.20	468.11
407.39	599.18
407.58	519.60
407.77	503.22
407.96	592.16
408.15	552.37
408.34	561.73
408.54	594.50
408.73	554.71
408.92	554.71
409.11	657.69
409.30	643.65
409.49	648.33
409.68	580.45
409.87	657.69
410.07	617.90
410.26	713.86
410.45	589.82
410.64	613.22
410.83	641.31
411.02	655.35
411.21	734.93
411.40	793.44
411.59	767.70
411.78	847.27
411.98	699.82
412.17	730.25
412.36	767.70
412.55	746.63
412.74	814.51
412.93	809.83
413.12	706.84
413.31	819.19
413.50	882.38
413.69	784.08
413.88	833.23
414.07	894.08
414.26	861.32
414.45	894.08
414.64	877.70
414.83	844.93
415.02	910.47
415.22	936.21
415.41	957.28
415.60	915.15
415.79	936.21
415.98	980.68
416.17	954.94
416.36	901.11
416.55	990.05
416.74	1064.94
416.93	1057.92
417.12	1004.09
417.31	1060.26
417.50	1078.99
417.69	1097.71
417.88	959.62
418.07	1165.59
418.26	1093.03
418.45	1121.12
418.64	1217.08
418.83	1125.80
419.02	1203.04
419.21	1102.39
419.39	1121.12
419.58	1191.33
419.77	1095.37
419.96	1240.48
420.15	1226.44
420.34	1135.16
420.53	1322.40
420.72	1184.31
420.91	1149.20
421.10	1235.80
421.29	1247.51
421.48	1270.91
421.67	1308.36
421.86	1240.48
422.05	1275.59
422.24	1137.50
422.43	1240.48
422.61	1184.31
422.80	1299.00
422.99	1310.70
423.18	1343.47
423.37	1294.32
423.56	1301.34
423.75	1317.72
423.94	1263.89
424.13	1167.93
424.32	1193.67
424.50	1266.23
424.69	1284.95
424.88	1357.51
425.07	1334.11
425.26	1327.08
425.45	1341.13
425.64	1320.06
425.83	1345.81
426.01	1294.32
426.20	1240.48
426.39	1329.42
426.58	1289.64
426.77	1315.38
426.96	1479.22
427.15	1366.87
427.33	1399.64
427.52	1296.66
427.71	1324.74
427.90	1380.92
428.09	1406.66
428.28	1306.02
428.46	1378.58
428.65	1404.32
428.84	1556.46
429.03	1533.05
429.22	1474.54
429.40	1376.24
429.59	1479.22
429.78	1425.39
429.97	1387.94
430.16	1338.79
430.34	1500.28
430.53	1462.83
430.72	1460.49
430.91	1460.49
431.10	1394.96
431.28	1521.35
431.47	1554.12
431.66	1610.29
431.85	1544.75
432.03	1589.22
432.22	1596.25
432.41	1624.33
432.60	1666.46
432.79	1621.99
432.97	1521.35
433.16	1586.88
433.35	1523.69
433.54	1696.89
433.72	1598.59
433.91	1687.53
434.10	1636.03
434.28	1696.89
434.47	1739.02
434.66	1755.40
434.85	1654.76
435.03	1727.32
435.22	1963.71
435.41	2043.29
435.59	2129.89
435.78	2066.69
435.97	1797.53
436.16	1713.27
436.34	1675.82
436.53	1661.78
436.72	1717.95
436.90	1776.47
437.09	1762.42
437.28	1776.47
437.46	1769.44
437.65	1844.34
437.84	1806.89
438.02	1811.57
438.21	1792.85
438.40	1760.08
438.58	1827.96
438.77	1834.98
438.96	1853.70
439.14	1870.09
439.33	1870.09
439.52	1900.52
439.70	1867.75
439.89	2038.61
440.08	1870.09
440.26	1989.46
440.45	1996.48
440.63	1905.20
440.82	1996.48
441.01	1930.94
441.19	2031.58
441.38	2108.82
441.57	2059.67
441.75	2108.82
441.94	2038.61
442.12	2073.71
442.31	2200.10
442.50	2136.91
442.68	2113.50
442.87	2193.08
443.05	2186.06
443.24	2125.21
443.43	2186.06
443.61	2218.83
443.80	2340.54
443.98	2120.53
444.17	2094.78
444.35	2157.97
444.54	2190.74
444.73	2115.84
444.91	2277.34
445.10	2127.55
445.28	2104.14
445.47	2148.61
445.65	2200.10
445.84	2228.19
446.02	2204.78
446.21	2225.85
446.39	2242.23
446.58	2387.35
446.77	2251.60
446.95	2211.81
447.14	2312.45
447.32	2340.54
447.51	2279.68
447.69	2303.09
447.88	2314.79
448.06	2249.25
448.25	2260.96
448.43	2263.30
448.62	2232.87
448.80	2244.57
448.99	2223.51
449.17	2216.49
449.36	2263.30
449.54	2361.60
449.73	2399.05
449.91	2279.68
450.10	2298.41
450.28	2389.69
450.46	2387.35
450.65	2429.48
450.83	2462.24
451.02	2361.60
451.20	2420.11
451.39	2368.62
451.57	2338.20
451.76	2356.92
451.94	2499.69
452.13	2492.67
452.31	2527.78
452.49	2469.27
452.68	2459.90
452.86	2469.27
453.05	2565.23
453.23	2445.86
453.42	2492.67
453.60	2497.35
453.78	2476.29
453.97	2527.78
454.15	2450.54
454.34	2532.46
454.52	2511.39
454.70	2553.52
454.89	2583.95
455.07	2602.68
455.26	2567.57
455.44	2616.72
455.62	2616.72
455.81	2724.38
455.99	2647.15
456.17	2541.82
456.36	2686.94
456.54	2731.41
456.73	2754.81
456.91	2743.11
457.09	2773.53
457.28	2782.90
457.46	2663.53
457.64	2780.56
457.83	2752.47
458.01	2705.66
458.19	2743.11
458.38	2750.13
458.56	2832.05
458.74	2874.18
458.93	2623.74
459.11	2848.43
459.29	2766.51
459.48	2998.23
459.66	2888.22
459.84	2864.82
460.03	2970.14
460.21	2895.24
460.39	2810.98
460.57	2918.65
460.76	2904.60
460.94	2928.01
461.12	2888.22
461.31	2986.52
461.49	2906.95
461.67	2918.65
461.85	3014.61
462.04	2977.16
462.22	3405.48
462.40	3131.64
462.59	3049.72
462.77	2881.20
462.95	3063.76
463.13	3054.40
463.32	3075.46
463.50	2991.20
463.68	3009.93
463.86	3038.02
464.05	3009.93
464.23	2923.33
464.41	3040.36
464.59	3082.49
464.78	3155.04
464.96	2979.50
465.14	2932.69
465.32	3098.87
465.50	3157.38
465.69	3138.66
465.87	3075.46
466.05	3220.58
466.23	3119.93
466.41	3089.51
466.60	3218.24
466.78	3129.30
466.96	3155.04
467.14	3178.45
467.32	3197.17
467.51	3279.09
467.69	3141.00
467.87	3307.18
468.05	3279.09
468.23	3236.96
468.41	3248.66
468.60	3346.97
468.78	3260.37
468.96	3361.01
469.14	3353.99
469.32	3272.07
469.50	3253.34
469.69	3365.69
469.87	3368.03
470.05	3447.61
470.23	3372.71
470.41	3365.69
470.59	3358.67
470.77	3454.63
470.95	3349.31
471.14	3426.54
471.32	3534.21
471.50	3485.06
471.68	3499.10
471.86	3510.80
472.04	3368.03
472.22	3520.17
472.40	3463.99
472.58	3625.49
472.77	3513.14
472.95	3616.13
473.13	3712.09
473.31	3637.19
473.49	3609.11
473.67	3578.68
473.85	3686.34
474.03	3705.07
474.21	3765.92
474.39	3840.82
474.57	3688.68
474.75	3786.99
474.93	3913.38
475.12	3843.16
475.30	3794.01
475.48	3871.25
475.66	3859.54
475.84	3939.12
476.02	3939.12
476.20	3927.42
476.38	4053.81
476.56	3978.91
476.74	4079.55
476.92	3962.53
477.10	4081.89
477.28	4072.53
477.46	4037.42
477.64	4217.65
477.82	4208.28
478.00	4367.44
478.18	4231.69
478.36	4287.86
478.54	4482.13
478.72	4407.23
478.90	4407.23
479.08	4393.19
479.26	4447.02
479.44	4402.55
479.62	4400.21
479.80	4564.04
479.98	4624.90
480.16	4720.86
480.34	4603.83
480.52	4767.67
480.70	4746.61
480.88	4718.52
481.06	4725.54
481.24	4730.22
481.41	4830.87
481.59	4926.83
481.77	4873.00
481.95	4891.72
482.13	4882.36
482.31	5027.47
482.49	5041.51
482.67	5146.84
482.85	5193.65
483.03	5198.33
483.21	5160.88
483.39	5352.81
483.57	5233.44
483.74	5394.93
483.92	5434.72
484.10	5416.00
484.28	5600.90
484.46	5664.10
484.64	5631.33
484.82	5600.90
485.00	5556.43
485.18	5785.80
485.35	5825.59
485.53	5579.84
485.71	5846.66
485.89	6033.90
486.07	5881.77
486.25	5827.93
486.43	5951.98
486.61	6099.44
486.78	6136.88
486.96	5959.00
487.14	6094.76
487.32	6179.01
487.50	6216.46
487.68	6319.45
487.85	6427.11
488.03	6506.69
488.21	6452.86
488.39	6588.61
488.57	6644.78
488.75	6663.51
488.92	7033.31
489.10	6726.70
489.28	6736.06
489.46	6698.61
489.64	6923.30
489.81	6890.54
489.99	6839.05
490.17	6832.02
490.35	7204.17
490.53	7042.67
490.70	7208.85
490.88	7211.19
491.06	7049.69
491.24	7082.46
491.41	7222.89
491.59	7396.09
491.77	7323.54
491.95	7440.56
492.13	7246.30
492.30	7421.84
492.48	7492.05
492.66	7470.99
492.84	7606.74
493.01	7559.93
493.19	7585.68
493.37	7658.23
493.54	7864.20
493.72	7768.24
493.90	7833.77
494.08	7915.69
494.25	7925.05
494.43	8084.21
494.61	7985.91
494.79	8196.56
494.96	7920.37
495.14	7817.39
495.32	8187.19
495.49	8154.43
495.67	8306.56
495.85	8262.09
496.02	8304.22
496.20	8243.37
496.38	8238.69
496.55	8519.55
496.73	8627.21
496.91	8301.88
497.09	8671.68
497.26	8711.47
497.44	8564.02
497.62	8610.83
497.79	8884.67
497.97	8858.93
498.14	8734.88
498.32	9039.15
498.50	8947.87
498.67	9039.15
498.85	8877.65
499.03	8947.87
499.20	9004.04
499.38	9097.66
499.56	9114.05
499.73	9081.28
499.91	9245.12
500.08	9240.44
500.26	9172.56
500.44	9355.12
500.61	9226.39
500.79	9235.75
500.97	9535.34
501.14	9408.95
501.32	9479.17
501.49	9383.21
501.67	9399.59
501.84	9495.55
502.02	9523.64
502.20	9643.01
502.37	9963.66
502.55	9834.93
502.72	9645.35
502.90	9909.83
503.07	9886.42
503.25	9935.57
503.43	9760.03
503.60	9921.53
503.78	10099.41
503.95	9820.89
504.13	9863.02
504.30	10010.47
504.48	10061.96
504.65	10274.95
504.83	10068.98
505.01	10012.81
505.18	10003.45
505.36	10289.00
505.53	10380.28
505.71	10195.37
505.88	10232.82
506.06	10253.89
506.23	10427.09
506.41	10354.53
506.58	10541.77
506.76	10492.62
506.93	10569.86
507.11	10413.04
507.28	10516.03
507.46	10579.22
507.63	10399.00
507.81	10492.62
507.98	10590.92
508.16	10590.92
508.33	10740.72
508.50	10846.04
508.68	10782.85
508.85	10960.73
509.03	10736.04
509.20	10892.85
509.38	10963.07
509.55	11047.33
509.73	11253.30
509.90	11063.71
510.08	11061.37
510.25	11201.80
510.42	11073.07
510.60	11211.17
510.77	11117.54
510.95	11183.08
511.12	11040.31
511.30	11379.68
511.47	11339.90
511.64	11353.94
511.82	11419.47
511.99	11632.46
512.17	11461.60
512.34	11623.10
512.51	11300.11
512.69	11662.89
512.86	11611.40
513.04	11779.92
513.21	11737.79
513.38	11779.92
513.56	11742.47
513.73	11609.06
513.90	11627.78
514.08	11866.52
514.25	11903.96
514.43	11910.99
514.60	11808.00
514.77	11822.05
514.95	11946.09
515.12	12091.21
515.29	11908.65
515.47	12035.03
515.64	12210.57
515.81	11971.84
515.99	12058.44
516.16	12290.15
516.33	12126.32
516.51	12287.81
516.68	12250.36
516.85	11822.05
517.03	12435.27
517.20	12566.34
517.37	12439.95
517.54	12388.46
517.72	12439.95
517.89	12175.47
518.06	12477.40
518.24	12341.64
518.41	12376.75
518.58	12655.28
518.75	12526.55
518.93	12676.34
519.10	12830.82
519.27	12493.78
519.45	12585.06
519.62	12697.41
519.79	12688.04
519.96	12699.75
520.14	12898.69
520.31	12856.56
520.48	13156.15
520.65	12950.18
520.83	12926.78
521.00	12791.03
521.17	13029.76
521.34	12989.97
521.52	12877.63
521.69	12901.03
521.86	13107.00
522.03	12952.52
522.20	13083.59
522.38	13135.09
522.55	13116.36
522.72	13308.29
522.89	12964.23
523.07	13238.07
523.24	13025.08
523.41	13387.86
523.58	13163.17
523.75	13518.93
523.92	13392.55
524.10	13373.82
524.27	13205.30
524.44	13394.89
524.61	13488.51
524.78	13652.34
524.96	13650.00
525.13	13551.70
525.30	13603.19
525.47	13799.80
525.64	13628.94
525.81	13764.69
525.98	13671.07
526.16	13460.42
526.33	13926.19
526.50	13912.14
526.67	13790.44
526.84	14001.08
527.01	13858.31
527.18	13540.00
527.36	13706.18
527.53	13841.93
527.70	14129.81
527.87	14083.00
528.04	13844.27
528.21	14033.85
528.38	13825.54
528.55	14043.21
528.72	13902.78
528.89	14331.10
529.07	13855.97
529.24	13853.63
529.41	14090.02
529.58	13998.74
529.75	14300.67
529.92	14005.77
530.09	14120.45
530.26	14244.50
530.43	14391.95
530.60	14174.28
530.77	14310.04
530.94	14544.09
531.11	14544.09
531.28	14244.50
531.46	14272.59
531.63	14321.74
531.80	14345.14
531.97	14567.49
532.14	14354.51
532.31	14569.83
532.48	14508.98
532.65	14380.25
532.82	14595.58
532.99	14593.24
533.16	14609.62
533.33	14869.42
533.50	14761.76
533.67	14937.30
533.84	14569.83
534.01	14628.35
534.18	14717.29
534.35	14892.83
534.52	14885.81
534.69	14939.64
534.86	15019.22
535.03	14656.43
535.20	14913.89
535.37	14958.36
535.54	15021.56
535.71	14958.36
535.88	15005.17
536.05	14871.76
536.22	15161.99
536.38	14927.94
536.55	15307.10
536.72	15087.09
536.89	15180.71
537.06	15101.14
537.23	14993.47
537.40	15105.82
537.57	15119.86
537.74	15260.29
537.91	15365.62
538.08	15482.64
538.25	15208.80
538.42	15157.31
538.59	15412.43
538.75	15367.96
538.92	15293.06
539.09	15585.63
539.26	15400.72
539.43	15290.72
539.60	15604.35
539.77	15463.92
539.94	15594.99
540.11	15382.00
540.28	15915.64
540.44	15609.03
540.61	15651.16
540.78	15704.99
540.95	15845.43
541.12	15934.37
541.29	15817.34
541.46	15913.30
541.62	15786.91
541.79	16072.46
541.96	15908.62
542.13	16236.30
542.30	16175.44
542.47	16013.95
542.63	16358.00
542.80	16035.01
542.97	16360.34
543.14	16126.29
543.31	16070.12
543.48	16437.58
543.64	16362.69
543.81	16283.11
543.98	16432.90
544.15	16362.69
544.32	16402.47
544.48	15997.56
544.65	16402.47
544.82	16252.68
544.99	16112.25
545.16	16402.47
545.32	16049.05
545.49	16961.86
545.66	17294.22
545.83	17418.27
546.00	17373.80
546.16	16786.32
546.33	16732.49
546.50	16425.88
546.67	16381.41
546.83	16278.43
547.00	16341.62
547.17	16358.00
547.34	16383.75
547.50	16215.23
547.67	16556.95
547.84	16166.08
548.00	16456.31
548.17	16325.24
548.34	16177.78
548.51	16137.99
548.67	16545.25
548.84	16432.90
549.01	16236.30
549.18	16475.03
549.34	16877.60
549.51	16547.59
549.68	16608.44
549.84	16547.59
550.01	16365.03
550.18	16196.51
550.34	16453.97
550.51	16664.61
550.68	16659.93
550.84	16315.87
551.01	16617.80
551.18	16430.56
551.34	16580.36
551.51	16695.04
551.68	16615.46
551.84	16695.04
552.01	16451.63
552.18	16650.57
552.34	16578.01
552.51	16615.46
552.68	16549.93
552.84	16521.84
553.01	16844.84
553.18	16545.25
553.34	16772.28
553.51	16645.89
553.67	16608.44
553.84	16669.30
554.01	16589.72
554.17	16975.91
554.34	16758.24
554.51	16769.94
554.67	16947.82
554.84	16720.79
555.00	16837.81
555.17	16999.31
555.33	16678.66
555.50	16915.05
555.67	16699.72
555.83	16723.13
556.00	16968.88
556.16	16748.87
556.33	16671.64
556.50	16748.87
556.66	16919.73
556.83	16807.39
556.99	16863.56
557.16	17104.64
557.32	16957.18
557.49	16971.22
557.65	16711.42
557.82	16959.52
557.98	16751.21
558.15	16919.73
558.32	16861.22
558.48	17099.95
558.65	16957.18
558.81	17296.56
558.98	16875.26
559.14	17128.04
559.31	16580.36
559.47	16889.31
559.64	17001.65
559.80	17214.64
559.97	16924.41
560.13	17050.80
560.30	16835.47
560.46	16992.29
560.63	16791.00
560.79	17011.01
560.96	17111.66
561.12	17036.76
561.29	17116.34
561.45	17097.61
561.61	17188.89
561.78	17212.30
561.94	16952.50
562.11	16968.88
562.27	16849.52
562.44	16973.56
562.60	16931.44
562.77	17046.12
562.93	17172.51
563.10	16978.25
563.26	17046.12
563.42	17404.22
563.59	17163.15
563.75	17195.92
563.92	17415.93
564.08	17434.65
564.24	17294.22
564.41	17315.28
564.57	17104.64
564.74	17151.45
564.90	17273.15
565.07	17205.28
565.23	17118.68
565.39	17336.35
565.56	17069.53
565.72	17088.25
565.88	17270.81
566.05	17088.25
566.21	16917.39
566.38	16996.97
566.54	17071.87
566.70	17221.66
566.87	17247.41
567.03	17273.15
567.19	17525.93
567.36	17289.54
567.52	17317.62
567.68	17378.48
567.85	17071.87
568.01	17144.42
568.17	17310.60
568.34	17209.96
568.50	17198.26
568.66	17181.87
568.83	17486.14
568.99	16952.50
569.15	17305.92
569.32	17331.67
569.48	16863.56
569.64	17216.98
569.81	17263.79
569.97	17259.11
570.13	17378.48
570.30	17366.78
570.46	17467.42
570.62	17259.11
570.78	17242.73
570.95	17322.30
571.11	17329.33
571.27	17331.67
571.43	17312.94
571.60	17345.71
571.76	17397.20
571.92	17200.60
572.09	17331.67
572.25	17298.90
572.41	17420.61
572.57	17165.49
572.74	17359.75
572.90	17247.41
573.06	17224.00
573.22	17645.30
573.38	17308.26
573.55	17123.36
573.71	17621.89
573.87	17226.34
574.03	17301.24
574.20	17219.32
574.36	17170.17
574.52	17422.95
574.68	17544.66
574.84	17209.96
575.01	17488.48
575.17	17612.53
575.33	17518.91
575.49	17460.40
575.65	17621.89
575.82	17680.41
575.98	17369.12
576.14	17270.81
576.30	17458.06
576.46	17383.16
576.62	17420.61
576.79	17563.38
576.95	17703.81
577.11	17514.23
577.27	17383.16
577.43	17895.74
577.59	17628.92
577.75	17589.13
577.92	17151.45
578.08	17273.15
578.24	17324.65
578.40	17158.47
578.56	17589.13
578.72	17385.50
578.88	17680.41
579.04	17647.64
579.21	17582.10
579.37	17486.14
579.53	17558.70
579.69	17422.95
579.85	17170.17
580.01	17331.67
580.17	17341.03
580.33	17245.07
580.49	17245.07
580.65	17270.81
580.82	17404.22
580.98	17486.14
581.14	17516.57
581.30	17500.19
581.46	17493.16
581.62	17312.94
581.78	17429.97
581.94	17638.28
582.10	17411.25
582.26	17600.83
582.42	17521.25
582.58	17408.90
582.74	17584.44
582.90	17525.93
583.06	17472.10
583.22	17490.82
583.38	17406.56
583.54	17633.60
583.70	17741.26
583.86	17319.96
584.02	17511.89
584.18	17628.92
584.34	17617.21
584.50	17394.86
584.66	17451.03
584.82	17561.04
584.98	17596.15
585.14	17565.72
585.30	17565.72
585.46	17715.51
585.62	17472.10
585.78	17509.55
585.94	17116.34
586.10	17680.41
586.26	17511.89
586.42	17909.78
586.58	17509.55
586.74	17668.70
586.90	17722.54
587.06	17640.62
587.22	17568.06
587.38	17582.10
587.54	17392.52
587.70	17558.70
587.86	17769.35
588.02	17713.17
588.18	17764.67
588.34	17893.40
588.49	17291.88
588.65	17385.50
588.81	17390.18
588.97	17568.06
589.13	17582.10
589.29	17605.51
589.45	17479.12
589.61	17673.39
589.77	17888.71
589.93	17696.79
590.08	17724.88
590.24	17640.62
590.40	17893.40
590.56	17820.84
590.72	17942.55
590.88	17549.34
591.04	17469.76
591.20	17736.58
591.35	17638.28
591.51	17951.91
591.67	17607.85
591.83	17628.92
591.99	17844.24
592.15	17568.06
592.31	17624.23
592.46	17511.89
592.62	17764.67
592.78	17947.23
592.94	17755.30
593.10	17706.15
593.26	17977.65
593.41	17696.79
