SpectraSuite Data File
++++++++++++++++++++++++++++++++++++
Date: Fri Oct 04 11:39:18 GMT-05:00 2013
User: price-jones
Dark Spectrum Present: No
Reference Spectrum Present: No
Number of Sampled Component Spectra: 1
Spectrometers: USB2+H05261
Integration Time (usec): 100000 (USB2+H05261)
Spectra Averaged: 1 (USB2+H05261)
Boxcar Smoothing: 0 (USB2+H05261)
Correct for Electrical Dark: No (USB2+H05261)
Strobe/Lamp Enabled: No (USB2+H05261)
Correct for Detector Non-linearity: No (USB2+H05261)
Correct for Stray Light: No (USB2+H05261)
Number of Pixels in Processed Spectrum: 2048
>>>>>Begin Processed Spectral Data<<<<<
365.73	102.98
365.92	102.98
366.12	102.98
366.32	0.00
366.52	0.00
366.72	0.00
366.91	0.00
367.11	0.00
367.31	0.00
367.51	0.00
367.70	0.00
367.90	0.00
368.10	0.00
368.30	0.00
368.49	0.00
368.69	0.00
368.89	14.04
369.09	0.00
369.28	0.00
369.48	0.00
369.68	58.51
369.87	49.15
370.07	0.00
370.27	23.41
370.47	51.49
370.66	250.44
370.86	315.97
371.06	236.39
371.25	299.59
371.45	273.84
371.65	229.37
371.84	250.44
372.04	191.92
372.24	252.78
372.44	297.25
372.63	337.04
372.83	330.02
373.03	322.99
373.22	337.04
373.42	383.85
373.62	379.17
373.81	362.78
374.01	409.59
374.21	418.96
374.40	332.36
374.60	367.46
374.79	337.04
374.99	376.83
375.19	393.21
375.38	411.93
375.58	386.19
375.78	463.43
375.97	477.47
376.17	470.45
376.37	365.12
376.56	376.83
376.76	449.38
376.95	416.62
377.15	435.34
377.35	437.68
377.54	435.34
377.74	348.74
377.93	386.19
378.13	407.25
378.33	458.74
378.52	456.40
378.72	435.34
378.91	442.36
379.11	468.11
379.31	430.66
379.50	491.51
379.70	477.47
379.89	444.70
380.09	449.38
380.28	395.55
380.48	489.17
380.68	510.24
380.87	430.66
381.07	437.68
381.26	444.70
381.46	472.79
381.65	458.74
381.85	437.68
382.04	526.62
382.24	503.22
382.43	561.73
382.63	465.77
382.83	531.30
383.02	503.22
383.22	528.96
383.41	463.43
383.61	475.13
383.80	535.98
384.00	465.77
384.19	507.90
384.39	489.17
384.58	498.53
384.78	491.51
384.97	552.37
385.17	594.50
385.36	491.51
385.56	557.05
385.75	519.60
385.95	566.41
386.14	547.69
386.34	580.45
386.53	519.60
386.72	545.34
386.92	575.77
387.11	592.16
387.31	601.52
387.50	589.82
387.70	620.24
387.89	613.22
388.09	582.79
388.28	561.73
388.48	650.67
388.67	608.54
388.86	627.26
389.06	580.45
389.25	641.31
389.45	641.31
389.64	578.11
389.84	690.46
390.03	674.07
390.22	601.52
390.42	648.33
390.61	603.86
390.81	620.24
391.00	741.95
391.19	662.37
391.39	697.48
391.58	739.61
391.78	706.84
391.97	751.31
392.16	610.88
392.36	720.88
392.55	676.41
392.75	765.36
392.94	767.70
393.13	746.63
393.33	786.42
393.52	739.61
393.71	828.55
393.91	739.61
394.10	835.57
394.29	791.10
394.49	755.99
394.68	830.89
394.88	798.12
395.07	840.25
395.26	807.48
395.46	875.36
395.65	863.66
395.84	786.42
396.04	926.85
396.23	765.36
396.42	875.36
396.62	823.87
396.81	880.04
397.00	837.91
397.19	919.83
397.39	908.13
397.58	905.79
397.77	873.02
397.97	938.55
398.16	966.64
398.35	901.11
398.55	954.94
398.74	954.94
398.93	994.73
399.12	966.64
399.32	1015.79
399.51	940.90
399.70	1093.03
399.90	999.41
400.09	1074.31
400.28	1130.48
400.47	1029.84
400.67	1139.84
400.86	1060.26
401.05	1053.24
401.24	1088.35
401.44	1102.39
401.63	1132.82
401.82	1064.94
402.01	1111.75
402.21	1184.31
402.40	1233.46
402.59	1200.69
402.78	1130.48
402.97	1137.50
403.17	1193.67
403.36	1254.53
403.55	1170.27
403.74	1299.00
403.93	1226.44
404.13	1441.77
404.32	1282.61
404.51	1348.15
404.70	1284.95
404.89	1284.95
405.09	1315.38
405.28	1287.29
405.47	1277.93
405.66	1397.30
405.85	1523.69
406.05	1373.89
406.24	1509.65
406.43	1371.55
406.62	1446.45
406.81	1497.94
407.00	1472.20
407.20	1460.49
407.39	1507.30
407.58	1526.03
407.77	1603.27
407.96	1533.05
408.15	1640.72
408.34	1563.48
408.54	1547.09
408.73	1617.31
408.92	1605.61
409.11	1664.12
409.30	1647.74
409.49	1678.16
409.68	1741.36
409.87	1710.93
410.07	1713.27
410.26	1816.26
410.45	1771.79
410.64	1764.76
410.83	1769.44
411.02	1699.23
411.21	1870.09
411.40	1851.36
411.59	1888.81
411.78	1802.21
411.98	1912.22
412.17	2008.18
412.36	1874.77
412.55	1984.77
412.74	2083.08
412.93	1987.11
413.12	2003.50
413.31	2172.02
413.50	2015.20
413.69	2289.04
413.88	2223.51
414.07	2099.46
414.26	2242.23
414.45	2277.34
414.64	2275.00
414.83	2246.91
415.02	2352.24
415.22	2389.69
415.41	2434.16
415.60	2293.72
415.79	2417.77
415.98	2317.13
416.17	2483.31
416.36	2389.69
416.55	2366.28
416.74	2586.29
416.93	2569.91
417.12	2565.23
417.31	2509.05
417.50	2644.81
417.69	2757.15
417.88	2651.83
418.07	2562.89
418.26	2684.59
418.45	2675.23
418.64	2808.64
418.83	2787.58
419.02	2808.64
419.21	2850.77
419.39	2827.37
419.58	2832.05
419.77	2771.19
419.96	2785.24
420.15	2935.03
420.34	2960.78
420.53	2949.08
420.72	2892.90
420.91	2913.97
421.10	2993.55
421.29	3082.49
421.48	2878.86
421.67	3007.59
421.86	2878.86
422.05	2967.80
422.24	3150.36
422.43	3035.67
422.61	3136.32
422.80	3206.53
422.99	3141.00
423.18	3262.71
423.37	3089.51
423.56	3131.64
423.75	3241.64
423.94	3084.83
424.13	2923.33
424.32	3098.87
424.50	3145.68
424.69	3103.55
424.88	3215.90
425.07	3119.93
425.26	3220.58
425.45	3077.80
425.64	3187.81
425.83	3143.34
426.01	3171.43
426.20	3129.30
426.39	3152.70
426.58	3194.83
426.77	3295.47
426.96	3321.22
427.15	3199.51
427.33	3330.58
427.52	3279.09
427.71	3311.86
427.90	3332.92
428.09	3215.90
428.28	3424.20
428.46	3576.34
428.65	3442.93
428.84	3478.04
429.03	3595.06
429.22	3405.48
429.40	3499.10
429.59	3447.61
429.78	3445.27
429.97	3403.14
430.16	3492.08
430.34	3494.42
430.53	3557.61
430.72	3632.51
430.91	3527.19
431.10	3506.12
431.28	3700.39
431.47	3768.26
431.66	3625.49
431.85	3550.59
432.03	3665.28
432.22	3796.35
432.41	3747.20
432.60	3941.46
432.79	3763.58
432.97	3864.22
433.16	3829.12
433.35	3934.44
433.54	3838.48
433.72	4009.34
433.91	3941.46
434.10	3789.33
434.28	3901.67
434.47	3962.53
434.66	4007.00
434.85	3962.53
435.03	4112.32
435.22	4325.31
435.41	4638.94
435.59	4374.46
435.78	4458.72
435.97	4236.37
436.16	4196.58
436.34	4189.56
436.53	4060.83
436.72	4327.65
436.90	4077.21
437.09	4369.78
437.28	4018.70
437.46	4182.54
437.65	4292.54
437.84	4416.59
438.02	4332.33
438.21	4411.91
438.40	4297.22
438.58	4465.74
438.77	4484.47
438.96	4435.32
439.14	4620.22
439.33	4559.36
439.52	4699.80
439.70	4622.56
439.89	4758.31
440.08	4814.48
440.26	4807.46
440.45	4652.98
440.63	4713.84
440.82	4781.71
441.01	4798.10
441.19	4863.63
441.38	4973.64
441.57	5025.13
441.75	5011.09
441.94	5128.11
442.12	5018.11
442.31	5289.61
442.50	5149.18
442.68	5259.18
442.87	5069.60
443.05	5200.67
443.24	5348.12
443.43	5210.03
443.61	5408.98
443.80	5387.91
443.98	5090.67
444.17	5109.39
444.35	5373.87
444.54	5359.83
444.73	5284.93
444.91	5514.30
445.10	5455.79
445.28	5327.06
445.47	5401.96
445.65	5362.17
445.84	5327.06
446.02	5474.51
446.21	5369.19
446.39	5322.38
446.58	5596.22
446.77	5488.56
446.95	5369.19
447.14	5518.98
447.32	5685.16
447.51	5453.45
447.69	5416.00
447.88	5577.50
448.06	5537.71
448.25	5596.22
448.43	5481.53
448.62	5584.52
448.80	5451.11
448.99	5612.60
449.17	5575.16
449.36	5441.75
449.54	5849.00
449.73	5736.65
449.91	5743.67
450.10	5701.54
450.28	5877.09
450.46	5823.25
450.65	5998.79
450.83	5809.21
451.02	5860.70
451.20	5832.62
451.39	5902.83
451.57	5888.79
451.76	5816.23
451.94	5947.30
452.13	5989.43
452.31	5907.51
452.49	5792.83
452.68	5987.09
452.86	6132.20
453.05	6258.59
453.23	6073.69
453.42	5891.13
453.60	6181.35
453.78	6064.33
453.97	6090.07
454.15	6132.20
454.34	6207.10
454.52	6328.81
454.70	6167.31
454.89	6436.47
455.07	6321.79
455.26	6347.53
455.44	6410.73
455.62	6445.84
455.81	6408.39
455.99	6487.96
456.17	6562.86
456.36	6612.01
456.54	6380.30
456.73	6600.31
456.91	6916.28
457.09	6548.82
457.28	6707.98
457.46	6642.44
457.64	6635.42
457.83	6869.47
458.01	6600.31
458.19	6881.18
458.38	6715.00
458.56	6860.11
458.74	6782.87
458.93	6782.87
459.11	6892.88
459.29	6874.15
459.48	7042.67
459.66	7012.24
459.84	6979.48
460.03	7133.95
460.21	7056.72
460.39	7056.72
460.57	7138.63
460.76	7012.24
460.94	7068.42
461.12	7255.66
461.31	7091.82
461.49	7115.23
461.67	7342.26
461.85	7541.21
462.04	7293.11
462.22	7754.19
462.40	7410.14
462.59	7323.54
462.77	7288.43
462.95	7414.82
463.13	7377.37
463.32	7494.40
463.50	7777.60
463.68	7606.74
463.86	7592.70
464.05	7426.52
464.23	7632.49
464.41	7672.28
464.59	7442.90
464.78	7660.57
464.96	7709.72
465.14	7691.00
465.32	7962.50
465.50	8042.08
465.69	7768.24
465.87	7903.99
466.05	7775.26
466.23	7971.86
466.41	7698.02
466.60	8201.24
466.78	7840.79
466.96	7971.86
467.14	7824.41
467.32	7936.76
467.51	8105.28
467.69	7761.22
467.87	8053.78
468.05	8070.17
468.23	7843.14
468.41	7887.61
468.60	8009.31
468.78	8109.96
468.96	8161.45
469.14	8217.62
469.32	8334.65
469.50	8077.19
469.69	8456.36
469.87	8416.57
470.05	8542.96
470.23	8407.20
470.41	8463.38
470.59	8442.31
470.77	8430.61
470.95	8723.18
471.14	8542.96
471.32	8383.80
471.50	8889.35
471.68	8765.31
471.86	8627.21
472.04	8751.26
472.22	8947.87
472.40	8737.22
472.58	8887.01
472.77	8929.14
472.95	9060.21
473.13	9151.49
473.31	8912.76
473.49	8922.12
473.67	9114.05
473.85	9067.24
474.03	9479.17
474.21	9366.82
474.39	9458.10
474.57	9453.42
474.75	9516.62
474.93	9516.62
475.12	9366.82
475.30	9558.75
475.48	9675.77
475.66	9706.20
475.84	9624.28
476.02	9778.76
476.20	9905.15
476.38	9935.57
476.56	10017.49
476.74	10092.39
476.92	10029.20
477.10	10101.75
477.28	10157.92
477.46	10298.36
477.64	10523.05
477.82	10661.14
478.00	10780.51
478.18	10785.19
478.36	10691.57
478.54	11016.90
478.72	10846.04
478.90	11012.22
479.08	10885.83
479.26	11332.87
479.44	11321.17
479.62	11527.14
479.80	11630.12
479.98	11541.18
480.16	11768.21
480.34	11604.38
480.52	11962.48
480.70	11793.96
480.88	11800.98
481.06	12152.06
481.24	11920.35
481.41	12077.16
481.59	12402.50
481.77	12116.95
481.95	12498.46
482.13	12540.59
482.31	12709.11
482.49	12552.29
482.67	12629.53
482.85	12861.24
483.03	12992.31
483.21	13319.99
483.39	13479.15
483.57	13322.33
483.74	13350.42
483.92	13537.66
484.10	13628.94
484.28	14207.05
484.46	14104.07
484.64	14246.84
484.82	13767.03
485.00	14197.69
485.18	14413.02
485.35	14698.56
485.53	14754.74
485.71	14607.28
485.89	15208.80
486.07	15000.49
486.25	14815.59
486.43	15035.60
486.61	15061.35
486.78	15449.88
486.96	15492.01
487.14	15782.23
487.32	15789.25
487.50	15955.43
487.68	16095.86
487.85	16109.91
488.03	16243.32
488.21	16421.20
488.39	16306.51
488.57	16854.20
488.75	16702.06
488.92	17371.46
489.10	16978.25
489.28	16929.09
489.46	17137.40
489.64	17444.01
489.81	17582.10
489.99	17528.27
490.17	17649.98
490.35	17809.14
490.53	17764.67
490.70	18494.91
490.88	18513.64
491.06	18340.44
491.24	18342.78
491.41	18537.04
491.59	18438.74
491.77	18829.61
491.95	18984.09
492.13	18906.85
492.30	19145.58
492.48	19026.21
492.66	19208.78
492.84	19161.97
493.01	19592.62
493.19	19728.38
493.37	20011.58
493.54	19999.88
493.72	20032.65
493.90	20453.94
494.08	20107.54
494.25	20453.94
494.43	20428.20
494.61	20847.15
494.79	20837.79
494.96	20666.93
495.14	21006.31
495.32	21144.40
495.49	20870.56
495.67	21476.76
495.85	21495.48
496.02	21481.44
496.20	21446.33
496.38	21645.27
496.55	21919.12
496.73	21996.35
496.91	21963.59
497.09	22398.93
497.26	22359.14
497.44	22637.66
497.62	22450.42
497.79	22838.95
497.97	22689.15
498.14	22885.76
498.32	23241.52
498.50	23171.30
498.67	23576.22
498.85	23138.54
499.03	23332.80
499.20	23435.78
499.38	23552.81
499.56	23765.80
499.73	24095.82
499.91	24025.60
500.08	23836.02
500.26	23779.84
500.44	23880.49
500.61	23814.95
500.79	24168.37
500.97	24130.92
501.14	24858.83
501.32	24540.52
501.49	24404.77
501.67	24816.70
501.84	24467.96
502.02	25111.61
502.20	25097.56
502.37	25123.31
502.55	25429.92
502.72	25523.54
502.90	25308.21
503.07	25282.47
503.25	25240.34
503.43	25214.59
503.60	25682.70
503.78	25912.07
503.95	25628.87
504.13	26176.55
504.30	25912.07
504.48	25708.44
504.65	26363.79
504.83	26183.57
505.01	26918.50
505.18	26529.97
505.36	26485.50
505.53	26555.72
505.71	26574.44
505.88	26867.01
506.06	26672.74
506.23	26824.88
506.41	26831.90
506.58	27325.75
506.76	26944.25
506.93	26923.18
507.11	27157.24
507.28	27281.28
507.46	27679.18
507.63	27309.37
507.81	27704.92
507.98	27360.86
508.16	27620.66
508.33	27700.24
508.50	27742.37
508.68	28086.43
508.85	28261.97
509.03	28503.04
509.20	28362.61
509.38	28788.59
509.55	28790.93
509.73	28489.00
509.90	28582.62
510.08	28886.89
510.25	28814.34
510.42	28877.53
510.60	29137.33
510.77	29186.48
510.95	29301.17
511.12	29216.91
511.30	29472.03
511.47	29223.93
511.64	29355.00
511.82	29867.58
511.99	29530.54
512.17	30022.05
512.34	29788.00
512.51	29500.11
512.69	29942.47
512.86	30038.44
513.04	30202.27
513.21	30277.17
513.38	30235.04
513.56	30176.53
513.73	30024.39
513.90	30160.14
514.08	30422.28
514.25	30771.02
514.43	30471.43
514.60	30499.52
514.77	31042.53
514.95	31091.68
515.12	30960.61
515.29	30686.76
515.47	31611.28
515.64	31557.44
515.81	30969.97
515.99	31269.56
516.16	31690.85
516.33	31868.73
516.51	31735.32
516.68	31552.76
516.85	31393.61
517.03	31791.50
517.20	31824.26
517.37	31990.44
517.54	32093.43
517.72	32575.58
517.89	32425.78
518.06	32385.99
518.24	32102.79
518.41	32226.84
518.58	32622.39
518.75	32601.32
518.93	33076.45
519.10	32608.34
519.27	32973.47
519.45	32657.49
519.62	32912.61
519.79	32795.59
519.96	33139.65
520.14	32797.93
520.31	33137.30
520.48	33434.55
520.65	33462.64
520.83	33539.88
521.00	33668.61
521.17	33041.34
521.34	33582.01
521.52	33479.02
521.69	33392.42
521.86	34007.98
522.03	34373.11
522.20	33867.55
522.38	34263.10
522.55	33888.62
522.72	33905.00
522.89	34015.01
523.07	34363.75
523.24	34710.14
523.41	34424.60
523.58	34394.17
523.75	34480.77
523.92	34396.51
524.10	34663.33
524.27	35009.73
524.44	34953.56
524.61	35049.52
524.78	35358.47
524.96	34918.45
525.13	35164.21
525.30	34794.40
525.47	35428.69
525.64	35136.12
525.81	35487.20
525.98	35529.33
526.16	35737.64
526.33	35335.07
526.50	36079.36
526.67	35374.86
526.84	35782.11
527.01	35150.17
527.18	35988.08
527.36	36236.17
527.53	35779.77
527.70	36086.38
527.87	36582.57
528.04	36268.94
528.21	36058.29
528.38	36238.51
528.55	36519.38
528.72	36392.99
528.89	36367.24
529.07	36467.89
529.24	36156.60
529.41	36891.52
529.58	36575.55
529.75	36395.33
529.92	36751.09
530.09	36758.11
530.26	36659.81
530.43	37193.45
530.60	36545.12
530.77	37057.70
530.94	37521.13
531.11	36992.17
531.28	37394.74
531.46	37120.90
531.63	37275.37
531.80	37860.51
531.97	37544.53
532.14	37504.74
532.31	37663.90
532.48	37710.71
532.65	37638.15
532.82	37720.07
532.99	37586.66
533.16	37584.32
533.33	37834.76
533.50	38405.85
533.67	38553.30
533.84	37724.75
534.01	38291.16
534.18	37743.48
534.35	38316.91
534.52	38663.31
534.69	38267.76
534.86	38787.36
535.03	38197.54
535.20	38354.36
535.37	38548.62
535.54	38656.29
535.71	38183.50
535.88	38646.93
536.05	38682.03
536.22	38717.14
536.38	39304.62
536.55	39030.77
536.72	39328.02
536.89	38693.74
537.06	38845.87
537.23	39054.18
537.40	39206.31
537.57	39049.50
537.74	39042.48
537.91	39796.13
538.08	39466.11
538.25	39152.48
538.42	39545.69
538.59	39658.04
538.75	39487.18
538.92	39723.57
539.09	39906.13
539.26	39828.90
539.43	39974.01
539.60	39730.59
539.77	40367.22
539.94	40388.28
540.11	40107.42
540.28	39854.64
540.44	40165.93
540.61	40025.50
540.78	39950.60
540.95	40451.48
541.12	40612.98
541.29	40762.77
541.46	40449.14
541.62	40449.14
541.79	40416.37
541.96	40348.50
542.13	40786.18
542.30	40444.46
542.47	40912.56
542.63	40877.46
542.80	40769.79
542.97	41326.84
543.14	41195.77
543.31	41738.77
543.48	41181.73
543.64	41844.10
543.81	41593.66
543.98	41713.03
544.15	42185.82
544.32	41652.17
544.48	42071.13
544.65	41832.39
544.82	41624.09
544.99	41476.63
545.16	41970.49
545.32	41457.91
545.49	42433.91
545.66	42789.67
545.83	43110.33
546.00	43180.54
546.16	42426.89
546.33	41813.67
546.50	42066.45
546.67	42190.50
546.83	41432.16
547.00	41888.57
547.17	42005.59
547.34	42359.02
547.50	42433.91
547.67	42511.15
547.84	42476.04
548.00	41982.19
548.17	42127.30
548.34	42375.40
548.51	42513.49
548.67	42703.07
548.84	42679.67
549.01	42368.38
549.18	42522.85
549.34	42536.90
549.51	42319.23
549.68	42658.60
549.84	42284.12
550.01	42553.28
550.18	42642.22
550.34	42817.76
550.51	42347.31
550.68	43103.31
550.84	42644.56
551.01	42951.17
551.18	42742.86
551.34	42351.99
551.51	42635.20
551.68	42897.34
551.84	42937.13
552.01	42796.70
552.18	42815.42
552.34	43138.41
552.51	43065.86
552.68	42787.33
552.84	43093.94
553.01	43468.43
553.18	43449.70
553.34	43749.29
553.51	43281.19
553.67	43587.80
553.84	43679.08
554.01	43667.37
554.17	43599.50
554.34	42927.77
554.51	43278.85
554.67	43508.22
554.84	43105.65
555.00	43627.59
555.17	43419.28
555.33	43571.41
555.50	43433.32
555.67	43580.78
555.83	43700.14
556.00	43622.90
556.16	44046.54
556.33	43704.82
556.50	43386.51
556.66	43466.09
556.83	43332.68
556.99	44273.57
557.16	44315.70
557.32	44378.90
557.49	44095.69
557.65	43564.39
557.82	44006.75
557.98	43957.60
558.15	43643.97
558.32	44423.37
558.48	44147.18
558.65	44641.04
558.81	44439.75
558.98	44388.26
559.14	44442.09
559.31	44091.01
559.47	44011.43
559.64	44428.05
559.80	43971.64
559.97	44320.38
560.13	44336.77
560.30	44245.49
560.46	44477.20
560.63	44369.54
560.79	44519.33
560.96	44383.58
561.12	44320.38
561.29	44023.14
561.45	44519.33
561.61	44692.53
561.78	44788.49
561.94	45045.95
562.11	44975.73
562.27	44570.82
562.44	44942.97
562.60	44989.78
562.77	44573.16
562.93	44495.92
563.10	44753.38
563.26	44392.94
563.42	45120.85
563.59	44495.92
563.75	44900.84
563.92	44893.82
564.08	45029.57
564.24	44498.26
564.41	44481.88
564.57	44790.83
564.74	44701.89
564.90	44589.55
565.07	45352.56
565.23	45191.06
565.39	45106.80
565.56	44839.98
565.72	45022.54
565.88	44863.39
566.05	44673.81
566.21	44893.82
566.38	45010.84
566.54	45235.53
566.70	45350.22
566.87	45345.54
567.03	45076.38
567.19	45523.42
567.36	45359.58
567.52	44722.96
567.68	44835.30
567.85	45057.65
568.01	45198.09
568.17	44905.52
568.34	45368.94
568.50	44893.82
568.66	45090.42
568.83	45439.16
568.99	45193.40
569.15	45167.66
569.32	45162.98
569.48	45184.04
569.64	45219.15
569.81	45455.54
569.97	45015.52
570.13	45289.37
570.30	45179.36
570.46	45088.08
570.62	45155.96
570.78	45174.68
570.95	45352.56
571.11	45251.92
571.27	45450.86
571.43	45123.19
571.60	45357.24
571.76	45668.53
571.92	45638.11
572.09	45577.25
572.25	45638.11
572.41	45741.09
572.57	45441.50
572.74	45811.31
572.90	45338.52
573.06	45095.10
573.22	45485.97
573.38	45722.37
573.55	45469.59
573.71	46171.75
573.87	46188.13
574.03	45876.84
574.20	45603.00
574.36	45326.81
574.52	45287.03
574.68	45640.45
574.84	45687.26
575.01	45603.00
575.17	45645.13
575.33	45586.61
575.49	45230.85
575.65	45961.10
575.82	45715.34
575.98	45691.94
576.14	45867.48
576.30	45900.25
576.46	45439.16
576.62	45471.93
576.79	45713.00
576.95	45647.47
577.11	45736.41
577.27	46131.96
577.43	45851.09
577.59	45808.96
577.75	45741.09
577.92	45598.32
578.08	45361.92
578.24	45532.78
578.40	45991.53
578.56	45757.47
578.72	45654.49
578.88	46131.96
579.04	45940.04
579.21	46031.32
579.37	45710.66
579.53	46019.61
579.69	45942.38
579.85	45745.77
580.01	45897.91
580.17	45675.55
580.33	45502.35
580.49	45848.75
580.65	46036.00
580.82	45771.52
580.98	45944.72
581.14	46061.74
581.30	46211.54
581.46	45738.75
581.62	46007.91
581.78	45757.47
581.94	45792.58
582.10	46019.61
582.26	45935.35
582.42	46211.54
582.58	46267.71
582.74	46129.62
582.90	46256.01
583.06	46461.97
583.22	46010.25
583.38	46443.25
583.54	45975.14
583.70	46075.79
583.86	45989.19
584.02	46047.70
584.18	45925.99
584.34	46281.75
584.50	46440.91
584.66	46319.20
584.82	46323.88
584.98	46263.03
585.14	46036.00
585.30	45806.62
585.46	45846.41
585.62	46204.52
585.78	46436.23
585.94	45848.75
586.10	46003.23
586.26	45965.78
586.42	46426.87
586.58	46286.43
586.74	46541.55
586.90	45769.18
587.06	45893.22
587.22	46138.98
587.38	45963.44
587.54	46270.05
587.70	46312.18
587.86	46066.42
588.02	46368.35
588.18	46508.79
588.34	46490.06
588.49	46520.49
588.65	45942.38
588.81	46000.89
588.97	46038.34
589.13	46092.17
589.29	46424.53
589.45	46497.08
589.61	46045.36
589.77	46960.51
589.93	46719.43
590.08	46986.25
590.24	46396.44
590.40	46777.95
590.56	46703.05
590.72	46225.58
590.88	46204.52
