SpectraSuite Data File
++++++++++++++++++++++++++++++++++++
Date: Tue Oct 01 18:27:26 GMT-05:00 2013
User: stostad
Dark Spectrum Present: No
Reference Spectrum Present: No
Number of Sampled Component Spectra: 1
Spectrometers: USB2+H05261
Integration Time (usec): 100000 (USB2+H05261)
Spectra Averaged: 1 (USB2+H05261)
Boxcar Smoothing: 0 (USB2+H05261)
Correct for Electrical Dark: No (USB2+H05261)
Strobe/Lamp Enabled: No (USB2+H05261)
Correct for Detector Non-linearity: No (USB2+H05261)
Correct for Stray Light: No (USB2+H05261)
Number of Pixels in Processed Spectrum: 2048
>>>>>Begin Processed Spectral Data<<<<<
365.73	138.09
365.92	138.09
366.12	138.09
366.32	0.00
366.52	0.00
366.72	0.00
366.91	0.00
367.11	0.00
367.31	0.00
367.51	0.00
367.70	0.00
367.90	0.00
368.10	0.00
368.30	0.00
368.49	0.00
368.69	25.75
368.89	0.00
369.09	0.00
369.28	9.36
369.48	0.00
369.68	0.00
369.87	11.70
370.07	58.51
370.27	110.01
370.47	156.82
370.66	301.93
370.86	271.50
371.06	372.15
371.25	313.63
371.45	313.63
371.65	360.44
371.84	334.70
372.04	320.65
372.24	334.70
372.44	365.12
372.63	425.98
372.83	418.96
373.03	400.23
373.22	461.09
373.42	388.53
373.62	411.93
373.81	500.87
374.01	447.04
374.21	468.11
374.40	409.59
374.60	477.47
374.79	435.34
374.99	397.89
375.19	498.53
375.38	418.96
375.58	528.96
375.78	507.90
375.97	519.60
376.17	552.37
376.37	482.15
376.56	374.49
376.76	362.78
376.95	458.74
377.15	545.34
377.35	533.64
377.54	557.05
377.74	449.38
377.93	440.02
378.13	454.06
378.33	512.58
378.52	470.45
378.72	458.74
378.91	486.83
379.11	498.53
379.31	482.15
379.50	580.45
379.70	566.41
379.89	559.39
380.09	575.77
380.28	444.70
380.48	535.98
380.68	447.04
380.87	526.62
381.07	545.34
381.26	482.15
381.46	580.45
381.65	575.77
381.85	578.11
382.04	631.94
382.24	547.69
382.43	561.73
382.63	641.31
382.83	564.07
383.02	674.07
383.22	662.37
383.41	613.22
383.61	638.97
383.80	643.65
384.00	603.86
384.19	601.52
384.39	645.99
384.58	594.50
384.78	692.80
384.97	655.35
385.17	669.39
385.36	676.41
385.56	699.82
385.75	650.67
385.95	667.05
386.14	636.63
386.34	650.67
386.53	709.18
386.72	610.88
386.92	622.58
387.11	634.29
387.31	592.16
387.50	669.39
387.70	674.07
387.89	732.59
388.09	664.71
388.28	695.14
388.48	688.12
388.67	748.97
388.86	657.69
389.06	692.80
389.25	786.42
389.45	842.59
389.64	800.46
389.84	732.59
390.03	779.40
390.22	795.78
390.42	779.40
390.61	791.10
390.81	669.39
391.00	727.91
391.19	819.19
391.39	793.44
391.58	802.80
391.78	770.04
391.97	870.68
392.16	788.76
392.36	781.74
392.55	837.91
392.75	842.59
392.94	830.89
393.13	959.62
393.33	835.57
393.52	924.51
393.71	926.85
393.91	844.93
394.10	870.68
394.29	849.61
394.49	931.53
394.68	957.28
394.88	851.96
395.07	903.45
395.26	912.81
395.46	1034.52
395.65	980.68
395.84	985.37
396.04	966.64
396.23	980.68
396.42	1011.11
396.62	1027.50
396.81	1055.58
397.00	957.28
397.19	1090.69
397.39	1109.41
397.58	1076.65
397.77	1062.60
397.97	1193.67
398.16	1109.41
398.35	1069.62
398.55	1107.07
398.74	1184.31
398.93	1221.76
399.12	1128.14
399.32	1036.86
399.51	1107.07
399.70	1181.97
399.90	1205.38
400.09	1200.69
400.28	1228.78
400.47	1233.46
400.67	1254.53
400.86	1277.93
401.05	1301.34
401.24	1310.70
401.44	1240.48
401.63	1320.06
401.82	1341.13
402.01	1287.29
402.21	1364.53
402.40	1362.19
402.59	1439.43
402.78	1455.81
402.97	1320.06
403.17	1383.26
403.36	1310.70
403.55	1462.83
403.74	1472.20
403.93	1472.20
404.13	1399.64
404.32	1462.83
404.51	1465.18
404.70	1610.29
404.89	1500.28
405.09	1673.48
405.28	1495.60
405.47	1523.69
405.66	1551.78
405.85	1671.14
406.05	1486.24
406.24	1682.85
406.43	1659.44
406.62	1640.72
406.81	1673.48
407.00	1706.25
407.20	1661.78
407.39	1743.70
407.58	1654.76
407.77	1764.76
407.96	1818.60
408.15	1832.64
408.34	1748.38
408.54	1769.44
408.73	1820.94
408.92	1809.23
409.11	1912.22
409.30	1930.94
409.49	1909.88
409.68	1959.03
409.87	1937.96
410.07	2148.61
410.26	2036.27
410.45	2099.46
410.64	2125.21
410.83	2090.10
411.02	1973.07
411.21	2230.53
411.40	2176.70
411.59	2143.93
411.78	2073.71
411.98	2207.13
412.17	2195.42
412.36	2216.49
412.55	2335.85
412.74	2328.83
412.93	2340.54
413.12	2310.11
413.31	2340.54
413.50	2375.64
413.69	2462.24
413.88	2520.76
414.07	2569.91
414.26	2551.18
414.45	2605.02
414.64	2483.31
414.83	2576.93
415.02	2548.84
415.22	2686.94
415.41	2665.87
415.60	2665.87
415.79	2661.19
415.98	2832.05
416.17	2764.17
416.36	2822.69
416.55	2853.11
416.74	2892.90
416.93	2871.84
417.12	2864.82
417.31	2937.37
417.50	2867.16
417.69	2937.37
417.88	3033.33
418.07	2951.42
418.26	2991.20
418.45	3016.95
418.64	3159.72
418.83	3265.05
419.02	3042.70
419.21	3150.36
419.39	3302.50
419.58	3098.87
419.77	3155.04
419.96	3124.62
420.15	3260.37
420.34	3246.32
420.53	3330.58
420.72	3321.22
420.91	3431.23
421.10	3337.60
421.29	3393.78
421.48	3262.71
421.67	3384.41
421.86	3321.22
422.05	3503.78
422.24	3445.27
422.43	3442.93
422.61	3447.61
422.80	3646.55
422.99	3557.61
423.18	3435.91
423.37	3585.70
423.56	3449.95
423.75	3468.67
423.94	3482.72
424.13	3361.01
424.32	3407.82
424.50	3644.21
424.69	3611.45
424.88	3644.21
425.07	3548.25
425.26	3632.51
425.45	3428.88
425.64	3492.08
425.83	3475.70
426.01	3550.59
426.20	3662.94
426.39	3456.97
426.58	3620.81
426.77	3679.32
426.96	3679.32
427.15	3730.81
427.33	3686.34
427.52	3810.39
427.71	3707.41
427.90	3939.12
428.09	3950.82
428.28	3831.46
428.46	3927.42
428.65	3854.86
428.84	3866.56
429.03	4009.34
429.22	3866.56
429.40	4091.26
429.59	3990.61
429.78	3878.27
429.97	3969.55
430.16	3894.65
430.34	4004.66
430.53	4021.04
430.72	4035.08
430.91	4018.70
431.10	4079.55
431.28	4201.26
431.47	4095.94
431.66	4170.83
431.85	4095.94
432.03	4236.37
432.22	4351.06
432.41	4306.59
432.60	4299.56
432.79	4215.30
432.97	4173.18
433.16	4409.57
433.35	4379.14
433.54	4514.89
433.72	4470.42
433.91	4486.81
434.10	4414.25
434.28	4411.91
434.47	4512.55
434.66	4472.76
434.85	4526.60
435.03	4564.04
435.22	4542.98
435.41	4645.96
435.59	4528.94
435.78	4681.07
435.97	4643.62
436.16	4622.56
436.34	4594.47
436.53	4854.27
436.72	4821.50
436.90	4601.49
437.09	4791.08
437.28	4683.41
437.46	4840.23
437.65	4854.27
437.84	4922.15
438.02	4915.12
438.21	4847.25
438.40	4870.65
438.58	5078.96
438.77	5118.75
438.96	4971.30
439.14	5085.98
439.33	5153.86
439.52	5357.49
439.70	5167.90
439.89	5317.70
440.08	5425.36
440.26	5268.55
440.45	5282.59
440.63	5376.21
440.82	5474.51
441.01	5586.86
441.19	5591.54
441.38	5575.16
441.57	5509.62
441.75	5528.35
441.94	5561.11
442.12	5858.36
442.31	5757.72
442.50	5743.67
442.68	5764.74
442.87	5792.83
443.05	5830.27
443.24	6073.69
443.43	5841.98
443.61	5944.96
443.80	6029.22
443.98	5797.51
444.17	5731.97
444.35	6043.26
444.54	6101.78
444.73	6132.20
444.91	5959.00
445.10	6099.44
445.28	6071.35
445.47	6031.56
445.65	6129.86
445.84	6162.63
446.02	6239.87
446.21	6012.84
446.39	6047.94
446.58	6197.74
446.77	6200.08
446.95	5975.39
447.14	6272.64
447.32	6228.17
447.51	6090.07
447.69	5942.62
447.88	6197.74
448.06	6284.34
448.25	6097.10
448.43	6111.14
448.62	6349.87
448.80	6202.42
448.99	6108.80
449.17	6345.19
449.36	6209.44
449.54	6490.31
449.73	6523.07
449.91	6415.41
450.10	6370.94
450.28	6396.68
450.46	6590.95
450.65	6370.94
450.83	6654.14
451.02	6562.86
451.20	6658.82
451.39	6677.55
451.57	6726.70
451.76	6705.63
451.94	6745.42
452.13	6635.42
452.31	6703.29
452.49	6743.08
452.68	6619.04
452.86	6930.33
453.05	6832.02
453.23	6939.69
453.42	6719.68
453.60	6883.52
453.78	6862.45
453.97	6752.45
454.15	6846.07
454.34	6909.26
454.52	7080.12
454.70	6974.80
454.89	7082.46
455.07	7155.02
455.26	7091.82
455.44	7176.08
455.62	7087.14
455.81	7323.54
455.99	7194.81
456.17	7267.36
456.36	7295.45
456.54	7447.58
456.73	7438.22
456.91	7637.17
457.09	7557.59
457.28	7686.32
457.46	7487.37
457.64	7721.43
457.83	7695.68
458.01	7637.17
458.19	7798.66
458.38	7871.22
458.56	7763.56
458.74	7850.16
458.93	7838.45
459.11	7681.64
459.29	7758.88
459.48	7873.56
459.66	7918.03
459.84	7997.61
460.03	8037.40
460.21	8056.12
460.39	7978.89
460.57	7880.58
460.76	8023.36
460.94	7997.61
461.12	8152.09
461.31	8325.29
461.49	8037.40
461.67	8372.10
461.85	8379.12
462.04	8234.00
462.22	8777.01
462.40	8498.49
462.59	8304.22
462.77	8313.58
462.95	8496.14
463.13	8334.65
463.32	8411.89
463.50	8444.65
463.68	8409.54
463.86	8662.32
464.05	8524.23
464.23	8498.49
464.41	8519.55
464.59	8503.17
464.78	8624.87
464.96	8620.19
465.14	8526.57
465.32	8711.47
465.50	8809.78
465.69	8863.61
465.87	8685.73
466.05	8767.65
466.23	8929.14
466.41	8828.50
466.60	9062.55
466.78	8781.69
466.96	8964.25
467.14	8975.95
467.32	8997.02
467.51	8966.59
467.69	8758.28
467.87	9121.07
468.05	8858.93
468.23	8933.82
468.41	9128.09
468.60	9156.18
468.78	9427.68
468.96	9245.12
469.14	9212.35
469.32	9217.03
469.50	9114.05
469.69	9455.76
469.87	9476.83
470.05	9521.30
470.23	9598.54
470.41	9312.99
470.59	9703.86
470.77	9523.64
470.95	9586.83
471.14	9689.82
471.32	9603.22
471.50	9921.53
471.68	9867.70
471.86	9879.40
472.04	10031.54
472.22	10104.09
472.40	9947.28
472.58	10012.81
472.77	10162.61
472.95	10270.27
473.13	10476.24
473.31	10214.10
473.49	10312.40
473.67	10370.91
473.85	10272.61
474.03	10321.76
474.21	10473.90
474.39	10668.16
474.57	10640.08
474.75	10740.72
474.93	11026.26
475.12	10689.23
475.30	10892.85
475.48	10944.34
475.66	11239.25
475.84	11105.84
476.02	10988.82
476.20	11014.56
476.38	11367.98
476.56	11604.38
476.74	11513.10
476.92	11686.29
477.10	11417.13
477.28	11782.26
477.46	11709.70
477.64	11932.05
477.82	11990.56
478.00	12311.22
478.18	12135.68
478.36	12250.36
478.54	12453.99
478.72	12564.00
478.90	12451.65
479.08	12650.60
479.26	12786.35
479.44	12844.86
479.62	13092.96
479.80	13095.30
479.98	13116.36
480.16	13497.87
480.34	13312.97
480.52	13530.64
480.70	13586.81
480.88	13481.49
481.06	13844.27
481.24	13748.31
481.41	13844.27
481.59	14129.81
481.77	14139.18
481.95	14286.63
482.13	14485.58
482.31	14211.73
482.49	14537.07
482.67	14679.84
482.85	15143.27
483.03	15150.29
483.21	14920.92
483.39	14993.47
483.57	15183.06
483.74	15583.29
483.92	15463.92
484.10	15843.09
484.28	15950.75
484.46	16248.00
484.64	16135.65
484.82	15613.71
485.00	16287.79
485.18	16297.15
485.35	16760.58
485.53	16657.59
485.71	17025.06
485.89	16931.44
486.07	17123.36
486.25	17137.40
486.43	17104.64
486.61	17390.18
486.78	17509.55
486.96	17614.87
487.14	17855.95
487.32	17668.70
487.50	17919.14
487.68	18534.70
487.85	18717.26
488.03	18513.64
488.21	18700.88
488.39	18806.20
488.57	18726.63
488.75	19056.64
488.92	19410.06
489.10	19475.60
489.28	19403.04
489.46	19697.95
489.64	19513.05
489.81	20002.22
489.99	20051.37
490.17	20208.19
490.35	20489.05
490.53	20446.92
490.70	20348.62
490.88	20425.86
491.06	21057.80
491.24	20978.22
491.41	20739.49
491.59	21678.04
491.77	21458.03
491.95	21432.29
492.13	21830.18
492.30	21673.36
492.48	21970.61
492.66	22068.91
492.84	22066.57
493.01	22256.15
493.19	22333.39
493.37	22602.55
493.54	22466.80
493.72	22583.83
493.90	23009.81
494.08	23311.74
494.25	23466.21
494.43	23171.30
494.61	23293.01
494.79	23939.00
494.96	23534.09
495.14	24004.53
495.32	24025.60
495.49	24250.29
495.67	24259.65
495.85	24397.74
496.02	24545.20
496.20	24673.93
496.38	24549.88
496.55	24769.89
496.73	25511.84
496.91	25039.05
497.09	25521.20
497.26	25509.50
497.44	25242.68
497.62	25654.61
497.79	26043.14
497.97	26010.37
498.14	26169.53
498.32	26270.17
498.50	26501.89
498.67	26663.38
498.85	26679.77
499.03	26717.22
499.20	26700.83
499.38	26621.25
499.56	27204.05
499.73	27150.21
499.91	26930.20
500.08	27143.19
500.26	27185.32
500.44	27353.84
500.61	27545.76
500.79	27775.14
500.97	27639.39
501.14	28041.96
501.32	28177.71
501.49	28409.42
501.67	28601.35
501.84	28704.33
502.02	28250.27
502.20	28720.71
502.37	28837.74
502.55	28704.33
502.72	28828.38
502.90	29024.98
503.07	28734.76
503.25	28996.90
503.43	28987.53
503.60	29029.66
503.78	29315.21
503.95	29303.51
504.13	29710.76
504.30	30213.98
504.48	29586.71
504.65	29961.20
504.83	29954.18
505.01	29862.90
505.18	30312.28
505.36	30632.93
505.53	30197.59
505.71	30572.08
505.88	30799.11
506.06	30682.08
506.23	30993.37
506.41	31070.61
506.58	30644.63
506.76	30948.90
506.93	30984.01
507.11	31026.14
507.28	31456.80
507.46	31456.80
507.63	31323.39
507.81	31955.33
507.98	31367.86
508.16	31831.29
508.33	31857.03
508.50	31882.78
508.68	31990.44
508.85	32769.84
509.03	32098.11
509.20	32121.51
509.38	32360.25
509.55	32584.94
509.73	32336.84
509.90	32758.14
510.08	32755.80
510.25	32865.80
510.42	32634.09
510.60	33120.92
510.77	33221.56
510.95	33373.70
511.12	33237.95
511.30	33418.17
511.47	33631.16
511.64	33640.52
511.82	33699.03
511.99	33624.14
512.17	34120.33
512.34	33507.11
512.51	34541.63
512.69	34621.20
512.86	34256.08
513.04	34569.71
513.21	34703.12
513.38	34307.57
513.56	34885.68
513.73	34637.59
513.90	34831.85
514.08	34918.45
514.25	35295.28
514.43	35339.75
514.60	35126.76
514.77	35185.27
514.95	35405.28
515.12	35213.36
515.29	35101.01
515.47	35817.22
515.64	36051.27
515.81	35517.63
515.99	35725.94
516.16	35849.99
516.33	36020.84
516.51	36292.35
516.68	36086.38
516.85	36210.43
517.03	36662.15
517.20	36662.15
517.37	36758.11
517.54	36294.69
517.72	36547.47
517.89	36477.25
518.06	37036.64
518.24	36800.24
518.41	36882.16
518.58	37577.30
518.75	37088.13
518.93	37097.49
519.10	37284.73
519.27	37640.50
519.45	37401.76
519.62	37612.41
519.79	37493.04
519.96	37904.98
520.14	37879.23
520.31	37247.29
520.48	37970.51
520.65	38050.09
520.83	38057.11
521.00	38117.96
521.17	38068.81
521.34	38223.29
521.52	38763.95
521.69	38859.91
521.86	38618.84
522.03	39063.54
522.20	38883.32
522.38	38880.98
522.55	39070.56
522.72	39321.00
522.89	39185.25
523.07	39505.90
523.24	39164.18
523.41	39377.17
523.58	39517.60
523.75	39566.76
523.92	39461.43
524.10	39419.30
524.27	39852.30
524.44	40048.91
524.61	39931.88
524.78	39798.47
524.96	40013.80
525.13	40154.23
525.30	40657.45
525.47	40582.55
525.64	40161.25
525.81	40418.71
525.98	40891.50
526.16	40879.80
526.33	40416.37
526.50	40952.35
526.67	40512.33
526.84	40926.61
527.01	40423.39
527.18	40769.79
527.36	41092.79
527.53	41163.00
527.70	40942.99
527.87	41017.89
528.04	41242.58
528.21	41200.45
528.38	41249.60
528.55	41588.98
528.72	40945.33
528.89	41301.09
529.07	41415.78
529.24	41373.65
529.41	41944.74
529.58	41518.76
529.75	41855.80
529.92	42199.86
530.09	42059.43
530.26	41879.21
530.43	41942.40
530.60	42085.17
530.77	41598.34
530.94	42557.96
531.11	42522.85
531.28	42478.38
531.46	42873.93
531.63	42700.73
531.80	42754.57
531.97	42710.10
532.14	42794.36
532.31	42541.58
532.48	43002.66
532.65	42595.41
532.82	43491.83
532.99	43058.84
533.16	43248.42
533.33	43402.89
533.50	43180.54
533.67	43178.20
533.84	43063.52
534.01	43098.62
534.18	43447.36
534.35	43442.68
534.52	43892.07
534.69	43831.21
534.86	44088.67
535.03	43552.69
535.20	43669.72
535.37	44088.67
535.54	43927.17
535.71	44275.91
535.88	44582.52
536.05	44044.20
536.22	44325.07
536.38	44416.35
536.55	44126.12
536.72	44512.31
536.89	43775.04
537.06	44308.68
537.23	44491.24
537.40	44018.46
537.57	44680.83
537.74	44542.74
537.91	45090.42
538.08	44804.88
538.25	44224.42
538.42	44374.22
538.59	45116.17
538.75	44971.05
538.92	44957.01
539.09	45038.93
539.26	45652.15
539.43	44971.05
539.60	45666.19
539.77	45343.20
539.94	45326.81
540.11	45415.76
540.28	45069.36
540.44	45319.79
540.61	45553.85
540.78	45322.13
540.95	45350.22
541.12	45333.84
541.29	45607.68
541.46	45865.14
541.62	45647.47
541.79	45535.12
541.96	45453.20
542.13	45886.20
542.30	45764.49
542.47	45815.99
542.63	45820.67
542.80	46270.05
542.97	46483.04
543.14	46513.47
543.31	45813.65
543.48	46405.80
543.64	46986.25
543.81	46719.43
543.98	46703.05
544.15	46754.54
544.32	47187.54
544.48	47164.14
544.65	46625.81
544.82	46752.20
544.99	46274.73
545.16	46801.35
545.32	46609.43
545.49	47835.87
545.66	47194.56
545.83	46873.91
546.00	47047.11
546.16	47222.65
546.33	46988.60
546.50	46981.57
546.67	47086.90
546.83	46754.54
547.00	47004.98
547.17	47377.12
547.34	47482.45
547.50	47274.14
547.67	47882.68
547.84	47405.21
548.00	48034.81
548.17	47810.12
548.34	47955.24
548.51	48032.47
548.67	48090.99
548.84	47592.45
549.01	47683.73
549.18	47461.38
549.34	47924.81
549.51	47707.14
549.68	48273.55
549.84	48170.57
550.01	48322.70
550.18	48046.52
550.34	47927.15
550.51	47966.94
550.68	47742.25
550.84	47803.10
551.01	48495.90
551.18	48172.91
551.34	48285.25
551.51	48442.07
551.68	48388.24
551.84	48418.66
552.01	48142.48
552.18	48357.81
552.34	48292.27
552.51	48362.49
552.68	48264.19
552.84	48563.78
553.01	48919.54
553.18	48577.82
553.34	48638.67
553.51	48641.01
553.67	48531.01
553.84	48835.28
554.01	48903.15
554.17	48589.52
554.34	48713.57
554.51	48704.21
554.67	49504.67
554.84	49219.13
555.00	48772.08
555.17	49095.08
555.33	49043.59
555.50	48823.58
555.67	48837.62
555.83	48765.06
556.00	49359.56
556.16	49420.41
556.33	49551.48
556.50	49523.40
556.66	49497.65
556.83	49422.75
556.99	49715.32
557.16	49160.61
557.32	49261.26
557.49	49930.65
557.65	49195.72
557.82	49546.80
557.98	50066.40
558.15	49720.00
558.32	49397.01
558.48	49530.42
558.65	49909.58
558.81	49703.62
558.98	49591.27
559.14	49598.29
559.31	49698.94
559.47	49801.92
559.64	49710.64
559.80	49771.49
559.97	49902.56
560.13	49717.66
560.30	49743.41
560.46	49640.42
560.63	49752.77
560.79	49862.77
560.96	50199.81
561.12	50270.03
561.29	50054.70
561.45	49937.67
561.61	50131.93
561.78	49883.84
561.94	50195.13
562.11	50321.52
562.27	49783.19
562.44	50035.97
562.60	50204.49
562.77	50291.09
562.93	50365.99
563.10	50611.74
563.26	50251.30
563.42	50529.83
563.59	50141.30
563.75	50234.92
563.92	50564.93
564.08	49954.05
564.24	49827.66
564.41	50445.57
564.57	50106.19
564.74	50075.76
564.90	50227.90
565.07	50553.23
565.23	50361.31
565.39	50431.52
565.56	50216.19
565.72	50059.38
565.88	50375.35
566.05	50213.85
566.21	50401.10
566.38	50412.80
566.54	50780.26
566.70	50459.61
566.87	50880.91
567.03	50333.22
567.19	50454.93
567.36	50241.94
567.52	50806.01
567.68	50546.21
567.85	50384.71
568.01	50848.14
568.17	50590.68
568.34	50398.76
568.50	50756.86
568.66	50642.17
568.83	50766.22
568.99	50445.57
569.15	50555.57
569.32	50740.47
569.48	50686.64
569.64	50674.94
569.81	50962.82
569.97	50522.80
570.13	50700.68
570.30	50487.70
570.46	50586.00
570.62	50667.92
570.78	50548.55
570.95	50698.34
571.11	50958.14
571.27	50850.48
571.43	50696.00
571.60	51213.26
571.76	50635.15
571.92	50937.08
572.09	50960.48
572.25	51201.56
572.41	51023.68
572.57	50894.95
572.74	50960.48
572.90	50871.54
573.06	50639.83
573.22	51063.47
573.38	51215.60
573.55	50988.57
573.71	51030.70
573.87	50726.43
574.03	50752.18
574.20	50962.82
574.36	50588.34
574.52	50930.06
574.68	50850.48
574.84	51159.43
575.01	51178.15
575.17	51299.86
575.33	50749.84
575.49	50873.88
575.65	51063.47
575.82	51372.42
575.98	50967.51
576.14	50923.04
576.30	51105.60
576.46	51117.30
576.62	51234.33
576.79	51274.12
576.95	51086.87
577.11	51292.84
577.27	51147.73
577.43	51152.41
577.59	51377.10
577.75	50997.93
577.92	50798.99
578.08	51002.61
578.24	51337.31
578.40	51199.22
578.56	51295.18
578.72	51192.20
578.88	51597.11
579.04	51538.60
579.21	50948.78
579.37	51250.71
579.53	51227.31
579.69	51220.28
579.85	51241.35
580.01	51271.78
580.17	51412.21
580.33	51562.00
580.49	51398.16
580.65	51309.22
580.82	51480.08
580.98	51047.08
581.14	51061.13
581.30	51332.63
581.46	51398.16
581.62	51529.23
581.78	51398.16
581.94	51711.80
582.10	51421.57
582.26	51353.69
582.42	51138.36
582.58	51379.44
582.74	51126.66
582.90	50962.82
583.06	51332.63
583.22	51138.36
583.38	51718.82
583.54	51585.41
583.70	51697.75
583.86	51583.07
584.02	51107.94
584.18	51267.09
584.34	51358.38
584.50	51377.10
584.66	51442.63
584.82	51166.45
584.98	51185.18
585.14	51732.86
585.30	51192.20
585.46	51599.45
585.62	51103.26
585.78	51484.76
585.94	51070.49
586.10	51037.72
586.26	50965.17
586.42	51180.49
586.58	51459.02
586.74	51346.67
586.90	51309.22
587.06	51442.63
587.22	51550.30
587.38	51704.77
587.54	51669.67
587.70	51859.25
587.86	51388.80
588.02	51648.60
588.18	51681.37
588.34	51379.44
588.49	51550.30
588.65	51220.28
588.81	51576.04
588.97	51716.48
589.13	51578.39
589.29	51807.76
589.45	51700.09
589.61	51672.01
589.77	52030.11
589.93	51667.33
590.08	51412.21
590.24	51810.10
590.40	51718.82
