SpectraSuite Data File
++++++++++++++++++++++++++++++++++++
Date: Fri Oct 04 11:39:49 GMT-05:00 2013
User: price-jones
Dark Spectrum Present: No
Reference Spectrum Present: No
Number of Sampled Component Spectra: 1
Spectrometers: USB2+H05261
Integration Time (usec): 100000 (USB2+H05261)
Spectra Averaged: 1 (USB2+H05261)
Boxcar Smoothing: 0 (USB2+H05261)
Correct for Electrical Dark: No (USB2+H05261)
Strobe/Lamp Enabled: No (USB2+H05261)
Correct for Detector Non-linearity: No (USB2+H05261)
Correct for Stray Light: No (USB2+H05261)
Number of Pixels in Processed Spectrum: 2048
>>>>>Begin Processed Spectral Data<<<<<
365.73	44.47
365.92	44.47
366.12	44.47
366.32	0.00
366.52	0.00
366.72	0.00
366.91	0.00
367.11	0.00
367.31	0.00
367.51	0.00
367.70	0.00
367.90	28.09
368.10	0.00
368.30	0.00
368.49	0.00
368.69	0.00
368.89	0.00
369.09	0.00
369.28	0.00
369.48	21.06
369.68	0.00
369.87	46.81
370.07	4.68
370.27	28.09
370.47	44.47
370.66	154.48
370.86	175.54
371.06	215.33
371.25	241.08
371.45	184.90
371.65	119.37
371.84	184.90
372.04	241.08
372.24	198.95
372.44	112.35
372.63	224.69
372.83	266.82
373.03	203.63
373.22	252.78
373.42	222.35
373.62	250.44
373.81	215.33
374.01	299.59
374.21	264.48
374.40	241.08
374.60	262.14
374.79	224.69
374.99	222.35
375.19	217.67
375.38	161.50
375.58	294.91
375.78	285.55
375.97	322.99
376.17	285.55
376.37	259.80
376.56	269.16
376.76	222.35
376.95	210.65
377.15	238.73
377.35	273.84
377.54	273.84
377.74	262.14
377.93	297.25
378.13	220.01
378.33	271.50
378.52	262.14
378.72	348.74
378.91	287.89
379.11	278.52
379.31	266.82
379.50	243.42
379.70	294.91
379.89	294.91
380.09	236.39
380.28	269.16
380.48	292.57
380.68	271.50
380.87	269.16
381.07	346.40
381.26	304.27
381.46	290.23
381.65	297.25
381.85	250.44
382.04	257.46
382.24	292.57
382.43	250.44
382.63	285.55
382.83	301.93
383.02	191.92
383.22	257.46
383.41	259.80
383.61	318.31
383.80	297.25
384.00	351.08
384.19	220.01
384.39	322.99
384.58	332.36
384.78	227.03
384.97	358.10
385.17	334.70
385.36	292.57
385.56	339.38
385.75	320.65
385.95	273.84
386.14	269.16
386.34	388.53
386.53	322.99
386.72	304.27
386.92	320.65
387.11	285.55
387.31	400.23
387.50	358.10
387.70	344.06
387.89	287.89
388.09	337.04
388.28	397.89
388.48	294.91
388.67	388.53
388.86	308.95
389.06	330.02
389.25	367.46
389.45	360.44
389.64	409.59
389.84	330.02
390.03	369.80
390.22	341.72
390.42	388.53
390.61	388.53
390.81	320.65
391.00	421.30
391.19	465.77
391.39	409.59
391.58	393.21
391.78	416.62
391.97	337.04
392.16	304.27
392.36	451.72
392.55	437.68
392.75	465.77
392.94	386.19
393.13	355.76
393.33	411.93
393.52	428.32
393.71	400.23
393.91	390.87
394.10	308.95
394.29	444.70
394.49	397.89
394.68	400.23
394.88	433.00
395.07	411.93
395.26	468.11
395.46	409.59
395.65	449.38
395.84	416.62
396.04	519.60
396.23	512.58
396.42	442.36
396.62	421.30
396.81	496.19
397.00	465.77
397.19	348.74
397.39	514.92
397.58	489.17
397.77	428.32
397.97	437.68
398.16	486.83
398.35	512.58
398.55	538.32
398.74	550.03
398.93	510.24
399.12	550.03
399.32	514.92
399.51	582.79
399.70	599.18
399.90	554.71
400.09	533.64
400.28	582.79
400.47	596.84
400.67	585.13
400.86	486.83
401.05	552.37
401.24	674.07
401.44	557.05
401.63	608.54
401.82	592.16
402.01	564.07
402.21	653.01
402.40	615.56
402.59	599.18
402.78	582.79
402.97	594.50
403.17	650.67
403.36	688.12
403.55	629.60
403.74	559.39
403.93	657.69
404.13	727.91
404.32	685.78
404.51	826.21
404.70	753.65
404.89	627.26
405.09	713.86
405.28	657.69
405.47	730.25
405.66	791.10
405.85	730.25
406.05	763.01
406.24	732.59
406.43	763.01
406.62	734.93
406.81	851.96
407.00	842.59
407.20	802.80
407.39	706.84
407.58	814.51
407.77	866.00
407.96	786.42
408.15	704.50
408.34	755.99
408.54	840.25
408.73	812.17
408.92	798.12
409.11	840.25
409.30	954.94
409.49	798.12
409.68	849.61
409.87	887.06
410.07	926.85
410.26	849.61
410.45	861.32
410.64	896.43
410.83	973.66
411.02	917.49
411.21	997.07
411.40	866.00
411.59	964.30
411.78	954.94
411.98	957.28
412.17	926.85
412.36	858.98
412.55	887.06
412.74	1074.31
412.93	1048.56
413.12	976.00
413.31	1090.69
413.50	1078.99
413.69	1184.31
413.88	1114.10
414.07	917.49
414.26	1055.58
414.45	1081.33
414.64	1174.95
414.83	1081.33
415.02	1156.22
415.22	1146.86
415.41	1217.08
415.60	1214.74
415.79	1142.18
415.98	1254.53
416.17	1221.76
416.36	1240.48
416.55	1233.46
416.74	1294.32
416.93	1238.14
417.12	1294.32
417.31	1228.78
417.50	1277.93
417.69	1364.53
417.88	1355.17
418.07	1273.25
418.26	1327.08
418.45	1401.98
418.64	1502.62
418.83	1425.39
419.02	1366.87
419.21	1371.55
419.39	1310.70
419.58	1418.36
419.77	1495.60
419.96	1540.07
420.15	1430.07
420.34	1425.39
420.53	1479.22
420.72	1523.69
420.91	1472.20
421.10	1526.03
421.29	1394.96
421.48	1502.62
421.67	1434.75
421.86	1591.56
422.05	1462.83
422.24	1568.16
422.43	1528.37
422.61	1486.24
422.80	1495.60
422.99	1563.48
423.18	1643.06
423.37	1519.01
423.56	1640.72
423.75	1589.22
423.94	1474.54
424.13	1465.18
424.32	1661.78
424.50	1636.03
424.69	1593.90
424.88	1582.20
425.07	1523.69
425.26	1614.97
425.45	1558.80
425.64	1605.61
425.83	1614.97
426.01	1732.00
426.20	1507.30
426.39	1699.23
426.58	1612.63
426.77	1619.65
426.96	1593.90
427.15	1748.38
427.33	1614.97
427.52	1603.27
427.71	1631.35
427.90	1760.08
428.09	1678.16
428.28	1586.88
428.46	1764.76
428.65	1795.19
428.84	1795.19
429.03	1760.08
429.22	1778.81
429.40	1701.57
429.59	1741.36
429.78	1760.08
429.97	1699.23
430.16	1643.06
430.34	1788.17
430.53	1717.95
430.72	1727.32
430.91	1858.39
431.10	1844.34
431.28	1834.98
431.47	1853.70
431.66	1823.28
431.85	1844.34
432.03	1975.41
432.22	2045.63
432.41	1912.22
432.60	1916.90
432.79	1764.76
432.97	1900.52
433.16	1856.04
433.35	1827.96
433.54	1952.01
433.72	1984.77
433.91	1905.20
434.10	1919.24
434.28	1980.09
434.47	2106.48
434.66	1982.43
434.85	2057.33
435.03	2045.63
435.22	2239.89
435.41	2324.15
435.59	2389.69
435.78	2321.81
435.97	2204.78
436.16	2139.25
436.34	2003.50
436.53	1966.05
436.72	2010.52
436.90	2101.80
437.09	2150.95
437.28	2101.80
437.46	2136.91
437.65	2118.18
437.84	2237.55
438.02	2150.95
438.21	2172.02
438.40	2157.97
438.58	2200.10
438.77	2120.53
438.96	2165.00
439.14	2326.49
439.33	2251.60
439.52	2286.70
439.70	2392.03
439.89	2298.41
440.08	2340.54
440.26	2359.26
440.45	2368.62
440.63	2349.90
440.82	2399.05
441.01	2394.37
441.19	2441.18
441.38	2473.95
441.57	2499.69
441.75	2328.83
441.94	2445.86
442.12	2541.82
442.31	2483.31
442.50	2630.76
442.68	2490.33
442.87	2644.81
443.05	2523.10
443.24	2464.58
443.43	2530.12
443.61	2509.05
443.80	2530.12
443.98	2572.25
444.17	2530.12
444.35	2640.12
444.54	2717.36
444.73	2633.10
444.91	2630.76
445.10	2605.02
445.28	2726.72
445.47	2595.65
445.65	2586.29
445.84	2644.81
446.02	2640.12
446.21	2605.02
446.39	2621.40
446.58	2684.59
446.77	2518.42
446.95	2506.71
447.14	2434.16
447.32	2712.68
447.51	2731.41
447.69	2670.55
447.88	2677.57
448.06	2698.64
448.25	2672.89
448.43	2684.59
448.62	2696.30
448.80	2761.83
448.99	2736.09
449.17	2696.30
449.36	2860.13
449.54	2738.43
449.73	2855.45
449.91	2909.29
450.10	2740.77
450.28	2892.90
450.46	2792.26
450.65	2836.73
450.83	2801.62
451.02	2801.62
451.20	2869.50
451.39	2876.52
451.57	2869.50
451.76	2759.49
451.94	2780.56
452.13	3045.04
452.31	2902.26
452.49	2829.71
452.68	2935.03
452.86	2834.39
453.05	2979.50
453.23	2956.10
453.42	2839.07
453.60	2794.60
453.78	2904.60
453.97	2937.37
454.15	3056.74
454.34	2972.48
454.52	2911.63
454.70	2984.18
454.89	3061.42
455.07	2930.35
455.26	3030.99
455.44	3133.98
455.62	2909.29
455.81	2958.44
455.99	3038.02
456.17	3136.32
456.36	3103.55
456.54	3258.03
456.73	3012.27
456.91	3199.51
457.09	3171.43
457.28	3389.10
457.46	3145.68
457.64	3229.94
457.83	3297.81
458.01	3337.60
458.19	3370.37
458.38	3279.09
458.56	3389.10
458.74	3262.71
458.93	3321.22
459.11	3286.11
459.29	3398.46
459.48	3393.78
459.66	3344.63
459.84	3337.60
460.03	3569.32
460.21	3272.07
460.39	3353.99
460.57	3281.43
460.76	3351.65
460.94	3494.42
461.12	3337.60
461.31	3445.27
461.49	3396.12
461.67	3377.39
461.85	3442.93
462.04	3440.59
462.22	3925.08
462.40	3557.61
462.59	3630.17
462.77	3442.93
462.95	3536.55
463.13	3520.17
463.32	3599.74
463.50	3496.76
463.68	3569.32
463.86	3508.46
464.05	3564.64
464.23	3602.08
464.41	3520.17
464.59	3616.13
464.78	3632.51
464.96	3630.17
465.14	3571.66
465.32	3784.65
465.50	3639.53
465.69	3662.94
465.87	3646.55
466.05	3676.98
466.23	3723.79
466.41	3681.66
466.60	3714.43
466.78	3660.60
466.96	3637.19
467.14	3595.06
467.32	3674.64
467.51	3913.38
467.69	3749.54
467.87	3873.59
468.05	3691.02
468.23	3789.33
468.41	3831.46
468.60	3866.56
468.78	3831.46
468.96	3885.29
469.14	3878.27
469.32	3772.94
469.50	3913.38
469.69	3885.29
469.87	4098.28
470.05	3953.16
470.23	3981.25
470.41	3929.76
470.59	3936.78
470.77	4030.40
470.95	4042.11
471.14	4037.42
471.32	4056.15
471.50	4201.26
471.68	4074.87
471.86	4135.73
472.04	4163.81
472.22	4259.78
472.40	4138.07
472.58	4245.73
472.77	4191.90
472.95	4280.84
473.13	4250.41
473.31	4325.31
473.49	4142.75
473.67	4353.40
473.85	4269.14
474.03	4404.89
474.21	4348.72
474.39	4414.25
474.57	4407.23
474.75	4379.14
474.93	4430.63
475.12	4332.33
475.30	4388.50
475.48	4332.33
475.66	4559.36
475.84	4407.23
476.02	4650.64
476.20	4559.36
476.38	4641.28
476.56	4858.95
476.74	4802.78
476.92	4770.01
477.10	4748.95
477.28	4856.61
477.46	4734.90
477.64	4947.89
477.82	4807.46
478.00	5032.15
478.18	5032.15
478.36	4936.19
478.54	5095.35
478.72	5170.24
478.90	5022.79
479.08	5130.45
479.26	5174.92
479.44	5331.74
479.62	5205.35
479.80	5261.52
479.98	5261.52
480.16	5277.91
480.34	5444.09
480.52	5504.94
480.70	5692.18
480.88	5394.93
481.06	5542.39
481.24	5462.81
481.41	5678.14
481.59	5476.85
481.77	5713.25
481.95	5767.08
482.13	5872.40
482.31	5753.04
482.49	5849.00
482.67	5923.90
482.85	5959.00
483.03	6008.16
483.21	6190.72
483.39	6153.27
483.57	6221.14
483.74	6188.38
483.92	6228.17
484.10	6171.99
484.28	6267.95
484.46	6523.07
484.64	6600.31
484.82	6436.47
485.00	6494.99
485.18	6602.65
485.35	6750.10
485.53	6860.11
485.71	6628.40
485.89	6920.96
486.07	6710.32
486.25	6757.13
486.43	6874.15
486.61	6958.41
486.78	7091.82
486.96	7084.80
487.14	7379.71
487.32	7054.37
487.50	7152.68
487.68	7150.34
487.85	7265.02
488.03	7290.77
488.21	7463.97
488.39	7463.97
488.57	7438.22
488.75	7332.90
488.92	7878.24
489.10	7758.88
489.28	7751.85
489.46	7779.94
489.64	7882.92
489.81	8126.34
489.99	7962.50
490.17	8030.38
490.35	8294.86
490.53	8217.62
490.70	8362.73
490.88	8194.22
491.06	8163.79
491.24	8383.80
491.41	8507.85
491.59	8638.92
491.77	8451.67
491.95	8535.93
492.13	8674.03
492.30	8608.49
492.48	8592.11
492.66	8823.82
492.84	8695.09
493.01	8657.64
493.19	8753.60
493.37	9050.85
493.54	9008.72
493.72	9050.85
493.90	9312.99
494.08	9181.92
494.25	9390.23
494.43	9350.44
494.61	9254.48
494.79	9228.73
494.96	9191.28
495.14	9444.06
495.32	9430.02
495.49	9572.79
495.67	9472.15
495.85	9472.15
496.02	9706.20
496.20	9767.06
496.38	9806.84
496.55	9722.59
496.73	10017.49
496.91	9790.46
497.09	9956.64
497.26	10022.17
497.44	10120.48
497.62	10071.33
497.79	10136.86
497.97	10188.35
498.14	10373.25
498.32	10211.76
498.50	10178.99
498.67	10487.94
498.85	10593.26
499.03	10291.34
499.20	10445.81
499.38	10349.85
499.56	10541.77
499.73	10799.23
499.91	10478.58
500.08	10759.44
500.26	10803.91
500.44	10546.45
500.61	10923.28
500.79	10937.32
500.97	10745.40
501.14	11201.80
501.32	10960.73
501.49	11026.26
501.67	11070.73
501.84	11162.01
502.02	10923.28
502.20	11176.06
502.37	11255.64
502.55	11185.42
502.72	11248.61
502.90	10995.84
503.07	11218.19
503.25	11496.71
503.43	11257.98
503.60	11433.52
503.78	11253.30
503.95	11534.16
504.13	11529.48
504.30	11506.07
504.48	11580.97
504.65	11438.20
504.83	11768.21
505.01	11936.73
505.18	11700.34
505.36	12098.23
505.53	11686.29
505.71	11435.86
505.88	11693.32
506.06	11665.23
506.23	11939.07
506.41	11899.28
506.58	12002.27
506.76	12077.16
506.93	11971.84
507.11	12105.25
507.28	12142.70
507.46	12093.55
507.63	12318.24
507.81	12208.23
507.98	12245.68
508.16	12320.58
508.33	12414.20
508.50	12645.91
508.68	12578.04
508.85	12400.16
509.03	12458.67
509.20	12606.13
509.38	12781.67
509.55	12697.41
509.73	12706.77
509.90	12741.88
510.08	12732.51
510.25	12779.32
510.42	12613.15
510.60	12954.87
510.77	12816.77
510.95	13064.87
511.12	12917.42
511.30	12919.76
511.47	12954.87
511.64	13135.09
511.82	13224.03
511.99	13242.75
512.17	13401.91
512.34	13011.04
512.51	13102.32
512.69	13362.12
512.86	13221.69
513.04	13556.38
513.21	13408.93
513.38	13554.04
513.56	13525.96
513.73	13458.08
513.90	13617.24
514.08	13458.08
514.25	13671.07
514.43	13448.72
514.60	13542.34
514.77	13607.87
514.95	13572.77
515.12	13448.72
515.29	13490.85
515.47	13687.45
515.64	13907.46
515.81	13881.72
515.99	13757.67
516.16	14134.50
516.33	13886.40
516.51	14209.39
516.68	14012.79
516.85	14019.81
517.03	14146.20
517.20	14047.90
517.37	14085.34
517.54	14118.11
517.72	14085.34
517.89	14298.33
518.06	14083.00
518.24	14193.01
518.41	14359.19
518.58	14597.92
518.75	14452.81
518.93	14473.87
519.10	14310.04
519.27	14609.62
519.45	14401.32
519.62	14319.40
519.79	14544.09
519.96	14380.25
520.14	14618.99
520.31	14595.58
520.48	14743.03
520.65	14773.46
520.83	14743.03
521.00	14820.27
521.17	14864.74
521.34	14750.06
521.52	14946.66
521.69	14490.26
521.86	14941.98
522.03	14824.95
522.20	14902.19
522.38	14892.83
522.55	15028.58
522.72	14897.51
522.89	14946.66
523.07	15391.36
523.24	14946.66
523.41	15159.65
523.58	15096.46
523.75	15391.36
523.92	14991.13
524.10	15080.07
524.27	15339.87
524.44	15241.57
524.61	15407.75
524.78	15379.66
524.96	15316.47
525.13	15709.68
525.30	15470.94
525.47	15573.92
525.64	15349.23
525.81	15674.57
525.98	15447.54
526.16	15665.21
526.33	15496.69
526.50	15805.64
526.67	15417.11
526.84	15578.61
527.01	15503.71
527.18	15594.99
527.36	15793.94
527.53	15669.89
527.70	15943.73
527.87	16084.16
528.04	15775.21
528.21	16044.37
528.38	16137.99
528.55	15857.13
528.72	15948.41
528.89	16292.47
529.07	16245.66
529.24	15878.19
529.41	16166.08
529.58	15871.17
529.75	16128.63
529.92	16081.82
530.09	16215.23
530.26	16030.33
530.43	16486.73
530.60	16067.78
530.77	16088.84
530.94	16098.20
531.11	16327.58
531.28	16559.29
531.46	16025.65
531.63	16435.24
531.80	16383.75
531.97	16519.50
532.14	16409.50
532.31	16278.43
532.48	16381.41
532.65	16746.53
532.82	16549.93
532.99	16819.09
533.16	16704.40
533.33	16608.44
533.50	16381.41
533.67	16830.79
533.84	16416.52
534.01	16865.90
534.18	16645.89
534.35	16739.51
534.52	16734.83
534.69	16936.12
534.86	16847.18
535.03	16779.30
535.20	16823.77
535.37	16760.58
535.54	16938.46
535.71	16791.00
535.88	16968.88
536.05	17062.51
536.22	17205.28
536.38	17315.28
536.55	17256.77
536.72	17043.78
536.89	16716.11
537.06	16966.54
537.23	17062.51
537.40	17046.12
537.57	17111.66
537.74	17214.64
537.91	17139.74
538.08	17310.60
538.25	17219.32
538.42	16884.62
538.59	17441.67
538.75	17121.02
538.92	17128.04
539.09	17544.66
539.26	17467.42
539.43	17322.30
539.60	17118.68
539.77	17411.25
539.94	17715.51
540.11	17734.24
540.28	17621.89
540.44	17525.93
540.61	17341.03
540.78	17881.69
540.95	17923.82
541.12	17790.41
541.29	17853.61
541.46	17874.67
541.62	17846.58
541.79	17816.16
541.96	17582.10
542.13	18010.42
542.30	17900.42
542.47	18129.79
542.63	17989.36
542.80	17970.63
542.97	18260.86
543.14	17998.72
543.31	18008.08
543.48	18188.30
543.64	18532.36
543.81	18574.49
543.98	18312.35
544.15	18473.85
544.32	18345.12
544.48	18607.26
544.65	18228.09
544.82	18321.71
544.99	18033.83
545.16	18228.09
545.32	18429.38
545.49	18754.71
545.66	19124.52
545.83	19180.69
546.00	19384.32
546.16	18553.43
546.33	18237.45
546.50	18370.86
546.67	18398.95
546.83	18487.89
547.00	18302.99
547.17	18197.67
547.34	18295.97
547.50	18600.24
547.67	18651.73
547.84	18490.23
548.00	18597.90
548.17	18408.31
548.34	18354.48
548.51	18452.78
548.67	18656.41
548.84	18787.48
549.01	18452.78
549.18	18494.91
549.34	18401.29
549.51	18633.00
549.68	18553.43
549.84	18705.56
550.01	18487.89
550.18	18689.18
550.34	18733.65
550.51	18586.19
550.68	19005.15
550.84	18572.15
551.01	18541.72
551.18	18310.01
551.34	18398.95
551.51	18452.78
551.68	18726.63
551.84	18831.95
552.01	18473.85
552.18	18625.98
552.34	18794.50
552.51	18817.91
552.68	18731.31
552.84	19063.66
553.01	18787.48
553.18	18956.00
553.34	18883.44
553.51	18780.46
553.67	18796.84
553.84	18780.46
554.01	19143.24
554.17	19346.87
554.34	18792.16
554.51	18794.50
554.67	19016.85
554.84	18815.57
555.00	19215.80
555.17	18806.20
555.33	18977.06
555.50	18586.19
555.67	18946.64
555.83	18993.45
556.00	18806.20
556.16	19248.57
556.33	18892.80
556.50	18871.74
556.66	18932.59
556.83	18815.57
556.99	19119.84
557.16	19316.44
557.32	19166.65
557.49	19192.39
557.65	19117.50
557.82	19051.96
557.98	18841.31
558.15	19199.41
558.32	19176.01
558.48	18815.57
558.65	18808.54
558.81	19197.07
558.98	19126.86
559.14	18960.68
559.31	19101.11
559.47	19108.13
559.64	19108.13
559.80	19358.57
559.97	19405.38
560.13	19066.00
560.30	19274.31
560.46	19091.75
560.63	19365.59
560.79	19161.97
560.96	19311.76
561.12	18881.10
561.29	19227.50
561.45	19267.29
561.61	19515.39
561.78	19503.68
561.94	19426.45
562.11	18930.25
562.27	19342.19
562.44	19218.14
562.60	19098.77
562.77	19098.77
562.93	19295.38
563.10	19185.37
563.26	19421.77
563.42	19475.60
563.59	19569.22
563.75	19513.05
563.92	19597.31
564.08	18956.00
564.24	19201.76
564.41	19377.30
564.57	19569.22
564.74	19187.71
564.90	19501.34
565.07	19569.22
565.23	19564.54
565.39	19501.34
565.56	19180.69
565.72	19173.67
565.88	19527.09
566.05	19463.90
566.21	19449.85
566.38	19281.33
566.54	19508.37
566.70	19482.62
566.87	19339.85
567.03	19674.54
567.19	19442.83
567.36	19461.55
567.52	19101.11
567.68	19637.09
567.85	19321.12
568.01	19419.42
568.17	19339.85
568.34	19206.44
568.50	19601.99
568.66	19477.94
568.83	19475.60
568.99	19393.68
569.15	19201.76
569.32	19262.61
569.48	19138.56
569.64	19372.61
569.81	19089.41
569.97	19112.81
570.13	19477.94
570.30	19103.45
570.46	19419.42
570.62	19782.21
570.78	19307.08
570.95	19470.92
571.11	19578.58
571.27	19295.38
571.43	19360.91
571.60	19407.72
571.76	19112.81
571.92	19679.22
572.09	19489.64
572.25	19690.93
572.41	19316.44
572.57	19714.33
572.74	19754.12
572.90	19269.63
573.06	19391.34
573.22	19674.54
573.38	19459.21
573.55	19360.91
573.71	19744.76
573.87	19405.38
574.03	19594.96
574.20	19454.53
574.36	19463.90
574.52	19440.49
574.68	19714.33
574.84	19620.71
575.01	19496.66
575.17	19482.62
575.33	19599.65
575.49	19468.58
575.65	19658.16
575.82	19775.19
575.98	19428.79
576.14	19777.53
576.30	19868.81
576.46	19627.73
576.62	19562.20
576.79	19665.18
576.95	19403.04
577.11	19466.24
577.27	19548.15
577.43	19737.74
577.59	19496.66
577.75	19562.20
577.92	19372.61
578.08	19550.49
578.24	19342.19
578.40	19660.50
578.56	19660.50
578.72	19461.55
578.88	19875.83
579.04	19676.88
579.21	19803.27
579.37	19669.86
579.53	19768.16
579.69	19421.77
579.85	19559.86
580.01	19403.04
580.17	19452.19
580.33	19506.02
580.49	19414.74
580.65	19812.63
580.82	19695.61
580.98	19679.22
581.14	19452.19
581.30	19564.54
581.46	19421.77
581.62	19353.89
581.78	19950.73
581.94	19899.23
582.10	19674.54
582.26	19695.61
582.42	19833.70
582.58	19850.08
582.74	19616.03
582.90	19644.12
583.06	19721.35
583.22	19468.58
583.38	19438.15
583.54	19150.26
583.70	19868.81
583.86	19686.25
584.02	19435.81
584.18	19847.74
584.34	19627.73
584.50	19932.00
584.66	19726.04
584.82	19513.05
584.98	19449.85
585.14	19723.69
585.30	19531.77
585.46	19255.59
585.62	19585.60
585.78	19899.23
585.94	19477.94
586.10	19576.24
586.26	19721.35
586.42	19709.65
586.58	19491.98
586.74	19536.45
586.90	19611.35
587.06	19344.53
587.22	20037.33
587.38	19302.40
587.54	19857.10
587.70	19775.19
587.86	19674.54
588.02	19613.69
588.18	19896.89
588.34	19335.17
588.49	19393.68
588.65	19716.67
588.81	19517.73
588.97	19428.79
589.13	19365.59
589.29	19740.08
589.45	19819.66
589.61	19840.72
589.77	19742.42
589.93	19690.93
590.08	19967.11
590.24	19616.03
590.40	19667.52
590.56	20189.46
590.72	19765.82
590.88	19587.94
591.04	19496.66
591.20	19906.26
591.35	19929.66
591.51	19822.00
591.67	19796.25
591.83	19889.87
591.99	19831.36
592.15	19817.32
592.31	19733.06
592.46	19885.19
592.62	19487.30
