SpectraSuite Data File
++++++++++++++++++++++++++++++++++++
Date: Fri Oct 04 11:39:53 GMT-05:00 2013
User: price-jones
Dark Spectrum Present: No
Reference Spectrum Present: No
Number of Sampled Component Spectra: 1
Spectrometers: USB2+H05261
Integration Time (usec): 100000 (USB2+H05261)
Spectra Averaged: 1 (USB2+H05261)
Boxcar Smoothing: 0 (USB2+H05261)
Correct for Electrical Dark: No (USB2+H05261)
Strobe/Lamp Enabled: No (USB2+H05261)
Correct for Detector Non-linearity: No (USB2+H05261)
Correct for Stray Light: No (USB2+H05261)
Number of Pixels in Processed Spectrum: 2048
>>>>>Begin Processed Spectral Data<<<<<
365.73	65.54
365.92	65.54
366.12	65.54
366.32	0.00
366.52	0.00
366.72	0.00
366.91	7.02
367.11	0.00
367.31	0.00
367.51	0.00
367.70	0.00
367.90	4.68
368.10	0.00
368.30	0.00
368.49	0.00
368.69	4.68
368.89	0.00
369.09	0.00
369.28	0.00
369.48	0.00
369.68	0.00
369.87	7.02
370.07	0.00
370.27	58.51
370.47	119.37
370.66	51.49
370.86	140.43
371.06	196.60
371.25	208.31
371.45	152.13
371.65	117.03
371.84	159.16
372.04	173.20
372.24	119.37
372.44	177.88
372.63	173.20
372.83	294.91
373.03	231.71
373.22	205.97
373.42	222.35
373.62	241.08
373.81	201.29
374.01	222.35
374.21	264.48
374.40	262.14
374.60	248.10
374.79	238.73
374.99	236.39
375.19	283.20
375.38	276.18
375.58	297.25
375.78	327.68
375.97	259.80
376.17	297.25
376.37	203.63
376.56	182.56
376.76	215.33
376.95	194.26
377.15	308.95
377.35	161.50
377.54	227.03
377.74	271.50
377.93	227.03
378.13	257.46
378.33	152.13
378.52	313.63
378.72	248.10
378.91	306.61
379.11	255.12
379.31	306.61
379.50	191.92
379.70	266.82
379.89	236.39
380.09	250.44
380.28	252.78
380.48	315.97
380.68	236.39
380.87	245.76
381.07	238.73
381.26	276.18
381.46	287.89
381.65	224.69
381.85	304.27
382.04	210.65
382.24	285.55
382.43	175.54
382.63	208.31
382.83	238.73
383.02	280.86
383.22	285.55
383.41	224.69
383.61	332.36
383.80	278.52
384.00	297.25
384.19	210.65
384.39	234.05
384.58	271.50
384.78	292.57
384.97	264.48
385.17	196.60
385.36	255.12
385.56	322.99
385.75	337.04
385.95	306.61
386.14	271.50
386.34	287.89
386.53	285.55
386.72	332.36
386.92	332.36
387.11	332.36
387.31	304.27
387.50	276.18
387.70	374.49
387.89	320.65
388.09	299.59
388.28	292.57
388.48	388.53
388.67	337.04
388.86	325.33
389.06	369.80
389.25	369.80
389.45	285.55
389.64	379.17
389.84	306.61
390.03	264.48
390.22	299.59
390.42	407.25
390.61	243.42
390.81	351.08
391.00	379.17
391.19	383.85
391.39	374.49
391.58	437.68
391.78	409.59
391.97	454.06
392.16	374.49
392.36	362.78
392.55	313.63
392.75	425.98
392.94	358.10
393.13	418.96
393.33	388.53
393.52	369.80
393.71	425.98
393.91	355.76
394.10	451.72
394.29	418.96
394.49	484.49
394.68	365.12
394.88	418.96
395.07	444.70
395.26	482.15
395.46	442.36
395.65	449.38
395.84	482.15
396.04	411.93
396.23	461.09
396.42	503.22
396.62	503.22
396.81	559.39
397.00	500.87
397.19	491.51
397.39	465.77
397.58	587.47
397.77	524.28
397.97	510.24
398.16	535.98
398.35	433.00
398.55	524.28
398.74	613.22
398.93	587.47
399.12	535.98
399.32	484.49
399.51	564.07
399.70	587.47
399.90	543.00
400.09	535.98
400.28	587.47
400.47	641.31
400.67	587.47
400.86	573.43
401.05	608.54
401.24	622.58
401.44	653.01
401.63	594.50
401.82	634.29
402.01	629.60
402.21	573.43
402.40	709.18
402.59	653.01
402.78	730.25
402.97	713.86
403.17	709.18
403.36	751.31
403.55	711.52
403.74	704.50
403.93	748.97
404.13	781.74
404.32	741.95
404.51	765.36
404.70	798.12
404.89	730.25
405.09	774.72
405.28	819.19
405.47	704.50
405.66	786.42
405.85	854.30
406.05	858.98
406.24	915.15
406.43	945.58
406.62	929.19
406.81	915.15
407.00	908.13
407.20	875.36
407.39	805.14
407.58	905.79
407.77	997.07
407.96	1060.26
408.15	973.66
408.34	997.07
408.54	1008.77
408.73	980.68
408.92	968.98
409.11	1088.35
409.30	1013.45
409.49	1151.54
409.68	1130.48
409.87	1081.33
410.07	1144.52
410.26	1135.16
410.45	1174.95
410.64	1142.18
410.83	1228.78
411.02	1132.82
411.21	1291.98
411.40	1207.72
411.59	1263.89
411.78	1313.04
411.98	1240.48
412.17	1270.91
412.36	1254.53
412.55	1284.95
412.74	1343.47
412.93	1483.90
413.12	1371.55
413.31	1439.43
413.50	1413.68
413.69	1462.83
413.88	1547.09
414.07	1455.81
414.26	1343.47
414.45	1493.26
414.64	1460.49
414.83	1521.35
415.02	1596.25
415.22	1542.41
415.41	1596.25
415.60	1579.86
415.79	1572.84
415.98	1741.36
416.17	1607.95
416.36	1605.61
416.55	1607.95
416.74	1769.44
416.93	1755.40
417.12	1809.23
417.31	1774.13
417.50	1717.95
417.69	1802.21
417.88	1778.81
418.07	1664.12
418.26	1820.94
418.45	1881.79
418.64	1994.14
418.83	1914.56
419.02	1806.89
419.21	1860.73
419.39	1923.92
419.58	1916.90
419.77	1954.35
419.96	1994.14
420.15	2111.16
420.34	1975.41
420.53	1970.73
420.72	2085.42
420.91	2094.78
421.10	2047.97
421.29	2134.57
421.48	2064.35
421.67	2125.21
421.86	2040.95
422.05	2122.87
422.24	2066.69
422.43	2059.67
422.61	2120.53
422.80	2134.57
422.99	2092.44
423.18	2172.02
423.37	2155.63
423.56	2153.29
423.75	2176.70
423.94	2136.91
424.13	2097.12
424.32	2104.14
424.50	2218.83
424.69	2176.70
424.88	2153.29
425.07	2211.81
425.26	2202.44
425.45	2223.51
425.64	2307.77
425.83	2153.29
426.01	2200.10
426.20	2155.63
426.39	2207.13
426.58	2256.28
426.77	2303.09
426.96	2251.60
427.15	2176.70
427.33	2359.26
427.52	2289.04
427.71	2382.67
427.90	2314.79
428.09	2305.43
428.28	2420.11
428.46	2349.90
428.65	2399.05
428.84	2389.69
429.03	2420.11
429.22	2396.71
429.40	2469.27
429.59	2450.54
429.78	2420.11
429.97	2471.61
430.16	2448.20
430.34	2473.95
430.53	2394.37
430.72	2422.45
430.91	2455.22
431.10	2495.01
431.28	2672.89
431.47	2623.74
431.66	2668.21
431.85	2565.23
432.03	2700.98
432.22	2670.55
432.41	2572.25
432.60	2708.00
432.79	2675.23
432.97	2623.74
433.16	2527.78
433.35	2658.85
433.54	2576.93
433.72	2715.02
433.91	2782.90
434.10	2710.34
434.28	2710.34
434.47	2768.85
434.66	2715.02
434.85	2785.24
435.03	2902.26
435.22	3112.91
435.41	3199.51
435.59	3068.44
435.78	3082.49
435.97	3012.27
436.16	2911.63
436.34	3000.57
436.53	2949.08
436.72	2974.82
436.90	2883.54
437.09	3042.70
437.28	2958.44
437.46	2930.35
437.65	3145.68
437.84	2923.33
438.02	2963.12
438.21	3009.93
438.40	2974.82
438.58	3122.27
438.77	3073.12
438.96	3145.68
439.14	3143.34
439.33	3243.98
439.52	3225.26
439.70	3330.58
439.89	3318.88
440.08	3232.28
440.26	3272.07
440.45	3346.97
440.63	3325.90
440.82	3492.08
441.01	3456.97
441.19	3482.72
441.38	3499.10
441.57	3461.65
441.75	3679.32
441.94	3653.58
442.12	3576.34
442.31	3758.90
442.50	3646.55
442.68	3616.13
442.87	3653.58
443.05	3588.04
443.24	3676.98
443.43	3695.71
443.61	3653.58
443.80	3866.56
443.98	3660.60
444.17	3606.77
444.35	3847.84
444.54	3751.88
444.73	3908.69
444.91	3723.79
445.10	3833.80
445.28	3588.04
445.47	3796.35
445.65	3878.27
445.84	3693.37
446.02	3868.91
446.21	3831.46
446.39	3817.41
446.58	3768.26
446.77	3723.79
446.95	3765.92
447.14	3686.34
447.32	3887.63
447.51	3838.48
447.69	3901.67
447.88	3889.97
448.06	3824.44
448.25	3922.74
448.43	3911.04
448.62	3864.22
448.80	3836.14
448.99	3810.39
449.17	3894.65
449.36	3864.22
449.54	4016.36
449.73	3913.38
449.91	4205.94
450.10	4149.77
450.28	4042.11
450.46	4077.21
450.65	4049.13
450.83	4084.23
451.02	4007.00
451.20	4292.54
451.39	4194.24
451.57	4159.13
451.76	4154.45
451.94	4100.62
452.13	4327.65
452.31	4152.11
452.49	4205.94
452.68	4280.84
452.86	4114.66
453.05	4372.12
453.23	4339.35
453.42	4063.17
453.60	4329.99
453.78	4273.82
453.97	4252.75
454.15	4245.73
454.34	4241.05
454.52	4299.56
454.70	4374.46
454.89	4395.53
455.07	4444.68
455.26	4360.42
455.44	4475.10
455.62	4414.25
455.81	4374.46
455.99	4383.82
456.17	4484.47
456.36	4655.33
456.54	4517.23
456.73	4648.30
456.91	4669.37
457.09	4744.27
457.28	4770.01
457.46	4737.24
457.64	4697.46
457.83	4671.71
458.01	4697.46
458.19	4858.95
458.38	4844.91
458.56	4858.95
458.74	4748.95
458.93	4805.12
459.11	4889.38
459.29	4695.11
459.48	4985.34
459.66	4908.10
459.84	5095.35
460.03	5053.22
460.21	5013.43
460.39	4835.55
460.57	4952.57
460.76	4961.94
460.94	5114.07
461.12	5041.51
461.31	5046.20
461.49	5064.92
461.67	5123.43
461.85	5125.77
462.04	5219.39
462.22	5619.63
462.40	5107.05
462.59	5200.67
462.77	5320.04
462.95	5219.39
463.13	5252.16
463.32	5158.54
463.50	5331.74
463.68	5174.92
463.86	5263.86
464.05	5301.31
464.23	5238.12
464.41	5193.65
464.59	5184.29
464.78	5343.44
464.96	5437.06
465.14	5254.50
465.32	5495.58
465.50	5434.72
465.69	5493.24
465.87	5448.77
466.05	5355.15
466.23	5420.68
466.41	5378.55
466.60	5495.58
466.78	5343.44
466.96	5432.38
467.14	5371.53
467.32	5547.07
467.51	5617.29
467.69	5504.94
467.87	5495.58
468.05	5699.20
468.23	5603.24
468.41	5678.14
468.60	5589.20
468.78	5750.70
468.96	5509.62
469.14	5837.30
469.32	5760.06
469.50	5645.37
469.69	5837.30
469.87	6061.99
470.05	6012.84
470.23	5844.32
470.41	5799.85
470.59	5944.96
470.77	5959.00
470.95	6038.58
471.14	6052.63
471.32	5851.34
471.50	6036.24
471.68	6050.28
471.86	6150.93
472.04	6181.35
472.22	6207.10
472.40	6033.90
472.58	6129.86
472.77	6214.12
472.95	6429.45
473.13	6494.99
473.31	6312.42
473.49	6263.27
473.67	6471.58
473.85	6340.51
474.03	6548.82
474.21	6551.16
474.39	6558.18
474.57	6478.60
474.75	6604.99
474.93	6602.65
475.12	6520.73
475.30	6689.25
475.48	6675.21
475.66	6799.26
475.84	6827.34
476.02	6963.09
476.20	6780.53
476.38	7077.78
476.56	7229.91
476.74	7164.38
476.92	7030.97
477.10	7133.95
477.28	7454.61
477.46	7258.00
477.64	7351.62
477.82	7307.15
478.00	7524.82
478.18	7276.73
478.36	7698.02
478.54	7808.03
478.72	7609.08
478.90	7672.28
479.08	7859.52
479.26	7751.85
479.44	7679.30
479.62	7896.97
479.80	8173.15
479.98	8149.75
480.16	8081.87
480.34	8095.91
480.52	8226.98
480.70	8327.63
480.88	8133.36
481.06	8336.99
481.24	8278.47
481.41	8446.99
481.59	8449.33
481.77	8664.66
481.95	8730.20
482.13	8823.82
482.31	8711.47
482.49	8858.93
482.67	9032.13
482.85	9137.45
483.03	8968.93
483.21	9193.62
483.39	9247.46
483.57	9247.46
483.74	9338.74
483.92	9413.63
484.10	9444.06
484.28	9640.67
484.46	9832.59
484.64	9923.87
484.82	9680.46
485.00	9940.26
485.18	10237.50
485.35	10164.95
485.53	10377.94
485.71	10104.09
485.89	10218.78
486.07	10267.93
486.25	10478.58
486.43	10513.69
486.61	10698.59
486.78	10724.33
486.96	10726.68
487.14	11056.69
487.32	10977.11
487.50	10895.19
487.68	11159.67
487.85	11208.83
488.03	11356.28
488.21	11339.90
488.39	11279.04
488.57	11571.61
488.75	11590.33
488.92	11894.60
489.10	11805.66
489.28	11637.14
489.46	11992.90
489.64	11943.75
489.81	12292.49
489.99	12215.26
490.17	12262.07
490.35	12372.07
490.53	12273.77
490.70	12554.63
490.88	12704.43
491.06	12533.57
491.24	12795.71
491.41	12727.83
491.59	12821.45
491.77	12767.62
491.95	12912.74
492.13	13172.54
492.30	13095.30
492.48	13263.82
492.66	13490.85
492.84	13242.75
493.01	13439.36
493.19	13446.38
493.37	13490.85
493.54	13551.70
493.72	13820.86
493.90	13738.94
494.08	14015.13
494.25	13989.38
494.43	14345.14
494.61	14560.47
494.79	14298.33
494.96	14473.87
495.14	14450.47
495.32	14361.53
495.49	14389.61
495.67	14665.80
495.85	14963.04
496.02	15059.01
496.20	15133.90
496.38	14998.15
496.55	14841.34
496.73	15250.93
496.91	15138.58
497.09	15459.24
497.26	15180.71
497.44	15454.56
497.62	15571.58
497.79	15506.05
497.97	15786.91
498.14	15922.66
498.32	15913.30
498.50	16009.26
498.67	16079.48
498.85	16163.74
499.03	16205.87
499.20	16072.46
499.38	16243.32
499.56	16491.41
499.73	16582.70
499.91	16697.38
500.08	16287.79
500.26	16287.79
500.44	16760.58
500.61	16610.78
500.79	16793.34
500.97	17158.47
501.14	17336.35
501.32	16940.80
501.49	17142.08
501.67	17371.46
501.84	17172.51
502.02	16987.61
502.20	17245.07
502.37	17467.42
502.55	17242.73
502.72	17245.07
502.90	17612.53
503.07	17724.88
503.25	17731.90
503.43	17664.02
503.60	17750.62
503.78	18005.74
503.95	17905.10
504.13	17626.57
504.30	17930.84
504.48	17799.77
504.65	18150.85
504.83	18082.98
505.01	18099.36
505.18	18230.43
505.36	18780.46
505.53	18132.13
505.71	18469.17
505.88	18293.63
506.06	18506.62
506.23	18553.43
506.41	18848.33
506.58	19000.47
506.76	18829.61
506.93	18944.30
507.11	18735.99
507.28	19084.73
507.46	19030.90
507.63	19087.07
507.81	19105.79
507.98	19073.03
508.16	19197.07
508.33	19206.44
508.50	19461.55
508.68	19452.19
508.85	19278.99
509.03	19496.66
509.20	19630.07
509.38	20032.65
509.55	19470.92
509.73	19955.41
509.90	19658.16
510.08	19917.96
510.25	20130.95
510.42	20095.84
510.60	20231.59
510.77	20421.17
510.95	20369.68
511.12	20369.68
511.30	20430.54
511.47	20475.01
511.64	20748.85
511.82	20741.83
511.99	20732.47
512.17	20479.69
512.34	20732.47
512.51	20776.94
512.69	20833.11
512.86	20896.30
513.04	21102.27
513.21	21099.93
513.38	20931.41
513.56	20898.64
513.73	21142.06
513.90	21163.12
514.08	21247.38
514.25	21455.69
514.43	21481.44
514.60	21469.73
514.77	21624.21
514.95	21579.74
515.12	21476.76
515.29	21319.94
515.47	21942.52
515.64	21788.05
515.81	21811.45
515.99	22136.79
516.16	21998.70
516.33	21984.65
516.51	22232.75
516.68	22225.73
516.85	22190.62
517.03	22024.44
517.20	22363.82
517.37	22335.73
517.54	22471.48
517.72	22251.47
517.89	22216.36
518.06	22501.91
518.24	22396.59
518.41	22661.07
518.58	22548.72
518.75	22405.95
518.93	22848.31
519.10	22581.49
519.27	22710.22
519.45	22504.25
519.62	22693.83
519.79	22850.65
519.96	22787.46
520.14	23225.14
520.31	22874.06
520.48	23173.64
520.65	23154.92
520.83	23332.80
521.00	23201.73
521.17	23105.77
521.34	23337.48
521.52	23608.98
521.69	23473.23
521.86	23599.62
522.03	23779.84
522.20	24304.12
522.38	23957.72
522.55	23871.12
522.72	23796.23
522.89	23924.96
523.07	24016.24
523.24	24243.27
523.41	24168.37
523.58	23632.39
523.75	24236.25
523.92	24046.66
524.10	24545.20
524.27	24257.31
524.44	24680.95
524.61	24767.55
524.78	24453.92
524.96	24507.75
525.13	24563.92
525.30	24589.67
525.47	24489.03
525.64	24664.57
525.81	24865.85
525.98	24797.98
526.16	24531.15
526.33	24842.45
526.50	25127.99
526.67	24699.67
526.84	24844.79
527.01	24685.63
527.18	25057.78
527.36	25350.34
527.53	25158.42
527.70	25422.90
527.87	25041.39
528.04	25315.23
528.21	25542.27
528.38	25039.05
528.55	25455.67
528.72	25280.13
528.89	25362.04
529.07	25483.75
529.24	25415.88
529.41	25736.53
529.58	25975.27
529.75	25450.99
529.92	25619.50
530.09	25490.77
530.26	25591.42
530.43	25951.86
530.60	25647.59
530.77	25905.05
530.94	26101.65
531.11	25919.09
531.28	25869.94
531.46	25458.01
531.63	26162.51
531.80	26122.72
531.97	26178.89
532.14	26340.39
532.31	26316.98
532.48	26410.60
532.65	26281.88
532.82	25993.99
532.99	26462.10
533.16	26366.13
533.33	26817.86
533.50	26412.95
533.67	26508.91
533.84	26522.95
534.01	26209.32
534.18	26214.00
534.35	27094.04
534.52	26485.50
534.69	27016.80
534.86	27072.98
535.03	26714.87
535.20	26958.29
535.37	27185.32
535.54	26728.92
535.71	26656.36
535.88	26925.52
536.05	26890.41
536.22	27129.15
536.38	27550.45
536.55	27377.25
536.72	27302.35
536.89	27239.15
537.06	27510.66
537.23	27136.17
537.40	27089.36
537.57	27407.67
537.74	27264.90
537.91	27796.20
538.08	27683.86
538.25	27379.59
538.42	27520.02
538.59	27725.99
538.75	27721.30
538.92	27892.16
539.09	27711.94
539.26	27997.49
539.43	28231.54
539.60	28091.11
539.77	27695.56
539.94	27910.89
540.11	28140.26
540.28	28341.55
540.44	28151.96
540.61	28233.88
540.78	28371.97
540.95	28329.84
541.12	28481.98
541.29	28655.18
541.46	28650.50
541.62	28573.26
541.79	28474.96
541.96	28261.97
542.13	28299.42
542.30	28699.65
542.47	29113.92
542.63	28762.84
542.80	28952.43
542.97	29198.18
543.14	29071.79
543.31	28720.71
543.48	29120.95
543.64	29219.25
543.81	29200.52
543.98	29095.20
544.15	29340.96
544.32	29378.40
544.48	29745.87
544.65	29343.30
544.82	29350.32
544.99	29160.73
545.16	29633.52
545.32	29244.99
545.49	29804.38
545.66	30213.98
545.83	30649.32
546.00	30607.19
546.16	29949.50
546.33	29280.10
546.50	29418.19
546.67	29612.46
546.83	28900.94
547.00	29387.77
547.17	29296.49
547.34	29481.39
547.50	29881.62
547.67	29916.73
547.84	29521.18
548.00	29783.32
548.17	29710.76
548.34	29792.68
548.51	29820.77
548.67	29982.26
548.84	29926.09
549.01	30176.53
549.18	29507.13
549.34	29584.37
549.51	29780.98
549.68	29930.77
549.84	29528.20
550.01	29954.18
550.18	30071.20
550.34	30078.22
550.51	30059.50
550.68	30120.35
550.84	30038.44
551.01	30003.33
551.18	29942.47
551.34	29420.53
551.51	30019.71
551.68	30235.04
551.84	30347.39
552.01	29970.56
552.18	30464.41
552.34	30448.03
552.51	30377.81
552.68	30338.02
552.84	29860.55
553.01	29935.45
553.18	30490.16
553.34	30490.16
553.51	30101.63
553.67	30536.97
553.84	30813.15
554.01	30335.68
554.17	30181.21
554.34	30338.02
554.51	30274.83
554.67	30579.10
554.84	30717.19
555.00	30260.79
555.17	30157.80
555.33	30773.36
555.50	30279.51
555.67	30408.24
555.83	30438.67
556.00	30726.55
556.16	31007.42
556.33	30726.55
556.50	30466.75
556.66	30639.95
556.83	30803.79
556.99	31290.62
557.16	30616.55
557.32	30771.02
557.49	30845.92
557.65	30525.27
557.82	30827.20
557.98	30895.07
558.15	30693.79
558.32	31023.80
558.48	30492.50
558.65	31005.08
558.81	30642.29
558.98	31173.60
559.14	31152.53
559.31	30984.01
559.47	30834.22
559.64	30951.24
559.80	31108.06
559.97	31124.44
560.13	30529.95
560.30	31365.52
560.46	31145.51
560.63	30841.24
560.79	31192.32
560.96	31222.75
561.12	31253.17
561.29	30707.83
561.45	31091.68
561.61	30916.14
561.78	31157.21
561.94	31161.89
562.11	31461.48
562.27	31424.03
562.44	31417.01
562.60	31365.52
562.77	31161.89
562.93	31304.67
563.10	31199.34
563.26	31246.15
563.42	31505.95
563.59	31688.51
563.75	31201.68
563.92	31461.48
564.08	31175.94
564.24	30951.24
564.41	31206.36
564.57	31213.38
564.74	31419.35
564.90	31250.83
565.07	31311.69
565.23	31768.09
565.39	31365.52
565.56	31271.90
565.72	31789.16
565.88	31414.67
566.05	31253.17
566.21	31129.12
566.38	31496.59
566.54	31370.20
566.70	31559.78
566.87	31859.37
567.03	31505.95
567.19	31730.64
567.36	31452.12
567.52	31871.07
567.68	31594.89
567.85	31061.25
568.01	31449.78
568.17	31229.77
568.34	31828.95
568.50	31648.72
568.66	31597.23
568.83	31835.97
568.99	31328.07
569.15	31367.86
569.32	31789.16
569.48	31321.05
569.64	31812.56
569.81	31384.24
569.97	31784.48
570.13	31908.52
570.30	31763.41
570.46	31569.15
570.62	31571.49
570.78	31417.01
570.95	31358.50
571.11	31819.58
571.27	31309.35
571.43	31641.70
571.60	31779.79
571.76	31667.45
571.92	31819.58
572.09	31562.12
572.25	32020.87
572.41	31871.07
572.57	31835.97
572.74	32051.30
572.90	31566.81
573.06	31775.11
573.22	31662.77
573.38	31730.64
573.55	31676.81
573.71	32170.66
573.87	31847.67
574.03	31859.37
574.20	31723.62
574.36	31866.39
574.52	31580.85
574.68	31424.03
574.84	31793.84
575.01	31906.18
575.17	31847.67
575.33	31910.86
575.49	31997.46
575.65	32376.63
575.82	32292.37
575.98	31737.66
576.14	31740.00
576.30	31653.40
576.46	31798.52
576.62	31756.39
576.79	31913.20
576.95	32463.23
577.11	31889.80
577.27	31814.90
577.43	31885.12
577.59	31976.40
577.75	31812.56
577.92	31510.63
578.08	31538.72
578.24	31529.36
578.40	31791.50
578.56	32041.93
578.72	32109.81
578.88	32484.30
579.04	32313.44
579.21	32161.30
579.37	32142.58
579.53	32250.24
579.69	32168.32
579.85	31723.62
580.01	31952.99
580.17	31952.99
580.33	32112.15
580.49	31990.44
580.65	32362.59
580.82	32416.42
580.98	31847.67
581.14	31800.86
581.30	31962.36
581.46	31721.28
581.62	31896.82
581.78	31725.96
581.94	31995.12
582.10	32023.21
582.26	32339.18
582.42	32084.06
582.58	32608.34
582.74	32409.40
582.90	32374.29
583.06	32388.33
583.22	31878.10
583.38	32465.57
583.54	32348.54
583.70	32259.60
583.86	32278.33
584.02	32151.94
584.18	32254.92
584.34	32149.60
584.50	32678.56
584.66	32243.22
584.82	31880.44
584.98	31910.86
585.14	32238.54
585.30	32077.04
585.46	32168.32
585.62	31889.80
585.78	32053.64
585.94	32030.23
586.10	32325.14
586.26	32390.67
586.42	32217.47
586.58	32437.48
586.74	32243.22
586.90	32119.17
587.06	32280.67
587.22	32393.01
587.38	32259.60
587.54	32542.81
587.70	32500.68
587.86	32680.90
588.02	32708.99
588.18	32713.67
588.34	32388.33
588.49	32369.61
588.65	31803.20
588.81	32252.58
588.97	32119.17
589.13	32493.66
589.29	32233.86
589.45	32545.15
589.61	32240.88
589.77	32620.05
589.93	32123.85
590.08	32542.81
590.24	32486.64
590.40	32905.59
590.56	32666.86
590.72	32189.39
590.88	32217.47
591.04	32016.19
591.20	32772.18
591.35	33097.52
591.51	33095.18
591.67	32891.55
591.83	32760.48
