SpectraSuite Data File
++++++++++++++++++++++++++++++++++++
Date: Tue Oct 01 18:27:27 GMT-05:00 2013
User: stostad
Dark Spectrum Present: No
Reference Spectrum Present: No
Number of Sampled Component Spectra: 1
Spectrometers: USB2+H05261
Integration Time (usec): 100000 (USB2+H05261)
Spectra Averaged: 1 (USB2+H05261)
Boxcar Smoothing: 0 (USB2+H05261)
Correct for Electrical Dark: No (USB2+H05261)
Strobe/Lamp Enabled: No (USB2+H05261)
Correct for Detector Non-linearity: No (USB2+H05261)
Correct for Stray Light: No (USB2+H05261)
Number of Pixels in Processed Spectrum: 2048
>>>>>Begin Processed Spectral Data<<<<<
365.73	100.64
365.92	100.64
366.12	100.64
366.32	39.79
366.52	0.00
366.72	16.38
366.91	0.00
367.11	0.00
367.31	0.00
367.51	0.00
367.70	0.00
367.90	2.34
368.10	0.00
368.30	0.00
368.49	0.00
368.69	0.00
368.89	0.00
369.09	49.15
369.28	51.49
369.48	0.00
369.68	11.70
369.87	70.22
370.07	21.06
370.27	21.06
370.47	128.73
370.66	215.33
370.86	285.55
371.06	322.99
371.25	355.76
371.45	318.31
371.65	315.97
371.84	376.83
372.04	325.33
372.24	411.93
372.44	383.85
372.63	395.55
372.83	454.06
373.03	433.00
373.22	402.57
373.42	369.80
373.62	372.15
373.81	390.87
374.01	484.49
374.21	425.98
374.40	409.59
374.60	430.66
374.79	421.30
374.99	337.04
375.19	442.36
375.38	547.69
375.58	442.36
375.78	491.51
375.97	491.51
376.17	601.52
376.37	433.00
376.56	447.04
376.76	503.22
376.95	498.53
377.15	437.68
377.35	468.11
377.54	528.96
377.74	540.66
377.93	528.96
378.13	521.94
378.33	433.00
378.52	463.43
378.72	528.96
378.91	416.62
379.11	561.73
379.31	486.83
379.50	512.58
379.70	489.17
379.89	484.49
380.09	507.90
380.28	479.81
380.48	456.40
380.68	571.09
380.87	557.05
381.07	575.77
381.26	557.05
381.46	505.56
381.65	587.47
381.85	561.73
382.04	571.09
382.24	634.29
382.43	521.94
382.63	531.30
382.83	535.98
383.02	655.35
383.22	599.18
383.41	573.43
383.61	554.71
383.80	594.50
384.00	664.71
384.19	538.32
384.39	648.33
384.58	671.73
384.78	599.18
384.97	601.52
385.17	631.94
385.36	622.58
385.56	669.39
385.75	566.41
385.95	620.24
386.14	596.84
386.34	589.82
386.53	638.97
386.72	624.92
386.92	716.20
387.11	683.44
387.31	711.52
387.50	669.39
387.70	674.07
387.89	547.69
388.09	690.46
388.28	669.39
388.48	704.50
388.67	760.67
388.86	727.91
389.06	800.46
389.25	723.23
389.45	744.29
389.64	784.08
389.84	734.93
390.03	812.17
390.22	809.83
390.42	746.63
390.61	688.12
390.81	709.18
391.00	734.93
391.19	854.30
391.39	760.67
391.58	844.93
391.78	880.04
391.97	805.14
392.16	716.20
392.36	772.38
392.55	877.70
392.75	844.93
392.94	858.98
393.13	837.91
393.33	809.83
393.52	741.95
393.71	898.77
393.91	858.98
394.10	861.32
394.29	910.47
394.49	842.59
394.68	910.47
394.88	868.34
395.07	990.05
395.26	863.66
395.46	936.21
395.65	1043.88
395.84	933.87
396.04	1057.92
396.23	931.53
396.42	1020.47
396.62	1006.43
396.81	1022.81
397.00	966.64
397.19	1067.28
397.39	954.94
397.58	1060.26
397.77	1046.22
397.97	1123.46
398.16	1001.75
398.35	1050.90
398.55	1039.20
398.74	1083.67
398.93	1081.33
399.12	1111.75
399.32	1174.95
399.51	1088.35
399.70	1118.78
399.90	1069.62
400.09	1210.06
400.28	1205.38
400.47	1240.48
400.67	1177.29
400.86	1221.76
401.05	1231.12
401.24	1144.52
401.44	1289.64
401.63	1275.59
401.82	1247.51
402.01	1263.89
402.21	1275.59
402.40	1359.85
402.59	1294.32
402.78	1343.47
402.97	1434.75
403.17	1383.26
403.36	1390.28
403.55	1313.04
403.74	1334.11
403.93	1462.83
404.13	1523.69
404.32	1350.49
404.51	1469.86
404.70	1504.96
404.89	1453.47
405.09	1680.50
405.28	1568.16
405.47	1523.69
405.66	1591.56
405.85	1582.20
406.05	1589.22
406.24	1703.91
406.43	1643.06
406.62	1682.85
406.81	1764.76
407.00	1582.20
407.20	1694.55
407.39	1764.76
407.58	1771.79
407.77	1792.85
407.96	1823.28
408.15	1739.02
408.34	1844.34
408.54	1863.07
408.73	1790.51
408.92	1842.00
409.11	1900.52
409.30	1856.04
409.49	1982.43
409.68	1940.30
409.87	1991.80
410.07	1984.77
410.26	1998.82
410.45	2047.97
410.64	2015.20
410.83	2052.65
411.02	2078.40
411.21	2146.27
411.40	2153.29
411.59	2115.84
411.78	2169.68
411.98	2165.00
412.17	2174.36
412.36	2249.25
412.55	2335.85
412.74	2225.85
412.93	2375.64
413.12	2239.89
413.31	2478.63
413.50	2382.67
413.69	2389.69
413.88	2518.42
414.07	2487.99
414.26	2429.48
414.45	2553.52
414.64	2593.31
414.83	2558.21
415.02	2518.42
415.22	2675.23
415.41	2576.93
415.60	2661.19
415.79	2736.09
415.98	2764.17
416.17	2759.49
416.36	2827.37
416.55	2698.64
416.74	2883.54
416.93	2904.60
417.12	2963.12
417.31	2939.71
417.50	3023.97
417.69	3073.12
417.88	2869.50
418.07	2932.69
418.26	2832.05
418.45	2951.42
418.64	3124.62
418.83	3066.10
419.02	3112.91
419.21	3103.55
419.39	3166.74
419.58	3166.74
419.77	3000.57
419.96	3194.83
420.15	3194.83
420.34	3265.05
420.53	3248.66
420.72	3414.84
420.91	3307.18
421.10	3358.67
421.29	3361.01
421.48	3330.58
421.67	3419.52
421.86	3288.45
422.05	3297.81
422.24	3372.71
422.43	3325.90
422.61	3487.40
422.80	3517.83
422.99	3494.42
423.18	3454.63
423.37	3471.01
423.56	3557.61
423.75	3480.38
423.94	3487.40
424.13	3225.26
424.32	3370.37
424.50	3557.61
424.69	3548.25
424.88	3616.13
425.07	3581.02
425.26	3382.07
425.45	3506.12
425.64	3543.57
425.83	3494.42
426.01	3758.90
426.20	3726.13
426.39	3644.21
426.58	3492.08
426.77	3581.02
426.96	3653.58
427.15	3468.67
427.33	3674.64
427.52	3681.66
427.71	3637.19
427.90	3744.86
428.09	3641.87
428.28	3723.79
428.46	3845.50
428.65	3733.15
428.84	3822.09
429.03	4032.74
429.22	3810.39
429.40	3964.87
429.59	3948.48
429.78	3772.94
429.97	3747.20
430.16	3791.67
430.34	3911.04
430.53	4065.51
430.72	4014.02
430.91	3999.98
431.10	3894.65
431.28	4009.34
431.47	4100.62
431.66	4044.45
431.85	4086.58
432.03	4334.67
432.22	4245.73
432.41	4102.96
432.60	4198.92
432.79	4121.68
432.97	4297.22
433.16	4269.14
433.35	4252.75
433.54	4154.45
433.72	4313.61
433.91	4475.10
434.10	4358.08
434.28	4369.78
434.47	4428.29
434.66	4381.48
434.85	4407.23
435.03	4484.47
435.22	4580.43
435.41	4674.05
435.59	4484.47
435.78	4681.07
435.97	4608.51
436.16	4535.96
436.34	4594.47
436.53	4631.92
436.72	4697.46
436.90	4751.29
437.09	4835.55
437.28	4734.90
437.46	4755.97
437.65	4870.65
437.84	4816.82
438.02	4912.78
438.21	4760.65
438.40	4863.63
438.58	4784.06
438.77	5034.49
438.96	4877.68
439.14	5128.11
439.33	5090.67
439.52	5130.45
439.70	5055.56
439.89	5249.82
440.08	5165.56
440.26	5334.08
440.45	5308.34
440.63	5294.29
440.82	5434.72
441.01	5451.11
441.19	5479.19
441.38	5633.67
441.57	5411.32
441.75	5371.53
441.94	5713.25
442.12	5678.14
442.31	5776.44
442.50	5640.69
442.68	5612.60
442.87	5738.99
443.05	5907.51
443.24	5888.79
443.43	5596.22
443.61	5837.30
443.80	6118.16
443.98	5860.70
444.17	5692.18
444.35	6080.71
444.54	6047.94
444.73	5987.09
444.91	5783.46
445.10	5900.49
445.28	5849.00
445.47	5951.98
445.65	5949.64
445.84	6071.35
446.02	6153.27
446.21	5961.34
446.39	6092.41
446.58	5980.07
446.77	6108.80
446.95	6057.31
447.14	6052.63
447.32	5947.30
447.51	6045.60
447.69	6080.71
447.88	5973.05
448.06	6160.29
448.25	6179.01
448.43	6127.52
448.62	6239.87
448.80	6253.91
448.99	6253.91
449.17	6340.51
449.36	6331.15
449.54	6340.51
449.73	6466.90
449.91	6417.75
450.10	6356.90
450.28	6399.02
450.46	6546.48
450.65	6293.70
450.83	6518.39
451.02	6448.18
451.20	6640.10
451.39	6483.28
451.57	6635.42
451.76	6562.86
451.94	6635.42
452.13	6609.67
452.31	6647.12
452.49	6647.12
452.68	6785.21
452.86	6686.91
453.05	6750.10
453.23	6888.20
453.42	6712.66
453.60	6677.55
453.78	6724.36
453.97	6743.08
454.15	6904.58
454.34	6780.53
454.52	6827.34
454.70	6841.39
454.89	7059.06
455.07	6993.52
455.26	7021.61
455.44	7314.17
455.62	7166.72
455.81	7037.99
455.99	7192.47
456.17	7229.91
456.36	7321.20
456.54	7379.71
456.73	7377.37
456.91	7503.76
457.09	7307.15
457.28	7658.23
457.46	7309.49
457.64	7604.40
457.83	7536.52
458.01	7536.52
458.19	7576.31
458.38	7506.10
458.56	7674.62
458.74	7590.36
458.93	7655.89
459.11	7709.72
459.29	7719.09
459.48	7843.14
459.66	7728.45
459.84	7906.33
460.03	7992.93
460.21	7941.44
460.39	8140.38
460.57	7927.39
460.76	7906.33
460.94	7988.25
461.12	7880.58
461.31	8035.06
461.49	8170.81
461.67	8028.04
461.85	8135.70
462.04	8002.29
462.22	8517.21
462.40	8145.06
462.59	8184.85
462.77	8353.37
462.95	8255.07
463.13	8269.11
463.32	8458.70
463.50	8194.22
463.68	8444.65
463.86	8479.76
464.05	8327.63
464.23	8369.76
464.41	8456.36
464.59	8442.31
464.78	8585.08
464.96	8559.34
465.14	8542.96
465.32	8652.96
465.50	8791.05
465.69	8587.43
465.87	8774.67
466.05	8557.00
466.23	8793.39
466.41	8774.67
466.60	8870.63
466.78	8659.98
466.96	8737.22
467.14	8835.52
467.32	8917.44
467.51	9029.79
467.69	8627.21
467.87	8922.12
468.05	8950.21
468.23	8718.50
468.41	8931.48
468.60	8865.95
468.78	9116.39
468.96	8973.61
469.14	9146.81
469.32	9305.97
469.50	8947.87
469.69	9135.11
469.87	9179.58
470.05	9430.02
470.23	9345.76
470.41	9486.19
470.59	9554.07
470.77	9462.79
470.95	9530.66
471.14	9825.57
471.32	9366.82
471.50	9799.82
471.68	9738.97
471.86	9851.31
472.04	9832.59
472.22	9928.55
472.40	9825.57
472.58	10143.88
472.77	9975.36
472.95	10153.24
473.13	10317.08
473.31	10132.18
473.49	10244.52
473.67	10235.16
473.85	10057.28
474.03	10462.19
474.21	10455.17
474.39	10476.24
474.57	10604.97
474.75	10761.78
474.93	10736.04
475.12	10630.71
475.30	10726.68
475.48	10972.43
475.66	11185.42
475.84	10705.61
476.02	11112.86
476.20	11016.90
476.38	11363.30
476.56	11454.58
476.74	11342.24
476.92	11400.75
477.10	11569.27
477.28	11482.67
477.46	11482.67
477.64	11669.91
477.82	11763.53
478.00	12175.47
478.18	12154.40
478.36	12238.66
478.54	11997.59
478.72	12201.21
478.90	12313.56
479.08	12849.54
479.26	12442.29
479.44	12774.64
479.62	12833.16
479.80	12833.16
479.98	13097.64
480.16	13254.45
480.34	13111.68
480.52	13135.09
480.70	13406.59
480.88	13214.66
481.06	13598.51
481.24	13664.05
481.41	14012.79
481.59	13813.84
481.77	13994.06
481.95	13926.19
482.13	14185.99
482.31	13991.72
482.49	14391.95
482.67	14473.87
482.85	14583.88
483.03	15026.24
483.21	14775.80
483.39	15225.18
483.57	14977.09
483.74	15213.48
483.92	15421.79
484.10	15435.83
484.28	15557.54
484.46	15644.14
484.64	16077.14
484.82	15487.32
485.00	15782.23
485.18	16468.01
485.35	16276.09
485.53	16507.80
485.71	16430.56
485.89	16519.50
486.07	16730.15
486.25	16945.48
486.43	16996.97
486.61	17191.23
486.78	17315.28
486.96	17350.39
487.14	17722.54
487.32	17729.56
487.50	17647.64
487.68	18277.24
487.85	18228.09
488.03	18040.85
488.21	18675.13
488.39	18637.69
488.57	18752.37
488.75	19168.99
488.92	19035.58
489.10	19161.97
489.28	19365.59
489.46	19735.40
489.64	19180.69
489.81	20049.03
489.99	19882.85
490.17	20100.52
490.35	20505.43
490.53	20240.95
490.70	20402.45
490.88	20374.36
491.06	20606.08
491.24	20669.27
491.41	21060.14
491.59	21219.30
491.77	21085.89
491.95	21488.46
492.13	21355.05
492.30	21413.56
492.48	21689.74
492.66	21570.38
492.84	21710.81
493.01	22141.47
493.19	22202.32
493.37	21942.52
493.54	22284.24
493.72	22569.79
493.90	22820.22
494.08	22946.61
494.25	23419.40
494.43	23133.86
494.61	23030.87
494.79	23386.63
494.96	23328.12
495.14	23735.37
495.32	23847.72
495.49	24070.07
495.67	23906.23
495.85	24205.82
496.02	24306.46
496.20	24252.63
496.38	24460.94
496.55	24444.56
496.73	24933.73
496.91	24982.88
497.09	25078.84
497.26	25099.90
497.44	25127.99
497.62	25450.99
497.79	25830.15
497.97	25511.84
498.14	25949.52
498.32	25883.98
498.50	26061.87
498.67	26052.50
498.85	26221.02
499.03	26321.66
499.20	26705.51
499.38	26588.49
499.56	27051.91
499.73	26852.97
499.91	26705.51
500.08	27316.39
500.26	26848.29
500.44	26913.82
500.61	27257.88
500.79	27468.53
500.97	27454.48
501.14	27470.87
501.32	27875.78
501.49	27871.10
501.67	27831.31
501.84	28158.99
502.02	28006.85
502.20	28521.77
502.37	28290.06
502.55	28760.50
502.72	28879.87
502.90	28622.41
503.07	28617.73
503.25	28727.74
503.43	28481.98
503.60	29001.58
503.78	28952.43
503.95	28596.67
504.13	29078.82
504.30	29575.01
504.48	29778.64
504.65	29951.84
504.83	29783.32
505.01	29963.54
505.18	29282.44
505.36	29977.58
505.53	30197.59
505.71	30120.35
505.88	30309.94
506.06	29804.38
506.23	30242.06
506.41	30068.86
506.58	30714.85
506.76	30536.97
506.93	30988.69
507.11	30820.17
507.28	31044.87
507.46	31208.70
507.63	31295.30
507.81	31236.79
507.98	30764.00
508.16	31431.05
508.33	31709.58
508.50	31831.29
508.68	32102.79
508.85	31910.86
509.03	32091.09
509.20	32018.53
509.38	31826.60
509.55	32245.56
509.73	32460.89
509.90	32591.96
510.08	32744.09
510.25	32737.07
510.42	32458.55
510.60	32315.78
510.77	32671.54
510.95	33106.88
511.12	32638.77
511.30	33574.98
511.47	33488.38
511.64	33127.94
511.82	33209.86
511.99	33191.14
512.17	33546.90
512.34	33420.51
512.51	33876.91
512.69	34108.63
512.86	33986.92
513.04	34281.83
513.21	34501.84
513.38	34146.08
513.56	34307.57
513.73	34108.63
513.90	34703.12
514.08	34642.27
514.25	34852.92
514.43	34672.70
514.60	34735.89
514.77	34457.37
514.95	35075.27
515.12	34864.62
515.29	35122.08
515.47	35342.09
515.64	35707.21
515.81	35438.05
515.99	35278.89
516.16	35456.78
516.33	35594.87
516.51	35967.01
516.68	35688.49
516.85	36051.27
517.03	36477.25
517.20	36428.10
517.37	36119.15
517.54	36016.16
517.72	36411.71
517.89	35824.24
518.06	36725.35
518.24	36306.39
518.41	36402.35
518.58	36676.19
518.75	36016.16
518.93	36753.43
519.10	37022.59
519.27	36917.27
519.45	36989.83
519.62	37415.80
519.79	37504.74
519.96	37275.37
520.14	37502.40
520.31	37214.52
520.48	37406.44
520.65	37401.76
520.83	37914.34
521.00	37558.58
521.17	37638.15
521.34	37731.78
521.52	38099.24
521.69	37895.61
521.86	37874.55
522.03	38342.66
522.20	38602.46
522.38	38506.49
522.55	38412.87
522.72	38658.63
522.89	38391.81
523.07	38714.80
523.24	38377.76
523.41	38656.29
523.58	38644.59
523.75	39400.58
523.92	38806.08
524.10	39210.99
524.27	39693.15
524.44	39639.31
524.61	39796.13
524.78	39541.01
524.96	39297.59
525.13	39454.41
525.30	39826.56
525.47	39716.55
525.64	39739.96
525.81	40327.43
525.98	40114.44
526.16	39732.93
526.33	40165.93
526.50	40329.77
526.67	40100.40
526.84	40823.62
527.01	40252.53
527.18	40378.92
527.36	40994.48
527.53	40610.64
527.70	40615.32
527.87	40484.25
528.04	40666.81
528.21	40591.91
528.38	40872.78
528.55	40849.37
528.72	41134.92
528.89	41221.52
529.07	41057.68
529.24	40907.88
529.41	41523.44
529.58	40697.24
529.75	41102.15
529.92	41593.66
530.09	41202.79
530.26	41670.90
530.43	41584.30
530.60	41446.21
530.77	42167.09
530.94	41825.37
531.11	41804.31
531.28	41996.23
531.46	42487.74
531.63	42321.57
531.80	41956.44
531.97	42478.38
532.14	42476.04
532.31	42096.88
532.48	42134.32
532.65	42801.38
532.82	42408.17
532.99	42295.82
533.16	42691.37
533.33	42581.37
533.50	42728.82
533.67	42752.23
533.84	42506.47
534.01	42497.11
534.18	42913.72
534.35	43316.29
534.52	42932.45
534.69	43540.99
534.86	43189.91
535.03	42932.45
535.20	43023.73
535.37	43241.40
535.54	43564.39
535.71	43693.12
535.88	43470.77
536.05	43573.75
536.22	44116.76
536.38	43606.52
536.55	43824.19
536.72	43599.50
536.89	43777.38
537.06	44027.82
537.23	44273.57
537.40	44119.10
537.57	44170.59
537.74	43796.10
537.91	44559.12
538.08	44430.39
538.25	44140.16
538.42	44060.58
538.59	44479.54
538.75	44105.06
538.92	44601.25
539.09	44847.00
539.26	44650.40
539.43	44566.14
539.60	44629.34
539.77	44652.74
539.94	44978.07
540.11	44720.62
540.28	45069.36
540.44	45275.32
540.61	44868.07
540.78	44854.03
540.95	45059.99
541.12	45062.33
541.29	44917.22
541.46	45027.23
541.62	45235.53
541.79	45359.58
541.96	44734.66
542.13	45411.07
542.30	45813.65
542.47	45619.38
542.63	45237.87
542.80	45764.49
542.97	45715.34
543.14	45958.76
543.31	45642.79
543.48	46131.96
543.64	46433.89
543.81	46211.54
543.98	46438.57
544.15	46237.28
544.32	46124.94
544.48	46850.50
544.65	46108.55
544.82	46162.39
544.99	46080.47
545.16	46593.04
545.32	46124.94
545.49	46981.57
545.66	46852.84
545.83	46550.91
546.00	46724.11
546.16	46518.15
546.33	46440.91
546.50	46742.84
546.67	47014.34
546.83	46548.57
547.00	46373.03
547.17	46864.55
547.34	46681.98
547.50	46735.82
547.67	47199.24
547.84	47063.49
548.00	47512.88
548.17	47730.54
548.34	47491.81
548.51	47959.92
548.67	47241.37
548.84	47466.06
549.01	47276.48
549.18	47217.97
549.34	47423.93
549.51	47026.04
549.68	47398.19
549.84	47590.11
550.01	47622.88
550.18	47419.25
550.34	47587.77
550.51	47524.58
550.68	47810.12
550.84	47402.87
551.01	48062.90
551.18	48023.11
551.34	47634.58
551.51	48030.13
551.68	48217.38
551.84	47950.56
552.01	47828.85
552.18	47812.46
552.34	47833.53
552.51	47547.98
552.68	48254.82
552.84	48107.37
553.01	48196.31
553.18	48102.69
553.34	48292.27
553.51	48196.31
553.67	48484.20
553.84	48339.08
554.01	48523.99
554.17	48376.53
554.34	48488.88
554.51	48811.87
554.67	49305.73
554.84	49050.61
555.00	48701.87
555.17	48575.48
555.33	49057.63
555.50	48626.97
555.67	48294.61
555.83	48449.09
556.00	48846.98
556.16	49258.91
556.33	49277.64
556.50	49008.48
556.66	48851.66
556.83	49017.84
556.99	48954.64
557.16	48891.45
557.32	48886.77
557.49	49244.87
557.65	48924.22
557.82	49352.54
557.98	49457.86
558.15	49371.26
558.32	49457.86
558.48	49258.91
558.65	49095.08
558.81	49174.66
558.98	49102.10
559.14	49083.37
559.31	49553.82
559.47	49296.36
559.64	49504.67
559.80	49563.18
559.97	49546.80
560.13	49219.13
560.30	49193.38
560.46	49268.28
560.63	49595.95
560.79	49525.74
560.96	50234.92
561.12	49457.86
561.29	49277.64
561.45	49249.55
561.61	49750.43
561.78	49879.16
561.94	49172.31
562.11	49504.67
562.27	49361.90
562.44	49822.98
562.60	49848.73
562.77	49701.28
562.93	49694.25
563.10	50113.21
563.26	49661.49
563.42	50363.65
563.59	49619.36
563.75	49471.90
563.92	49811.28
564.08	49621.70
564.24	49825.32
564.41	49954.05
564.57	49598.29
564.74	49815.96
564.90	50232.58
565.07	49886.18
565.23	49769.15
565.39	49970.44
565.56	49996.18
565.72	49944.69
565.88	50071.08
566.05	50068.74
566.21	50340.24
566.38	50017.25
566.54	50087.46
566.70	50220.87
566.87	50323.86
567.03	49734.04
567.19	50042.99
567.36	50017.25
567.52	50099.17
567.68	50014.91
567.85	50197.47
568.01	50349.60
568.17	50113.21
568.34	50330.88
568.50	50141.30
568.66	50164.70
568.83	49993.84
568.99	50054.70
569.15	50377.69
569.32	50298.11
569.48	49921.29
569.64	50347.26
569.81	50555.57
569.97	50354.29
570.13	50204.49
570.30	50426.84
570.46	50419.82
570.62	50351.94
570.78	50426.84
570.95	50204.49
571.11	50696.00
571.27	50377.69
571.43	50663.24
571.60	50677.28
571.76	50410.46
571.92	50321.52
572.09	50330.88
572.25	50536.85
572.41	50108.53
572.57	50398.76
572.74	50597.70
572.90	50721.75
573.06	50461.95
573.22	50356.63
573.38	50693.66
573.55	50459.61
573.71	50607.06
573.87	50560.25
574.03	50450.25
574.20	50649.19
574.36	50714.73
574.52	50447.91
574.68	50471.31
574.84	50911.33
575.01	50873.88
575.17	50747.50
575.33	50630.47
575.49	50349.60
575.65	50876.22
575.82	50637.49
575.98	50363.65
576.14	50878.57
576.30	50653.87
576.46	50735.79
576.62	50780.26
576.79	50791.97
576.95	50752.18
577.11	50571.96
577.27	50705.37
577.43	50548.55
577.59	50543.87
577.75	50487.70
577.92	50543.87
578.08	50354.29
578.24	50820.05
578.40	50766.22
578.56	50850.48
578.72	50759.20
578.88	50859.84
579.04	50920.70
579.21	50836.44
579.37	50426.84
579.53	50796.65
579.69	50817.71
579.85	51086.87
580.01	51004.95
580.17	51058.79
580.33	51030.70
580.49	50777.92
580.65	50960.48
580.82	50602.38
580.98	50501.74
581.14	50541.53
581.30	51051.76
581.46	50932.40
581.62	51241.35
581.78	51313.90
581.94	50836.44
582.10	50845.80
582.26	50923.04
582.42	50733.45
582.58	50780.26
582.74	50625.79
582.90	50979.21
583.06	50721.75
583.22	50789.62
583.38	50988.57
583.54	51358.38
583.70	51231.99
583.86	51070.49
584.02	50649.19
584.18	50960.48
584.34	50937.08
584.50	50848.14
584.66	50988.57
584.82	50459.61
584.98	50932.40
585.14	51171.13
585.30	50899.63
585.46	51023.68
585.62	51037.72
585.78	50916.01
585.94	50728.77
586.10	50824.73
586.26	50504.08
586.42	51065.81
586.58	51363.06
586.74	50639.83
586.90	51175.81
587.06	50979.21
587.22	51161.77
587.38	51054.11
587.54	51365.40
587.70	51742.22
587.86	51136.02
588.02	51117.30
588.18	51035.38
588.34	50904.31
588.49	51339.65
588.65	50972.19
588.81	51168.79
588.97	51526.89
589.13	51405.19
589.29	51402.85
589.45	51241.35
589.61	51119.64
589.77	51332.63
589.93	51105.60
590.08	51145.39
590.24	51435.61
590.40	51484.76
