SpectraSuite Data File
++++++++++++++++++++++++++++++++++++
Date: Fri Oct 04 11:40:00 GMT-05:00 2013
User: price-jones
Dark Spectrum Present: No
Reference Spectrum Present: No
Number of Sampled Component Spectra: 1
Spectrometers: USB2+H05261
Integration Time (usec): 100000 (USB2+H05261)
Spectra Averaged: 1 (USB2+H05261)
Boxcar Smoothing: 0 (USB2+H05261)
Correct for Electrical Dark: No (USB2+H05261)
Strobe/Lamp Enabled: No (USB2+H05261)
Correct for Detector Non-linearity: No (USB2+H05261)
Correct for Stray Light: No (USB2+H05261)
Number of Pixels in Processed Spectrum: 2048
>>>>>Begin Processed Spectral Data<<<<<
365.73	44.47
365.92	44.47
366.12	44.47
366.32	0.00
366.52	0.00
366.72	9.36
366.91	0.00
367.11	0.00
367.31	0.00
367.51	0.00
367.70	0.00
367.90	0.00
368.10	0.00
368.30	0.00
368.49	0.00
368.69	0.00
368.89	0.00
369.09	0.00
369.28	0.00
369.48	0.00
369.68	0.00
369.87	4.68
370.07	63.19
370.27	60.85
370.47	229.37
370.66	667.05
370.86	704.50
371.06	772.38
371.25	713.86
371.45	737.27
371.65	814.51
371.84	753.65
372.04	748.97
372.24	779.40
372.44	833.23
372.63	861.32
372.83	835.57
373.03	830.89
373.22	896.43
373.42	863.66
373.62	873.02
373.81	903.45
374.01	896.43
374.21	961.96
374.40	936.21
374.60	997.07
374.79	887.06
374.99	917.49
375.19	1050.90
375.38	1090.69
375.58	1015.79
375.78	976.00
375.97	1055.58
376.17	1137.50
376.37	1046.22
376.56	1128.14
376.76	1020.47
376.95	1027.50
377.15	1032.18
377.35	1160.91
377.54	1149.20
377.74	1118.78
377.93	1130.48
378.13	1181.97
378.33	1210.06
378.52	1116.44
378.72	1296.66
378.91	1210.06
379.11	1268.57
379.31	1191.33
379.50	1121.12
379.70	1327.08
379.89	1259.21
380.09	1263.89
380.28	1327.08
380.48	1296.66
380.68	1268.57
380.87	1329.42
381.07	1338.79
381.26	1329.42
381.46	1416.02
381.65	1348.15
381.85	1369.21
382.04	1331.76
382.24	1514.33
382.43	1418.36
382.63	1306.02
382.83	1467.52
383.02	1423.05
383.22	1432.41
383.41	1355.17
383.61	1465.18
383.80	1425.39
384.00	1481.56
384.19	1577.52
384.39	1542.41
384.58	1521.35
384.78	1540.07
384.97	1551.78
385.17	1586.88
385.36	1556.46
385.56	1614.97
385.75	1572.84
385.95	1584.54
386.14	1605.61
386.34	1610.29
386.53	1542.41
386.72	1607.95
386.92	1654.76
387.11	1708.59
387.31	1678.16
387.50	1703.91
387.70	1781.15
387.89	1713.27
388.09	1631.35
388.28	1685.19
388.48	1694.55
388.67	1727.32
388.86	1746.04
389.06	1795.19
389.25	1926.26
389.45	1902.86
389.64	1865.41
389.84	1923.92
390.03	1849.02
390.22	1856.04
390.42	1867.75
390.61	1923.92
390.81	1895.83
391.00	1881.79
391.19	2026.90
391.39	1966.05
391.58	1998.82
391.78	1970.73
391.97	2076.06
392.16	2104.14
392.36	2139.25
392.55	1982.43
392.75	2008.18
392.94	2134.57
393.13	2174.36
393.33	2129.89
393.52	2235.21
393.71	2216.49
393.91	2282.02
394.10	2232.87
394.29	2239.89
394.49	2207.13
394.68	2389.69
394.88	2286.70
395.07	2249.25
395.26	2342.88
395.46	2324.15
395.65	2413.09
395.84	2448.20
396.04	2635.44
396.23	2415.43
396.42	2363.94
396.62	2579.27
396.81	2497.35
397.00	2518.42
397.19	2555.86
397.39	2630.76
397.58	2595.65
397.77	2612.04
397.97	2635.44
398.16	2649.49
398.35	2726.72
398.55	2635.44
398.74	2796.94
398.93	2888.22
399.12	2708.00
399.32	2708.00
399.51	2850.77
399.70	2782.90
399.90	2696.30
400.09	2782.90
400.28	2834.39
400.47	2925.67
400.67	3056.74
400.86	3087.17
401.05	3063.76
401.24	2977.16
401.44	3016.95
401.63	3089.51
401.82	3155.04
402.01	3009.93
402.21	3143.34
402.40	3045.04
402.59	3173.77
402.78	3164.40
402.97	3225.26
403.17	3325.90
403.36	3325.90
403.55	3290.79
403.74	3351.65
403.93	3445.27
404.13	3517.83
404.32	3379.73
404.51	3342.28
404.70	3616.13
404.89	3449.95
405.09	3527.19
405.28	3515.48
405.47	3740.18
405.66	3569.32
405.85	3660.60
406.05	3723.79
406.24	3618.47
406.43	3899.33
406.62	3693.37
406.81	3798.69
407.00	3681.66
407.20	3859.54
407.39	3665.28
407.58	3859.54
407.77	3925.08
407.96	4018.70
408.15	4079.55
408.34	3971.89
408.54	4053.81
408.73	4053.81
408.92	4032.74
409.11	4152.11
409.30	4128.70
409.49	4077.21
409.68	4170.83
409.87	4367.44
410.07	4451.70
410.26	4362.76
410.45	4362.76
410.64	4404.89
410.83	4313.61
411.02	4395.53
411.21	4624.90
411.40	4711.50
411.59	4540.64
411.78	4795.76
411.98	4748.95
412.17	4727.88
412.36	4760.65
412.55	4943.21
412.74	4987.68
412.93	5123.43
413.12	4898.74
413.31	5221.74
413.50	5060.24
413.69	5109.39
413.88	5322.38
414.07	5252.16
414.26	5294.29
414.45	5245.14
414.64	5338.76
414.83	5380.89
415.02	5352.81
415.22	5619.63
415.41	5696.86
415.60	5582.18
415.79	5696.86
415.98	5675.80
416.17	5738.99
416.36	5689.84
416.55	5823.25
416.74	5884.11
416.93	5706.23
417.12	6001.13
417.31	6076.03
417.50	6099.44
417.69	6291.36
417.88	6377.96
418.07	6274.98
418.26	6246.89
418.45	6413.07
418.64	6590.95
418.83	6452.86
419.02	6443.49
419.21	6443.49
419.39	6654.14
419.58	6471.58
419.77	6427.11
419.96	6581.59
420.15	6696.27
420.34	6623.72
420.53	6602.65
420.72	6822.66
420.91	7054.37
421.10	7012.24
421.29	7101.19
421.48	7030.97
421.67	6937.35
421.86	6808.62
422.05	7225.23
422.24	7035.65
422.43	7059.06
422.61	7014.59
422.80	7346.94
422.99	7276.73
423.18	7225.23
423.37	7328.22
423.56	7283.75
423.75	7265.02
423.94	7183.10
424.13	6832.02
424.32	7115.23
424.50	7459.29
424.69	7421.84
424.88	7435.88
425.07	7316.51
425.26	7215.87
425.45	7250.98
425.64	7447.58
425.83	7353.96
426.01	7365.67
426.20	7279.07
426.39	7480.35
426.58	7461.63
426.77	7559.93
426.96	7620.78
427.15	7475.67
427.33	7789.30
427.52	7672.28
427.71	7702.70
427.90	7637.17
428.09	7801.01
428.28	7995.27
428.46	7887.61
428.65	7978.89
428.84	8243.37
429.03	8168.47
429.22	7950.80
429.40	8189.53
429.59	8219.96
429.78	7899.31
429.97	7798.66
430.16	7932.08
430.34	8348.69
430.53	8131.02
430.72	8423.59
430.91	8266.77
431.10	8376.78
431.28	8554.66
431.47	8528.91
431.66	8585.08
431.85	8535.93
432.03	8674.03
432.22	8901.06
432.41	8854.25
432.60	8908.08
432.79	8720.84
432.97	8879.99
433.16	8943.19
433.35	8938.51
433.54	9078.94
433.72	8994.68
433.91	8786.37
434.10	9205.33
434.28	9041.49
434.47	9186.60
434.66	9310.65
434.85	9507.26
435.03	9493.21
435.22	9607.90
435.41	10040.90
435.59	9994.09
435.78	9851.31
435.97	9870.04
436.16	9769.40
436.34	9593.86
436.53	9710.88
436.72	10256.23
436.90	9687.48
437.09	9774.08
437.28	9706.20
437.46	9874.72
437.65	9764.72
437.84	9933.23
438.02	10169.63
438.21	10136.86
438.40	9907.49
438.58	10537.09
438.77	10279.63
438.96	10445.81
439.14	10768.80
439.33	10574.54
439.52	10855.40
439.70	10574.54
439.89	11110.52
440.08	10925.62
440.26	11302.45
440.45	10902.22
440.63	11316.49
440.82	11372.66
441.01	11367.98
441.19	11592.67
441.38	11777.58
441.57	11667.57
441.75	11868.86
441.94	12032.69
442.12	12135.68
442.31	12283.13
442.50	12081.85
442.68	12028.01
442.87	12318.24
443.05	12163.76
443.24	12365.05
443.43	12287.81
443.61	12252.70
443.80	12828.48
443.98	12395.48
444.17	12152.06
444.35	12437.61
444.54	12779.32
444.73	12666.98
444.91	12360.37
445.10	12407.18
445.28	12397.82
445.47	12248.02
445.65	12524.21
445.84	12608.47
446.02	12819.11
446.21	12798.05
446.39	12674.00
446.58	13097.64
446.77	12615.49
446.95	12594.42
447.14	12896.35
447.32	13088.28
447.51	12858.90
447.69	13181.90
447.88	13046.15
448.06	13029.76
448.25	12706.77
448.43	13088.28
448.62	12809.75
448.80	13008.70
448.99	13109.34
449.17	13287.22
449.36	13104.66
449.54	13661.71
449.73	13444.04
449.91	13551.70
450.10	13600.85
450.28	13727.24
450.46	13769.37
450.65	13820.86
450.83	13860.65
451.02	13895.76
451.20	14239.82
451.39	13989.38
451.57	13947.25
451.76	13657.03
451.94	13900.44
452.13	14104.07
452.31	13891.08
452.49	13827.88
452.68	14448.13
452.86	14305.35
453.05	14436.42
453.23	14214.07
453.42	14480.89
453.60	14211.73
453.78	14471.53
453.97	14628.35
454.15	14520.68
454.34	14300.67
454.52	14963.04
454.70	14635.37
454.89	14911.55
455.07	14925.60
455.26	15023.90
455.44	15091.77
455.62	15033.26
455.81	15140.93
455.99	15264.97
456.17	15384.34
456.36	15129.22
456.54	15651.16
456.73	15992.88
456.91	15974.16
457.09	15910.96
457.28	16264.38
457.46	15854.79
457.64	15917.98
457.83	16358.00
458.01	15917.98
458.19	16128.63
458.38	16198.85
458.56	16350.98
458.74	16418.86
458.93	16329.92
459.11	16500.78
459.29	16779.30
459.48	16491.41
459.66	16634.19
459.84	16807.39
460.03	16994.63
460.21	16540.57
460.39	16992.29
460.57	16905.69
460.76	16844.84
460.94	17090.59
461.12	17081.23
461.31	17207.62
461.49	16978.25
461.67	17121.02
461.85	17591.47
462.04	17329.33
462.22	17795.09
462.40	17947.23
462.59	17453.37
462.77	17837.22
462.95	17764.67
463.13	17731.90
463.32	17551.68
463.50	18125.11
463.68	17935.53
463.86	18019.78
464.05	18003.40
464.23	17877.01
464.41	18436.40
464.59	18164.90
464.78	18614.28
464.96	18410.65
465.14	18120.43
465.32	18565.13
465.50	18721.95
465.69	18951.32
465.87	18628.32
466.05	18707.90
466.23	18644.71
466.41	18956.00
466.60	19183.03
466.78	18698.54
466.96	18747.69
467.14	18764.07
467.32	19178.35
467.51	19527.09
467.69	18862.38
467.87	18970.04
468.05	19330.48
468.23	19047.28
468.41	19103.45
468.60	19328.14
468.78	19723.69
468.96	19431.13
469.14	19850.08
469.32	20023.28
469.50	19332.82
469.69	20044.35
469.87	20011.58
470.05	20477.35
470.23	20357.98
470.41	20315.85
470.59	20528.84
470.77	20470.33
470.95	20680.97
471.14	20989.92
471.32	20243.29
471.50	20858.85
471.68	20922.05
471.86	21001.63
472.04	21387.82
472.22	21432.29
472.40	21006.31
472.58	21214.62
472.77	21640.59
472.95	22008.06
473.13	22244.45
473.31	21823.16
473.49	21671.02
473.67	22078.27
473.85	22317.01
474.03	22647.02
474.21	22731.28
474.39	22480.85
474.57	23173.64
474.75	23119.81
474.93	23147.90
475.12	23452.17
475.30	23440.47
475.48	23328.12
475.66	23976.45
475.84	23711.97
476.02	24039.64
476.20	23833.68
476.38	24287.74
476.56	24938.41
476.74	24842.45
476.92	24844.79
477.10	24444.56
477.28	24533.50
477.46	25041.39
477.64	25380.77
477.82	25848.88
478.00	26492.52
478.18	26136.76
478.36	26455.08
478.54	26773.39
478.72	26735.94
478.90	26895.10
479.08	27054.25
479.26	27190.00
479.44	27454.48
479.62	28189.41
479.80	27803.22
479.98	28554.54
480.16	28182.39
480.34	28643.48
480.52	28819.02
480.70	29132.65
480.88	28811.99
481.06	29397.13
481.24	29130.31
481.41	30043.12
481.59	30015.03
481.77	30326.32
481.95	30775.70
482.13	30995.71
482.31	30740.60
482.49	31559.78
482.67	31653.40
482.85	31620.64
483.03	32369.61
483.21	32411.74
483.39	32580.26
483.57	32914.95
483.74	32905.59
483.92	33116.24
484.10	33029.64
484.28	33897.98
484.46	34597.80
484.64	34550.99
484.82	34284.17
485.00	34904.41
485.18	35119.74
485.35	36093.40
485.53	36084.04
485.71	35564.44
485.89	36510.02
486.07	36315.75
486.25	36788.54
486.43	36818.97
486.61	37675.60
486.78	37642.84
486.96	37888.59
487.14	38557.99
487.32	38476.07
487.50	38885.66
487.68	38490.11
487.85	39721.23
488.03	39695.49
488.21	39908.47
488.39	40512.33
488.57	40722.98
488.75	40617.66
488.92	41029.59
489.10	41521.10
489.28	41745.80
489.46	42515.83
489.64	41518.76
489.81	43189.91
489.99	42782.65
490.17	43358.42
490.35	43594.82
490.53	43393.53
490.70	44151.87
490.88	44147.18
491.06	44732.32
491.24	44458.48
491.41	44926.58
491.59	45310.43
491.77	45591.30
491.95	45977.48
492.13	45710.66
492.30	46316.86
492.48	46248.99
492.66	46845.82
492.84	46298.14
493.01	47334.99
493.19	47075.19
493.37	47913.11
493.54	47798.42
493.72	47976.30
493.90	47819.49
494.08	48549.73
494.25	49008.48
494.43	48914.86
494.61	49294.02
494.79	49404.03
494.96	49825.32
495.14	49834.69
495.32	49958.73
495.49	50272.37
495.67	50557.91
495.85	50492.38
496.02	51281.14
496.20	51079.85
496.38	50990.91
496.55	51241.35
496.73	51885.00
496.91	51468.38
497.09	52009.04
497.26	52545.03
497.44	51950.53
497.62	52130.75
497.79	52774.40
497.97	52523.96
498.14	52776.74
498.32	53092.71
498.50	53057.60
498.67	53652.10
498.85	53499.97
499.03	53794.87
499.20	53694.23
499.38	53909.56
499.56	54071.06
499.73	54096.80
499.91	54335.54
500.08	54529.80
500.26	54101.48
500.44	54625.76
500.61	54726.41
500.79	54466.61
500.97	54848.11
501.14	55489.42
501.32	55327.92
501.49	55402.82
501.67	55281.11
501.84	55285.79
502.02	55356.01
502.20	55711.77
502.37	56095.62
502.55	55856.88
502.72	56191.58
502.90	55805.39
503.07	55845.18
503.25	56224.35
503.43	56097.96
503.60	56762.67
503.78	56566.07
503.95	56584.79
504.13	56320.31
504.30	56743.95
504.48	56488.83
504.65	56959.28
504.83	57080.98
505.01	57446.11
505.18	56982.68
505.36	57284.61
505.53	57301.00
505.71	57455.47
505.88	57544.41
506.06	57406.32
506.23	57801.87
506.41	57743.36
506.58	57738.68
506.76	57902.51
506.93	58080.39
507.11	58012.52
507.28	58143.59
507.46	58382.32
507.63	58358.92
507.81	58541.48
507.98	58298.06
508.16	58562.54
508.33	58398.71
508.50	58550.84
508.68	58714.68
508.85	59011.93
509.03	58969.80
509.20	59166.40
509.38	59152.36
509.55	59278.75
509.73	59133.63
509.90	59370.03
510.08	59304.49
510.25	59465.99
510.42	59639.19
510.60	59831.11
510.77	59744.51
510.95	59826.43
511.12	59512.80
511.30	59952.82
511.47	59950.48
511.64	60055.81
511.82	60175.17
511.99	60294.54
512.17	60317.95
512.34	60210.28
512.51	60388.16
512.69	60544.98
512.86	60584.77
513.04	60804.78
513.21	60893.72
513.38	60924.14
513.56	60989.68
513.73	60823.50
513.90	60680.73
514.08	60851.59
514.25	61104.37
514.43	61244.80
514.60	61162.88
514.77	61244.80
514.95	61474.17
515.12	61172.24
515.29	61209.69
515.47	61544.39
515.64	61605.24
515.81	61577.15
515.99	61752.69
516.16	62026.54
516.33	61804.19
516.51	61958.66
516.68	61680.14
516.85	61806.53
517.03	61986.75
517.20	62185.69
517.37	62071.01
517.54	62323.78
517.72	62319.10
517.89	62190.37
518.06	62227.82
518.24	62298.04
518.41	62347.19
518.58	62527.41
518.75	62431.45
518.93	62695.93
519.10	62660.82
519.27	63014.24
519.45	62574.22
519.62	62848.06
519.79	62812.96
519.96	62899.56
520.14	62951.05
520.31	62955.73
520.48	63185.10
520.65	63311.49
520.83	63161.70
521.00	63260.00
521.17	63082.12
521.34	63407.45
521.52	63372.34
521.69	63526.82
521.86	63693.00
522.03	63407.45
522.20	63693.00
522.38	63702.36
522.55	63847.47
522.72	63835.77
522.89	63779.60
523.07	63987.91
523.24	63971.52
523.41	64163.45
523.58	63870.88
523.75	64245.36
523.92	64051.10
524.10	64177.49
524.27	64306.22
524.44	64240.68
524.61	64402.18
524.78	64427.93
524.96	64498.14
525.13	64388.14
525.30	64640.92
525.47	64587.08
525.64	64608.15
525.81	64764.96
525.98	64860.93
526.16	64802.41
526.33	64776.67
526.50	65022.42
526.67	64554.32
526.84	64818.80
527.01	64781.35
527.18	64959.23
527.36	65160.51
527.53	65286.90
527.70	65186.26
527.87	65209.67
528.04	65165.20
528.21	65338.40
528.38	65324.35
528.55	65350.10
528.72	65467.12
528.89	65535.00
529.07	65303.29
529.24	65471.81
529.41	65535.00
529.58	65535.00
529.75	65474.15
529.92	65535.00
530.09	65535.00
530.26	65535.00
530.43	65535.00
530.60	65535.00
530.77	65535.00
530.94	65535.00
531.11	65535.00
531.28	65535.00
531.46	65535.00
531.63	65535.00
531.80	65535.00
531.97	65535.00
532.14	65535.00
532.31	65535.00
532.48	65535.00
532.65	65535.00
532.82	65535.00
532.99	65535.00
533.16	65535.00
533.33	65535.00
533.50	65535.00
533.67	65535.00
533.84	65535.00
534.01	65535.00
534.18	65535.00
534.35	65535.00
534.52	65535.00
534.69	65535.00
534.86	65535.00
535.03	65535.00
535.20	65535.00
535.37	65535.00
535.54	65535.00
535.71	65535.00
535.88	65535.00
536.05	65535.00
536.22	65535.00
536.38	65535.00
536.55	65535.00
536.72	65535.00
536.89	65535.00
537.06	65535.00
537.23	65535.00
537.40	65535.00
537.57	65535.00
537.74	65535.00
537.91	65535.00
538.08	65535.00
538.25	65535.00
538.42	65535.00
538.59	65535.00
538.75	65535.00
538.92	65535.00
539.09	65535.00
539.26	65535.00
539.43	65535.00
539.60	65535.00
539.77	65535.00
539.94	65535.00
540.11	65535.00
540.28	65535.00
540.44	65535.00
540.61	65535.00
540.78	65535.00
540.95	65535.00
541.12	65535.00
541.29	65535.00
541.46	65535.00
541.62	65535.00
541.79	65535.00
541.96	65535.00
542.13	65535.00
542.30	65535.00
542.47	65535.00
542.63	65535.00
542.80	65535.00
542.97	65535.00
543.14	65535.00
543.31	65535.00
543.48	65535.00
543.64	65535.00
543.81	65535.00
543.98	65535.00
544.15	65535.00
544.32	65535.00
544.48	65535.00
544.65	65535.00
544.82	65535.00
544.99	65535.00
545.16	65535.00
545.32	65535.00
545.49	65535.00
545.66	65535.00
545.83	65535.00
546.00	65535.00
546.16	65535.00
546.33	65535.00
546.50	65535.00
546.67	65535.00
546.83	65535.00
547.00	65535.00
547.17	65535.00
547.34	65535.00
547.50	65535.00
547.67	65535.00
547.84	65535.00
548.00	65535.00
548.17	65535.00
548.34	65535.00
548.51	65535.00
548.67	65535.00
548.84	65535.00
549.01	65535.00
549.18	65535.00
549.34	65535.00
549.51	65535.00
549.68	65535.00
549.84	65535.00
550.01	65535.00
550.18	65535.00
550.34	65535.00
550.51	65535.00
550.68	65535.00
550.84	65535.00
551.01	65535.00
551.18	65535.00
551.34	65535.00
551.51	65535.00
551.68	65535.00
551.84	65535.00
552.01	65535.00
552.18	65535.00
552.34	65535.00
552.51	65535.00
552.68	65535.00
552.84	65535.00
553.01	65535.00
553.18	65535.00
553.34	65535.00
553.51	65535.00
553.67	65535.00
553.84	65535.00
554.01	65535.00
554.17	65535.00
554.34	65535.00
554.51	65535.00
554.67	65535.00
554.84	65535.00
555.00	65535.00
555.17	65535.00
555.33	65535.00
555.50	65535.00
555.67	65535.00
555.83	65535.00
556.00	65535.00
556.16	65535.00
556.33	65535.00
556.50	65535.00
556.66	65535.00
556.83	65535.00
556.99	65535.00
557.16	65535.00
557.32	65535.00
557.49	65535.00
557.65	65535.00
557.82	65535.00
557.98	65535.00
558.15	65535.00
558.32	65535.00
558.48	65535.00
558.65	65535.00
558.81	65535.00
558.98	65535.00
559.14	65535.00
559.31	65535.00
559.47	65535.00
559.64	65535.00
559.80	65535.00
559.97	65535.00
560.13	65535.00
560.30	65535.00
560.46	65535.00
560.63	65535.00
560.79	65535.00
560.96	65535.00
561.12	65535.00
561.29	65535.00
561.45	65535.00
561.61	65535.00
561.78	65535.00
561.94	65535.00
562.11	65535.00
562.27	65535.00
562.44	65535.00
562.60	65535.00
562.77	65535.00
562.93	65535.00
563.10	65535.00
563.26	65535.00
563.42	65535.00
563.59	65535.00
563.75	65535.00
563.92	65535.00
564.08	65535.00
564.24	65535.00
564.41	65535.00
564.57	65535.00
564.74	65535.00
564.90	65535.00
565.07	65535.00
565.23	65535.00
565.39	65535.00
565.56	65535.00
565.72	65535.00
565.88	65535.00
566.05	65535.00
566.21	65535.00
566.38	65535.00
566.54	65535.00
566.70	65535.00
566.87	65535.00
567.03	65535.00
567.19	65535.00
567.36	65535.00
567.52	65535.00
567.68	65535.00
567.85	65535.00
568.01	65535.00
568.17	65535.00
568.34	65535.00
568.50	65535.00
568.66	65535.00
568.83	65535.00
568.99	65535.00
569.15	65535.00
569.32	65535.00
569.48	65535.00
569.64	65535.00
569.81	65535.00
569.97	65535.00
570.13	65535.00
570.30	65535.00
570.46	65535.00
570.62	65535.00
570.78	65535.00
570.95	65535.00
571.11	65535.00
571.27	65535.00
571.43	65535.00
571.60	65535.00
571.76	65535.00
571.92	65535.00
572.09	65535.00
572.25	65535.00
572.41	65535.00
572.57	65535.00
572.74	65535.00
572.90	65535.00
573.06	65535.00
573.22	65535.00
573.38	65535.00
573.55	65535.00
573.71	65535.00
573.87	65535.00
574.03	65535.00
574.20	65535.00
574.36	65535.00
574.52	65535.00
574.68	65535.00
574.84	65535.00
575.01	65535.00
575.17	65535.00
575.33	65535.00
575.49	65535.00
575.65	65535.00
575.82	65535.00
575.98	65535.00
576.14	65535.00
576.30	65535.00
576.46	65535.00
576.62	65535.00
576.79	65535.00
576.95	65535.00
577.11	65535.00
577.27	65535.00
577.43	65535.00
577.59	65535.00
577.75	65535.00
577.92	65535.00
578.08	65535.00
578.24	65535.00
578.40	65535.00
578.56	65535.00
578.72	65535.00
578.88	65535.00
579.04	65535.00
579.21	65535.00
579.37	65535.00
579.53	65535.00
579.69	65535.00
579.85	65535.00
580.01	65535.00
580.17	65535.00
580.33	65535.00
580.49	65535.00
580.65	65535.00
580.82	65535.00
580.98	65535.00
581.14	65535.00
581.30	65535.00
581.46	65535.00
581.62	65535.00
581.78	65535.00
581.94	65535.00
582.10	65535.00
582.26	65535.00
582.42	65535.00
582.58	65535.00
582.74	65535.00
582.90	65535.00
583.06	65535.00
583.22	65535.00
583.38	65535.00
583.54	65535.00
583.70	65535.00
583.86	65535.00
584.02	65535.00
584.18	65535.00
584.34	65535.00
584.50	65535.00
584.66	65535.00
584.82	65535.00
584.98	65535.00
585.14	65535.00
585.30	65535.00
585.46	65535.00
585.62	65535.00
585.78	65535.00
585.94	65535.00
586.10	65535.00
586.26	65535.00
586.42	65535.00
586.58	65535.00
586.74	65535.00
586.90	65535.00
587.06	65535.00
587.22	65535.00
587.38	65535.00
587.54	65535.00
