SpectraSuite Data File
++++++++++++++++++++++++++++++++++++
Date: Tue Oct 01 18:27:26 GMT-05:00 2013
User: stostad
Dark Spectrum Present: No
Reference Spectrum Present: No
Number of Sampled Component Spectra: 1
Spectrometers: USB2+H05261
Integration Time (usec): 100000 (USB2+H05261)
Spectra Averaged: 1 (USB2+H05261)
Boxcar Smoothing: 0 (USB2+H05261)
Correct for Electrical Dark: No (USB2+H05261)
Strobe/Lamp Enabled: No (USB2+H05261)
Correct for Detector Non-linearity: No (USB2+H05261)
Correct for Stray Light: No (USB2+H05261)
Number of Pixels in Processed Spectrum: 2048
>>>>>Begin Processed Spectral Data<<<<<
365.73	95.96
365.92	95.96
366.12	95.96
366.32	2.34
366.52	0.00
366.72	0.00
366.91	0.00
367.11	0.00
367.31	0.00
367.51	0.00
367.70	0.00
367.90	9.36
368.10	0.00
368.30	9.36
368.49	0.00
368.69	9.36
368.89	0.00
369.09	0.00
369.28	25.75
369.48	9.36
369.68	49.15
369.87	0.00
370.07	0.00
370.27	114.69
370.47	84.26
370.66	248.10
370.86	355.76
371.06	315.97
371.25	341.72
371.45	353.42
371.65	311.29
371.84	306.61
372.04	227.03
372.24	374.49
372.44	306.61
372.63	353.42
372.83	433.00
373.03	444.70
373.22	374.49
373.42	428.32
373.62	482.15
373.81	458.74
374.01	484.49
374.21	456.40
374.40	433.00
374.60	500.87
374.79	430.66
374.99	433.00
375.19	423.64
375.38	512.58
375.58	477.47
375.78	454.06
375.97	454.06
376.17	538.32
376.37	498.53
376.56	528.96
376.76	411.93
376.95	472.79
377.15	510.24
377.35	514.92
377.54	458.74
377.74	489.17
377.93	425.98
378.13	521.94
378.33	440.02
378.52	470.45
378.72	550.03
378.91	538.32
379.11	550.03
379.31	510.24
379.50	465.77
379.70	479.81
379.89	538.32
380.09	482.15
380.28	507.90
380.48	517.26
380.68	479.81
380.87	465.77
381.07	540.66
381.26	641.31
381.46	636.63
381.65	533.64
381.85	470.45
382.04	592.16
382.24	500.87
382.43	552.37
382.63	477.47
382.83	559.39
383.02	587.47
383.22	664.71
383.41	603.86
383.61	575.77
383.80	596.84
384.00	631.94
384.19	648.33
384.39	573.43
384.58	648.33
384.78	620.24
384.97	608.54
385.17	557.05
385.36	645.99
385.56	667.05
385.75	620.24
385.95	667.05
386.14	706.84
386.34	528.96
386.53	648.33
386.72	561.73
386.92	688.12
387.11	713.86
387.31	779.40
387.50	699.82
387.70	732.59
387.89	765.36
388.09	678.76
388.28	739.61
388.48	667.05
388.67	779.40
388.86	737.27
389.06	741.95
389.25	725.57
389.45	812.17
389.64	732.59
389.84	741.95
390.03	748.97
390.22	732.59
390.42	837.91
390.61	741.95
390.81	763.01
391.00	793.44
391.19	767.70
391.39	758.33
391.58	763.01
391.78	854.30
391.97	826.21
392.16	784.08
392.36	889.40
392.55	819.19
392.75	800.46
392.94	844.93
393.13	861.32
393.33	823.87
393.52	957.28
393.71	903.45
393.91	947.92
394.10	866.00
394.29	936.21
394.49	877.70
394.68	980.68
394.88	908.13
395.07	994.73
395.26	924.51
395.46	938.55
395.65	1013.45
395.84	1001.75
396.04	1006.43
396.23	1088.35
396.42	1046.22
396.62	978.34
396.81	1022.81
397.00	1086.01
397.19	992.39
397.39	980.68
397.58	1062.60
397.77	1111.75
397.97	1071.97
398.16	1053.24
398.35	1032.18
398.55	1074.31
398.74	1013.45
398.93	1100.05
399.12	1177.29
399.32	1128.14
399.51	1090.69
399.70	1245.16
399.90	1224.10
400.09	1184.31
400.28	1160.91
400.47	1217.08
400.67	1303.68
400.86	1174.95
401.05	1231.12
401.24	1303.68
401.44	1310.70
401.63	1221.76
401.82	1289.64
402.01	1299.00
402.21	1273.25
402.40	1200.69
402.59	1277.93
402.78	1394.96
402.97	1336.45
403.17	1306.02
403.36	1392.62
403.55	1418.36
403.74	1425.39
403.93	1418.36
404.13	1490.92
404.32	1535.39
404.51	1387.94
404.70	1488.58
404.89	1462.83
405.09	1526.03
405.28	1640.72
405.47	1490.92
405.66	1535.39
405.85	1577.52
406.05	1504.96
406.24	1621.99
406.43	1610.29
406.62	1692.21
406.81	1703.91
407.00	1668.80
407.20	1720.29
407.39	1659.44
407.58	1769.44
407.77	1874.77
407.96	1813.92
408.15	1858.39
408.34	1643.06
408.54	1724.97
408.73	1970.73
408.92	1877.11
409.11	1858.39
409.30	1886.47
409.49	1937.96
409.68	1940.30
409.87	1907.54
410.07	1973.07
410.26	2064.35
410.45	2036.27
410.64	2031.58
410.83	1987.11
411.02	2047.97
411.21	2122.87
411.40	2115.84
411.59	2209.47
411.78	2207.13
411.98	2132.23
412.17	2064.35
412.36	2181.38
412.55	2256.28
412.74	2335.85
412.93	2359.26
413.12	2356.92
413.31	2445.86
413.50	2387.35
413.69	2296.07
413.88	2377.98
414.07	2385.01
414.26	2471.61
414.45	2502.03
414.64	2579.27
414.83	2576.93
415.02	2560.55
415.22	2705.66
415.41	2691.62
415.60	2642.46
415.79	2605.02
415.98	2633.10
416.17	2808.64
416.36	2876.52
416.55	2715.02
416.74	2782.90
416.93	2768.85
417.12	2888.22
417.31	3002.91
417.50	2761.83
417.69	3061.42
417.88	3012.27
418.07	2935.03
418.26	2909.29
418.45	3014.61
418.64	3012.27
418.83	3059.08
419.02	3073.12
419.21	3126.96
419.39	3073.12
419.58	3122.27
419.77	2995.89
419.96	3084.83
420.15	3335.26
420.34	3169.09
420.53	3171.43
420.72	3251.00
420.91	3265.05
421.10	3274.41
421.29	3349.31
421.48	3323.56
421.67	3337.60
421.86	3309.52
422.05	3337.60
422.24	3386.76
422.43	3323.56
422.61	3358.67
422.80	3382.07
422.99	3351.65
423.18	3351.65
423.37	3583.36
423.56	3485.06
423.75	3414.84
423.94	3391.44
424.13	3262.71
424.32	3391.44
424.50	3499.10
424.69	3606.77
424.88	3566.98
425.07	3496.76
425.26	3485.06
425.45	3559.95
425.64	3641.87
425.83	3452.29
426.01	3620.81
426.20	3496.76
426.39	3506.12
426.58	3583.36
426.77	3595.06
426.96	3667.62
427.15	3768.26
427.33	3735.50
427.52	3522.51
427.71	3595.06
427.90	3770.60
428.09	3641.87
428.28	3585.70
428.46	3847.84
428.65	3901.67
428.84	3829.12
429.03	3892.31
429.22	3618.47
429.40	3904.01
429.59	3859.54
429.78	3761.24
429.97	3786.99
430.16	3819.75
430.34	3880.61
430.53	3920.40
430.72	4107.64
430.91	3908.69
431.10	3950.82
431.28	3955.51
431.47	4135.73
431.66	4070.19
431.85	4021.04
432.03	4262.12
432.22	4222.33
432.41	4278.50
432.60	4231.69
432.79	4212.96
432.97	4273.82
433.16	4212.96
433.35	4170.83
433.54	4278.50
433.72	4365.10
433.91	4208.28
434.10	4376.80
434.28	4175.52
434.47	4355.74
434.66	4514.89
434.85	4435.32
435.03	4447.02
435.22	4526.60
435.41	4550.00
435.59	4463.40
435.78	4585.11
435.97	4360.42
436.16	4582.77
436.34	4592.13
436.53	4643.62
436.72	4615.54
436.90	4615.54
437.09	4697.46
437.28	4519.57
437.46	4681.07
437.65	4748.95
437.84	4748.95
438.02	4809.80
438.21	4753.63
438.40	4940.87
438.58	4936.19
438.77	4950.23
438.96	5029.81
439.14	5062.58
439.33	4891.72
439.52	5188.97
439.70	5025.13
439.89	5298.97
440.08	5317.70
440.26	5228.76
440.45	5259.18
440.63	5170.24
440.82	5322.38
441.01	5153.86
441.19	5434.72
441.38	5423.02
441.57	5383.23
441.75	5556.43
441.94	5696.86
442.12	5584.52
442.31	5783.46
442.50	5645.37
442.68	5717.93
442.87	5767.08
443.05	5809.21
443.24	5987.09
443.43	5762.40
443.61	5886.45
443.80	6064.33
443.98	5830.27
444.17	5755.38
444.35	5846.66
444.54	5930.92
444.73	6069.01
444.91	5980.07
445.10	5678.14
445.28	5877.09
445.47	5912.19
445.65	5844.32
445.84	5816.23
446.02	6169.65
446.21	6054.97
446.39	5886.45
446.58	6019.86
446.77	6019.86
446.95	6022.20
447.14	6167.31
447.32	5987.09
447.51	6008.16
447.69	6038.58
447.88	5987.09
448.06	6129.86
448.25	6113.48
448.43	6104.12
448.62	6148.59
448.80	5973.05
448.99	6190.72
449.17	6258.59
449.36	5923.90
449.54	6176.67
449.73	6438.81
449.91	6427.11
450.10	6558.18
450.28	6413.07
450.46	6363.92
450.65	6539.46
450.83	6457.54
451.02	6457.54
451.20	6696.27
451.39	6452.86
451.57	6413.07
451.76	6408.39
451.94	6452.86
452.13	6593.29
452.31	6654.14
452.49	6499.67
452.68	6642.44
452.86	6644.78
453.05	6766.49
453.23	6637.76
453.42	6764.15
453.60	6757.13
453.78	6647.12
453.97	6722.02
454.15	6773.51
454.34	6722.02
454.52	7005.22
454.70	6839.05
454.89	7007.56
455.07	6960.75
455.26	7124.59
455.44	7052.03
455.62	6913.94
455.81	7047.35
455.99	7286.09
456.17	7164.38
456.36	7176.08
456.54	7131.61
456.73	7176.08
456.91	7487.37
457.09	7470.99
457.28	7389.07
457.46	7328.22
457.64	7548.23
457.83	7452.27
458.01	7342.26
458.19	7510.78
458.38	7452.27
458.56	7592.70
458.74	7592.70
458.93	7379.71
459.11	7571.63
459.29	7559.93
459.48	7679.30
459.66	7564.61
459.84	7639.51
460.03	8023.36
460.21	7995.27
460.39	7880.58
460.57	7737.81
460.76	7852.50
460.94	7957.82
461.12	7784.62
461.31	8006.97
461.49	7808.03
461.67	8067.83
461.85	8159.11
462.04	8210.60
462.22	8713.81
462.40	8142.72
462.59	8191.88
462.77	8149.75
462.95	8255.07
463.13	8191.88
463.32	8353.37
463.50	8088.89
463.68	8414.23
463.86	8386.14
464.05	8369.76
464.23	8262.09
464.41	8383.80
464.59	8533.59
464.78	8573.38
464.96	8479.76
465.14	8430.61
465.32	8631.90
465.50	8603.81
465.69	8641.26
465.87	8617.85
466.05	8718.50
466.23	8629.56
466.41	8554.66
466.60	8835.52
466.78	8723.18
466.96	8760.63
467.14	8753.60
467.32	8667.00
467.51	8931.48
467.69	8589.77
467.87	8868.29
468.05	8940.85
468.23	8725.52
468.41	8957.23
468.60	8814.46
468.78	9053.19
468.96	8957.23
469.14	9114.05
469.32	9071.92
469.50	8992.34
469.69	9202.99
469.87	9160.86
470.05	9287.25
470.23	9394.91
470.41	9217.03
470.59	9355.12
470.77	9170.22
470.95	9465.13
471.14	9778.76
471.32	9446.40
471.50	9408.95
471.68	9753.01
471.86	9701.52
472.04	9657.05
472.22	9823.23
472.40	9579.81
472.58	9865.36
472.77	9891.10
472.95	10143.88
473.13	10251.55
473.31	10108.77
473.49	10211.76
473.67	10054.94
473.85	10040.90
474.03	10539.43
474.21	10324.10
474.39	10471.56
474.57	10623.69
474.75	10607.31
474.93	10794.55
475.12	10497.30
475.30	10705.61
475.48	10654.12
475.66	10934.98
475.84	10693.91
476.02	10977.11
476.20	10949.03
476.38	11154.99
476.56	11274.36
476.74	11337.56
476.92	11222.87
477.10	11199.46
477.28	11492.03
477.46	11281.38
477.64	11590.33
477.82	11700.34
478.00	12079.50
478.18	12079.50
478.36	11988.22
478.54	11969.50
478.72	12065.46
478.90	12358.03
479.08	12294.83
479.26	12645.91
479.44	12489.10
479.62	12643.57
479.80	12739.54
479.98	12844.86
480.16	13083.59
480.34	13172.54
480.52	13083.59
480.70	13451.06
480.88	13259.13
481.06	13315.31
481.24	13322.33
481.41	13521.27
481.59	13841.93
481.77	14001.08
481.95	14033.85
482.13	13984.70
482.31	13980.02
482.49	14204.71
482.67	14361.53
482.85	14548.77
483.03	14972.41
483.21	14834.32
483.39	14721.97
483.57	14808.57
483.74	15059.01
483.92	15555.20
484.10	15367.96
484.28	15459.24
484.46	15506.05
484.64	15655.84
484.82	15564.56
485.00	16231.62
485.18	16327.58
485.35	16606.10
485.53	16402.47
485.71	16472.69
485.89	16758.24
486.07	16542.91
486.25	16896.33
486.43	17116.34
486.61	16908.03
486.78	17151.45
486.96	17539.97
487.14	17664.02
487.32	17383.16
487.50	17539.97
487.68	17996.38
487.85	17926.16
488.03	18380.23
488.21	18541.72
488.39	18515.98
488.57	18412.99
488.75	18705.56
488.92	19323.46
489.10	19000.47
489.28	19344.53
489.46	19257.93
489.64	19157.28
489.81	19611.35
489.99	19559.86
490.17	19693.27
490.35	19847.74
490.53	19901.58
490.70	20215.21
490.88	20224.57
491.06	20704.38
491.24	20772.25
491.41	20669.27
491.59	21142.06
491.77	20835.45
491.95	21238.02
492.13	21034.39
492.30	21055.46
492.48	21420.58
492.66	21542.29
492.84	21729.53
493.01	21809.11
493.19	21907.41
493.37	22288.92
493.54	22115.72
493.72	22270.20
493.90	22541.70
494.08	22932.57
494.25	23021.51
494.43	22780.43
494.61	23143.22
494.79	23183.01
494.96	23386.63
495.14	23578.56
495.32	23894.53
495.49	23934.32
495.67	24081.77
495.85	24018.58
496.02	23950.70
496.20	24170.71
496.38	24517.11
496.55	24379.02
496.73	24978.20
496.91	25025.01
497.09	25008.62
497.26	24929.05
497.44	25039.05
497.62	25099.90
497.79	25495.46
497.97	25539.93
498.14	26001.01
498.32	25713.13
498.50	25743.55
498.67	25841.85
498.85	26045.48
499.03	26040.80
499.20	26279.54
499.38	26817.86
499.56	26721.90
499.73	26618.91
499.91	26644.66
500.08	26911.48
500.26	27072.98
500.44	27377.25
500.61	27192.34
500.79	27173.62
500.97	27412.35
501.14	27735.35
501.32	27681.52
501.49	27543.42
501.67	27737.69
501.84	27775.14
502.02	28161.33
502.20	27845.35
502.37	28245.58
502.55	27946.00
502.72	28222.18
502.90	28322.82
503.07	28147.28
503.25	28865.83
503.43	28479.64
503.60	28734.76
503.78	28594.32
503.95	28931.36
504.13	28914.98
504.30	29338.62
504.48	28957.11
504.65	29544.58
504.83	29593.73
505.01	29376.06
505.18	29315.21
505.36	29841.83
505.53	29886.30
505.71	30218.66
505.88	29958.86
506.06	29937.79
506.23	30595.48
506.41	30281.85
506.58	30213.98
506.76	30455.05
506.93	31360.84
507.11	30593.14
507.28	30869.33
507.46	30616.55
507.63	30628.25
507.81	30878.69
507.98	30899.75
508.16	30918.48
508.33	31562.12
508.50	31367.86
508.68	31681.49
508.85	31810.22
509.03	31447.44
509.20	31901.50
509.38	31852.35
509.55	32018.53
509.73	32205.77
509.90	31997.46
510.08	32077.04
510.25	32362.59
510.42	32163.64
510.60	32531.11
510.77	32617.71
510.95	33029.64
511.12	32807.29
511.30	32931.34
511.47	33331.57
511.64	33343.27
511.82	33085.81
511.99	32985.17
512.17	33230.93
512.34	33055.39
512.51	33647.54
512.69	34101.61
512.86	33741.16
513.04	34157.78
513.21	34031.39
513.38	33780.95
513.56	33752.87
513.73	34169.48
513.90	34562.69
514.08	34265.44
514.25	34309.91
514.43	34445.66
514.60	34443.32
514.77	34656.31
514.95	34925.47
515.12	34459.71
515.29	34588.44
515.47	35112.72
515.64	35269.53
515.81	35005.05
515.99	35154.85
516.16	35739.98
516.33	35641.68
516.51	35789.13
516.68	35477.84
516.85	35278.89
517.03	36514.70
517.20	35854.67
517.37	35821.90
517.54	35768.07
517.72	36493.63
517.89	35526.99
518.06	36299.37
518.24	36343.84
518.41	36187.02
518.58	36458.52
518.75	36016.16
518.93	36318.09
519.10	36533.42
519.27	36760.45
519.45	37050.68
519.62	37148.98
519.79	37069.40
519.96	36971.10
520.14	37593.68
520.31	36950.04
520.48	37209.84
520.65	37212.18
520.83	37551.56
521.00	37476.66
521.17	37467.30
521.34	37731.78
521.52	37799.65
521.69	37556.24
521.86	37998.60
522.03	37567.94
522.20	38415.21
522.38	38143.71
522.55	38101.58
522.72	38279.46
522.89	38340.32
523.07	38623.52
523.24	38054.77
523.41	38621.18
523.58	38749.91
523.75	38731.18
523.92	38698.42
524.10	38974.60
524.27	38745.23
524.44	39328.02
524.61	39674.42
524.78	39035.45
524.96	39372.49
525.13	39533.99
525.30	39550.37
525.47	39959.97
525.64	39688.46
525.81	39636.97
525.98	40037.20
526.16	39571.44
526.33	39440.37
526.50	40055.93
526.67	39709.53
526.84	39908.47
527.01	40297.00
527.18	40343.81
527.36	40051.25
527.53	40334.45
527.70	40741.71
527.87	40378.92
528.04	40659.79
528.21	40889.16
528.38	40362.54
528.55	41041.29
528.72	40762.77
528.89	40751.07
529.07	41076.40
529.24	40762.77
529.41	40832.99
529.58	40486.59
529.75	40734.68
529.92	41439.18
530.09	41167.68
530.26	41399.40
530.43	41586.64
530.60	41184.07
530.77	40928.95
530.94	41088.10
531.11	41633.45
531.28	41902.61
531.46	41694.30
531.63	41872.18
531.80	41787.92
531.97	41933.04
532.14	42052.41
532.31	41776.22
532.48	42181.13
532.65	42368.38
532.82	41743.45
532.99	42265.39
533.16	42307.52
533.33	42621.16
533.50	42895.00
533.67	42197.52
533.84	41996.23
534.01	42333.27
534.18	42476.04
534.35	42948.83
534.52	42366.04
534.69	42848.19
534.86	43335.02
535.03	43014.37
535.20	42972.24
535.37	43271.82
535.54	43096.28
535.71	43515.24
535.88	43475.45
536.05	43803.13
536.22	43461.41
536.38	43433.32
536.55	43882.70
536.72	43398.21
536.89	43028.41
537.06	43388.85
537.23	43648.65
537.40	43512.90
537.57	43477.79
537.74	43484.81
537.91	43976.33
538.08	43962.28
538.25	43405.23
538.42	44203.36
538.59	44140.16
538.75	43999.73
538.92	43929.51
539.09	44458.48
539.26	44238.47
539.43	44081.65
539.60	44212.72
539.77	44402.30
539.94	44142.50
540.11	44643.38
540.28	45067.02
540.44	44439.75
540.61	44975.73
540.78	44435.07
540.95	44353.15
541.12	44844.66
541.29	44652.74
541.46	44870.41
541.62	45076.38
541.79	45015.52
541.96	44879.77
542.13	44732.32
542.30	45148.93
542.47	45464.91
542.63	45715.34
542.80	45219.15
542.97	45731.73
543.14	45591.30
543.31	45457.88
543.48	45497.67
543.64	45930.67
543.81	45713.00
543.98	46157.70
544.15	46206.86
544.32	45965.78
544.48	46068.76
544.65	45750.45
544.82	45958.76
544.99	45663.85
545.16	46284.09
545.32	46061.74
545.49	46859.87
545.66	46705.39
545.83	46129.62
546.00	46476.02
546.16	46415.16
546.33	46057.06
546.50	46178.77
546.67	46679.64
546.83	46010.25
547.00	46539.21
547.17	46869.23
547.34	46717.09
547.50	46513.47
547.67	46813.05
547.84	47122.01
548.00	47016.68
548.17	46763.90
548.34	46983.91
548.51	47449.68
548.67	47082.22
548.84	47175.84
549.01	46997.96
549.18	47051.79
549.34	47227.33
549.51	46862.21
549.68	47021.36
549.84	47395.85
550.01	47639.26
550.18	46969.87
550.34	47224.99
550.51	47676.71
550.68	47398.19
550.84	47012.00
551.01	47072.85
551.18	47152.43
551.34	47510.53
551.51	47613.52
551.68	47896.72
551.84	47608.84
552.01	47285.84
552.18	47533.94
552.34	47512.88
552.51	47606.50
552.68	47463.72
552.84	47625.22
553.01	48090.99
553.18	48037.16
553.34	47810.12
553.51	47842.89
553.67	48156.52
553.84	48259.51
554.01	48046.52
554.17	48395.26
554.34	48701.87
554.51	47849.91
554.67	48531.01
554.84	48399.94
555.00	48058.22
555.17	47943.53
555.33	48189.29
555.50	48208.01
555.67	48224.40
555.83	48296.95
556.00	48233.76
556.16	49078.69
556.33	48760.38
556.50	48591.86
556.66	48839.96
556.83	48439.73
556.99	49120.82
557.16	48498.24
557.32	48451.43
557.49	48928.90
557.65	48802.51
557.82	48896.13
557.98	48776.76
558.15	48975.71
558.32	49382.96
558.48	48694.85
558.65	49057.63
558.81	48800.17
558.98	48912.52
559.14	48846.98
559.31	48889.11
559.47	48884.43
559.64	49162.95
559.80	48959.33
559.97	49188.70
560.13	49174.66
560.30	48711.23
560.46	48912.52
560.63	48956.99
560.79	49202.74
560.96	49478.92
561.12	49436.80
561.29	49219.13
561.45	49052.95
561.61	49284.66
561.78	49691.91
561.94	49368.92
562.11	49198.06
562.27	49099.76
562.44	49230.83
562.60	49401.69
562.77	49397.01
562.93	49769.15
563.10	49792.56
563.26	49539.78
563.42	50174.06
563.59	49169.97
563.75	49298.70
563.92	49621.70
564.08	49633.40
564.24	49209.76
564.41	49631.06
564.57	49881.50
564.74	49724.68
564.90	49532.76
565.07	49794.90
565.23	49822.98
565.39	49588.93
565.56	49825.32
565.72	49373.60
565.88	49663.83
566.05	49750.43
566.21	49776.17
566.38	50073.42
566.54	49811.28
566.70	49996.18
566.87	49902.56
567.03	49448.50
567.19	49914.26
567.36	49790.22
567.52	49846.39
567.68	50000.86
567.85	49947.03
568.01	49951.71
568.17	49890.86
568.34	50373.01
568.50	50314.50
568.66	49701.28
568.83	50021.93
568.99	49872.14
569.15	50075.76
569.32	50340.24
569.48	49790.22
569.64	50354.29
569.81	50263.00
569.97	50026.61
570.13	50211.51
570.30	50138.96
570.46	49858.09
570.62	49764.47
570.78	49701.28
570.95	50000.86
571.11	50061.72
571.27	50307.47
571.43	50195.13
571.60	50309.82
571.76	50035.97
571.92	50033.63
572.09	50178.75
572.25	50272.37
572.41	50143.64
572.57	50106.19
572.74	50700.68
572.90	50028.95
573.06	50263.00
573.22	50429.18
573.38	50363.65
573.55	50288.75
573.71	50148.32
573.87	49844.05
574.03	50176.40
574.20	50113.21
574.36	49827.66
574.52	50033.63
574.68	50543.87
574.84	50618.77
575.01	50588.34
575.17	50583.66
575.33	50293.43
575.49	50267.69
575.65	50527.48
575.82	50370.67
575.98	50248.96
576.14	50373.01
576.30	50499.40
576.46	50719.41
576.62	50567.27
576.79	50068.74
576.95	50183.43
577.11	50351.94
577.27	50251.30
577.43	50513.44
577.59	50117.89
577.75	50480.67
577.92	50295.77
578.08	50216.19
578.24	50138.96
578.40	50693.66
578.56	50487.70
578.72	50408.12
578.88	50593.02
579.04	50674.94
579.21	50284.07
579.37	50354.29
579.53	50850.48
579.69	50824.73
579.85	50501.74
580.01	50724.09
580.17	50380.03
580.33	50536.85
580.49	50330.88
580.65	50412.80
580.82	50333.22
580.98	50571.96
581.14	50199.81
581.30	50843.46
581.46	50534.51
581.62	50656.21
581.78	50583.66
581.94	50693.66
582.10	50419.82
582.26	50714.73
582.42	50494.72
582.58	50279.39
582.74	50417.48
582.90	50691.32
583.06	50632.81
583.22	50302.79
583.38	50815.37
583.54	50726.43
583.70	51047.08
583.86	50955.80
584.02	50791.97
584.18	50574.30
584.34	50637.49
584.50	50562.59
584.66	50536.85
584.82	50365.99
584.98	50698.34
585.14	50768.56
585.30	50234.92
585.46	50738.13
585.62	51044.74
585.78	50923.04
585.94	50309.82
586.10	50700.68
586.26	50506.42
586.42	50391.73
586.58	50735.79
586.74	50401.10
586.90	50794.31
587.06	50569.61
587.22	50946.44
587.38	50763.88
587.54	50906.65
587.70	50883.25
587.86	50703.03
588.02	50663.24
588.18	50504.08
588.34	50525.14
588.49	50843.46
588.65	50604.72
588.81	50986.23
588.97	51243.69
589.13	51363.06
589.29	51306.88
589.45	51091.55
589.61	50834.10
589.77	51171.13
589.93	51105.60
590.08	50646.85
590.24	51203.90
590.40	51042.40
590.56	51519.87
