SpectraSuite Data File
++++++++++++++++++++++++++++++++++++
Date: Fri Oct 04 11:40:02 GMT-05:00 2013
User: price-jones
Dark Spectrum Present: No
Reference Spectrum Present: No
Number of Sampled Component Spectra: 1
Spectrometers: USB2+H05261
Integration Time (usec): 100000 (USB2+H05261)
Spectra Averaged: 1 (USB2+H05261)
Boxcar Smoothing: 0 (USB2+H05261)
Correct for Electrical Dark: No (USB2+H05261)
Strobe/Lamp Enabled: No (USB2+H05261)
Correct for Detector Non-linearity: No (USB2+H05261)
Correct for Stray Light: No (USB2+H05261)
Number of Pixels in Processed Spectrum: 2048
>>>>>Begin Processed Spectral Data<<<<<
365.73	63.19
365.92	63.19
366.12	63.19
366.32	4.68
366.52	0.00
366.72	0.00
366.91	0.00
367.11	0.00
367.31	0.00
367.51	0.00
367.70	0.00
367.90	0.00
368.10	9.36
368.30	0.00
368.49	0.00
368.69	0.00
368.89	0.00
369.09	0.00
369.28	14.04
369.48	28.09
369.68	0.00
369.87	0.00
370.07	0.00
370.27	16.38
370.47	58.51
370.66	110.01
370.86	126.39
371.06	191.92
371.25	210.65
371.45	74.90
371.65	112.35
371.84	114.69
372.04	145.11
372.24	138.09
372.44	184.90
372.63	231.71
372.83	133.41
373.03	198.95
373.22	189.58
373.42	201.29
373.62	184.90
373.81	149.79
374.01	222.35
374.21	234.05
374.40	173.20
374.60	215.33
374.79	210.65
374.99	189.58
375.19	212.99
375.38	231.71
375.58	168.52
375.78	212.99
375.97	224.69
376.17	238.73
376.37	301.93
376.56	241.08
376.76	238.73
376.95	243.42
377.15	227.03
377.35	231.71
377.54	175.54
377.74	255.12
377.93	208.31
378.13	217.67
378.33	334.70
378.52	168.52
378.72	248.10
378.91	259.80
379.11	203.63
379.31	224.69
379.50	184.90
379.70	278.52
379.89	205.97
380.09	156.82
380.28	166.18
380.48	182.56
380.68	182.56
380.87	168.52
381.07	322.99
381.26	276.18
381.46	231.71
381.65	184.90
381.85	222.35
382.04	194.26
382.24	236.39
382.43	222.35
382.63	255.12
382.83	212.99
383.02	142.77
383.22	322.99
383.41	198.95
383.61	212.99
383.80	250.44
384.00	290.23
384.19	182.56
384.39	215.33
384.58	227.03
384.78	238.73
384.97	217.67
385.17	266.82
385.36	278.52
385.56	238.73
385.75	238.73
385.95	283.20
386.14	297.25
386.34	191.92
386.53	264.48
386.72	201.29
386.92	290.23
387.11	311.29
387.31	301.93
387.50	166.18
387.70	315.97
387.89	231.71
388.09	301.93
388.28	257.46
388.48	255.12
388.67	332.36
388.86	252.78
389.06	248.10
389.25	353.42
389.45	227.03
389.64	262.14
389.84	306.61
390.03	351.08
390.22	271.50
390.42	283.20
390.61	215.33
390.81	353.42
391.00	304.27
391.19	294.91
391.39	259.80
391.58	304.27
391.78	250.44
391.97	313.63
392.16	327.68
392.36	327.68
392.55	250.44
392.75	306.61
392.94	301.93
393.13	369.80
393.33	344.06
393.52	372.15
393.71	425.98
393.91	334.70
394.10	304.27
394.29	351.08
394.49	327.68
394.68	315.97
394.88	355.76
395.07	266.82
395.26	383.85
395.46	451.72
395.65	358.10
395.84	421.30
396.04	411.93
396.23	348.74
396.42	381.51
396.62	416.62
396.81	320.65
397.00	395.55
397.19	454.06
397.39	379.17
397.58	411.93
397.77	444.70
397.97	519.60
398.16	447.04
398.35	454.06
398.55	470.45
398.74	517.26
398.93	397.89
399.12	397.89
399.32	479.81
399.51	482.15
399.70	566.41
399.90	547.69
400.09	505.56
400.28	528.96
400.47	540.66
400.67	573.43
400.86	526.62
401.05	624.92
401.24	573.43
401.44	594.50
401.63	571.09
401.82	620.24
402.01	592.16
402.21	683.44
402.40	648.33
402.59	582.79
402.78	627.26
402.97	622.58
403.17	671.73
403.36	603.86
403.55	685.78
403.74	730.25
403.93	643.65
404.13	683.44
404.32	730.25
404.51	734.93
404.70	793.44
404.89	730.25
405.09	758.33
405.28	657.69
405.47	676.41
405.66	786.42
405.85	784.08
406.05	744.29
406.24	851.96
406.43	805.14
406.62	828.55
406.81	805.14
407.00	833.23
407.20	816.85
407.39	863.66
407.58	821.53
407.77	873.02
407.96	947.92
408.15	896.43
408.34	816.85
408.54	870.68
408.73	926.85
408.92	943.24
409.11	997.07
409.30	1004.09
409.49	999.41
409.68	968.98
409.87	1046.22
410.07	1022.81
410.26	978.34
410.45	1036.86
410.64	1100.05
410.83	1076.65
411.02	1090.69
411.21	1128.14
411.40	1111.75
411.59	1095.37
411.78	1177.29
411.98	1282.61
412.17	1149.20
412.36	1240.48
412.55	1240.48
412.74	1369.21
412.93	1193.67
413.12	1118.78
413.31	1273.25
413.50	1240.48
413.69	1343.47
413.88	1420.71
414.07	1413.68
414.26	1390.28
414.45	1371.55
414.64	1476.88
414.83	1448.79
415.02	1458.15
415.22	1488.58
415.41	1607.95
415.60	1446.45
415.79	1479.22
415.98	1694.55
416.17	1605.61
416.36	1528.37
416.55	1596.25
416.74	1732.00
416.93	1558.80
417.12	1652.42
417.31	1678.16
417.50	1659.44
417.69	1746.04
417.88	1769.44
418.07	1631.35
418.26	1741.36
418.45	1694.55
418.64	1806.89
418.83	1764.76
419.02	1755.40
419.21	1895.83
419.39	1802.21
419.58	1891.15
419.77	1914.56
419.96	1902.86
420.15	1863.07
420.34	1816.26
420.53	1987.11
420.72	1998.82
420.91	1923.92
421.10	2026.90
421.29	2024.56
421.48	1968.39
421.67	1998.82
421.86	1982.43
422.05	2122.87
422.24	2083.08
422.43	2001.16
422.61	2043.29
422.80	2008.18
422.99	2153.29
423.18	1994.14
423.37	2111.16
423.56	2113.50
423.75	2064.35
423.94	2078.40
424.13	1867.75
424.32	1926.26
424.50	2066.69
424.69	2085.42
424.88	2076.06
425.07	1998.82
425.26	2155.63
425.45	2113.50
425.64	2157.97
425.83	2059.67
426.01	2263.30
426.20	2176.70
426.39	2242.23
426.58	2188.40
426.77	2246.91
426.96	2153.29
427.15	2150.95
427.33	2118.18
427.52	2214.15
427.71	2253.94
427.90	2225.85
428.09	2270.32
428.28	2314.79
428.46	2279.68
428.65	2279.68
428.84	2314.79
429.03	2319.47
429.22	2235.21
429.40	2347.56
429.59	2382.67
429.78	2225.85
429.97	2228.19
430.16	2298.41
430.34	2415.43
430.53	2471.61
430.72	2438.84
430.91	2361.60
431.10	2338.20
431.28	2513.74
431.47	2590.97
431.66	2544.16
431.85	2427.14
432.03	2544.16
432.22	2616.72
432.41	2548.84
432.60	2607.36
432.79	2523.10
432.97	2569.91
433.16	2520.76
433.35	2574.59
433.54	2506.71
433.72	2605.02
433.91	2640.12
434.10	2544.16
434.28	2663.53
434.47	2708.00
434.66	2689.28
434.85	2773.53
435.03	2733.75
435.22	2860.13
435.41	3241.64
435.59	3262.71
435.78	2928.01
435.97	2775.88
436.16	2857.79
436.34	2825.03
436.53	2736.09
436.72	2949.08
436.90	2888.22
437.09	2745.45
437.28	2712.68
437.46	2888.22
437.65	2885.88
437.84	2881.20
438.02	2829.71
438.21	2944.39
438.40	2906.95
438.58	3009.93
438.77	2970.14
438.96	2937.37
439.14	3040.36
439.33	3115.25
439.52	2984.18
439.70	3148.02
439.89	3133.98
440.08	3087.17
440.26	3124.62
440.45	3183.13
440.63	3185.47
440.82	3220.58
441.01	3176.11
441.19	3215.90
441.38	3349.31
441.57	3412.50
441.75	3323.56
441.94	3412.50
442.12	3407.82
442.31	3487.40
442.50	3506.12
442.68	3391.44
442.87	3435.91
443.05	3410.16
443.24	3583.36
443.43	3627.83
443.61	3435.91
443.80	3639.53
443.98	3466.33
444.17	3442.93
444.35	3552.93
444.54	3529.53
444.73	3695.71
444.91	3651.24
445.10	3571.66
445.28	3634.85
445.47	3676.98
445.65	3543.57
445.84	3714.43
446.02	3684.00
446.21	3515.48
446.39	3592.72
446.58	3651.24
446.77	3578.68
446.95	3545.91
447.14	3494.42
447.32	3644.21
447.51	3588.04
447.69	3604.42
447.88	3604.42
448.06	3660.60
448.25	3702.73
448.43	3733.15
448.62	3637.19
448.80	3705.07
448.99	3761.24
449.17	3796.35
449.36	3723.79
449.54	3885.29
449.73	3655.92
449.91	3875.93
450.10	3798.69
450.28	3906.35
450.46	3880.61
450.65	3847.84
450.83	3714.43
451.02	3777.62
451.20	3901.67
451.39	3969.55
451.57	3892.31
451.76	4011.68
451.94	3808.05
452.13	4128.70
452.31	3995.29
452.49	3964.87
452.68	4091.26
452.86	3892.31
453.05	3981.25
453.23	4107.64
453.42	4112.32
453.60	3983.59
453.78	4140.41
453.97	3997.64
454.15	4077.21
454.34	4152.11
454.52	4046.79
454.70	4126.36
454.89	4093.60
455.07	3988.27
455.26	4229.35
455.44	4339.35
455.62	4269.14
455.81	4187.22
455.99	4301.90
456.17	4219.99
456.36	4203.60
456.54	4369.78
456.73	4283.18
456.91	4369.78
457.09	4500.85
457.28	4580.43
457.46	4348.72
457.64	4432.97
457.83	4355.74
458.01	4388.50
458.19	4547.66
458.38	4531.28
458.56	4585.11
458.74	4500.85
458.93	4554.68
459.11	4531.28
459.29	4571.07
459.48	4550.00
459.66	4638.94
459.84	4716.18
460.03	4758.31
460.21	4674.05
460.39	4809.80
460.57	4727.88
460.76	4755.97
460.94	4744.27
461.12	4795.76
461.31	4699.80
461.49	4685.75
461.67	4608.51
461.85	4889.38
462.04	4842.57
462.22	5310.68
462.40	4908.10
462.59	4931.51
462.77	4720.86
462.95	4851.93
463.13	4802.78
463.32	4814.48
463.50	4861.29
463.68	5181.95
463.86	4894.06
464.05	4840.23
464.23	4945.55
464.41	4947.89
464.59	4999.38
464.78	5057.90
464.96	5093.01
465.14	4851.93
465.32	5170.24
465.50	4973.64
465.69	5139.82
465.87	5125.77
466.05	5158.54
466.23	5130.45
466.41	5380.89
466.60	5352.81
466.78	5109.39
466.96	5013.43
467.14	5313.02
467.32	5177.26
467.51	5345.78
467.69	4985.34
467.87	5214.71
468.05	5263.86
468.23	5296.63
468.41	5324.72
468.60	5315.36
468.78	5174.92
468.96	5137.48
469.14	5465.15
469.32	5359.83
469.50	5383.23
469.69	5282.59
469.87	5535.37
470.05	5605.58
470.23	5556.43
470.41	5554.09
470.59	5729.63
470.77	5474.51
470.95	5600.90
471.14	5610.26
471.32	5493.24
471.50	5685.16
471.68	5612.60
471.86	5870.06
472.04	5804.53
472.22	5914.53
472.40	5671.12
472.58	5853.68
472.77	5762.40
472.95	5935.60
473.13	6052.63
473.31	5893.47
473.49	5767.08
473.67	5991.77
473.85	5944.96
474.03	6022.20
474.21	6033.90
474.39	6127.52
474.57	6284.34
474.75	6260.93
474.93	6242.21
475.12	6375.62
475.30	6209.44
475.48	6181.35
475.66	6417.75
475.84	6314.77
476.02	6457.54
476.20	6429.45
476.38	6441.15
476.56	6656.48
476.74	6757.13
476.92	6527.75
477.10	6612.01
477.28	6717.34
477.46	6810.96
477.64	6743.08
477.82	6717.34
478.00	6935.01
478.18	7115.23
478.36	7075.44
478.54	7028.63
478.72	7037.99
478.90	7218.21
479.08	7204.17
479.26	7396.09
479.44	7442.90
479.62	7344.60
479.80	7421.84
479.98	7496.74
480.16	7581.00
480.34	7506.10
480.52	7815.05
480.70	7662.91
480.88	7597.38
481.06	7854.84
481.24	7810.37
481.41	8013.99
481.59	7850.16
481.77	8182.51
481.95	8159.11
482.13	8140.38
482.31	8212.94
482.49	8613.17
482.67	8388.48
482.85	8521.89
483.03	8643.60
483.21	8578.06
483.39	8409.54
483.57	8652.96
483.74	8697.43
483.92	8847.22
484.10	8798.07
484.28	8915.10
484.46	9036.81
484.64	9273.20
484.82	9111.71
485.00	9043.83
485.18	9320.01
485.35	9448.74
485.53	9261.50
485.71	9369.16
485.89	9633.64
486.07	9558.75
486.25	9678.12
486.43	9762.37
486.61	9846.63
486.78	9914.51
486.96	10141.54
487.14	10090.05
487.32	10132.18
487.50	10455.17
487.68	10445.81
487.85	10417.72
488.03	10422.41
488.21	10642.42
488.39	10555.82
488.57	10785.19
488.75	10523.05
488.92	11009.88
489.10	10939.66
489.28	10918.60
489.46	11098.82
489.64	11248.61
489.81	11482.67
489.99	11276.70
490.17	11325.85
490.35	11449.90
490.53	11531.82
490.70	11587.99
490.88	11789.28
491.06	11733.11
491.24	11845.45
491.41	11721.40
491.59	12264.41
491.77	11969.50
491.95	12320.58
492.13	12159.08
492.30	12198.87
492.48	12292.49
492.66	12395.48
492.84	12369.73
493.01	12418.88
493.19	12554.63
493.37	12961.89
493.54	12812.09
493.72	12812.09
493.90	12926.78
494.08	13041.46
494.25	13109.34
494.43	13008.70
494.61	13092.96
494.79	13324.67
494.96	13266.16
495.14	13191.26
495.32	13308.29
495.49	13441.70
495.67	13586.81
495.85	13650.00
496.02	13748.31
496.20	13748.31
496.38	13940.23
496.55	13748.31
496.73	14202.37
496.91	13884.06
497.09	14193.01
497.26	14354.51
497.44	14319.40
497.62	14387.27
497.79	14616.65
497.97	14436.42
498.14	14611.96
498.32	14658.78
498.50	14614.30
498.67	14665.80
498.85	14761.76
499.03	15040.28
499.20	14846.02
499.38	15063.69
499.56	15208.80
499.73	15229.87
499.91	15391.36
500.08	15323.49
500.26	15098.80
500.44	15089.43
500.61	15288.38
500.79	15192.42
500.97	15459.24
501.14	15763.51
501.32	15756.49
501.49	15573.92
501.67	15665.21
501.84	15676.91
502.02	15726.06
502.20	15988.20
502.37	15868.83
502.55	15983.52
502.72	16189.49
502.90	15962.45
503.07	16093.52
503.25	16114.59
503.43	16156.72
503.60	16322.90
503.78	16418.86
503.95	16294.81
504.13	16311.19
504.30	16297.15
504.48	16355.66
504.65	16400.13
504.83	16858.88
505.01	16844.84
505.18	16760.58
505.36	16809.73
505.53	16978.25
505.71	16912.71
505.88	16849.52
506.06	17137.40
506.23	16842.50
506.41	17390.18
506.58	17046.12
506.76	17123.36
506.93	17146.76
507.11	17362.09
507.28	17294.22
507.46	17137.40
507.63	17720.20
507.81	17961.27
507.98	17537.63
508.16	17326.99
508.33	17649.98
508.50	17504.87
508.68	17898.08
508.85	17951.91
509.03	17682.75
509.20	17839.56
509.38	17926.16
509.55	18218.73
509.73	18274.90
509.90	18244.48
510.08	18270.22
510.25	18277.24
510.42	18368.52
510.60	18464.49
510.77	18530.02
510.95	18628.32
511.12	18457.46
511.30	18342.78
511.47	18633.00
511.64	18794.50
511.82	18892.80
511.99	18588.53
512.17	18911.53
512.34	18771.10
512.51	19161.97
512.69	18874.08
512.86	19201.76
513.04	19398.36
513.21	19314.10
513.38	19414.74
513.56	19412.40
513.73	19412.40
513.90	19379.64
514.08	19264.95
514.25	19459.21
514.43	19541.13
514.60	19466.24
514.77	19786.89
514.95	19700.29
515.12	19534.11
515.29	19585.60
515.47	19697.95
515.64	20065.41
515.81	20077.12
515.99	20109.88
516.16	20140.31
516.33	19988.18
516.51	20343.94
516.68	20067.75
516.85	20109.88
517.03	20259.68
517.20	20390.75
517.37	20245.63
517.54	20311.17
517.72	20416.49
517.89	20259.68
518.06	20184.78
518.24	20519.48
518.41	20601.40
518.58	20435.22
518.75	20549.90
518.93	20882.26
519.10	20552.24
519.27	20908.01
519.45	20767.57
519.62	20940.77
519.79	21032.05
519.96	21001.63
520.14	20816.72
520.31	21202.91
520.48	20912.69
520.65	21172.49
520.83	21221.64
521.00	21167.80
521.17	21095.25
521.34	21240.36
521.52	21221.64
521.69	21631.23
521.86	21612.51
522.03	21682.72
522.20	21926.14
522.38	21642.93
522.55	21671.02
522.72	21788.05
522.89	21544.63
523.07	22132.11
523.24	21668.68
523.41	21858.26
523.58	22033.80
523.75	21916.78
523.92	21965.93
524.10	22181.26
524.27	22171.89
524.44	22113.38
524.61	22473.82
524.78	22515.95
524.96	22352.12
525.13	22111.04
525.30	22483.19
525.47	22600.21
525.64	22757.03
525.81	22618.94
525.98	22614.26
526.16	22632.98
526.33	22279.56
526.50	22934.91
526.67	22792.14
526.84	22583.83
527.01	22253.81
527.18	22836.61
527.36	22813.20
527.53	22651.70
527.70	23325.78
527.87	23257.90
528.04	22883.42
528.21	23211.09
528.38	23030.87
528.55	22984.06
528.72	23229.82
528.89	23274.29
529.07	22808.52
529.24	23166.62
529.41	23330.46
529.58	23234.50
529.75	23288.33
529.92	23365.57
530.09	23569.19
530.26	23218.11
530.43	23536.43
530.60	23543.45
530.77	23531.75
530.94	23192.37
531.11	23726.01
531.28	23332.80
531.46	23459.19
531.63	23524.72
531.80	23737.71
531.97	23917.93
532.14	23854.74
532.31	23992.83
532.48	24002.19
532.65	23985.81
532.82	23915.59
532.99	24142.63
533.16	23665.16
533.33	23999.85
533.50	24257.31
533.67	24304.12
533.84	24088.79
534.01	24159.01
534.18	23704.95
534.35	24283.06
534.52	24247.95
534.69	24631.80
534.86	24521.79
535.03	24636.48
535.20	24421.15
535.37	24517.11
535.54	24287.74
535.71	24135.60
535.88	24357.96
536.05	24163.69
536.22	24737.12
536.38	24900.96
536.55	24638.82
536.72	24744.14
536.89	24318.17
537.06	24809.68
537.23	24786.27
537.40	24861.17
537.57	24809.68
537.74	25062.46
537.91	25149.06
538.08	24790.95
538.25	24786.27
538.42	24790.95
538.59	25160.76
538.75	24746.48
538.92	24826.06
539.09	25135.01
539.26	24900.96
539.43	25333.96
539.60	25158.42
539.77	25331.62
539.94	25558.65
540.11	25039.05
540.28	25228.63
540.44	25820.79
540.61	25462.69
540.78	25383.11
540.95	26015.05
541.12	25703.76
541.29	25745.89
541.46	25837.17
541.62	25649.93
541.79	25977.61
541.96	25965.90
542.13	25593.76
542.30	25956.54
542.47	25675.68
542.63	26075.91
542.80	26293.58
542.97	26312.30
543.14	26349.75
543.31	26176.55
543.48	25834.83
543.64	26501.89
543.81	26658.70
543.98	26504.23
544.15	26597.85
544.32	26504.23
544.48	26759.34
544.65	26513.59
544.82	26148.46
544.99	26228.04
545.16	26345.07
545.32	26366.13
545.49	27398.31
545.66	27414.69
545.83	27789.18
546.00	27667.47
546.16	27030.85
546.33	26726.58
546.50	26274.85
546.67	26565.08
546.83	26256.13
547.00	26426.99
547.17	26597.85
547.34	26625.93
547.50	26876.37
547.67	26632.96
547.84	26738.28
548.00	26817.86
548.17	26675.09
548.34	26810.84
548.51	26761.69
548.67	26962.97
548.84	26817.86
549.01	27094.04
549.18	26749.98
549.34	26778.07
549.51	26579.12
549.68	27267.24
549.84	26831.90
550.01	26981.70
550.18	27091.70
550.34	26925.52
550.51	26962.97
550.68	26848.29
550.84	26934.88
551.01	26974.67
551.18	27028.51
551.34	26995.74
551.51	26808.50
551.68	27138.51
551.84	26969.99
552.01	27077.66
552.18	27370.22
552.34	27091.70
552.51	27058.93
552.68	26883.39
552.84	27311.71
553.01	27178.30
553.18	27194.68
553.34	27452.14
553.51	27182.98
553.67	27110.43
553.84	27630.02
554.01	27353.84
554.17	27173.62
554.34	27395.97
554.51	27358.52
554.67	27447.46
554.84	27047.23
555.00	27147.87
555.17	27215.75
555.33	27243.84
555.50	27288.31
555.67	27136.17
555.83	27648.75
556.00	26986.38
556.16	27555.13
556.33	27080.00
556.50	27452.14
556.66	27374.91
556.83	27180.64
556.99	28161.33
557.16	27765.78
557.32	27318.73
557.49	27529.38
557.65	27630.02
557.82	27012.12
557.98	27456.82
558.15	27541.08
558.32	27606.62
558.48	27597.26
558.65	27981.10
558.81	27835.99
558.98	27550.45
559.14	27740.03
559.31	27550.45
559.47	27555.13
559.64	27608.96
559.80	27344.48
559.97	27887.48
560.13	27702.58
560.30	27997.49
560.46	27707.26
560.63	27768.12
560.79	28060.68
560.96	27845.35
561.12	27623.00
561.29	27725.99
561.45	27962.38
561.61	27728.33
561.78	27751.73
561.94	28044.30
562.11	27583.21
562.27	27653.43
562.44	27700.24
562.60	27723.65
562.77	28161.33
562.93	27903.87
563.10	28313.46
563.26	27927.27
563.42	27831.31
563.59	28037.28
563.75	27913.23
563.92	28222.18
564.08	27777.48
564.24	27847.69
564.41	27580.87
564.57	28208.14
564.74	27915.57
564.90	28060.68
565.07	27889.82
565.23	28098.13
565.39	27730.67
565.56	28505.38
565.72	27885.14
565.88	28144.94
566.05	27957.70
566.21	27625.34
566.38	27714.28
566.54	27747.05
566.70	28362.61
566.87	28278.35
567.03	27688.54
567.19	28170.69
567.36	28039.62
567.52	28009.19
567.68	27871.10
567.85	27840.67
568.01	28219.84
568.17	27882.80
568.34	28329.84
568.50	27988.13
568.66	28407.08
568.83	28137.92
568.99	28032.60
569.15	28037.28
569.32	27873.44
569.48	28142.60
569.64	27908.55
569.81	27967.06
569.97	28063.02
570.13	28170.69
570.30	28175.37
570.46	28486.66
570.62	28002.17
570.78	28140.26
570.95	28034.94
571.11	27943.66
571.27	28217.50
571.43	27786.84
571.60	28156.64
571.76	28112.17
571.92	28329.84
572.09	28465.60
572.25	28238.56
572.41	28217.50
572.57	28315.80
572.74	28261.97
572.90	27821.95
573.06	28095.79
573.22	27852.38
573.38	27990.47
573.55	28233.88
573.71	28081.75
573.87	28657.52
574.03	27903.87
574.20	28390.70
574.36	27576.19
574.52	28151.96
574.68	28126.22
574.84	27931.95
575.01	28032.60
575.17	28411.76
575.33	27971.74
575.49	27929.61
575.65	28030.26
575.82	28205.80
575.98	28025.57
576.14	28304.10
576.30	28231.54
576.46	28325.16
576.62	28259.63
576.79	28489.00
576.95	28013.87
577.11	28292.40
577.27	28346.23
577.43	28156.64
577.59	28364.95
577.75	28297.08
577.92	28257.29
578.08	27885.14
578.24	28180.05
578.40	28091.11
578.56	28133.24
578.72	28666.88
578.88	28205.80
579.04	28341.55
579.21	28191.75
579.37	28077.07
579.53	28299.42
579.69	28060.68
579.85	28161.33
580.01	28217.50
580.17	28196.43
580.33	28339.21
580.49	28292.40
580.65	28725.39
580.82	28545.17
580.98	28290.06
581.14	27789.18
581.30	28589.64
581.46	28100.47
581.62	28020.89
581.78	28053.66
581.94	28203.46
582.10	27679.18
582.26	28470.28
582.42	28189.41
582.58	28177.71
582.74	28379.00
582.90	28526.45
583.06	28620.07
583.22	28166.01
583.38	28369.63
583.54	28023.23
583.70	28285.37
583.86	28048.98
584.02	28264.31
584.18	28283.03
584.34	28811.99
584.50	28481.98
584.66	28474.96
584.82	28252.61
584.98	28673.90
585.14	28650.50
585.30	28465.60
585.46	28353.25
585.62	28222.18
585.78	28634.11
585.94	28357.93
586.10	28353.25
586.26	28446.87
586.42	28371.97
586.58	28716.03
586.74	28844.76
586.90	28283.03
587.06	28259.63
587.22	28290.06
587.38	28453.89
587.54	28837.74
587.70	28460.91
587.86	28528.79
588.02	28313.46
588.18	28617.73
588.34	28524.11
588.49	28617.73
588.65	28264.31
588.81	28622.41
588.97	28531.13
589.13	28615.39
589.29	28304.10
589.45	28725.39
589.61	28636.45
589.77	28465.60
589.93	28692.63
590.08	28540.49
590.24	28573.26
590.40	28772.21
590.56	28720.71
590.72	28613.05
590.88	27931.95
591.04	28793.27
591.20	28732.42
591.35	28870.51
591.51	28725.39
591.67	28559.22
591.83	28774.55
591.99	28772.21
