SpectraSuite Data File
++++++++++++++++++++++++++++++++++++
Date: Tue Oct 01 18:27:27 GMT-05:00 2013
User: stostad
Dark Spectrum Present: No
Reference Spectrum Present: No
Number of Sampled Component Spectra: 1
Spectrometers: USB2+H05261
Integration Time (usec): 100000 (USB2+H05261)
Spectra Averaged: 1 (USB2+H05261)
Boxcar Smoothing: 0 (USB2+H05261)
Correct for Electrical Dark: No (USB2+H05261)
Strobe/Lamp Enabled: No (USB2+H05261)
Correct for Detector Non-linearity: No (USB2+H05261)
Correct for Stray Light: No (USB2+H05261)
Number of Pixels in Processed Spectrum: 2048
>>>>>Begin Processed Spectral Data<<<<<
365.73	67.88
365.92	67.88
366.12	67.88
366.32	49.15
366.52	0.00
366.72	23.41
366.91	0.00
367.11	0.00
367.31	0.00
367.51	0.00
367.70	0.00
367.90	32.77
368.10	0.00
368.30	0.00
368.49	0.00
368.69	0.00
368.89	16.38
369.09	35.11
369.28	51.49
369.48	9.36
369.68	0.00
369.87	0.00
370.07	14.04
370.27	21.06
370.47	95.96
370.66	243.42
370.86	301.93
371.06	362.78
371.25	346.40
371.45	304.27
371.65	447.04
371.84	318.31
372.04	348.74
372.24	393.21
372.44	365.12
372.63	369.80
372.83	400.23
373.03	421.30
373.22	297.25
373.42	362.78
373.62	376.83
373.81	395.55
374.01	470.45
374.21	477.47
374.40	440.02
374.60	500.87
374.79	470.45
374.99	416.62
375.19	416.62
375.38	418.96
375.58	482.15
375.78	465.77
375.97	491.51
376.17	540.66
376.37	561.73
376.56	505.56
376.76	531.30
376.95	423.64
377.15	510.24
377.35	404.91
377.54	519.60
377.74	458.74
377.93	477.47
378.13	484.49
378.33	634.29
378.52	498.53
378.72	524.28
378.91	484.49
379.11	456.40
379.31	475.13
379.50	479.81
379.70	521.94
379.89	482.15
380.09	561.73
380.28	524.28
380.48	564.07
380.68	550.03
380.87	566.41
381.07	669.39
381.26	552.37
381.46	582.79
381.65	526.62
381.85	580.45
382.04	524.28
382.24	587.47
382.43	596.84
382.63	519.60
382.83	578.11
383.02	622.58
383.22	706.84
383.41	615.56
383.61	543.00
383.80	629.60
384.00	514.92
384.19	580.45
384.39	650.67
384.58	578.11
384.78	755.99
384.97	660.03
385.17	660.03
385.36	596.84
385.56	638.97
385.75	669.39
385.95	610.88
386.14	617.90
386.34	624.92
386.53	758.33
386.72	706.84
386.92	767.70
387.11	671.73
387.31	751.31
387.50	697.48
387.70	716.20
387.89	683.44
388.09	720.88
388.28	671.73
388.48	615.56
388.67	716.20
388.86	732.59
389.06	798.12
389.25	716.20
389.45	748.97
389.64	678.76
389.84	765.36
390.03	760.67
390.22	746.63
390.42	800.46
390.61	861.32
390.81	777.06
391.00	676.41
391.19	807.48
391.39	732.59
391.58	821.53
391.78	765.36
391.97	858.98
392.16	894.08
392.36	945.58
392.55	840.25
392.75	910.47
392.94	767.70
393.13	908.13
393.33	800.46
393.52	828.55
393.71	931.53
393.91	910.47
394.10	833.23
394.29	809.83
394.49	1034.52
394.68	931.53
394.88	1001.75
395.07	952.60
395.26	976.00
395.46	1001.75
395.65	954.94
395.84	1008.77
396.04	1128.14
396.23	997.07
396.42	938.55
396.62	1086.01
396.81	1125.80
397.00	1093.03
397.19	1036.86
397.39	1041.54
397.58	1046.22
397.77	1109.41
397.97	1095.37
398.16	1053.24
398.35	1149.20
398.55	1121.12
398.74	1041.54
398.93	1158.57
399.12	1053.24
399.32	1137.50
399.51	1048.56
399.70	1198.35
399.90	1191.33
400.09	1228.78
400.28	1205.38
400.47	1240.48
400.67	1219.42
400.86	1277.93
401.05	1280.27
401.24	1261.55
401.44	1277.93
401.63	1301.34
401.82	1357.51
402.01	1282.61
402.21	1369.21
402.40	1331.76
402.59	1350.49
402.78	1390.28
402.97	1338.79
403.17	1432.41
403.36	1441.77
403.55	1401.98
403.74	1462.83
403.93	1434.75
404.13	1373.89
404.32	1509.65
404.51	1600.93
404.70	1511.99
404.89	1474.54
405.09	1497.94
405.28	1661.78
405.47	1535.39
405.66	1624.33
405.85	1621.99
406.05	1603.27
406.24	1565.82
406.43	1647.74
406.62	1600.93
406.81	1774.13
407.00	1753.06
407.20	1743.70
407.39	1617.31
407.58	1795.19
407.77	1689.87
407.96	1844.34
408.15	1912.22
408.34	1849.02
408.54	1750.72
408.73	1863.07
408.92	1830.30
409.11	1867.75
409.30	1912.22
409.49	1832.64
409.68	1923.92
409.87	1956.69
410.07	2015.20
410.26	2019.88
410.45	1963.71
410.64	1879.45
410.83	2097.12
411.02	2153.29
411.21	2139.25
411.40	2005.84
411.59	2129.89
411.78	2172.02
411.98	2160.31
412.17	2160.31
412.36	2286.70
412.55	2253.94
412.74	2317.13
412.93	2356.92
413.12	2347.56
413.31	2403.73
413.50	2366.28
413.69	2438.84
413.88	2434.16
414.07	2492.67
414.26	2530.12
414.45	2651.83
414.64	2511.39
414.83	2586.29
415.02	2579.27
415.22	2750.13
415.41	2733.75
415.60	2663.53
415.79	2764.17
415.98	2794.60
416.17	2672.89
416.36	2808.64
416.55	2857.79
416.74	2895.24
416.93	2970.14
417.12	2895.24
417.31	2928.01
417.50	3059.08
417.69	3159.72
417.88	3002.91
418.07	2949.08
418.26	3075.46
418.45	3070.78
418.64	3274.41
418.83	3201.85
419.02	3059.08
419.21	3183.13
419.39	3183.13
419.58	3138.66
419.77	3176.11
419.96	3124.62
420.15	3222.92
420.34	3197.17
420.53	3267.39
420.72	3370.37
420.91	3342.28
421.10	3386.76
421.29	3417.18
421.48	3286.11
421.67	3346.97
421.86	3506.12
422.05	3419.52
422.24	3361.01
422.43	3365.69
422.61	3562.30
422.80	3524.85
422.99	3550.59
423.18	3510.80
423.37	3529.53
423.56	3524.85
423.75	3459.31
423.94	3417.18
424.13	3377.39
424.32	3410.16
424.50	3574.00
424.69	3648.90
424.88	3595.06
425.07	3529.53
425.26	3513.14
425.45	3480.38
425.64	3527.19
425.83	3517.83
426.01	3662.94
426.20	3740.18
426.39	3641.87
426.58	3740.18
426.77	3726.13
426.96	3726.13
427.15	3562.30
427.33	3782.31
427.52	3669.96
427.71	3829.12
427.90	3829.12
428.09	3805.71
428.28	3812.73
428.46	3796.35
428.65	3812.73
428.84	3985.93
429.03	4018.70
429.22	3831.46
429.40	3929.76
429.59	4091.26
429.78	3789.33
429.97	3765.92
430.16	3698.05
430.34	4023.38
430.53	4117.00
430.72	3983.59
430.91	3896.99
431.10	4028.06
431.28	4173.18
431.47	4175.52
431.66	4320.63
431.85	4173.18
432.03	4156.79
432.22	4379.14
432.41	4184.88
432.60	4173.18
432.79	4311.27
432.97	4353.40
433.16	4297.22
433.35	4344.03
433.54	4276.16
433.72	4519.57
433.91	4395.53
434.10	4414.25
434.28	4409.57
434.47	4407.23
434.66	4470.42
434.85	4468.08
435.03	4512.55
435.22	4472.76
435.41	4652.98
435.59	4535.96
435.78	4667.03
435.97	4699.80
436.16	4723.20
436.34	4704.48
436.53	4657.67
436.72	4917.47
436.90	4737.24
437.09	4809.80
437.28	4592.13
437.46	4755.97
437.65	4760.65
437.84	4873.00
438.02	4957.25
438.21	4868.31
438.40	4819.16
438.58	4933.85
438.77	4905.76
438.96	5123.43
439.14	5142.16
439.33	5104.71
439.52	5205.35
439.70	5153.86
439.89	5408.98
440.08	5263.86
440.26	5310.68
440.45	5383.23
440.63	5448.77
440.82	5320.04
441.01	5483.88
441.19	5610.26
441.38	5647.71
441.57	5563.45
441.75	5605.58
441.94	5720.27
442.12	5743.67
442.31	5870.06
442.50	5781.12
442.68	5753.04
442.87	5713.25
443.05	5863.04
443.24	5926.24
443.43	5919.21
443.61	5977.73
443.80	6076.03
443.98	5790.49
444.17	5748.36
444.35	5977.73
444.54	6043.26
444.73	5994.11
444.91	6209.44
445.10	6099.44
445.28	6008.16
445.47	5930.92
445.65	6078.37
445.84	5966.03
446.02	6083.05
446.21	6120.50
446.39	6106.46
446.58	6031.56
446.77	6090.07
446.95	6052.63
447.14	6069.01
447.32	6190.72
447.51	6141.57
447.69	6403.71
447.88	6076.03
448.06	6127.52
448.25	6207.10
448.43	6181.35
448.62	6216.46
448.80	6012.84
448.99	6101.78
449.17	6455.20
449.36	6312.42
449.54	6497.33
449.73	6443.49
449.91	6363.92
450.10	6483.28
450.28	6593.29
450.46	6597.97
450.65	6595.63
450.83	6658.82
451.02	6565.20
451.20	6588.61
451.39	6647.12
451.57	6473.92
451.76	6644.78
451.94	6675.21
452.13	6890.54
452.31	6829.68
452.49	6689.25
452.68	7030.97
452.86	6899.90
453.05	6927.99
453.23	6932.67
453.42	6782.87
453.60	6972.46
453.78	6883.52
453.97	6846.07
454.15	6913.94
454.34	6782.87
454.52	6892.88
454.70	7028.63
454.89	7145.66
455.07	6963.09
455.26	7002.88
455.44	7162.04
455.62	7169.06
455.81	7241.62
455.99	7239.28
456.17	7412.48
456.36	7199.49
456.54	7377.37
456.73	7379.71
456.91	7550.57
457.09	7644.19
457.28	7868.88
457.46	7595.04
457.64	7777.60
457.83	7590.36
458.01	7674.62
458.19	7644.19
458.38	7602.06
458.56	7777.60
458.74	7857.18
458.93	7812.71
459.11	7836.11
459.29	7730.79
459.48	7906.33
459.66	7754.19
459.84	8009.31
460.03	7789.30
460.21	7852.50
460.39	8023.36
460.57	7833.77
460.76	8016.33
460.94	7964.84
461.12	8187.19
461.31	8170.81
461.49	8196.56
461.67	7843.14
461.85	8032.72
462.04	8250.39
462.22	8833.18
462.40	8446.99
462.59	8367.42
462.77	8189.53
462.95	8344.01
463.13	8402.52
463.32	8449.33
463.50	8477.42
463.68	8533.59
463.86	8557.00
464.05	8498.49
464.23	8578.06
464.41	8837.86
464.59	8315.92
464.78	8664.66
464.96	8865.95
465.14	8505.51
465.32	8542.96
465.50	8805.10
465.69	8987.66
465.87	8908.08
466.05	8746.58
466.23	8978.30
466.41	8959.57
466.60	9121.07
466.78	8975.95
466.96	8723.18
467.14	9036.81
467.32	8978.30
467.51	9170.22
467.69	8713.81
467.87	9032.13
468.05	9085.96
468.23	8978.30
468.41	9062.55
468.60	9064.89
468.78	9331.72
468.96	8926.80
469.14	9322.35
469.32	9312.99
469.50	9020.42
469.69	9474.49
469.87	9387.89
470.05	9455.76
470.23	9413.63
470.41	9488.53
470.59	9596.20
470.77	9521.30
470.95	9607.90
471.14	9563.43
471.32	9376.19
471.50	9713.22
471.68	9717.90
471.86	10078.35
472.04	9907.49
472.22	9912.17
472.40	9844.29
472.58	10087.71
472.77	9989.41
472.95	10291.34
473.13	10567.52
473.31	10047.92
473.49	10225.80
473.67	10270.27
473.85	10216.44
474.03	10534.75
474.21	10567.52
474.39	10726.68
474.57	10600.29
474.75	10553.48
474.93	11066.05
475.12	10754.76
475.30	11047.33
475.48	10949.03
475.66	11061.37
475.84	10944.34
476.02	11068.39
476.20	11005.20
476.38	11300.11
476.56	11496.71
476.74	11541.18
476.92	11435.86
477.10	11433.52
477.28	11798.64
477.46	11627.78
477.64	11824.39
477.82	11894.60
478.00	12311.22
478.18	12133.34
478.36	12329.94
478.54	12383.77
478.72	12507.82
478.90	12484.42
479.08	12727.83
479.26	12587.40
479.44	12587.40
479.62	12987.63
479.80	13090.62
479.98	13109.34
480.16	13310.63
480.34	13153.81
480.52	13540.00
480.70	13444.04
480.88	13298.92
481.06	13661.71
481.24	13844.27
481.41	13696.82
481.59	14092.37
481.77	14256.20
481.95	14347.48
482.13	14338.12
482.31	14164.92
482.49	14614.30
482.67	14780.48
482.85	14874.10
483.03	15117.52
483.21	15016.88
483.39	15213.48
483.57	15267.31
483.74	15382.00
483.92	15447.54
484.10	15344.55
484.28	15576.27
484.46	16088.84
484.64	16271.40
484.82	15838.41
485.00	16051.39
485.18	16266.72
485.35	16833.13
485.53	16669.30
485.71	16608.44
485.89	17001.65
486.07	16999.31
486.25	17254.43
486.43	17469.76
486.61	17390.18
486.78	17666.36
486.96	17284.86
487.14	18106.38
487.32	17797.43
487.50	18171.92
487.68	18349.80
487.85	18417.68
488.03	18487.89
488.21	18733.65
488.39	18794.50
488.57	19143.24
488.75	19030.90
488.92	19239.20
489.10	19295.38
489.28	19627.73
489.46	19524.75
489.64	19543.47
489.81	19845.40
489.99	20056.05
490.17	20023.28
490.35	20486.71
490.53	20219.89
490.70	20713.74
490.88	20603.74
491.06	20905.66
491.24	20793.32
491.41	21209.93
491.59	21083.55
491.77	21249.72
491.95	21628.89
492.13	21474.42
492.30	21621.87
492.48	22134.45
492.66	22061.89
492.84	21900.39
493.01	22436.38
493.19	22293.60
493.37	22668.09
493.54	22438.72
493.72	22747.67
493.90	22864.69
494.08	23087.04
494.25	23426.42
494.43	23175.98
494.61	23632.39
494.79	23569.19
494.96	23498.98
495.14	23618.35
495.32	24339.23
495.49	24121.56
495.67	24381.36
495.85	24444.56
496.02	24383.70
496.20	24650.52
496.38	24690.31
496.55	24957.13
496.73	25481.41
496.91	25448.64
497.09	25186.50
497.26	25270.76
497.44	25551.63
497.62	25642.91
497.79	26019.74
497.97	26384.86
498.14	25872.28
498.32	26382.52
498.50	26188.25
498.67	26300.60
498.85	26712.53
499.03	26518.27
499.20	27028.51
499.38	26897.44
499.56	26883.39
499.73	27442.78
499.91	27140.85
500.08	27559.81
500.26	27470.87
500.44	27826.63
500.61	27496.61
500.79	27974.08
500.97	27831.31
501.14	28016.21
501.32	28231.54
501.49	27990.47
501.67	28004.51
501.84	28250.27
502.02	28273.67
502.20	28821.36
502.37	28498.36
502.55	28631.77
502.72	28769.86
502.90	28664.54
503.07	28577.94
503.25	29317.55
503.43	28924.34
503.60	29472.03
503.78	29249.67
503.95	29024.98
504.13	29511.81
504.30	29886.30
504.48	29797.36
504.65	29970.56
504.83	30073.54
505.01	30389.52
505.18	29743.53
505.36	30363.77
505.53	30298.23
505.71	30558.03
505.88	30316.96
506.06	30202.27
506.23	30883.37
506.41	30789.75
506.58	30906.77
506.76	30543.99
506.93	31353.82
507.11	31192.32
507.28	31702.56
507.46	31538.72
507.63	31681.49
507.81	31648.72
507.98	31264.88
508.16	31384.24
508.33	31672.13
508.50	32112.15
508.68	32173.00
508.85	32456.21
509.03	31971.72
509.20	32201.09
509.38	32683.24
509.55	32624.73
509.73	32472.59
509.90	32914.95
510.08	32559.19
510.25	32861.12
510.42	32893.89
510.60	33333.91
510.77	33296.46
510.95	33198.16
511.12	33467.32
511.30	33462.64
511.47	33682.65
511.64	33942.45
511.82	33692.01
511.99	33907.34
512.17	33902.66
512.34	34139.05
512.51	34235.02
512.69	34520.56
512.86	34340.34
513.04	34925.47
513.21	34553.33
513.38	34384.81
513.56	34281.83
513.73	34469.07
513.90	34796.74
514.08	34810.79
514.25	35150.17
514.43	35398.26
514.60	35255.49
514.77	34998.03
514.95	35206.34
515.12	35534.01
515.29	35604.23
515.47	35763.39
515.64	35704.87
515.81	35585.50
515.99	35920.20
516.16	35531.67
516.33	35732.96
516.51	36250.22
516.68	35971.69
516.85	36109.78
517.03	36905.57
517.20	36559.17
517.37	36472.57
517.54	36627.04
517.72	36566.19
517.89	36706.62
518.06	36701.94
518.24	36893.86
518.41	36734.71
518.58	37266.01
518.75	36884.50
518.93	37331.54
519.10	37001.53
519.27	37167.71
519.45	37486.02
519.62	37691.99
519.79	37397.08
519.96	37741.14
520.14	37780.93
520.31	37579.64
520.48	37912.00
520.65	37963.49
520.83	38447.98
521.00	38167.12
521.17	38014.98
521.34	38382.45
521.52	38382.45
521.69	38632.88
521.86	38286.48
522.03	38728.84
522.20	38586.07
522.38	38852.89
522.55	39131.42
522.72	39098.65
522.89	39164.18
523.07	39538.67
523.24	39288.23
523.41	39496.54
523.58	39000.35
523.75	39749.32
523.92	39150.14
524.10	39395.90
524.27	40067.63
524.44	40039.54
524.61	40060.61
524.78	39667.40
524.96	39835.92
525.13	40037.20
525.30	40254.87
525.47	40903.20
525.64	40313.39
525.81	40968.74
525.98	40800.22
526.16	40538.08
526.33	40184.66
526.50	40814.26
526.67	40589.57
526.84	40877.46
527.01	40769.79
527.18	40996.82
527.36	40877.46
527.53	40465.52
527.70	41305.77
527.87	41296.41
528.04	41392.37
528.21	41331.52
528.38	41698.98
528.55	41717.71
528.72	41273.01
528.89	41729.41
529.07	41394.71
529.24	41216.83
529.41	41729.41
529.58	41390.03
529.75	41347.90
529.92	42103.90
530.09	42143.69
530.26	42227.95
530.43	42120.28
530.60	41818.35
530.77	42003.25
530.94	42220.92
531.11	42239.65
531.28	42225.60
531.46	42396.46
531.63	42581.37
531.80	42883.30
531.97	42902.02
532.14	42445.62
532.31	42689.03
532.48	42745.20
532.65	42682.01
532.82	42883.30
532.99	43264.80
533.16	43208.63
533.33	43299.91
533.50	43573.75
533.67	42946.49
533.84	42974.58
534.01	42794.36
534.18	43402.89
534.35	43728.23
534.52	43503.54
534.69	44032.50
534.86	43597.16
535.03	43250.76
535.20	43538.65
535.37	43484.81
535.54	44069.95
535.71	43463.75
535.88	44320.38
536.05	44198.68
536.22	44168.25
536.38	44264.21
536.55	44116.76
536.72	44032.50
536.89	44165.91
537.06	44278.25
537.23	44477.20
537.40	44629.34
537.57	44561.46
537.74	44273.57
537.91	44683.17
538.08	44629.34
538.25	44446.77
538.42	44774.45
538.59	44949.99
538.75	44559.12
538.92	44912.54
539.09	45146.59
539.26	45443.84
539.43	44966.37
539.60	45106.80
539.77	45160.64
539.94	45352.56
540.11	45434.48
540.28	45251.92
540.44	45467.25
540.61	45469.59
540.78	45331.50
540.95	45308.09
541.12	45364.26
541.29	45516.40
541.46	45436.82
541.62	45631.08
541.79	46103.87
541.96	45523.42
542.13	45134.89
542.30	45965.78
542.47	46057.06
542.63	45956.42
542.80	46040.68
542.97	45958.76
543.14	46258.35
543.31	46146.00
543.48	46291.12
543.64	46808.37
543.81	46457.29
543.98	46913.70
544.15	46483.04
544.32	46693.69
544.48	46960.51
544.65	46600.07
544.82	47093.92
544.99	46176.43
545.16	47023.70
545.32	46642.20
545.49	47112.64
545.66	47096.26
545.83	47381.80
546.00	46705.39
546.16	47234.35
546.33	46934.76
546.50	47311.59
546.67	47229.67
546.83	46705.39
547.00	47454.36
547.17	47288.18
547.34	47264.78
547.50	47288.18
547.67	47863.96
547.84	47676.71
548.00	47732.89
548.17	48123.75
548.34	47842.89
548.51	48135.46
548.67	47716.50
548.84	47861.61
549.01	47475.43
549.18	47501.17
549.34	47327.97
549.51	48044.18
549.68	47655.65
549.84	48210.35
550.01	48413.98
550.18	47767.99
550.34	47910.77
550.51	48013.75
550.68	48081.63
550.84	47934.17
551.01	48261.85
551.18	47777.36
551.34	48261.85
551.51	48516.96
551.68	48828.26
551.84	48451.43
552.01	48198.65
552.18	48051.20
552.34	48481.86
552.51	48390.58
552.68	48189.29
552.84	48708.89
553.01	49038.90
553.18	48973.37
553.34	48854.00
553.51	48575.48
553.67	48818.89
553.84	48683.14
554.01	48559.09
554.17	48512.28
554.34	48671.44
554.51	48807.19
554.67	48856.34
554.84	49027.20
555.00	49261.26
555.17	48896.13
555.33	49071.67
555.50	49074.01
555.67	48816.55
555.83	49048.27
556.00	49198.06
556.16	49525.74
556.33	49375.94
556.50	49226.15
556.66	49251.89
556.83	49202.74
556.99	49404.03
557.16	49116.14
557.32	49134.87
557.49	49617.02
557.65	49116.14
557.82	49481.27
557.98	49755.11
558.15	49872.14
558.32	49605.31
558.48	49345.51
558.65	49663.83
558.81	49514.03
558.98	49277.64
559.14	49617.02
559.31	49780.85
559.47	49509.35
559.64	49961.08
559.80	50148.32
559.97	49855.75
560.13	49794.90
560.30	49708.30
560.46	49923.63
560.63	49820.64
560.79	49780.85
560.96	50178.75
561.12	50061.72
561.29	50220.87
561.45	50059.38
561.61	50068.74
561.78	49932.99
561.94	49762.13
562.11	50169.38
562.27	50218.53
562.44	49804.26
562.60	50258.32
562.77	50321.52
562.93	50255.98
563.10	50663.24
563.26	50326.20
563.42	50501.74
563.59	49631.06
563.75	50113.21
563.92	50279.39
564.08	50508.76
564.24	50319.18
564.41	50333.22
564.57	50344.92
564.74	50522.80
564.90	50642.17
565.07	50326.20
565.23	50459.61
565.39	50375.35
565.56	50073.42
565.72	50309.82
565.88	50096.83
566.05	50663.24
566.21	50681.96
566.38	50586.00
566.54	50204.49
566.70	50391.73
566.87	50789.62
567.03	50314.50
567.19	50286.41
567.36	50490.04
567.52	50239.60
567.68	50747.50
567.85	50227.90
568.01	50618.77
568.17	50569.61
568.34	50593.02
568.50	50480.67
568.66	50588.34
568.83	50705.37
568.99	50295.77
569.15	50583.66
569.32	50944.10
569.48	50813.03
569.64	50908.99
569.81	50899.63
569.97	50721.75
570.13	50630.47
570.30	50337.90
570.46	50747.50
570.62	50763.88
570.78	50777.92
570.95	50445.57
571.11	50916.01
571.27	50724.09
571.43	50944.10
571.60	50948.78
571.76	50717.07
571.92	50930.06
572.09	50546.21
572.25	51096.24
572.41	50644.51
572.57	50836.44
572.74	51234.33
572.90	51138.36
573.06	50941.76
573.22	51124.32
573.38	50906.65
573.55	50934.74
573.71	51264.75
573.87	51007.29
574.03	50597.70
574.20	50801.33
574.36	50644.51
574.52	50822.39
574.68	50864.52
574.84	51264.75
575.01	51271.78
575.17	51061.13
575.33	50663.24
575.49	51019.00
575.65	50951.12
575.82	51072.83
575.98	50543.87
576.14	51107.94
576.30	51077.51
576.46	51143.05
576.62	51117.30
576.79	51213.26
576.95	50981.55
577.11	50986.23
577.27	51047.08
577.43	50841.12
577.59	50789.62
577.75	50927.72
577.92	51019.00
578.08	51063.47
578.24	51276.46
578.40	51657.96
578.56	51496.47
578.72	50986.23
578.88	51262.41
579.04	51351.35
579.21	50899.63
579.37	51089.21
579.53	51061.13
579.69	50951.12
579.85	51526.89
580.01	51580.73
580.17	51194.54
580.33	51295.18
580.49	50906.65
580.65	51168.79
580.82	50972.19
580.98	51157.09
581.14	50887.93
581.30	51070.49
581.46	51189.86
581.62	51384.12
581.78	51114.96
581.94	51264.75
582.10	51068.15
582.26	51461.36
582.42	50979.21
582.58	51119.64
582.74	51040.06
582.90	51391.14
583.06	51360.72
583.22	51143.05
583.38	51634.56
583.54	51447.32
583.70	51543.28
583.86	51344.33
584.02	51152.41
584.18	51583.07
584.34	51215.60
584.50	51456.68
584.66	51402.85
584.82	51393.48
584.98	51330.29
585.14	51554.98
585.30	51276.46
585.46	51461.36
585.62	51576.04
585.78	51489.45
585.94	51000.27
586.10	50993.25
586.26	51026.02
586.42	51145.39
586.58	51180.49
586.74	51318.59
586.90	51468.38
587.06	51416.89
587.22	51679.03
587.38	51615.83
587.54	51620.52
587.70	51690.73
587.86	51646.26
588.02	51138.36
588.18	51562.00
588.34	51353.69
588.49	51681.37
588.65	51508.17
588.81	51496.47
588.97	51723.50
589.13	51744.56
589.29	51753.93
589.45	52030.11
589.61	51540.94
589.77	51702.43
589.93	51522.21
590.08	51433.27
590.24	51447.32
590.40	51732.86
