SpectraSuite Data File
++++++++++++++++++++++++++++++++++++
Date: Fri Oct 04 11:39:18 GMT-05:00 2013
User: price-jones
Dark Spectrum Present: No
Reference Spectrum Present: No
Number of Sampled Component Spectra: 1
Spectrometers: USB2+H05261
Integration Time (usec): 100000 (USB2+H05261)
Spectra Averaged: 1 (USB2+H05261)
Boxcar Smoothing: 0 (USB2+H05261)
Correct for Electrical Dark: No (USB2+H05261)
Strobe/Lamp Enabled: No (USB2+H05261)
Correct for Detector Non-linearity: No (USB2+H05261)
Correct for Stray Light: No (USB2+H05261)
Number of Pixels in Processed Spectrum: 2048
>>>>>Begin Processed Spectral Data<<<<<
365.73	16.38
365.92	16.38
366.12	16.38
366.32	0.00
366.52	0.00
366.72	0.00
366.91	0.00
367.11	0.00
367.31	2.34
367.51	0.00
367.70	0.00
367.90	0.00
368.10	0.00
368.30	0.00
368.49	0.00
368.69	0.00
368.89	0.00
369.09	0.00
369.28	4.68
369.48	0.00
369.68	21.06
369.87	0.00
370.07	4.68
370.27	63.19
370.47	86.60
370.66	243.42
370.86	205.97
371.06	252.78
371.25	266.82
371.45	257.46
371.65	374.49
371.84	255.12
372.04	306.61
372.24	285.55
372.44	215.33
372.63	299.59
372.83	376.83
373.03	383.85
373.22	304.27
373.42	297.25
373.62	355.76
373.81	386.19
374.01	437.68
374.21	428.32
374.40	372.15
374.60	348.74
374.79	365.12
374.99	376.83
375.19	430.66
375.38	334.70
375.58	395.55
375.78	360.44
375.97	397.89
376.17	461.09
376.37	411.93
376.56	393.21
376.76	351.08
376.95	393.21
377.15	421.30
377.35	458.74
377.54	430.66
377.74	444.70
377.93	451.72
378.13	451.72
378.33	463.43
378.52	411.93
378.72	479.81
378.91	393.21
379.11	409.59
379.31	425.98
379.50	393.21
379.70	451.72
379.89	524.28
380.09	479.81
380.28	456.40
380.48	458.74
380.68	447.04
380.87	428.32
381.07	437.68
381.26	433.00
381.46	503.22
381.65	477.47
381.85	461.09
382.04	468.11
382.24	444.70
382.43	533.64
382.63	535.98
382.83	564.07
383.02	435.34
383.22	514.92
383.41	493.85
383.61	603.86
383.80	458.74
384.00	512.58
384.19	547.69
384.39	571.09
384.58	571.09
384.78	543.00
384.97	594.50
385.17	617.90
385.36	538.32
385.56	547.69
385.75	521.94
385.95	437.68
386.14	692.80
386.34	540.66
386.53	587.47
386.72	608.54
386.92	601.52
387.11	566.41
387.31	564.07
387.50	547.69
387.70	582.79
387.89	589.82
388.09	568.75
388.28	557.05
388.48	643.65
388.67	650.67
388.86	585.13
389.06	587.47
389.25	608.54
389.45	634.29
389.64	683.44
389.84	678.76
390.03	706.84
390.22	667.05
390.42	636.63
390.61	699.82
390.81	627.26
391.00	664.71
391.19	784.08
391.39	746.63
391.58	596.84
391.78	692.80
391.97	765.36
392.16	676.41
392.36	744.29
392.55	737.27
392.75	730.25
392.94	690.46
393.13	730.25
393.33	741.95
393.52	746.63
393.71	807.48
393.91	786.42
394.10	791.10
394.29	760.67
394.49	765.36
394.68	826.21
394.88	706.84
395.07	802.80
395.26	755.99
395.46	851.96
395.65	919.83
395.84	854.30
396.04	987.71
396.23	877.70
396.42	889.40
396.62	840.25
396.81	1015.79
397.00	833.23
397.19	940.90
397.39	844.93
397.58	952.60
397.77	954.94
397.97	924.51
398.16	964.30
398.35	933.87
398.55	898.77
398.74	971.32
398.93	1053.24
399.12	1015.79
399.32	1022.81
399.51	987.71
399.70	1069.62
399.90	1064.94
400.09	1088.35
400.28	1004.09
400.47	1022.81
400.67	1071.97
400.86	985.37
401.05	1060.26
401.24	1149.20
401.44	1111.75
401.63	1188.99
401.82	1179.63
402.01	1071.97
402.21	1125.80
402.40	1165.59
402.59	1130.48
402.78	1177.29
402.97	1167.93
403.17	1186.65
403.36	1238.14
403.55	1219.42
403.74	1249.85
403.93	1390.28
404.13	1343.47
404.32	1299.00
404.51	1373.89
404.70	1284.95
404.89	1240.48
405.09	1289.64
405.28	1352.83
405.47	1317.72
405.66	1329.42
405.85	1376.24
406.05	1387.94
406.24	1411.34
406.43	1397.30
406.62	1474.54
406.81	1563.48
407.00	1390.28
407.20	1481.56
407.39	1483.90
407.58	1444.11
407.77	1474.54
407.96	1645.40
408.15	1636.03
408.34	1626.67
408.54	1600.93
408.73	1605.61
408.92	1544.75
409.11	1593.90
409.30	1591.56
409.49	1650.08
409.68	1746.04
409.87	1645.40
410.07	1774.13
410.26	1769.44
410.45	1813.92
410.64	1799.87
410.83	1802.21
411.02	1762.42
411.21	1834.98
411.40	1844.34
411.59	1947.33
411.78	1909.88
411.98	1867.75
412.17	1879.45
412.36	1919.24
412.55	1982.43
412.74	1980.09
412.93	1895.83
413.12	2080.74
413.31	2162.66
413.50	2036.27
413.69	2071.37
413.88	2200.10
414.07	2160.31
414.26	2298.41
414.45	2094.78
414.64	2228.19
414.83	2242.23
415.02	2249.25
415.22	2312.45
415.41	2340.54
415.60	2293.72
415.79	2413.09
415.98	2457.56
416.17	2485.65
416.36	2450.54
416.55	2546.50
416.74	2490.33
416.93	2663.53
417.12	2700.98
417.31	2670.55
417.50	2525.44
417.69	2703.32
417.88	2686.94
418.07	2668.21
418.26	2574.59
418.45	2630.76
418.64	2808.64
418.83	2818.00
419.02	2700.98
419.21	2890.56
419.39	2825.03
419.58	2715.02
419.77	2799.28
419.96	2829.71
420.15	2787.58
420.34	2967.80
420.53	3033.33
420.72	2958.44
420.91	3002.91
421.10	3042.70
421.29	3108.23
421.48	2993.55
421.67	3038.02
421.86	2979.50
422.05	3136.32
422.24	3049.72
422.43	3040.36
422.61	3087.17
422.80	3112.91
422.99	3155.04
423.18	3082.49
423.37	3141.00
423.56	3178.45
423.75	3061.42
423.94	3126.96
424.13	2974.82
424.32	2986.52
424.50	3126.96
424.69	3262.71
424.88	3187.81
425.07	3119.93
425.26	3073.12
425.45	3159.72
425.64	3124.62
425.83	3084.83
426.01	3276.75
426.20	3180.79
426.39	3328.24
426.58	3253.34
426.77	3290.79
426.96	3339.94
427.15	3243.98
427.33	3384.41
427.52	3243.98
427.71	3176.11
427.90	3426.54
428.09	3428.88
428.28	3309.52
428.46	3529.53
428.65	3393.78
428.84	3358.67
429.03	3536.55
429.22	3396.12
429.40	3489.74
429.59	3562.30
429.78	3442.93
429.97	3372.71
430.16	3400.80
430.34	3613.79
430.53	3705.07
430.72	3655.92
430.91	3527.19
431.10	3510.80
431.28	3485.06
431.47	3796.35
431.66	3721.45
431.85	3660.60
432.03	3861.88
432.22	3742.52
432.41	3904.01
432.60	3875.93
432.79	4014.02
432.97	3857.20
433.16	4002.32
433.35	3943.80
433.54	3803.37
433.72	3992.95
433.91	3896.99
434.10	3852.52
434.28	3911.04
434.47	4044.45
434.66	3880.61
434.85	3990.61
435.03	4126.36
435.22	4241.05
435.41	4613.20
435.59	4344.03
435.78	4407.23
435.97	4327.65
436.16	4119.34
436.34	4140.41
436.53	4287.86
436.72	4320.63
436.90	4135.73
437.09	4250.41
437.28	4236.37
437.46	4217.65
437.65	4229.35
437.84	4315.95
438.02	4496.17
438.21	4437.66
438.40	4369.78
438.58	4461.06
438.77	4411.91
438.96	4444.68
439.14	4634.26
439.33	4678.73
439.52	4669.37
439.70	4575.75
439.89	4788.74
440.08	4723.20
440.26	4620.22
440.45	4800.44
440.63	4877.68
440.82	4793.42
441.01	4877.68
441.19	4833.21
441.38	5060.24
441.57	5041.51
441.75	4978.32
441.94	5104.71
442.12	5111.73
442.31	5170.24
442.50	5146.84
442.68	5184.29
442.87	5207.69
443.05	5160.88
443.24	5383.23
443.43	5282.59
443.61	5219.39
443.80	5404.30
443.98	5146.84
444.17	5151.52
444.35	5394.93
444.54	5289.61
444.73	5390.25
444.91	5472.17
445.10	5282.59
445.28	5544.73
445.47	5357.49
445.65	5331.74
445.84	5289.61
446.02	5465.15
446.21	5474.51
446.39	5324.72
446.58	5509.62
446.77	5612.60
446.95	5308.34
447.14	5481.53
447.32	5657.07
447.51	5638.35
447.69	5355.15
447.88	5542.39
448.06	5533.03
448.25	5406.64
448.43	5577.50
448.62	5472.17
448.80	5495.58
448.99	5692.18
449.17	5769.42
449.36	5806.87
449.54	5659.42
449.73	5830.27
449.91	5713.25
450.10	5734.31
450.28	5891.13
450.46	5914.53
450.65	5841.98
450.83	5750.70
451.02	5884.11
451.20	5926.24
451.39	5949.64
451.57	5970.71
451.76	5940.28
451.94	5825.59
452.13	6076.03
452.31	6010.50
452.49	5905.17
452.68	5956.66
452.86	6104.12
453.05	6031.56
453.23	6136.88
453.42	5982.41
453.60	5933.26
453.78	6134.54
453.97	6071.35
454.15	6310.08
454.34	6235.19
454.52	6434.13
454.70	6298.38
454.89	6317.11
455.07	6312.42
455.26	6312.42
455.44	6429.45
455.62	6380.30
455.81	6272.64
455.99	6401.37
456.17	6464.56
456.36	6492.65
456.54	6637.76
456.73	6612.01
456.91	6841.39
457.09	6876.49
457.28	6743.08
457.46	6579.25
457.64	6672.87
457.83	6602.65
458.01	6703.29
458.19	6920.96
458.38	6750.10
458.56	6862.45
458.74	6860.11
458.93	6909.26
459.11	6942.03
459.29	6834.36
459.48	7089.48
459.66	6918.62
459.84	6993.52
460.03	7152.68
460.21	6974.80
460.39	7054.37
460.57	7148.00
460.76	7045.01
460.94	7222.89
461.12	7246.30
461.31	7265.02
461.49	7258.00
461.67	7145.66
461.85	7351.62
462.04	7370.35
462.22	7665.25
462.40	7314.17
462.59	7419.50
462.77	7435.88
462.95	7531.84
463.13	7550.57
463.32	7557.59
463.50	7653.55
463.68	7531.84
463.86	7527.16
464.05	7433.54
464.23	7564.61
464.41	7728.45
464.59	7452.27
464.78	7662.91
464.96	7775.26
465.14	7545.89
465.32	7683.98
465.50	7758.88
465.69	7885.26
465.87	7770.58
466.05	7632.49
466.23	7808.03
466.41	7845.48
466.60	8133.36
466.78	7765.90
466.96	7885.26
467.14	7826.75
467.32	7948.46
467.51	7995.27
467.69	7779.94
467.87	8058.46
468.05	8051.44
468.23	8016.33
468.41	7953.14
468.60	8163.79
468.78	8248.05
468.96	8030.38
469.14	8290.18
469.32	8374.44
469.50	8177.83
469.69	8365.07
469.87	8292.52
470.05	8407.20
470.23	8269.11
470.41	8388.48
470.59	8414.23
470.77	8217.62
470.95	8386.14
471.14	8418.91
471.32	8512.53
471.50	8821.48
471.68	8779.35
471.86	8695.09
472.04	8805.10
472.22	8819.14
472.40	8833.18
472.58	8875.31
472.77	8959.57
472.95	8870.63
473.13	9118.73
473.31	9100.00
473.49	9121.07
473.67	9231.07
473.85	9224.05
474.03	9329.38
474.21	9479.17
474.39	9504.92
474.57	9563.43
474.75	9741.31
474.93	9605.56
475.12	9490.87
475.30	9518.96
475.48	9575.13
475.66	9778.76
475.84	9610.24
476.02	9844.29
476.20	9813.87
476.38	10064.30
476.56	10277.29
476.74	10115.80
476.92	10019.83
477.10	10300.70
477.28	10324.10
477.46	10462.19
477.64	10427.09
477.82	10658.80
478.00	10663.48
478.18	10960.73
478.36	11087.12
478.54	10902.22
478.72	10773.49
478.90	11173.72
479.08	11014.56
479.26	11232.23
479.44	11302.45
479.62	11508.41
479.80	11412.45
479.98	11550.54
480.16	11655.87
480.34	11777.58
480.52	11922.69
480.70	11878.22
480.88	11688.64
481.06	12042.06
481.24	11981.20
481.41	11960.14
481.59	12355.69
481.77	12358.03
481.95	12524.21
482.13	12585.06
482.31	12762.94
482.49	12802.73
482.67	12919.76
482.85	12989.97
483.03	13212.32
483.21	13659.37
483.39	13469.78
483.57	13270.84
483.74	13502.55
483.92	13437.02
484.10	13525.96
484.28	13837.25
484.46	14211.73
484.64	14293.65
484.82	14061.94
485.00	14174.28
485.18	14389.61
485.35	14874.10
485.53	14534.73
485.71	14750.06
485.89	15159.65
486.07	14970.07
486.25	14909.21
486.43	14906.87
486.61	14920.92
486.78	15517.75
486.96	15475.62
487.14	15791.59
487.32	15690.95
487.50	15817.34
487.68	15882.88
487.85	16390.77
488.03	16128.63
488.21	16432.90
488.39	16783.98
488.57	16704.40
488.75	16716.11
488.92	16987.61
489.10	17240.39
489.28	17109.32
489.46	17338.69
489.64	17507.21
489.81	17687.43
489.99	17741.26
490.17	17640.62
490.35	18045.53
490.53	18190.64
490.70	18132.13
490.88	18375.55
491.06	18396.61
491.24	18576.83
491.41	18789.82
491.59	18630.66
491.77	18906.85
491.95	19260.27
492.13	19000.47
492.30	19112.81
492.48	18998.13
492.66	19241.54
492.84	19424.11
493.01	19726.04
493.19	19723.69
493.37	19693.27
493.54	20170.74
493.72	19915.62
493.90	19800.93
494.08	20168.40
494.25	20439.90
494.43	20489.05
494.61	20968.86
494.79	20929.07
494.96	20769.91
495.14	21156.10
495.32	21240.36
495.49	20931.41
495.67	21341.00
495.85	21652.30
496.02	21862.94
496.20	21600.80
496.38	21357.39
496.55	21614.85
496.73	22429.35
496.91	22265.52
497.09	22122.74
497.26	22691.49
497.44	22637.66
497.62	22190.62
497.79	22923.21
497.97	22647.02
498.14	22874.06
498.32	23417.06
498.50	23175.98
498.67	23021.51
498.85	23276.63
499.03	23159.60
499.20	23831.33
499.38	23503.66
499.56	24182.42
499.73	23946.02
499.91	24329.87
500.08	23960.06
500.26	23784.52
500.44	24065.39
500.61	24095.82
500.79	24280.72
500.97	24496.05
501.14	24711.38
501.32	24613.07
501.49	24622.44
501.67	24898.62
501.84	24699.67
502.02	24830.74
502.20	25109.27
502.37	25331.62
502.55	25090.54
502.72	25228.63
502.90	25535.24
503.07	25149.06
503.25	25624.18
503.43	25303.53
503.60	25876.96
503.78	25795.04
503.95	25486.09
504.13	26141.44
504.30	25949.52
504.48	25888.67
504.65	26375.50
504.83	26324.01
505.01	26331.03
505.18	26274.85
505.36	26724.24
505.53	26515.93
505.71	26759.34
505.88	26759.34
506.06	26576.78
506.23	26958.29
506.41	26960.63
506.58	27372.57
506.76	27173.62
506.93	27220.43
507.11	27318.73
507.28	27122.13
507.46	27527.04
507.63	27985.79
507.81	27655.77
507.98	27641.73
508.16	28009.19
508.33	27976.42
508.50	27737.69
508.68	28077.07
508.85	28290.06
509.03	28285.37
509.20	28360.27
509.38	29062.43
509.55	28402.40
509.73	28938.38
509.90	28795.61
510.08	28884.55
510.25	28699.65
510.42	28830.72
510.60	29017.96
510.77	29378.40
510.95	29439.26
511.12	29242.65
511.30	29589.05
511.47	29289.46
511.64	29605.44
511.82	29790.34
511.99	29907.37
512.17	30022.05
512.34	30029.07
512.51	30216.32
512.69	30213.98
512.86	30082.91
513.04	30167.16
513.21	30127.38
513.38	30433.99
513.56	30625.91
513.73	30485.48
513.90	30417.60
514.08	30478.46
514.25	30646.97
514.43	30862.30
514.60	30710.17
514.77	30696.13
514.95	31047.21
515.12	31058.91
515.29	30703.15
515.47	31295.30
515.64	31218.07
515.81	31283.60
515.99	31388.92
516.16	32170.66
516.33	31859.37
516.51	31742.35
516.68	31945.97
516.85	31910.86
517.03	31868.73
517.20	31976.40
517.37	32034.91
517.54	32404.72
517.72	32102.79
517.89	32320.46
518.06	31861.71
518.24	32030.23
518.41	32290.03
518.58	32718.35
518.75	32442.17
518.93	32718.35
519.10	32687.92
519.27	32559.19
519.45	32912.61
519.62	33081.13
519.79	33111.56
519.96	33057.73
520.14	33380.72
520.31	32856.44
520.48	33350.29
520.65	33053.05
520.83	33743.50
521.00	33776.27
521.17	33556.26
521.34	33645.20
521.52	33745.84
521.69	34167.14
521.86	34422.26
522.03	34096.92
522.20	33963.51
522.38	34073.52
522.55	34085.22
522.72	34092.24
522.89	33902.66
523.07	34148.42
523.24	34347.36
523.41	34522.90
523.58	34520.56
523.75	34518.22
523.92	34618.86
524.10	34841.21
524.27	34845.90
524.44	35299.96
524.61	35548.06
524.78	35466.14
524.96	35550.40
525.13	35091.65
525.30	35683.81
525.47	35510.61
525.64	35278.89
525.81	35695.51
525.98	35915.52
526.16	35882.75
526.33	35468.48
526.50	36191.70
526.67	35536.35
526.84	35756.36
527.01	35735.30
527.18	35887.43
527.36	36088.72
527.53	36259.58
527.70	36680.88
527.87	36542.78
528.04	36273.62
528.21	36697.26
528.38	36168.30
528.55	36563.85
528.72	36538.10
528.89	36723.01
529.07	36645.77
529.24	36493.63
529.41	37181.75
529.58	36428.10
529.75	36144.89
529.92	36877.48
530.09	37015.57
530.26	36547.47
530.43	37156.00
530.60	37109.19
530.77	36964.08
530.94	37598.37
531.11	37132.60
531.28	36935.99
531.46	37251.97
531.63	37404.10
531.80	37336.23
531.97	37764.54
532.14	37338.57
532.31	37359.63
532.48	37764.54
532.65	37858.17
532.82	37572.62
532.99	38188.18
533.16	37830.08
533.33	37837.10
533.50	38602.46
533.67	38043.07
533.84	38075.84
534.01	38202.22
534.18	38024.34
534.35	38398.83
534.52	38361.38
534.69	38803.74
534.86	38869.28
535.03	38405.85
535.20	38478.41
535.37	38401.17
535.54	38597.77
535.71	38513.52
535.88	38897.36
536.05	38689.06
536.22	38932.47
536.38	39243.76
536.55	38902.04
536.72	38888.00
536.89	39194.61
537.06	39196.95
537.23	39288.23
537.40	39297.59
537.57	38878.64
537.74	39330.36
537.91	39601.86
538.08	39639.31
538.25	39171.21
538.42	39985.71
538.59	39716.55
538.75	39246.10
538.92	39503.56
539.09	39959.97
539.26	39957.63
539.43	39878.05
539.60	40133.17
539.77	40112.10
539.94	39768.04
540.11	40334.45
540.28	40034.86
540.44	40158.91
540.61	40285.30
540.78	40196.36
540.95	40591.91
541.12	40697.24
541.29	40680.85
541.46	40662.13
541.62	40683.19
541.79	40603.61
541.96	40385.94
542.13	40591.91
542.30	40921.93
542.47	41312.80
542.63	41029.59
542.80	40926.61
542.97	41326.84
543.14	41340.88
543.31	41446.21
543.48	41385.35
543.64	41720.05
543.81	41684.94
543.98	41982.19
544.15	41626.43
544.32	41830.05
544.48	42181.13
544.65	41380.67
544.82	41972.83
544.99	41502.38
545.16	41947.08
545.32	41986.87
545.49	42092.19
545.66	42649.24
545.83	42923.08
546.00	43145.44
546.16	42394.12
546.33	41825.37
546.50	41984.53
546.67	42120.28
546.83	41525.78
547.00	42071.13
547.17	42391.78
547.34	42277.10
547.50	42459.66
547.67	42635.20
547.84	42185.82
548.00	42499.45
548.17	42347.31
548.34	42359.02
548.51	42927.77
548.67	42583.71
548.84	42438.59
549.01	42288.80
549.18	42902.02
549.34	42258.37
549.51	42520.51
549.68	42813.08
549.84	42616.47
550.01	42436.25
550.18	42878.61
550.34	42995.64
550.51	42939.47
550.68	42969.90
550.84	42466.68
551.01	43159.48
551.18	42595.41
551.34	42440.93
551.51	42988.62
551.68	43042.45
551.84	43325.66
552.01	43140.75
552.18	43311.61
552.34	43072.88
552.51	43007.34
552.68	42976.92
552.84	43297.57
553.01	43372.47
553.18	43028.41
553.34	43676.74
553.51	43452.05
553.67	43189.91
553.84	43824.19
554.01	43941.22
554.17	43796.10
554.34	43625.25
554.51	43140.75
554.67	43487.15
554.84	43461.41
555.00	43517.58
555.17	43798.44
555.33	44280.60
555.50	43522.26
555.67	43992.71
555.83	43510.56
556.00	43749.29
556.16	43852.28
556.33	43700.14
556.50	43817.17
556.66	44034.84
556.83	43674.40
556.99	44102.71
557.16	44418.69
557.32	44238.47
557.49	44030.16
557.65	44027.82
557.82	44091.01
557.98	44191.65
558.15	44210.38
558.32	44479.54
558.48	44154.21
558.65	44271.23
558.81	44322.72
558.98	44547.42
559.14	44896.16
559.31	44259.53
559.47	44421.03
559.64	44208.04
559.80	44556.78
559.97	44100.37
560.13	44425.71
560.30	44603.59
560.46	44837.64
560.63	44397.62
560.79	44926.58
560.96	44570.82
561.12	44652.74
561.29	44678.49
561.45	44868.07
561.61	45247.24
561.78	44809.56
561.94	44554.44
562.11	44854.03
562.27	45186.38
562.44	44657.42
562.60	44538.05
562.77	44552.10
562.93	45261.28
563.10	44781.47
563.26	44594.23
563.42	45186.38
563.59	45148.93
563.75	44739.34
563.92	45001.48
564.08	44926.58
564.24	45113.83
564.41	44636.36
564.57	45095.10
564.74	44617.63
564.90	44917.22
565.07	44828.28
565.23	45120.85
565.39	44832.96
565.56	45214.47
565.72	44788.49
565.88	44444.43
566.05	44718.28
566.21	44411.67
566.38	44931.26
566.54	45041.27
566.70	45113.83
566.87	45642.79
567.03	45310.43
567.19	45748.11
567.36	45577.25
567.52	45235.53
567.68	45202.77
567.85	44875.09
568.01	45254.26
568.17	45368.94
568.34	45743.43
568.50	45235.53
568.66	45925.99
568.83	45408.73
568.99	45546.82
569.15	45230.85
569.32	45455.54
569.48	45102.12
569.64	45200.43
569.81	45448.52
569.97	44954.67
570.13	45628.74
570.30	45081.06
570.46	45303.41
570.62	45221.49
570.78	44973.39
570.95	45179.36
571.11	45698.96
571.27	45553.85
571.43	45052.97
571.60	45069.36
571.76	45277.66
571.92	45998.55
572.09	45633.42
572.25	45858.12
572.41	45539.80
572.57	45858.12
572.74	45937.69
572.90	45198.09
573.06	45581.93
573.22	45441.50
573.38	46000.89
573.55	45289.37
573.71	46532.19
573.87	46012.59
574.03	45352.56
574.20	45675.55
574.36	45326.81
574.52	45340.86
574.68	45333.84
574.84	45415.76
575.01	46148.34
575.17	45741.09
575.33	45523.42
575.49	45523.42
575.65	46017.27
575.82	45591.30
575.98	45886.20
576.14	45687.26
576.30	46019.61
576.46	45574.91
576.62	45471.93
576.79	45879.18
576.95	45628.74
577.11	45701.30
577.27	45860.46
577.43	46131.96
577.59	45450.86
577.75	46181.11
577.92	45933.01
578.08	45673.21
578.24	45497.67
578.40	45724.71
578.56	46129.62
578.72	46380.06
578.88	46185.79
579.04	46160.05
579.21	46183.45
579.37	45975.14
579.53	46307.50
579.69	45439.16
579.85	45738.75
580.01	45319.79
580.17	45713.00
580.33	45696.62
580.49	45975.14
580.65	45872.16
580.82	46658.58
580.98	45893.22
581.14	46305.16
581.30	46038.34
581.46	46052.38
581.62	45986.85
581.78	45914.29
581.94	46099.19
582.10	45820.67
582.26	45911.95
582.42	45923.65
582.58	46546.23
582.74	46286.43
582.90	46398.78
583.06	46387.08
583.22	46017.27
583.38	46277.07
583.54	46103.87
583.70	45918.97
583.86	45806.62
584.02	46047.70
584.18	46609.43
584.34	46576.66
584.50	46590.70
584.66	45858.12
584.82	46232.60
584.98	46457.29
585.14	46429.21
585.30	46054.72
585.46	46190.47
585.62	45904.93
585.78	46192.81
585.94	45476.61
586.10	45808.96
586.26	46419.84
586.42	46361.33
586.58	46230.26
586.74	46274.73
586.90	46478.36
587.06	45603.00
587.22	46738.16
587.38	46050.04
587.54	46424.53
587.70	46141.32
587.86	46494.74
588.02	46602.41
588.18	46263.03
588.34	46232.60
588.49	46295.80
588.65	46314.52
588.81	46052.38
588.97	46342.61
589.13	46103.87
589.29	46354.31
589.45	46621.13
589.61	46560.28
589.77	46663.26
589.93	46354.31
590.08	46887.95
590.24	46644.54
590.40	46815.40
590.56	46597.73
590.72	46302.82
590.88	45933.01
