SpectraSuite Data File
++++++++++++++++++++++++++++++++++++
Date: Fri Oct 04 11:40:07 GMT-05:00 2013
User: price-jones
Dark Spectrum Present: No
Reference Spectrum Present: No
Number of Sampled Component Spectra: 1
Spectrometers: USB2+H05261
Integration Time (usec): 100000 (USB2+H05261)
Spectra Averaged: 1 (USB2+H05261)
Boxcar Smoothing: 0 (USB2+H05261)
Correct for Electrical Dark: No (USB2+H05261)
Strobe/Lamp Enabled: No (USB2+H05261)
Correct for Detector Non-linearity: No (USB2+H05261)
Correct for Stray Light: No (USB2+H05261)
Number of Pixels in Processed Spectrum: 2048
>>>>>Begin Processed Spectral Data<<<<<
365.73	100.64
365.92	100.64
366.12	100.64
366.32	0.00
366.52	0.00
366.72	0.00
366.91	0.00
367.11	0.00
367.31	46.81
367.51	0.00
367.70	0.00
367.90	0.00
368.10	0.00
368.30	0.00
368.49	0.00
368.69	0.00
368.89	0.00
369.09	0.00
369.28	0.00
369.48	0.00
369.68	11.70
369.87	16.38
370.07	0.00
370.27	121.71
370.47	121.71
370.66	461.09
370.86	486.83
371.06	526.62
371.25	744.29
371.45	608.54
371.65	512.58
371.84	486.83
372.04	550.03
372.24	587.47
372.44	512.58
372.63	585.13
372.83	650.67
373.03	535.98
373.22	477.47
373.42	573.43
373.62	566.41
373.81	575.77
374.01	510.24
374.21	550.03
374.40	514.92
374.60	568.75
374.79	582.79
374.99	683.44
375.19	695.14
375.38	627.26
375.58	690.46
375.78	669.39
375.97	617.90
376.17	734.93
376.37	685.78
376.56	664.71
376.76	692.80
376.95	751.31
377.15	800.46
377.35	734.93
377.54	866.00
377.74	802.80
377.93	830.89
378.13	812.17
378.33	821.53
378.52	650.67
378.72	741.95
378.91	772.38
379.11	608.54
379.31	732.59
379.50	559.39
379.70	697.48
379.89	758.33
380.09	830.89
380.28	858.98
380.48	828.55
380.68	774.72
380.87	753.65
381.07	826.21
381.26	819.19
381.46	678.76
381.65	720.88
381.85	629.60
382.04	716.20
382.24	578.11
382.43	493.85
382.63	475.13
382.83	512.58
383.02	617.90
383.22	615.56
383.41	594.50
383.61	685.78
383.80	622.58
384.00	669.39
384.19	706.84
384.39	880.04
384.58	851.96
384.78	809.83
384.97	837.91
385.17	774.72
385.36	734.93
385.56	751.31
385.75	718.54
385.95	748.97
386.14	835.57
386.34	842.59
386.53	873.02
386.72	730.25
386.92	840.25
387.11	805.14
387.31	891.74
387.50	830.89
387.70	800.46
387.89	877.70
388.09	854.30
388.28	826.21
388.48	739.61
388.67	856.64
388.86	943.24
389.06	999.41
389.25	1107.07
389.45	1062.60
389.64	1053.24
389.84	1076.65
390.03	1130.48
390.22	1048.56
390.42	1057.92
390.61	1163.25
390.81	1071.97
391.00	1114.10
391.19	1184.31
391.39	1118.78
391.58	1174.95
391.78	1055.58
391.97	1050.90
392.16	961.96
392.36	884.72
392.55	807.48
392.75	638.97
392.94	617.90
393.13	552.37
393.33	613.22
393.52	711.52
393.71	901.11
393.91	929.19
394.10	1076.65
394.29	1107.07
394.49	1198.35
394.68	1245.16
394.88	1294.32
395.07	1334.11
395.26	1313.04
395.46	1228.78
395.65	1287.29
395.84	1097.71
396.04	990.05
396.23	781.74
396.42	685.78
396.62	582.79
396.81	748.97
397.00	903.45
397.19	1121.12
397.39	1334.11
397.58	1425.39
397.77	1434.75
397.97	1451.13
398.16	1474.54
398.35	1636.03
398.55	1579.86
398.74	1708.59
398.93	1694.55
399.12	1631.35
399.32	1629.01
399.51	1591.56
399.70	1687.53
399.90	1739.02
400.09	1727.32
400.28	1764.76
400.47	1732.00
400.67	1776.47
400.86	1811.57
401.05	1811.57
401.24	1818.60
401.44	1830.30
401.63	1748.38
401.82	1923.92
402.01	1863.07
402.21	1863.07
402.40	1874.77
402.59	1863.07
402.78	1781.15
402.97	1809.23
403.17	1788.17
403.36	1900.52
403.55	1952.01
403.74	1914.56
403.93	1935.62
404.13	1867.75
404.32	1802.21
404.51	1994.14
404.70	2015.20
404.89	1935.62
405.09	1921.58
405.28	1884.13
405.47	1830.30
405.66	1872.43
405.85	1842.00
406.05	1797.53
406.24	1802.21
406.43	1832.64
406.62	1916.90
406.81	1844.34
407.00	1870.09
407.20	1820.94
407.39	1870.09
407.58	1923.92
407.77	2150.95
407.96	2019.88
408.15	2050.31
408.34	2155.63
408.54	2160.31
408.73	2209.47
408.92	2073.71
409.11	2120.53
409.30	1977.75
409.49	1905.20
409.68	1696.89
409.87	1748.38
410.07	1830.30
410.26	1933.28
410.45	2036.27
410.64	2092.44
410.83	2129.89
411.02	2186.06
411.21	2253.94
411.40	2214.15
411.59	2249.25
411.78	2284.36
411.98	2214.15
412.17	2289.04
412.36	2207.13
412.55	2195.42
412.74	2193.08
412.93	2239.89
413.12	2165.00
413.31	2314.79
413.50	2298.41
413.69	2436.50
413.88	2277.34
414.07	2214.15
414.26	2188.40
414.45	2361.60
414.64	2506.71
414.83	2427.14
415.02	2291.38
415.22	2312.45
415.41	2377.98
415.60	2382.67
415.79	2452.88
415.98	2499.69
416.17	2595.65
416.36	2476.29
416.55	2506.71
416.74	2403.73
416.93	2359.26
417.12	2319.47
417.31	2389.69
417.50	2370.96
417.69	2438.84
417.88	2492.67
418.07	2373.30
418.26	2518.42
418.45	2377.98
418.64	2569.91
418.83	2597.99
419.02	2530.12
419.21	2429.48
419.39	2452.88
419.58	2305.43
419.77	2352.24
419.96	2511.39
420.15	2581.61
420.34	2619.06
420.53	2590.97
420.72	2722.04
420.91	2708.00
421.10	2672.89
421.29	2635.44
421.48	2562.89
421.67	2677.57
421.86	2567.57
422.05	2436.50
422.24	2267.98
422.43	2277.34
422.61	2314.79
422.80	2523.10
422.99	2560.55
423.18	2473.95
423.37	2471.61
423.56	2459.90
423.75	2471.61
423.94	2595.65
424.13	2459.90
424.32	2413.09
424.50	2422.45
424.69	2335.85
424.88	2457.56
425.07	2553.52
425.26	2406.07
425.45	2469.27
425.64	2387.35
425.83	2328.83
426.01	2502.03
426.20	2569.91
426.39	2553.52
426.58	2385.01
426.77	2139.25
426.96	2169.68
427.15	2277.34
427.33	2307.77
427.52	2270.32
427.71	2422.45
427.90	2417.77
428.09	2380.32
428.28	2363.94
428.46	2380.32
428.65	2188.40
428.84	2363.94
429.03	2321.81
429.22	2141.59
429.40	2134.57
429.59	2024.56
429.78	1834.98
429.97	1820.94
430.16	1776.47
430.34	1755.40
430.53	1792.85
430.72	1825.62
430.91	2031.58
431.10	2195.42
431.28	2569.91
431.47	2827.37
431.66	2733.75
431.85	2623.74
432.03	2394.37
432.22	2495.01
432.41	2424.80
432.60	2612.04
432.79	2752.47
432.97	2820.35
433.16	2710.34
433.35	2686.94
433.54	2410.75
433.72	2202.44
433.91	2267.98
434.10	2476.29
434.28	2623.74
434.47	2778.22
434.66	2712.68
434.85	2621.40
435.03	2722.04
435.22	2939.71
435.41	3138.66
435.59	3316.54
435.78	3119.93
435.97	2984.18
436.16	3038.02
436.34	3033.33
436.53	2848.43
436.72	2925.67
436.90	2743.11
437.09	2768.85
437.28	2640.12
437.46	2839.07
437.65	2745.45
437.84	2670.55
438.02	2483.31
438.21	2349.90
438.40	2427.14
438.58	2495.01
438.77	2871.84
438.96	2677.57
439.14	2813.32
439.33	2930.35
439.52	3112.91
439.70	3105.89
439.89	2904.60
440.08	2888.22
440.26	2843.75
440.45	2925.67
440.63	3023.97
440.82	3293.13
441.01	3180.79
441.19	3180.79
441.38	3260.37
441.57	3236.96
441.75	3353.99
441.94	3274.41
442.12	3480.38
442.31	3403.14
442.50	3253.34
442.68	3274.41
442.87	3290.79
443.05	3339.94
443.24	3321.22
443.43	3363.35
443.61	3517.83
443.80	3353.99
443.98	3269.73
444.17	3325.90
444.35	3421.86
444.54	3447.61
444.73	3344.63
444.91	3403.14
445.10	3164.40
445.28	3138.66
445.47	3094.19
445.65	3098.87
445.84	3171.43
446.02	3297.81
446.21	3325.90
446.39	3251.00
446.58	3272.07
446.77	3440.59
446.95	3419.52
447.14	3557.61
447.32	3527.19
447.51	3616.13
447.69	3459.31
447.88	3363.35
448.06	3459.31
448.25	3410.16
448.43	3496.76
448.62	3410.16
448.80	3290.79
448.99	3522.51
449.17	3424.20
449.36	3473.36
449.54	3433.57
449.73	3562.30
449.91	3726.13
450.10	3597.40
450.28	3789.33
450.46	3728.47
450.65	3740.18
450.83	3723.79
451.02	3702.73
451.20	3742.52
451.39	3585.70
451.57	3569.32
451.76	3604.42
451.94	3548.25
452.13	3653.58
452.31	3435.91
452.49	3227.60
452.68	3220.58
452.86	3246.32
453.05	3314.20
453.23	3353.99
453.42	3445.27
453.60	3478.04
453.78	3538.89
453.97	3506.12
454.15	3471.01
454.34	3562.30
454.52	3426.54
454.70	3548.25
454.89	3485.06
455.07	3508.46
455.26	3506.12
455.44	3669.96
455.62	3763.58
455.81	3716.77
455.99	3693.37
456.17	3637.19
456.36	3562.30
456.54	3932.10
456.73	3772.94
456.91	3836.14
457.09	3779.97
457.28	3950.82
457.46	3651.24
457.64	3716.77
457.83	3733.15
458.01	3625.49
458.19	3599.74
458.38	3611.45
458.56	3803.37
458.74	3747.20
458.93	3819.75
459.11	3599.74
459.29	3597.40
459.48	3644.21
459.66	3698.05
459.84	3662.94
460.03	3831.46
460.21	3749.54
460.39	3845.50
460.57	3826.78
460.76	3943.80
460.94	3808.05
461.12	3962.53
461.31	3939.12
461.49	3960.19
461.67	3850.18
461.85	3922.74
462.04	4119.34
462.22	4430.63
462.40	4081.89
462.59	4091.26
462.77	3911.04
462.95	3983.59
463.13	3896.99
463.32	3756.56
463.50	4044.45
463.68	3751.88
463.86	3929.76
464.05	3871.25
464.23	3751.88
464.41	3794.01
464.59	3613.79
464.78	3906.35
464.96	3894.65
465.14	3782.31
465.32	3817.41
465.50	4023.38
465.69	3885.29
465.87	3918.06
466.05	3707.41
466.23	3655.92
466.41	3524.85
466.60	3686.34
466.78	3672.30
466.96	3648.90
467.14	3742.52
467.32	3819.75
467.51	3859.54
467.69	3646.55
467.87	3824.44
468.05	3747.20
468.23	3679.32
468.41	3838.48
468.60	3758.90
468.78	3840.82
468.96	3833.80
469.14	3740.18
469.32	3740.18
469.50	3658.26
469.69	3744.86
469.87	3737.84
470.05	3648.90
470.23	3651.24
470.41	3681.66
470.59	3878.27
470.77	3796.35
470.95	3775.28
471.14	3976.57
471.32	3953.16
471.50	4133.39
471.68	4081.89
471.86	4109.98
472.04	4084.23
472.22	4032.74
472.40	3939.12
472.58	3808.05
472.77	3918.06
472.95	3857.20
473.13	4091.26
473.31	3934.44
473.49	3971.89
473.67	4051.47
473.85	3995.29
474.03	4093.60
474.21	4088.92
474.39	4257.43
474.57	4128.70
474.75	4184.88
474.93	4208.28
475.12	4238.71
475.30	4081.89
475.48	4121.68
475.66	4156.79
475.84	4149.77
476.02	4126.36
476.20	3978.91
476.38	4081.89
476.56	4159.13
476.74	4219.99
476.92	4269.14
477.10	4383.82
477.28	4421.27
477.46	4592.13
477.64	4493.83
477.82	4566.39
478.00	4489.15
478.18	4566.39
478.36	4564.04
478.54	4514.89
478.72	4493.83
478.90	4608.51
479.08	4723.20
479.26	4648.30
479.44	4889.38
479.62	4863.63
479.80	4758.31
479.98	4901.08
480.16	4805.12
480.34	4737.24
480.52	4713.84
480.70	4704.48
480.88	4819.16
481.06	4961.94
481.24	5032.15
481.41	5041.51
481.59	5235.78
481.77	5296.63
481.95	5048.54
482.13	4889.38
482.31	4975.98
482.49	5160.88
482.67	5100.03
482.85	5205.35
483.03	5186.63
483.21	5383.23
483.39	5235.78
483.57	5181.95
483.74	5221.74
483.92	5153.86
484.10	5240.46
484.28	5315.36
484.46	5446.43
484.64	5380.89
484.82	5226.42
485.00	5298.97
485.18	5172.58
485.35	4990.02
485.53	4770.01
485.71	4418.93
485.89	4341.69
486.07	4428.29
486.25	4709.16
486.43	4964.28
486.61	5207.69
486.78	4940.87
486.96	5165.56
487.14	5427.70
487.32	5371.53
487.50	5504.94
487.68	5685.16
487.85	5771.76
488.03	5675.80
488.21	5823.25
488.39	5753.04
488.57	5589.20
488.75	5507.28
488.92	5844.32
489.10	6015.18
489.28	6129.86
489.46	6377.96
489.64	6389.66
489.81	6403.71
489.99	6410.73
490.17	6148.59
490.35	6537.12
490.53	6361.58
490.70	6221.14
490.88	6298.38
491.06	6342.85
491.24	6427.11
491.41	6324.13
491.59	5954.32
491.77	5804.53
491.95	5991.77
492.13	6045.60
492.30	6225.82
492.48	6560.52
492.66	6551.16
492.84	6661.16
493.01	6670.53
493.19	6551.16
493.37	6553.50
493.54	6256.25
493.72	6443.49
493.90	6604.99
494.08	6911.60
494.25	6991.18
494.43	6951.39
494.61	7133.95
494.79	7178.42
494.96	6841.39
495.14	6958.41
495.32	6614.35
495.49	6513.71
495.67	6792.23
495.85	7201.83
496.02	7215.87
496.20	7145.66
496.38	7248.64
496.55	7075.44
496.73	7124.59
496.91	7140.97
497.09	7473.33
497.26	7468.65
497.44	7316.51
497.62	7136.29
497.79	7061.40
497.97	6668.19
498.14	6796.92
498.32	6789.89
498.50	7201.83
498.67	7250.98
498.85	7321.20
499.03	7419.50
499.20	7316.51
499.38	7304.81
499.56	7456.95
499.73	7220.55
499.91	7276.73
500.08	7176.08
500.26	6878.83
500.44	6927.99
500.61	7112.89
500.79	7138.63
500.97	6881.18
501.14	6949.05
501.32	7108.21
501.49	6871.81
501.67	6736.06
501.84	7059.06
502.02	7138.63
502.20	7290.77
502.37	7232.26
502.55	7274.38
502.72	7159.70
502.90	7452.27
503.07	7178.42
503.25	7192.47
503.43	6813.30
503.60	6712.66
503.78	6499.67
503.95	6466.90
504.13	6876.49
504.30	7183.10
504.48	7222.89
504.65	7288.43
504.83	7300.13
505.01	7454.61
505.18	7576.31
505.36	7611.42
505.53	7639.51
505.71	7618.44
505.88	7728.45
506.06	7627.81
506.23	7487.37
506.41	7288.43
506.58	7377.37
506.76	7499.08
506.93	7370.35
507.11	7386.73
507.28	7433.54
507.46	7243.96
507.63	7155.02
507.81	7164.38
507.98	7108.21
508.16	7316.51
508.33	7314.17
508.50	7578.65
508.68	7868.88
508.85	7782.28
509.03	7913.35
509.20	7798.66
509.38	7712.07
509.55	7241.62
509.73	7576.31
509.90	7569.29
510.08	7695.68
510.25	7620.78
510.42	7442.90
510.60	7375.03
510.77	7578.65
510.95	7838.45
511.12	7899.31
511.30	7941.44
511.47	8142.72
511.64	7887.61
511.82	7911.01
511.99	7695.68
512.17	7506.10
512.34	7463.97
512.51	7522.48
512.69	7531.84
512.86	7520.14
513.04	7531.84
513.21	7644.19
513.38	7573.97
513.56	7552.91
513.73	7400.77
513.90	7459.29
514.08	7520.14
514.25	7527.16
514.43	7639.51
514.60	7648.87
514.77	7487.37
514.95	7688.66
515.12	7442.90
515.29	7679.30
515.47	7829.09
515.64	8039.74
515.81	7779.94
515.99	7817.39
516.16	7382.05
516.33	6794.58
516.51	6546.48
516.68	6143.91
516.85	6225.82
517.03	6279.66
517.20	6862.45
517.37	7475.67
517.54	7564.61
517.72	7644.19
517.89	7019.27
518.06	6480.94
518.24	6469.24
518.41	6925.65
518.58	7274.38
518.75	7377.37
518.93	7248.64
519.10	7382.05
519.27	7529.50
519.45	7335.24
519.62	7644.19
519.79	7737.81
519.96	7829.09
520.14	7742.49
520.31	7630.15
520.48	7503.76
520.65	7466.31
520.83	7489.71
521.00	7808.03
521.17	7789.30
521.34	7496.74
521.52	7784.62
521.69	7899.31
521.86	7957.82
522.03	7749.51
522.20	7651.21
522.38	7510.78
522.55	7358.64
522.72	7557.59
522.89	7667.60
523.07	7667.60
523.24	7599.72
523.41	7871.22
523.58	7873.56
523.75	7948.46
523.92	7962.50
524.10	8135.70
524.27	8074.85
524.44	8046.76
524.61	7873.56
524.78	7850.16
524.96	7941.44
525.13	7948.46
525.30	7939.10
525.47	8236.35
525.64	8149.75
525.81	7918.03
525.98	7524.82
526.16	7129.27
526.33	6979.48
526.50	6958.41
526.67	6731.38
526.84	6963.09
527.01	7253.32
527.18	7225.23
527.36	7478.01
527.53	7751.85
527.70	7939.10
527.87	7611.42
528.04	7588.02
528.21	7845.48
528.38	7932.08
528.55	8126.34
528.72	8182.51
528.89	8175.49
529.07	8217.62
529.24	7934.42
529.41	7953.14
529.58	7660.57
529.75	7705.04
529.92	7702.70
530.09	7824.41
530.26	7934.42
530.43	8241.03
530.60	8203.58
530.77	8276.13
530.94	8006.97
531.11	8187.19
531.28	8006.97
531.46	7894.63
531.63	7999.95
531.80	8018.68
531.97	7754.19
532.14	7784.62
532.31	7365.67
532.48	7215.87
532.65	7304.81
532.82	7232.26
532.99	7688.66
533.16	7681.64
533.33	8086.55
533.50	8021.02
533.67	7770.58
533.84	7536.52
534.01	7812.71
534.18	7819.73
534.35	7730.79
534.52	7702.70
534.69	7836.11
534.86	7854.84
535.03	7864.20
535.20	8131.02
535.37	8397.84
535.54	8369.76
535.71	8147.40
535.88	8063.15
536.05	7934.42
536.22	7709.72
536.38	7847.82
536.55	7599.72
536.72	7424.18
536.89	7222.89
537.06	7606.74
537.23	7796.32
537.40	7875.90
537.57	7946.12
537.74	8222.30
537.91	8079.53
538.08	7922.71
538.25	7768.24
538.42	8112.30
538.59	8009.31
538.75	7747.17
538.92	7585.68
539.09	7585.68
539.26	7492.05
539.43	7655.89
539.60	7552.91
539.77	7623.12
539.94	7613.76
540.11	7417.16
540.28	7239.28
540.44	7325.88
540.61	7262.68
540.78	7339.92
540.95	7543.55
541.12	7744.83
541.29	7592.70
541.46	7878.24
541.62	8016.33
541.79	7946.12
541.96	7585.68
542.13	7527.16
542.30	7487.37
542.47	7777.60
542.63	7833.77
542.80	7620.78
542.97	7683.98
543.14	7679.30
543.31	7592.70
543.48	7686.32
543.64	8100.59
543.81	8222.30
543.98	8088.89
544.15	7922.71
544.32	7868.88
544.48	7545.89
544.65	7793.98
544.82	7948.46
544.99	7793.98
545.16	7798.66
545.32	7740.15
545.49	7997.61
545.66	8439.97
545.83	8496.14
546.00	8208.26
546.16	7829.09
546.33	7768.24
546.50	7716.75
546.67	7749.51
546.83	7864.20
547.00	7463.97
547.17	7536.52
547.34	7447.58
547.50	7480.35
547.67	7815.05
547.84	7632.49
548.00	7735.47
548.17	7609.08
548.34	7728.45
548.51	7770.58
548.67	7765.90
548.84	7616.10
549.01	7665.25
549.18	7522.48
549.34	7681.64
549.51	7747.17
549.68	7707.38
549.84	7571.63
550.01	7627.81
550.18	7595.04
550.34	7637.17
550.51	7686.32
550.68	7648.87
550.84	7435.88
551.01	7494.40
551.18	7466.31
551.34	7470.99
551.51	7545.89
551.68	7470.99
551.84	7676.96
552.01	7723.77
552.18	7623.12
552.34	7494.40
552.51	7330.56
552.68	7110.55
552.84	7314.17
553.01	7637.17
553.18	7527.16
553.34	7428.86
553.51	7522.48
553.67	7585.68
553.84	7573.97
554.01	7407.80
554.17	7527.16
554.34	7442.90
554.51	7550.57
554.67	7473.33
554.84	7644.19
555.00	7506.10
555.17	7538.87
555.33	7433.54
555.50	7393.75
555.67	7295.45
555.83	7339.92
556.00	7131.61
556.16	7330.56
556.33	7087.14
556.50	7349.28
556.66	7297.79
556.83	6974.80
556.99	7077.78
557.16	7047.35
557.32	7185.44
557.49	7274.38
557.65	7133.95
557.82	7073.10
557.98	7325.88
558.15	6967.77
558.32	7194.81
558.48	6626.06
558.65	6600.31
558.81	6848.41
558.98	6700.95
559.14	6857.77
559.31	7098.84
559.47	6913.94
559.64	6878.83
559.80	6850.75
559.97	7002.88
560.13	6904.58
560.30	7159.70
560.46	7344.60
560.63	7365.67
560.79	7293.11
560.96	7136.29
561.12	7030.97
561.29	6628.40
561.45	6729.04
561.61	6796.92
561.78	7138.63
561.94	6960.75
562.11	6972.46
562.27	6867.13
562.44	7028.63
562.60	7281.41
562.77	7026.29
562.93	7119.91
563.10	7152.68
563.26	6991.18
563.42	6979.48
563.59	6803.94
563.75	6817.98
563.92	6986.50
564.08	6909.26
564.24	7002.88
564.41	6902.24
564.57	6906.92
564.74	7012.24
564.90	6899.90
565.07	6822.66
565.23	6651.80
565.39	6614.35
565.56	6612.01
565.72	6471.58
565.88	6469.24
566.05	6644.78
566.21	6590.95
566.38	6619.04
566.54	6626.06
566.70	6684.57
566.87	6862.45
567.03	6691.59
567.19	7045.01
567.36	6853.09
567.52	6604.99
567.68	6712.66
567.85	6607.33
568.01	6466.90
568.17	6464.56
568.34	6394.34
568.50	6380.30
568.66	6239.87
568.83	6464.56
568.99	6462.22
569.15	6361.58
569.32	6553.50
569.48	6354.55
569.64	6375.62
569.81	6319.45
569.97	6335.83
570.13	6235.19
570.30	6211.78
570.46	6078.37
570.62	6047.94
570.78	5954.32
570.95	6040.92
571.11	6197.74
571.27	6197.74
571.43	6120.50
571.60	6328.81
571.76	6286.68
571.92	6443.49
572.09	6537.12
572.25	6392.00
572.41	6448.18
572.57	6197.74
572.74	6396.68
572.90	6534.78
573.06	6499.67
573.22	6361.58
573.38	6333.49
573.55	6403.71
573.71	6319.45
573.87	6368.60
574.03	6342.85
574.20	6214.12
574.36	6033.90
574.52	6127.52
574.68	6176.67
574.84	6132.20
575.01	6036.24
575.17	6218.80
575.33	6008.16
575.49	6054.97
575.65	6223.48
575.82	6193.06
575.98	5963.68
576.14	5930.92
576.30	6160.29
576.46	6223.48
576.62	6249.23
576.79	6223.48
576.95	6291.36
577.11	6202.42
577.27	6251.57
577.43	6118.16
577.59	6080.71
577.75	6118.16
577.92	5944.96
578.08	5884.11
578.24	5944.96
578.40	6026.88
578.56	6031.56
578.72	6251.57
578.88	6099.44
579.04	6171.99
579.21	6174.33
579.37	6148.59
579.53	6108.80
579.69	6169.65
579.85	6171.99
580.01	6150.93
580.17	6069.01
580.33	6101.78
580.49	6111.14
580.65	6150.93
580.82	6171.99
580.98	6164.97
581.14	6204.76
581.30	6113.48
581.46	6043.26
581.62	6237.53
581.78	6183.70
581.94	6221.14
582.10	6115.82
582.26	6333.49
582.42	6347.53
582.58	6197.74
582.74	6256.25
582.90	6171.99
583.06	6359.24
583.22	6153.27
583.38	6022.20
583.54	6118.16
583.70	6143.91
583.86	6169.65
584.02	6052.63
584.18	6155.61
584.34	6279.66
584.50	6164.97
584.66	6101.78
584.82	6024.54
584.98	6069.01
585.14	5968.37
585.30	5640.69
585.46	5827.93
585.62	5774.10
585.78	5720.27
585.94	5790.49
586.10	5879.43
586.26	5966.03
586.42	5930.92
586.58	5713.25
586.74	5846.66
586.90	5881.77
587.06	5888.79
587.22	5727.29
587.38	5678.14
587.54	5565.79
587.70	5547.07
587.86	5490.90
588.02	5128.11
588.18	5057.90
588.34	5074.28
588.49	4683.41
588.65	4432.97
588.81	4416.59
588.97	4344.03
589.13	4379.14
589.29	4329.99
589.45	4229.35
589.61	4489.15
589.77	4622.56
589.93	4734.90
590.08	4971.30
590.24	4978.32
590.40	5093.01
590.56	5074.28
590.72	5095.35
590.88	5050.88
591.04	5123.43
591.20	5083.64
591.35	4947.89
591.51	4952.57
591.67	4770.01
591.83	4856.61
591.99	4732.56
592.15	4929.17
592.31	5160.88
592.46	5041.51
592.62	5095.35
592.78	5186.63
592.94	5270.89
593.10	5404.30
593.26	5217.05
593.41	5315.36
593.57	5093.01
593.73	5050.88
593.89	4887.04
594.05	4791.08
594.20	4648.30
594.36	4746.61
594.52	4634.26
594.68	4622.56
594.84	4821.50
594.99	5083.64
595.15	5018.11
595.31	5074.28
595.47	5046.20
595.62	4994.70
595.78	5170.24
595.94	5057.90
596.10	5142.16
596.25	5053.22
596.41	5050.88
596.57	4842.57
596.73	4933.85
596.88	5008.75
597.04	5198.33
597.20	5158.54
597.36	5043.85
597.51	4880.02
