SpectraSuite Data File
++++++++++++++++++++++++++++++++++++
Date: Fri Oct 04 11:39:11 GMT-05:00 2013
User: price-jones
Dark Spectrum Present: No
Reference Spectrum Present: No
Number of Sampled Component Spectra: 1
Spectrometers: USB2+H05261
Integration Time (usec): 100000 (USB2+H05261)
Spectra Averaged: 1 (USB2+H05261)
Boxcar Smoothing: 0 (USB2+H05261)
Correct for Electrical Dark: No (USB2+H05261)
Strobe/Lamp Enabled: No (USB2+H05261)
Correct for Detector Non-linearity: No (USB2+H05261)
Correct for Stray Light: No (USB2+H05261)
Number of Pixels in Processed Spectrum: 2048
>>>>>Begin Processed Spectral Data<<<<<
365.73	102.98
365.92	102.98
366.12	102.98
366.32	0.00
366.52	0.00
366.72	0.00
366.91	0.00
367.11	0.00
367.31	0.00
367.51	0.00
367.70	0.00
367.90	0.00
368.10	0.00
368.30	30.43
368.49	0.00
368.69	0.00
368.89	21.06
369.09	0.00
369.28	0.00
369.48	0.00
369.68	16.38
369.87	4.68
370.07	14.04
370.27	65.54
370.47	44.47
370.66	77.24
370.86	72.56
371.06	121.71
371.25	175.54
371.45	86.60
371.65	184.90
371.84	72.56
372.04	84.26
372.24	154.48
372.44	133.41
372.63	145.11
372.83	194.26
373.03	102.98
373.22	203.63
373.42	182.56
373.62	177.88
373.81	140.43
374.01	238.73
374.21	173.20
374.40	117.03
374.60	210.65
374.79	234.05
374.99	170.86
375.19	170.86
375.38	248.10
375.58	168.52
375.78	210.65
375.97	191.92
376.17	194.26
376.37	107.66
376.56	138.09
376.76	131.07
376.95	133.41
377.15	168.52
377.35	140.43
377.54	250.44
377.74	208.31
377.93	215.33
378.13	138.09
378.33	210.65
378.52	187.24
378.72	203.63
378.91	175.54
379.11	145.11
379.31	154.48
379.50	149.79
379.70	166.18
379.89	212.99
380.09	196.60
380.28	173.20
380.48	194.26
380.68	133.41
380.87	278.52
381.07	245.76
381.26	149.79
381.46	227.03
381.65	173.20
381.85	114.69
382.04	189.58
382.24	140.43
382.43	156.82
382.63	159.16
382.83	140.43
383.02	86.60
383.22	227.03
383.41	212.99
383.61	177.88
383.80	212.99
384.00	229.37
384.19	140.43
384.39	149.79
384.58	121.71
384.78	220.01
384.97	149.79
385.17	229.37
385.36	220.01
385.56	248.10
385.75	215.33
385.95	131.07
386.14	229.37
386.34	198.95
386.53	241.08
386.72	182.56
386.92	285.55
387.11	238.73
387.31	236.39
387.50	236.39
387.70	128.73
387.89	217.67
388.09	227.03
388.28	201.29
388.48	241.08
388.67	280.86
388.86	243.42
389.06	262.14
389.25	149.79
389.45	311.29
389.64	264.48
389.84	264.48
390.03	259.80
390.22	243.42
390.42	224.69
390.61	205.97
390.81	257.46
391.00	187.24
391.19	334.70
391.39	290.23
391.58	212.99
391.78	191.92
391.97	276.18
392.16	224.69
392.36	278.52
392.55	271.50
392.75	222.35
392.94	220.01
393.13	287.89
393.33	198.95
393.52	278.52
393.71	334.70
393.91	271.50
394.10	287.89
394.29	266.82
394.49	222.35
394.68	320.65
394.88	238.73
395.07	344.06
395.26	271.50
395.46	245.76
395.65	266.82
395.84	287.89
396.04	252.78
396.23	175.54
396.42	231.71
396.62	283.20
396.81	280.86
397.00	257.46
397.19	306.61
397.39	220.01
397.58	332.36
397.77	224.69
397.97	220.01
398.16	327.68
398.35	362.78
398.55	273.84
398.74	386.19
398.93	304.27
399.12	294.91
399.32	231.71
399.51	250.44
399.70	297.25
399.90	327.68
400.09	325.33
400.28	330.02
400.47	271.50
400.67	367.46
400.86	379.17
401.05	404.91
401.24	339.38
401.44	344.06
401.63	355.76
401.82	271.50
402.01	322.99
402.21	292.57
402.40	322.99
402.59	372.15
402.78	325.33
402.97	330.02
403.17	332.36
403.36	299.59
403.55	308.95
403.74	337.04
403.93	311.29
404.13	409.59
404.32	369.80
404.51	379.17
404.70	428.32
404.89	322.99
405.09	433.00
405.28	379.17
405.47	339.38
405.66	379.17
405.85	381.51
406.05	393.21
406.24	437.68
406.43	402.57
406.62	339.38
406.81	386.19
407.00	416.62
407.20	397.89
407.39	351.08
407.58	449.38
407.77	475.13
407.96	425.98
408.15	404.91
408.34	479.81
408.54	395.55
408.73	400.23
408.92	461.09
409.11	498.53
409.30	433.00
409.49	386.19
409.68	421.30
409.87	409.59
410.07	477.47
410.26	468.11
410.45	503.22
410.64	496.19
410.83	461.09
411.02	524.28
411.21	475.13
411.40	535.98
411.59	479.81
411.78	512.58
411.98	521.94
412.17	531.30
412.36	524.28
412.55	468.11
412.74	559.39
412.93	573.43
413.12	486.83
413.31	498.53
413.50	519.60
413.69	521.94
413.88	545.34
414.07	535.98
414.26	573.43
414.45	624.92
414.64	538.32
414.83	575.77
415.02	617.90
415.22	559.39
415.41	610.88
415.60	587.47
415.79	669.39
415.98	585.13
416.17	615.56
416.36	601.52
416.55	638.97
416.74	613.22
416.93	601.52
417.12	624.92
417.31	573.43
417.50	603.86
417.69	688.12
417.88	667.05
418.07	727.91
418.26	657.69
418.45	727.91
418.64	650.67
418.83	634.29
419.02	671.73
419.21	676.41
419.39	716.20
419.58	617.90
419.77	638.97
419.96	744.29
420.15	699.82
420.34	648.33
420.53	678.76
420.72	690.46
420.91	704.50
421.10	702.16
421.29	751.31
421.48	772.38
421.67	688.12
421.86	751.31
422.05	760.67
422.24	683.44
422.43	713.86
422.61	727.91
422.80	744.29
422.99	746.63
423.18	744.29
423.37	704.50
423.56	725.57
423.75	732.59
423.94	720.88
424.13	774.72
424.32	805.14
424.50	777.06
424.69	748.97
424.88	866.00
425.07	774.72
425.26	751.31
425.45	800.46
425.64	807.48
425.83	709.18
426.01	760.67
426.20	767.70
426.39	767.70
426.58	816.85
426.77	723.23
426.96	770.04
427.15	779.40
427.33	772.38
427.52	779.40
427.71	812.17
427.90	812.17
428.09	791.10
428.28	779.40
428.46	788.76
428.65	763.01
428.84	730.25
429.03	837.91
429.22	830.89
429.40	786.42
429.59	795.78
429.78	826.21
429.97	763.01
430.16	788.76
430.34	767.70
430.53	849.61
430.72	863.66
430.91	823.87
431.10	851.96
431.28	870.68
431.47	823.87
431.66	835.57
431.85	866.00
432.03	812.17
432.22	870.68
432.41	863.66
432.60	858.98
432.79	908.13
432.97	868.34
433.16	896.43
433.35	910.47
433.54	837.91
433.72	880.04
433.91	837.91
434.10	868.34
434.28	915.15
434.47	931.53
434.66	938.55
434.85	877.70
435.03	1029.84
435.22	1114.10
435.41	1226.44
435.59	1228.78
435.78	1135.16
435.97	1071.97
436.16	983.02
436.34	919.83
436.53	990.05
436.72	950.26
436.90	1004.09
437.09	973.66
437.28	992.39
437.46	1013.45
437.65	1011.11
437.84	940.90
438.02	966.64
438.21	959.62
438.40	898.77
438.58	917.49
438.77	973.66
438.96	924.51
439.14	931.53
439.33	1050.90
439.52	1046.22
439.70	976.00
439.89	1088.35
440.08	1071.97
440.26	964.30
440.45	1036.86
440.63	1081.33
440.82	1076.65
441.01	1083.67
441.19	1121.12
441.38	1088.35
441.57	1151.54
441.75	1156.22
441.94	1149.20
442.12	1130.48
442.31	1109.41
442.50	1053.24
442.68	1102.39
442.87	1076.65
443.05	1130.48
443.24	1181.97
443.43	1191.33
443.61	1231.12
443.80	1118.78
443.98	1114.10
444.17	1090.69
444.35	1266.23
444.54	1114.10
444.73	1053.24
444.91	1238.14
445.10	1142.18
445.28	1137.50
445.47	1132.82
445.65	1125.80
445.84	1181.97
446.02	1146.86
446.21	1100.05
446.39	1172.61
446.58	1249.85
446.77	1064.94
446.95	1275.59
447.14	1217.08
447.32	1235.80
447.51	1137.50
447.69	1121.12
447.88	1224.10
448.06	1203.04
448.25	1130.48
448.43	1245.16
448.62	1167.93
448.80	1191.33
448.99	1329.42
449.17	1181.97
449.36	1226.44
449.54	1210.06
449.73	1203.04
449.91	1196.01
450.10	1247.51
450.28	1247.51
450.46	1277.93
450.65	1299.00
450.83	1277.93
451.02	1299.00
451.20	1294.32
451.39	1170.27
451.57	1303.68
451.76	1259.21
451.94	1301.34
452.13	1228.78
452.31	1366.87
452.49	1228.78
452.68	1174.95
452.86	1277.93
453.05	1299.00
453.23	1296.66
453.42	1317.72
453.60	1371.55
453.78	1343.47
453.97	1327.08
454.15	1322.40
454.34	1256.87
454.52	1322.40
454.70	1350.49
454.89	1313.04
455.07	1306.02
455.26	1371.55
455.44	1352.83
455.62	1277.93
455.81	1380.92
455.99	1444.11
456.17	1420.71
456.36	1336.45
456.54	1364.53
456.73	1401.98
456.91	1434.75
457.09	1392.62
457.28	1446.45
457.46	1437.09
457.64	1453.47
457.83	1390.28
458.01	1341.13
458.19	1355.17
458.38	1338.79
458.56	1441.77
458.74	1448.79
458.93	1423.05
459.11	1462.83
459.29	1416.02
459.48	1509.65
459.66	1547.09
459.84	1504.96
460.03	1640.72
460.21	1572.84
460.39	1568.16
460.57	1488.58
460.76	1451.13
460.94	1495.60
461.12	1495.60
461.31	1444.11
461.49	1495.60
461.67	1500.28
461.85	1511.99
462.04	1493.26
462.22	1596.25
462.40	1565.82
462.59	1455.81
462.77	1589.22
462.95	1514.33
463.13	1511.99
463.32	1521.35
463.50	1586.88
463.68	1561.14
463.86	1556.46
464.05	1526.03
464.23	1582.20
464.41	1565.82
464.59	1565.82
464.78	1523.69
464.96	1502.62
465.14	1584.54
465.32	1575.18
465.50	1612.63
465.69	1593.90
465.87	1542.41
466.05	1558.80
466.23	1568.16
466.41	1612.63
466.60	1537.73
466.78	1586.88
466.96	1636.03
467.14	1614.97
467.32	1600.93
467.51	1675.82
467.69	1638.38
467.87	1689.87
468.05	1610.29
468.23	1654.76
468.41	1715.61
468.60	1575.18
468.78	1659.44
468.96	1605.61
469.14	1729.66
469.32	1600.93
469.50	1605.61
469.69	1722.63
469.87	1734.34
470.05	1760.08
470.23	1771.79
470.41	1706.25
470.59	1647.74
470.77	1727.32
470.95	1724.97
471.14	1813.92
471.32	1732.00
471.50	1720.29
471.68	1727.32
471.86	1858.39
472.04	1729.66
472.22	1851.36
472.40	1748.38
472.58	1785.83
472.77	1788.17
472.95	1668.80
473.13	1909.88
473.31	1846.68
473.49	1741.36
473.67	1811.57
473.85	1858.39
474.03	1940.30
474.21	1877.11
474.39	1851.36
474.57	1830.30
474.75	1942.64
474.93	1968.39
475.12	1769.44
475.30	1907.54
475.48	1842.00
475.66	1928.60
475.84	1902.86
476.02	1886.47
476.20	1891.15
476.38	2062.01
476.56	2085.42
476.74	2012.86
476.92	2064.35
477.10	2047.97
477.28	2113.50
477.46	2054.99
477.64	2122.87
477.82	2087.76
478.00	2148.61
478.18	2097.12
478.36	2113.50
478.54	2160.31
478.72	2190.74
478.90	2118.18
479.08	2146.27
479.26	2214.15
479.44	2307.77
479.62	2307.77
479.80	2263.30
479.98	2165.00
480.16	2310.11
480.34	2207.13
480.52	2401.39
480.70	2356.92
480.88	2359.26
481.06	2345.22
481.24	2265.64
481.41	2310.11
481.59	2375.64
481.77	2483.31
481.95	2429.48
482.13	2441.18
482.31	2441.18
482.49	2509.05
482.67	2399.05
482.85	2572.25
483.03	2555.86
483.21	2642.46
483.39	2583.95
483.57	2672.89
483.74	2649.49
483.92	2691.62
484.10	2661.19
484.28	2778.22
484.46	2785.24
484.64	2850.77
484.82	2708.00
485.00	2839.07
485.18	2801.62
485.35	2825.03
485.53	2848.43
485.71	2853.11
485.89	2843.75
486.07	2888.22
486.25	2991.20
486.43	2935.03
486.61	2904.60
486.78	2906.95
486.96	3052.06
487.14	3023.97
487.32	2984.18
487.50	3049.72
487.68	3068.44
487.85	3136.32
488.03	3087.17
488.21	3185.47
488.39	3014.61
488.57	3096.53
488.75	3218.24
488.92	3461.65
489.10	3307.18
489.28	3356.33
489.46	3307.18
489.64	3288.45
489.81	3337.60
489.99	3152.70
490.17	3309.52
490.35	3426.54
490.53	3522.51
490.70	3379.73
490.88	3478.04
491.06	3445.27
491.24	3496.76
491.41	3463.99
491.59	3428.88
491.77	3449.95
491.95	3466.33
492.13	3524.85
492.30	3550.59
492.48	3758.90
492.66	3737.84
492.84	3625.49
493.01	3667.62
493.19	3655.92
493.37	3604.42
493.54	3765.92
493.72	3728.47
493.90	3833.80
494.08	3719.11
494.25	3990.61
494.43	3850.18
494.61	3833.80
494.79	3735.50
494.96	3906.35
495.14	3885.29
495.32	3868.91
495.49	3906.35
495.67	3983.59
495.85	3939.12
496.02	4032.74
496.20	4065.51
496.38	3992.95
496.55	3978.91
496.73	4166.15
496.91	3992.95
497.09	4117.00
497.26	4109.98
497.44	4109.98
497.62	4035.08
497.79	4163.81
497.97	4262.12
498.14	4278.50
498.32	4285.52
498.50	4294.88
498.67	4292.54
498.85	4219.99
499.03	4311.27
499.20	4365.10
499.38	4383.82
499.56	4468.08
499.73	4416.59
499.91	4435.32
500.08	4414.25
500.26	4234.03
500.44	4383.82
500.61	4325.31
500.79	4447.02
500.97	4395.53
501.14	4528.94
501.32	4531.28
501.49	4461.06
501.67	4470.42
501.84	4463.40
502.02	4411.91
502.20	4655.33
502.37	4755.97
502.55	4702.14
502.72	4683.41
502.90	4737.24
503.07	4627.24
503.25	4568.73
503.43	4634.26
503.60	4702.14
503.78	4748.95
503.95	4725.54
504.13	4540.64
504.30	4727.88
504.48	4643.62
504.65	4664.69
504.83	4786.40
505.01	4784.06
505.18	4887.04
505.36	4795.76
505.53	4760.65
505.71	4739.58
505.88	4945.55
506.06	4755.97
506.23	4802.78
506.41	4933.85
506.58	4971.30
506.76	4929.17
506.93	5001.72
507.11	4844.91
507.28	4821.50
507.46	4938.53
507.63	5032.15
507.81	4940.87
507.98	4959.60
508.16	5006.41
508.33	5025.13
508.50	4945.55
508.68	5011.09
508.85	5315.36
509.03	5142.16
509.20	5029.81
509.38	5184.29
509.55	5174.92
509.73	5125.77
509.90	5078.96
510.08	5320.04
510.25	5256.84
510.42	5280.25
510.60	5291.95
510.77	5245.14
510.95	5305.99
511.12	5226.42
511.30	5219.39
511.47	5387.91
511.64	5280.25
511.82	5235.78
511.99	5252.16
512.17	5392.59
512.34	5420.68
512.51	5268.55
512.69	5394.93
512.86	5418.34
513.04	5369.19
513.21	5401.96
513.38	5399.62
513.56	5486.22
513.73	5607.92
513.90	5633.67
514.08	5408.98
514.25	5584.52
514.43	5540.05
514.60	5551.75
514.77	5390.25
514.95	5577.50
515.12	5638.35
515.29	5511.96
515.47	5542.39
515.64	5664.10
515.81	5717.93
515.99	5638.35
516.16	5504.94
516.33	5731.97
516.51	5659.42
516.68	5598.56
516.85	5724.95
517.03	5856.02
517.20	5680.48
517.37	5631.33
517.54	5694.52
517.72	5895.81
517.89	5591.54
518.06	5661.76
518.24	5877.09
518.41	5841.98
518.58	5893.47
518.75	5612.60
518.93	5984.75
519.10	5769.42
519.27	5846.66
519.45	5895.81
519.62	5858.36
519.79	5841.98
519.96	5914.53
520.14	5647.71
520.31	5947.30
520.48	6026.88
520.65	5921.56
520.83	5888.79
521.00	6069.01
521.17	5886.45
521.34	5951.98
521.52	6052.63
521.69	5989.43
521.86	5954.32
522.03	6064.33
522.20	6111.14
522.38	6061.99
522.55	6071.35
522.72	5975.39
522.89	6193.06
523.07	6218.80
523.24	6022.20
523.41	5994.11
523.58	6146.25
523.75	6221.14
523.92	6071.35
524.10	6188.38
524.27	6228.17
524.44	6136.88
524.61	6218.80
524.78	6235.19
524.96	6218.80
525.13	6111.14
525.30	6335.83
525.47	6333.49
525.64	6321.79
525.81	6265.61
525.98	6443.49
526.16	6277.32
526.33	6328.81
526.50	6274.98
526.67	6239.87
526.84	6256.25
527.01	6462.22
527.18	6270.30
527.36	6366.26
527.53	6448.18
527.70	6464.56
527.87	6331.15
528.04	6494.99
528.21	6471.58
528.38	6497.33
528.55	6532.44
528.72	6382.64
528.89	6502.01
529.07	6209.44
529.24	6328.81
529.41	6469.24
529.58	6504.35
529.75	6548.82
529.92	6480.94
530.09	6494.99
530.26	6457.54
530.43	6478.60
530.60	6546.48
530.77	6527.75
530.94	6387.32
531.11	6546.48
531.28	6506.69
531.46	6539.46
531.63	6513.71
531.80	6583.93
531.97	6663.51
532.14	6726.70
532.31	6616.69
532.48	6492.65
532.65	6455.20
532.82	6630.74
532.99	6799.26
533.16	6516.05
533.33	6633.08
533.50	6822.66
533.67	6693.93
533.84	6593.29
534.01	6766.49
534.18	6469.24
534.35	6813.30
534.52	6637.76
534.69	7056.72
534.86	6782.87
535.03	6724.36
535.20	6876.49
535.37	6740.74
535.54	6822.66
535.71	6808.62
535.88	6829.68
536.05	6787.55
536.22	6736.06
536.38	6848.41
536.55	6918.62
536.72	7054.37
536.89	6878.83
537.06	6977.14
537.23	6820.32
537.40	6736.06
537.57	6895.22
537.74	6974.80
537.91	7045.01
538.08	6925.65
538.25	6932.67
538.42	6970.12
538.59	6967.77
538.75	6885.86
538.92	6902.24
539.09	7080.12
539.26	6885.86
539.43	7012.24
539.60	6918.62
539.77	7007.56
539.94	6951.39
540.11	7363.33
540.28	7213.53
540.44	7227.57
540.61	7178.42
540.78	7171.40
540.95	7339.92
541.12	7258.00
541.29	7403.11
541.46	7295.45
541.62	7241.62
541.79	7353.96
541.96	7335.24
542.13	7330.56
542.30	7208.85
542.47	7318.86
542.63	7314.17
542.80	7410.14
542.97	7396.09
543.14	7405.46
543.31	7356.30
543.48	7386.73
543.64	7445.24
543.81	7475.67
543.98	7438.22
544.15	7297.79
544.32	7384.39
544.48	7545.89
544.65	7391.41
544.82	7529.50
544.99	7386.73
545.16	7494.40
545.32	7510.78
545.49	7854.84
545.66	7978.89
545.83	8219.96
546.00	7960.16
546.16	7681.64
546.33	7548.23
546.50	7421.84
546.67	7377.37
546.83	7396.09
547.00	7470.99
547.17	7461.63
547.34	7438.22
547.50	7363.33
547.67	7328.22
547.84	7258.00
548.00	7412.48
548.17	7346.94
548.34	7506.10
548.51	7485.03
548.67	7566.95
548.84	7454.61
549.01	7318.86
549.18	7545.89
549.34	7468.65
549.51	7501.42
549.68	7520.14
549.84	7595.04
550.01	7543.55
550.18	7531.84
550.34	7641.85
550.51	7632.49
550.68	7538.87
550.84	7339.92
551.01	7466.31
551.18	7363.33
551.34	7382.05
551.51	7372.69
551.68	7494.40
551.84	7698.02
552.01	7449.93
552.18	7559.93
552.34	7625.47
552.51	7410.14
552.68	7513.12
552.84	7564.61
553.01	7433.54
553.18	7311.83
553.34	7524.82
553.51	7524.82
553.67	7646.53
553.84	7606.74
554.01	7548.23
554.17	7485.03
554.34	7442.90
554.51	7581.00
554.67	7508.44
554.84	7379.71
555.00	7370.35
555.17	7513.12
555.33	7559.93
555.50	7641.85
555.67	7552.91
555.83	7611.42
556.00	7625.47
556.16	7770.58
556.33	7618.44
556.50	7522.48
556.66	7536.52
556.83	7683.98
556.99	7564.61
557.16	7644.19
557.32	7515.46
557.49	7669.94
557.65	7691.00
557.82	7522.48
557.98	7627.81
558.15	7653.55
558.32	7583.34
558.48	7534.18
558.65	7506.10
558.81	7613.76
558.98	7559.93
559.14	7819.73
559.31	7564.61
559.47	7414.82
559.64	7667.60
559.80	7723.77
559.97	7836.11
560.13	7740.15
560.30	7695.68
560.46	7613.76
560.63	7616.10
560.79	7665.25
560.96	7705.04
561.12	7674.62
561.29	7485.03
561.45	7595.04
561.61	7772.92
561.78	7667.60
561.94	7550.57
562.11	7693.34
562.27	7627.81
562.44	7559.93
562.60	7648.87
562.77	7655.89
562.93	7789.30
563.10	7669.94
563.26	7520.14
563.42	7761.22
563.59	7616.10
563.75	7712.07
563.92	7658.23
564.08	7583.34
564.24	7597.38
564.41	7791.64
564.57	7822.07
564.74	7681.64
564.90	7681.64
565.07	7817.39
565.23	7688.66
565.39	7679.30
565.56	7475.67
565.72	7527.16
565.88	7658.23
566.05	7513.12
566.21	7721.43
566.38	7564.61
566.54	7719.09
566.70	7854.84
566.87	7740.15
567.03	7637.17
567.19	7852.50
567.36	7709.72
567.52	7840.79
567.68	7744.83
567.85	7665.25
568.01	7573.97
568.17	7578.65
568.34	7768.24
568.50	7660.57
568.66	7744.83
568.83	7892.29
568.99	7768.24
569.15	7730.79
569.32	7775.26
569.48	7599.72
569.64	7859.52
569.81	7698.02
569.97	7882.92
570.13	7679.30
570.30	7571.63
570.46	7691.00
570.62	7613.76
570.78	7840.79
570.95	7693.34
571.11	7772.92
571.27	7634.83
571.43	7719.09
571.60	7885.26
571.76	7632.49
571.92	7644.19
572.09	7754.19
572.25	7669.94
572.41	7702.70
572.57	7833.77
572.74	7922.71
572.90	7702.70
573.06	7859.52
573.22	7962.50
573.38	7735.47
573.55	7700.36
573.71	7896.97
573.87	7864.20
574.03	7522.48
574.20	7712.07
574.36	7653.55
574.52	7946.12
574.68	7779.94
574.84	7899.31
575.01	7770.58
575.17	7826.75
575.33	7637.17
575.49	7871.22
575.65	7798.66
575.82	7779.94
575.98	7676.96
576.14	7651.21
576.30	7676.96
576.46	7889.95
576.62	7936.76
576.79	7889.95
576.95	7892.29
577.11	7843.14
577.27	7765.90
577.43	7932.08
577.59	7747.17
577.75	7662.91
577.92	7798.66
578.08	7646.53
578.24	7754.19
578.40	7686.32
578.56	7976.55
578.72	7859.52
578.88	7999.95
579.04	7878.24
579.21	7857.18
579.37	7789.30
579.53	7779.94
579.69	7728.45
579.85	7595.04
580.01	7639.51
580.17	7566.95
580.33	7805.69
580.49	7866.54
580.65	7978.89
580.82	7969.52
580.98	7850.16
581.14	7740.15
581.30	7733.13
581.46	7754.19
581.62	7538.87
581.78	7962.50
581.94	7749.51
582.10	7812.71
582.26	7915.69
582.42	7805.69
582.58	7962.50
582.74	7702.70
582.90	7826.75
583.06	7843.14
583.22	7903.99
583.38	7810.37
583.54	7918.03
583.70	7669.94
583.86	7840.79
584.02	7772.92
584.18	7908.67
584.34	7833.77
584.50	7737.81
584.66	7702.70
584.82	7709.72
584.98	7885.26
585.14	7742.49
585.30	7941.44
585.46	7866.54
585.62	7688.66
585.78	7805.69
585.94	7885.26
586.10	7716.75
586.26	7756.54
586.42	7747.17
586.58	7843.14
586.74	7782.28
586.90	7637.17
587.06	7714.41
587.22	7946.12
587.38	7808.03
587.54	7866.54
587.70	8039.74
587.86	7777.60
588.02	7847.82
588.18	7906.33
588.34	7801.01
588.49	7854.84
588.65	7908.67
588.81	7932.08
588.97	7934.42
589.13	7747.17
589.29	7770.58
589.45	7913.35
589.61	7798.66
589.77	7871.22
589.93	7880.58
590.08	7700.36
590.24	7808.03
590.40	7782.28
590.56	7922.71
590.72	7789.30
590.88	7815.05
591.04	7786.96
591.20	7796.32
591.35	7929.74
591.51	7742.49
591.67	7737.81
591.83	7812.71
591.99	7847.82
592.15	7782.28
592.31	7934.42
592.46	7798.66
592.62	8121.66
592.78	7702.70
592.94	7903.99
593.10	7819.73
593.26	8025.70
593.41	7850.16
593.57	7836.11
593.73	7817.39
593.89	7843.14
594.05	7896.97
594.20	7573.97
594.36	7747.17
594.52	7812.71
594.68	7597.38
594.84	7822.07
594.99	7747.17
595.15	7864.20
595.31	7939.10
595.47	7838.45
595.62	7868.88
595.78	7819.73
595.94	7805.69
596.10	7990.59
596.25	7782.28
596.41	7962.50
596.57	7815.05
596.73	7885.26
596.88	7754.19
597.04	7686.32
597.20	7550.57
597.36	7859.52
597.51	7796.32
597.67	7913.35
597.83	7838.45
597.99	7875.90
598.14	7812.71
598.30	7758.88
598.46	7634.83
598.61	7983.57
598.77	7896.97
598.93	7758.88
599.09	7906.33
599.24	7896.97
599.40	7859.52
599.56	7925.05
599.71	7693.34
599.87	8044.42
600.03	7836.11
600.18	7854.84
