SpectraSuite Data File
++++++++++++++++++++++++++++++++++++
Date: Fri Oct 04 11:39:15 GMT-05:00 2013
User: price-jones
Dark Spectrum Present: No
Reference Spectrum Present: No
Number of Sampled Component Spectra: 1
Spectrometers: USB2+H05261
Integration Time (usec): 100000 (USB2+H05261)
Spectra Averaged: 1 (USB2+H05261)
Boxcar Smoothing: 0 (USB2+H05261)
Correct for Electrical Dark: No (USB2+H05261)
Strobe/Lamp Enabled: No (USB2+H05261)
Correct for Detector Non-linearity: No (USB2+H05261)
Correct for Stray Light: No (USB2+H05261)
Number of Pixels in Processed Spectrum: 2048
>>>>>Begin Processed Spectral Data<<<<<
365.73	140.43
365.92	140.43
366.12	140.43
366.32	0.00
366.52	0.00
366.72	0.00
366.91	0.00
367.11	0.00
367.31	0.00
367.51	0.00
367.70	2.34
367.90	0.00
368.10	0.00
368.30	21.06
368.49	0.00
368.69	0.00
368.89	14.04
369.09	7.02
369.28	0.00
369.48	0.00
369.68	0.00
369.87	0.00
370.07	0.00
370.27	25.75
370.47	58.51
370.66	170.86
370.86	238.73
371.06	271.50
371.25	210.65
371.45	217.67
371.65	229.37
371.84	290.23
372.04	278.52
372.24	294.91
372.44	297.25
372.63	320.65
372.83	393.21
373.03	285.55
373.22	313.63
373.42	290.23
373.62	330.02
373.81	292.57
374.01	355.76
374.21	461.09
374.40	276.18
374.60	360.44
374.79	285.55
374.99	283.20
375.19	362.78
375.38	341.72
375.58	341.72
375.78	428.32
375.97	374.49
376.17	365.12
376.37	346.40
376.56	365.12
376.76	313.63
376.95	346.40
377.15	404.91
377.35	367.46
377.54	383.85
377.74	315.97
377.93	285.55
378.13	456.40
378.33	416.62
378.52	407.25
378.72	433.00
378.91	355.76
379.11	421.30
379.31	337.04
379.50	320.65
379.70	318.31
379.89	435.34
380.09	358.10
380.28	454.06
380.48	358.10
380.68	386.19
380.87	400.23
381.07	374.49
381.26	393.21
381.46	468.11
381.65	449.38
381.85	325.33
382.04	409.59
382.24	353.42
382.43	372.15
382.63	425.98
382.83	442.36
383.02	348.74
383.22	433.00
383.41	545.34
383.61	404.91
383.80	435.34
384.00	454.06
384.19	433.00
384.39	498.53
384.58	489.17
384.78	400.23
384.97	454.06
385.17	400.23
385.36	463.43
385.56	465.77
385.75	454.06
385.95	552.37
386.14	489.17
386.34	517.26
386.53	484.49
386.72	489.17
386.92	559.39
387.11	500.87
387.31	500.87
387.50	528.96
387.70	500.87
387.89	470.45
388.09	493.85
388.28	505.56
388.48	433.00
388.67	547.69
388.86	472.79
389.06	554.71
389.25	512.58
389.45	500.87
389.64	573.43
389.84	512.58
390.03	507.90
390.22	540.66
390.42	594.50
390.61	543.00
390.81	578.11
391.00	538.32
391.19	613.22
391.39	575.77
391.58	606.20
391.78	596.84
391.97	667.05
392.16	564.07
392.36	648.33
392.55	704.50
392.75	653.01
392.94	599.18
393.13	648.33
393.33	629.60
393.52	608.54
393.71	695.14
393.91	671.73
394.10	744.29
394.29	746.63
394.49	650.67
394.68	620.24
394.88	702.16
395.07	692.80
395.26	613.22
395.46	617.90
395.65	753.65
395.84	718.54
396.04	784.08
396.23	748.97
396.42	645.99
396.62	727.91
396.81	737.27
397.00	746.63
397.19	664.71
397.39	737.27
397.58	777.06
397.77	765.36
397.97	760.67
398.16	795.78
398.35	812.17
398.55	807.48
398.74	786.42
398.93	842.59
399.12	786.42
399.32	779.40
399.51	748.97
399.70	866.00
399.90	842.59
400.09	835.57
400.28	933.87
400.47	896.43
400.67	896.43
400.86	924.51
401.05	851.96
401.24	898.77
401.44	905.79
401.63	912.81
401.82	938.55
402.01	851.96
402.21	945.58
402.40	1027.50
402.59	896.43
402.78	919.83
402.97	910.47
403.17	924.51
403.36	1027.50
403.55	929.19
403.74	959.62
403.93	987.71
404.13	1083.67
404.32	1006.43
404.51	1125.80
404.70	1074.31
404.89	1057.92
405.09	1118.78
405.28	1165.59
405.47	1069.62
405.66	1043.88
405.85	1090.69
406.05	1214.74
406.24	1200.69
406.43	1139.84
406.62	1121.12
406.81	1198.35
407.00	1275.59
407.20	1170.27
407.39	1196.01
407.58	1200.69
407.77	1291.98
407.96	1266.23
408.15	1188.99
408.34	1273.25
408.54	1287.29
408.73	1231.12
408.92	1238.14
409.11	1287.29
409.30	1425.39
409.49	1287.29
409.68	1324.74
409.87	1184.31
410.07	1296.66
410.26	1345.81
410.45	1460.49
410.64	1519.01
410.83	1432.41
411.02	1406.66
411.21	1458.15
411.40	1458.15
411.59	1481.56
411.78	1446.45
411.98	1579.86
412.17	1497.94
412.36	1540.07
412.55	1612.63
412.74	1570.50
412.93	1572.84
413.12	1607.95
413.31	1706.25
413.50	1645.40
413.69	1605.61
413.88	1830.30
414.07	1760.08
414.26	1668.80
414.45	1748.38
414.64	1783.49
414.83	1888.81
415.02	1774.13
415.22	1839.66
415.41	1757.74
415.60	1769.44
415.79	1905.20
415.98	1937.96
416.17	1923.92
416.36	1937.96
416.55	1984.77
416.74	1996.48
416.93	2022.22
417.12	1982.43
417.31	2008.18
417.50	1959.03
417.69	2071.37
417.88	2169.68
418.07	2010.52
418.26	2012.86
418.45	2029.24
418.64	2270.32
418.83	2239.89
419.02	2127.55
419.21	2150.95
419.39	2209.47
419.58	2305.43
419.77	2235.21
419.96	2260.96
420.15	2256.28
420.34	2267.98
420.53	2214.15
420.72	2223.51
420.91	2277.34
421.10	2314.79
421.29	2324.15
421.48	2228.19
421.67	2420.11
421.86	2363.94
422.05	2303.09
422.24	2455.22
422.43	2403.73
422.61	2504.37
422.80	2417.77
422.99	2401.39
423.18	2502.03
423.37	2459.90
423.56	2516.08
423.75	2429.48
423.94	2284.36
424.13	2282.02
424.32	2253.94
424.50	2530.12
424.69	2527.78
424.88	2588.63
425.07	2565.23
425.26	2490.33
425.45	2429.48
425.64	2464.58
425.83	2487.99
426.01	2532.46
426.20	2373.30
426.39	2471.61
426.58	2450.54
426.77	2565.23
426.96	2513.74
427.15	2567.57
427.33	2523.10
427.52	2621.40
427.71	2626.08
427.90	2562.89
428.09	2675.23
428.28	2705.66
428.46	2569.91
428.65	2663.53
428.84	2693.96
429.03	2773.53
429.22	2651.83
429.40	2609.70
429.59	2672.89
429.78	2677.57
429.97	2572.25
430.16	2633.10
430.34	2686.94
430.53	2792.26
430.72	2939.71
430.91	2899.92
431.10	2789.92
431.28	2829.71
431.47	2942.05
431.66	2930.35
431.85	2848.43
432.03	2960.78
432.22	3077.80
432.41	2958.44
432.60	2902.26
432.79	2874.18
432.97	3066.10
433.16	2918.65
433.35	2888.22
433.54	2949.08
433.72	3000.57
433.91	3073.12
434.10	3061.42
434.28	3105.89
434.47	3155.04
434.66	3103.55
434.85	3021.63
435.03	3255.69
435.22	3323.56
435.41	3583.36
435.59	3475.70
435.78	3361.01
435.97	3328.24
436.16	3302.50
436.34	3173.77
436.53	3143.34
436.72	3398.46
436.90	3213.56
437.09	3260.37
437.28	3276.75
437.46	3211.22
437.65	3325.90
437.84	3400.80
438.02	3496.76
438.21	3339.94
438.40	3194.83
438.58	3346.97
438.77	3492.08
438.96	3510.80
439.14	3496.76
439.33	3592.72
439.52	3613.79
439.70	3557.61
439.89	3712.09
440.08	3667.62
440.26	3609.11
440.45	3667.62
440.63	3749.54
440.82	3798.69
441.01	3700.39
441.19	3770.60
441.38	3824.44
441.57	3716.77
441.75	3941.46
441.94	3882.95
442.12	4049.13
442.31	4046.79
442.50	3892.31
442.68	4016.36
442.87	4084.23
443.05	4109.98
443.24	4198.92
443.43	4063.17
443.61	4119.34
443.80	4173.18
443.98	4093.60
444.17	3887.63
444.35	4149.77
444.54	4156.79
444.73	4126.36
444.91	4107.64
445.10	4131.05
445.28	4140.41
445.47	4063.17
445.65	4081.89
445.84	4222.33
446.02	4304.25
446.21	4128.70
446.39	4126.36
446.58	4191.90
446.77	4304.25
446.95	4088.92
447.14	4252.75
447.32	4126.36
447.51	4081.89
447.69	4360.42
447.88	4238.71
448.06	4252.75
448.25	4362.76
448.43	4266.80
448.62	4280.84
448.80	4117.00
448.99	4231.69
449.17	4374.46
449.36	4283.18
449.54	4505.53
449.73	4360.42
449.91	4496.17
450.10	4404.89
450.28	4402.55
450.46	4376.80
450.65	4554.68
450.83	4629.58
451.02	4678.73
451.20	4521.92
451.39	4538.30
451.57	4404.89
451.76	4383.82
451.94	4440.00
452.13	4718.52
452.31	4664.69
452.49	4582.77
452.68	4564.04
452.86	4648.30
453.05	4592.13
453.23	4730.22
453.42	4638.94
453.60	4533.62
453.78	4645.96
453.97	4678.73
454.15	4681.07
454.34	4692.77
454.52	4798.10
454.70	4819.16
454.89	4748.95
455.07	4854.27
455.26	4753.63
455.44	4961.94
455.62	4971.30
455.81	5102.37
455.99	4865.97
456.17	5006.41
456.36	5018.11
456.54	5032.15
456.73	5029.81
456.91	5186.63
457.09	5207.69
457.28	5186.63
457.46	5121.09
457.64	5238.12
457.83	5191.31
458.01	5109.39
458.19	5249.82
458.38	5125.77
458.56	5313.02
458.74	5102.37
458.93	5460.47
459.11	5273.23
459.29	5212.37
459.48	5235.78
459.66	5390.25
459.84	5544.73
460.03	5701.54
460.21	5455.79
460.39	5397.28
460.57	5509.62
460.76	5469.83
460.94	5476.85
461.12	5483.88
461.31	5523.66
461.49	5556.43
461.67	5507.28
461.85	5790.49
462.04	5678.14
462.22	5865.38
462.40	5551.75
462.59	5795.17
462.77	5636.01
462.95	5750.70
463.13	5638.35
463.32	5636.01
463.50	5771.76
463.68	5706.23
463.86	5760.06
464.05	5638.35
464.23	5811.55
464.41	5792.83
464.59	5806.87
464.78	5860.70
464.96	5851.34
465.14	5923.90
465.32	5951.98
465.50	6057.31
465.69	5895.81
465.87	5919.21
466.05	6012.84
466.23	6134.54
466.41	5996.45
466.60	6183.70
466.78	6106.46
466.96	5867.72
467.14	5823.25
467.32	6118.16
467.51	6188.38
467.69	6143.91
467.87	6129.86
468.05	6188.38
468.23	6033.90
468.41	6122.84
468.60	6111.14
468.78	6324.13
468.96	6153.27
469.14	6333.49
469.32	6183.70
469.50	6015.18
469.69	6429.45
469.87	6455.20
470.05	6427.11
470.23	6525.41
470.41	6441.15
470.59	6448.18
470.77	6417.75
470.95	6363.92
471.14	6576.91
471.32	6401.37
471.50	6729.04
471.68	6572.22
471.86	6722.02
472.04	6633.08
472.22	6939.69
472.40	6724.36
472.58	6775.85
472.77	6705.63
472.95	6888.20
473.13	6995.86
473.31	6904.58
473.49	6904.58
473.67	7082.46
473.85	7133.95
474.03	7304.81
474.21	6906.92
474.39	7204.17
474.57	7201.83
474.75	7260.34
474.93	7461.63
475.12	7241.62
475.30	7218.21
475.48	7225.23
475.66	7407.80
475.84	7040.33
476.02	7417.16
476.20	7630.15
476.38	7815.05
476.56	7889.95
476.74	7868.88
476.92	7824.41
477.10	7911.01
477.28	7939.10
477.46	7918.03
477.64	7960.16
477.82	8058.46
478.00	8114.64
478.18	8301.88
478.36	8308.90
478.54	8547.64
478.72	8524.23
478.90	8524.23
479.08	8463.38
479.26	8578.06
479.44	8610.83
479.62	8709.13
479.80	8737.22
479.98	8758.28
480.16	9025.11
480.34	9057.87
480.52	9004.04
480.70	9153.84
480.88	8990.00
481.06	9062.55
481.24	9100.00
481.41	9163.20
481.59	9357.46
481.77	9387.89
481.95	9654.71
482.13	9600.88
482.31	9509.60
482.49	9792.80
482.67	9652.37
482.85	9900.47
483.03	10167.29
483.21	10080.69
483.39	10097.07
483.57	10214.10
483.74	10153.24
483.92	10249.21
484.10	10445.81
484.28	10523.05
484.46	10890.51
484.64	10888.17
484.82	10579.22
485.00	10773.49
485.18	11005.20
485.35	11180.74
485.53	11117.54
485.71	11033.29
485.89	11531.82
486.07	11269.68
486.25	11360.96
486.43	11346.92
486.61	11534.16
486.78	11719.06
486.96	11894.60
487.14	12002.27
487.32	12149.72
487.50	11997.59
487.68	11901.62
487.85	12222.28
488.03	12585.06
488.21	12334.62
488.39	12842.52
488.57	12617.83
488.75	12674.00
488.92	13111.68
489.10	12699.75
489.28	12819.11
489.46	13193.60
489.64	13212.32
489.81	13547.02
489.99	13322.33
490.17	13462.76
490.35	13621.92
490.53	13745.97
490.70	14050.24
490.88	13951.93
491.06	13884.06
491.24	13968.32
491.41	14169.60
491.59	14307.69
491.77	14141.52
491.95	14377.91
492.13	14286.63
492.30	14317.06
492.48	14628.35
492.66	14621.33
492.84	14668.14
493.01	14857.72
493.19	14740.69
493.37	15208.80
493.54	14920.92
493.72	14984.11
493.90	15557.54
494.08	15253.27
494.25	15463.92
494.43	15651.16
494.61	15885.22
494.79	15686.27
494.96	15784.57
495.14	15566.90
495.32	16105.23
495.49	15950.75
495.67	16102.89
495.85	16386.09
496.02	16409.50
496.20	16828.45
496.38	16514.82
496.55	16645.89
496.73	16966.54
496.91	16814.41
497.09	17181.87
497.26	16943.14
497.44	16816.75
497.62	16938.46
497.79	17245.07
497.97	17212.30
498.14	17198.26
498.32	17804.46
498.50	17678.07
498.67	17399.54
498.85	17909.78
499.03	17472.10
499.20	17935.53
499.38	17935.53
499.56	18005.74
499.73	17905.10
499.91	18192.98
500.08	18260.86
500.26	18073.62
500.44	18436.40
500.61	18155.54
500.79	18317.03
500.97	18492.57
501.14	18679.82
501.32	18665.77
501.49	18815.57
501.67	18684.50
501.84	18806.20
502.02	18906.85
502.20	19007.49
502.37	19260.27
502.55	19328.14
502.72	19101.11
502.90	19042.60
503.07	18785.14
503.25	19557.52
503.43	19157.28
503.60	19328.14
503.78	19721.35
503.95	19683.91
504.13	19545.81
504.30	19641.78
504.48	19903.92
504.65	19854.76
504.83	19854.76
505.01	20184.78
505.18	20201.16
505.36	20222.23
505.53	20053.71
505.71	20222.23
505.88	20465.64
506.06	20332.23
506.23	20308.83
506.41	20603.74
506.58	20599.05
506.76	20613.10
506.93	20531.18
507.11	20467.98
507.28	20802.68
507.46	21036.74
507.63	21308.24
507.81	21212.28
507.98	20968.86
508.16	21048.44
508.33	21198.23
508.50	21209.93
508.68	21291.85
508.85	21383.13
509.03	21539.95
509.20	21710.81
509.38	21710.81
509.55	21876.99
509.73	21778.68
509.90	21834.86
510.08	21848.90
510.25	21502.50
510.42	21764.64
510.60	22244.45
510.77	22223.39
510.95	22356.80
511.12	22148.49
511.30	22230.41
511.47	22349.78
511.64	22335.73
511.82	22410.63
511.99	22228.07
512.17	22555.74
512.34	22644.68
512.51	23073.00
512.69	22712.56
512.86	22775.75
513.04	22979.38
513.21	23447.49
513.38	23274.29
513.56	23417.06
513.73	23220.45
513.90	23276.63
514.08	22960.66
514.25	23293.01
514.43	23370.25
514.60	23452.17
514.77	23623.03
514.95	23859.42
515.12	23356.21
515.29	23159.60
515.47	23688.56
515.64	23756.44
515.81	23398.34
515.99	23843.04
516.16	24135.60
516.33	24180.07
516.51	24287.74
516.68	24105.18
516.85	24093.47
517.03	23814.95
517.20	24222.20
517.37	24360.30
517.54	24290.08
517.72	24577.97
517.89	24465.62
518.06	24596.69
518.24	24594.35
518.41	24587.33
518.58	24627.12
518.75	24833.08
518.93	24915.00
519.10	24641.16
519.27	24884.58
519.45	24535.84
519.62	24666.91
519.79	24931.39
519.96	24980.54
520.14	25245.02
520.31	25357.36
520.48	25387.79
520.65	25090.54
520.83	25436.94
521.00	25568.01
521.17	25544.61
521.34	25453.33
521.52	25509.50
521.69	25781.00
521.86	25916.75
522.03	25907.39
522.20	25729.51
522.38	26038.46
522.55	25736.53
522.72	25984.63
522.89	26277.19
523.07	26684.45
523.24	26239.75
523.41	26426.99
523.58	25806.75
523.75	26251.45
523.92	26455.08
524.10	26359.11
524.27	26237.41
524.44	26391.88
524.61	26906.80
524.78	26544.02
524.96	26827.22
525.13	26630.62
525.30	26883.39
525.47	26852.97
525.64	26544.02
525.81	26946.59
525.98	27098.72
526.16	27145.53
526.33	27264.90
526.50	27262.56
526.67	27161.92
526.84	27241.50
527.01	27182.98
527.18	27424.06
527.36	27381.93
527.53	27569.17
527.70	27679.18
527.87	27613.64
528.04	27545.76
528.21	27702.58
528.38	27536.40
528.55	27843.01
528.72	27768.12
528.89	28027.92
529.07	28187.07
529.24	27812.59
529.41	28037.28
529.58	27555.13
529.75	27573.85
529.92	28070.04
530.09	27679.18
530.26	27906.21
530.43	28386.02
530.60	28283.03
530.77	28390.70
530.94	28339.21
531.11	28257.29
531.28	28252.61
531.46	28247.93
531.63	28692.63
531.80	28526.45
531.97	28676.24
532.14	28662.20
532.31	28395.38
532.48	28804.97
532.65	28926.68
532.82	28573.26
532.99	29308.19
533.16	28709.01
533.33	29209.89
533.50	28842.42
533.67	29392.45
533.84	29214.57
534.01	28849.44
534.18	29123.29
534.35	29558.63
534.52	29123.29
534.69	29457.98
534.86	29575.01
535.03	29518.84
535.20	29350.32
535.37	30010.35
535.54	29406.49
535.71	29809.06
535.88	29642.88
536.05	29394.79
536.22	29567.99
536.38	29474.37
536.55	29954.18
536.72	29813.74
536.89	29837.15
537.06	30146.10
537.23	30019.71
537.40	29645.23
537.57	30003.33
537.74	30185.89
537.91	30146.10
538.08	30256.11
538.25	29813.74
538.42	29954.18
538.59	30401.22
538.75	30265.47
538.92	29919.07
539.09	30366.11
539.26	30459.73
539.43	30525.27
539.60	30834.22
539.77	30466.75
539.94	30455.05
540.11	30527.61
540.28	30424.62
540.44	30939.54
540.61	30422.28
540.78	30962.95
540.95	31122.10
541.12	31182.96
541.29	31070.61
541.46	30918.48
541.62	31157.21
541.79	31110.40
541.96	31229.77
542.13	30888.05
542.30	31503.61
542.47	31859.37
542.63	31473.18
542.80	31337.43
542.97	31929.59
543.14	31503.61
543.31	31711.92
543.48	31452.12
543.64	31910.86
543.81	31920.23
543.98	31915.54
544.15	31697.88
544.32	32341.52
544.48	32135.56
544.65	32046.62
544.82	31550.42
544.99	31615.96
545.16	31971.72
545.32	31747.03
545.49	32645.79
545.66	32748.78
545.83	33479.02
546.00	32992.19
546.16	32395.35
546.33	32664.52
546.50	31622.98
546.67	32184.71
546.83	32002.14
547.00	32025.55
547.17	32252.58
547.34	32013.85
547.50	32385.99
547.67	32603.66
547.84	32451.53
548.00	32753.46
548.17	32311.10
548.34	32252.58
548.51	32584.94
548.67	32973.47
548.84	32987.51
549.01	32680.90
549.18	32432.80
549.34	32503.02
549.51	32325.14
549.68	32350.88
549.84	32758.14
550.01	32893.89
550.18	32254.92
550.34	33139.65
550.51	33237.95
550.68	32716.01
550.84	32390.67
551.01	32638.77
551.18	33003.89
551.34	32620.05
551.51	33125.60
551.68	33259.01
551.84	33146.67
552.01	33074.11
552.18	32844.74
552.34	32687.92
552.51	33436.89
552.68	33081.13
552.84	33158.37
553.01	33106.88
553.18	33233.27
553.34	32807.29
553.51	33270.72
553.67	33443.91
553.84	33677.97
554.01	33481.36
554.17	33708.40
554.34	33326.89
554.51	33350.29
554.67	33689.67
554.84	33586.69
555.00	33413.49
555.17	33582.01
555.33	33228.59
555.50	33495.41
555.67	33296.46
555.83	33565.62
556.00	33963.51
556.16	33750.52
556.33	33469.66
556.50	33684.99
556.66	33727.12
556.83	33495.41
556.99	33795.00
557.16	34036.07
557.32	33935.43
557.49	33951.81
557.65	33769.25
557.82	33731.80
557.98	33560.94
558.15	33759.89
558.32	33848.83
558.48	34328.64
558.65	34543.97
558.81	33874.57
558.98	34033.73
559.14	34209.27
559.31	33729.46
559.47	34239.70
559.64	34227.99
559.80	34342.68
559.97	34291.19
560.13	34305.23
560.30	33933.09
560.46	34586.10
560.63	34115.65
560.79	34242.04
560.96	34632.91
561.12	34106.29
561.29	33933.09
561.45	33958.83
561.61	34356.72
561.78	34281.83
561.94	34508.86
562.11	34462.05
562.27	34607.16
562.44	34319.28
562.60	34663.33
562.77	34237.36
562.93	34555.67
563.10	34696.10
563.26	34492.47
563.42	34387.15
563.59	34366.09
563.75	34389.49
563.92	34920.79
564.08	34705.46
564.24	34532.26
564.41	34565.03
564.57	34682.06
564.74	34377.79
564.90	34630.57
565.07	34735.89
565.23	34843.56
565.39	34717.17
565.56	34836.53
565.72	34682.06
565.88	34646.95
566.05	34663.33
566.21	34836.53
566.38	34775.68
566.54	34637.59
566.70	34801.43
566.87	35098.67
567.03	34611.84
567.19	34998.03
567.36	34953.56
567.52	34197.57
567.68	35222.72
567.85	35211.02
568.01	34632.91
568.17	34838.87
568.34	34993.35
568.50	35225.06
568.66	34920.79
568.83	35201.66
568.99	34848.24
569.15	34902.07
569.32	34703.12
569.48	34974.63
569.64	34735.89
569.81	35089.31
569.97	34670.36
570.13	35248.47
570.30	35035.48
570.46	34665.67
570.62	35232.08
570.78	35079.95
570.95	34998.03
571.11	34698.44
571.27	34646.95
571.43	35093.99
571.60	35304.64
571.76	35117.40
571.92	35445.07
572.09	35732.96
572.25	34902.07
572.41	35274.21
572.57	35391.24
572.74	35005.05
572.90	34529.92
573.06	35077.61
573.22	34969.94
573.38	35150.17
573.55	35426.35
573.71	35604.23
573.87	35449.75
574.03	35339.75
574.20	35026.12
574.36	35204.00
574.52	35360.81
574.68	35620.61
574.84	35971.69
575.01	35559.76
575.17	35503.59
575.33	35416.99
575.49	35119.74
575.65	35545.72
575.82	35388.90
575.98	35339.75
576.14	35510.61
576.30	35800.83
576.46	35475.50
576.62	35288.26
576.79	35489.54
576.95	35480.18
577.11	35349.11
577.27	35103.35
577.43	35494.22
577.59	35744.66
577.75	35608.91
577.92	35466.14
578.08	35583.16
578.24	35115.06
578.40	35391.24
578.56	35543.38
578.72	35529.33
578.88	35859.35
579.04	35936.59
579.21	35136.12
579.37	35480.18
579.53	35737.64
579.69	35351.45
579.85	35271.87
580.01	35255.49
580.17	35400.60
580.33	35526.99
580.49	35325.71
580.65	35849.99
580.82	35674.45
580.98	35585.50
581.14	35592.53
581.30	35978.72
581.46	35658.06
581.62	35150.17
581.78	35751.68
581.94	35985.74
582.10	35363.15
582.26	35353.79
582.42	35931.90
582.58	35721.26
582.74	35716.58
582.90	35646.36
583.06	35765.73
583.22	35541.03
583.38	35786.79
583.54	35257.83
583.70	35730.62
583.86	35679.13
584.02	35735.30
584.18	36196.38
584.34	36212.77
584.50	36093.40
584.66	35826.58
584.82	35672.10
584.98	35805.52
585.14	35721.26
585.30	35601.89
585.46	35456.78
585.62	36102.76
585.78	35735.30
585.94	35505.93
586.10	35878.07
586.26	35571.46
586.42	35882.75
586.58	35618.27
586.74	35690.83
586.90	35370.18
587.06	35412.31
587.22	35765.73
587.38	35508.27
587.54	35976.37
587.70	35695.51
587.86	35817.22
588.02	36238.51
588.18	35819.56
588.34	35620.61
588.49	35999.78
588.65	36128.51
588.81	35849.99
588.97	35763.39
589.13	35803.17
589.29	35639.34
589.45	36172.98
589.61	35906.16
589.77	36215.11
589.93	35913.18
590.08	36449.16
590.24	35927.22
590.40	36002.12
590.56	36252.56
590.72	35571.46
590.88	35927.22
591.04	35929.56
591.20	36165.96
591.35	36095.74
