SpectraSuite Data File
++++++++++++++++++++++++++++++++++++
Date: Fri Oct 04 11:39:38 GMT-05:00 2013
User: price-jones
Dark Spectrum Present: No
Reference Spectrum Present: No
Number of Sampled Component Spectra: 1
Spectrometers: USB2+H05261
Integration Time (usec): 100000 (USB2+H05261)
Spectra Averaged: 1 (USB2+H05261)
Boxcar Smoothing: 0 (USB2+H05261)
Correct for Electrical Dark: No (USB2+H05261)
Strobe/Lamp Enabled: No (USB2+H05261)
Correct for Detector Non-linearity: No (USB2+H05261)
Correct for Stray Light: No (USB2+H05261)
Number of Pixels in Processed Spectrum: 2048
>>>>>Begin Processed Spectral Data<<<<<
365.73	100.64
365.92	100.64
366.12	100.64
366.32	30.43
366.52	0.00
366.72	0.00
366.91	0.00
367.11	0.00
367.31	0.00
367.51	0.00
367.70	0.00
367.90	0.00
368.10	0.00
368.30	0.00
368.49	0.00
368.69	0.00
368.89	7.02
369.09	0.00
369.28	0.00
369.48	0.00
369.68	0.00
369.87	42.13
370.07	0.00
370.27	0.00
370.47	86.60
370.66	273.84
370.86	407.25
371.06	346.40
371.25	447.04
371.45	353.42
371.65	418.96
371.84	379.17
372.04	372.15
372.24	444.70
372.44	477.47
372.63	463.43
372.83	505.56
373.03	393.21
373.22	433.00
373.42	510.24
373.62	461.09
373.81	416.62
374.01	491.51
374.21	435.34
374.40	430.66
374.60	519.60
374.79	498.53
374.99	535.98
375.19	601.52
375.38	465.77
375.58	496.19
375.78	524.28
375.97	533.64
376.17	594.50
376.37	554.71
376.56	594.50
376.76	559.39
376.95	575.77
377.15	528.96
377.35	582.79
377.54	498.53
377.74	571.09
377.93	486.83
378.13	477.47
378.33	594.50
378.52	599.18
378.72	589.82
378.91	580.45
379.11	561.73
379.31	615.56
379.50	587.47
379.70	660.03
379.89	645.99
380.09	657.69
380.28	716.20
380.48	648.33
380.68	547.69
380.87	667.05
381.07	720.88
381.26	706.84
381.46	692.80
381.65	638.97
381.85	662.37
382.04	739.61
382.24	732.59
382.43	718.54
382.63	678.76
382.83	660.03
383.02	674.07
383.22	758.33
383.41	711.52
383.61	678.76
383.80	727.91
384.00	606.20
384.19	798.12
384.39	774.72
384.58	755.99
384.78	781.74
384.97	800.46
385.17	692.80
385.36	814.51
385.56	788.76
385.75	779.40
385.95	795.78
386.14	751.31
386.34	734.93
386.53	837.91
386.72	828.55
386.92	805.14
387.11	828.55
387.31	833.23
387.50	816.85
387.70	795.78
387.89	819.19
388.09	814.51
388.28	887.06
388.48	844.93
388.67	940.90
388.86	889.40
389.06	884.72
389.25	929.19
389.45	887.06
389.64	863.66
389.84	877.70
390.03	884.72
390.22	971.32
390.42	922.17
390.61	856.64
390.81	901.11
391.00	882.38
391.19	999.41
391.39	947.92
391.58	964.30
391.78	908.13
391.97	1048.56
392.16	973.66
392.36	1067.28
392.55	1078.99
392.75	983.02
392.94	1111.75
393.13	1050.90
393.33	1006.43
393.52	990.05
393.71	1174.95
393.91	1121.12
394.10	1104.73
394.29	1086.01
394.49	1121.12
394.68	1135.16
394.88	1118.78
395.07	1191.33
395.26	1088.35
395.46	1130.48
395.65	1233.46
395.84	1217.08
396.04	1184.31
396.23	1095.37
396.42	1179.63
396.62	1181.97
396.81	1167.93
397.00	1205.38
397.19	1184.31
397.39	1287.29
397.58	1238.14
397.77	1198.35
397.97	1268.57
398.16	1289.64
398.35	1348.15
398.55	1186.65
398.74	1350.49
398.93	1310.70
399.12	1348.15
399.32	1261.55
399.51	1310.70
399.70	1434.75
399.90	1343.47
400.09	1493.26
400.28	1404.32
400.47	1406.66
400.67	1434.75
400.86	1399.64
401.05	1420.71
401.24	1507.30
401.44	1500.28
401.63	1547.09
401.82	1535.39
402.01	1493.26
402.21	1528.37
402.40	1542.41
402.59	1537.73
402.78	1549.43
402.97	1617.31
403.17	1589.22
403.36	1640.72
403.55	1596.25
403.74	1717.95
403.93	1727.32
404.13	1736.68
404.32	1612.63
404.51	1771.79
404.70	1680.50
404.89	1732.00
405.09	1860.73
405.28	1877.11
405.47	1792.85
405.66	1870.09
405.85	1839.66
406.05	1825.62
406.24	1893.49
406.43	1795.19
406.62	1820.94
406.81	1975.41
407.00	1816.26
407.20	1916.90
407.39	1905.20
407.58	1977.75
407.77	2019.88
407.96	2024.56
408.15	1956.69
408.34	1961.37
408.54	1980.09
408.73	1966.05
408.92	2111.16
409.11	2134.57
409.30	2139.25
409.49	2160.31
409.68	2218.83
409.87	2115.84
410.07	2239.89
410.26	2211.81
410.45	2235.21
410.64	2157.97
410.83	2324.15
411.02	2338.20
411.21	2349.90
411.40	2260.96
411.59	2387.35
411.78	2333.51
411.98	2443.52
412.17	2480.97
412.36	2438.84
412.55	2532.46
412.74	2492.67
412.93	2530.12
413.12	2527.78
413.31	2656.51
413.50	2583.95
413.69	2588.63
413.88	2656.51
414.07	2628.42
414.26	2719.70
414.45	2789.92
414.64	2761.83
414.83	2871.84
415.02	2846.09
415.22	2935.03
415.41	2956.10
415.60	2932.69
415.79	2953.76
415.98	3042.70
416.17	3068.44
416.36	2984.18
416.55	3119.93
416.74	3119.93
416.93	3087.17
417.12	3213.56
417.31	3166.74
417.50	3103.55
417.69	3272.07
417.88	3389.10
418.07	3225.26
418.26	3243.98
418.45	3290.79
418.64	3419.52
418.83	3510.80
419.02	3349.31
419.21	3445.27
419.39	3545.91
419.58	3321.22
419.77	3485.06
419.96	3332.92
420.15	3487.40
420.34	3461.65
420.53	3482.72
420.72	3616.13
420.91	3585.70
421.10	3627.83
421.29	3604.42
421.48	3543.57
421.67	3651.24
421.86	3756.56
422.05	3599.74
422.24	3768.26
422.43	3775.28
422.61	3667.62
422.80	3758.90
422.99	3840.82
423.18	3744.86
423.37	3782.31
423.56	3824.44
423.75	3733.15
423.94	3796.35
424.13	3634.85
424.32	3599.74
424.50	3852.52
424.69	3878.27
424.88	4032.74
425.07	3941.46
425.26	3737.84
425.45	3875.93
425.64	3796.35
425.83	3805.71
426.01	3889.97
426.20	3857.20
426.39	3915.72
426.58	3791.67
426.77	3932.10
426.96	3922.74
427.15	4016.36
427.33	3950.82
427.52	4037.42
427.71	3992.95
427.90	3953.16
428.09	3976.57
428.28	3976.57
428.46	4109.98
428.65	4098.28
428.84	4208.28
429.03	4243.39
429.22	4266.80
429.40	4163.81
429.59	4325.31
429.78	4124.02
429.97	4180.20
430.16	4039.76
430.34	4205.94
430.53	4404.89
430.72	4318.29
430.91	4315.95
431.10	4215.30
431.28	4430.63
431.47	4402.55
431.66	4484.47
431.85	4397.87
432.03	4514.89
432.22	4575.75
432.41	4643.62
432.60	4603.83
432.79	4479.79
432.97	4587.45
433.16	4489.15
433.35	4624.90
433.54	4713.84
433.72	4688.09
433.91	4741.93
434.10	4709.16
434.28	4828.53
434.47	4699.80
434.66	4720.86
434.85	4870.65
435.03	4887.04
435.22	5011.09
435.41	5317.70
435.59	5221.74
435.78	5116.41
435.97	5102.37
436.16	5006.41
436.34	4901.08
436.53	5104.71
436.72	5095.35
436.90	4926.83
437.09	5184.29
437.28	4952.57
437.46	5142.16
437.65	5123.43
437.84	5135.14
438.02	5097.69
438.21	5348.12
438.40	5088.32
438.58	5224.08
438.77	5280.25
438.96	5284.93
439.14	5502.60
439.33	5488.56
439.52	5509.62
439.70	5568.13
439.89	5614.95
440.08	5802.19
440.26	5696.86
440.45	5523.66
440.63	5874.74
440.82	5865.38
441.01	5621.97
441.19	5900.49
441.38	6087.73
441.57	6061.99
441.75	5846.66
441.94	6200.08
442.12	6069.01
442.31	6122.84
442.50	5973.05
442.68	6232.85
442.87	6099.44
443.05	6277.32
443.24	6265.61
443.43	6209.44
443.61	6225.82
443.80	6583.93
443.98	6286.68
444.17	6104.12
444.35	6267.95
444.54	6347.53
444.73	6401.37
444.91	6331.15
445.10	6445.84
445.28	6314.77
445.47	6485.62
445.65	6396.68
445.84	6455.20
446.02	6392.00
446.21	6338.17
446.39	6525.41
446.58	6450.52
446.77	6399.02
446.95	6244.55
447.14	6502.01
447.32	6595.63
447.51	6356.90
447.69	6328.81
447.88	6569.88
448.06	6438.81
448.25	6635.42
448.43	6623.72
448.62	6466.90
448.80	6415.41
448.99	6569.88
449.17	6469.24
449.36	6487.96
449.54	6689.25
449.73	6843.73
449.91	6705.63
450.10	6932.67
450.28	6979.48
450.46	6827.34
450.65	7091.82
450.83	6853.09
451.02	7066.08
451.20	7061.40
451.39	7112.89
451.57	6993.52
451.76	7045.01
451.94	6949.05
452.13	7070.76
452.31	7052.03
452.49	6897.56
452.68	7094.16
452.86	7126.93
453.05	7211.19
453.23	7272.04
453.42	7140.97
453.60	7155.02
453.78	7194.81
453.97	7112.89
454.15	7351.62
454.34	7407.80
454.52	7318.86
454.70	7405.46
454.89	7360.98
455.07	7410.14
455.26	7496.74
455.44	7585.68
455.62	7435.88
455.81	7566.95
455.99	7672.28
456.17	7541.21
456.36	7695.68
456.54	7721.43
456.73	8016.33
456.91	7974.21
457.09	8004.63
457.28	8004.63
457.46	7808.03
457.64	8070.17
457.83	8184.85
458.01	8009.31
458.19	8051.44
458.38	8025.70
458.56	8049.10
458.74	8100.59
458.93	7953.14
459.11	8042.08
459.29	8182.51
459.48	8196.56
459.66	8236.35
459.84	8250.39
460.03	8344.01
460.21	8365.07
460.39	8271.45
460.57	8552.32
460.76	8252.73
460.94	8404.86
461.12	8404.86
461.31	8624.87
461.49	8423.59
461.67	8451.67
461.85	8777.01
462.04	8587.43
462.22	8772.33
462.40	8610.83
462.59	8662.32
462.77	8552.32
462.95	8762.97
463.13	8760.63
463.32	8828.50
463.50	8868.29
463.68	8706.79
463.86	8744.24
464.05	8725.52
464.23	8835.52
464.41	8851.91
464.59	8879.99
464.78	8931.48
464.96	9001.70
465.14	8985.32
465.32	9046.17
465.50	9329.38
465.69	9275.54
465.87	9088.30
466.05	9181.92
466.23	8898.72
466.41	9341.08
466.60	9359.80
466.78	9221.71
466.96	9408.95
467.14	9202.99
467.32	9383.21
467.51	9423.00
467.69	9088.30
467.87	9502.58
468.05	9525.98
468.23	9275.54
468.41	9423.00
468.60	9462.79
468.78	9647.69
468.96	9413.63
469.14	9621.94
469.32	9645.35
469.50	9357.46
469.69	9542.36
469.87	9980.04
470.05	9891.10
470.23	9591.52
470.41	9888.76
470.59	9902.81
470.77	9991.75
470.95	9877.06
471.14	10174.31
471.32	9872.38
471.50	10106.43
471.68	10181.33
471.86	10218.78
472.04	10356.87
472.22	10434.11
472.40	10202.40
472.58	10218.78
472.77	10523.05
472.95	10567.52
473.13	10853.06
473.31	10590.92
473.49	10623.69
473.67	10633.05
473.85	10588.58
474.03	10991.16
474.21	10874.13
474.39	10986.47
474.57	10972.43
474.75	11414.79
474.93	11068.39
475.12	11152.65
475.30	11218.19
475.48	11386.71
475.66	11309.47
475.84	11220.53
476.02	11599.70
476.20	11515.44
476.38	11793.96
476.56	11702.68
476.74	11833.75
476.92	11793.96
477.10	11705.02
477.28	12046.74
477.46	12133.34
477.64	12271.43
477.82	12498.46
478.00	12489.10
478.18	12767.62
478.36	12538.25
478.54	12755.92
478.72	12748.90
478.90	12828.48
479.08	13025.08
479.26	13217.01
479.44	13231.05
479.62	13099.98
479.80	13427.65
479.98	13268.50
480.16	13701.50
480.34	13551.70
480.52	13870.01
480.70	13788.10
480.88	13451.06
481.06	13982.36
481.24	13951.93
481.41	14080.66
481.59	14427.06
481.77	14485.58
481.95	14415.36
482.13	14544.09
482.31	14679.84
482.49	14857.72
482.67	14824.95
482.85	15187.74
483.03	15389.02
483.21	15503.71
483.39	15557.54
483.57	15527.11
483.74	15824.36
483.92	15786.91
484.10	15925.00
484.28	16170.76
484.46	16587.38
484.64	16718.45
484.82	16229.27
485.00	16266.72
485.18	16791.00
485.35	17060.16
485.53	16931.44
485.71	16854.20
485.89	17212.30
486.07	17359.75
486.25	17343.37
486.43	17334.01
486.61	17495.50
486.78	17912.12
486.96	17792.75
487.14	18045.53
487.32	17961.27
487.50	18420.02
487.68	18508.96
487.85	18401.29
488.03	18740.67
488.21	19016.85
488.39	19147.92
488.57	19105.79
488.75	19447.51
488.92	19697.95
489.10	19733.06
489.28	19800.93
489.46	20072.43
489.64	20049.03
489.81	20236.27
489.99	20524.16
490.17	20327.55
490.35	20442.24
490.53	20730.12
490.70	21163.12
490.88	20821.41
491.06	21245.04
491.24	21151.42
491.41	21207.59
491.59	21507.18
491.77	21350.37
491.95	21872.31
492.13	21989.33
492.30	22274.88
492.48	22321.69
492.66	21972.95
492.84	21968.27
493.01	22927.89
493.19	22588.51
493.37	22965.34
493.54	22696.17
493.72	23140.88
493.90	23089.38
494.08	23302.37
494.25	23693.24
494.43	23723.67
494.61	23871.12
494.79	23908.57
494.96	23789.20
495.14	23880.49
495.32	24451.58
495.49	24142.63
495.67	24418.81
495.85	24554.56
496.02	24570.94
496.20	24800.32
496.38	25144.38
496.55	25186.50
496.73	25411.20
496.91	25394.81
497.09	25294.17
497.26	25811.43
497.44	25516.52
497.62	25666.31
497.79	26078.25
497.97	25909.73
498.14	26401.24
498.32	26394.22
498.50	26403.58
498.67	27080.00
498.85	26632.96
499.03	26852.97
499.20	26937.23
499.38	27096.38
499.56	27199.37
499.73	27206.39
499.91	27908.55
500.08	27374.91
500.26	27505.98
500.44	27573.85
500.61	27754.07
500.79	27594.92
500.97	28133.24
501.14	28222.18
501.32	28065.36
501.49	27889.82
501.67	28177.71
501.84	28432.83
502.02	28374.31
502.20	28570.92
502.37	29078.82
502.55	28716.03
502.72	29137.33
502.90	28985.19
503.07	28788.59
503.25	28840.08
503.43	28870.51
503.60	29448.62
503.78	29425.22
503.95	29642.88
504.13	29729.48
504.30	29984.60
504.48	29792.68
504.65	29802.04
504.83	30157.80
505.01	30267.81
505.18	30047.80
505.36	30136.74
505.53	30377.81
505.71	30141.42
505.88	30511.22
506.06	30616.55
506.23	30639.95
506.41	30586.12
506.58	30607.19
506.76	31016.78
506.93	31215.72
507.11	30904.43
507.28	31211.04
507.46	31466.16
507.63	31061.25
507.81	31314.03
507.98	31676.81
508.16	31555.10
508.33	31969.38
508.50	31894.48
508.68	31828.95
508.85	32168.32
509.03	32074.70
509.20	32477.27
509.38	32547.49
509.55	32521.74
509.73	32570.90
509.90	32456.21
510.08	32247.90
510.25	32936.02
510.42	32814.31
510.60	33167.73
510.77	33137.30
510.95	33509.45
511.12	33308.16
511.30	32769.84
511.47	33282.42
511.64	33221.56
511.82	33441.57
511.99	33570.30
512.17	33715.42
512.34	33448.60
512.51	34223.31
512.69	34064.16
512.86	34045.43
513.04	34307.57
513.21	34342.68
513.38	34316.93
513.56	34560.35
513.73	34581.42
513.90	34639.93
514.08	34625.89
514.25	34569.71
514.43	34380.13
514.60	35005.05
514.77	35093.99
514.95	35321.02
515.12	35091.65
515.29	34572.05
515.47	35531.67
515.64	35761.05
515.81	35721.26
515.99	35824.24
516.16	36287.67
516.33	36034.89
516.51	35681.47
516.68	35679.13
516.85	35711.89
517.03	35945.95
517.20	36044.25
517.37	36140.21
517.54	36156.60
517.72	36491.29
517.89	36580.23
518.06	36264.26
518.24	36636.41
518.41	36325.11
518.58	36563.85
518.75	36542.78
518.93	37127.92
519.10	37095.15
519.27	36627.04
519.45	36921.95
519.62	37584.32
519.79	37502.40
519.96	37027.28
520.14	37591.34
520.31	37092.81
520.48	37565.60
520.65	37401.76
520.83	37635.81
521.00	37766.88
521.17	37752.84
521.34	38061.79
521.52	38054.77
521.69	37801.99
521.86	38092.22
522.03	38576.71
522.20	38590.75
522.38	38562.67
522.55	38347.34
522.72	38281.80
522.89	38417.55
523.07	38520.54
523.24	38263.08
523.41	39054.18
523.58	38457.34
523.75	38726.50
523.92	38635.22
524.10	39358.45
524.27	38780.34
524.44	38656.29
524.61	39562.08
524.78	39697.83
524.96	39782.09
525.13	39704.85
525.30	39370.15
525.47	39959.97
525.64	39438.03
525.81	39845.28
525.98	39742.30
526.16	39686.12
526.33	39931.88
526.50	40140.19
526.67	39580.80
526.84	39976.35
527.01	40112.10
527.18	40233.81
527.36	40098.06
527.53	40332.11
527.70	40484.25
527.87	40573.19
528.04	40528.72
528.21	40451.48
528.38	39988.05
528.55	40526.38
528.72	40596.59
528.89	40821.28
529.07	40641.06
529.24	40669.15
529.41	41427.48
529.58	41118.53
529.75	40683.19
529.92	40800.22
530.09	41315.14
530.26	41233.22
530.43	41610.04
530.60	41284.71
530.77	41165.34
530.94	41373.65
531.11	41331.52
531.28	41219.17
531.46	41408.76
531.63	41549.19
531.80	41701.32
531.97	41691.96
532.14	41956.44
532.31	42050.06
532.48	41968.15
532.65	42199.86
532.82	41830.05
532.99	42071.13
533.16	41984.53
533.33	42487.74
533.50	42597.75
533.67	42515.83
533.84	42010.28
534.01	41926.02
534.18	42059.43
534.35	42857.55
534.52	42351.99
534.69	42817.76
534.86	42838.83
535.03	42443.27
535.20	42878.61
535.37	42707.76
535.54	43054.15
535.71	42225.60
535.88	42906.70
536.05	43107.99
536.22	42859.89
536.38	43299.91
536.55	43580.78
536.72	43007.34
536.89	43086.92
537.06	42909.04
537.23	43201.61
537.40	43225.01
537.57	43264.80
537.74	43351.40
537.91	43693.12
538.08	43564.39
538.25	43639.29
538.42	43955.26
538.59	43824.19
538.75	43232.04
538.92	43700.14
539.09	43803.13
539.26	44083.99
539.43	43536.30
539.60	43971.64
539.77	44161.23
539.94	44048.88
540.11	44201.02
540.28	44437.41
540.44	44121.44
540.61	44161.23
540.78	44722.96
540.95	44858.71
541.12	44608.27
541.29	44753.38
541.46	44928.92
541.62	44463.16
541.79	44629.34
541.96	44835.30
542.13	44430.39
542.30	44507.63
542.47	45022.54
542.63	44847.00
542.80	45366.60
542.97	45577.25
543.14	45514.06
543.31	45172.34
543.48	45027.23
543.64	45317.45
543.81	45422.78
543.98	45949.40
544.15	45474.27
544.32	46195.15
544.48	46216.22
544.65	45893.22
544.82	45237.87
544.99	45052.97
545.16	45764.49
545.32	45982.16
545.49	46466.66
545.66	46979.23
545.83	46689.01
546.00	46822.42
546.16	46527.51
546.33	45900.25
546.50	45588.95
546.67	45846.41
546.83	45155.96
547.00	45961.10
547.17	45944.72
547.34	46138.98
547.50	46321.54
547.67	46358.99
547.84	46316.86
548.00	46036.00
548.17	46773.27
548.34	46405.80
548.51	46574.32
548.67	46356.65
548.84	46569.64
549.01	46705.39
549.18	46089.83
549.34	46110.89
549.51	46639.86
549.68	46071.10
549.84	46628.15
550.01	46672.62
550.18	46206.86
550.34	46831.78
550.51	46658.58
550.68	46911.36
550.84	46401.12
551.01	46677.30
551.18	46653.90
551.34	46349.63
551.51	47168.82
551.68	47250.74
551.84	46855.18
552.01	46745.18
552.18	47079.88
552.34	47091.58
552.51	47004.98
552.68	47136.05
552.84	46796.67
553.01	47257.76
553.18	47388.83
553.34	47199.24
553.51	47250.74
553.67	47468.40
553.84	47332.65
554.01	47505.85
554.17	47260.10
554.34	47185.20
554.51	47349.04
554.67	47540.96
554.84	47217.97
555.00	47349.04
555.17	47517.56
555.33	47758.63
555.50	47662.67
555.67	47248.39
555.83	47086.90
556.00	47789.06
556.16	48137.80
556.33	47456.70
556.50	47590.11
556.66	47789.06
556.83	47454.36
556.99	47922.47
557.16	48114.39
557.32	47828.85
557.49	47697.78
557.65	47503.51
557.82	47840.55
557.98	47828.85
558.15	47931.83
558.32	47817.14
558.48	47966.94
558.65	47936.51
558.81	48105.03
558.98	48156.52
559.14	48039.50
559.31	47896.72
559.47	47679.05
559.64	47950.56
559.80	48046.52
559.97	48289.93
560.13	48053.54
560.30	48254.82
560.46	48093.33
560.63	48259.51
560.79	48285.25
560.96	48315.68
561.12	47899.06
561.29	48158.86
561.45	48226.74
561.61	48264.19
561.78	48444.41
561.94	48229.08
562.11	48479.52
562.27	48055.88
562.44	48406.96
562.60	48406.96
562.77	48268.87
562.93	47931.83
563.10	48416.32
563.26	48093.33
563.42	48753.36
563.59	48311.00
563.75	48708.89
563.92	48772.08
564.08	48299.30
564.24	48353.13
564.41	48311.00
564.57	48467.81
564.74	48493.56
564.90	48561.44
565.07	48968.69
565.23	48650.38
565.39	48552.07
565.56	48633.99
565.72	48435.05
565.88	48697.19
566.05	48296.95
566.21	48484.20
566.38	48605.91
566.54	48470.15
566.70	48846.98
566.87	49109.12
567.03	48449.09
567.19	48470.15
567.36	48512.28
567.52	48432.71
567.68	48755.70
567.85	48566.12
568.01	48669.10
568.17	48556.75
568.34	48708.89
568.50	48797.83
568.66	48554.41
568.83	49008.48
568.99	48884.43
569.15	48865.70
569.32	48409.30
569.48	48264.19
569.64	49057.63
569.81	48729.95
569.97	48388.24
570.13	48837.62
570.30	48795.49
570.46	48694.85
570.62	48987.41
570.78	48713.57
570.95	48664.42
571.11	48626.97
571.27	48523.99
571.43	48402.28
571.60	48942.94
571.76	48669.10
571.92	48832.94
572.09	49043.59
572.25	48926.56
572.41	48823.58
572.57	48774.42
572.74	49153.59
572.90	48704.21
573.06	48706.55
573.22	48816.55
573.38	48973.37
573.55	48942.94
573.71	48996.77
573.87	49071.67
574.03	48755.70
574.20	48999.12
574.36	49116.14
574.52	48671.44
574.68	48559.09
574.84	49130.19
575.01	49380.62
575.17	49270.62
575.33	48788.47
575.49	49106.78
575.65	49345.51
575.82	49202.74
575.98	49256.57
576.14	48655.06
576.30	49120.82
576.46	48767.40
576.62	49024.86
576.79	48919.54
576.95	48816.55
577.11	48917.20
577.27	49354.88
577.43	48865.70
577.59	49141.89
577.75	49205.08
577.92	48793.15
578.08	48949.96
578.24	48865.70
578.40	48584.84
578.56	49160.61
578.72	48985.07
578.88	49525.74
579.04	49050.61
579.21	48851.66
579.37	48872.73
579.53	49319.77
579.69	48715.91
579.85	48863.36
580.01	48893.79
580.17	48851.66
580.33	49048.27
580.49	48821.23
580.65	48701.87
580.82	49418.07
580.98	49055.29
581.14	49041.24
581.30	49216.78
581.46	49050.61
581.62	48633.99
581.78	48952.30
581.94	48865.70
582.10	48966.35
582.26	49050.61
582.42	48971.03
582.58	49155.93
582.74	49359.56
582.90	49081.03
583.06	49366.58
583.22	48978.05
583.38	48891.45
583.54	49230.83
583.70	48760.38
583.86	49008.48
584.02	48690.16
584.18	49116.14
584.34	49153.59
584.50	49397.01
584.66	48814.21
584.82	49193.38
584.98	49069.33
585.14	49041.24
585.30	48854.00
585.46	48758.04
585.62	48832.94
585.78	49008.48
585.94	48659.74
586.10	49052.95
586.26	49226.15
586.42	49223.81
586.58	49081.03
586.74	49069.33
586.90	48603.56
587.06	48973.37
587.22	49441.48
587.38	48790.81
587.54	48931.24
587.70	49275.30
587.86	49127.84
588.02	48928.90
588.18	49308.07
588.34	49507.01
588.49	49385.30
588.65	48601.22
588.81	48999.12
588.97	49041.24
589.13	48978.05
589.29	49169.97
589.45	49422.75
589.61	49361.90
589.77	49567.87
589.93	49216.78
590.08	49146.57
590.24	49434.45
