SpectraSuite Data File
++++++++++++++++++++++++++++++++++++
Date: Fri Oct 04 11:39:44 GMT-05:00 2013
User: price-jones
Dark Spectrum Present: No
Reference Spectrum Present: No
Number of Sampled Component Spectra: 1
Spectrometers: USB2+H05261
Integration Time (usec): 100000 (USB2+H05261)
Spectra Averaged: 1 (USB2+H05261)
Boxcar Smoothing: 0 (USB2+H05261)
Correct for Electrical Dark: No (USB2+H05261)
Strobe/Lamp Enabled: No (USB2+H05261)
Correct for Detector Non-linearity: No (USB2+H05261)
Correct for Stray Light: No (USB2+H05261)
Number of Pixels in Processed Spectrum: 2048
>>>>>Begin Processed Spectral Data<<<<<
365.73	72.56
365.92	72.56
366.12	72.56
366.32	0.00
366.52	0.00
366.72	4.68
366.91	0.00
367.11	0.00
367.31	0.00
367.51	0.00
367.70	0.00
367.90	0.00
368.10	0.00
368.30	0.00
368.49	0.00
368.69	0.00
368.89	14.04
369.09	0.00
369.28	28.09
369.48	0.00
369.68	0.00
369.87	84.26
370.07	25.75
370.27	0.00
370.47	121.71
370.66	369.80
370.86	496.19
371.06	475.13
371.25	519.60
371.45	512.58
371.65	512.58
371.84	528.96
372.04	533.64
372.24	580.45
372.44	538.32
372.63	582.79
372.83	575.77
373.03	557.05
373.22	594.50
373.42	582.79
373.62	603.86
373.81	669.39
374.01	634.29
374.21	660.03
374.40	648.33
374.60	622.58
374.79	683.44
374.99	699.82
375.19	697.48
375.38	767.70
375.58	669.39
375.78	624.92
375.97	760.67
376.17	767.70
376.37	770.04
376.56	744.29
376.76	805.14
376.95	753.65
377.15	725.57
377.35	786.42
377.54	837.91
377.74	802.80
377.93	819.19
378.13	800.46
378.33	814.51
378.52	774.72
378.72	840.25
378.91	814.51
379.11	812.17
379.31	868.34
379.50	805.14
379.70	842.59
379.89	784.08
380.09	784.08
380.28	849.61
380.48	861.32
380.68	863.66
380.87	891.74
381.07	891.74
381.26	945.58
381.46	917.49
381.65	924.51
381.85	929.19
382.04	938.55
382.24	1025.15
382.43	968.98
382.63	997.07
382.83	992.39
383.02	999.41
383.22	931.53
383.41	1018.13
383.61	1022.81
383.80	971.32
384.00	1011.11
384.19	980.68
384.39	973.66
384.58	1027.50
384.78	964.30
384.97	1015.79
385.17	1083.67
385.36	1088.35
385.56	1121.12
385.75	1074.31
385.95	1062.60
386.14	1083.67
386.34	1048.56
386.53	1118.78
386.72	1034.52
386.92	1282.61
387.11	1179.63
387.31	1217.08
387.50	1074.31
387.70	1151.54
387.89	1142.18
388.09	1149.20
388.28	1172.61
388.48	1181.97
388.67	1263.89
388.86	1198.35
389.06	1280.27
389.25	1219.42
389.45	1235.80
389.64	1210.06
389.84	1296.66
390.03	1245.16
390.22	1181.97
390.42	1313.04
390.61	1313.04
390.81	1299.00
391.00	1359.85
391.19	1376.24
391.39	1350.49
391.58	1469.86
391.78	1399.64
391.97	1409.00
392.16	1399.64
392.36	1434.75
392.55	1406.66
392.75	1458.15
392.94	1462.83
393.13	1394.96
393.33	1474.54
393.52	1474.54
393.71	1612.63
393.91	1519.01
394.10	1516.67
394.29	1584.54
394.49	1544.75
394.68	1638.38
394.88	1600.93
395.07	1621.99
395.26	1596.25
395.46	1645.40
395.65	1612.63
395.84	1629.01
396.04	1729.66
396.23	1722.63
396.42	1671.14
396.62	1694.55
396.81	1675.82
397.00	1753.06
397.19	1792.85
397.39	1715.61
397.58	1771.79
397.77	1799.87
397.97	1804.55
398.16	1741.36
398.35	1844.34
398.55	1790.51
398.74	1846.68
398.93	1935.62
399.12	1891.15
399.32	1844.34
399.51	1954.35
399.70	1956.69
399.90	2062.01
400.09	2066.69
400.28	1942.64
400.47	1989.46
400.67	2106.48
400.86	2094.78
401.05	2057.33
401.24	2148.61
401.44	2211.81
401.63	2167.34
401.82	2153.29
402.01	2132.23
402.21	2111.16
402.40	2218.83
402.59	2377.98
402.78	2258.62
402.97	2312.45
403.17	2176.70
403.36	2221.17
403.55	2300.75
403.74	2431.82
403.93	2366.28
404.13	2429.48
404.32	2361.60
404.51	2401.39
404.70	2448.20
404.89	2473.95
405.09	2445.86
405.28	2506.71
405.47	2499.69
405.66	2553.52
405.85	2537.14
406.05	2441.18
406.24	2572.25
406.43	2602.68
406.62	2605.02
406.81	2761.83
407.00	2675.23
407.20	2605.02
407.39	2754.81
407.58	2736.09
407.77	2736.09
407.96	2813.32
408.15	2909.29
408.34	2761.83
408.54	2867.16
408.73	2796.94
408.92	2972.48
409.11	2951.42
409.30	3002.91
409.49	2937.37
409.68	2970.14
409.87	3068.44
410.07	3110.57
410.26	3131.64
410.45	3138.66
410.64	3103.55
410.83	3145.68
411.02	3098.87
411.21	3222.92
411.40	3370.37
411.59	3288.45
411.78	3447.61
411.98	3234.62
412.17	3349.31
412.36	3445.27
412.55	3618.47
412.74	3475.70
412.93	3485.06
413.12	3550.59
413.31	3665.28
413.50	3527.19
413.69	3735.50
413.88	3770.60
414.07	3843.16
414.26	3875.93
414.45	3728.47
414.64	3840.82
414.83	4053.81
415.02	3971.89
415.22	3901.67
415.41	4098.28
415.60	4175.52
415.79	4112.32
415.98	4189.56
416.17	4138.07
416.36	4159.13
416.55	4250.41
416.74	4287.86
416.93	4337.01
417.12	4528.94
417.31	4367.44
417.50	4386.16
417.69	4582.77
417.88	4636.60
418.07	4723.20
418.26	4657.67
418.45	4678.73
418.64	4793.42
418.83	4660.01
419.02	4657.67
419.21	4833.21
419.39	4748.95
419.58	4772.35
419.77	4802.78
419.96	4896.40
420.15	5046.20
420.34	4851.93
420.53	4966.62
420.72	5057.90
420.91	4973.64
421.10	5191.31
421.29	5249.82
421.48	4964.28
421.67	5135.14
421.86	5057.90
422.05	5123.43
422.24	5226.42
422.43	5263.86
422.61	5282.59
422.80	5259.18
422.99	5270.89
423.18	5198.33
423.37	5343.44
423.56	5359.83
423.75	5359.83
423.94	5270.89
424.13	4931.51
424.32	5069.60
424.50	5460.47
424.69	5636.01
424.88	5444.09
425.07	5301.31
425.26	5334.08
425.45	5200.67
425.64	5298.97
425.83	5537.71
426.01	5453.45
426.20	5406.64
426.39	5331.74
426.58	5434.72
426.77	5310.68
426.96	5558.77
427.15	5610.26
427.33	5521.32
427.52	5544.73
427.71	5500.26
427.90	5753.04
428.09	5652.39
428.28	5678.14
428.46	5851.34
428.65	5703.89
428.84	5984.75
429.03	6003.47
429.22	5877.09
429.40	6045.60
429.59	5916.87
429.78	5844.32
429.97	5666.44
430.16	5886.45
430.34	6059.65
430.53	6134.54
430.72	6033.90
430.91	6097.10
431.10	6155.61
431.28	6073.69
431.47	6263.27
431.66	6188.38
431.85	6326.47
432.03	6305.40
432.22	6583.93
432.41	6466.90
432.60	6490.31
432.79	6537.12
432.97	6546.48
433.16	6693.93
433.35	6483.28
433.54	6684.57
433.72	6579.25
433.91	6597.97
434.10	6581.59
434.28	6691.59
434.47	6733.72
434.66	6853.09
434.85	6745.42
435.03	6834.36
435.22	7115.23
435.41	7400.77
435.59	7435.88
435.78	7318.86
435.97	7084.80
436.16	6958.41
436.34	7119.91
436.53	7183.10
436.72	7133.95
436.90	7002.88
437.09	7178.42
437.28	7035.65
437.46	7162.04
437.65	7229.91
437.84	7461.63
438.02	7293.11
438.21	7496.74
438.40	7426.52
438.58	7681.64
438.77	7672.28
438.96	7728.45
439.14	7845.48
439.33	7714.41
439.52	7730.79
439.70	7957.82
439.89	8119.32
440.08	7906.33
440.26	7861.86
440.45	8030.38
440.63	8229.32
440.82	8194.22
441.01	8243.37
441.19	8332.31
441.38	8587.43
441.57	8482.10
441.75	8510.19
441.94	8650.62
442.12	8779.35
442.31	8772.33
442.50	8912.76
442.68	8751.26
442.87	8753.60
443.05	8734.88
443.24	8854.25
443.43	8901.06
443.61	9090.64
443.80	9163.20
443.98	8702.11
444.17	8681.05
444.35	9067.24
444.54	9298.95
444.73	9046.17
444.91	9001.70
445.10	9046.17
445.28	9064.89
445.47	8961.91
445.65	9116.39
445.84	9174.90
446.02	9217.03
446.21	9231.07
446.39	9406.61
446.58	9310.65
446.77	9235.75
446.95	9029.79
447.14	9275.54
447.32	9268.52
447.51	9334.06
447.69	9373.85
447.88	9172.56
448.06	9317.67
448.25	9303.63
448.43	9331.72
448.62	9413.63
448.80	9434.70
448.99	9584.49
449.17	9694.50
449.36	9483.85
449.54	9703.86
449.73	9846.63
449.91	9818.55
450.10	9907.49
450.28	10033.88
450.46	9966.00
450.65	9919.19
450.83	9879.40
451.02	9785.78
451.20	10038.56
451.39	10085.37
451.57	10209.42
451.76	9949.62
451.94	10071.33
452.13	10284.31
452.31	10045.58
452.49	10122.82
452.68	10361.55
452.86	10251.55
453.05	10485.60
453.23	10424.75
453.42	10216.44
453.60	10237.50
453.78	10384.96
453.97	10406.02
454.15	10396.66
454.34	10717.31
454.52	10595.61
454.70	10736.04
454.89	10745.40
455.07	10862.43
455.26	10963.07
455.44	10803.91
455.62	10787.53
455.81	10815.62
455.99	10874.13
456.17	11220.53
456.36	11073.07
456.54	11262.66
456.73	11190.10
456.91	11765.87
457.09	11372.66
457.28	11627.78
457.46	11414.79
457.64	11644.17
457.83	11623.10
458.01	11440.54
458.19	11740.13
458.38	11449.90
458.56	11630.12
458.74	11915.67
458.93	11871.20
459.11	11805.66
459.29	11726.08
459.48	11871.20
459.66	11585.65
459.84	11920.35
460.03	12297.17
460.21	12126.32
460.39	12039.72
460.57	11946.09
460.76	12367.39
460.94	12482.08
461.12	12112.27
461.31	12077.16
461.49	12283.13
461.67	12362.71
461.85	12725.49
462.04	12524.21
462.22	13022.74
462.40	12800.39
462.59	12393.14
462.77	12636.55
462.95	12739.54
463.13	12690.38
463.32	13163.17
463.50	12816.77
463.68	12933.80
463.86	12945.50
464.05	12800.39
464.23	12809.75
464.41	13013.38
464.59	12950.18
464.78	13308.29
464.96	13071.89
465.14	13146.79
465.32	13399.57
465.50	13542.34
465.69	13589.15
465.87	13469.78
466.05	13224.03
466.23	13532.98
466.41	13319.99
466.60	14005.77
466.78	13476.80
466.96	13479.15
467.14	13362.12
467.32	13762.35
467.51	13795.12
467.69	13483.83
467.87	13891.08
468.05	13865.33
468.23	13544.68
468.41	13755.33
468.60	13846.61
468.78	14188.33
468.96	13788.10
469.14	13984.70
469.32	14277.27
469.50	14176.62
469.69	14303.01
469.87	14417.70
470.05	14452.81
470.23	14328.76
470.41	14562.81
470.59	14766.44
470.77	14387.27
470.95	14721.97
471.14	14836.66
471.32	14576.86
471.50	15054.33
471.68	15241.57
471.86	14897.51
472.04	15431.15
472.22	15302.42
472.40	15180.71
472.58	15557.54
472.77	15215.82
472.95	15564.56
473.13	16025.65
473.31	15543.50
473.49	15618.39
473.67	15714.36
473.85	15847.77
474.03	16163.74
474.21	16088.84
474.39	16456.31
474.57	16255.02
474.75	16428.22
474.93	16610.78
475.12	16690.36
475.30	16840.15
475.48	16531.20
475.66	16791.00
475.84	16943.14
476.02	17205.28
476.20	17235.70
476.38	17570.40
476.56	17706.15
476.74	17652.32
476.92	17687.43
477.10	17591.47
477.28	17935.53
477.46	18043.19
477.64	17963.61
477.82	18162.56
478.00	18918.55
478.18	18597.90
478.36	19126.86
478.54	19080.05
478.72	19363.25
478.90	19082.39
479.08	19365.59
479.26	19515.39
479.44	19913.28
479.62	19756.46
479.80	19978.81
479.98	19948.39
480.16	20458.62
480.34	20493.73
480.52	20711.40
480.70	20465.64
480.88	20631.82
481.06	20776.94
481.24	20833.11
481.41	21008.65
481.59	21785.71
481.77	21570.38
481.95	21762.30
482.13	21965.93
482.31	21989.33
482.49	22494.89
482.67	22485.53
482.85	22911.50
483.03	23030.87
483.21	22927.89
483.39	23564.51
483.57	23449.83
483.74	23733.03
483.92	23751.76
484.10	23538.77
484.28	24301.78
484.46	24882.24
484.64	25130.33
484.82	24713.72
485.00	25151.40
485.18	25324.60
485.35	25778.66
485.53	25998.67
485.71	25626.53
485.89	26265.49
486.07	26171.87
486.25	26272.51
486.43	26452.73
486.61	26665.72
486.78	26581.46
486.96	27349.16
487.14	27784.50
487.32	27828.97
487.50	27859.40
487.68	27887.48
487.85	28053.66
488.03	28315.80
488.21	28919.66
488.39	28725.39
488.57	29097.54
488.75	29127.97
488.92	29853.53
489.10	30122.69
489.28	29818.42
489.46	30548.67
489.64	30384.83
489.81	30637.61
489.99	30668.04
490.17	30785.07
490.35	31222.75
490.53	31014.44
490.70	31606.59
490.88	31512.97
491.06	32182.37
491.24	32098.11
491.41	32568.55
491.59	32486.64
491.77	32584.94
491.95	33322.21
492.13	33340.93
492.30	33230.93
492.48	33235.61
492.66	34122.67
492.84	33659.24
493.01	34195.23
493.19	34808.45
493.37	34527.58
493.54	34808.45
493.72	35037.82
493.90	34780.36
494.08	35349.11
494.25	35859.35
494.43	35782.11
494.61	36545.12
494.79	36191.70
494.96	36428.10
495.14	36996.85
495.32	37043.66
495.49	37186.43
495.67	37181.75
495.85	37720.07
496.02	37699.01
496.20	38064.13
496.38	37993.92
496.55	37883.91
496.73	38679.69
496.91	38455.00
497.09	38445.64
497.26	39187.59
497.44	39269.51
497.62	39707.19
497.79	39952.94
497.97	39475.48
498.14	39981.03
498.32	40161.25
498.50	40524.04
498.67	40875.12
498.85	40556.80
499.03	40781.49
499.20	41090.44
499.38	40751.07
499.56	41280.03
499.73	41539.83
499.91	41621.75
500.08	41879.21
500.26	41586.64
500.44	41956.44
500.61	41785.58
500.79	41855.80
500.97	42274.76
501.14	42738.18
501.32	42925.42
501.49	42920.74
501.67	42705.41
501.84	43276.51
502.02	43147.78
502.20	43337.36
502.37	43510.56
502.55	44203.36
502.72	44437.41
502.90	44051.22
503.07	43828.87
503.25	43803.13
503.43	43924.83
503.60	44404.64
503.78	44802.53
503.95	44919.56
504.13	44975.73
504.30	44788.49
504.48	44645.72
504.65	45029.57
504.83	45722.37
505.01	46033.66
505.18	45670.87
505.36	46188.13
505.53	46167.07
505.71	45628.74
505.88	46162.39
506.06	45806.62
506.23	46326.22
506.41	46443.25
506.58	46796.67
506.76	46686.67
506.93	46902.00
507.11	46651.56
507.28	46909.02
507.46	47206.26
507.63	47196.90
507.81	47615.86
507.98	47419.25
508.16	47704.80
508.33	47569.05
508.50	47845.23
508.68	48140.14
508.85	48598.88
509.03	48311.00
509.20	48722.93
509.38	48626.97
509.55	48690.16
509.73	48861.02
509.90	49106.78
510.08	48762.72
510.25	48858.68
510.42	48933.58
510.60	49394.67
510.77	49572.55
510.95	49448.50
511.12	49399.35
511.30	49495.31
511.47	49504.67
511.64	50263.00
511.82	50192.79
511.99	50422.16
512.17	50286.41
512.34	50340.24
512.51	50518.12
512.69	50396.42
512.86	50735.79
513.04	50815.37
513.21	50923.04
513.38	51215.60
513.56	50871.54
513.73	50806.01
513.90	51105.60
514.08	51194.54
514.25	51201.56
514.43	51636.90
514.60	51437.95
514.77	51365.40
514.95	52039.47
515.12	51662.64
515.29	51641.58
515.47	51735.20
515.64	52287.57
515.81	52076.92
515.99	52364.81
516.16	52659.71
516.33	52322.68
516.51	52554.39
516.68	52341.40
516.85	52526.30
517.03	52505.24
517.20	52512.26
517.37	52807.17
517.54	52914.83
517.72	52853.98
517.89	52989.73
518.06	52931.22
518.24	52935.90
518.41	53008.45
518.58	53366.55
518.75	53516.35
518.93	53724.66
519.10	53343.15
519.27	53680.19
519.45	53647.42
519.62	53401.66
519.79	53427.41
519.96	53734.02
520.14	54117.87
520.31	54099.14
520.48	54335.54
520.65	54087.44
520.83	54206.81
521.00	54309.79
521.17	54115.53
521.34	54075.74
521.52	54150.63
521.69	54459.58
521.86	54674.91
522.03	54663.21
522.20	54766.20
522.38	54906.63
522.55	54632.78
522.72	54653.85
522.89	54878.54
523.07	55047.06
523.24	55243.66
523.41	55374.73
523.58	55040.04
523.75	55311.54
523.92	55065.78
524.10	55157.06
524.27	55512.83
524.44	55679.00
524.61	55707.09
524.78	55779.65
524.96	55889.65
525.13	55866.25
525.30	55847.52
525.47	55753.90
525.64	55728.16
525.81	55824.12
525.98	56025.40
526.16	56191.58
526.33	55985.61
526.50	56362.44
526.67	56079.24
526.84	56121.37
527.01	56207.97
527.18	56397.55
527.36	56456.06
527.53	56292.22
527.70	56699.48
527.87	56760.33
528.04	56523.94
528.21	56699.48
528.38	56657.35
528.55	56603.52
528.72	56554.36
528.89	56882.04
529.07	56994.39
529.24	56933.53
529.41	56809.48
529.58	56788.42
529.75	56720.54
529.92	56938.21
530.09	57064.60
530.26	57038.86
530.43	56968.64
530.60	57289.29
530.77	57020.13
530.94	57249.50
531.11	57036.51
531.28	57111.41
531.46	57282.27
531.63	57411.00
531.80	57619.31
531.97	57738.68
532.14	57710.59
532.31	57616.97
532.48	57832.30
532.65	57757.40
532.82	57705.91
532.99	57675.48
533.16	57649.74
533.33	58115.50
533.50	58436.16
533.67	58117.84
533.84	57839.32
534.01	57989.11
534.18	57853.36
534.35	58007.84
534.52	57888.47
534.69	58372.96
534.86	58309.77
535.03	58365.94
535.20	58181.04
535.37	58389.34
535.54	58375.30
535.71	58260.62
535.88	58452.54
536.05	58340.19
536.22	58717.02
536.38	58749.79
536.55	58855.11
536.72	58777.87
536.89	58482.97
537.06	58719.36
537.23	58695.95
537.40	58475.94
537.57	58798.94
537.74	58817.66
537.91	58815.32
538.08	59014.27
538.25	58644.46
538.42	58892.56
538.59	59152.36
538.75	58827.02
538.92	59000.22
539.09	59128.95
539.26	59030.65
539.43	59271.73
539.60	59283.43
539.77	59189.81
539.94	59625.15
540.11	59044.69
540.28	59220.23
540.44	59346.62
540.61	59465.99
540.78	59234.28
540.95	59545.57
541.12	59416.84
541.29	59749.20
541.46	59826.43
541.62	59606.42
541.79	59611.10
541.96	59379.39
542.13	59435.56
542.30	59793.67
542.47	59847.50
542.63	59957.50
542.80	60027.72
542.97	60158.79
543.14	60121.34
543.31	59966.87
543.48	60048.78
543.64	60397.52
543.81	60339.01
543.98	60214.96
544.15	60378.80
544.32	60364.76
544.48	60409.23
544.65	60439.65
544.82	60331.99
544.99	60004.31
545.16	60339.01
545.32	60486.46
545.49	60811.80
545.66	60891.38
545.83	60970.96
546.00	61102.03
546.16	60783.71
546.33	60505.19
546.50	60280.50
546.67	60584.77
546.83	60528.59
547.00	60729.88
547.17	60690.09
547.34	60811.80
547.50	60804.78
547.67	60896.06
547.84	60809.46
548.00	60961.59
548.17	60821.16
548.34	60989.68
548.51	61092.66
548.67	61041.17
548.84	61125.43
549.01	60867.97
549.18	61179.26
549.34	61123.09
549.51	60987.34
549.68	60970.96
549.84	60903.08
550.01	61116.07
550.18	60996.70
550.34	61322.04
550.51	61366.51
550.68	61371.19
550.84	61212.03
551.01	61410.98
551.18	61106.71
551.34	61160.54
551.51	61233.10
551.68	61317.35
551.84	61446.08
552.01	61389.91
552.18	61443.74
552.34	61425.02
552.51	61528.00
552.68	61453.11
552.84	61408.64
553.01	61584.18
553.18	61584.18
553.34	61792.48
553.51	61553.75
553.67	61504.60
553.84	61876.74
554.01	61815.89
554.17	61843.98
554.34	61895.47
554.51	61675.46
554.67	61851.00
554.84	61818.23
555.00	61762.06
555.17	61848.66
555.33	61813.55
555.50	61748.01
555.67	61804.19
555.83	61996.11
556.00	61762.06
556.16	61907.17
556.33	61996.11
556.50	61993.77
556.66	62061.64
556.83	61953.98
556.99	62124.84
557.16	62276.97
557.32	62141.22
557.49	62171.65
557.65	61827.59
557.82	62110.80
557.98	62024.20
558.15	62131.86
558.32	62267.61
558.48	62286.34
558.65	62457.20
558.81	62103.77
558.98	62295.70
559.14	62056.96
559.31	62068.67
559.47	62192.72
559.64	62251.23
559.80	62398.68
559.97	62499.33
560.13	62384.64
560.30	62363.57
560.46	62429.11
560.63	62543.80
560.79	62550.82
560.96	62625.71
561.12	62501.67
561.29	62452.51
561.45	62480.60
561.61	62609.33
561.78	62658.48
561.94	62836.36
562.11	62808.28
562.27	62504.01
562.44	62679.55
562.60	62515.71
562.77	62801.25
562.93	62606.99
563.10	62717.00
563.26	62429.11
563.42	62719.34
563.59	62894.88
563.75	62756.78
563.92	62829.34
564.08	62457.20
564.24	62649.12
564.41	62592.95
564.57	62756.78
564.74	62812.96
564.90	62873.81
565.07	62869.13
565.23	62777.85
565.39	62883.17
565.56	62922.96
565.72	62887.85
565.88	62817.64
566.05	62770.83
566.21	62733.38
566.38	62901.90
566.54	62763.81
566.70	63103.18
566.87	63058.71
567.03	62958.07
567.19	63178.08
567.36	63016.58
567.52	62869.13
567.68	62848.06
567.85	62815.30
568.01	62922.96
568.17	62904.24
568.34	63168.72
568.50	62962.75
568.66	63166.38
568.83	63297.45
568.99	63093.82
569.15	63025.95
569.32	63063.39
569.48	62939.35
569.64	63035.31
569.81	63133.61
569.97	62951.05
570.13	63107.86
570.30	63032.97
570.46	63449.58
570.62	63089.14
570.78	63149.99
570.95	62932.32
571.11	63086.80
571.27	63056.37
571.43	63009.56
571.60	63187.44
571.76	63201.49
571.92	63194.46
572.09	63346.60
572.25	63178.08
572.41	63185.10
572.57	63325.53
572.74	63400.43
572.90	63215.53
573.06	63112.55
573.22	63021.26
573.38	63175.74
573.55	63243.62
573.71	63437.88
573.87	63435.54
574.03	63351.28
574.20	63449.58
574.36	63161.70
574.52	63192.12
574.68	63175.74
574.84	63260.00
575.01	63360.64
575.17	63391.07
575.33	63302.13
575.49	63121.91
575.65	63545.54
575.82	63620.44
575.98	63327.87
576.14	63405.11
576.30	63384.05
576.46	63283.40
576.62	63316.17
576.79	63344.26
576.95	63227.23
577.11	63260.00
577.27	63550.23
577.43	63547.89
577.59	63482.35
577.75	63430.86
577.92	63313.83
578.08	63372.34
578.24	63316.17
578.40	63292.77
578.56	63519.80
578.72	63599.38
578.88	63587.67
579.04	63615.76
579.21	63667.25
579.37	63538.52
579.53	63515.12
579.69	63370.00
579.85	63423.84
580.01	63454.26
580.17	63346.60
580.33	63358.30
580.49	63568.95
580.65	63468.31
580.82	63496.39
580.98	63634.48
581.14	63545.54
581.30	63697.68
581.46	63398.09
581.62	63407.45
581.78	63365.32
581.94	63641.51
582.10	63477.67
582.26	63604.06
582.42	63676.61
582.58	63707.04
582.74	63568.95
582.90	63814.71
583.06	63594.70
583.22	63627.46
583.38	63515.12
583.54	63639.17
583.70	63550.23
583.86	63501.07
584.02	63252.98
584.18	63664.91
584.34	63629.80
584.50	63898.97
584.66	63725.77
584.82	63533.84
584.98	63716.40
585.14	63559.59
585.30	63430.86
585.46	63311.49
585.62	63552.57
585.78	63655.55
585.94	63578.31
586.10	63653.21
586.26	63575.97
586.42	63838.11
586.58	63648.53
586.74	63678.96
586.90	63760.87
587.06	63498.73
587.22	63746.83
587.38	63505.76
587.54	63847.47
587.70	63702.36
587.86	63810.03
588.02	63959.82
588.18	63882.58
588.34	63678.96
588.49	63730.45
588.65	63770.24
