SpectraSuite Data File
++++++++++++++++++++++++++++++++++++
Date: Fri Oct 04 11:39:53 GMT-05:00 2013
User: price-jones
Dark Spectrum Present: No
Reference Spectrum Present: No
Number of Sampled Component Spectra: 1
Spectrometers: USB2+H05261
Integration Time (usec): 100000 (USB2+H05261)
Spectra Averaged: 1 (USB2+H05261)
Boxcar Smoothing: 0 (USB2+H05261)
Correct for Electrical Dark: No (USB2+H05261)
Strobe/Lamp Enabled: No (USB2+H05261)
Correct for Detector Non-linearity: No (USB2+H05261)
Correct for Stray Light: No (USB2+H05261)
Number of Pixels in Processed Spectrum: 2048
>>>>>Begin Processed Spectral Data<<<<<
365.73	58.51
365.92	58.51
366.12	58.51
366.32	0.00
366.52	0.00
366.72	0.00
366.91	0.00
367.11	0.00
367.31	30.43
367.51	0.00
367.70	0.00
367.90	42.13
368.10	0.00
368.30	0.00
368.49	0.00
368.69	9.36
368.89	0.00
369.09	0.00
369.28	0.00
369.48	0.00
369.68	0.00
369.87	35.11
370.07	11.70
370.27	74.90
370.47	79.58
370.66	145.11
370.86	180.22
371.06	187.24
371.25	234.05
371.45	154.48
371.65	229.37
371.84	173.20
372.04	156.82
372.24	191.92
372.44	210.65
372.63	163.84
372.83	262.14
373.03	152.13
373.22	196.60
373.42	212.99
373.62	227.03
373.81	294.91
374.01	325.33
374.21	280.86
374.40	257.46
374.60	306.61
374.79	304.27
374.99	266.82
375.19	330.02
375.38	322.99
375.58	301.93
375.78	245.76
375.97	224.69
376.17	344.06
376.37	198.95
376.56	280.86
376.76	304.27
376.95	248.10
377.15	325.33
377.35	266.82
377.54	245.76
377.74	255.12
377.93	231.71
378.13	222.35
378.33	297.25
378.52	227.03
378.72	273.84
378.91	344.06
379.11	234.05
379.31	266.82
379.50	337.04
379.70	297.25
379.89	332.36
380.09	283.20
380.28	299.59
380.48	297.25
380.68	290.23
380.87	332.36
381.07	341.72
381.26	264.48
381.46	339.38
381.65	337.04
381.85	252.78
382.04	297.25
382.24	294.91
382.43	264.48
382.63	262.14
382.83	222.35
383.02	311.29
383.22	358.10
383.41	287.89
383.61	339.38
383.80	337.04
384.00	327.68
384.19	322.99
384.39	344.06
384.58	318.31
384.78	433.00
384.97	346.40
385.17	320.65
385.36	301.93
385.56	287.89
385.75	386.19
385.95	341.72
386.14	411.93
386.34	313.63
386.53	353.42
386.72	390.87
386.92	367.46
387.11	355.76
387.31	409.59
387.50	325.33
387.70	334.70
387.89	404.91
388.09	379.17
388.28	393.21
388.48	442.36
388.67	449.38
388.86	393.21
389.06	376.83
389.25	360.44
389.45	327.68
389.64	442.36
389.84	397.89
390.03	454.06
390.22	362.78
390.42	393.21
390.61	355.76
390.81	418.96
391.00	428.32
391.19	454.06
391.39	416.62
391.58	454.06
391.78	430.66
391.97	409.59
392.16	449.38
392.36	477.47
392.55	444.70
392.75	489.17
392.94	451.72
393.13	472.79
393.33	540.66
393.52	489.17
393.71	524.28
393.91	498.53
394.10	421.30
394.29	472.79
394.49	505.56
394.68	472.79
394.88	489.17
395.07	566.41
395.26	533.64
395.46	510.24
395.65	500.87
395.84	470.45
396.04	559.39
396.23	543.00
396.42	484.49
396.62	547.69
396.81	533.64
397.00	538.32
397.19	613.22
397.39	543.00
397.58	535.98
397.77	571.09
397.97	528.96
398.16	550.03
398.35	636.63
398.55	543.00
398.74	552.37
398.93	571.09
399.12	669.39
399.32	564.07
399.51	657.69
399.70	695.14
399.90	697.48
400.09	667.05
400.28	732.59
400.47	620.24
400.67	603.86
400.86	706.84
401.05	653.01
401.24	648.33
401.44	660.03
401.63	699.82
401.82	727.91
402.01	730.25
402.21	779.40
402.40	748.97
402.59	709.18
402.78	723.23
402.97	753.65
403.17	795.78
403.36	704.50
403.55	807.48
403.74	795.78
403.93	849.61
404.13	814.51
404.32	898.77
404.51	823.87
404.70	847.27
404.89	903.45
405.09	901.11
405.28	821.53
405.47	870.68
405.66	875.36
405.85	861.32
406.05	959.62
406.24	819.19
406.43	901.11
406.62	968.98
406.81	912.81
407.00	938.55
407.20	933.87
407.39	924.51
407.58	1055.58
407.77	1034.52
407.96	976.00
408.15	1025.15
408.34	1001.75
408.54	1069.62
408.73	1041.54
408.92	1146.86
409.11	1090.69
409.30	1053.24
409.49	1128.14
409.68	1163.25
409.87	1071.97
410.07	1146.86
410.26	1158.57
410.45	1177.29
410.64	1139.84
410.83	1163.25
411.02	1317.72
411.21	1282.61
411.40	1188.99
411.59	1252.19
411.78	1336.45
411.98	1254.53
412.17	1308.36
412.36	1291.98
412.55	1313.04
412.74	1467.52
412.93	1338.79
413.12	1334.11
413.31	1462.83
413.50	1427.73
413.69	1455.81
413.88	1486.24
414.07	1519.01
414.26	1547.09
414.45	1514.33
414.64	1483.90
414.83	1593.90
415.02	1619.65
415.22	1650.08
415.41	1631.35
415.60	1544.75
415.79	1666.46
415.98	1795.19
416.17	1636.03
416.36	1610.29
416.55	1638.38
416.74	1694.55
416.93	1806.89
417.12	1727.32
417.31	1813.92
417.50	1776.47
417.69	1877.11
417.88	1769.44
418.07	1839.66
418.26	1867.75
418.45	1804.55
418.64	1797.53
418.83	1898.17
419.02	1870.09
419.21	1949.67
419.39	1919.24
419.58	1928.60
419.77	1980.09
419.96	1923.92
420.15	2022.22
420.34	1980.09
420.53	2050.31
420.72	1991.80
420.91	1991.80
421.10	2155.63
421.29	2097.12
421.48	1963.71
421.67	2024.56
421.86	2059.67
422.05	2062.01
422.24	2143.93
422.43	2036.27
422.61	2111.16
422.80	2057.33
422.99	2298.41
423.18	1975.41
423.37	2239.89
423.56	2146.27
423.75	2071.37
423.94	2249.25
424.13	2024.56
424.32	2146.27
424.50	2193.08
424.69	2195.42
424.88	2282.02
425.07	2134.57
425.26	2141.59
425.45	2148.61
425.64	2216.49
425.83	2232.87
426.01	2389.69
426.20	2246.91
426.39	2197.76
426.58	2207.13
426.77	2216.49
426.96	2275.00
427.15	2380.32
427.33	2300.75
427.52	2270.32
427.71	2237.55
427.90	2312.45
428.09	2373.30
428.28	2370.96
428.46	2223.51
428.65	2375.64
428.84	2410.75
429.03	2541.82
429.22	2296.07
429.40	2448.20
429.59	2480.97
429.78	2487.99
429.97	2417.77
430.16	2480.97
430.34	2476.29
430.53	2523.10
430.72	2504.37
430.91	2473.95
431.10	2382.67
431.28	2619.06
431.47	2693.96
431.66	2675.23
431.85	2548.84
432.03	2581.61
432.22	2682.25
432.41	2672.89
432.60	2499.69
432.79	2654.17
432.97	2843.75
433.16	2738.43
433.35	2644.81
433.54	2712.68
433.72	2675.23
433.91	2635.44
434.10	2747.79
434.28	2794.60
434.47	2885.88
434.66	2792.26
434.85	2874.18
435.03	2855.45
435.22	3019.29
435.41	3262.71
435.59	3255.69
435.78	3126.96
435.97	2874.18
436.16	2965.46
436.34	2853.11
436.53	2888.22
436.72	2923.33
436.90	2991.20
437.09	2895.24
437.28	2829.71
437.46	2946.73
437.65	2970.14
437.84	2956.10
438.02	2974.82
438.21	3105.89
438.40	2944.39
438.58	3122.27
438.77	2986.52
438.96	3183.13
439.14	3150.36
439.33	3171.43
439.52	3316.54
439.70	3180.79
439.89	3274.41
440.08	3251.00
440.26	3356.33
440.45	3424.20
440.63	3300.16
440.82	3302.50
441.01	3368.03
441.19	3358.67
441.38	3492.08
441.57	3499.10
441.75	3559.95
441.94	3510.80
442.12	3620.81
442.31	3698.05
442.50	3529.53
442.68	3566.98
442.87	3489.74
443.05	3637.19
443.24	3698.05
443.43	3667.62
443.61	3686.34
443.80	3761.24
443.98	3709.75
444.17	3688.68
444.35	3728.47
444.54	3712.09
444.73	3716.77
444.91	3794.01
445.10	3744.86
445.28	3742.52
445.47	3620.81
445.65	3782.31
445.84	3763.58
446.02	3754.22
446.21	3735.50
446.39	3822.09
446.58	3831.46
446.77	3864.22
446.95	3684.00
447.14	3775.28
447.32	3904.01
447.51	3693.37
447.69	3866.56
447.88	3794.01
448.06	3728.47
448.25	3833.80
448.43	3815.07
448.62	3815.07
448.80	3786.99
448.99	3817.41
449.17	3791.67
449.36	3864.22
449.54	4117.00
449.73	3957.85
449.91	4009.34
450.10	4133.39
450.28	4222.33
450.46	4184.88
450.65	4060.83
450.83	4081.89
451.02	4028.06
451.20	4079.55
451.39	4119.34
451.57	4088.92
451.76	4159.13
451.94	3988.27
452.13	4236.37
452.31	4241.05
452.49	4255.09
452.68	4163.81
452.86	4269.14
453.05	4243.39
453.23	4252.75
453.42	4170.83
453.60	4269.14
453.78	4224.67
453.97	4255.09
454.15	4360.42
454.34	4224.67
454.52	4421.27
454.70	4351.06
454.89	4409.57
455.07	4353.40
455.26	4472.76
455.44	4411.91
455.62	4325.31
455.81	4404.89
455.99	4507.87
456.17	4512.55
456.36	4514.89
456.54	4601.49
456.73	4645.96
456.91	4741.93
457.09	4587.45
457.28	4770.01
457.46	4503.19
457.64	4699.80
457.83	4753.63
458.01	4683.41
458.19	4660.01
458.38	4638.94
458.56	4812.14
458.74	4868.31
458.93	4561.70
459.11	4732.56
459.29	4931.51
459.48	4985.34
459.66	4865.97
459.84	4828.53
460.03	5107.05
460.21	4791.08
460.39	4856.61
460.57	4980.66
460.76	5050.88
460.94	5128.11
461.12	4926.83
461.31	5107.05
461.49	4952.57
461.67	5018.11
461.85	5013.43
462.04	4973.64
462.22	5458.13
462.40	5111.73
462.59	5121.09
462.77	5118.75
462.95	5280.25
463.13	5170.24
463.32	5214.71
463.50	5238.12
463.68	5226.42
463.86	5352.81
464.05	5116.41
464.23	5191.31
464.41	5291.95
464.59	5399.62
464.78	5376.21
464.96	5280.25
465.14	5284.93
465.32	5287.27
465.50	5385.57
465.69	5493.24
465.87	5446.43
466.05	5481.53
466.23	5331.74
466.41	5504.94
466.60	5486.22
466.78	5394.93
466.96	5668.78
467.14	5383.23
467.32	5547.07
467.51	5530.69
467.69	5687.50
467.87	5621.97
468.05	5612.60
468.23	5479.19
468.41	5516.64
468.60	5724.95
468.78	5713.25
468.96	5593.88
469.14	5788.14
469.32	5738.99
469.50	5666.44
469.69	5820.91
469.87	5743.67
470.05	5839.64
470.23	5909.85
470.41	5846.66
470.59	5980.07
470.77	5818.57
470.95	6029.22
471.14	6008.16
471.32	5951.98
471.50	6059.65
471.68	6143.91
471.86	6153.27
472.04	6239.87
472.22	6118.16
472.40	6106.46
472.58	6251.57
472.77	6101.78
472.95	6263.27
473.13	6497.33
473.31	6214.12
473.49	6321.79
473.67	6317.11
473.85	6478.60
474.03	6497.33
474.21	6403.71
474.39	6583.93
474.57	6665.85
474.75	6544.14
474.93	6773.51
475.12	6581.59
475.30	6874.15
475.48	6682.23
475.66	6661.16
475.84	6853.09
476.02	6869.47
476.20	6761.81
476.38	6965.43
476.56	7007.56
476.74	7243.96
476.92	6960.75
477.10	7178.42
477.28	7225.23
477.46	7204.17
477.64	7403.11
477.82	7550.57
478.00	7674.62
478.18	7529.50
478.36	7609.08
478.54	7576.31
478.72	7583.34
478.90	7627.81
479.08	7817.39
479.26	7789.30
479.44	7786.96
479.62	7957.82
479.80	7871.22
479.98	8011.65
480.16	8049.10
480.34	8280.82
480.52	8140.38
480.70	8306.56
480.88	8285.50
481.06	8374.44
481.24	8287.84
481.41	8552.32
481.59	8622.53
481.77	8608.49
481.95	8613.17
482.13	8697.43
482.31	8786.37
482.49	8828.50
482.67	8800.41
482.85	8912.76
483.03	9050.85
483.21	9069.58
483.39	9266.18
483.57	9310.65
483.74	9366.82
483.92	9575.13
484.10	9364.48
484.28	9589.17
484.46	9738.97
484.64	9888.76
484.82	9549.39
485.00	9713.22
485.18	10068.98
485.35	9928.55
485.53	10197.71
485.71	10300.70
485.89	10459.85
486.07	10122.82
486.25	10298.36
486.43	10387.30
486.61	10501.98
486.78	10810.93
486.96	10672.84
487.14	10960.73
487.32	11019.24
487.50	10883.49
487.68	10885.83
487.85	11087.12
488.03	11431.18
488.21	11513.10
488.39	11442.88
488.57	11573.95
488.75	11634.80
488.92	11777.58
489.10	11829.07
489.28	11838.43
489.46	11997.59
489.64	11843.11
489.81	12311.22
489.99	12400.16
490.17	12409.52
490.35	12617.83
490.53	12610.81
490.70	12451.65
490.88	12683.36
491.06	12571.02
491.24	12657.62
491.41	12938.48
491.59	12996.99
491.77	12999.34
491.95	13156.15
492.13	13111.68
492.30	13177.22
492.48	13205.30
492.66	13128.06
492.84	13200.62
493.01	13540.00
493.19	13881.72
493.37	13687.45
493.54	13731.92
493.72	13724.90
493.90	13977.68
494.08	14155.56
494.25	14022.15
494.43	14277.27
494.61	14293.65
494.79	14413.02
494.96	14384.93
495.14	14429.40
495.32	14684.52
495.49	14731.33
495.67	14633.03
495.85	14920.92
496.02	14839.00
496.20	15087.09
496.38	14927.94
496.55	15073.05
496.73	15215.82
496.91	15103.48
497.09	15431.15
497.26	15552.86
497.44	15585.63
497.62	15559.88
497.79	15786.91
497.97	15882.88
498.14	16203.53
498.32	15901.60
498.50	15726.06
498.67	16091.18
498.85	16278.43
499.03	16210.55
499.20	16264.38
499.38	16112.25
499.56	16379.07
499.73	16449.28
499.91	16301.83
500.08	16697.38
500.26	16374.39
500.44	16933.78
500.61	16861.22
500.79	16573.33
500.97	16570.99
501.14	17137.40
501.32	17076.55
501.49	17104.64
501.67	17209.96
501.84	16987.61
502.02	16996.97
502.20	17547.00
502.37	17387.84
502.55	17649.98
502.72	17266.13
502.90	17469.76
503.07	17495.50
503.25	17607.85
503.43	17551.68
503.60	17963.61
503.78	17767.01
503.95	17514.23
504.13	17886.37
504.30	18167.24
504.48	18012.76
504.65	18118.09
504.83	18136.81
505.01	18565.13
505.18	18298.31
505.36	18387.25
505.53	18050.21
505.71	18249.16
505.88	18717.26
506.06	18494.91
506.23	18733.65
506.41	18614.28
506.58	18670.45
506.76	19019.19
506.93	18803.86
507.11	18902.17
507.28	18792.16
507.46	19098.77
507.63	19124.52
507.81	19023.87
507.98	19110.47
508.16	19288.35
508.33	19197.07
508.50	19508.37
508.68	19227.50
508.85	19625.39
509.03	19697.95
509.20	19639.44
509.38	19946.05
509.55	19789.23
509.73	19955.41
509.90	20077.12
510.08	19995.20
510.25	20030.30
510.42	19826.68
510.60	20201.16
510.77	20357.98
510.95	20308.83
511.12	20044.35
511.30	20423.51
511.47	20732.47
511.64	20540.54
511.82	20601.40
511.99	20608.42
512.17	20638.84
512.34	20638.84
512.51	20952.48
512.69	20617.78
512.86	20875.24
513.04	21083.55
513.21	20982.90
513.38	21137.38
513.56	21046.10
513.73	21029.71
513.90	21144.40
514.08	20957.16
514.25	21366.75
514.43	21507.18
514.60	21645.27
514.77	21212.28
514.95	21799.75
515.12	21666.34
515.29	21338.66
515.47	21692.08
515.64	21930.82
515.81	21792.73
515.99	22024.44
516.16	22249.13
516.33	21986.99
516.51	21968.27
516.68	22209.34
516.85	21951.88
517.03	22532.34
517.20	22377.86
517.37	22223.39
517.54	22546.38
517.72	22328.71
517.89	22679.79
518.06	22410.63
518.24	22490.21
518.41	22356.80
518.58	22630.64
518.75	22714.90
518.93	23145.56
519.10	22946.61
519.27	23157.26
519.45	22590.85
519.62	22672.77
519.79	22670.43
519.96	22871.72
520.14	23124.49
520.31	22913.84
520.48	23178.33
520.65	23360.89
520.83	23466.21
521.00	23192.37
521.17	23431.10
521.34	23225.14
521.52	23482.59
521.69	23534.09
521.86	23747.08
522.03	23700.26
522.20	23711.97
522.38	23786.86
522.55	23531.75
522.72	23775.16
522.89	24065.39
523.07	24229.23
523.24	23723.67
523.41	24290.08
523.58	23578.56
523.75	24105.18
523.92	24098.16
524.10	24231.57
524.27	24362.64
524.44	24065.39
524.61	24666.91
524.78	24648.18
524.96	24472.64
525.13	24383.70
525.30	24592.01
525.47	24826.06
525.64	24624.78
525.81	25041.39
525.98	24837.76
526.16	24931.39
526.33	24699.67
526.50	24767.55
526.67	24957.13
526.84	25074.16
527.01	25017.99
527.18	25233.32
527.36	25170.12
527.53	25261.40
527.70	25181.82
527.87	25699.08
528.04	25280.13
528.21	25537.59
528.38	25364.39
528.55	25724.83
528.72	25219.27
528.89	25586.74
529.07	25401.83
529.24	25617.16
529.41	25593.76
529.58	25486.09
529.75	25448.64
529.92	25832.49
530.09	25766.96
530.26	25610.14
530.43	26108.68
530.60	25867.60
530.77	25752.91
530.94	26228.04
531.11	25771.64
531.28	25935.48
531.46	25799.73
531.63	26150.81
531.80	26031.44
531.97	26361.45
532.14	26532.31
532.31	25937.82
532.48	26267.83
532.65	26101.65
532.82	26462.10
532.99	26340.39
533.16	26253.79
533.33	26588.49
533.50	26691.47
533.67	26747.64
533.84	26263.15
534.01	26696.15
534.18	26728.92
534.35	26775.73
534.52	26700.83
534.69	26686.79
534.86	26710.19
535.03	27058.93
535.20	27072.98
535.37	27129.15
535.54	26934.88
535.71	26913.82
535.88	27157.24
536.05	27089.36
536.22	27288.31
536.38	27522.36
536.55	27028.51
536.72	27653.43
536.89	27173.62
537.06	27332.78
537.23	27461.51
537.40	27475.55
537.57	27505.98
537.74	27431.08
537.91	27672.15
538.08	27676.83
538.25	27667.47
538.42	27796.20
538.59	27496.61
538.75	27683.86
538.92	27192.34
539.09	27922.59
539.26	28135.58
539.43	27943.66
539.60	28390.70
539.77	28229.20
539.94	28280.69
540.11	28037.28
540.28	28257.29
540.44	28154.30
540.61	28498.36
540.78	27978.76
540.95	28219.84
541.12	28489.00
541.29	28439.85
541.46	28863.49
541.62	28449.21
541.79	28765.18
541.96	28353.25
542.13	28428.15
542.30	28425.81
542.47	28842.42
542.63	29020.30
542.80	28821.36
542.97	29310.53
543.14	29027.32
543.31	28823.70
543.48	28854.12
543.64	29116.26
543.81	29591.39
543.98	29387.77
544.15	29359.68
544.32	29645.23
544.48	29427.56
544.65	29280.10
544.82	29397.13
544.99	29032.00
545.16	29539.90
545.32	29317.55
545.49	30026.73
545.66	30387.18
545.83	30728.89
546.00	30321.64
546.16	29830.13
546.33	29614.80
546.50	29631.18
546.67	29551.60
546.83	29205.20
547.00	29415.85
547.17	29439.26
547.34	29413.51
547.50	29837.15
547.67	30110.99
547.84	29535.22
548.00	29860.55
548.17	29706.08
548.34	29762.25
548.51	29706.08
548.67	29975.24
548.84	30026.73
549.01	29902.68
549.18	30321.64
549.34	30073.54
549.51	30235.04
549.68	30118.01
549.84	29919.07
550.01	30251.42
550.18	29902.68
550.34	30038.44
550.51	29951.84
550.68	30085.25
550.84	29682.67
551.01	29839.49
551.18	30092.27
551.34	29986.94
551.51	30000.99
551.68	30532.29
551.84	30160.14
552.01	30256.11
552.18	30445.69
552.34	30298.23
552.51	30441.01
552.68	29991.62
552.84	30246.74
553.01	30871.67
553.18	30689.10
553.34	30595.48
553.51	29736.51
553.67	30661.02
553.84	30780.39
554.01	30700.81
554.17	30295.89
554.34	30384.83
554.51	30356.75
554.67	30412.92
554.84	30766.34
555.00	30644.63
555.17	30506.54
555.33	30682.08
555.50	30831.88
555.67	30766.34
555.83	30841.24
556.00	31058.91
556.16	31236.79
556.33	30586.12
556.50	30955.93
556.66	31115.08
556.83	30939.54
556.99	30789.75
557.16	31215.72
557.32	31243.81
557.49	31218.07
557.65	30820.17
557.82	30494.84
557.98	30602.50
558.15	31049.55
558.32	30960.61
558.48	31079.97
558.65	31264.88
558.81	31445.10
558.98	31047.21
559.14	31386.58
559.31	31161.89
559.47	31175.94
559.64	31159.55
559.80	31527.02
559.97	31042.53
560.13	31070.61
560.30	31335.09
560.46	31522.34
560.63	31557.44
560.79	31318.71
560.96	31468.50
561.12	31147.85
561.29	31433.39
561.45	31288.28
561.61	31037.84
561.78	31206.36
561.94	31316.37
562.11	31571.49
562.27	31377.22
562.44	31299.98
562.60	31477.86
562.77	31536.38
562.93	31112.74
563.10	32123.85
563.26	31161.89
563.42	32252.58
563.59	31365.52
563.75	31833.63
563.92	31901.50
564.08	31859.37
564.24	31613.62
564.41	31365.52
564.57	31515.31
564.74	31686.17
564.90	32063.00
565.07	32018.53
565.23	31440.42
565.39	31723.62
565.56	31714.26
565.72	31644.04
565.88	31601.91
566.05	31232.11
566.21	31412.33
566.38	31674.47
566.54	31718.94
566.70	32135.56
566.87	32074.70
567.03	31620.64
567.19	32210.45
567.36	31557.44
567.52	32175.34
567.68	32158.96
567.85	31969.38
568.01	32088.74
568.17	31351.48
568.34	31868.73
568.50	32287.69
568.66	31814.90
568.83	32308.76
568.99	31955.33
569.15	32149.60
569.32	31669.79
569.48	31477.86
569.64	31728.30
569.81	32107.47
569.97	31758.73
570.13	32023.21
570.30	31709.58
570.46	32348.54
570.62	32013.85
570.78	32112.15
570.95	31644.04
571.11	32081.72
571.27	32037.25
571.43	31704.90
571.60	31679.15
571.76	32203.43
571.92	31899.16
572.09	32144.92
572.25	32484.30
572.41	32318.12
572.57	32055.98
572.74	32030.23
572.90	31981.08
573.06	32348.54
573.22	32142.58
573.38	31981.08
573.55	32336.84
573.71	32568.55
573.87	32353.23
574.03	31962.36
574.20	32568.55
574.36	32182.37
574.52	31929.59
574.68	32077.04
574.84	32074.70
575.01	32170.66
575.17	32547.49
575.33	32432.80
575.49	32247.90
575.65	32299.39
575.82	32299.39
575.98	32109.81
576.14	32701.96
576.30	32638.77
576.46	32238.54
576.62	32421.10
576.79	32481.95
576.95	32297.05
577.11	32491.32
577.27	32254.92
577.43	32210.45
577.59	32666.86
577.75	32402.38
577.92	31826.60
578.08	32161.30
578.24	32521.74
578.40	32538.13
578.56	32215.13
578.72	32456.21
578.88	32701.96
579.04	32769.84
579.21	32357.91
579.37	32507.70
579.53	32481.95
579.69	32336.84
579.85	32198.75
580.01	32563.87
580.17	32385.99
580.33	32723.03
580.49	32528.77
580.65	32610.68
580.82	32601.32
580.98	32496.00
581.14	32666.86
581.30	32938.36
581.46	32528.77
581.62	32385.99
581.78	32257.26
581.94	32664.52
582.10	32123.85
582.26	32818.99
582.42	32697.28
582.58	32814.31
582.74	32627.07
582.90	32849.42
583.06	32397.70
583.22	32517.06
583.38	32418.76
583.54	32355.57
583.70	32510.04
583.86	32432.80
584.02	32280.67
584.18	32671.54
584.34	32498.34
584.50	33268.37
584.66	32547.49
584.82	32809.63
584.98	32287.69
585.14	32519.40
585.30	32575.58
585.46	32671.54
585.62	32779.20
585.78	32760.48
585.94	32535.79
586.10	32758.14
586.26	32341.52
586.42	33043.68
586.58	32629.41
586.74	32877.51
586.90	32687.92
587.06	32353.23
587.22	32603.66
587.38	32364.93
587.54	32875.16
587.70	33156.03
587.86	32828.35
588.02	32870.48
588.18	32900.91
588.34	32912.61
588.49	32374.29
588.65	32889.21
588.81	32545.15
588.97	32687.92
589.13	32507.70
589.29	32769.84
589.45	32512.38
589.61	33240.29
589.77	32957.08
589.93	33097.52
590.08	33055.39
590.24	33015.60
590.40	33160.71
590.56	33034.32
590.72	32863.46
590.88	32701.96
591.04	33102.20
591.20	32650.47
591.35	32975.81
591.51	33385.40
591.67	32975.81
591.83	33170.07
