SpectraSuite Data File
++++++++++++++++++++++++++++++++++++
Date: Tue Oct 01 18:27:24 GMT-05:00 2013
User: stostad
Dark Spectrum Present: No
Reference Spectrum Present: No
Number of Sampled Component Spectra: 1
Spectrometers: USB2+H05261
Integration Time (usec): 100000 (USB2+H05261)
Spectra Averaged: 1 (USB2+H05261)
Boxcar Smoothing: 0 (USB2+H05261)
Correct for Electrical Dark: No (USB2+H05261)
Strobe/Lamp Enabled: No (USB2+H05261)
Correct for Detector Non-linearity: No (USB2+H05261)
Correct for Stray Light: No (USB2+H05261)
Number of Pixels in Processed Spectrum: 2048
>>>>>Begin Processed Spectral Data<<<<<
365.73	11.70
365.92	11.70
366.12	11.70
366.32	0.00
366.52	51.49
366.72	0.00
366.91	0.00
367.11	0.00
367.31	0.00
367.51	0.00
367.70	0.00
367.90	0.00
368.10	0.00
368.30	7.02
368.49	0.00
368.69	11.70
368.89	0.00
369.09	0.00
369.28	4.68
369.48	0.00
369.68	14.04
369.87	35.11
370.07	0.00
370.27	77.24
370.47	70.22
370.66	278.52
370.86	372.15
371.06	315.97
371.25	362.78
371.45	362.78
371.65	386.19
371.84	362.78
372.04	227.03
372.24	409.59
372.44	283.20
372.63	458.74
372.83	362.78
373.03	425.98
373.22	362.78
373.42	372.15
373.62	440.02
373.81	442.36
374.01	365.12
374.21	383.85
374.40	454.06
374.60	477.47
374.79	425.98
374.99	482.15
375.19	482.15
375.38	477.47
375.58	491.51
375.78	550.03
375.97	533.64
376.17	468.11
376.37	465.77
376.56	433.00
376.76	496.19
376.95	489.17
377.15	543.00
377.35	482.15
377.54	528.96
377.74	421.30
377.93	486.83
378.13	552.37
378.33	594.50
378.52	470.45
378.72	622.58
378.91	505.56
379.11	458.74
379.31	526.62
379.50	573.43
379.70	561.73
379.89	510.24
380.09	531.30
380.28	465.77
380.48	531.30
380.68	519.60
380.87	521.94
381.07	580.45
381.26	589.82
381.46	545.34
381.65	571.09
381.85	557.05
382.04	559.39
382.24	606.20
382.43	596.84
382.63	662.37
382.83	622.58
383.02	638.97
383.22	638.97
383.41	580.45
383.61	599.18
383.80	596.84
384.00	657.69
384.19	674.07
384.39	557.05
384.58	631.94
384.78	636.63
384.97	631.94
385.17	657.69
385.36	573.43
385.56	711.52
385.75	603.86
385.95	571.09
386.14	732.59
386.34	638.97
386.53	629.60
386.72	678.76
386.92	692.80
387.11	617.90
387.31	734.93
387.50	669.39
387.70	699.82
387.89	645.99
388.09	741.95
388.28	706.84
388.48	734.93
388.67	774.72
388.86	753.65
389.06	809.83
389.25	685.78
389.45	758.33
389.64	774.72
389.84	858.98
390.03	795.78
390.22	809.83
390.42	849.61
390.61	781.74
390.81	723.23
391.00	823.87
391.19	844.93
391.39	812.17
391.58	774.72
391.78	800.46
391.97	849.61
392.16	828.55
392.36	922.17
392.55	830.89
392.75	856.64
392.94	891.74
393.13	877.70
393.33	938.55
393.52	875.36
393.71	884.72
393.91	877.70
394.10	950.26
394.29	1025.15
394.49	830.89
394.68	922.17
394.88	880.04
395.07	968.98
395.26	1020.47
395.46	1025.15
395.65	957.28
395.84	950.26
396.04	1043.88
396.23	968.98
396.42	936.21
396.62	1097.71
396.81	999.41
397.00	1048.56
397.19	1104.73
397.39	1116.44
397.58	1142.18
397.77	1100.05
397.97	1053.24
398.16	1076.65
398.35	1118.78
398.55	1142.18
398.74	1233.46
398.93	1144.52
399.12	1149.20
399.32	1146.86
399.51	1198.35
399.70	1252.19
399.90	1200.69
400.09	1160.91
400.28	1226.44
400.47	1231.12
400.67	1289.64
400.86	1200.69
401.05	1343.47
401.24	1322.40
401.44	1299.00
401.63	1296.66
401.82	1254.53
402.01	1266.23
402.21	1362.19
402.40	1345.81
402.59	1401.98
402.78	1481.56
402.97	1476.88
403.17	1401.98
403.36	1441.77
403.55	1420.71
403.74	1427.73
403.93	1530.71
404.13	1458.15
404.32	1530.71
404.51	1568.16
404.70	1540.07
404.89	1572.84
405.09	1629.01
405.28	1521.35
405.47	1551.78
405.66	1699.23
405.85	1713.27
406.05	1757.74
406.24	1687.53
406.43	1650.08
406.62	1694.55
406.81	1729.66
407.00	1710.93
407.20	1755.40
407.39	1802.21
407.58	1685.19
407.77	1774.13
407.96	1900.52
408.15	1907.54
408.34	1827.96
408.54	1879.45
408.73	1842.00
408.92	1898.17
409.11	2031.58
409.30	1947.33
409.49	2022.22
409.68	1973.07
409.87	2015.20
410.07	2059.67
410.26	1996.48
410.45	2083.08
410.64	2052.65
410.83	2036.27
411.02	2036.27
411.21	2277.34
411.40	2230.53
411.59	2202.44
411.78	2134.57
411.98	2134.57
412.17	2216.49
412.36	2282.02
412.55	2347.56
412.74	2427.14
412.93	2359.26
413.12	2272.66
413.31	2530.12
413.50	2410.75
413.69	2565.23
413.88	2546.50
414.07	2509.05
414.26	2635.44
414.45	2607.36
414.64	2597.99
414.83	2670.55
415.02	2686.94
415.22	2764.17
415.41	2801.62
415.60	2726.72
415.79	2761.83
415.98	2813.32
416.17	2759.49
416.36	2715.02
416.55	2928.01
416.74	2778.22
416.93	2881.20
417.12	3038.02
417.31	3049.72
417.50	3014.61
417.69	3197.17
417.88	2998.23
418.07	3023.97
418.26	3070.78
418.45	3131.64
418.64	3208.87
418.83	3185.47
419.02	3115.25
419.21	3143.34
419.39	3295.47
419.58	3178.45
419.77	3274.41
419.96	3246.32
420.15	3365.69
420.34	3279.09
420.53	3192.49
420.72	3426.54
420.91	3272.07
421.10	3431.23
421.29	3522.51
421.48	3356.33
421.67	3541.23
421.86	3297.81
422.05	3426.54
422.24	3384.41
422.43	3492.08
422.61	3445.27
422.80	3599.74
422.99	3555.27
423.18	3536.55
423.37	3541.23
423.56	3676.98
423.75	3555.27
423.94	3585.70
424.13	3424.20
424.32	3407.82
424.50	3574.00
424.69	3747.20
424.88	3625.49
425.07	3508.46
425.26	3571.66
425.45	3524.85
425.64	3555.27
425.83	3597.40
426.01	3669.96
426.20	3669.96
426.39	3669.96
426.58	3679.32
426.77	3709.75
426.96	3763.58
427.15	3714.43
427.33	3721.45
427.52	3709.75
427.71	3871.25
427.90	3889.97
428.09	3845.50
428.28	3976.57
428.46	3847.84
428.65	3932.10
428.84	3997.64
429.03	3948.48
429.22	3822.09
429.40	4065.51
429.59	3871.25
429.78	3833.80
429.97	3796.35
430.16	3859.54
430.34	4156.79
430.53	4145.09
430.72	4166.15
430.91	4100.62
431.10	4070.19
431.28	4124.02
431.47	4175.52
431.66	4142.75
431.85	4124.02
432.03	4184.88
432.22	4351.06
432.41	4074.87
432.60	4444.68
432.79	4332.33
432.97	4334.67
433.16	4353.40
433.35	4297.22
433.54	4447.02
433.72	4358.08
433.91	4325.31
434.10	4540.64
434.28	4528.94
434.47	4692.77
434.66	4589.79
434.85	4622.56
435.03	4435.32
435.22	4498.51
435.41	4849.59
435.59	4648.30
435.78	4660.01
435.97	4690.43
436.16	4847.25
436.34	4744.27
436.53	4823.84
436.72	4851.93
436.90	4805.12
437.09	4788.74
437.28	4709.16
437.46	4774.69
437.65	4889.38
437.84	4945.55
438.02	4943.21
438.21	4898.74
438.40	5057.90
438.58	5111.73
438.77	5177.26
438.96	5095.35
439.14	5057.90
439.33	5235.78
439.52	5270.89
439.70	5387.91
439.89	5287.27
440.08	5455.79
440.26	5404.30
440.45	5437.06
440.63	5397.28
440.82	5537.71
441.01	5511.96
441.19	5621.97
441.38	5734.31
441.57	5837.30
441.75	5746.02
441.94	5881.77
442.12	5912.19
442.31	5820.91
442.50	5860.70
442.68	5832.62
442.87	6017.52
443.05	5975.39
443.24	6181.35
443.43	6040.92
443.61	5959.00
443.80	6246.89
443.98	6090.07
444.17	5776.44
444.35	6104.12
444.54	6186.04
444.73	5998.79
444.91	6286.68
445.10	6265.61
445.28	6050.28
445.47	5996.45
445.65	6115.82
445.84	6092.41
446.02	6317.11
446.21	6162.63
446.39	6115.82
446.58	6127.52
446.77	6122.84
446.95	6019.86
447.14	6274.98
447.32	6176.67
447.51	6235.19
447.69	6204.76
447.88	6153.27
448.06	6420.09
448.25	6230.51
448.43	6408.39
448.62	6176.67
448.80	6321.79
448.99	6333.49
449.17	6492.65
449.36	6441.15
449.54	6464.56
449.73	6614.35
449.91	6558.18
450.10	6693.93
450.28	6836.70
450.46	6764.15
450.65	6796.92
450.83	6656.48
451.02	6635.42
451.20	6738.40
451.39	6743.08
451.57	6841.39
451.76	6803.94
451.94	6747.76
452.13	6860.11
452.31	6829.68
452.49	6841.39
452.68	6778.19
452.86	6876.49
453.05	6768.83
453.23	6897.56
453.42	6960.75
453.60	6876.49
453.78	6953.73
453.97	6920.96
454.15	7061.40
454.34	7059.06
454.52	7342.26
454.70	7166.72
454.89	7358.64
455.07	7321.20
455.26	7272.04
455.44	7194.81
455.62	7192.47
455.81	7199.49
455.99	7337.58
456.17	7176.08
456.36	7562.27
456.54	7534.18
456.73	7386.73
456.91	7590.36
457.09	7726.11
457.28	7733.13
457.46	7789.30
457.64	7798.66
457.83	7707.38
458.01	7588.02
458.19	7822.07
458.38	7705.04
458.56	7903.99
458.74	7826.75
458.93	7822.07
459.11	7878.24
459.29	7822.07
459.48	7969.52
459.66	7985.91
459.84	7901.65
460.03	8109.96
460.21	8128.68
460.39	7997.61
460.57	8238.69
460.76	8159.11
460.94	8301.88
461.12	8280.82
461.31	8322.94
461.49	8133.36
461.67	8386.14
461.85	8386.14
462.04	8322.94
462.22	8847.22
462.40	8386.14
462.59	8519.55
462.77	8334.65
462.95	8465.72
463.13	8524.23
463.32	8498.49
463.50	8533.59
463.68	8512.53
463.86	8468.06
464.05	8690.41
464.23	8592.11
464.41	8725.52
464.59	8599.13
464.78	8903.40
464.96	8805.10
465.14	8648.28
465.32	8882.33
465.50	8903.40
465.69	8823.82
465.87	8830.84
466.05	8805.10
466.23	8917.44
466.41	9060.21
466.60	9128.09
466.78	8779.35
466.96	9198.31
467.14	9167.88
467.32	8872.97
467.51	9224.05
467.69	8823.82
467.87	9125.75
468.05	9137.45
468.23	9394.91
468.41	9111.71
468.60	9181.92
468.78	9334.06
468.96	8978.30
469.14	9420.66
469.32	9350.44
469.50	9289.59
469.69	9748.33
469.87	9558.75
470.05	9500.23
470.23	9659.39
470.41	9778.76
470.59	9738.97
470.77	9879.40
470.95	9820.89
471.14	10108.77
471.32	9710.88
471.50	10003.45
471.68	9832.59
471.86	9949.62
472.04	10043.24
472.22	10200.05
472.40	10143.88
472.58	10157.92
472.77	10300.70
472.95	10317.08
473.13	10497.30
473.31	10492.62
473.49	10335.81
473.67	10289.00
473.85	10406.02
474.03	10855.40
474.21	10644.76
474.39	10820.30
474.57	10684.55
474.75	10916.26
474.93	11122.23
475.12	11056.69
475.30	10949.03
475.48	11082.44
475.66	11314.15
475.84	11290.74
476.02	11417.13
476.20	11281.38
476.38	11756.51
476.56	11927.37
476.74	11573.95
476.92	11447.56
477.10	11723.74
477.28	11789.28
477.46	11845.45
477.64	11934.39
477.82	12451.65
478.00	12322.92
478.18	12428.24
478.36	12547.61
478.54	12746.56
478.72	12657.62
478.90	12601.44
479.08	12931.46
479.26	12924.44
479.44	13027.42
479.62	12933.80
479.80	13029.76
479.98	13469.78
480.16	13516.59
480.34	13722.56
480.52	13582.13
480.70	13610.22
480.88	13392.55
481.06	13790.44
481.24	13731.92
481.41	14092.37
481.59	14389.61
481.77	14155.56
481.95	14333.44
482.13	14270.25
482.31	14574.52
482.49	14574.52
482.67	14766.44
482.85	14902.19
483.03	15211.14
483.21	15445.20
483.39	15602.01
483.57	15433.49
483.74	15513.07
483.92	15709.68
484.10	15859.47
484.28	16081.82
484.46	16018.63
484.64	16320.56
484.82	15999.90
485.00	16526.52
485.18	16692.70
485.35	16699.72
485.53	16664.61
485.71	16788.66
485.89	17465.08
486.07	17013.35
486.25	17280.18
486.43	17341.03
486.61	17788.07
486.78	17928.50
486.96	17734.24
487.14	18094.68
487.32	18235.11
487.50	18396.61
487.68	18558.11
487.85	18464.49
488.03	19051.96
488.21	18920.89
488.39	19178.35
488.57	19384.32
488.75	19337.51
488.92	19716.67
489.10	20088.82
489.28	19269.63
489.46	20086.48
489.64	19859.45
489.81	20205.84
489.99	20315.85
490.17	20620.12
490.35	21018.01
490.53	20629.48
490.70	20971.20
490.88	20926.73
491.06	21593.78
491.24	21151.42
491.41	21434.63
491.59	21687.40
491.77	21600.80
491.95	22026.78
492.13	21977.63
492.30	22085.30
492.48	22157.85
492.66	22015.08
492.84	22363.82
493.01	22686.81
493.19	22855.33
493.37	22780.43
493.54	23267.27
493.72	22984.06
493.90	23365.57
494.08	23400.68
494.25	23522.38
494.43	23431.10
494.61	24065.39
494.79	23756.44
494.96	23646.43
495.14	24402.43
495.32	24467.96
495.49	24456.26
495.67	24769.89
495.85	24613.07
496.02	25296.51
496.20	24929.05
496.38	25076.50
496.55	25071.82
496.73	25778.66
496.91	25256.72
497.09	25603.12
497.26	25998.67
497.44	25933.14
497.62	25741.21
497.79	26118.04
497.97	26190.59
498.14	26513.59
498.32	26506.57
498.50	26686.79
498.67	26927.86
498.85	26661.04
499.03	26927.86
499.20	27356.18
499.38	27398.31
499.56	27641.73
499.73	27571.51
499.91	27358.52
500.08	27962.38
500.26	27969.40
500.44	27971.74
500.61	28271.33
500.79	27924.93
500.97	28531.13
501.14	28503.04
501.32	28875.19
501.49	28474.96
501.67	28514.75
501.84	29076.48
502.02	29022.64
502.20	29116.26
502.37	29139.67
502.55	28989.88
502.72	29406.49
502.90	29280.10
503.07	29317.55
503.25	29902.68
503.43	29345.64
503.60	29820.77
503.78	29696.72
503.95	29844.17
504.13	30008.01
504.30	30071.20
504.48	30118.01
504.65	30225.68
504.83	30609.53
505.01	30733.57
505.18	30806.13
505.36	30387.18
505.53	30803.79
505.71	31005.08
505.88	31344.45
506.06	30836.56
506.23	31082.31
506.41	31199.34
506.58	31398.29
506.76	31283.60
506.93	31597.23
507.11	31239.13
507.28	31894.48
507.46	31667.45
507.63	31955.33
507.81	32002.14
507.98	31868.73
508.16	32240.88
508.33	31988.10
508.50	32271.31
508.68	32320.46
508.85	32704.31
509.03	32402.38
509.20	33006.23
509.38	33053.05
509.55	33212.20
509.73	32980.49
509.90	33900.32
510.08	33141.99
510.25	33462.64
510.42	33120.92
510.60	33535.20
510.77	33591.37
510.95	33439.23
511.12	33846.49
511.30	34057.14
511.47	34209.27
511.64	33748.18
511.82	34499.50
511.99	34117.99
512.17	34480.77
512.34	34359.06
512.51	34948.88
512.69	35007.39
512.86	35072.93
513.04	34618.86
513.21	34991.01
513.38	35044.84
513.56	35072.93
513.73	35063.57
513.90	35751.68
514.08	35461.46
514.25	35655.72
514.43	36018.50
514.60	35758.70
514.77	35433.37
514.95	36016.16
515.12	36023.19
515.29	35859.35
515.47	36027.87
515.64	36685.56
515.81	36414.05
515.99	36357.88
516.16	36627.04
516.33	36744.07
516.51	36751.09
516.68	36748.75
516.85	36659.81
517.03	37111.53
517.20	37301.12
517.37	37301.12
517.54	37078.77
517.72	36657.47
517.89	37104.51
518.06	37329.20
518.24	37427.51
518.41	37603.05
518.58	37694.33
518.75	37139.62
518.93	37406.44
519.10	37282.39
519.27	38197.54
519.45	38036.05
519.62	37956.47
519.79	38293.50
519.96	38417.55
520.14	38403.51
520.31	38174.14
520.48	38572.03
520.65	38600.12
520.83	38770.97
521.00	38462.02
521.17	38845.87
521.34	38794.38
521.52	39054.18
521.69	38557.99
521.86	38845.87
522.03	39124.40
522.20	39433.35
522.38	39674.42
522.55	39351.43
522.72	39746.98
522.89	39744.64
523.07	39693.15
523.24	39688.46
523.41	40002.10
523.58	39646.33
523.75	39985.71
523.92	39777.40
524.10	39945.92
524.27	40058.27
524.44	40694.89
524.61	40666.81
524.78	40641.06
524.96	40280.62
525.13	40514.67
525.30	40718.30
525.47	41050.66
525.64	40985.12
525.81	41560.89
525.98	41364.29
526.16	40718.30
526.33	40924.27
526.50	41352.58
526.67	41514.08
526.84	41413.44
527.01	41500.04
527.18	41752.82
527.36	41572.60
527.53	41603.02
527.70	41752.82
527.87	41720.05
528.04	41846.44
528.21	41996.23
528.38	42483.06
528.55	42440.93
528.72	42185.82
528.89	42288.80
529.07	41933.04
529.24	42054.75
529.41	42192.84
529.58	42485.40
529.75	42541.58
529.92	42471.36
530.09	42831.80
530.26	42534.56
530.43	42614.13
530.60	42391.78
530.77	42380.08
530.94	42848.19
531.11	42717.12
531.28	42948.83
531.46	43583.12
531.63	42983.94
531.80	42988.62
531.97	43311.61
532.14	43239.06
532.31	43079.90
532.48	43171.18
532.65	43983.35
532.82	43110.33
532.99	43861.64
533.16	43484.81
533.33	43711.84
533.50	44091.01
533.67	43480.13
533.84	43395.87
534.01	44051.22
534.18	43484.81
534.35	44172.93
534.52	44032.50
534.69	44739.34
534.86	44313.36
535.03	43983.35
535.20	44280.60
535.37	44334.43
535.54	43892.07
535.71	44516.99
535.88	44781.47
536.05	45029.57
536.22	44580.18
536.38	45057.65
536.55	44416.35
536.72	44865.73
536.89	44528.69
537.06	45179.36
537.23	45347.88
537.40	45022.54
537.57	45233.19
537.74	45137.23
537.91	45397.03
538.08	45542.14
538.25	44762.75
538.42	44540.39
538.59	45394.69
538.75	45619.38
538.92	45476.61
539.09	45923.65
539.26	46157.70
539.43	45837.05
539.60	45890.88
539.77	45310.43
539.94	46007.91
540.11	45689.60
540.28	45909.61
540.44	46382.40
540.61	45792.58
540.78	45792.58
540.95	45860.46
541.12	46007.91
541.29	46337.93
541.46	46370.69
541.62	45656.83
541.79	46183.45
541.96	46073.45
542.13	46045.36
542.30	46520.49
542.47	46983.91
542.63	46520.49
542.80	46586.02
542.97	46721.77
543.14	46691.35
543.31	46651.56
543.48	47320.95
543.64	47398.19
543.81	47372.44
543.98	47098.60
544.15	47187.54
544.32	47213.29
544.48	47388.83
544.65	47477.77
544.82	47166.48
544.99	47313.93
545.16	47749.27
545.32	47428.62
545.49	47882.68
545.66	47952.90
545.83	47489.47
546.00	47681.39
546.16	47515.22
546.33	47353.72
546.50	47606.50
546.67	47882.68
546.83	47763.31
547.00	47896.72
547.17	47943.53
547.34	47643.94
547.50	47508.19
547.67	48212.70
547.84	47955.24
548.00	48383.55
548.17	48315.68
548.34	48362.49
548.51	48430.36
548.67	48392.92
548.84	48509.94
549.01	47973.96
549.18	48383.55
549.34	48390.58
549.51	48591.86
549.68	48914.86
549.84	48416.32
550.01	48561.44
550.18	48275.89
550.34	48378.87
550.51	48624.63
550.68	48828.26
550.84	48217.38
551.01	48999.12
551.18	48381.21
551.34	48603.56
551.51	48706.55
551.68	48905.49
551.84	48846.98
552.01	48690.16
552.18	48900.81
552.34	48774.42
552.51	48910.17
552.68	49109.12
552.84	49123.16
553.01	49303.38
553.18	49347.86
553.34	49202.74
553.51	49074.01
553.67	49031.88
553.84	49432.11
554.01	49411.05
554.17	49401.69
554.34	49499.99
554.51	49574.89
554.67	49734.04
554.84	49626.38
555.00	49422.75
555.17	49251.89
555.33	49296.36
555.50	49160.61
555.67	49439.14
555.83	49563.18
556.00	49825.32
556.16	50073.42
556.33	49888.52
556.50	49677.87
556.66	50258.32
556.83	49879.16
556.99	49944.69
557.16	49647.44
557.32	50195.13
557.49	49853.41
557.65	49965.76
557.82	50218.53
557.98	50365.99
558.15	50099.17
558.32	50419.82
558.48	50073.42
558.65	50188.11
558.81	49764.47
558.98	49923.63
559.14	50092.15
559.31	50368.33
559.47	50188.11
559.64	50691.32
559.80	50447.91
559.97	50314.50
560.13	50237.26
560.30	50468.97
560.46	50045.33
560.63	50087.46
560.79	50174.06
560.96	50466.63
561.12	50452.59
561.29	50602.38
561.45	50595.36
561.61	50438.54
561.78	50780.26
561.94	50248.96
562.11	50630.47
562.27	50536.85
562.44	50424.50
562.60	50691.32
562.77	50700.68
562.93	50539.19
563.10	50941.76
563.26	50876.22
563.42	50988.57
563.59	50951.12
563.75	50618.77
563.92	51026.02
564.08	50780.26
564.24	50763.88
564.41	51086.87
564.57	50742.81
564.74	50897.29
564.90	51175.81
565.07	50684.30
565.23	50373.01
565.39	51110.28
565.56	50834.10
565.72	50908.99
565.88	51042.40
566.05	50777.92
566.21	51227.31
566.38	51269.43
566.54	51269.43
566.70	51201.56
566.87	51098.58
567.03	51030.70
567.19	51281.14
567.36	50780.26
567.52	50876.22
567.68	51091.55
567.85	50880.91
568.01	51173.47
568.17	51334.97
568.34	51398.16
568.50	51014.32
568.66	50836.44
568.83	51372.42
568.99	51217.94
569.15	51194.54
569.32	51124.32
569.48	51185.18
569.64	51337.31
569.81	51437.95
569.97	51164.11
570.13	51721.16
570.30	51019.00
570.46	51044.74
570.62	51091.55
570.78	51129.00
570.95	51124.32
571.11	50894.95
571.27	51086.87
571.43	51529.23
571.60	51749.24
571.76	51480.08
571.92	51566.68
572.09	51110.28
572.25	51407.53
572.41	51367.74
572.57	51365.40
572.74	51833.50
572.90	51702.43
573.06	51737.54
573.22	51573.70
573.38	51515.19
573.55	51316.25
573.71	51861.59
573.87	51325.61
574.03	51395.82
574.20	51248.37
574.36	51622.86
574.52	51398.16
574.68	51180.49
574.84	51728.18
575.01	51725.84
575.17	51643.92
575.33	51241.35
575.49	51592.43
575.65	51739.88
575.82	51489.45
575.98	51384.12
576.14	51782.01
576.30	51529.23
576.46	51845.21
576.62	51723.50
576.79	51484.76
576.95	51482.42
577.11	51583.07
577.27	51526.89
577.43	51721.16
577.59	51524.55
577.75	51442.63
577.92	51351.35
578.08	51306.88
578.24	51421.57
578.40	52020.75
578.56	51924.78
578.72	51622.86
578.88	51374.76
579.04	51683.71
579.21	51681.37
579.37	51751.59
579.53	51800.74
579.69	51590.09
579.85	51936.49
580.01	51735.20
580.17	51730.52
580.33	51863.93
580.49	51739.88
580.65	51311.56
580.82	51379.44
580.98	51845.21
581.14	51456.68
581.30	52179.90
581.46	51653.28
581.62	51887.34
581.78	51601.79
581.94	51936.49
582.10	51660.30
582.26	51772.65
582.42	51903.72
582.58	51978.62
582.74	51587.75
582.90	51423.91
583.06	51866.27
583.22	51770.31
583.38	52229.05
583.54	52093.30
583.70	51756.27
583.86	52074.58
584.02	51941.17
584.18	51803.08
584.34	51540.94
584.50	52037.13
584.66	51908.40
584.82	51501.15
584.98	51990.32
585.14	51920.10
585.30	51709.46
585.46	52100.32
585.62	51927.13
585.78	52032.45
585.94	51505.83
586.10	51987.98
586.26	51276.46
586.42	51980.96
586.58	51854.57
586.74	51709.46
586.90	51805.42
587.06	52016.07
587.22	52453.75
587.38	51875.63
587.54	52088.62
587.70	52360.12
587.86	51894.36
588.02	52296.93
588.18	52184.58
588.34	51887.34
588.49	52025.43
588.65	51803.08
588.81	52074.58
588.97	52346.08
589.13	52399.91
589.29	52090.96
589.45	52411.62
589.61	52093.30
589.77	52165.86
589.93	52083.94
590.08	52196.29
590.24	52303.95
590.40	52278.21
