SpectraSuite Data File
++++++++++++++++++++++++++++++++++++
Date: Fri Oct 04 11:39:46 GMT-05:00 2013
User: price-jones
Dark Spectrum Present: No
Reference Spectrum Present: No
Number of Sampled Component Spectra: 1
Spectrometers: USB2+H05261
Integration Time (usec): 100000 (USB2+H05261)
Spectra Averaged: 1 (USB2+H05261)
Boxcar Smoothing: 0 (USB2+H05261)
Correct for Electrical Dark: No (USB2+H05261)
Strobe/Lamp Enabled: No (USB2+H05261)
Correct for Detector Non-linearity: No (USB2+H05261)
Correct for Stray Light: No (USB2+H05261)
Number of Pixels in Processed Spectrum: 2048
>>>>>Begin Processed Spectral Data<<<<<
365.73	93.62
365.92	93.62
366.12	93.62
366.32	0.00
366.52	0.00
366.72	100.64
366.91	0.00
367.11	0.00
367.31	0.00
367.51	0.00
367.70	0.00
367.90	0.00
368.10	0.00
368.30	0.00
368.49	0.00
368.69	0.00
368.89	0.00
369.09	0.00
369.28	23.41
369.48	0.00
369.68	0.00
369.87	0.00
370.07	0.00
370.27	81.92
370.47	142.77
370.66	454.06
370.86	587.47
371.06	505.56
371.25	540.66
371.45	533.64
371.65	587.47
371.84	496.19
372.04	545.34
372.24	571.09
372.44	692.80
372.63	599.18
372.83	592.16
373.03	624.92
373.22	660.03
373.42	636.63
373.62	634.29
373.81	660.03
374.01	702.16
374.21	704.50
374.40	772.38
374.60	727.91
374.79	732.59
374.99	734.93
375.19	730.25
375.38	767.70
375.58	718.54
375.78	779.40
375.97	798.12
376.17	840.25
376.37	723.23
376.56	730.25
376.76	720.88
376.95	758.33
377.15	856.64
377.35	840.25
377.54	807.48
377.74	777.06
377.93	807.48
378.13	828.55
378.33	847.27
378.52	873.02
378.72	884.72
378.91	882.38
379.11	924.51
379.31	770.04
379.50	861.32
379.70	924.51
379.89	896.43
380.09	873.02
380.28	933.87
380.48	945.58
380.68	908.13
380.87	840.25
381.07	922.17
381.26	1004.09
381.46	959.62
381.65	966.64
381.85	936.21
382.04	976.00
382.24	1020.47
382.43	978.34
382.63	1022.81
382.83	1043.88
383.02	1083.67
383.22	1034.52
383.41	992.39
383.61	978.34
383.80	1057.92
384.00	1053.24
384.19	1088.35
384.39	1071.97
384.58	1071.97
384.78	997.07
384.97	1151.54
385.17	1104.73
385.36	1116.44
385.56	1160.91
385.75	1039.20
385.95	1135.16
386.14	1081.33
386.34	1104.73
386.53	1217.08
386.72	1083.67
386.92	1181.97
387.11	1299.00
387.31	1210.06
387.50	1179.63
387.70	1212.40
387.89	1238.14
388.09	1224.10
388.28	1221.76
388.48	1249.85
388.67	1256.87
388.86	1270.91
389.06	1371.55
389.25	1261.55
389.45	1301.34
389.64	1369.21
389.84	1315.38
390.03	1317.72
390.22	1394.96
390.42	1352.83
390.61	1371.55
390.81	1416.02
391.00	1322.40
391.19	1472.20
391.39	1369.21
391.58	1308.36
391.78	1378.58
391.97	1523.69
392.16	1591.56
392.36	1542.41
392.55	1544.75
392.75	1474.54
392.94	1551.78
393.13	1542.41
393.33	1561.14
393.52	1479.22
393.71	1540.07
393.91	1540.07
394.10	1521.35
394.29	1624.33
394.49	1631.35
394.68	1678.16
394.88	1643.06
395.07	1689.87
395.26	1661.78
395.46	1671.14
395.65	1844.34
395.84	1755.40
396.04	1858.39
396.23	1774.13
396.42	1790.51
396.62	1762.42
396.81	1834.98
397.00	1806.89
397.19	1832.64
397.39	1858.39
397.58	1954.35
397.77	1877.11
397.97	1863.07
398.16	1912.22
398.35	2005.84
398.55	1900.52
398.74	1973.07
398.93	2052.65
399.12	2115.84
399.32	1984.77
399.51	2050.31
399.70	2125.21
399.90	2108.82
400.09	2047.97
400.28	2157.97
400.47	2237.55
400.67	2186.06
400.86	2066.69
401.05	2062.01
401.24	2249.25
401.44	2214.15
401.63	2275.00
401.82	2314.79
402.01	2260.96
402.21	2303.09
402.40	2321.81
402.59	2396.71
402.78	2373.30
402.97	2289.04
403.17	2312.45
403.36	2335.85
403.55	2324.15
403.74	2483.31
403.93	2438.84
404.13	2534.80
404.32	2572.25
404.51	2497.35
404.70	2588.63
404.89	2532.46
405.09	2473.95
405.28	2672.89
405.47	2602.68
405.66	2839.07
405.85	2677.57
406.05	2846.09
406.24	2736.09
406.43	2640.12
406.62	2890.56
406.81	2787.58
407.00	2710.34
407.20	2752.47
407.39	2775.88
407.58	2843.75
407.77	2857.79
407.96	2881.20
408.15	2984.18
408.34	3042.70
408.54	2979.50
408.73	3038.02
408.92	3054.40
409.11	3052.06
409.30	3124.62
409.49	3110.57
409.68	3143.34
409.87	3084.83
410.07	3089.51
410.26	3304.84
410.45	3279.09
410.64	3384.41
410.83	3351.65
411.02	3323.56
411.21	3417.18
411.40	3332.92
411.59	3379.73
411.78	3485.06
411.98	3548.25
412.17	3496.76
412.36	3492.08
412.55	3791.67
412.74	3655.92
412.93	3721.45
413.12	3595.06
413.31	3854.86
413.50	3719.11
413.69	3899.33
413.88	4042.11
414.07	3894.65
414.26	3845.50
414.45	4049.13
414.64	4014.02
414.83	4187.22
415.02	4196.58
415.22	4189.56
415.41	4308.93
415.60	4299.56
415.79	4386.16
415.98	4374.46
416.17	4341.69
416.36	4379.14
416.55	4376.80
416.74	4402.55
416.93	4456.38
417.12	4550.00
417.31	4599.15
417.50	4669.37
417.69	4753.63
417.88	4737.24
418.07	4655.33
418.26	4741.93
418.45	4809.80
418.64	4781.71
418.83	4891.72
419.02	4894.06
419.21	4870.65
419.39	4952.57
419.58	4945.55
419.77	4964.28
419.96	5041.51
420.15	5022.79
420.34	4990.02
420.53	5172.58
420.72	5348.12
420.91	5151.52
421.10	5287.27
421.29	5413.66
421.48	5289.61
421.67	5425.36
421.86	5345.78
422.05	5401.96
422.24	5444.09
422.43	5350.46
422.61	5451.11
422.80	5490.90
422.99	5497.92
423.18	5577.50
423.37	5600.90
423.56	5511.96
423.75	5481.53
423.94	5341.10
424.13	5177.26
424.32	5235.78
424.50	5561.11
424.69	5619.63
424.88	5715.59
425.07	5416.00
425.26	5434.72
425.45	5380.89
425.64	5509.62
425.83	5624.31
426.01	5753.04
426.20	5511.96
426.39	5640.69
426.58	5593.88
426.77	5736.65
426.96	5816.23
427.15	5748.36
427.33	5769.42
427.52	5760.06
427.71	6026.88
427.90	5863.04
428.09	5900.49
428.28	5874.74
428.46	6225.82
428.65	6080.71
428.84	6017.52
429.03	5977.73
429.22	5961.34
429.40	6225.82
429.59	6061.99
429.78	5921.56
429.97	6045.60
430.16	6209.44
430.34	6347.53
430.53	6375.62
430.72	6253.91
430.91	6218.80
431.10	6506.69
431.28	6539.46
431.47	6590.95
431.66	6520.73
431.85	6583.93
432.03	6588.61
432.22	6888.20
432.41	6700.95
432.60	6733.72
432.79	6693.93
432.97	6827.34
433.16	6703.29
433.35	6743.08
433.54	7066.08
433.72	6836.70
433.91	6909.26
434.10	6965.43
434.28	6754.79
434.47	6881.18
434.66	6958.41
434.85	7112.89
435.03	7220.55
435.22	7267.36
435.41	7618.44
435.59	7576.31
435.78	7410.14
435.97	7297.79
436.16	7382.05
436.34	7129.27
436.53	7288.43
436.72	7536.52
436.90	7279.07
437.09	7414.82
437.28	7267.36
437.46	7489.71
437.65	7463.97
437.84	7812.71
438.02	7658.23
438.21	7632.49
438.40	7625.47
438.58	7733.13
438.77	8175.49
438.96	7871.22
439.14	7976.55
439.33	8390.82
439.52	8301.88
439.70	8009.31
439.89	8311.24
440.08	8283.16
440.26	8470.40
440.45	8423.59
440.63	8446.99
440.82	8535.93
441.01	8683.39
441.19	8603.81
441.38	8760.63
441.57	8769.99
441.75	8779.35
441.94	9064.89
442.12	8966.59
442.31	9266.18
442.50	9273.20
442.68	9071.92
442.87	9142.13
443.05	9245.12
443.24	9418.32
443.43	9275.54
443.61	9228.73
443.80	9579.81
443.98	9195.96
444.17	9100.00
444.35	9268.52
444.54	9603.22
444.73	9324.69
444.91	9387.89
445.10	9418.32
445.28	9561.09
445.47	9472.15
445.65	9518.96
445.84	9540.02
446.02	9788.12
446.21	9565.77
446.39	9624.28
446.58	9544.70
446.77	9846.63
446.95	9413.63
447.14	9549.39
447.32	9788.12
447.51	9476.83
447.69	9652.37
447.88	9771.74
448.06	9521.30
448.25	9724.93
448.43	9757.69
448.62	9687.48
448.80	9708.54
448.99	10015.15
449.17	9921.53
449.36	9881.74
449.54	10150.90
449.73	10235.16
449.91	10443.47
450.10	10345.17
450.28	10237.50
450.46	10415.38
450.65	10361.55
450.83	10466.88
451.02	10537.09
451.20	10588.58
451.39	10401.34
451.57	10438.79
451.76	10459.85
451.94	10616.67
452.13	10466.88
452.31	10478.58
452.49	10539.43
452.68	10672.84
452.86	10595.61
453.05	10815.62
453.23	10946.69
453.42	11009.88
453.60	10757.10
453.78	10953.71
453.97	10729.02
454.15	10930.30
454.34	10920.94
454.52	10923.28
454.70	11115.20
454.89	11262.66
455.07	11194.78
455.26	11255.64
455.44	11524.80
455.62	11206.48
455.81	11229.89
455.99	11419.47
456.17	11475.65
456.36	11534.16
456.54	11712.04
456.73	11637.14
456.91	12013.97
457.09	11763.53
457.28	12273.77
457.46	11845.45
457.64	12072.48
457.83	11899.28
458.01	12248.02
458.19	11988.22
458.38	11932.05
458.56	12458.67
458.74	12343.99
458.93	12063.12
459.11	12170.79
459.29	12201.21
459.48	12325.26
459.66	12463.35
459.84	12582.72
460.03	12730.17
460.21	12594.42
460.39	12760.60
460.57	12587.40
460.76	12664.64
460.94	12779.32
461.12	12802.73
461.31	12996.99
461.49	12781.67
461.67	12851.88
461.85	13268.50
462.04	12971.25
462.22	13589.15
462.40	13172.54
462.59	13172.54
462.77	13266.16
462.95	13261.48
463.13	13373.82
463.32	13249.77
463.50	13277.86
463.68	13401.91
463.86	13310.63
464.05	13284.88
464.23	13532.98
464.41	13568.09
464.59	13563.40
464.78	13895.76
464.96	13778.73
465.14	13703.84
465.32	13858.31
465.50	14073.64
465.69	14178.97
465.87	13820.86
466.05	13827.88
466.23	13870.01
466.41	14349.82
466.60	14366.21
466.78	14235.14
466.96	14251.52
467.14	14052.58
467.32	14132.15
467.51	14359.19
467.69	14167.26
467.87	14368.55
468.05	14532.39
468.23	14363.87
468.41	14455.15
468.60	14614.30
468.78	14745.38
468.96	14422.38
469.14	14501.96
469.32	14757.08
469.50	14483.24
469.69	14925.60
469.87	15169.01
470.05	14979.43
470.23	14932.62
470.41	15419.45
470.59	15096.46
470.77	15503.71
470.95	15248.59
471.14	15382.00
471.32	15171.35
471.50	15901.60
471.68	15569.24
471.86	15672.23
472.04	15667.55
472.22	16276.09
472.40	16023.31
472.58	15880.53
472.77	16011.60
472.95	16360.34
473.13	16713.77
473.31	16493.76
473.49	16400.13
473.67	16315.87
473.85	16390.77
474.03	16844.84
474.21	16762.92
474.39	16975.91
474.57	16980.59
474.75	17598.49
474.93	17249.75
475.12	17355.07
475.30	17366.78
475.48	17193.58
475.66	17406.56
475.84	18001.06
476.02	17767.01
476.20	17921.48
476.38	18270.22
476.56	18260.86
476.74	18064.25
476.92	18120.43
477.10	18361.50
477.28	18827.27
477.46	18682.16
477.64	19063.66
477.82	19262.61
478.00	19496.66
478.18	19637.09
478.36	19625.39
478.54	19999.88
478.72	19969.45
478.90	19943.70
479.08	20395.43
479.26	20503.09
479.44	20439.90
479.62	20872.90
479.80	21252.06
479.98	21223.98
480.16	21167.80
480.34	20769.91
480.52	21633.57
480.70	21603.14
480.88	21654.64
481.06	21898.05
481.24	21701.45
481.41	22089.98
481.59	22782.77
481.77	22885.76
481.95	22735.96
482.13	22583.83
482.31	22986.40
482.49	23339.82
482.67	23234.50
482.85	23585.58
483.03	23924.96
483.21	24173.05
483.39	24322.85
483.57	24596.69
483.74	24570.94
483.92	24870.53
484.10	24739.46
484.28	25165.44
484.46	25401.83
484.64	25923.77
484.82	25671.00
485.00	25937.82
485.18	26316.98
485.35	26792.11
485.53	26946.59
485.71	26544.02
485.89	27016.80
486.07	27264.90
486.25	27192.34
486.43	27454.48
486.61	27569.17
486.78	28442.19
486.96	28278.35
487.14	28685.61
487.32	28444.53
487.50	28697.31
487.68	28727.74
487.85	29556.28
488.03	29682.67
488.21	29858.21
488.39	29865.24
488.57	30576.76
488.75	30291.21
488.92	31028.48
489.10	31384.24
489.28	31103.38
489.46	31517.65
489.64	31351.48
489.81	32500.68
489.99	32329.82
490.17	32306.41
490.35	33015.60
490.53	32627.07
490.70	33319.87
490.88	32929.00
491.06	33516.47
491.24	33399.44
491.41	33528.17
491.59	34136.71
491.77	34235.02
491.95	34607.16
492.13	35044.84
492.30	34988.67
492.48	34550.99
492.66	34869.30
492.84	34838.87
493.01	36077.02
493.19	35812.54
493.37	36116.81
493.54	35864.03
493.72	36416.40
493.90	36381.29
494.08	37083.45
494.25	37071.75
494.43	37600.71
494.61	37876.89
494.79	38066.47
494.96	37928.38
495.14	37776.25
495.32	38436.28
495.49	38586.07
495.67	38700.76
495.85	39262.49
496.02	39739.96
496.20	39782.09
496.38	39658.04
496.55	39466.11
496.73	40390.62
496.91	40437.44
497.09	40339.13
497.26	40978.10
497.44	40465.52
497.62	40732.34
497.79	41254.28
497.97	41045.97
498.14	41539.83
498.32	42557.96
498.50	42445.62
498.67	42134.32
498.85	42181.13
499.03	42754.57
499.20	42330.93
499.38	42719.46
499.56	42862.23
499.73	43405.23
499.91	43122.03
500.08	43667.37
500.26	43632.27
500.44	43648.65
500.61	43761.00
500.79	44058.24
500.97	44339.11
501.14	44631.68
501.32	44598.91
501.49	44729.98
501.67	44446.77
501.84	44765.09
502.02	45013.18
502.20	45078.72
502.37	45710.66
502.55	45476.61
502.72	45495.33
502.90	45441.50
503.07	45652.15
503.25	45773.86
503.43	45619.38
503.60	46450.27
503.78	46253.67
503.95	46272.39
504.13	46298.14
504.30	46576.66
504.48	46579.00
504.65	46878.59
504.83	47075.19
505.01	47547.98
505.18	47072.85
505.36	47915.45
505.53	47356.06
505.71	47737.57
505.88	47793.74
506.06	47693.10
506.23	48315.68
506.41	48334.40
506.58	48421.00
506.76	48018.43
506.93	48729.95
507.11	48289.93
507.28	49029.54
507.46	48692.50
507.63	48968.69
507.81	49481.27
507.98	48989.75
508.16	49181.68
508.33	49385.30
508.50	49284.66
508.68	49577.23
508.85	49834.69
509.03	49488.29
509.20	49883.84
509.38	50330.88
509.55	50040.65
509.73	50204.49
509.90	50649.19
510.08	50417.48
510.25	50525.14
510.42	50911.33
510.60	51313.90
510.77	50941.76
510.95	51194.54
511.12	51037.72
511.30	50937.08
511.47	51227.31
511.64	51262.41
511.82	51831.16
511.99	51636.90
512.17	51803.08
512.34	51653.28
512.51	52083.94
512.69	52027.77
512.86	51758.61
513.04	52156.50
513.21	52498.22
513.38	52341.40
513.56	52310.97
513.73	52657.37
513.90	52371.83
514.08	52781.42
514.25	52488.85
514.43	52966.32
514.60	53090.37
514.77	52978.03
514.95	53172.29
515.12	52851.64
515.29	52956.96
515.47	53223.78
515.64	53263.57
515.81	53436.77
515.99	53668.48
516.16	53715.29
516.33	53684.87
516.51	53916.58
516.68	53804.24
516.85	53659.12
517.03	53832.32
517.20	53804.24
517.37	54124.89
517.54	54380.01
517.72	54183.40
517.89	54099.14
518.06	54293.41
518.24	54335.54
518.41	54218.51
518.58	54714.70
518.75	54700.66
518.93	54787.26
519.10	54768.54
519.27	55248.35
519.45	55035.36
519.62	54862.16
519.79	54822.37
519.96	55241.32
520.14	55381.76
520.31	54850.45
520.48	55220.26
520.65	55253.03
520.83	55487.08
521.00	55487.08
521.17	55236.64
521.34	55468.36
521.52	55473.04
521.69	55676.66
521.86	55824.12
522.03	56086.26
522.20	56037.11
522.38	56081.58
522.55	55908.38
522.72	56081.58
522.89	56069.87
523.07	56392.87
523.24	56222.01
523.41	56399.89
523.58	56409.25
523.75	56444.36
523.92	56423.29
524.10	56322.65
524.27	56655.01
524.44	56523.94
524.61	56900.76
524.78	56907.79
524.96	56865.66
525.13	57132.48
525.30	56905.44
525.47	56931.19
525.64	57212.06
525.81	57001.41
525.98	57169.93
526.16	57162.90
526.33	57296.31
526.50	57361.85
526.67	57202.69
526.84	57572.50
527.01	57193.33
527.18	57298.65
527.36	57680.16
527.53	57478.88
527.70	57815.91
527.87	57682.50
528.04	57539.73
528.21	57851.02
528.38	57645.05
528.55	57834.64
528.72	57715.27
528.89	57932.94
529.07	58073.37
529.24	57710.59
529.41	58155.29
529.58	58007.84
529.75	58183.38
529.92	58082.73
530.09	58120.18
530.26	58220.83
530.43	58370.62
530.60	58183.38
530.77	58394.03
530.94	58461.90
531.11	58478.28
531.28	58204.44
531.46	58316.79
531.63	58592.97
531.80	58658.51
531.97	58960.44
532.14	58518.07
532.31	58581.27
532.48	58724.04
532.65	58876.18
532.82	58724.04
532.99	58670.21
533.16	58841.07
533.33	59068.10
533.50	59171.08
533.67	59096.19
533.84	58967.46
534.01	59028.31
534.18	59112.57
534.35	59435.56
534.52	58993.20
534.69	59295.13
534.86	59316.20
535.03	59370.03
535.20	59583.02
535.37	59358.33
535.54	59629.83
535.71	59281.09
535.88	59578.34
536.05	59552.59
536.22	59554.93
536.38	59704.73
536.55	59781.96
536.72	59784.30
536.89	59580.68
537.06	59819.41
537.23	59934.10
537.40	59571.32
537.57	59660.26
537.74	59704.73
537.91	60032.40
538.08	60081.55
538.25	59969.21
538.42	59987.93
538.59	60069.85
538.75	59625.15
538.92	60027.72
539.09	60163.47
539.26	60343.69
539.43	60346.03
539.60	60397.52
539.77	60268.79
539.94	60629.24
540.11	60587.11
540.28	60484.12
540.44	60493.49
540.61	60229.01
540.78	60556.68
540.95	60807.12
541.12	60750.94
541.29	60708.82
541.46	60926.49
541.62	60570.72
541.79	60722.86
541.96	60413.91
542.13	60736.90
542.30	60776.69
542.47	60910.10
542.63	60882.02
542.80	61146.50
542.97	61331.40
543.14	61244.80
543.31	61249.48
543.48	61265.86
543.64	61307.99
543.81	61474.17
543.98	61389.91
544.15	61495.24
544.32	61722.27
544.48	61558.43
544.65	61544.39
544.82	61286.93
544.99	61130.11
545.16	61230.75
545.32	61588.86
545.49	61724.61
545.66	62028.88
545.83	62073.35
546.00	62035.90
546.16	61820.57
546.33	61598.22
546.50	61326.72
546.67	61724.61
546.83	61544.39
547.00	61647.37
547.17	61836.95
547.34	61738.65
547.50	61963.34
547.67	61865.04
547.84	61780.78
548.00	61890.79
548.17	61851.00
548.34	61914.19
548.51	62056.96
548.67	62113.14
548.84	62113.14
549.01	62066.33
549.18	62131.86
549.34	62181.01
549.51	61848.66
549.68	62148.24
549.84	61993.77
550.01	62056.96
550.18	62094.41
550.34	62141.22
550.51	62419.75
550.68	62237.19
550.84	62330.81
551.01	62344.85
551.18	62176.33
551.34	62113.14
551.51	62246.55
551.68	62454.86
551.84	62368.26
552.01	62195.06
552.18	62588.27
552.34	62459.54
552.51	62700.61
552.68	62206.76
552.84	62588.27
553.01	62550.82
553.18	62340.17
553.34	62534.43
553.51	62766.15
553.67	62913.60
553.84	62993.18
554.01	63002.54
554.17	62731.04
554.34	62550.82
554.51	62822.32
554.67	62918.28
554.84	62869.13
555.00	62944.03
555.17	63032.97
555.33	63021.26
555.50	62714.65
555.67	62803.59
555.83	63056.37
556.00	62908.92
556.16	63138.29
556.33	62885.51
556.50	63023.61
556.66	63381.71
556.83	63028.29
556.99	63229.57
557.16	63318.51
557.32	63152.33
557.49	63248.30
557.65	63007.22
557.82	63021.26
557.98	63037.65
558.15	63234.25
558.32	63388.73
558.48	63231.91
558.65	63496.39
558.81	63105.52
558.98	63281.06
559.14	63433.20
559.31	63304.47
559.47	63351.28
559.64	63334.90
559.80	63231.91
559.97	63545.54
560.13	63419.16
560.30	63245.96
560.46	63426.18
560.63	63489.37
560.79	63400.43
560.96	63655.55
561.12	63489.37
561.29	63426.18
561.45	63632.14
561.61	63587.67
561.78	63512.78
561.94	63707.04
562.11	63690.66
562.27	63695.34
562.44	63688.32
562.60	63788.96
562.77	63704.70
562.93	63678.96
563.10	63849.81
563.26	63510.44
563.42	63922.37
563.59	63578.31
563.75	63669.59
563.92	63929.39
564.08	63702.36
564.24	63667.25
564.41	63744.49
564.57	63728.11
564.74	63753.85
564.90	63894.28
565.07	63880.24
565.23	63781.94
565.39	63873.22
565.56	63997.27
565.72	63922.37
565.88	63744.49
566.05	63817.05
566.21	64015.99
566.38	63749.17
566.54	63749.17
566.70	64004.29
566.87	64147.06
567.03	64081.53
567.19	64048.76
567.36	63887.26
567.52	63774.92
567.68	64104.93
567.85	63760.87
568.01	63945.78
568.17	63903.65
568.34	64100.25
568.50	64030.04
568.66	64184.51
568.83	64177.49
568.99	64067.48
569.15	63978.54
569.32	63994.93
569.48	63952.80
569.64	64186.85
569.81	64095.57
569.97	64203.24
570.13	64151.74
570.30	63805.34
570.46	64409.20
570.62	64189.19
570.78	64088.55
570.95	63978.54
571.11	64158.76
571.27	63971.52
571.43	64118.98
571.60	64083.87
571.76	64189.19
571.92	64226.64
572.09	64402.18
572.25	64266.43
572.41	63969.18
572.57	64404.52
572.74	64289.84
572.90	64100.25
573.06	64292.18
573.22	64334.31
573.38	64287.49
573.55	64317.92
573.71	64591.76
573.87	64437.29
574.03	64383.46
574.20	64404.52
574.36	64231.32
574.52	64147.06
574.68	64341.33
574.84	64357.71
575.01	64392.82
575.17	64280.47
575.33	64402.18
575.49	64439.63
575.65	64502.82
575.82	64575.38
575.98	64423.25
576.14	64381.12
576.30	64439.63
576.46	64479.42
576.62	64184.51
576.79	64374.09
576.95	64477.08
577.11	64448.99
577.27	64669.00
577.43	64448.99
577.59	64413.88
577.75	64458.35
577.92	64432.61
578.08	64381.12
578.24	64491.12
578.40	64505.16
578.56	64479.42
578.72	64493.46
578.88	64495.80
579.04	64729.86
579.21	64381.12
579.37	64547.29
579.53	64788.37
579.69	64367.07
579.85	64530.91
580.01	64362.39
580.17	64353.03
580.33	64470.06
580.49	64299.20
580.65	64563.68
580.82	64624.53
580.98	64544.95
581.14	64509.85
581.30	64577.72
581.46	64540.27
581.62	64514.53
581.78	64390.48
581.94	64779.01
582.10	64687.73
582.26	64612.83
582.42	64767.30
582.58	64664.32
582.74	64793.05
582.90	64673.68
583.06	64624.53
583.22	64748.58
583.38	64683.04
583.54	64498.14
583.70	64523.89
583.86	64477.08
584.02	64624.53
584.18	64846.88
584.34	64729.86
584.50	64776.67
584.66	64757.94
584.82	64479.42
584.98	64629.21
585.14	64559.00
585.30	64392.82
585.46	64683.04
585.62	64697.09
585.78	64802.41
585.94	64568.36
586.10	64776.67
586.26	64807.09
586.42	64755.60
586.58	64867.95
586.74	64748.58
586.90	64657.30
587.06	64486.44
587.22	64736.88
587.38	64711.13
587.54	64959.23
587.70	64694.75
587.86	64858.59
588.02	64811.77
588.18	64984.97
588.34	64694.75
588.49	64992.00
