SpectraSuite Data File
++++++++++++++++++++++++++++++++++++
Date: Fri Oct 04 11:39:43 GMT-05:00 2013
User: price-jones
Dark Spectrum Present: No
Reference Spectrum Present: No
Number of Sampled Component Spectra: 1
Spectrometers: USB2+H05261
Integration Time (usec): 100000 (USB2+H05261)
Spectra Averaged: 1 (USB2+H05261)
Boxcar Smoothing: 0 (USB2+H05261)
Correct for Electrical Dark: No (USB2+H05261)
Strobe/Lamp Enabled: No (USB2+H05261)
Correct for Detector Non-linearity: No (USB2+H05261)
Correct for Stray Light: No (USB2+H05261)
Number of Pixels in Processed Spectrum: 2048
>>>>>Begin Processed Spectral Data<<<<<
365.73	86.60
365.92	86.60
366.12	86.60
366.32	0.00
366.52	0.00
366.72	0.00
366.91	0.00
367.11	0.00
367.31	0.00
367.51	0.00
367.70	0.00
367.90	23.41
368.10	0.00
368.30	0.00
368.49	0.00
368.69	0.00
368.89	9.36
369.09	0.00
369.28	0.00
369.48	0.00
369.68	18.72
369.87	0.00
370.07	21.06
370.27	119.37
370.47	128.73
370.66	397.89
370.86	440.02
371.06	486.83
371.25	519.60
371.45	437.68
371.65	498.53
371.84	454.06
372.04	440.02
372.24	505.56
372.44	496.19
372.63	550.03
372.83	634.29
373.03	559.39
373.22	533.64
373.42	561.73
373.62	585.13
373.81	589.82
374.01	638.97
374.21	606.20
374.40	585.13
374.60	645.99
374.79	653.01
374.99	653.01
375.19	699.82
375.38	627.26
375.58	641.31
375.78	667.05
375.97	641.31
376.17	727.91
376.37	807.48
376.56	674.07
376.76	650.67
376.95	720.88
377.15	760.67
377.35	674.07
377.54	720.88
377.74	650.67
377.93	669.39
378.13	720.88
378.33	634.29
378.52	793.44
378.72	760.67
378.91	828.55
379.11	737.27
379.31	692.80
379.50	758.33
379.70	774.72
379.89	837.91
380.09	751.31
380.28	767.70
380.48	788.76
380.68	751.31
380.87	807.48
381.07	751.31
381.26	821.53
381.46	856.64
381.65	842.59
381.85	875.36
382.04	851.96
382.24	849.61
382.43	861.32
382.63	858.98
382.83	889.40
383.02	863.66
383.22	882.38
383.41	847.27
383.61	830.89
383.80	924.51
384.00	898.77
384.19	919.83
384.39	894.08
384.58	959.62
384.78	1018.13
384.97	1036.86
385.17	887.06
385.36	933.87
385.56	1048.56
385.75	973.66
385.95	997.07
386.14	976.00
386.34	1004.09
386.53	971.32
386.72	968.98
386.92	1071.97
387.11	1050.90
387.31	973.66
387.50	999.41
387.70	1034.52
387.89	1109.41
388.09	1142.18
388.28	1116.44
388.48	1104.73
388.67	1156.22
388.86	1109.41
389.06	1118.78
389.25	1226.44
389.45	1121.12
389.64	1069.62
389.84	1165.59
390.03	1151.54
390.22	1226.44
390.42	1198.35
390.61	1137.50
390.81	1256.87
391.00	1184.31
391.19	1221.76
391.39	1240.48
391.58	1238.14
391.78	1320.06
391.97	1273.25
392.16	1149.20
392.36	1317.72
392.55	1345.81
392.75	1313.04
392.94	1434.75
393.13	1282.61
393.33	1317.72
393.52	1376.24
393.71	1394.96
393.91	1378.58
394.10	1465.18
394.29	1329.42
394.49	1322.40
394.68	1411.34
394.88	1465.18
395.07	1437.09
395.26	1500.28
395.46	1514.33
395.65	1631.35
395.84	1526.03
396.04	1582.20
396.23	1640.72
396.42	1593.90
396.62	1582.20
396.81	1535.39
397.00	1556.46
397.19	1544.75
397.39	1591.56
397.58	1584.54
397.77	1596.25
397.97	1647.74
398.16	1582.20
398.35	1605.61
398.55	1689.87
398.74	1785.83
398.93	1799.87
399.12	1659.44
399.32	1753.06
399.51	1746.04
399.70	1863.07
399.90	1755.40
400.09	1825.62
400.28	1753.06
400.47	1823.28
400.67	1984.77
400.86	1858.39
401.05	1900.52
401.24	1937.96
401.44	1942.64
401.63	1954.35
401.82	2073.71
402.01	1856.04
402.21	1980.09
402.40	1914.56
402.59	1947.33
402.78	1944.99
402.97	2036.27
403.17	2045.63
403.36	2092.44
403.55	2022.22
403.74	2167.34
403.93	2228.19
404.13	2193.08
404.32	2265.64
404.51	2216.49
404.70	2186.06
404.89	2225.85
405.09	2275.00
405.28	2331.17
405.47	2204.78
405.66	2326.49
405.85	2445.86
406.05	2363.94
406.24	2408.41
406.43	2490.33
406.62	2506.71
406.81	2567.57
407.00	2396.71
407.20	2363.94
407.39	2396.71
407.58	2546.50
407.77	2593.31
407.96	2562.89
408.15	2609.70
408.34	2588.63
408.54	2546.50
408.73	2724.38
408.92	2729.06
409.11	2808.64
409.30	2792.26
409.49	2754.81
409.68	2846.09
409.87	2715.02
410.07	2848.43
410.26	2785.24
410.45	2834.39
410.64	2808.64
410.83	2909.29
411.02	2967.80
411.21	3045.04
411.40	3115.25
411.59	3007.59
411.78	3152.70
411.98	3164.40
412.17	3162.06
412.36	3169.09
412.55	3162.06
412.74	3304.84
412.93	3309.52
413.12	3398.46
413.31	3417.18
413.50	3328.24
413.69	3410.16
413.88	3440.59
414.07	3433.57
414.26	3559.95
414.45	3618.47
414.64	3644.21
414.83	3709.75
415.02	3868.91
415.22	3761.24
415.41	3749.54
415.60	3695.71
415.79	3728.47
415.98	3866.56
416.17	3836.14
416.36	3988.27
416.55	3988.27
416.74	3971.89
416.93	4070.19
417.12	4037.42
417.31	4046.79
417.50	4007.00
417.69	4208.28
417.88	4390.84
418.07	4102.96
418.26	4189.56
418.45	4264.46
418.64	4304.25
418.83	4372.12
419.02	4348.72
419.21	4477.44
419.39	4388.50
419.58	4386.16
419.77	4498.51
419.96	4524.26
420.15	4535.96
420.34	4493.83
420.53	4599.15
420.72	4643.62
420.91	4660.01
421.10	4739.58
421.29	4681.07
421.48	4854.27
421.67	4884.70
421.86	4730.22
422.05	4725.54
422.24	4676.39
422.43	4751.29
422.61	4784.06
422.80	4865.97
422.99	4945.55
423.18	4910.44
423.37	5039.17
423.56	4990.02
423.75	4786.40
423.94	4702.14
424.13	4594.47
424.32	4652.98
424.50	4908.10
424.69	4985.34
424.88	5097.69
425.07	5039.17
425.26	4983.00
425.45	4786.40
425.64	5036.83
425.83	4903.42
426.01	5163.22
426.20	4865.97
426.39	5102.37
426.58	4856.61
426.77	5067.26
426.96	5135.14
427.15	5111.73
427.33	5322.38
427.52	5226.42
427.71	5174.92
427.90	5298.97
428.09	5294.29
428.28	5453.45
428.46	5380.89
428.65	5329.40
428.84	5603.24
429.03	5577.50
429.22	5446.43
429.40	5451.11
429.59	5563.45
429.78	5305.99
429.97	5483.88
430.16	5526.00
430.34	5621.97
430.53	5846.66
430.72	5551.75
430.91	5577.50
431.10	5689.84
431.28	5764.74
431.47	5652.39
431.66	5980.07
431.85	5858.36
432.03	5916.87
432.22	6038.58
432.41	5998.79
432.60	6150.93
432.79	5860.70
432.97	6019.86
433.16	6054.97
433.35	5973.05
433.54	6139.23
433.72	6162.63
433.91	6373.28
434.10	6321.79
434.28	6139.23
434.47	6352.21
434.66	6324.13
434.85	6450.52
435.03	6417.75
435.22	6396.68
435.41	6946.71
435.59	6897.56
435.78	6679.89
435.97	6588.61
436.16	6796.92
436.34	6415.41
436.53	6661.16
436.72	6764.15
436.90	6558.18
437.09	6703.29
437.28	6497.33
437.46	6700.95
437.65	6656.48
437.84	6679.89
438.02	6876.49
438.21	6710.32
438.40	6764.15
438.58	6967.77
438.77	6906.92
438.96	7042.67
439.14	7073.10
439.33	7255.66
439.52	7265.02
439.70	7499.08
439.89	7290.77
440.08	7492.05
440.26	7405.46
440.45	7253.32
440.63	7571.63
440.82	7620.78
441.01	7609.08
441.19	7885.26
441.38	7686.32
441.57	7960.16
441.75	7929.74
441.94	8173.15
442.12	7899.31
442.31	8163.79
442.50	7997.61
442.68	8161.45
442.87	8259.75
443.05	8234.00
443.24	8322.94
443.43	8231.66
443.61	8259.75
443.80	8617.85
443.98	8215.28
444.17	8100.59
444.35	8524.23
444.54	8617.85
444.73	8540.61
444.91	8526.57
445.10	8685.73
445.28	8505.51
445.47	8416.57
445.65	8414.23
445.84	8762.97
446.02	8582.74
446.21	8496.14
446.39	8510.19
446.58	8475.08
446.77	8699.77
446.95	8472.74
447.14	8688.07
447.32	8777.01
447.51	8641.26
447.69	8538.27
447.88	8856.59
448.06	8821.48
448.25	8718.50
448.43	8690.41
448.62	8720.84
448.80	8657.64
448.99	8861.27
449.17	8929.14
449.36	8711.47
449.54	8973.61
449.73	9128.09
449.91	9202.99
450.10	9158.52
450.28	9408.95
450.46	9198.31
450.65	9174.90
450.83	9369.16
451.02	9341.08
451.20	9195.96
451.39	9423.00
451.57	9334.06
451.76	9254.48
451.94	9327.03
452.13	9453.42
452.31	9518.96
452.49	9224.05
452.68	9425.34
452.86	9713.22
453.05	9476.83
453.23	9760.03
453.42	9710.88
453.60	9411.29
453.78	9511.94
453.97	9694.50
454.15	9533.00
454.34	9682.80
454.52	10015.15
454.70	9895.78
454.89	10052.60
455.07	10139.20
455.26	9968.34
455.44	9970.68
455.62	10174.31
455.81	10118.14
455.99	10197.71
456.17	10167.29
456.36	10209.42
456.54	10513.69
456.73	10237.50
456.91	10665.82
457.09	10764.12
457.28	10778.17
457.46	10686.89
457.64	10853.06
457.83	10754.76
458.01	10714.97
458.19	10829.66
458.38	10780.51
458.56	10930.30
458.74	10937.32
458.93	10824.98
459.11	10850.72
459.29	10794.55
459.48	11087.12
459.66	10834.34
459.84	11082.44
460.03	11197.12
460.21	11126.91
460.39	11133.93
460.57	10979.45
460.76	11265.00
460.94	11398.41
461.12	11449.90
461.31	11344.58
461.49	11389.05
461.67	11265.00
461.85	11756.51
462.04	11681.61
462.22	12269.09
462.40	11983.54
462.59	11817.36
462.77	11770.55
462.95	11714.38
463.13	11857.15
463.32	11887.58
463.50	12049.08
463.68	11726.08
463.86	11913.33
464.05	11899.28
464.23	12002.27
464.41	12203.55
464.59	12112.27
464.78	12343.99
464.96	12093.55
465.14	12060.78
465.32	12353.35
465.50	12393.14
465.69	12732.51
465.87	12269.09
466.05	12308.88
466.23	12348.67
466.41	12854.22
466.60	12819.11
466.78	12428.24
466.96	12173.13
467.14	12411.86
467.32	12655.28
467.51	12704.43
467.69	12470.37
467.87	12847.20
468.05	12711.45
468.23	12872.95
468.41	12613.15
468.60	13034.44
468.78	12959.55
468.96	12982.95
469.14	12695.07
469.32	13373.82
469.50	12798.05
469.69	13408.93
469.87	13214.66
470.05	13289.56
470.23	13357.44
470.41	13327.01
470.59	13654.69
470.77	13472.12
470.95	13495.53
471.14	13902.78
471.32	13451.06
471.50	14075.98
471.68	14033.85
471.86	13942.57
472.04	14178.97
472.22	14380.25
472.40	13977.68
472.58	14291.31
472.77	14403.66
472.95	14520.68
473.13	14658.78
473.31	14621.33
473.49	14630.69
473.67	14513.66
473.85	14539.41
474.03	14909.21
474.21	14993.47
474.39	15150.29
474.57	15199.44
474.75	14876.44
474.93	15585.63
475.12	15456.90
475.30	15510.73
475.48	15393.70
475.66	15784.57
475.84	15756.49
476.02	15798.62
476.20	15819.68
476.38	15889.90
476.56	16191.83
476.74	16248.00
476.92	16114.59
477.10	16435.24
477.28	16662.27
477.46	16666.95
477.64	16842.50
477.82	16772.28
478.00	17376.14
478.18	17198.26
478.36	17202.94
478.54	17441.67
478.72	17825.52
478.90	17827.86
479.08	18228.09
479.26	18143.83
479.44	18099.36
479.62	18314.69
479.80	18523.00
479.98	18876.42
480.16	18752.37
480.34	18923.23
480.52	19164.31
480.70	19407.72
480.88	18862.38
481.06	19227.50
481.24	19351.55
481.41	19728.38
481.59	19880.51
481.77	19861.79
481.95	20133.29
482.13	20519.48
482.31	19974.13
482.49	20690.34
482.67	20730.12
482.85	20842.47
483.03	21111.63
483.21	21504.84
483.39	21596.12
483.57	21465.05
483.74	21834.86
483.92	22087.64
484.10	21914.44
484.28	22452.76
484.46	22368.50
484.64	23183.01
484.82	22370.84
485.00	22848.31
485.18	23199.39
485.35	23697.92
485.53	23484.94
485.71	23489.62
485.89	23941.34
486.07	24049.00
486.25	24095.82
486.43	24154.33
486.61	24800.32
486.78	25242.68
486.96	24877.55
487.14	25249.70
487.32	25186.50
487.50	25568.01
487.68	25748.23
487.85	26040.80
488.03	26235.06
488.21	26525.29
488.39	26654.02
488.57	26883.39
488.75	26920.84
488.92	27204.05
489.10	27679.18
489.28	27695.56
489.46	27903.87
489.64	27826.63
489.81	28357.93
489.99	28362.61
490.17	28535.81
490.35	28905.62
490.53	29205.20
490.70	29359.68
490.88	29296.49
491.06	29591.39
491.24	29495.43
491.41	29968.22
491.59	29855.87
491.77	30555.69
491.95	30892.73
492.13	30649.32
492.30	30707.83
492.48	30850.60
492.66	31005.08
492.84	30787.41
493.01	31164.23
493.19	31625.32
493.37	32006.83
493.54	31960.02
493.72	32348.54
493.90	32336.84
494.08	32568.55
494.25	33106.88
494.43	32912.61
494.61	33507.11
494.79	33624.14
494.96	33905.00
495.14	33441.57
495.32	33928.41
495.49	34022.03
495.67	34338.00
495.85	34574.39
496.02	34579.07
496.20	35358.47
496.38	35182.93
496.55	34941.86
496.73	36091.06
496.91	35372.52
497.09	35697.85
497.26	35604.23
497.44	36034.89
497.62	36374.27
497.79	36802.58
497.97	36545.12
498.14	36903.23
498.32	36917.27
498.50	37469.64
498.67	37722.41
498.85	37443.89
499.03	37794.97
499.20	37727.10
499.38	38099.24
499.56	38047.75
499.73	38061.79
499.91	38368.40
500.08	39108.01
500.26	38426.92
500.44	38335.63
500.61	39096.31
500.79	39213.34
500.97	39112.69
501.14	39707.19
501.32	39402.92
501.49	39381.85
501.67	39550.37
501.84	39927.20
502.02	40289.98
502.20	39941.24
502.37	40273.60
502.55	40275.94
502.72	40509.99
502.90	40346.15
503.07	40194.02
503.25	40582.55
503.43	40765.11
503.60	41172.36
503.78	41200.45
503.95	41553.87
504.13	41380.67
504.30	41659.20
504.48	41277.69
504.65	41909.63
504.83	42431.57
505.01	42761.59
505.18	41916.65
505.36	42813.08
505.53	42384.76
505.71	42429.23
505.88	42614.13
506.06	42204.54
506.23	43299.91
506.41	43414.60
506.58	43414.60
506.76	43353.74
506.93	43473.11
507.11	43395.87
507.28	44172.93
507.46	44034.84
507.63	44247.83
507.81	44631.68
507.98	44217.40
508.16	44526.35
508.33	44109.74
508.50	44381.24
508.68	44577.84
508.85	45268.30
509.03	44865.73
509.20	45158.30
509.38	44980.42
509.55	45420.44
509.73	45591.30
509.90	45191.06
510.08	45329.16
510.25	45993.87
510.42	46157.70
510.60	46136.64
510.77	46630.49
510.95	46476.02
511.12	46019.61
511.30	46234.94
511.47	46548.57
511.64	46799.01
511.82	46859.87
511.99	46972.21
512.17	46864.55
512.34	46635.17
512.51	47384.15
512.69	47276.48
512.86	46944.12
513.04	47547.98
513.21	47566.71
513.38	47922.47
513.56	47782.04
513.73	47927.15
513.90	48163.54
514.08	47700.12
514.25	48397.60
514.43	48481.86
514.60	48720.59
514.77	48418.66
514.95	48809.53
515.12	48472.49
515.29	48303.98
515.47	48975.71
515.64	49132.53
515.81	48816.55
515.99	49287.00
516.16	49357.22
516.33	49628.72
516.51	49715.32
516.68	49734.04
516.85	49490.63
517.03	49811.28
517.20	49600.63
517.37	49773.83
517.54	50110.87
517.72	49914.26
517.89	49909.58
518.06	49677.87
518.24	50415.14
518.41	50206.83
518.58	50279.39
518.75	49993.84
518.93	50630.47
519.10	50541.53
519.27	50878.57
519.45	50403.44
519.62	50820.05
519.79	50705.37
519.96	50925.38
520.14	51068.15
520.31	50993.25
520.48	51306.88
520.65	51466.04
520.83	51723.50
521.00	51543.28
521.17	51119.64
521.34	51175.81
521.52	51805.42
521.69	51971.60
521.86	51885.00
522.03	51934.15
522.20	52093.30
522.38	52182.24
522.55	51882.66
522.72	52175.22
522.89	52039.47
523.07	52430.34
523.24	52514.60
523.41	52898.45
523.58	52299.27
523.75	52708.86
523.92	52498.22
524.10	52760.36
524.27	52760.36
524.44	52989.73
524.61	53176.97
524.78	53174.63
524.96	53282.30
525.13	53010.79
525.30	53387.62
525.47	53076.33
525.64	53389.96
525.81	53490.60
525.98	53647.42
526.16	53453.15
526.33	53453.15
526.50	53963.39
526.67	53535.07
526.84	53825.30
527.01	53455.50
527.18	53888.49
527.36	53801.89
527.53	54138.93
527.70	54073.40
527.87	54363.62
528.04	54045.31
528.21	54066.38
528.38	54038.29
528.55	54277.02
528.72	54244.26
528.89	54185.74
529.07	54059.35
529.24	54073.40
529.41	54581.29
529.58	54284.04
529.75	54412.77
529.92	54688.96
530.09	54475.97
530.26	54384.69
530.43	54677.25
530.60	54625.76
530.77	54693.64
530.94	55084.51
531.11	54976.84
531.28	54635.13
531.46	54911.31
531.63	55107.91
531.80	55119.62
531.97	55264.73
532.14	55444.95
532.31	55203.88
532.48	55393.46
532.65	55210.90
532.82	55072.81
532.99	55470.70
533.16	55339.63
533.33	55573.68
533.50	55781.99
533.67	55501.12
533.84	55503.46
534.01	55416.86
534.18	55484.74
534.35	55688.37
534.52	55625.17
534.69	55781.99
534.86	55973.91
535.03	55908.38
535.20	56097.96
535.37	55966.89
535.54	56142.43
535.71	55634.53
535.88	56004.34
536.05	55786.67
536.22	56184.56
536.38	56207.97
536.55	56327.33
536.72	56437.34
536.89	56126.05
537.06	56362.44
537.23	56453.72
537.40	56488.83
537.57	56383.51
537.74	56334.35
537.91	56381.16
538.08	56694.80
538.25	56470.11
538.42	56589.47
538.59	56577.77
538.75	56308.61
538.92	56699.48
539.09	56856.29
539.26	56711.18
539.43	57045.88
539.60	56917.15
539.77	56989.70
539.94	57244.82
540.11	57071.62
540.28	56879.70
540.44	57233.12
540.61	57183.97
540.78	57003.75
540.95	57256.53
541.12	57263.55
541.29	57354.83
541.46	57595.90
541.62	57350.15
541.79	57422.70
541.96	57092.69
542.13	57453.13
542.30	57516.32
542.47	57677.82
542.63	57710.59
542.80	57935.28
542.97	57904.85
543.14	58094.44
543.31	57862.72
543.48	57958.69
543.64	57954.00
543.81	57949.32
543.98	57989.11
544.15	58398.71
544.32	58120.18
544.48	58333.17
544.65	58012.52
544.82	58192.74
544.99	58047.63
545.16	58291.04
545.32	58129.54
545.49	58267.64
545.66	58759.15
545.83	58497.01
546.00	58937.03
546.16	58302.74
546.33	58356.58
546.50	57993.79
546.67	58534.46
546.83	58115.50
547.00	58614.04
547.17	58497.01
547.34	58504.03
547.50	58518.07
547.67	58707.66
547.84	58436.16
548.00	58873.84
548.17	58684.25
548.34	58494.67
548.51	59000.22
548.67	58962.78
548.84	58660.85
549.01	58733.40
549.18	58777.87
549.34	58829.37
549.51	58913.62
549.68	58920.65
549.84	58543.82
550.01	58932.35
550.18	58838.73
550.34	59112.57
550.51	59110.23
550.68	59154.70
550.84	59032.99
551.01	59157.04
551.18	58859.79
551.34	58920.65
551.51	58972.14
551.68	59157.04
551.84	59049.38
552.01	58866.81
552.18	59110.23
552.34	59091.51
552.51	59400.46
552.68	58918.31
552.84	59138.32
553.01	59351.30
553.18	59355.99
553.34	59437.90
553.51	59437.90
553.67	59517.48
553.84	59533.87
554.01	59522.16
554.17	59412.16
554.34	59437.90
554.51	59412.16
554.67	59334.92
554.84	59454.29
555.00	59440.24
555.17	59449.61
555.33	59611.10
555.50	59451.95
555.67	59505.78
555.83	59683.66
556.00	59517.48
556.16	59859.20
556.33	59711.75
556.50	59884.95
556.66	59884.95
556.83	59835.80
556.99	60016.02
557.16	59997.29
557.32	59779.62
557.49	60051.12
557.65	59732.81
557.82	59796.01
557.98	59587.70
558.15	59945.80
558.32	60097.94
558.48	59943.46
558.65	60037.08
558.81	60060.49
558.98	59861.54
559.14	59952.82
559.31	59901.33
559.47	59901.33
559.64	60001.97
559.80	60032.40
559.97	60172.83
560.13	59763.24
560.30	60301.56
560.46	60182.19
560.63	60257.09
560.79	60376.46
560.96	60310.92
561.12	60285.18
561.29	59990.27
561.45	60219.64
561.61	60355.39
561.78	60299.22
561.94	60355.39
562.11	60348.37
562.27	60163.47
562.44	60191.56
562.60	60346.03
562.77	60252.41
562.93	60268.79
563.10	60467.74
563.26	60119.00
563.42	60556.68
563.59	60423.27
563.75	60322.63
563.92	60554.34
564.08	60271.14
564.24	60486.46
564.41	60392.84
564.57	60479.44
564.74	60537.96
564.90	60453.70
565.07	60549.66
565.23	60594.13
565.39	60523.91
565.56	60708.82
565.72	60425.61
565.88	60683.07
566.05	60444.33
566.21	60460.72
566.38	60399.86
566.54	60666.69
566.70	60762.65
566.87	60811.80
567.03	60657.32
567.19	60622.22
567.36	60743.92
567.52	60633.92
567.68	60680.73
567.85	60526.25
568.01	60851.59
568.17	60561.36
568.34	60919.46
568.50	60821.16
568.66	60715.84
568.83	61013.08
568.99	60708.82
569.15	60865.63
569.32	60680.73
569.48	60708.82
569.64	60797.76
569.81	60800.10
569.97	60734.56
570.13	60804.78
570.30	60659.66
570.46	60879.67
570.62	60722.86
570.78	60853.93
570.95	60685.41
571.11	60837.54
571.27	60647.96
571.43	60652.64
571.60	60757.97
571.76	60704.13
571.92	60926.49
572.09	61090.32
572.25	60912.44
572.41	60970.96
572.57	61062.24
572.74	60973.30
572.90	60977.98
573.06	60949.89
573.22	61059.90
573.38	60973.30
573.55	61024.79
573.71	61017.77
573.87	61069.26
574.03	61139.47
574.20	61179.26
574.36	60776.69
574.52	60872.65
574.68	61160.54
574.84	61130.11
575.01	61179.26
575.17	61008.40
575.33	61167.56
575.49	61034.15
575.65	61289.27
575.82	61188.63
575.98	60711.16
576.14	61059.90
576.30	61125.43
576.46	60980.32
576.62	60882.02
576.79	61057.56
576.95	61045.85
577.11	61106.71
577.27	61132.45
577.43	61052.87
577.59	61125.43
577.75	61195.65
577.92	60928.83
578.08	61022.45
578.24	61017.77
578.40	61146.50
578.56	61109.05
578.72	61343.10
578.88	61319.70
579.04	61387.57
579.21	61279.91
579.37	61272.88
579.53	61200.33
579.69	60767.33
579.85	60874.99
580.01	61123.09
580.17	61036.49
580.33	61055.21
580.49	61202.67
580.65	61097.34
580.82	61036.49
580.98	61242.46
581.14	61183.94
581.30	61366.51
581.46	60973.30
581.62	61029.47
581.78	60926.49
581.94	61380.55
582.10	61261.18
582.26	61340.76
582.42	61322.04
582.58	61249.48
582.74	61270.54
582.90	61333.74
583.06	61265.86
583.22	61207.35
583.38	61137.13
583.54	61153.52
583.70	61305.65
583.86	61382.89
584.02	60999.04
584.18	61347.78
584.34	61396.93
584.50	61399.27
584.66	61375.87
584.82	61272.88
584.98	61062.24
585.14	61052.87
585.30	61090.32
585.46	61315.01
585.62	61165.22
585.78	61219.05
585.94	61076.28
586.10	61151.18
586.26	61504.60
586.42	61392.25
586.58	61551.41
586.74	61387.57
586.90	61197.99
587.06	61406.30
587.22	61375.87
587.38	61226.07
587.54	61502.26
587.70	61677.80
587.86	61387.57
588.02	61642.69
588.18	61352.46
588.34	61310.33
588.49	61572.47
588.65	61286.93
588.81	61469.49
588.97	61371.19
