SpectraSuite Data File
++++++++++++++++++++++++++++++++++++
Date: Fri Oct 04 11:40:07 GMT-05:00 2013
User: price-jones
Dark Spectrum Present: No
Reference Spectrum Present: No
Number of Sampled Component Spectra: 1
Spectrometers: USB2+H05261
Integration Time (usec): 100000 (USB2+H05261)
Spectra Averaged: 1 (USB2+H05261)
Boxcar Smoothing: 0 (USB2+H05261)
Correct for Electrical Dark: No (USB2+H05261)
Strobe/Lamp Enabled: No (USB2+H05261)
Correct for Detector Non-linearity: No (USB2+H05261)
Correct for Stray Light: No (USB2+H05261)
Number of Pixels in Processed Spectrum: 2048
>>>>>Begin Processed Spectral Data<<<<<
365.73	95.96
365.92	95.96
366.12	95.96
366.32	0.00
366.52	0.00
366.72	0.00
366.91	0.00
367.11	0.00
367.31	0.00
367.51	0.00
367.70	0.00
367.90	0.00
368.10	0.00
368.30	0.00
368.49	0.00
368.69	0.00
368.89	0.00
369.09	4.68
369.28	25.75
369.48	0.00
369.68	0.00
369.87	28.09
370.07	0.00
370.27	0.00
370.47	79.58
370.66	372.15
370.86	397.89
371.06	472.79
371.25	465.77
371.45	437.68
371.65	458.74
371.84	414.27
372.04	425.98
372.24	421.30
372.44	510.24
372.63	500.87
372.83	524.28
373.03	538.32
373.22	440.02
373.42	423.64
373.62	552.37
373.81	585.13
374.01	564.07
374.21	547.69
374.40	496.19
374.60	543.00
374.79	521.94
374.99	596.84
375.19	657.69
375.38	627.26
375.58	578.11
375.78	578.11
375.97	631.94
376.17	622.58
376.37	645.99
376.56	554.71
376.76	624.92
376.95	678.76
377.15	660.03
377.35	798.12
377.54	793.44
377.74	802.80
377.93	828.55
378.13	751.31
378.33	723.23
378.52	657.69
378.72	629.60
378.91	706.84
379.11	580.45
379.31	620.24
379.50	643.65
379.70	699.82
379.89	828.55
380.09	690.46
380.28	741.95
380.48	748.97
380.68	798.12
380.87	730.25
381.07	695.14
381.26	645.99
381.46	631.94
381.65	620.24
381.85	657.69
382.04	547.69
382.24	615.56
382.43	489.17
382.63	514.92
382.83	538.32
383.02	519.60
383.22	519.60
383.41	486.83
383.61	545.34
383.80	634.29
384.00	709.18
384.19	671.73
384.39	772.38
384.58	727.91
384.78	798.12
384.97	688.12
385.17	746.63
385.36	706.84
385.56	702.16
385.75	657.69
385.95	653.01
386.14	774.72
386.34	840.25
386.53	723.23
386.72	690.46
386.92	692.80
387.11	645.99
387.31	781.74
387.50	767.70
387.70	678.76
387.89	718.54
388.09	634.29
388.28	788.76
388.48	697.48
388.67	737.27
388.86	847.27
389.06	945.58
389.25	861.32
389.45	936.21
389.64	987.71
389.84	1043.88
390.03	964.30
390.22	950.26
390.42	1008.77
390.61	1008.77
390.81	1043.88
391.00	1036.86
391.19	1053.24
391.39	1053.24
391.58	961.96
391.78	889.40
391.97	929.19
392.16	821.53
392.36	732.59
392.55	676.41
392.75	631.94
392.94	519.60
393.13	489.17
393.33	540.66
393.52	657.69
393.71	737.27
393.91	800.46
394.10	905.79
394.29	889.40
394.49	1008.77
394.68	1121.12
394.88	1076.65
395.07	1165.59
395.26	1186.65
395.46	1078.99
395.65	1107.07
395.84	1032.18
396.04	922.17
396.23	816.85
396.42	564.07
396.62	629.60
396.81	653.01
397.00	788.76
397.19	957.28
397.39	1177.29
397.58	1252.19
397.77	1249.85
397.97	1401.98
398.16	1371.55
398.35	1411.34
398.55	1423.05
398.74	1441.77
398.93	1565.82
399.12	1481.56
399.32	1535.39
399.51	1540.07
399.70	1596.25
399.90	1514.33
400.09	1563.48
400.28	1556.46
400.47	1561.14
400.67	1713.27
400.86	1619.65
401.05	1771.79
401.24	1570.50
401.44	1603.27
401.63	1776.47
401.82	1699.23
402.01	1621.99
402.21	1652.42
402.40	1834.98
402.59	1748.38
402.78	1568.16
402.97	1540.07
403.17	1661.78
403.36	1790.51
403.55	1746.04
403.74	1682.85
403.93	1638.38
404.13	1647.74
404.32	1589.22
404.51	1563.48
404.70	1764.76
404.89	1713.27
405.09	1673.48
405.28	1675.82
405.47	1659.44
405.66	1647.74
405.85	1659.44
406.05	1600.93
406.24	1596.25
406.43	1687.53
406.62	1760.08
406.81	1832.64
407.00	1767.10
407.20	1708.59
407.39	1729.66
407.58	1706.25
407.77	1776.47
407.96	1809.23
408.15	1895.83
408.34	1959.03
408.54	1884.13
408.73	1947.33
408.92	1827.96
409.11	1762.42
409.30	1809.23
409.49	1701.57
409.68	1600.93
409.87	1554.12
410.07	1687.53
410.26	1654.76
410.45	1748.38
410.64	1891.15
410.83	1898.17
411.02	1994.14
411.21	2111.16
411.40	2120.53
411.59	2017.54
411.78	1998.82
411.98	1881.79
412.17	2033.93
412.36	2022.22
412.55	1933.28
412.74	1998.82
412.93	1949.67
413.12	2005.84
413.31	2129.89
413.50	2155.63
413.69	2092.44
413.88	2118.18
414.07	2019.88
414.26	2104.14
414.45	2050.31
414.64	2214.15
414.83	2099.46
415.02	2136.91
415.22	2029.24
415.41	2218.83
415.60	2263.30
415.79	2284.36
415.98	2251.60
416.17	2370.96
416.36	2319.47
416.55	2214.15
416.74	2181.38
416.93	2141.59
417.12	2211.81
417.31	2059.67
417.50	2167.34
417.69	2282.02
417.88	2307.77
418.07	2078.40
418.26	2143.93
418.45	2216.49
418.64	2230.53
418.83	2324.15
419.02	2246.91
419.21	2214.15
419.39	2120.53
419.58	2052.65
419.77	2040.95
419.96	2153.29
420.15	2291.38
420.34	2462.24
420.53	2361.60
420.72	2415.43
420.91	2455.22
421.10	2408.41
421.29	2349.90
421.48	2345.22
421.67	2548.84
421.86	2345.22
422.05	2328.83
422.24	2050.31
422.43	2054.99
422.61	2083.08
422.80	2296.07
422.99	2251.60
423.18	2256.28
423.37	2363.94
423.56	2272.66
423.75	2183.72
423.94	2253.94
424.13	2253.94
424.32	2195.42
424.50	2193.08
424.69	2134.57
424.88	2150.95
425.07	2179.04
425.26	2136.91
425.45	2188.40
425.64	2026.90
425.83	2179.04
426.01	2335.85
426.20	2359.26
426.39	2200.10
426.58	2132.23
426.77	1966.05
426.96	1923.92
427.15	2057.33
427.33	2078.40
427.52	2200.10
427.71	2223.51
427.90	2153.29
428.09	2134.57
428.28	2186.06
428.46	2139.25
428.65	1994.14
428.84	2190.74
429.03	2106.48
429.22	2076.06
429.40	1949.67
429.59	1858.39
429.78	1685.19
429.97	1542.41
430.16	1603.27
430.34	1668.80
430.53	1629.01
430.72	1757.74
430.91	1708.59
431.10	2101.80
431.28	2380.32
431.47	2546.50
431.66	2541.82
431.85	2422.45
432.03	2223.51
432.22	2169.68
432.41	2214.15
432.60	2345.22
432.79	2490.33
432.97	2651.83
433.16	2438.84
433.35	2305.43
433.54	2111.16
433.72	1968.39
433.91	2078.40
434.10	2073.71
434.28	2319.47
434.47	2450.54
434.66	2473.95
434.85	2459.90
435.03	2572.25
435.22	2722.04
435.41	2853.11
435.59	2834.39
435.78	2712.68
435.97	2771.19
436.16	2780.56
436.34	2628.42
436.53	2607.36
436.72	2640.12
436.90	2530.12
437.09	2530.12
437.28	2478.63
437.46	2558.21
437.65	2597.99
437.84	2441.18
438.02	2200.10
438.21	2169.68
438.40	2132.23
438.58	2370.96
438.77	2399.05
438.96	2502.03
439.14	2729.06
439.33	2775.88
439.52	2649.49
439.70	2656.51
439.89	2588.63
440.08	2616.72
440.26	2502.03
440.45	2623.74
440.63	2726.72
440.82	2806.30
441.01	2773.53
441.19	2871.84
441.38	2846.09
441.57	2888.22
441.75	3075.46
441.94	2995.89
442.12	2984.18
442.31	3030.99
442.50	3035.67
442.68	2946.73
442.87	3038.02
443.05	2885.88
443.24	3030.99
443.43	3030.99
443.61	3136.32
443.80	3145.68
443.98	2995.89
444.17	2960.78
444.35	3185.47
444.54	3098.87
444.73	3204.19
444.91	3110.57
445.10	2864.82
445.28	2857.79
445.47	2773.53
445.65	2801.62
445.84	2906.95
446.02	2899.92
446.21	2932.69
446.39	3002.91
446.58	2986.52
446.77	3009.93
446.95	3103.55
447.14	3213.56
447.32	3332.92
447.51	3143.34
447.69	3091.85
447.88	3009.93
448.06	3199.51
448.25	3204.19
448.43	3183.13
448.62	3155.04
448.80	2953.76
448.99	3213.56
449.17	3115.25
449.36	3021.63
449.54	3192.49
449.73	3365.69
449.91	3300.16
450.10	3342.28
450.28	3496.76
450.46	3529.53
450.65	3438.25
450.83	3365.69
451.02	3428.88
451.20	3246.32
451.39	3283.77
451.57	3283.77
451.76	3316.54
451.94	3246.32
452.13	3197.17
452.31	3115.25
452.49	2956.10
452.68	2956.10
452.86	2972.48
453.05	3019.29
453.23	3110.57
453.42	3080.14
453.60	3243.98
453.78	3251.00
453.97	3159.72
454.15	3297.81
454.34	3150.36
454.52	3014.61
454.70	3180.79
454.89	3164.40
455.07	3148.02
455.26	3166.74
455.44	3318.88
455.62	3407.82
455.81	3234.62
455.99	3243.98
456.17	3379.73
456.36	3276.75
456.54	3253.34
456.73	3382.07
456.91	3377.39
457.09	3487.40
457.28	3543.57
457.46	3442.93
457.64	3419.52
457.83	3302.50
458.01	3192.49
458.19	3304.84
458.38	3351.65
458.56	3564.64
458.74	3375.05
458.93	3361.01
459.11	3293.13
459.29	3351.65
459.48	3358.67
459.66	3410.16
459.84	3304.84
460.03	3417.18
460.21	3412.50
460.39	3536.55
460.57	3515.48
460.76	3597.40
460.94	3482.72
461.12	3480.38
461.31	3515.48
461.49	3379.73
461.67	3461.65
461.85	3576.34
462.04	3613.79
462.22	3990.61
462.40	3623.15
462.59	3550.59
462.77	3478.04
462.95	3571.66
463.13	3475.70
463.32	3478.04
463.50	3391.44
463.68	3452.29
463.86	3382.07
464.05	3337.60
464.23	3461.65
464.41	3433.57
464.59	3255.69
464.78	3438.25
464.96	3461.65
465.14	3426.54
465.32	3513.14
465.50	3529.53
465.69	3606.77
465.87	3548.25
466.05	3531.87
466.23	3304.84
466.41	3269.73
466.60	3251.00
466.78	3272.07
466.96	3524.85
467.14	3468.67
467.32	3555.27
467.51	3478.04
467.69	3351.65
467.87	3578.68
468.05	3471.01
468.23	3534.21
468.41	3417.18
468.60	3473.36
468.78	3545.91
468.96	3363.35
469.14	3426.54
469.32	3501.44
469.50	3421.86
469.69	3442.93
469.87	3358.67
470.05	3276.75
470.23	3288.45
470.41	3346.97
470.59	3431.23
470.77	3503.78
470.95	3471.01
471.14	3529.53
471.32	3536.55
471.50	3599.74
471.68	3831.46
471.86	3578.68
472.04	3625.49
472.22	3854.86
472.40	3538.89
472.58	3646.55
472.77	3536.55
472.95	3438.25
473.13	3637.19
473.31	3531.87
473.49	3597.40
473.67	3538.89
473.85	3700.39
474.03	3794.01
474.21	3751.88
474.39	3934.44
474.57	3932.10
474.75	3763.58
474.93	3716.77
475.12	3866.56
475.30	3772.94
475.48	3735.50
475.66	3768.26
475.84	3777.62
476.02	3824.44
476.20	3552.93
476.38	3700.39
476.56	3826.78
476.74	3763.58
476.92	3882.95
477.10	3864.22
477.28	3932.10
477.46	4072.53
477.64	4140.41
477.82	4084.23
478.00	4138.07
478.18	4037.42
478.36	4072.53
478.54	3962.53
478.72	4121.68
478.90	4252.75
479.08	4334.67
479.26	4362.76
479.44	4379.14
479.62	4238.71
479.80	4304.25
479.98	4339.35
480.16	4290.20
480.34	4299.56
480.52	4465.74
480.70	4533.62
480.88	4425.95
481.06	4479.79
481.24	4552.34
481.41	4580.43
481.59	4748.95
481.77	4678.73
481.95	4489.15
482.13	4620.22
482.31	4589.79
482.49	4678.73
482.67	4624.90
482.85	4760.65
483.03	4800.44
483.21	4894.06
483.39	4767.67
483.57	4535.96
483.74	4770.01
483.92	4690.43
484.10	4655.33
484.28	4898.74
484.46	4791.08
484.64	5022.79
484.82	4856.61
485.00	4697.46
485.18	4615.54
485.35	4650.64
485.53	4166.15
485.71	4138.07
485.89	3803.37
486.07	3983.59
486.25	4332.33
486.43	4545.32
486.61	4732.56
486.78	4690.43
486.96	4561.70
487.14	4760.65
487.32	4844.91
487.50	5046.20
487.68	5320.04
487.85	5280.25
488.03	5331.74
488.21	5385.57
488.39	5167.90
488.57	5107.05
488.75	5074.28
488.92	5387.91
489.10	5441.75
489.28	5603.24
489.46	5753.04
489.64	5781.12
489.81	6029.22
489.99	5612.60
490.17	5874.74
490.35	5968.37
490.53	5767.08
490.70	5643.03
490.88	5507.28
491.06	5734.31
491.24	5811.55
491.41	5710.91
491.59	5589.20
491.77	5308.34
491.95	5437.06
492.13	5486.22
492.30	5809.21
492.48	5940.28
492.66	5919.21
492.84	6108.80
493.01	6043.26
493.19	5947.30
493.37	5846.66
493.54	5877.09
493.72	5940.28
493.90	6085.39
494.08	6162.63
494.25	6279.66
494.43	6263.27
494.61	6342.85
494.79	6581.59
494.96	6377.96
495.14	6312.42
495.32	6251.57
495.49	5926.24
495.67	6195.40
495.85	6399.02
496.02	6572.22
496.20	6541.80
496.38	6558.18
496.55	6438.81
496.73	6424.77
496.91	6223.48
497.09	6593.29
497.26	6775.85
497.44	6640.10
497.62	6654.14
497.79	6286.68
497.97	6244.55
498.14	6087.73
498.32	6361.58
498.50	6518.39
498.67	6696.27
498.85	6665.85
499.03	6740.74
499.20	6651.80
499.38	6698.61
499.56	6616.69
499.73	6504.35
499.91	6359.24
500.08	6497.33
500.26	6076.03
500.44	6300.72
500.61	6314.77
500.79	6406.05
500.97	6317.11
501.14	6347.53
501.32	6410.73
501.49	6359.24
501.67	6244.55
501.84	6300.72
502.02	6492.65
502.20	6682.23
502.37	6607.33
502.55	6363.92
502.72	6553.50
502.90	6785.21
503.07	6551.16
503.25	6476.26
503.43	6204.76
503.60	6099.44
503.78	5991.77
503.95	6272.64
504.13	6335.83
504.30	6787.55
504.48	6656.48
504.65	6600.31
504.83	6593.29
505.01	6640.10
505.18	6635.42
505.36	6916.28
505.53	6881.18
505.71	7077.78
505.88	7140.97
506.06	7000.54
506.23	6970.12
506.41	6567.54
506.58	6899.90
506.76	6696.27
506.93	6597.97
507.11	6717.34
507.28	6789.89
507.46	6668.19
507.63	6647.12
507.81	6424.77
507.98	6445.84
508.16	6794.58
508.33	6717.34
508.50	6832.02
508.68	7049.69
508.85	7293.11
509.03	7002.88
509.20	7075.44
509.38	6860.11
509.55	6822.66
509.73	6663.51
509.90	6988.84
510.08	6850.75
510.25	6993.52
510.42	6946.71
510.60	6892.88
510.77	6993.52
510.95	7176.08
511.12	7201.83
511.30	7171.40
511.47	7346.94
511.64	7410.14
511.82	7311.83
511.99	6977.14
512.17	6951.39
512.34	6619.04
512.51	6869.47
512.69	6850.75
512.86	6806.28
513.04	6970.12
513.21	7012.24
513.38	6834.36
513.56	6724.36
513.73	6853.09
513.90	6635.42
514.08	6771.17
514.25	6960.75
514.43	6836.70
514.60	6895.22
514.77	7000.54
514.95	6951.39
515.12	6813.30
515.29	6981.82
515.47	7016.93
515.64	7183.10
515.81	7300.13
515.99	7066.08
516.16	6665.85
516.33	6188.38
516.51	5919.21
516.68	5727.29
516.85	5661.76
517.03	5774.10
517.20	6094.76
517.37	6984.16
517.54	6771.17
517.72	6792.23
517.89	6424.77
518.06	5872.40
518.24	5895.81
518.41	6244.55
518.58	6616.69
518.75	6619.04
518.93	6855.43
519.10	6883.52
519.27	6911.60
519.45	6876.49
519.62	7012.24
519.79	7201.83
519.96	7115.23
520.14	7087.14
520.31	6995.86
520.48	6796.92
520.65	6719.68
520.83	7026.29
521.00	7094.16
521.17	7248.64
521.34	6909.26
521.52	7089.48
521.69	7227.57
521.86	7258.00
522.03	7234.60
522.20	7101.19
522.38	6794.58
522.55	6586.27
522.72	6780.53
522.89	6902.24
523.07	7082.46
523.24	6857.77
523.41	7208.85
523.58	7335.24
523.75	7468.65
523.92	7227.57
524.10	7325.88
524.27	7447.58
524.44	7307.15
524.61	7431.20
524.78	7152.68
524.96	7300.13
525.13	7197.15
525.30	7370.35
525.47	7243.96
525.64	7534.18
525.81	7250.98
525.98	6937.35
526.16	6759.47
526.33	6431.79
526.50	6237.53
526.67	6328.81
526.84	6242.21
527.01	6525.41
527.18	6658.82
527.36	6810.96
527.53	7052.03
527.70	7370.35
527.87	7084.80
528.04	6963.09
528.21	6951.39
528.38	7082.46
528.55	7452.27
528.72	7597.38
528.89	7630.15
529.07	7576.31
529.24	7351.62
529.41	7229.91
529.58	6998.20
529.75	7169.06
529.92	7059.06
530.09	7026.29
530.26	7293.11
530.43	7351.62
530.60	7424.18
530.77	7517.80
530.94	7609.08
531.11	7492.05
531.28	7269.70
531.46	7225.23
531.63	7236.94
531.80	7335.24
531.97	7169.06
532.14	6979.48
532.31	6857.77
532.48	6647.12
532.65	6663.51
532.82	6560.52
532.99	6949.05
533.16	7122.25
533.33	7372.69
533.50	7286.09
533.67	7026.29
533.84	7054.37
534.01	7073.10
534.18	6949.05
534.35	7073.10
534.52	6991.18
534.69	7283.75
534.86	7360.98
535.03	7248.64
535.20	7332.90
535.37	7489.71
535.54	7543.55
535.71	7449.93
535.88	7452.27
536.05	7197.15
536.22	7119.91
536.38	7119.91
536.55	7066.08
536.72	6871.81
536.89	6740.74
537.06	7012.24
537.23	7269.70
537.40	7225.23
537.57	7225.23
537.74	7239.28
537.91	7321.20
538.08	7297.79
538.25	7241.62
538.42	7440.56
538.59	7349.28
538.75	7117.57
538.92	7063.74
539.09	7007.56
539.26	6960.75
539.43	6916.28
539.60	7040.33
539.77	6946.71
539.94	6920.96
540.11	6820.32
540.28	6677.55
540.44	6640.10
540.61	6715.00
540.78	6817.98
540.95	6939.69
541.12	7173.74
541.29	7192.47
541.46	7243.96
541.62	7236.94
541.79	7215.87
541.96	7089.48
542.13	7066.08
542.30	7059.06
542.47	7094.16
542.63	7162.04
542.80	7007.56
542.97	7014.59
543.14	6956.07
543.31	6766.49
543.48	7171.40
543.64	7335.24
543.81	7445.24
543.98	7330.56
544.15	7293.11
544.32	7276.73
544.48	7061.40
544.65	7267.36
544.82	7389.07
544.99	7136.29
545.16	7166.72
545.32	7103.53
545.49	7344.60
545.66	7857.18
545.83	7644.19
546.00	7620.78
546.16	7330.56
546.33	7332.90
546.50	7014.59
546.67	6867.13
546.83	7101.19
547.00	7185.44
547.17	7000.54
547.34	6916.28
547.50	6876.49
547.67	6876.49
547.84	6829.68
548.00	6932.67
548.17	7094.16
548.34	6878.83
548.51	7080.12
548.67	7059.06
548.84	7005.22
549.01	6998.20
549.18	7155.02
549.34	7070.76
549.51	6956.07
549.68	6995.86
549.84	6892.88
550.01	6843.73
550.18	6860.11
550.34	6979.48
550.51	7105.87
550.68	6979.48
550.84	6979.48
551.01	6885.86
551.18	6745.42
551.34	6869.47
551.51	6862.45
551.68	7059.06
551.84	7115.23
552.01	7007.56
552.18	6995.86
552.34	6754.79
552.51	6590.95
552.68	6633.08
552.84	6801.60
553.01	6817.98
553.18	6712.66
553.34	6846.07
553.51	6656.48
553.67	6892.88
553.84	7023.95
554.01	6839.05
554.17	6696.27
554.34	6813.30
554.51	6918.62
554.67	7035.65
554.84	6935.01
555.00	6965.43
555.17	6841.39
555.33	6843.73
555.50	6902.24
555.67	6796.92
555.83	6686.91
556.00	6740.74
556.16	6815.64
556.33	6696.27
556.50	6518.39
556.66	6455.20
556.83	6457.54
556.99	6651.80
557.16	6560.52
557.32	6670.53
557.49	6628.40
557.65	6539.46
557.82	6541.80
557.98	6698.61
558.15	6574.56
558.32	6349.87
558.48	6338.17
558.65	6078.37
558.81	6230.51
558.98	6111.14
559.14	6413.07
559.31	6469.24
559.47	6597.97
559.64	6324.13
559.80	6200.08
559.97	6352.21
560.13	6284.34
560.30	6628.40
560.46	6607.33
560.63	6612.01
560.79	6715.00
560.96	6539.46
561.12	6532.44
561.29	6286.68
561.45	6176.67
561.61	6366.26
561.78	6455.20
561.94	6455.20
562.11	6457.54
562.27	6284.34
562.44	6237.53
562.60	6487.96
562.77	6483.28
562.93	6406.05
563.10	6438.81
563.26	6366.26
563.42	6420.09
563.59	6457.54
563.75	6211.78
563.92	6303.06
564.08	6153.27
564.24	6321.79
564.41	6478.60
564.57	6305.40
564.74	6487.96
564.90	6476.26
565.07	6312.42
565.23	6251.57
565.39	6092.41
565.56	6101.78
565.72	6111.14
565.88	6097.10
566.05	6108.80
566.21	6134.54
566.38	6169.65
566.54	6277.32
566.70	6193.06
566.87	6338.17
567.03	6277.32
567.19	6312.42
567.36	6200.08
567.52	6244.55
567.68	6188.38
567.85	6031.56
568.01	5963.68
568.17	5694.52
568.34	5724.95
568.50	5706.23
568.66	5631.33
568.83	5902.83
568.99	5837.30
569.15	5689.84
569.32	5935.60
569.48	5628.99
569.64	5708.57
569.81	5748.36
569.97	5863.04
570.13	5973.05
570.30	5933.26
570.46	5699.20
570.62	5713.25
570.78	5612.60
570.95	5584.52
571.11	5816.23
571.27	5741.33
571.43	5727.29
571.60	5729.63
571.76	5729.63
571.92	5841.98
572.09	5865.38
572.25	5930.92
572.41	5804.53
572.57	5902.83
572.74	5837.30
572.90	5830.27
573.06	5837.30
573.22	5666.44
573.38	5900.49
573.55	5682.82
573.71	5912.19
573.87	5760.06
574.03	5563.45
574.20	5781.12
574.36	5575.16
574.52	5558.77
574.68	5706.23
574.84	5717.93
575.01	5640.69
575.17	5526.00
575.33	5572.82
575.49	5526.00
575.65	5804.53
575.82	5596.22
575.98	5565.79
576.14	5568.13
576.30	5633.67
576.46	5776.44
576.62	5874.74
576.79	5813.89
576.95	5673.46
577.11	5551.75
577.27	5556.43
577.43	5701.54
577.59	5652.39
577.75	5603.24
577.92	5296.63
578.08	5394.93
578.24	5350.46
578.40	5451.11
578.56	5495.58
578.72	5687.50
578.88	5774.10
579.04	5628.99
579.21	5579.84
579.37	5863.04
579.53	5621.97
579.69	5797.51
579.85	5762.40
580.01	5724.95
580.17	5689.84
580.33	5593.88
580.49	5650.05
580.65	5554.09
580.82	5617.29
580.98	5540.05
581.14	5701.54
581.30	5753.04
581.46	5633.67
581.62	5664.10
581.78	5816.23
581.94	5584.52
582.10	5713.25
582.26	5612.60
582.42	5701.54
582.58	5818.57
582.74	5666.44
582.90	5659.42
583.06	5575.16
583.22	5753.04
583.38	5713.25
583.54	5661.76
583.70	5500.26
583.86	5713.25
584.02	5736.65
584.18	5687.50
584.34	5699.20
584.50	5598.56
584.66	5537.71
584.82	5521.32
584.98	5661.76
585.14	5502.60
585.30	5504.94
585.46	5280.25
585.62	5153.86
585.78	5460.47
585.94	5298.97
586.10	5338.76
586.26	5263.86
586.42	5451.11
586.58	5416.00
586.74	5394.93
586.90	5252.16
587.06	5348.12
587.22	5320.04
587.38	5259.18
587.54	5177.26
587.70	5032.15
587.86	4994.70
588.02	4908.10
588.18	4793.42
588.34	4683.41
588.49	4234.03
588.65	4060.83
588.81	3899.33
588.97	3988.27
589.13	4074.87
589.29	3915.72
589.45	3859.54
589.61	4002.32
589.77	4229.35
589.93	4393.19
590.08	4372.12
590.24	4599.15
590.40	4638.94
590.56	4781.71
590.72	4545.32
590.88	4594.47
591.04	4615.54
591.20	4566.39
591.35	4627.24
591.51	4592.13
591.67	4458.72
591.83	4456.38
591.99	4458.72
592.15	4388.50
592.31	4540.64
592.46	4697.46
592.62	4678.73
592.78	4704.48
592.94	4748.95
593.10	4849.59
593.26	4858.95
593.41	4868.31
593.57	4835.55
593.73	4692.77
593.89	4503.19
594.05	4257.43
594.20	4322.97
594.36	4271.48
594.52	4128.70
594.68	4322.97
594.84	4491.49
594.99	4601.49
595.15	4557.02
595.31	4587.45
595.47	4667.03
595.62	4580.43
595.78	4819.16
595.94	4727.88
596.10	4985.34
596.25	4720.86
596.41	4662.35
596.57	4449.36
596.73	4575.75
596.88	4704.48
597.04	4732.56
597.20	4720.86
597.36	4519.57
597.51	4561.70
597.67	4559.36
