SpectraSuite Data File
++++++++++++++++++++++++++++++++++++
Date: Tue Oct 01 18:27:29 GMT-05:00 2013
User: stostad
Dark Spectrum Present: No
Reference Spectrum Present: No
Number of Sampled Component Spectra: 1
Spectrometers: USB2+H05261
Integration Time (usec): 100000 (USB2+H05261)
Spectra Averaged: 1 (USB2+H05261)
Boxcar Smoothing: 0 (USB2+H05261)
Correct for Electrical Dark: No (USB2+H05261)
Strobe/Lamp Enabled: No (USB2+H05261)
Correct for Detector Non-linearity: No (USB2+H05261)
Correct for Stray Light: No (USB2+H05261)
Number of Pixels in Processed Spectrum: 2048
>>>>>Begin Processed Spectral Data<<<<<
365.73	51.49
365.92	51.49
366.12	51.49
366.32	2.34
366.52	0.00
366.72	25.75
366.91	0.00
367.11	32.77
367.31	0.00
367.51	0.00
367.70	0.00
367.90	0.00
368.10	0.00
368.30	0.00
368.49	0.00
368.69	0.00
368.89	0.00
369.09	0.00
369.28	9.36
369.48	0.00
369.68	28.09
369.87	2.34
370.07	35.11
370.27	112.35
370.47	63.19
370.66	252.78
370.86	292.57
371.06	250.44
371.25	339.38
371.45	339.38
371.65	283.20
371.84	259.80
372.04	304.27
372.24	433.00
372.44	308.95
372.63	367.46
372.83	421.30
373.03	479.81
373.22	404.91
373.42	451.72
373.62	521.94
373.81	440.02
374.01	493.85
374.21	430.66
374.40	507.90
374.60	528.96
374.79	418.96
374.99	437.68
375.19	482.15
375.38	449.38
375.58	484.49
375.78	421.30
375.97	477.47
376.17	486.83
376.37	491.51
376.56	496.19
376.76	505.56
376.95	500.87
377.15	461.09
377.35	517.26
377.54	482.15
377.74	519.60
377.93	475.13
378.13	482.15
378.33	430.66
378.52	580.45
378.72	543.00
378.91	538.32
379.11	592.16
379.31	463.43
379.50	465.77
379.70	540.66
379.89	545.34
380.09	531.30
380.28	596.84
380.48	575.77
380.68	547.69
380.87	524.28
381.07	528.96
381.26	589.82
381.46	641.31
381.65	510.24
381.85	580.45
382.04	613.22
382.24	566.41
382.43	587.47
382.63	671.73
382.83	587.47
383.02	695.14
383.22	627.26
383.41	617.90
383.61	627.26
383.80	669.39
384.00	575.77
384.19	641.31
384.39	599.18
384.58	662.37
384.78	660.03
384.97	608.54
385.17	638.97
385.36	681.10
385.56	664.71
385.75	603.86
385.95	711.52
386.14	720.88
386.34	606.20
386.53	716.20
386.72	760.67
386.92	767.70
387.11	770.04
387.31	734.93
387.50	753.65
387.70	753.65
387.89	674.07
388.09	755.99
388.28	723.23
388.48	723.23
388.67	753.65
388.86	720.88
389.06	741.95
389.25	812.17
389.45	816.85
389.64	718.54
389.84	807.48
390.03	791.10
390.22	781.74
390.42	741.95
390.61	734.93
390.81	746.63
391.00	781.74
391.19	826.21
391.39	863.66
391.58	826.21
391.78	758.33
391.97	809.83
392.16	835.57
392.36	938.55
392.55	875.36
392.75	819.19
392.94	887.06
393.13	983.02
393.33	954.94
393.52	922.17
393.71	954.94
393.91	863.66
394.10	873.02
394.29	994.73
394.49	936.21
394.68	968.98
394.88	933.87
395.07	945.58
395.26	961.96
395.46	1043.88
395.65	1001.75
395.84	1090.69
396.04	1107.07
396.23	1062.60
396.42	1116.44
396.62	1139.84
396.81	1118.78
397.00	1048.56
397.19	1053.24
397.39	1090.69
397.58	1039.20
397.77	1060.26
397.97	1081.33
398.16	1123.46
398.35	1231.12
398.55	1095.37
398.74	1125.80
398.93	1261.55
399.12	1219.42
399.32	1078.99
399.51	1107.07
399.70	1121.12
399.90	1130.48
400.09	1294.32
400.28	1387.94
400.47	1210.06
400.67	1306.02
400.86	1327.08
401.05	1322.40
401.24	1259.21
401.44	1338.79
401.63	1338.79
401.82	1336.45
402.01	1291.98
402.21	1364.53
402.40	1453.47
402.59	1385.60
402.78	1423.05
402.97	1357.51
403.17	1549.43
403.36	1446.45
403.55	1432.41
403.74	1502.62
403.93	1378.58
404.13	1476.88
404.32	1558.80
404.51	1540.07
404.70	1612.63
404.89	1626.67
405.09	1666.46
405.28	1659.44
405.47	1664.12
405.66	1757.74
405.85	1732.00
406.05	1713.27
406.24	1703.91
406.43	1713.27
406.62	1746.04
406.81	1724.97
407.00	1781.15
407.20	1741.36
407.39	1757.74
407.58	1818.60
407.77	1811.57
407.96	1839.66
408.15	1966.05
408.34	1921.58
408.54	1940.30
408.73	1935.62
408.92	1940.30
409.11	2015.20
409.30	1947.33
409.49	2038.61
409.68	2005.84
409.87	2012.86
410.07	2099.46
410.26	2050.31
410.45	2087.76
410.64	2155.63
410.83	2113.50
411.02	2148.61
411.21	2235.21
411.40	2249.25
411.59	2181.38
411.78	2244.57
411.98	2272.66
412.17	2256.28
412.36	2410.75
412.55	2368.62
412.74	2443.52
412.93	2410.75
413.12	2495.01
413.31	2413.09
413.50	2441.18
413.69	2464.58
413.88	2612.04
414.07	2546.50
414.26	2534.80
414.45	2539.48
414.64	2583.95
414.83	2635.44
415.02	2810.98
415.22	2778.22
415.41	2764.17
415.60	2712.68
415.79	2792.26
415.98	2888.22
416.17	2864.82
416.36	2890.56
416.55	2944.39
416.74	2967.80
416.93	2883.54
417.12	3033.33
417.31	2991.20
417.50	2909.29
417.69	3260.37
417.88	3148.02
418.07	3059.08
418.26	3117.59
418.45	3255.69
418.64	3248.66
418.83	3251.00
419.02	3192.49
419.21	3248.66
419.39	3246.32
419.58	3241.64
419.77	3349.31
419.96	3389.10
420.15	3379.73
420.34	3286.11
420.53	3637.19
420.72	3438.25
420.91	3323.56
421.10	3492.08
421.29	3487.40
421.48	3461.65
421.67	3463.99
421.86	3438.25
422.05	3588.04
422.24	3489.74
422.43	3492.08
422.61	3618.47
422.80	3698.05
422.99	3599.74
423.18	3606.77
423.37	3735.50
423.56	3639.53
423.75	3688.68
423.94	3602.08
424.13	3445.27
424.32	3590.38
424.50	3847.84
424.69	3740.18
424.88	3805.71
425.07	3644.21
425.26	3667.62
425.45	3705.07
425.64	3709.75
425.83	3559.95
426.01	3761.24
426.20	3613.79
426.39	3733.15
426.58	3620.81
426.77	3864.22
426.96	3653.58
427.15	3826.78
427.33	3868.91
427.52	3946.14
427.71	3922.74
427.90	3927.42
428.09	3969.55
428.28	4032.74
428.46	3960.19
428.65	4091.26
428.84	4138.07
429.03	4084.23
429.22	3950.82
429.40	4058.49
429.59	4105.30
429.78	3873.59
429.97	3955.51
430.16	4018.70
430.34	4124.02
430.53	4208.28
430.72	4315.95
430.91	4241.05
431.10	4201.26
431.28	4273.82
431.47	4325.31
431.66	4360.42
431.85	4301.90
432.03	4425.95
432.22	4414.25
432.41	4395.53
432.60	4545.32
432.79	4432.97
432.97	4519.57
433.16	4500.85
433.35	4517.23
433.54	4482.13
433.72	4493.83
433.91	4414.25
434.10	4631.92
434.28	4472.76
434.47	4589.79
434.66	4704.48
434.85	4620.22
435.03	4777.03
435.22	4744.27
435.41	4849.59
435.59	4732.56
435.78	4711.50
435.97	4840.23
436.16	4870.65
436.34	4704.48
436.53	4873.00
436.72	4997.04
436.90	4826.18
437.09	4964.28
437.28	4926.83
437.46	4983.00
437.65	5048.54
437.84	5008.75
438.02	5090.67
438.21	5078.96
438.40	5055.56
438.58	5282.59
438.77	5181.95
438.96	5284.93
439.14	5100.03
439.33	5261.52
439.52	5345.78
439.70	5530.69
439.89	5518.98
440.08	5497.92
440.26	5462.81
440.45	5570.48
440.63	5446.43
440.82	5685.16
441.01	5593.88
441.19	5591.54
441.38	5867.72
441.57	5858.36
441.75	5650.05
441.94	5790.49
442.12	5891.13
442.31	6059.65
442.50	6031.56
442.68	5886.45
442.87	5994.11
443.05	6085.39
443.24	6195.40
443.43	6188.38
443.61	6197.74
443.80	6387.32
443.98	6036.24
444.17	5930.92
444.35	6054.97
444.54	6256.25
444.73	6260.93
444.91	6237.53
445.10	6200.08
445.28	6190.72
445.47	6235.19
445.65	6328.81
445.84	6228.17
446.02	6314.77
446.21	6207.10
446.39	6317.11
446.58	6417.75
446.77	6368.60
446.95	6363.92
447.14	6225.82
447.32	6387.32
447.51	6380.30
447.69	6399.02
447.88	6574.56
448.06	6387.32
448.25	6265.61
448.43	6590.95
448.62	6427.11
448.80	6534.78
448.99	6597.97
449.17	6581.59
449.36	6413.07
449.54	6597.97
449.73	6724.36
449.91	6586.27
450.10	6576.91
450.28	6829.68
450.46	6731.38
450.65	6850.75
450.83	6960.75
451.02	6841.39
451.20	6752.45
451.39	6904.58
451.57	6939.69
451.76	6958.41
451.94	6864.79
452.13	6913.94
452.31	7047.35
452.49	7016.93
452.68	6958.41
452.86	6967.77
453.05	7035.65
453.23	7037.99
453.42	7208.85
453.60	7002.88
453.78	7124.59
453.97	7143.32
454.15	7019.27
454.34	7056.72
454.52	7206.51
454.70	7307.15
454.89	7375.03
455.07	7258.00
455.26	7339.92
455.44	7428.86
455.62	7372.69
455.81	7447.58
455.99	7520.14
456.17	7480.35
456.36	7386.73
456.54	7632.49
456.73	7796.32
456.91	7702.70
457.09	7779.94
457.28	7840.79
457.46	7784.62
457.64	7880.58
457.83	8039.74
458.01	7805.69
458.19	7990.59
458.38	7896.97
458.56	8039.74
458.74	7969.52
458.93	7969.52
459.11	7939.10
459.29	8091.23
459.48	8226.98
459.66	8070.17
459.84	8252.73
460.03	8397.84
460.21	8116.98
460.39	8278.47
460.57	8285.50
460.76	8241.03
460.94	8386.14
461.12	8421.25
461.31	8402.52
461.49	8564.02
461.67	8437.63
461.85	8772.33
462.04	8676.37
462.22	9055.53
462.40	8613.17
462.59	8512.53
462.77	8482.10
462.95	8793.39
463.13	8716.16
463.32	9048.51
463.50	9004.04
463.68	8819.14
463.86	8723.18
464.05	8549.98
464.23	8840.20
464.41	8807.44
464.59	8596.79
464.78	9022.77
464.96	9064.89
465.14	8999.36
465.32	8957.23
465.50	9116.39
465.69	9231.07
465.87	9050.85
466.05	9057.87
466.23	9055.53
466.41	9198.31
466.60	9437.04
466.78	9100.00
466.96	9128.09
467.14	9238.09
467.32	9273.20
467.51	9465.13
467.69	9074.26
467.87	9275.54
468.05	9404.27
468.23	9305.97
468.41	9212.35
468.60	9401.93
468.78	9762.37
468.96	9554.07
469.14	9474.49
469.32	9467.47
469.50	9294.27
469.69	9806.84
469.87	9954.30
470.05	9858.34
470.23	9633.64
470.41	9783.44
470.59	9717.90
470.77	9792.80
470.95	9944.94
471.14	10092.39
471.32	9916.85
471.50	10408.36
471.68	9907.49
471.86	10221.12
472.04	10246.87
472.22	10544.11
472.40	10052.60
472.58	10298.36
472.77	10368.57
472.95	10581.56
473.13	10740.72
473.31	10658.80
473.49	10539.43
473.67	10581.56
473.85	10551.14
474.03	10792.21
474.21	11169.04
474.39	11005.20
474.57	11002.86
474.75	11370.32
474.93	11330.53
475.12	11178.40
475.30	11274.36
475.48	11112.86
475.66	11534.16
475.84	11379.68
476.02	11480.33
476.20	11403.09
476.38	11922.69
476.56	11990.56
476.74	12009.29
476.92	11852.47
477.10	11943.75
477.28	11999.93
477.46	12023.33
477.64	12121.63
477.82	12210.57
478.00	12489.10
478.18	12613.15
478.36	12861.24
478.54	12877.63
478.72	12814.43
478.90	13027.42
479.08	13266.16
479.26	13158.49
479.44	13350.42
479.62	13481.49
479.80	13270.84
479.98	13373.82
480.16	13792.78
480.34	13771.71
480.52	13731.92
480.70	13996.40
480.88	13919.17
481.06	14036.19
481.24	13958.96
481.41	14321.74
481.59	14518.34
481.77	14595.58
481.95	14923.26
482.13	14726.65
482.31	14719.63
482.49	15257.95
482.67	15304.76
482.85	15515.41
483.03	15744.78
483.21	15667.55
483.39	15719.04
483.57	15585.63
483.74	15831.38
483.92	16187.14
484.10	16182.46
484.28	16493.76
484.46	16493.76
484.64	16844.84
484.82	16821.43
485.00	16889.31
485.18	17259.11
485.35	17144.42
485.53	17003.99
485.71	17434.65
485.89	17673.39
486.07	17558.70
486.25	18012.76
486.43	17968.29
486.61	18015.10
486.78	18342.78
486.96	18073.62
487.14	18324.05
487.32	18478.53
487.50	18487.89
487.68	18871.74
487.85	19089.41
488.03	19307.08
488.21	19295.38
488.39	19590.28
488.57	19576.24
488.75	19613.69
488.92	20063.07
489.10	20173.08
489.28	20376.70
489.46	20346.28
489.64	20126.27
489.81	21097.59
489.99	20971.20
490.17	21160.78
490.35	21568.04
490.53	21462.71
490.70	21488.46
490.88	21553.99
491.06	21488.46
491.24	21898.05
491.41	21766.98
491.59	22295.94
491.77	22396.59
491.95	22520.63
492.13	21972.95
492.30	22508.93
492.48	22333.39
492.66	22827.24
492.84	22913.84
493.01	23566.85
493.19	23058.96
493.37	23513.02
493.54	23426.42
493.72	23700.26
493.90	23889.85
494.08	24123.90
494.25	24533.50
494.43	24205.82
494.61	24439.87
494.79	24189.44
494.96	24748.82
495.14	24664.57
495.32	25153.74
495.49	24905.64
495.67	25387.79
495.85	25448.64
496.02	25371.41
496.20	25443.96
496.38	25359.70
496.55	25734.19
496.73	26115.70
496.91	26199.96
497.09	26094.63
497.26	26445.71
497.44	26211.66
497.62	26586.15
497.79	26934.88
497.97	27145.53
498.14	27133.83
498.32	27101.06
498.50	27292.99
498.67	27461.51
498.85	27395.97
499.03	27613.64
499.20	27850.03
499.38	27903.87
499.56	28084.09
499.73	28030.26
499.91	28418.78
500.08	28336.87
500.26	28039.62
500.44	28540.49
500.61	28879.87
500.79	28673.90
500.97	28954.77
501.14	29226.27
501.32	29106.90
501.49	29043.71
501.67	29312.87
501.84	29181.80
502.02	29399.47
502.20	29893.32
502.37	29769.27
502.55	29432.24
502.72	30099.29
502.90	29528.20
503.07	29937.79
503.25	30118.01
503.43	30457.39
503.60	30366.11
503.78	30368.45
503.95	30501.86
504.13	30331.00
504.30	30890.39
504.48	30920.82
504.65	31110.40
504.83	31328.07
505.01	31782.13
505.18	30792.09
505.36	31522.34
505.53	31124.44
505.71	31335.09
505.88	31545.74
506.06	31662.77
506.23	32098.11
506.41	31990.44
506.58	31927.25
506.76	31896.82
506.93	32343.86
507.11	32336.84
507.28	32748.78
507.46	32643.45
507.63	32648.13
507.81	32634.09
507.98	32559.19
508.16	32598.98
508.33	32847.08
508.50	33406.47
508.68	33015.60
508.85	33589.03
509.03	33160.71
509.20	33425.19
509.38	33448.60
509.55	33752.87
509.73	33762.23
509.90	33757.55
510.08	33518.81
510.25	33975.22
510.42	34366.09
510.60	34347.36
510.77	34780.36
510.95	34590.78
511.12	34663.33
511.30	34354.38
511.47	34841.21
511.64	34869.30
511.82	35056.54
511.99	34672.70
512.17	34682.06
512.34	35339.75
512.51	35171.23
512.69	35503.59
512.86	35351.45
513.04	36126.17
513.21	35976.37
513.38	36151.91
513.56	35632.32
513.73	35967.01
513.90	36182.34
514.08	36041.91
514.25	36402.35
514.43	36634.06
514.60	36360.22
514.77	36397.67
514.95	36811.95
515.12	36680.88
515.29	36346.18
515.47	37001.53
515.64	37354.95
515.81	36919.61
515.99	37378.36
516.16	37647.52
516.33	37031.96
516.51	37563.26
516.68	37530.49
516.85	37703.69
517.03	38258.40
517.20	38122.65
517.37	37614.75
517.54	37738.80
517.72	38085.20
517.89	37928.38
518.06	37713.05
518.24	37989.24
518.41	37897.95
518.58	38352.02
518.75	38321.59
518.93	38623.52
519.10	38543.94
519.27	38675.01
519.45	38892.68
519.62	38604.80
519.79	39112.69
519.96	38534.58
520.14	39309.30
520.31	39014.39
520.48	39096.31
520.65	38969.92
520.83	39512.92
521.00	39433.35
521.17	39601.86
521.34	39821.87
521.52	39931.88
521.69	39889.75
521.86	39777.40
522.03	40020.82
522.20	39730.59
522.38	40140.19
522.55	40730.00
522.72	40355.52
522.89	40126.14
523.07	40479.57
523.24	40254.87
523.41	40945.33
523.58	39959.97
523.75	40978.10
523.92	40542.76
524.10	41053.00
524.27	41191.09
524.44	41258.96
524.61	41706.01
524.78	41455.57
524.96	41242.58
525.13	40940.65
525.30	41476.63
525.47	41724.73
525.64	41518.76
525.81	41951.76
525.98	41687.28
526.16	41354.93
526.33	41869.84
526.50	42309.86
526.67	42078.15
526.84	42157.73
527.01	42223.26
527.18	42405.83
527.36	42415.19
527.53	42607.11
527.70	42665.63
527.87	42520.51
528.04	42859.89
528.21	42635.20
528.38	43056.50
528.55	42873.93
528.72	43187.56
528.89	43086.92
529.07	42841.17
529.24	43012.02
529.41	42997.98
529.58	42590.73
529.75	43323.32
529.92	43543.33
530.09	43180.54
530.26	43529.28
530.43	43402.89
530.60	43232.04
530.77	43468.43
530.94	43896.75
531.11	43608.86
531.28	43665.03
531.46	43545.67
531.63	44025.48
531.80	44140.16
531.97	44123.78
532.14	44374.22
532.31	44027.82
532.48	43871.00
532.65	44594.23
532.82	44254.85
532.99	44598.91
533.16	44282.94
533.33	44566.14
533.50	44933.60
533.67	44531.03
533.84	44341.45
534.01	44720.62
534.18	44917.22
534.35	44886.79
534.52	45113.83
534.69	44980.42
534.86	45450.86
535.03	44701.89
535.20	44739.34
535.37	45125.53
535.54	45558.53
535.71	45116.17
535.88	45378.31
536.05	44903.18
536.22	45708.32
536.38	45818.33
536.55	45315.11
536.72	45394.69
536.89	45523.42
537.06	45556.19
537.23	45762.15
537.40	45818.33
537.57	45823.01
537.74	45771.52
537.91	46092.17
538.08	45986.85
538.25	45607.68
538.42	45897.91
538.59	46424.53
538.75	45888.54
538.92	46398.78
539.09	46672.62
539.26	46820.08
539.43	46691.35
539.60	46539.21
539.77	46459.63
539.94	46813.05
540.11	46658.58
540.28	46972.21
540.44	46981.57
540.61	46810.71
540.78	46878.59
540.95	46791.99
541.12	46742.84
541.29	46604.75
541.46	46644.54
541.62	46775.61
541.79	47122.01
541.96	46581.34
542.13	47131.37
542.30	47437.98
542.47	47477.77
542.63	47285.84
542.80	47641.60
542.97	47538.62
543.14	48062.90
543.31	47531.60
543.48	48079.28
543.64	48072.26
543.81	47990.34
543.98	47917.79
544.15	48168.22
544.32	47885.02
544.48	48287.59
544.65	47838.21
544.82	48182.27
544.99	48205.67
545.16	48596.54
545.32	48137.80
545.49	48502.92
545.66	48528.67
545.83	48032.47
546.00	48542.71
546.16	48451.43
546.33	48381.21
546.50	48325.04
546.67	48900.81
546.83	48233.76
547.00	48624.63
547.17	48615.27
547.34	48851.66
547.50	48418.66
547.67	49043.59
547.84	48783.79
548.00	49031.88
548.17	49338.49
548.34	48868.05
548.51	49123.16
548.67	48989.75
548.84	48844.64
549.01	48971.03
549.18	48849.32
549.34	48870.39
549.51	49139.55
549.68	49441.48
549.84	49158.27
550.01	49097.42
550.18	49308.07
550.34	49511.69
550.51	49689.57
550.68	49130.19
550.84	49228.49
551.01	49389.98
551.18	49118.48
551.34	49890.86
551.51	49586.59
551.68	49710.64
551.84	50085.12
552.01	49680.21
552.18	49439.14
552.34	49429.77
552.51	49993.84
552.68	49336.15
552.84	49832.35
553.01	50059.38
553.18	50115.55
553.34	49996.18
553.51	49815.96
553.67	49925.97
553.84	50012.57
554.01	50342.58
554.17	50195.13
554.34	50370.67
554.51	50473.65
554.67	50532.17
554.84	50351.94
555.00	50525.14
555.17	50204.49
555.33	50562.59
555.50	50057.04
555.67	50129.59
555.83	50078.10
556.00	50663.24
556.16	51093.89
556.33	50880.91
556.50	50618.77
556.66	50745.15
556.83	50543.87
556.99	50981.55
557.16	50674.94
557.32	50691.32
557.49	50738.13
557.65	50541.53
557.82	50578.98
557.98	50787.28
558.15	50908.99
558.32	50876.22
558.48	50852.82
558.65	50806.01
558.81	51091.55
558.98	50777.92
559.14	50817.71
559.31	50813.03
559.47	51070.49
559.64	51381.78
559.80	50941.76
559.97	51033.04
560.13	50749.84
560.30	50930.06
560.46	50820.05
560.63	51023.68
560.79	51089.21
560.96	51126.66
561.12	51728.18
561.29	51327.95
561.45	51182.84
561.61	51241.35
561.78	51292.84
561.94	51133.68
562.11	51498.81
562.27	50979.21
562.44	51154.75
562.60	51489.45
562.77	51629.88
562.93	51503.49
563.10	51704.77
563.26	51330.29
563.42	51845.21
563.59	51374.76
563.75	51482.42
563.92	51533.92
564.08	51524.55
564.24	51519.87
564.41	51332.63
564.57	51524.55
564.74	51278.80
564.90	51889.68
565.07	51508.17
565.23	51760.95
565.39	51622.86
565.56	51554.98
565.72	51437.95
565.88	51653.28
566.05	51409.87
566.21	51622.86
566.38	51838.18
566.54	51667.33
566.70	51838.18
566.87	51861.59
567.03	51639.24
567.19	51913.08
567.36	51669.67
567.52	51372.42
567.68	51779.67
567.85	51760.95
568.01	52032.45
568.17	51966.91
568.34	52060.54
568.50	51435.61
568.66	51756.27
568.83	51852.23
568.99	51519.87
569.15	51660.30
569.32	51903.72
569.48	51896.70
569.64	51985.64
569.81	52191.61
569.97	51824.14
570.13	52222.03
570.30	51945.85
570.46	51770.31
570.62	51697.75
570.78	51789.03
570.95	51807.76
571.11	52406.94
571.27	52062.88
571.43	52100.32
571.60	52388.21
571.76	52030.11
571.92	51877.97
572.09	52046.49
572.25	52006.70
572.41	52018.41
572.57	52079.26
572.74	52189.27
572.90	52088.62
573.06	52196.29
573.22	52186.92
573.38	52292.25
573.55	52205.65
573.71	52229.05
573.87	52271.18
574.03	51770.31
574.20	51959.89
574.36	51744.56
574.52	52041.81
574.68	52238.42
574.84	52662.05
575.01	52409.28
575.17	52390.55
575.33	51920.10
575.49	52023.09
575.65	52076.92
575.82	52339.06
575.98	51852.23
576.14	52341.40
576.30	52327.36
576.46	52435.02
576.62	52428.00
576.79	52463.11
576.95	52044.15
577.11	52051.17
577.27	52207.99
577.43	52364.81
577.59	52219.69
577.75	52175.22
577.92	52240.76
578.08	52182.24
578.24	52313.31
578.40	52250.12
578.56	52161.18
578.72	52322.68
578.88	52584.82
579.04	52612.90
579.21	52182.24
579.37	52229.05
579.53	52451.41
579.69	52486.51
579.85	52425.66
580.01	52282.89
580.17	52509.92
580.33	52463.11
580.49	52484.17
580.65	52678.44
580.82	52507.58
580.98	52217.35
581.14	52521.62
581.30	52575.45
581.46	52793.12
581.62	52348.42
581.78	52495.88
581.94	52664.39
582.10	52397.57
582.26	52409.28
582.42	52074.58
582.58	52170.54
582.74	52287.57
582.90	52491.19
583.06	52645.67
583.22	52582.48
583.38	52725.25
583.54	52692.48
583.70	53104.41
583.86	52690.14
584.02	52231.40
584.18	52392.89
584.34	52360.12
584.50	52678.44
584.66	52388.21
584.82	52456.09
584.98	52598.86
585.14	52552.05
585.30	52512.26
585.46	52722.91
585.62	52762.70
585.78	52645.67
585.94	52259.48
586.10	52428.00
586.26	52299.27
586.42	52378.85
586.58	52453.75
586.74	52676.10
586.90	52589.50
587.06	52566.09
587.22	53029.52
587.38	52296.93
587.54	52975.69
587.70	52788.44
587.86	52451.41
588.02	52800.15
588.18	52755.68
588.34	52313.31
588.49	52495.88
588.65	52493.54
588.81	52631.63
588.97	53010.79
589.13	52912.49
589.29	52795.46
589.45	52694.82
589.61	52552.05
589.77	53048.24
589.93	52942.92
590.08	52926.53
590.24	52769.72
590.40	53155.91
