SpectraSuite Data File
++++++++++++++++++++++++++++++++++++
Date: Fri Oct 04 11:39:47 GMT-05:00 2013
User: price-jones
Dark Spectrum Present: No
Reference Spectrum Present: No
Number of Sampled Component Spectra: 1
Spectrometers: USB2+H05261
Integration Time (usec): 100000 (USB2+H05261)
Spectra Averaged: 1 (USB2+H05261)
Boxcar Smoothing: 0 (USB2+H05261)
Correct for Electrical Dark: No (USB2+H05261)
Strobe/Lamp Enabled: No (USB2+H05261)
Correct for Detector Non-linearity: No (USB2+H05261)
Correct for Stray Light: No (USB2+H05261)
Number of Pixels in Processed Spectrum: 2048
>>>>>Begin Processed Spectral Data<<<<<
365.73	93.62
365.92	93.62
366.12	93.62
366.32	0.00
366.52	0.00
366.72	0.00
366.91	0.00
367.11	0.00
367.31	0.00
367.51	0.00
367.70	0.00
367.90	9.36
368.10	0.00
368.30	0.00
368.49	0.00
368.69	0.00
368.89	4.68
369.09	0.00
369.28	0.00
369.48	0.00
369.68	11.70
369.87	0.00
370.07	37.45
370.27	63.19
370.47	126.39
370.66	451.72
370.86	500.87
371.06	498.53
371.25	610.88
371.45	571.09
371.65	601.52
371.84	479.81
372.04	599.18
372.24	564.07
372.44	592.16
372.63	507.90
372.83	734.93
373.03	594.50
373.22	660.03
373.42	669.39
373.62	683.44
373.81	697.48
374.01	763.01
374.21	699.82
374.40	753.65
374.60	795.78
374.79	702.16
374.99	706.84
375.19	763.01
375.38	772.38
375.58	800.46
375.78	851.96
375.97	744.29
376.17	854.30
376.37	786.42
376.56	739.61
376.76	791.10
376.95	809.83
377.15	830.89
377.35	833.23
377.54	758.33
377.74	840.25
377.93	814.51
378.13	835.57
378.33	877.70
378.52	905.79
378.72	905.79
378.91	915.15
379.11	842.59
379.31	910.47
379.50	870.68
379.70	922.17
379.89	926.85
380.09	898.77
380.28	868.34
380.48	971.32
380.68	952.60
380.87	961.96
381.07	936.21
381.26	1006.43
381.46	971.32
381.65	987.71
381.85	1013.45
382.04	1032.18
382.24	1104.73
382.43	1114.10
382.63	1062.60
382.83	1013.45
383.02	1029.84
383.22	1165.59
383.41	1104.73
383.61	1057.92
383.80	1104.73
384.00	1102.39
384.19	1107.07
384.39	1128.14
384.58	1158.57
384.78	1078.99
384.97	1184.31
385.17	1146.86
385.36	1149.20
385.56	1214.74
385.75	1153.88
385.95	1228.78
386.14	1160.91
386.34	1135.16
386.53	1151.54
386.72	1128.14
386.92	1273.25
387.11	1256.87
387.31	1301.34
387.50	1191.33
387.70	1313.04
387.89	1350.49
388.09	1322.40
388.28	1261.55
388.48	1348.15
388.67	1284.95
388.86	1348.15
389.06	1327.08
389.25	1387.94
389.45	1301.34
389.64	1404.32
389.84	1434.75
390.03	1364.53
390.22	1357.51
390.42	1338.79
390.61	1432.41
390.81	1504.96
391.00	1465.18
391.19	1390.28
391.39	1441.77
391.58	1462.83
391.78	1577.52
391.97	1586.88
392.16	1467.52
392.36	1575.18
392.55	1605.61
392.75	1547.09
392.94	1540.07
393.13	1558.80
393.33	1629.01
393.52	1619.65
393.71	1802.21
393.91	1614.97
394.10	1652.42
394.29	1715.61
394.49	1563.48
394.68	1755.40
394.88	1785.83
395.07	1827.96
395.26	1762.42
395.46	1699.23
395.65	1827.96
395.84	1778.81
396.04	1865.41
396.23	1860.73
396.42	1795.19
396.62	1893.49
396.81	1898.17
397.00	1886.47
397.19	1853.70
397.39	1916.90
397.58	2111.16
397.77	2026.90
397.97	1947.33
398.16	1989.46
398.35	2047.97
398.55	2125.21
398.74	2094.78
398.93	2108.82
399.12	2143.93
399.32	2132.23
399.51	2036.27
399.70	2078.40
399.90	2064.35
400.09	2223.51
400.28	2293.72
400.47	2303.09
400.67	2172.02
400.86	2190.74
401.05	2200.10
401.24	2193.08
401.44	2291.38
401.63	2230.53
401.82	2333.51
402.01	2214.15
402.21	2359.26
402.40	2328.83
402.59	2303.09
402.78	2324.15
402.97	2448.20
403.17	2649.49
403.36	2574.59
403.55	2422.45
403.74	2450.54
403.93	2626.08
404.13	2619.06
404.32	2527.78
404.51	2579.27
404.70	2684.59
404.89	2682.25
405.09	2806.30
405.28	2572.25
405.47	2710.34
405.66	2698.64
405.85	2839.07
406.05	2794.60
406.24	2829.71
406.43	2768.85
406.62	2810.98
406.81	2878.86
407.00	2766.51
407.20	2895.24
407.39	2979.50
407.58	3023.97
407.77	2977.16
407.96	3026.31
408.15	3019.29
408.34	3089.51
408.54	3075.46
408.73	3094.19
408.92	3155.04
409.11	3054.40
409.30	3145.68
409.49	3199.51
409.68	3255.69
409.87	3323.56
410.07	3391.44
410.26	3400.80
410.45	3353.99
410.64	3520.17
410.83	3445.27
411.02	3433.57
411.21	3473.36
411.40	3541.23
411.59	3590.38
411.78	3496.76
411.98	3534.21
412.17	3566.98
412.36	3768.26
412.55	3796.35
412.74	3749.54
412.93	3786.99
413.12	3779.97
413.31	3859.54
413.50	3782.31
413.69	3904.01
413.88	3995.29
414.07	4049.13
414.26	4124.02
414.45	4189.56
414.64	4002.32
414.83	4222.33
415.02	4135.73
415.22	4337.01
415.41	4278.50
415.60	4351.06
415.79	4484.47
415.98	4503.19
416.17	4440.00
416.36	4514.89
416.55	4587.45
416.74	4704.48
416.93	4519.57
417.12	4557.02
417.31	4854.27
417.50	4844.91
417.69	4835.55
417.88	4844.91
418.07	4835.55
418.26	4924.49
418.45	4905.76
418.64	5074.28
418.83	5064.92
419.02	5146.84
419.21	5041.51
419.39	5252.16
419.58	4992.36
419.77	5088.32
419.96	5256.84
420.15	5128.11
420.34	5165.56
420.53	5228.76
420.72	5596.22
420.91	5364.51
421.10	5518.98
421.29	5476.85
421.48	5338.76
421.67	5483.88
421.86	5528.35
422.05	5638.35
422.24	5481.53
422.43	5626.65
422.61	5643.03
422.80	5563.45
422.99	5715.59
423.18	5682.82
423.37	5643.03
423.56	5664.10
423.75	5624.31
423.94	5528.35
424.13	5200.67
424.32	5631.33
424.50	5755.38
424.69	5696.86
424.88	5701.54
425.07	5638.35
425.26	5586.86
425.45	5727.29
425.64	5811.55
425.83	5715.59
426.01	5891.13
426.20	5673.46
426.39	5989.43
426.58	5760.06
426.77	5879.43
426.96	5888.79
427.15	5933.26
427.33	5858.36
427.52	6036.24
427.71	6059.65
427.90	5909.85
428.09	6087.73
428.28	6010.50
428.46	6265.61
428.65	6108.80
428.84	6274.98
429.03	6457.54
429.22	6099.44
429.40	6389.66
429.59	6303.06
429.78	6197.74
429.97	6272.64
430.16	6333.49
430.34	6452.86
430.53	6457.54
430.72	6696.27
430.91	6457.54
431.10	6331.15
431.28	6499.67
431.47	6764.15
431.66	6834.36
431.85	6654.14
432.03	6860.11
432.22	6874.15
432.41	6789.89
432.60	7124.59
432.79	6775.85
432.97	7061.40
433.16	6944.37
433.35	7009.90
433.54	7042.67
433.72	6986.50
433.91	7030.97
434.10	7140.97
434.28	7136.29
434.47	7248.64
434.66	7206.51
434.85	7225.23
435.03	7389.07
435.22	7569.29
435.41	7852.50
435.59	7873.56
435.78	7609.08
435.97	7651.21
436.16	7695.68
436.34	7606.74
436.53	7667.60
436.72	7606.74
436.90	7672.28
437.09	7550.57
437.28	7578.65
437.46	7632.49
437.65	7651.21
437.84	7934.42
438.02	8016.33
438.21	8072.51
438.40	7747.17
438.58	8098.25
438.77	8119.32
438.96	8135.70
439.14	8325.29
439.33	8152.09
439.52	8587.43
439.70	8622.53
439.89	8507.85
440.08	8688.07
440.26	8615.51
440.45	8592.11
440.63	8889.35
440.82	8908.08
441.01	8802.75
441.19	8975.95
441.38	8922.12
441.57	9050.85
441.75	9214.69
441.94	9308.31
442.12	9242.78
442.31	9614.92
442.50	9549.39
442.68	9364.48
442.87	9530.66
443.05	9437.04
443.24	9624.28
443.43	9603.22
443.61	9692.16
443.80	10038.56
443.98	9577.47
444.17	9341.08
444.35	9542.36
444.54	9923.87
444.73	9811.53
444.91	9928.55
445.10	9872.38
445.28	9914.51
445.47	9703.86
445.65	9706.20
445.84	9654.71
446.02	10057.28
446.21	10073.67
446.39	9832.59
446.58	10038.56
446.77	9933.23
446.95	9666.41
447.14	9888.76
447.32	10178.99
447.51	9984.73
447.69	9839.61
447.88	10272.61
448.06	9982.38
448.25	9888.76
448.43	10083.03
448.62	10026.86
448.80	10085.37
448.99	10057.28
449.17	10352.19
449.36	10136.86
449.54	10532.41
449.73	10534.75
449.91	10520.71
450.10	10647.10
450.28	10710.29
450.46	10448.15
450.65	10677.52
450.83	10546.45
451.02	10721.99
451.20	10890.51
451.39	10846.04
451.57	10946.69
451.76	10747.74
451.94	10630.71
452.13	11052.01
452.31	11035.63
452.49	10906.90
452.68	11052.01
452.86	11047.33
453.05	11173.72
453.23	11283.72
453.42	10930.30
453.60	10981.79
453.78	11143.29
453.97	11138.61
454.15	11318.83
454.34	11234.57
454.52	11641.82
454.70	11503.73
454.89	11459.26
455.07	11564.59
455.26	11637.14
455.44	11754.17
455.62	11754.17
455.81	11634.80
455.99	11800.98
456.17	11971.84
456.36	11742.47
456.54	12013.97
456.73	12074.82
456.91	12531.23
457.09	12489.10
457.28	12507.82
457.46	12245.68
457.64	12592.08
457.83	12306.54
458.01	12327.60
458.19	12533.57
458.38	12585.06
458.56	12746.56
458.74	12645.91
458.93	12723.15
459.11	12938.48
459.29	12657.62
459.48	12868.27
459.66	12547.61
459.84	13004.02
460.03	13266.16
460.21	12865.92
460.39	13032.10
460.57	13004.02
460.76	13207.64
460.94	13198.28
461.12	13135.09
461.31	13172.54
461.49	13366.80
461.67	13092.96
461.85	13493.19
462.04	13493.19
462.22	13977.68
462.40	13635.96
462.59	13504.89
462.77	13902.78
462.95	13900.44
463.13	13685.11
463.32	13673.41
463.50	13844.27
463.68	14171.94
463.86	14106.41
464.05	14001.08
464.23	13862.99
464.41	13982.36
464.59	13743.63
464.78	14401.32
464.96	13942.57
465.14	13905.12
465.32	14286.63
465.50	14406.00
465.69	14623.67
465.87	14251.52
466.05	14464.51
466.23	14366.21
466.41	14420.04
466.60	15030.92
466.78	14558.13
466.96	14593.24
467.14	14647.07
467.32	14618.99
467.51	14977.09
467.69	14403.66
467.87	14862.40
468.05	14888.15
468.23	14508.98
468.41	14682.18
468.60	15026.24
468.78	14981.77
468.96	15082.41
469.14	15131.56
469.32	15267.31
469.50	15037.94
469.69	15613.71
469.87	15822.02
470.05	15765.85
470.23	15552.86
470.41	15513.07
470.59	15681.59
470.77	15524.77
470.95	15854.79
471.14	16116.93
471.32	15737.76
471.50	16306.51
471.68	15899.26
471.86	16219.91
472.04	16379.07
472.22	16868.24
472.40	16217.57
472.58	16594.40
472.77	16776.96
472.95	16980.59
473.13	17310.60
473.31	17067.19
473.49	16868.24
473.67	16884.62
473.85	17156.13
474.03	17343.37
474.21	17207.62
474.39	17273.15
474.57	17731.90
474.75	17778.71
474.93	17605.51
475.12	17837.22
475.30	17977.65
475.48	18185.96
475.66	18097.02
475.84	18157.88
476.02	18501.93
476.20	18324.05
476.38	18726.63
476.56	18838.97
476.74	19365.59
476.92	18752.37
477.10	18801.52
477.28	19491.98
477.46	19398.36
477.64	19171.33
477.82	19983.49
478.00	20219.89
478.18	20264.36
478.36	20198.82
478.54	20528.84
478.72	20500.75
478.90	20812.04
479.08	21123.33
479.26	21191.21
479.44	21195.89
479.62	21469.73
479.80	21476.76
479.98	21727.19
480.16	21982.31
480.34	21874.65
480.52	22530.00
480.70	22380.20
480.88	22001.04
481.06	22436.38
481.24	22469.14
481.41	22679.79
481.59	23206.41
481.77	23241.52
481.95	23152.58
482.13	23927.30
482.31	23482.59
482.49	24348.59
482.67	24467.96
482.85	24526.47
483.03	24968.84
483.21	24999.26
483.39	25317.57
483.57	25177.14
483.74	25572.69
483.92	25589.08
484.10	25607.80
484.28	26078.25
484.46	26394.22
484.64	27101.06
484.82	26405.92
485.00	26773.39
485.18	27201.71
485.35	27309.37
485.53	27222.77
485.71	27833.65
485.89	28173.03
486.07	28196.43
486.25	28105.15
486.43	28479.64
486.61	28645.82
486.78	28861.15
486.96	29249.67
487.14	29741.19
487.32	29511.81
487.50	29869.92
487.68	29752.89
487.85	30534.63
488.03	31009.76
488.21	31246.15
488.39	31283.60
488.57	31419.35
488.75	31793.84
488.92	31744.69
489.10	32112.15
489.28	32474.93
489.46	32807.29
489.64	32706.65
489.81	33542.22
489.99	33055.39
490.17	33649.88
490.35	33706.05
490.53	33666.27
490.70	34312.25
490.88	34132.03
491.06	34380.13
491.24	34323.96
491.41	34792.06
491.59	35276.55
491.77	35337.41
491.95	35550.40
492.13	35597.21
492.30	35913.18
492.48	35981.06
492.66	35981.06
492.84	36123.83
493.01	36989.83
493.19	37413.46
493.37	37399.42
493.54	37528.15
493.72	37773.91
493.90	37752.84
494.08	37834.76
494.25	38569.69
494.43	38635.22
494.61	39058.86
494.79	39150.14
494.96	39030.77
495.14	39021.41
495.32	39643.99
495.49	39751.66
495.67	40098.06
495.85	40514.67
496.02	40540.42
496.20	40685.53
496.38	40575.53
496.55	40776.81
496.73	41851.12
496.91	41734.09
497.09	42047.72
497.26	41771.54
497.44	41481.31
497.62	41998.57
497.79	42588.39
497.97	42546.26
498.14	43180.54
498.32	43269.48
498.50	43157.14
498.67	44046.54
498.85	43054.15
499.03	43622.90
499.20	43938.88
499.38	43866.32
499.56	44491.24
499.73	44598.91
499.91	45130.21
500.08	45186.38
500.26	44339.11
500.44	44800.19
500.61	45081.06
500.79	45078.72
500.97	45296.39
501.14	45902.59
501.32	46092.17
501.49	45750.45
501.67	45682.58
501.84	45841.73
502.02	46103.87
502.20	46780.29
502.37	46726.46
502.55	46850.50
502.72	46796.67
502.90	46745.18
503.07	46906.68
503.25	47119.66
503.43	47152.43
503.60	47718.84
503.78	47749.27
503.95	47725.86
504.13	47812.46
504.30	47995.03
504.48	47758.63
504.65	48114.39
504.83	48472.49
505.01	48856.34
505.18	48271.21
505.36	49263.60
505.53	49050.61
505.71	49312.75
505.88	49256.57
506.06	48823.58
506.23	49558.50
506.41	49495.31
506.58	49993.84
506.76	49570.21
506.93	49902.56
507.11	49448.50
507.28	50052.36
507.46	50075.76
507.63	50178.75
507.81	50960.48
507.98	50115.55
508.16	50195.13
508.33	50553.23
508.50	50703.03
508.68	50728.77
508.85	51042.40
509.03	50916.01
509.20	51285.82
509.38	51622.86
509.55	51419.23
509.73	51760.95
509.90	51571.36
510.08	51194.54
510.25	51620.52
510.42	51852.23
510.60	52367.15
510.77	52203.31
510.95	52046.49
511.12	51646.26
511.30	52062.88
511.47	52523.96
511.64	52479.49
511.82	52774.40
511.99	52846.96
512.17	53078.67
512.34	52739.29
512.51	53116.12
512.69	53195.70
512.86	53195.70
513.04	53553.80
513.21	53509.33
513.38	53628.69
513.56	53609.97
513.73	53609.97
513.90	53815.94
514.08	53680.19
514.25	53694.23
514.43	54152.97
514.60	53947.01
514.77	54115.53
514.95	54136.59
515.12	54082.76
515.29	54082.76
515.47	54330.86
515.64	54705.34
515.81	54279.36
515.99	54831.73
516.16	54796.62
516.33	54780.24
516.51	54850.45
516.68	54864.50
516.85	54845.77
517.03	55030.68
517.20	55430.91
517.37	55131.32
517.54	55348.99
517.72	55267.07
517.89	55196.85
518.06	55679.00
518.24	55309.20
518.41	55337.29
518.58	55346.65
518.75	55398.14
518.93	55889.65
519.10	55592.40
519.27	56048.81
519.45	55655.60
519.62	55835.82
519.79	56046.47
519.96	56086.26
520.14	56168.18
520.31	56020.72
520.48	56360.10
520.65	56046.47
520.83	56589.47
521.00	56294.56
521.17	56341.38
521.34	56561.39
521.52	56500.53
521.69	56720.54
521.86	56774.37
522.03	57066.94
522.20	57045.88
522.38	57120.77
522.55	56889.06
522.72	56722.88
522.89	56891.40
523.07	57085.67
523.24	57354.83
523.41	57478.88
523.58	57062.26
523.75	57396.96
523.92	57137.16
524.10	57172.27
524.27	57403.98
524.44	57600.58
524.61	57815.91
524.78	57724.63
524.96	57701.23
525.13	57874.43
525.30	57801.87
525.47	57890.81
525.64	57855.70
525.81	58073.37
525.98	58138.91
526.16	58174.02
526.33	58134.23
526.50	58267.64
526.67	58073.37
526.84	58333.17
527.01	58232.53
527.18	58375.30
527.36	58412.75
527.53	58646.80
527.70	58745.11
527.87	58789.58
528.04	58387.00
528.21	58511.05
528.38	58494.67
528.55	58838.73
528.72	58756.81
528.89	58990.86
529.07	58922.99
529.24	58899.58
529.41	59011.93
529.58	58684.25
529.75	59030.65
529.92	58901.92
530.09	58862.13
530.26	59168.74
530.43	59346.62
530.60	59063.42
530.77	59367.69
530.94	59566.63
531.11	59173.42
531.28	59086.82
531.46	59316.20
531.63	59458.97
531.80	59442.59
531.97	59695.36
532.14	59587.70
532.31	59538.55
532.48	59576.00
532.65	59810.05
532.82	59751.54
532.99	59590.04
533.16	59730.47
533.33	59936.44
533.50	60044.10
533.67	59971.55
533.84	59927.08
534.01	59840.48
534.18	59749.20
534.35	60137.72
534.52	59931.76
534.69	60144.75
534.86	60212.62
535.03	60123.68
535.20	60243.05
535.37	60367.10
535.54	60266.45
535.71	60240.71
535.88	60341.35
536.05	60404.55
536.22	60591.79
536.38	60453.70
536.55	60570.72
536.72	60699.45
536.89	60589.45
537.06	60481.78
537.23	60776.69
537.40	60580.09
537.57	60647.96
537.74	60636.26
537.91	61080.96
538.08	61020.11
538.25	60772.01
538.42	60755.63
538.59	60963.93
538.75	60694.77
538.92	60823.50
539.09	60910.10
539.26	61172.24
539.43	61125.43
539.60	61162.88
539.77	61221.39
539.94	61469.49
540.11	61216.71
540.28	61293.95
540.44	61160.54
540.61	61151.18
540.78	61375.87
540.95	61345.44
541.12	61542.05
541.29	61563.11
541.46	61546.73
541.62	61516.30
541.79	61530.34
541.96	61279.91
542.13	61588.86
542.30	61694.18
542.47	61675.46
542.63	61872.06
542.80	62012.49
542.97	62021.86
543.14	62073.35
543.31	61984.41
543.48	62026.54
543.64	62145.90
543.81	62169.31
543.98	62307.40
544.15	62408.04
544.32	62337.83
544.48	62335.49
544.65	62347.19
544.82	62480.60
544.99	62085.05
545.16	62134.20
545.32	62234.84
545.49	62752.10
545.66	62688.91
545.83	62787.21
546.00	62848.06
546.16	62726.36
546.33	62293.36
546.50	62361.23
546.67	62415.07
546.83	62223.14
547.00	62429.11
547.17	62651.46
547.34	62707.63
547.50	62777.85
547.67	62784.87
547.84	62908.92
548.00	62831.68
548.17	62761.47
548.34	62740.40
548.51	62869.13
548.67	63089.14
548.84	62920.62
549.01	62955.73
549.18	62857.43
549.34	62761.47
549.51	62918.28
549.68	63028.29
549.84	62838.70
550.01	62981.48
550.18	63037.65
550.34	63302.13
550.51	63152.33
550.68	63271.70
550.84	63166.38
551.01	63079.78
551.18	62894.88
551.34	63063.39
551.51	63068.08
551.68	63133.61
551.84	63178.08
552.01	63281.06
552.18	63433.20
552.34	63236.59
552.51	63515.12
552.68	63337.24
552.84	63313.83
553.01	63547.89
553.18	63302.13
553.34	63559.59
553.51	63344.26
553.67	63472.99
553.84	63870.88
554.01	63641.51
554.17	63650.87
554.34	63664.91
554.51	63653.21
554.67	63629.80
554.84	63622.78
555.00	63667.25
555.17	63898.97
555.33	63786.62
555.50	63681.30
555.67	63695.34
555.83	63702.36
556.00	63723.43
556.16	63732.79
556.33	63810.03
556.50	63669.59
556.66	64023.01
556.83	63849.81
556.99	63889.60
557.16	64135.36
557.32	63922.37
557.49	63966.84
557.65	64037.06
557.82	63964.50
557.98	63973.86
558.15	63994.93
558.32	64254.73
558.48	64118.98
558.65	64177.49
558.81	64207.92
558.98	64163.45
559.14	64097.91
559.31	64123.66
559.47	63999.61
559.64	64172.81
559.80	64196.21
559.97	64317.92
560.13	64104.93
560.30	64306.22
560.46	64308.56
560.63	64353.03
560.79	64268.77
560.96	64245.36
561.12	64261.75
561.29	64203.24
561.45	64367.07
561.61	64505.16
561.78	64441.97
561.94	64423.25
562.11	64589.42
562.27	64460.69
562.44	64470.06
562.60	64659.64
562.77	64587.08
562.93	64493.46
563.10	64706.45
563.26	64395.16
563.42	64762.62
563.59	64624.53
563.75	64645.60
563.92	64795.39
564.08	64610.49
564.24	64596.45
564.41	64610.49
564.57	64528.57
564.74	64654.96
564.90	64617.51
565.07	64839.86
565.23	64753.26
565.39	64659.64
565.56	64704.11
565.72	64736.88
565.88	64774.33
566.05	64793.05
566.21	64690.07
566.38	64788.37
566.54	64678.36
566.70	64874.97
566.87	64980.29
567.03	64907.74
567.19	64931.14
567.36	64942.84
567.52	64760.28
567.68	64683.04
567.85	64701.77
568.01	64917.10
568.17	64734.54
568.34	64989.66
568.50	64837.52
568.66	64835.18
568.83	64928.80
568.99	64933.48
569.15	64889.01
569.32	64739.22
569.48	64802.41
569.64	64992.00
569.81	64891.35
569.97	64886.67
570.13	64980.29
570.30	64935.82
570.46	65020.08
570.62	64959.23
570.78	64867.95
570.95	64828.16
571.11	64996.68
571.27	64874.97
571.43	64966.25
571.60	65015.40
571.76	64865.61
571.92	65062.21
572.09	65162.85
572.25	65200.30
572.41	64898.37
572.57	65113.70
572.74	65137.11
572.90	65249.45
573.06	65272.86
573.22	64996.68
573.38	65155.83
573.55	65160.51
573.71	65513.94
573.87	65223.71
574.03	65181.58
574.20	65204.98
574.36	65148.81
574.52	65031.78
574.68	65228.39
574.84	65162.85
575.01	65338.40
575.17	65291.58
575.33	65165.20
575.49	65123.07
575.65	65408.61
575.82	65364.14
575.98	65270.52
576.14	65340.74
576.30	65307.97
576.46	65130.09
576.62	65240.09
576.79	65197.96
576.95	65134.77
577.11	65434.36
577.27	65303.29
577.43	65214.35
577.59	65343.08
577.75	65406.27
577.92	65228.39
578.08	65230.73
578.24	65097.32
578.40	65228.39
578.56	65207.32
578.72	65485.85
578.88	65532.66
579.04	65345.42
579.21	65307.97
579.37	65485.85
579.53	65535.00
579.69	65193.28
579.85	65322.01
580.01	65319.67
580.17	65286.90
580.33	65357.12
580.49	65462.44
580.65	65392.23
580.82	65535.00
580.98	65336.05
581.14	65535.00
581.30	65434.36
581.46	65366.48
581.62	65261.16
581.78	65336.05
581.94	65535.00
582.10	65427.34
582.26	65434.36
582.42	65535.00
582.58	65535.00
582.74	65408.61
582.90	65535.00
583.06	65535.00
583.22	65460.10
583.38	65516.28
583.54	65265.84
583.70	65403.93
583.86	65535.00
584.02	65436.70
584.18	65535.00
584.34	65535.00
584.50	65535.00
584.66	65511.59
584.82	65380.52
584.98	65527.98
585.14	65535.00
585.30	65366.48
585.46	65429.68
585.62	65317.33
585.78	65535.00
585.94	65322.01
586.10	65488.19
586.26	65535.00
586.42	65535.00
586.58	65535.00
586.74	65535.00
586.90	65523.30
587.06	65525.64
587.22	65535.00
587.38	65535.00
587.54	65535.00
587.70	65535.00
587.86	65535.00
588.02	65535.00
588.18	65535.00
588.34	65535.00
