SpectraSuite Data File
++++++++++++++++++++++++++++++++++++
Date: Tue Oct 01 18:27:25 GMT-05:00 2013
User: stostad
Dark Spectrum Present: No
Reference Spectrum Present: No
Number of Sampled Component Spectra: 1
Spectrometers: USB2+H05261
Integration Time (usec): 100000 (USB2+H05261)
Spectra Averaged: 1 (USB2+H05261)
Boxcar Smoothing: 0 (USB2+H05261)
Correct for Electrical Dark: No (USB2+H05261)
Strobe/Lamp Enabled: No (USB2+H05261)
Correct for Detector Non-linearity: No (USB2+H05261)
Correct for Stray Light: No (USB2+H05261)
Number of Pixels in Processed Spectrum: 2048
>>>>>Begin Processed Spectral Data<<<<<
365.73	98.30
365.92	98.30
366.12	98.30
366.32	7.02
366.52	0.00
366.72	35.11
366.91	0.00
367.11	0.00
367.31	0.00
367.51	0.00
367.70	0.00
367.90	30.43
368.10	0.00
368.30	0.00
368.49	23.41
368.69	0.00
368.89	2.34
369.09	0.00
369.28	23.41
369.48	0.00
369.68	39.79
369.87	23.41
370.07	0.00
370.27	81.92
370.47	121.71
370.66	292.57
370.86	381.51
371.06	409.59
371.25	379.17
371.45	271.50
371.65	362.78
371.84	325.33
372.04	322.99
372.24	360.44
372.44	322.99
372.63	290.23
372.83	407.25
373.03	341.72
373.22	376.83
373.42	400.23
373.62	463.43
373.81	465.77
374.01	430.66
374.21	477.47
374.40	423.64
374.60	411.93
374.79	451.72
374.99	414.27
375.19	470.45
375.38	514.92
375.58	435.34
375.78	500.87
375.97	510.24
376.17	514.92
376.37	512.58
376.56	458.74
376.76	437.68
376.95	423.64
377.15	514.92
377.35	484.49
377.54	507.90
377.74	465.77
377.93	451.72
378.13	451.72
378.33	505.56
378.52	514.92
378.72	528.96
378.91	510.24
379.11	423.64
379.31	491.51
379.50	479.81
379.70	540.66
379.89	596.84
380.09	519.60
380.28	468.11
380.48	552.37
380.68	491.51
380.87	603.86
381.07	514.92
381.26	629.60
381.46	587.47
381.65	566.41
381.85	521.94
382.04	538.32
382.24	540.66
382.43	613.22
382.63	568.75
382.83	559.39
383.02	601.52
383.22	575.77
383.41	599.18
383.61	596.84
383.80	732.59
384.00	622.58
384.19	627.26
384.39	664.71
384.58	594.50
384.78	620.24
384.97	643.65
385.17	617.90
385.36	641.31
385.56	650.67
385.75	599.18
385.95	631.94
386.14	638.97
386.34	582.79
386.53	713.86
386.72	622.58
386.92	706.84
387.11	744.29
387.31	610.88
387.50	718.54
387.70	645.99
387.89	685.78
388.09	723.23
388.28	688.12
388.48	671.73
388.67	800.46
388.86	755.99
389.06	727.91
389.25	751.31
389.45	767.70
389.64	758.33
389.84	725.57
390.03	732.59
390.22	779.40
390.42	723.23
390.61	748.97
390.81	779.40
391.00	802.80
391.19	826.21
391.39	781.74
391.58	894.08
391.78	826.21
391.97	840.25
392.16	795.78
392.36	851.96
392.55	938.55
392.75	774.72
392.94	781.74
393.13	866.00
393.33	858.98
393.52	903.45
393.71	976.00
393.91	908.13
394.10	919.83
394.29	821.53
394.49	854.30
394.68	957.28
394.88	929.19
395.07	873.02
395.26	882.38
395.46	940.90
395.65	1008.77
395.84	990.05
396.04	976.00
396.23	1013.45
396.42	987.71
396.62	1090.69
396.81	1090.69
397.00	1041.54
397.19	1090.69
397.39	1116.44
397.58	1146.86
397.77	1062.60
397.97	1177.29
398.16	1093.03
398.35	1032.18
398.55	1086.01
398.74	1256.87
398.93	1210.06
399.12	1160.91
399.32	1184.31
399.51	1139.84
399.70	1193.67
399.90	1193.67
400.09	1086.01
400.28	1156.22
400.47	1240.48
400.67	1284.95
400.86	1200.69
401.05	1186.65
401.24	1247.51
401.44	1193.67
401.63	1437.09
401.82	1310.70
402.01	1343.47
402.21	1352.83
402.40	1345.81
402.59	1401.98
402.78	1373.89
402.97	1313.04
403.17	1413.68
403.36	1481.56
403.55	1521.35
403.74	1507.30
403.93	1490.92
404.13	1600.93
404.32	1453.47
404.51	1416.02
404.70	1577.52
404.89	1617.31
405.09	1563.48
405.28	1638.38
405.47	1584.54
405.66	1614.97
405.85	1547.09
406.05	1591.56
406.24	1572.84
406.43	1596.25
406.62	1703.91
406.81	1680.50
407.00	1785.83
407.20	1743.70
407.39	1720.29
407.58	1720.29
407.77	1778.81
407.96	1811.57
408.15	1809.23
408.34	1696.89
408.54	1884.13
408.73	1923.92
408.92	1874.77
409.11	1947.33
409.30	1893.49
409.49	1977.75
409.68	1968.39
409.87	2008.18
410.07	2045.63
410.26	2040.95
410.45	2012.86
410.64	1928.60
410.83	2106.48
411.02	2106.48
411.21	2064.35
411.40	2270.32
411.59	2218.83
411.78	2188.40
411.98	2162.66
412.17	2310.11
412.36	2097.12
412.55	2195.42
412.74	2403.73
412.93	2401.39
413.12	2291.38
413.31	2483.31
413.50	2436.50
413.69	2441.18
413.88	2595.65
414.07	2581.61
414.26	2485.65
414.45	2485.65
414.64	2651.83
414.83	2637.78
415.02	2635.44
415.22	2761.83
415.41	2764.17
415.60	2565.23
415.79	2757.15
415.98	2661.19
416.17	2862.48
416.36	2658.85
416.55	2799.28
416.74	2787.58
416.93	3000.57
417.12	2899.92
417.31	2988.86
417.50	2951.42
417.69	3049.72
417.88	3087.17
418.07	3040.36
418.26	3000.57
418.45	2981.84
418.64	3117.59
418.83	3042.70
419.02	3239.30
419.21	3131.64
419.39	3183.13
419.58	3185.47
419.77	3234.62
419.96	3248.66
420.15	3332.92
420.34	3316.54
420.53	3325.90
420.72	3316.54
420.91	3386.76
421.10	3382.07
421.29	3522.51
421.48	3295.47
421.67	3398.46
421.86	3428.88
422.05	3482.72
422.24	3456.97
422.43	3391.44
422.61	3496.76
422.80	3487.40
422.99	3541.23
423.18	3569.32
423.37	3576.34
423.56	3609.11
423.75	3583.36
423.94	3440.59
424.13	3365.69
424.32	3349.31
424.50	3763.58
424.69	3616.13
424.88	3609.11
425.07	3496.76
425.26	3485.06
425.45	3602.08
425.64	3684.00
425.83	3672.30
426.01	3602.08
426.20	3597.40
426.39	3637.19
426.58	3595.06
426.77	3623.15
426.96	3777.62
427.15	3833.80
427.33	3714.43
427.52	3707.41
427.71	3730.81
427.90	3702.73
428.09	3847.84
428.28	3906.35
428.46	3957.85
428.65	3873.59
428.84	3978.91
429.03	3939.12
429.22	3899.33
429.40	3875.93
429.59	3899.33
429.78	3899.33
429.97	3885.29
430.16	3995.29
430.34	3971.89
430.53	4098.28
430.72	4112.32
430.91	4016.36
431.10	4128.70
431.28	4177.86
431.47	4168.49
431.66	4189.56
431.85	4315.95
432.03	4285.52
432.22	4461.06
432.41	4217.65
432.60	4322.97
432.79	4369.78
432.97	4498.51
433.16	4512.55
433.35	4318.29
433.54	4376.80
433.72	4329.99
433.91	4367.44
434.10	4472.76
434.28	4503.19
434.47	4388.50
434.66	4510.21
434.85	4636.60
435.03	4582.77
435.22	4554.68
435.41	4699.80
435.59	4512.55
435.78	4734.90
435.97	4575.75
436.16	4669.37
436.34	4533.62
436.53	4624.90
436.72	4912.78
436.90	4793.42
437.09	4912.78
437.28	4681.07
437.46	4865.97
437.65	4826.18
437.84	5067.26
438.02	4924.49
438.21	4952.57
438.40	4975.98
438.58	5069.60
438.77	5125.77
438.96	4943.21
439.14	5135.14
439.33	5181.95
439.52	5153.86
439.70	5067.26
439.89	5301.31
440.08	5198.33
440.26	5371.53
440.45	5226.42
440.63	5341.10
440.82	5605.58
441.01	5551.75
441.19	5556.43
441.38	5713.25
441.57	5701.54
441.75	5818.57
441.94	5699.20
442.12	5797.51
442.31	5652.39
442.50	5907.51
442.68	5678.14
442.87	5893.47
443.05	5987.09
443.24	5982.41
443.43	5797.51
443.61	6036.24
443.80	6120.50
443.98	5849.00
444.17	5956.66
444.35	6022.20
444.54	6113.48
444.73	6026.88
444.91	5830.27
445.10	5991.77
445.28	5935.60
445.47	6038.58
445.65	6033.90
445.84	6115.82
446.02	6183.70
446.21	6059.65
446.39	6417.75
446.58	6204.76
446.77	6279.66
446.95	6005.81
447.14	6214.12
447.32	6080.71
447.51	6200.08
447.69	6305.40
447.88	6225.82
448.06	6328.81
448.25	6342.85
448.43	6279.66
448.62	6155.61
448.80	6179.01
448.99	6314.77
449.17	6452.86
449.36	6080.71
449.54	6382.64
449.73	6438.81
449.91	6523.07
450.10	6392.00
450.28	6602.65
450.46	6712.66
450.65	6607.33
450.83	6661.16
451.02	6658.82
451.20	6574.56
451.39	6476.26
451.57	6832.02
451.76	6757.13
451.94	6665.85
452.13	6906.92
452.31	6717.34
452.49	6822.66
452.68	6820.32
452.86	6888.20
453.05	7005.22
453.23	6965.43
453.42	6904.58
453.60	6733.72
453.78	6998.20
453.97	6874.15
454.15	6853.09
454.34	6881.18
454.52	7122.25
454.70	6988.84
454.89	7155.02
455.07	7187.79
455.26	7344.60
455.44	7155.02
455.62	7112.89
455.81	7239.28
455.99	7389.07
456.17	7398.43
456.36	7316.51
456.54	7517.80
456.73	7541.21
456.91	7522.48
457.09	7688.66
457.28	7595.04
457.46	7648.87
457.64	7885.26
457.83	7686.32
458.01	7581.00
458.19	7812.71
458.38	7627.81
458.56	7815.05
458.74	7662.91
458.93	7655.89
459.11	7805.69
459.29	7913.35
459.48	8116.98
459.66	8016.33
459.84	8011.65
460.03	7925.05
460.21	8058.46
460.39	8219.96
460.57	7922.71
460.76	8070.17
460.94	8245.71
461.12	8112.30
461.31	8210.60
461.49	7988.25
461.67	8222.30
461.85	8236.35
462.04	8301.88
462.22	8816.80
462.40	8587.43
462.59	8493.80
462.77	8542.96
462.95	8402.52
463.13	8404.86
463.32	8472.74
463.50	8409.54
463.68	8439.97
463.86	8484.44
464.05	8484.44
464.23	8580.40
464.41	8720.84
464.59	8510.19
464.78	8968.93
464.96	8678.71
465.14	8751.26
465.32	8699.77
465.50	8767.65
465.69	8828.50
465.87	8877.65
466.05	8985.32
466.23	8830.84
466.41	8723.18
466.60	9116.39
466.78	8781.69
466.96	8807.44
467.14	8865.95
467.32	8870.63
467.51	9111.71
467.69	8697.43
467.87	9217.03
468.05	9174.90
468.23	8954.89
468.41	9081.28
468.60	9200.65
468.78	9240.44
468.96	9015.74
469.14	9423.00
469.32	9408.95
469.50	9092.98
469.69	9411.29
469.87	9605.56
470.05	9458.10
470.23	9626.62
470.41	9734.29
470.59	9535.34
470.77	9785.78
470.95	9577.47
471.14	9790.46
471.32	9455.76
471.50	9975.36
471.68	10003.45
471.86	10047.92
472.04	10052.60
472.22	10328.78
472.40	9863.02
472.58	10162.61
472.77	10277.29
472.95	10567.52
473.13	10649.44
473.31	10218.78
473.49	10340.49
473.67	10335.81
473.85	10380.28
474.03	10511.35
474.21	10490.28
474.39	10839.02
474.57	10677.52
474.75	10848.38
474.93	11040.31
475.12	11019.24
475.30	11007.54
475.48	11026.26
475.66	11002.86
475.84	10991.16
476.02	11538.84
476.20	11293.08
476.38	11513.10
476.56	11824.39
476.74	11660.55
476.92	11480.33
477.10	11358.62
477.28	11857.15
477.46	11559.91
477.64	11948.43
477.82	11953.12
478.00	12514.84
478.18	12189.51
478.36	12266.75
478.54	12409.52
478.72	12521.87
478.90	12587.40
479.08	12868.27
479.26	12926.78
479.44	12753.58
479.62	13074.23
479.80	13130.41
479.98	13289.56
480.16	13516.59
480.34	13481.49
480.52	13392.55
480.70	13385.52
480.88	13469.78
481.06	13575.11
481.24	13769.37
481.41	13989.38
481.59	14005.77
481.77	14387.27
481.95	14200.03
482.13	14260.88
482.31	14132.15
482.49	14944.32
482.67	14939.64
482.85	14944.32
483.03	15318.81
483.21	15330.51
483.39	15143.27
483.57	15342.21
483.74	15389.02
483.92	15726.06
484.10	15665.21
484.28	15899.26
484.46	16182.46
484.64	16311.19
484.82	16070.12
485.00	16147.36
485.18	16458.65
485.35	16889.31
485.53	16477.37
485.71	16783.98
485.89	17249.75
486.07	16835.47
486.25	17085.91
486.43	17294.22
486.61	17671.04
486.78	17436.99
486.96	17855.95
487.14	17788.07
487.32	17806.80
487.50	18302.99
487.68	18377.89
487.85	18574.49
488.03	18630.66
488.21	18951.32
488.39	18977.06
488.57	18836.63
488.75	19307.08
488.92	19337.51
489.10	19634.75
489.28	19452.19
489.46	19662.84
489.64	19791.57
489.81	19983.49
489.99	20063.07
490.17	20662.25
490.35	20629.48
490.53	20673.95
490.70	20535.86
490.88	20561.61
491.06	21125.68
491.24	21008.65
491.41	21116.31
491.59	21495.48
491.77	21493.14
491.95	21834.86
492.13	21495.48
492.30	21511.86
492.48	22080.61
492.66	22300.62
492.84	22319.35
493.01	22707.88
493.19	22572.13
493.37	22651.70
493.54	22803.84
493.72	23019.17
493.90	22920.87
494.08	22984.06
494.25	23777.50
494.43	23489.62
494.61	23513.02
494.79	23566.85
494.96	23721.33
495.14	24166.03
495.32	24217.52
495.49	24041.98
495.67	24416.47
495.85	24666.91
496.02	24844.79
496.20	25158.42
496.38	24790.95
496.55	25296.51
496.73	25539.93
496.91	25348.00
497.09	25572.69
497.26	25390.13
497.44	25715.47
497.62	25734.19
497.79	25823.13
497.97	26113.36
498.14	26157.83
498.32	26541.68
498.50	26181.23
498.67	26771.05
498.85	26607.21
499.03	26885.73
499.20	26951.27
499.38	27194.68
499.56	27466.19
499.73	27503.64
499.91	27639.39
500.08	27714.28
500.26	27037.87
500.44	27896.85
500.61	28046.64
500.79	27828.97
500.97	27747.05
501.14	27931.95
501.32	28414.10
501.49	28219.84
501.67	28386.02
501.84	28397.72
502.02	28610.71
502.20	28739.44
502.37	28914.98
502.55	28636.45
502.72	29223.93
502.90	28954.77
503.07	28816.68
503.25	29432.24
503.43	29493.09
503.60	29624.16
503.78	29486.07
503.95	29394.79
504.13	29696.72
504.30	29855.87
504.48	30190.57
504.65	30270.15
504.83	30382.49
505.01	30813.15
505.18	30050.14
505.36	30092.27
505.53	30583.78
505.71	30204.61
505.88	30981.67
506.06	30717.19
506.23	31157.21
506.41	30604.84
506.58	31213.38
506.76	31316.37
506.93	31072.95
507.11	31358.50
507.28	31871.07
507.46	31632.34
507.63	31496.59
507.81	31707.24
507.98	31274.24
508.16	32037.25
508.33	31906.18
508.50	32037.25
508.68	32510.04
508.85	32716.01
509.03	32491.32
509.20	32545.15
509.38	32620.05
509.55	32907.93
509.73	32456.21
509.90	32912.61
510.08	33064.75
510.25	33200.50
510.42	32966.45
510.60	33422.85
510.77	33546.90
510.95	33888.62
511.12	33277.74
511.30	34110.97
511.47	34092.24
511.64	33916.70
511.82	34153.10
511.99	33776.27
512.17	33975.22
512.34	34305.23
512.51	34497.16
512.69	35065.91
512.86	34944.20
513.04	34864.62
513.21	34782.70
513.38	34761.64
513.56	34522.90
513.73	34927.81
513.90	35112.72
514.08	35421.67
514.25	35110.38
514.43	35278.89
514.60	35225.06
514.77	35431.03
514.95	35601.89
515.12	35314.00
515.29	35690.83
515.47	35988.08
515.64	36280.64
515.81	36268.94
515.99	35768.07
516.16	36381.29
516.33	36425.76
516.51	36385.97
516.68	36591.94
516.85	36662.15
517.03	36802.58
517.20	37038.98
517.37	36383.63
517.54	36605.98
517.72	36825.99
517.89	36605.98
518.06	37294.10
518.24	37181.75
518.41	37050.68
518.58	37233.24
518.75	37092.81
518.93	37766.88
519.10	37095.15
519.27	37251.97
519.45	37500.06
519.62	37827.74
519.79	37801.99
519.96	37811.35
520.14	38087.54
520.31	37645.18
520.48	38033.71
520.65	37923.70
520.83	38108.60
521.00	38534.58
521.17	38717.14
521.34	38480.75
521.52	38534.58
521.69	38321.59
521.86	38834.17
522.03	39014.39
522.20	39143.12
522.38	39269.51
522.55	39079.92
522.72	39636.97
522.89	39409.94
523.07	39894.43
523.24	38899.70
523.41	39573.78
523.58	39180.57
523.75	39438.03
523.92	39641.65
524.10	39997.41
524.27	39882.73
524.44	40212.74
524.61	39847.62
524.78	40151.89
524.96	40224.45
525.13	40598.93
525.30	40519.35
525.47	41036.61
525.64	40900.86
525.81	41319.82
525.98	41006.19
526.16	40762.77
526.33	40634.04
526.50	41413.44
526.67	40931.29
526.84	40942.99
527.01	40800.22
527.18	41385.35
527.36	41359.61
527.53	41467.27
527.70	41469.61
527.87	41343.22
528.04	41331.52
528.21	41282.37
528.38	41598.34
528.55	41413.44
528.72	41544.51
528.89	42232.63
529.07	42005.59
529.24	41780.90
529.41	41830.05
529.58	42005.59
529.75	41949.42
529.92	42518.17
530.09	42424.55
530.26	42412.85
530.43	42536.90
530.60	42064.11
530.77	42251.35
530.94	42632.86
531.11	42312.20
531.28	43084.58
531.46	42925.42
531.63	42759.25
531.80	42700.73
531.97	42717.12
532.14	43201.61
532.31	42646.90
532.48	42586.05
532.65	43335.02
532.82	43037.77
532.99	43782.06
533.16	43456.73
533.33	43316.29
533.50	43246.08
533.67	43592.48
533.84	43320.98
534.01	43468.43
534.18	43452.05
534.35	43746.95
534.52	43889.73
534.69	44287.62
534.86	43861.64
535.03	43421.62
535.20	43793.76
535.37	43952.92
535.54	43934.20
535.71	44037.18
535.88	44229.10
536.05	44680.83
536.22	44769.77
536.38	44168.25
536.55	44589.55
536.72	44556.78
536.89	44130.80
537.06	44823.60
537.23	44465.50
537.40	44652.74
537.57	44938.29
537.74	44259.53
537.91	44751.04
538.08	44638.70
538.25	44020.80
538.42	45165.32
538.59	45244.90
538.75	44748.70
538.92	45102.12
539.09	45530.44
539.26	45516.40
539.43	45287.03
539.60	45092.76
539.77	45298.73
539.94	45518.74
540.11	45673.21
540.28	45715.34
540.44	45701.30
540.61	45689.60
540.78	45649.81
540.95	45818.33
541.12	45448.52
541.29	45825.35
541.46	45420.44
541.62	45509.38
541.79	45748.11
541.96	45378.31
542.13	45815.99
542.30	46094.51
542.47	46045.36
542.63	46452.61
542.80	46349.63
542.97	46447.93
543.14	46988.60
543.31	45979.82
543.48	46632.83
543.64	47042.43
543.81	46967.53
543.98	47002.64
544.15	46941.78
544.32	47107.96
544.48	47161.79
544.65	47227.33
544.82	47126.69
544.99	46405.80
545.16	47241.37
545.32	47063.49
545.49	47545.64
545.66	47473.09
545.83	47269.46
546.00	47576.07
546.16	47311.59
546.33	46960.51
546.50	47084.56
546.67	47526.92
546.83	47232.01
547.00	47393.51
547.17	47250.74
547.34	47426.28
547.50	47831.19
547.67	48208.01
547.84	47880.34
548.00	48037.16
548.17	48196.31
548.34	47709.48
548.51	48282.91
548.67	48018.43
548.84	48062.90
549.01	47852.25
549.18	47723.52
549.34	48072.26
549.51	48334.40
549.68	48114.39
549.84	48224.40
550.01	48788.47
550.18	47969.28
550.34	48179.93
550.51	48325.04
550.68	48208.01
550.84	47732.89
551.01	48573.14
551.18	48624.63
551.34	48451.43
551.51	48608.25
551.68	48940.60
551.84	49017.84
552.01	48449.09
552.18	48872.73
552.34	48348.45
552.51	48362.49
552.68	48535.69
552.84	48886.77
553.01	49024.86
553.18	49389.98
553.34	49375.94
553.51	48687.82
553.67	48891.45
553.84	49268.28
554.01	49347.86
554.17	49256.57
554.34	49464.88
554.51	49104.44
554.67	49162.95
554.84	49111.46
555.00	49151.25
555.17	49233.17
555.33	49172.31
555.50	49111.46
555.67	49373.60
555.83	49308.07
556.00	49731.70
556.16	50071.08
556.33	49773.83
556.50	49734.04
556.66	49617.02
556.83	49675.53
556.99	49647.44
557.16	49631.06
557.32	49528.08
557.49	49710.64
557.65	49385.30
557.82	49755.11
557.98	50019.59
558.15	49727.02
558.32	50024.27
558.48	49848.73
558.65	50185.77
558.81	49607.65
558.98	49659.15
559.14	49729.36
559.31	49881.50
559.47	50136.62
559.64	50150.66
559.80	50241.94
559.97	50389.39
560.13	49961.08
560.30	49928.31
560.46	49897.88
560.63	50007.89
560.79	50230.24
560.96	50183.43
561.12	50281.73
561.29	50384.71
561.45	50080.44
561.61	50255.98
561.78	50258.32
561.94	49921.29
562.11	50478.33
562.27	49932.99
562.44	50380.03
562.60	50436.20
562.77	50270.03
562.93	50417.48
563.10	50740.47
563.26	50185.77
563.42	50836.44
563.59	50447.91
563.75	50326.20
563.92	50637.49
564.08	50377.69
564.24	50429.18
564.41	50904.31
564.57	50693.66
564.74	50328.54
564.90	50623.45
565.07	50808.35
565.23	50288.75
565.39	50550.89
565.56	50464.29
565.72	50492.38
565.88	50632.81
566.05	50440.89
566.21	50698.34
566.38	50660.90
566.54	50635.15
566.70	50941.76
566.87	50766.22
567.03	50670.26
567.19	50642.17
567.36	50667.92
567.52	50742.81
567.68	50780.26
567.85	50827.07
568.01	50759.20
568.17	50735.79
568.34	50773.24
568.50	50784.94
568.66	50525.14
568.83	50827.07
568.99	50822.39
569.15	50747.50
569.32	50852.82
569.48	50923.04
569.64	51243.69
569.81	50918.35
569.97	51000.27
570.13	50862.18
570.30	50815.37
570.46	50733.45
570.62	50775.58
570.78	50749.84
570.95	51114.96
571.11	51150.07
571.27	51009.64
571.43	51173.47
571.60	51325.61
571.76	51044.74
571.92	50960.48
572.09	51311.56
572.25	50887.93
572.41	51161.77
572.57	51112.62
572.74	51243.69
572.90	51133.68
573.06	51421.57
573.22	51388.80
573.38	51124.32
573.55	50981.55
573.71	51327.95
573.87	50871.54
574.03	51199.22
574.20	50829.41
574.36	51119.64
574.52	51047.08
574.68	51283.48
574.84	51412.21
575.01	51653.28
575.17	51192.20
575.33	51187.52
575.49	50822.39
575.65	51517.53
575.82	51182.84
575.98	50979.21
576.14	51367.74
576.30	51576.04
576.46	51110.28
576.62	51559.66
576.79	51377.10
576.95	51271.78
577.11	51316.25
577.27	51388.80
577.43	51274.12
577.59	51313.90
577.75	51147.73
577.92	51098.58
578.08	51283.48
578.24	51426.25
578.40	52149.48
578.56	51688.39
578.72	51693.07
578.88	51356.03
579.04	51386.46
579.21	51330.29
579.37	51276.46
579.53	51384.12
579.69	51227.31
579.85	51615.83
580.01	51470.72
580.17	51341.99
580.33	51536.26
580.49	51508.17
580.65	51065.81
580.82	51344.33
580.98	51288.16
581.14	51290.50
581.30	51524.55
581.46	51257.73
581.62	51554.98
581.78	51189.86
581.94	51711.80
582.10	51192.20
582.26	51599.45
582.42	51597.11
582.58	51283.48
582.74	51501.15
582.90	51358.38
583.06	51395.82
583.22	51323.27
583.38	51938.83
583.54	51419.23
583.70	51784.35
583.86	51849.89
584.02	51562.00
584.18	51536.26
584.34	51569.02
584.50	51929.47
584.66	51515.19
584.82	51253.05
584.98	51749.24
585.14	51873.29
585.30	51449.66
585.46	51758.61
585.62	51578.39
585.78	51592.43
585.94	51196.88
586.10	51426.25
586.26	51056.45
586.42	51208.58
586.58	52027.77
586.74	51461.36
586.90	51540.94
587.06	51426.25
587.22	52112.03
587.38	51980.96
587.54	52041.81
587.70	51882.66
587.86	51777.33
588.02	51592.43
588.18	51746.90
588.34	51807.76
588.49	51887.34
588.65	51681.37
588.81	51789.03
588.97	51980.96
589.13	51845.21
589.29	51990.32
589.45	52032.45
589.61	51929.47
589.77	52151.82
589.93	51753.93
590.08	51606.47
590.24	51875.63
590.40	52126.07
