SpectraSuite Data File
++++++++++++++++++++++++++++++++++++
Date: Fri Oct 04 11:39:42 GMT-05:00 2013
User: price-jones
Dark Spectrum Present: No
Reference Spectrum Present: No
Number of Sampled Component Spectra: 1
Spectrometers: USB2+H05261
Integration Time (usec): 100000 (USB2+H05261)
Spectra Averaged: 1 (USB2+H05261)
Boxcar Smoothing: 0 (USB2+H05261)
Correct for Electrical Dark: No (USB2+H05261)
Strobe/Lamp Enabled: No (USB2+H05261)
Correct for Detector Non-linearity: No (USB2+H05261)
Correct for Stray Light: No (USB2+H05261)
Number of Pixels in Processed Spectrum: 2048
>>>>>Begin Processed Spectral Data<<<<<
365.73	95.96
365.92	95.96
366.12	95.96
366.32	0.00
366.52	0.00
366.72	0.00
366.91	0.00
367.11	0.00
367.31	0.00
367.51	0.00
367.70	0.00
367.90	28.09
368.10	0.00
368.30	0.00
368.49	0.00
368.69	0.00
368.89	21.06
369.09	0.00
369.28	0.00
369.48	0.00
369.68	0.00
369.87	56.17
370.07	49.15
370.27	28.09
370.47	49.15
370.66	133.41
370.86	107.66
371.06	67.88
371.25	102.98
371.45	91.28
371.65	114.69
371.84	159.16
372.04	53.83
372.24	107.66
372.44	100.64
372.63	124.05
372.83	161.50
373.03	210.65
373.22	79.58
373.42	229.37
373.62	205.97
373.81	168.52
374.01	184.90
374.21	205.97
374.40	112.35
374.60	180.22
374.79	184.90
374.99	135.75
375.19	208.31
375.38	191.92
375.58	276.18
375.78	238.73
375.97	205.97
376.17	276.18
376.37	149.79
376.56	180.22
376.76	110.01
376.95	184.90
377.15	159.16
377.35	159.16
377.54	196.60
377.74	102.98
377.93	196.60
378.13	182.56
378.33	212.99
378.52	140.43
378.72	220.01
378.91	149.79
379.11	145.11
379.31	147.45
379.50	145.11
379.70	257.46
379.89	196.60
380.09	135.75
380.28	156.82
380.48	245.76
380.68	184.90
380.87	142.77
381.07	161.50
381.26	187.24
381.46	222.35
381.65	161.50
381.85	189.58
382.04	159.16
382.24	224.69
382.43	224.69
382.63	102.98
382.83	255.12
383.02	273.84
383.22	257.46
383.41	142.77
383.61	107.66
383.80	196.60
384.00	205.97
384.19	163.84
384.39	149.79
384.58	276.18
384.78	198.95
384.97	147.45
385.17	273.84
385.36	187.24
385.56	248.10
385.75	184.90
385.95	231.71
386.14	241.08
386.34	224.69
386.53	224.69
386.72	177.88
386.92	250.44
387.11	224.69
387.31	227.03
387.50	227.03
387.70	220.01
387.89	175.54
388.09	191.92
388.28	238.73
388.48	236.39
388.67	297.25
388.86	170.86
389.06	224.69
389.25	180.22
389.45	238.73
389.64	236.39
389.84	234.05
390.03	252.78
390.22	248.10
390.42	163.84
390.61	229.37
390.81	154.48
391.00	234.05
391.19	205.97
391.39	227.03
391.58	170.86
391.78	234.05
391.97	259.80
392.16	215.33
392.36	290.23
392.55	355.76
392.75	231.71
392.94	243.42
393.13	236.39
393.33	243.42
393.52	276.18
393.71	308.95
393.91	271.50
394.10	327.68
394.29	318.31
394.49	306.61
394.68	344.06
394.88	353.42
395.07	320.65
395.26	311.29
395.46	372.15
395.65	294.91
395.84	320.65
396.04	404.91
396.23	264.48
396.42	414.27
396.62	355.76
396.81	447.04
397.00	308.95
397.19	276.18
397.39	322.99
397.58	339.38
397.77	320.65
397.97	430.66
398.16	421.30
398.35	365.12
398.55	374.49
398.74	447.04
398.93	414.27
399.12	351.08
399.32	433.00
399.51	519.60
399.70	376.83
399.90	337.04
400.09	390.87
400.28	418.96
400.47	409.59
400.67	447.04
400.86	503.22
401.05	421.30
401.24	454.06
401.44	404.91
401.63	433.00
401.82	468.11
402.01	433.00
402.21	414.27
402.40	482.15
402.59	409.59
402.78	376.83
402.97	486.83
403.17	510.24
403.36	482.15
403.55	540.66
403.74	552.37
403.93	620.24
404.13	638.97
404.32	538.32
404.51	533.64
404.70	596.84
404.89	475.13
405.09	634.29
405.28	589.82
405.47	554.71
405.66	547.69
405.85	624.92
406.05	695.14
406.24	638.97
406.43	571.09
406.62	627.26
406.81	716.20
407.00	699.82
407.20	802.80
407.39	615.56
407.58	692.80
407.77	709.18
407.96	713.86
408.15	753.65
408.34	704.50
408.54	786.42
408.73	798.12
408.92	821.53
409.11	814.51
409.30	814.51
409.49	760.67
409.68	812.17
409.87	798.12
410.07	725.57
410.26	861.32
410.45	873.02
410.64	823.87
410.83	896.43
411.02	858.98
411.21	945.58
411.40	882.38
411.59	980.68
411.78	947.92
411.98	938.55
412.17	952.60
412.36	940.90
412.55	959.62
412.74	1088.35
412.93	1015.79
413.12	1043.88
413.31	1118.78
413.50	1081.33
413.69	1100.05
413.88	1090.69
414.07	1121.12
414.26	1095.37
414.45	1153.88
414.64	1172.61
414.83	1238.14
415.02	1181.97
415.22	1291.98
415.41	1245.16
415.60	1200.69
415.79	1219.42
415.98	1299.00
416.17	1231.12
416.36	1315.38
416.55	1266.23
416.74	1320.06
416.93	1329.42
417.12	1380.92
417.31	1392.62
417.50	1432.41
417.69	1406.66
417.88	1348.15
418.07	1352.83
418.26	1465.18
418.45	1465.18
418.64	1535.39
418.83	1481.56
419.02	1570.50
419.21	1479.22
419.39	1533.05
419.58	1441.77
419.77	1502.62
419.96	1661.78
420.15	1689.87
420.34	1678.16
420.53	1586.88
420.72	1680.50
420.91	1544.75
421.10	1692.21
421.29	1654.76
421.48	1661.78
421.67	1671.14
421.86	1636.03
422.05	1657.10
422.24	1652.42
422.43	1771.79
422.61	1612.63
422.80	1610.29
422.99	1654.76
423.18	1771.79
423.37	1762.42
423.56	1699.23
423.75	1621.99
423.94	1614.97
424.13	1673.48
424.32	1636.03
424.50	1860.73
424.69	1790.51
424.88	1811.57
425.07	1724.97
425.26	1706.25
425.45	1748.38
425.64	1720.29
425.83	1722.63
426.01	1802.21
426.20	1715.61
426.39	1753.06
426.58	1792.85
426.77	1771.79
426.96	1743.70
427.15	1856.04
427.33	1783.49
427.52	1867.75
427.71	1774.13
427.90	1776.47
428.09	1893.49
428.28	1877.11
428.46	1867.75
428.65	1919.24
428.84	2019.88
429.03	2078.40
429.22	1785.83
429.40	1898.17
429.59	2017.54
429.78	1837.32
429.97	1757.74
430.16	2026.90
430.34	2047.97
430.53	1984.77
430.72	1949.67
430.91	1968.39
431.10	2040.95
431.28	2031.58
431.47	1996.48
431.66	1987.11
431.85	2010.52
432.03	2120.53
432.22	2115.84
432.41	2085.42
432.60	2036.27
432.79	2050.31
432.97	1991.80
433.16	2195.42
433.35	2085.42
433.54	2127.55
433.72	2298.41
433.91	2209.47
434.10	2202.44
434.28	2174.36
434.47	2165.00
434.66	2235.21
434.85	2303.09
435.03	2223.51
435.22	2403.73
435.41	2705.66
435.59	2668.21
435.78	2649.49
435.97	2389.69
436.16	2216.49
436.34	2338.20
436.53	2272.66
436.72	2321.81
436.90	2382.67
437.09	2368.62
437.28	2328.83
437.46	2300.75
437.65	2462.24
437.84	2335.85
438.02	2443.52
438.21	2431.82
438.40	2277.34
438.58	2452.88
438.77	2471.61
438.96	2394.37
439.14	2504.37
439.33	2464.58
439.52	2424.80
439.70	2609.70
439.89	2588.63
440.08	2485.65
440.26	2691.62
440.45	2696.30
440.63	2675.23
440.82	2658.85
441.01	2705.66
441.19	2773.53
441.38	2619.06
441.57	2665.87
441.75	2876.52
441.94	2810.98
442.12	2803.96
442.31	2862.48
442.50	2970.14
442.68	2757.15
442.87	2785.24
443.05	2860.13
443.24	2911.63
443.43	2836.73
443.61	2897.58
443.80	2984.18
443.98	2843.75
444.17	2736.09
444.35	2794.60
444.54	3023.97
444.73	2979.50
444.91	2949.08
445.10	2923.33
445.28	2885.88
445.47	2963.12
445.65	2862.48
445.84	2885.88
446.02	2956.10
446.21	2874.18
446.39	2960.78
446.58	2888.22
446.77	2846.09
446.95	2939.71
447.14	2970.14
447.32	3101.21
447.51	3021.63
447.69	3098.87
447.88	3019.29
448.06	3122.27
448.25	3014.61
448.43	3129.30
448.62	3070.78
448.80	3091.85
448.99	2993.55
449.17	3073.12
449.36	3084.83
449.54	3115.25
449.73	3183.13
449.91	3218.24
450.10	3171.43
450.28	3220.58
450.46	3213.56
450.65	3234.62
450.83	3227.60
451.02	3255.69
451.20	3269.73
451.39	3211.22
451.57	3187.81
451.76	3225.26
451.94	3283.77
452.13	3431.23
452.31	3391.44
452.49	3239.30
452.68	3204.19
452.86	3332.92
453.05	3407.82
453.23	3258.03
453.42	3180.79
453.60	3213.56
453.78	3353.99
453.97	3351.65
454.15	3339.94
454.34	3272.07
454.52	3513.14
454.70	3485.06
454.89	3531.87
455.07	3339.94
455.26	3440.59
455.44	3489.74
455.62	3459.31
455.81	3492.08
455.99	3669.96
456.17	3623.15
456.36	3686.34
456.54	3679.32
456.73	3698.05
456.91	3552.93
457.09	3562.30
457.28	3581.02
457.46	3524.85
457.64	3784.65
457.83	3658.26
458.01	3653.58
458.19	3548.25
458.38	3735.50
458.56	3786.99
458.74	3667.62
458.93	3836.14
459.11	3873.59
459.29	3775.28
459.48	3669.96
459.66	3861.88
459.84	3688.68
460.03	3887.63
460.21	3840.82
460.39	3948.48
460.57	3875.93
460.76	3983.59
460.94	3974.23
461.12	3868.91
461.31	3999.98
461.49	3929.76
461.67	3899.33
461.85	4018.70
462.04	4009.34
462.22	4601.49
462.40	4023.38
462.59	4042.11
462.77	3997.64
462.95	4042.11
463.13	3908.69
463.32	4112.32
463.50	4201.26
463.68	4021.04
463.86	4119.34
464.05	4098.28
464.23	4081.89
464.41	4196.58
464.59	4056.15
464.78	4112.32
464.96	4018.70
465.14	4025.72
465.32	4304.25
465.50	4217.65
465.69	4210.62
465.87	4142.75
466.05	4212.96
466.23	4205.94
466.41	4102.96
466.60	4489.15
466.78	4264.46
466.96	4292.54
467.14	4327.65
467.32	4341.69
467.51	4346.37
467.69	4229.35
467.87	4355.74
468.05	4491.49
468.23	4292.54
468.41	4088.92
468.60	4290.20
468.78	4456.38
468.96	4393.19
469.14	4397.87
469.32	4454.04
469.50	4301.90
469.69	4407.23
469.87	4571.07
470.05	4681.07
470.23	4655.33
470.41	4531.28
470.59	4603.83
470.77	4601.49
470.95	4725.54
471.14	4674.05
471.32	4524.26
471.50	4765.33
471.68	4564.04
471.86	4732.56
472.04	4788.74
472.22	4821.50
472.40	4760.65
472.58	4835.55
472.77	4734.90
472.95	4851.93
473.13	5029.81
473.31	4716.18
473.49	4901.08
473.67	5032.15
473.85	4903.42
474.03	5039.17
474.21	5041.51
474.39	5135.14
474.57	5050.88
474.75	5158.54
474.93	5212.37
475.12	5001.72
475.30	5067.26
475.48	5231.10
475.66	5008.75
475.84	5095.35
476.02	5425.36
476.20	5263.86
476.38	5291.95
476.56	5408.98
476.74	5483.88
476.92	5401.96
477.10	5490.90
477.28	5565.79
477.46	5514.30
477.64	5570.48
477.82	5692.18
478.00	5785.80
478.18	5884.11
478.36	5867.72
478.54	5783.46
478.72	6012.84
478.90	5949.64
479.08	5907.51
479.26	6064.33
479.44	5977.73
479.62	6115.82
479.80	6452.86
479.98	6122.84
480.16	6373.28
480.34	6237.53
480.52	6384.98
480.70	6441.15
480.88	6480.94
481.06	6492.65
481.24	6434.13
481.41	6546.48
481.59	6544.14
481.77	6574.56
481.95	6548.82
482.13	6792.23
482.31	6853.09
482.49	6855.43
482.67	6930.33
482.85	6944.37
483.03	6949.05
483.21	7152.68
483.39	7119.91
483.57	7070.76
483.74	7138.63
483.92	7407.80
484.10	7197.15
484.28	7543.55
484.46	7599.72
484.64	7627.81
484.82	7524.82
485.00	7527.16
485.18	7866.54
485.35	7826.75
485.53	7786.96
485.71	7826.75
485.89	7953.14
486.07	7969.52
486.25	8156.77
486.43	8177.83
486.61	8163.79
486.78	8341.67
486.96	8248.05
487.14	8468.06
487.32	8320.60
487.50	8472.74
487.68	8402.52
487.85	8594.45
488.03	8676.37
488.21	8765.31
488.39	8744.24
488.57	8664.66
488.75	8690.41
488.92	9273.20
489.10	9039.15
489.28	9210.01
489.46	9128.09
489.64	8924.46
489.81	9439.38
489.99	9310.65
490.17	9418.32
490.35	9497.89
490.53	9589.17
490.70	9530.66
490.88	9682.80
491.06	9734.29
491.24	9755.35
491.41	9713.22
491.59	9863.02
491.77	9799.82
491.95	9919.19
492.13	10136.86
492.30	10071.33
492.48	10108.77
492.66	10207.08
492.84	10202.40
493.01	10281.97
493.19	10410.70
493.37	10359.21
493.54	10403.68
493.72	10579.22
493.90	10614.33
494.08	10611.99
494.25	10787.53
494.43	11033.29
494.61	10885.83
494.79	11037.97
494.96	10853.06
495.14	10904.56
495.32	10888.17
495.49	11089.46
495.67	11358.62
495.85	11199.46
496.02	11407.77
496.20	11363.30
496.38	11433.52
496.55	11524.80
496.73	11786.94
496.91	11595.01
497.09	11571.61
497.26	11800.98
497.44	11805.66
497.62	11889.92
497.79	11887.58
497.97	11796.30
498.14	11775.24
498.32	12215.26
498.50	12121.63
498.67	12194.19
498.85	12308.88
499.03	12226.96
499.20	12348.67
499.38	12109.93
499.56	12212.92
499.73	12276.11
499.91	12479.74
500.08	12545.27
500.26	12465.69
500.44	12393.14
500.61	12795.71
500.79	12549.95
500.97	12713.79
501.14	12966.57
501.32	12802.73
501.49	13046.15
501.67	12971.25
501.84	13043.81
502.02	12903.37
502.20	13160.83
502.37	13095.30
502.55	13137.43
502.72	13109.34
502.90	12980.61
503.07	13123.38
503.25	13055.51
503.43	13268.50
503.60	13280.20
503.78	13509.57
503.95	13544.68
504.13	13425.31
504.30	13540.00
504.48	13650.00
504.65	13673.41
504.83	13877.04
505.01	13919.17
505.18	14022.15
505.36	13788.10
505.53	13736.60
505.71	14052.58
505.88	14054.92
506.06	13907.46
506.23	14181.31
506.41	13900.44
506.58	14036.19
506.76	13970.66
506.93	14406.00
507.11	14104.07
507.28	14167.26
507.46	14333.44
507.63	14471.53
507.81	14607.28
507.98	14494.94
508.16	14314.72
508.33	14312.38
508.50	14410.68
508.68	14839.00
508.85	14759.42
509.03	14604.94
509.20	15009.86
509.38	14946.66
509.55	15140.93
509.73	15169.01
509.90	14855.38
510.08	15047.30
510.25	15176.03
510.42	15124.54
510.60	15311.78
510.77	15087.09
510.95	15417.11
511.12	15288.38
511.30	15229.87
511.47	15192.42
511.64	15339.87
511.82	15770.53
511.99	15440.51
512.17	15655.84
512.34	15496.69
512.51	15784.57
512.69	15667.55
512.86	15580.95
513.04	15822.02
513.21	15838.41
513.38	15960.11
513.56	16058.42
513.73	15871.17
513.90	15889.90
514.08	15908.62
514.25	16219.91
514.43	15978.84
514.60	15969.48
514.77	16355.66
514.95	16100.55
515.12	16257.36
515.29	16372.05
515.47	16355.66
515.64	16587.38
515.81	16341.62
515.99	16734.83
516.16	16559.29
516.33	16650.57
516.51	16582.70
516.68	16634.19
516.85	16648.23
517.03	16669.30
517.20	16812.07
517.37	16837.81
517.54	16673.98
517.72	16849.52
517.89	16915.05
518.06	17142.08
518.24	17076.55
518.41	17123.36
518.58	17050.80
518.75	17095.27
518.93	17261.45
519.10	17261.45
519.27	17221.66
519.45	17116.34
519.62	17460.40
519.79	17172.51
519.96	17444.01
520.14	17523.59
520.31	17219.32
520.48	17186.55
520.65	17305.92
520.83	17341.03
521.00	17453.37
521.17	17315.28
521.34	17741.26
521.52	17837.22
521.69	17628.92
521.86	17823.18
522.03	18059.57
522.20	17666.36
522.38	17804.46
522.55	18277.24
522.72	17687.43
522.89	18071.28
523.07	18059.57
523.24	18052.55
523.41	17947.23
523.58	18115.75
523.75	18347.46
523.92	18267.88
524.10	18169.58
524.27	18237.45
524.44	18471.51
524.61	18155.54
524.78	18492.57
524.96	18431.72
525.13	18424.70
525.30	18417.68
525.47	18160.22
525.64	18373.21
525.81	18614.28
525.98	18581.51
526.16	18548.75
526.33	18607.26
526.50	18614.28
526.67	18682.16
526.84	18586.19
527.01	18726.63
527.18	18817.91
527.36	18848.33
527.53	18504.28
527.70	19051.96
527.87	18934.93
528.04	19157.28
528.21	18836.63
528.38	18958.34
528.55	19110.47
528.72	19246.23
528.89	19098.77
529.07	19147.92
529.24	19433.47
529.41	19161.97
529.58	18925.57
529.75	19044.94
529.92	19440.49
530.09	19201.76
530.26	19459.21
530.43	19466.24
530.60	19241.54
530.77	19271.97
530.94	19283.67
531.11	19487.30
531.28	19412.40
531.46	19812.63
531.63	19583.26
531.80	19520.07
531.97	19704.97
532.14	19822.00
532.31	19704.97
532.48	19552.84
532.65	20079.46
532.82	19489.64
532.99	19583.26
533.16	19524.75
533.33	19880.51
533.50	19901.58
533.67	20135.63
533.84	19747.10
534.01	19728.38
534.18	19735.40
534.35	19948.39
534.52	19999.88
534.69	20229.25
534.86	20245.63
535.03	20074.77
535.20	20060.73
535.37	20290.10
535.54	20332.23
535.71	20020.94
535.88	20266.70
536.05	19957.75
536.22	20484.37
536.38	20414.15
536.55	20276.06
536.72	20446.92
536.89	20599.05
537.06	20121.59
537.23	20292.44
537.40	20458.62
537.57	20861.19
537.74	20936.09
537.91	20975.88
538.08	20308.83
538.25	20442.24
538.42	20744.17
538.59	20924.39
538.75	20585.01
538.92	20460.96
539.09	20758.21
539.26	21064.82
539.43	20830.77
539.60	20879.92
539.77	21043.76
539.94	20905.66
540.11	20795.66
540.28	21074.18
540.44	21137.38
540.61	20908.01
540.78	20982.90
540.95	21362.07
541.12	21521.23
541.29	21556.33
541.46	21626.55
541.62	21502.50
541.79	21579.74
541.96	21483.78
542.13	21451.01
542.30	21362.07
542.47	21317.60
542.63	21603.14
542.80	21610.17
542.97	21493.14
543.14	22066.57
543.31	21947.20
543.48	21994.01
543.64	21968.27
543.81	22246.79
543.98	21912.10
544.15	22216.36
544.32	22092.32
544.48	22143.81
544.65	22101.68
544.82	21783.37
544.99	21593.78
545.16	21717.83
545.32	21991.67
545.49	22476.16
545.66	23248.54
545.83	23220.45
546.00	22988.74
546.16	22515.95
546.33	22155.51
546.50	22111.04
546.67	22361.48
546.83	21884.01
547.00	22174.24
547.17	22562.76
547.34	22228.07
547.50	22338.07
547.67	22434.03
547.84	22183.60
548.00	22235.09
548.17	22342.75
548.34	21935.50
548.51	22508.93
548.67	22314.67
548.84	22239.77
549.01	22504.25
549.18	22270.20
549.34	22471.48
549.51	22291.26
549.68	22008.06
549.84	21916.78
550.01	22389.56
550.18	22405.95
550.34	22317.01
550.51	22089.98
550.68	22499.57
550.84	22469.14
551.01	22590.85
551.18	22225.73
551.34	22349.78
551.51	22551.06
551.68	22307.65
551.84	22726.60
552.01	22312.33
552.18	22384.88
552.34	22225.73
552.51	22576.81
552.68	22541.70
552.84	22574.47
553.01	22658.73
553.18	22506.59
553.34	22836.61
553.51	22389.56
553.67	22504.25
553.84	22881.08
554.01	22815.54
554.17	22548.72
554.34	22469.14
554.51	22689.15
554.67	22810.86
554.84	22712.56
555.00	22761.71
555.17	22628.30
555.33	23026.19
555.50	22698.52
555.67	22822.56
555.83	22338.07
556.00	22726.60
556.16	22965.34
556.33	22775.75
556.50	22794.48
556.66	23101.09
556.83	22845.97
556.99	22803.84
557.16	22707.88
557.32	22803.84
557.49	22986.40
557.65	22972.36
557.82	22803.84
557.98	23199.39
558.15	22721.92
558.32	22918.53
558.48	23164.28
558.65	23283.65
558.81	22890.44
558.98	23138.54
559.14	23026.19
559.31	22691.49
559.47	23009.81
559.64	22836.61
559.80	23183.01
559.97	23124.49
560.13	22850.65
560.30	23183.01
560.46	23290.67
560.63	23026.19
560.79	23119.81
560.96	22836.61
561.12	22906.82
561.29	22757.03
561.45	23019.17
561.61	22925.55
561.78	23145.56
561.94	23098.75
562.11	23101.09
562.27	23215.77
562.44	22888.10
562.60	23019.17
562.77	23208.75
562.93	23171.30
563.10	23187.69
563.26	23349.18
563.42	23393.65
563.59	23117.47
563.75	23166.62
563.92	23438.12
564.08	23168.96
564.24	23349.18
564.41	23164.28
564.57	22981.72
564.74	23302.37
564.90	23089.38
565.07	23194.71
565.23	23545.79
565.39	23276.63
565.56	23393.65
565.72	23073.00
565.88	23234.50
566.05	23180.67
566.21	23248.54
566.38	23098.75
566.54	23634.73
566.70	23293.01
566.87	23531.75
567.03	23611.32
567.19	23674.52
567.36	23370.25
567.52	23335.14
567.68	23229.82
567.85	22960.66
568.01	23344.50
568.17	23585.58
568.34	23463.87
568.50	23372.59
568.66	23557.49
568.83	23651.11
568.99	23211.09
569.15	23349.18
569.32	23517.70
569.48	22930.23
569.64	23424.08
569.81	23620.69
569.97	23115.13
570.13	23386.63
570.30	22955.97
570.46	23452.17
570.62	23328.12
570.78	23014.49
570.95	23175.98
571.11	23564.51
571.27	23168.96
571.43	23309.40
571.60	23491.96
571.76	23335.14
571.92	23543.45
572.09	23634.73
572.25	23468.55
572.41	23232.16
572.57	23461.53
572.74	23623.03
572.90	23098.75
573.06	23407.70
573.22	23564.51
573.38	23501.32
573.55	23396.00
573.71	23711.97
573.87	23421.74
574.03	23470.89
574.20	23325.78
574.36	23314.08
574.52	23456.85
574.68	23431.10
574.84	23613.66
575.01	23403.02
575.17	23353.87
575.33	23433.44
575.49	23400.68
575.65	23536.43
575.82	23470.89
575.98	23349.18
576.14	23796.23
576.30	23466.21
576.46	23412.38
576.62	23466.21
576.79	23501.32
576.95	23309.40
577.11	23866.44
577.27	23363.23
577.43	23730.69
577.59	23515.36
577.75	23627.71
577.92	23786.86
578.08	23477.91
578.24	23632.39
578.40	23754.10
578.56	23768.14
578.72	23522.38
578.88	23702.61
579.04	24023.26
579.21	23548.13
579.37	23796.23
579.53	23929.64
579.69	23601.96
579.85	23655.79
580.01	23487.28
580.17	23314.08
580.33	23587.92
580.49	23702.61
580.65	23639.41
580.82	23407.70
580.98	23522.38
581.14	23686.22
581.30	23690.90
581.46	23639.41
581.62	23454.51
581.78	23690.90
581.94	23824.31
582.10	23669.84
582.26	23545.79
582.42	23700.26
582.58	23503.66
582.74	24053.69
582.90	23704.95
583.06	23901.55
583.22	23775.16
583.38	23630.05
583.54	23651.11
583.70	23630.05
583.86	23393.65
584.02	23646.43
584.18	23929.64
584.34	23718.99
584.50	23995.17
584.66	23843.04
584.82	23522.38
584.98	23688.56
585.14	23730.69
585.30	23300.03
585.46	23756.44
585.62	23597.28
585.78	23597.28
585.94	23608.98
586.10	23789.20
586.26	23597.28
586.42	23714.31
586.58	23821.97
586.74	23697.92
586.90	23716.65
587.06	23728.35
587.22	23728.35
587.38	23885.17
587.54	23871.12
587.70	23819.63
587.86	23943.68
588.02	23946.02
588.18	23697.92
588.34	23508.34
588.49	23812.61
588.65	23576.22
588.81	23672.18
588.97	23733.03
589.13	23814.95
589.29	23770.48
589.45	23693.24
589.61	23747.08
589.77	23798.57
589.93	23924.96
590.08	24245.61
590.24	23300.03
590.40	23927.30
590.56	23845.38
590.72	24070.07
590.88	23676.86
591.04	23868.78
591.20	23821.97
591.35	24254.97
591.51	24173.05
591.67	24133.26
591.83	23777.50
591.99	23931.98
592.15	23751.76
592.31	23693.24
592.46	23971.77
