SpectraSuite Data File
++++++++++++++++++++++++++++++++++++
Date: Fri Oct 04 11:39:34 GMT-05:00 2013
User: price-jones
Dark Spectrum Present: No
Reference Spectrum Present: No
Number of Sampled Component Spectra: 1
Spectrometers: USB2+H05261
Integration Time (usec): 100000 (USB2+H05261)
Spectra Averaged: 1 (USB2+H05261)
Boxcar Smoothing: 0 (USB2+H05261)
Correct for Electrical Dark: No (USB2+H05261)
Strobe/Lamp Enabled: No (USB2+H05261)
Correct for Detector Non-linearity: No (USB2+H05261)
Correct for Stray Light: No (USB2+H05261)
Number of Pixels in Processed Spectrum: 2048
>>>>>Begin Processed Spectral Data<<<<<
365.73	58.51
365.92	58.51
366.12	58.51
366.32	0.00
366.52	0.00
366.72	0.00
366.91	0.00
367.11	0.00
367.31	0.00
367.51	0.00
367.70	0.00
367.90	0.00
368.10	0.00
368.30	0.00
368.49	0.00
368.69	0.00
368.89	0.00
369.09	0.00
369.28	58.51
369.48	0.00
369.68	0.00
369.87	23.41
370.07	56.17
370.27	70.22
370.47	105.32
370.66	79.58
370.86	95.96
371.06	166.18
371.25	166.18
371.45	149.79
371.65	168.52
371.84	142.77
372.04	163.84
372.24	168.52
372.44	163.84
372.63	140.43
372.83	187.24
373.03	147.45
373.22	238.73
373.42	177.88
373.62	234.05
373.81	189.58
374.01	262.14
374.21	184.90
374.40	234.05
374.60	191.92
374.79	170.86
374.99	189.58
375.19	198.95
375.38	231.71
375.58	285.55
375.78	210.65
375.97	184.90
376.17	259.80
376.37	212.99
376.56	147.45
376.76	245.76
376.95	166.18
377.15	238.73
377.35	163.84
377.54	203.63
377.74	257.46
377.93	191.92
378.13	224.69
378.33	266.82
378.52	173.20
378.72	241.08
378.91	198.95
379.11	152.13
379.31	177.88
379.50	227.03
379.70	220.01
379.89	266.82
380.09	224.69
380.28	198.95
380.48	100.64
380.68	245.76
380.87	203.63
381.07	229.37
381.26	304.27
381.46	241.08
381.65	187.24
381.85	294.91
382.04	292.57
382.24	269.16
382.43	294.91
382.63	255.12
382.83	215.33
383.02	278.52
383.22	262.14
383.41	208.31
383.61	245.76
383.80	227.03
384.00	205.97
384.19	173.20
384.39	168.52
384.58	313.63
384.78	252.78
384.97	294.91
385.17	210.65
385.36	262.14
385.56	294.91
385.75	257.46
385.95	248.10
386.14	203.63
386.34	201.29
386.53	292.57
386.72	215.33
386.92	320.65
387.11	285.55
387.31	276.18
387.50	337.04
387.70	215.33
387.89	276.18
388.09	287.89
388.28	234.05
388.48	297.25
388.67	255.12
388.86	294.91
389.06	255.12
389.25	236.39
389.45	269.16
389.64	208.31
389.84	285.55
390.03	351.08
390.22	325.33
390.42	280.86
390.61	248.10
390.81	337.04
391.00	299.59
391.19	245.76
391.39	259.80
391.58	362.78
391.78	294.91
391.97	411.93
392.16	365.12
392.36	360.44
392.55	285.55
392.75	285.55
392.94	290.23
393.13	362.78
393.33	327.68
393.52	397.89
393.71	367.46
393.91	292.57
394.10	341.72
394.29	414.27
394.49	355.76
394.68	322.99
394.88	308.95
395.07	407.25
395.26	437.68
395.46	362.78
395.65	468.11
395.84	451.72
396.04	433.00
396.23	472.79
396.42	414.27
396.62	414.27
396.81	421.30
397.00	374.49
397.19	383.85
397.39	440.02
397.58	393.21
397.77	454.06
397.97	461.09
398.16	388.53
398.35	468.11
398.55	454.06
398.74	409.59
398.93	472.79
399.12	461.09
399.32	465.77
399.51	418.96
399.70	500.87
399.90	521.94
400.09	505.56
400.28	545.34
400.47	477.47
400.67	550.03
400.86	500.87
401.05	599.18
401.24	554.71
401.44	564.07
401.63	587.47
401.82	648.33
402.01	599.18
402.21	608.54
402.40	550.03
402.59	655.35
402.78	566.41
402.97	627.26
403.17	678.76
403.36	685.78
403.55	667.05
403.74	645.99
403.93	739.61
404.13	737.27
404.32	669.39
404.51	688.12
404.70	746.63
404.89	748.97
405.09	849.61
405.28	690.46
405.47	704.50
405.66	758.33
405.85	777.06
406.05	809.83
406.24	805.14
406.43	840.25
406.62	849.61
406.81	891.74
407.00	840.25
407.20	791.10
407.39	840.25
407.58	961.96
407.77	978.34
407.96	952.60
408.15	987.71
408.34	945.58
408.54	997.07
408.73	1015.79
408.92	922.17
409.11	1020.47
409.30	1062.60
409.49	971.32
409.68	1116.44
409.87	1015.79
410.07	1034.52
410.26	1001.75
410.45	1064.94
410.64	1200.69
410.83	1188.99
411.02	1165.59
411.21	1186.65
411.40	1149.20
411.59	1221.76
411.78	1261.55
411.98	1261.55
412.17	1280.27
412.36	1247.51
412.55	1282.61
412.74	1320.06
412.93	1378.58
413.12	1334.11
413.31	1425.39
413.50	1411.34
413.69	1409.00
413.88	1486.24
414.07	1523.69
414.26	1441.77
414.45	1409.00
414.64	1399.64
414.83	1572.84
415.02	1519.01
415.22	1701.57
415.41	1614.97
415.60	1610.29
415.79	1640.72
415.98	1682.85
416.17	1619.65
416.36	1626.67
416.55	1724.97
416.74	1867.75
416.93	1839.66
417.12	1720.29
417.31	1799.87
417.50	1732.00
417.69	1764.76
417.88	1893.49
418.07	1870.09
418.26	1884.13
418.45	1860.73
418.64	1980.09
418.83	1874.77
419.02	1933.28
419.21	1980.09
419.39	1968.39
419.58	2003.50
419.77	1916.90
419.96	2111.16
420.15	2062.01
420.34	2022.22
420.53	2054.99
420.72	2214.15
420.91	2157.97
421.10	2193.08
421.29	2218.83
421.48	2141.59
421.67	2092.44
421.86	2195.42
422.05	2214.15
422.24	2139.25
422.43	1975.41
422.61	2101.80
422.80	2293.72
422.99	2289.04
423.18	2200.10
423.37	2293.72
423.56	2195.42
423.75	2246.91
423.94	2174.36
424.13	2113.50
424.32	2153.29
424.50	2253.94
424.69	2286.70
424.88	2380.32
425.07	2251.60
425.26	2190.74
425.45	2223.51
425.64	2296.07
425.83	2209.47
426.01	2349.90
426.20	2307.77
426.39	2260.96
426.58	2291.38
426.77	2396.71
426.96	2387.35
427.15	2321.81
427.33	2373.30
427.52	2399.05
427.71	2373.30
427.90	2429.48
428.09	2340.54
428.28	2361.60
428.46	2527.78
428.65	2464.58
428.84	2586.29
429.03	2579.27
429.22	2562.89
429.40	2441.18
429.59	2434.16
429.78	2520.76
429.97	2480.97
430.16	2471.61
430.34	2612.04
430.53	2668.21
430.72	2677.57
430.91	2703.32
431.10	2651.83
431.28	2679.91
431.47	2665.87
431.66	2829.71
431.85	2684.59
432.03	2668.21
432.22	3000.57
432.41	2729.06
432.60	2799.28
432.79	2740.77
432.97	2822.69
433.16	2834.39
433.35	2780.56
433.54	2808.64
433.72	2722.04
433.91	2857.79
434.10	2860.13
434.28	2857.79
434.47	2911.63
434.66	2986.52
434.85	3023.97
435.03	3038.02
435.22	3150.36
435.41	3300.16
435.59	3356.33
435.78	3126.96
435.97	3129.30
436.16	3136.32
436.34	2995.89
436.53	2986.52
436.72	3098.87
436.90	3190.15
437.09	3190.15
437.28	3185.47
437.46	3063.76
437.65	3225.26
437.84	3145.68
438.02	3218.24
438.21	3290.79
438.40	3075.46
438.58	3192.49
438.77	3302.50
438.96	3297.81
439.14	3309.52
439.33	3410.16
439.52	3286.11
439.70	3417.18
439.89	3449.95
440.08	3438.25
440.26	3421.86
440.45	3550.59
440.63	3337.60
440.82	3524.85
441.01	3524.85
441.19	3639.53
441.38	3648.90
441.57	3648.90
441.75	3695.71
441.94	3735.50
442.12	3716.77
442.31	3730.81
442.50	3709.75
442.68	3700.39
442.87	3660.60
443.05	3763.58
443.24	3904.01
443.43	3866.56
443.61	3887.63
443.80	3941.46
443.98	3777.62
444.17	3829.12
444.35	3801.03
444.54	3847.84
444.73	3889.97
444.91	3911.04
445.10	3840.82
445.28	3861.88
445.47	3786.99
445.65	3960.19
445.84	3934.44
446.02	3971.89
446.21	4128.70
446.39	3976.57
446.58	3971.89
446.77	4044.45
446.95	3751.88
447.14	3976.57
447.32	3934.44
447.51	3836.14
447.69	3990.61
447.88	3978.91
448.06	4166.15
448.25	4039.76
448.43	3967.21
448.62	3992.95
448.80	4159.13
448.99	4053.81
449.17	4030.40
449.36	4079.55
449.54	4107.64
449.73	4025.72
449.91	4140.41
450.10	4067.85
450.28	4297.22
450.46	4308.93
450.65	4229.35
450.83	4191.90
451.02	4339.35
451.20	4238.71
451.39	4182.54
451.57	4308.93
451.76	4337.01
451.94	4255.09
452.13	4390.84
452.31	4287.86
452.49	4269.14
452.68	4397.87
452.86	4341.69
453.05	4383.82
453.23	4327.65
453.42	4311.27
453.60	4388.50
453.78	4589.79
453.97	4545.32
454.15	4437.66
454.34	4407.23
454.52	4503.19
454.70	4482.13
454.89	4390.84
455.07	4550.00
455.26	4615.54
455.44	4674.05
455.62	4601.49
455.81	4596.81
455.99	4674.05
456.17	4678.73
456.36	4599.15
456.54	4849.59
456.73	4964.28
456.91	5006.41
457.09	4870.65
457.28	5116.41
457.46	4755.97
457.64	5004.07
457.83	4816.82
458.01	4718.52
458.19	4968.96
458.38	4774.69
458.56	5128.11
458.74	5102.37
458.93	4931.51
459.11	4990.02
459.29	5029.81
459.48	5015.77
459.66	5114.07
459.84	5102.37
460.03	5132.79
460.21	4983.00
460.39	5160.88
460.57	4975.98
460.76	5032.15
460.94	5198.33
461.12	5006.41
461.31	5025.13
461.49	5291.95
461.67	5167.90
461.85	5441.75
462.04	5284.93
462.22	5507.28
462.40	5343.44
462.59	5317.70
462.77	5378.55
462.95	5575.16
463.13	5397.28
463.32	5432.38
463.50	5628.99
463.68	5437.06
463.86	5343.44
464.05	5369.19
464.23	5446.43
464.41	5432.38
464.59	5394.93
464.78	5537.71
464.96	5556.43
465.14	5682.82
465.32	5610.26
465.50	5621.97
465.69	5750.70
465.87	5694.52
466.05	5589.20
466.23	5565.79
466.41	5551.75
466.60	5811.55
466.78	5678.14
466.96	5769.42
467.14	5783.46
467.32	5640.69
467.51	5898.15
467.69	5650.05
467.87	5734.31
468.05	5895.81
468.23	5771.76
468.41	5767.08
468.60	5762.40
468.78	5956.66
468.96	5818.57
469.14	5809.21
469.32	5881.77
469.50	5767.08
469.69	6045.60
469.87	6069.01
470.05	6167.31
470.23	6174.33
470.41	6120.50
470.59	6291.36
470.77	5982.41
470.95	6225.82
471.14	6246.89
471.32	6218.80
471.50	6354.55
471.68	6228.17
471.86	6324.13
472.04	6424.77
472.22	6623.72
472.40	6380.30
472.58	6331.15
472.77	6356.90
472.95	6471.58
473.13	6736.06
473.31	6516.05
473.49	6354.55
473.67	6619.04
473.85	6600.31
474.03	6839.05
474.21	6761.81
474.39	6750.10
474.57	6843.73
474.75	6874.15
474.93	6970.12
475.12	6693.93
475.30	6963.09
475.48	6808.62
475.66	7045.01
475.84	7009.90
476.02	7166.72
476.20	7140.97
476.38	7201.83
476.56	7447.58
476.74	7314.17
476.92	7445.24
477.10	7396.09
477.28	7412.48
477.46	7480.35
477.64	7473.33
477.82	7559.93
478.00	7588.02
478.18	7826.75
478.36	7698.02
478.54	7889.95
478.72	7894.63
478.90	7995.27
479.08	8072.51
479.26	7932.08
479.44	8039.74
479.62	8334.65
479.80	8315.92
479.98	8407.20
480.16	8294.86
480.34	8468.06
480.52	8428.27
480.70	8346.35
480.88	8566.36
481.06	8535.93
481.24	8531.25
481.41	8727.86
481.59	8812.12
481.77	8908.08
481.95	8762.97
482.13	8929.14
482.31	9114.05
482.49	9081.28
482.67	9282.56
482.85	9338.74
483.03	9373.85
483.21	9706.20
483.39	9596.20
483.57	9708.54
483.74	9635.99
483.92	9774.08
484.10	9767.06
484.28	9762.37
484.46	10022.17
484.64	10122.82
484.82	9912.17
485.00	10195.37
485.18	10286.65
485.35	10408.36
485.53	10352.19
485.71	10279.63
485.89	10630.71
486.07	10619.01
486.25	10607.31
486.43	10567.52
486.61	10738.38
486.78	10934.98
486.96	11042.65
487.14	11122.23
487.32	11187.76
487.50	11267.34
487.68	11412.45
487.85	11316.49
488.03	11492.03
488.21	11679.27
488.39	11786.94
488.57	11747.15
488.75	11775.24
488.92	12393.14
489.10	12238.66
489.28	12119.29
489.46	12203.55
489.64	12065.46
489.81	12636.55
489.99	12540.59
490.17	12585.06
490.35	12739.54
490.53	12650.60
490.70	12741.88
490.88	12730.17
491.06	12954.87
491.24	12952.52
491.41	12936.14
491.59	13322.33
491.77	13064.87
491.95	13481.49
492.13	13420.63
492.30	13624.26
492.48	13455.74
492.66	14003.43
492.84	13689.79
493.01	13802.14
493.19	13958.96
493.37	14047.90
493.54	13973.00
493.72	14225.78
493.90	14249.18
494.08	14157.90
494.25	14267.91
494.43	14733.67
494.61	14607.28
494.79	14438.76
494.96	14607.28
495.14	14745.38
495.32	15129.22
495.49	14843.68
495.67	15183.06
495.85	15260.29
496.02	15234.55
496.20	15288.38
496.38	15166.67
496.55	15503.71
496.73	15871.17
496.91	15527.11
497.09	15524.77
497.26	15714.36
497.44	15620.74
497.62	15826.70
497.79	16133.31
497.97	16011.60
498.14	16437.58
498.32	16065.44
498.50	16027.99
498.67	16423.54
498.85	16203.53
499.03	16435.24
499.20	16596.74
499.38	16358.00
499.56	16788.66
499.73	16636.53
499.91	16978.25
500.08	16697.38
500.26	17090.59
500.44	17064.85
500.61	17209.96
500.79	16809.73
500.97	16947.82
501.14	17167.83
501.32	17455.72
501.49	17214.64
501.67	17497.84
501.84	17547.00
502.02	17439.33
502.20	17713.17
502.37	17722.54
502.55	17649.98
502.72	17706.15
502.90	17554.02
503.07	17919.14
503.25	17891.06
503.43	17877.01
503.60	18061.91
503.78	18256.18
503.95	18054.89
504.13	18417.68
504.30	18331.08
504.48	18211.71
504.65	18607.26
504.83	18494.91
505.01	18654.07
505.18	18611.94
505.36	18803.86
505.53	18532.36
505.71	18827.27
505.88	18789.82
506.06	18675.13
506.23	18984.09
506.41	19042.60
506.58	19246.23
506.76	19042.60
506.93	18979.40
507.11	18855.36
507.28	19126.86
507.46	19339.85
507.63	19550.49
507.81	19391.34
507.98	19527.09
508.16	19953.07
508.33	19145.58
508.50	19941.36
508.68	19576.24
508.85	19758.80
509.03	19793.91
509.20	20311.17
509.38	19861.79
509.55	20175.42
509.73	20208.19
509.90	20163.72
510.08	20252.66
510.25	20280.74
510.42	20367.34
510.60	20776.94
510.77	20643.52
510.95	20662.25
511.12	20500.75
511.30	20528.84
511.47	20762.89
511.64	20685.65
511.82	20872.90
511.99	20814.38
512.17	21132.70
512.34	20982.90
512.51	21228.66
512.69	21149.08
512.86	21123.33
513.04	21661.66
513.21	21488.46
513.38	21397.18
513.56	21799.75
513.73	21298.88
513.90	21488.46
514.08	21341.00
514.25	21598.46
514.43	21694.43
514.60	21790.39
514.77	21734.21
514.95	21996.35
515.12	22125.08
515.29	21935.50
515.47	21961.25
515.64	21722.51
515.81	21944.86
515.99	22176.58
516.16	22298.28
516.33	22319.35
516.51	22422.33
516.68	22244.45
516.85	22225.73
517.03	22242.11
517.20	22747.67
517.37	22429.35
517.54	22691.49
517.72	22698.52
517.89	22661.07
518.06	22955.97
518.24	22909.16
518.41	22288.92
518.58	23295.35
518.75	23028.53
518.93	23138.54
519.10	23068.32
519.27	23229.82
519.45	23002.78
519.62	22946.61
519.79	23152.58
519.96	23028.53
520.14	23255.56
520.31	23269.61
520.48	23805.59
520.65	23599.62
520.83	23571.54
521.00	23995.17
521.17	23557.49
521.34	23466.21
521.52	23910.91
521.69	23798.57
521.86	24088.79
522.03	24135.60
522.20	23714.31
522.38	23772.82
522.55	24102.84
522.72	23807.93
522.89	24034.96
523.07	24297.10
523.24	24098.16
523.41	24493.71
523.58	24034.96
523.75	24243.27
523.92	24318.17
524.10	24774.57
524.27	24538.18
524.44	24828.40
524.61	24884.58
524.78	24819.04
524.96	24573.28
525.13	24978.20
525.30	25097.56
525.47	24519.45
525.64	25029.69
525.81	24989.90
525.98	25120.97
526.16	25406.52
526.33	24924.36
526.50	25434.60
526.67	24847.13
526.84	25200.55
527.01	25097.56
527.18	25188.85
527.36	25378.43
527.53	25406.52
527.70	25958.88
527.87	25610.14
528.04	25743.55
528.21	25481.41
528.38	25750.57
528.55	25614.82
528.72	25280.13
528.89	25582.06
529.07	25722.49
529.24	25818.45
529.41	26052.50
529.58	25818.45
529.75	25921.43
529.92	25963.56
530.09	25893.35
530.26	26115.70
530.43	26167.19
530.60	26260.81
530.77	26214.00
530.94	26347.41
531.11	26078.25
531.28	26417.63
531.46	26281.88
531.63	26398.90
531.80	26455.08
531.97	26576.78
532.14	26625.93
532.31	26445.71
532.48	26656.36
532.65	26469.12
532.82	26263.15
532.99	27044.89
533.16	26380.18
533.33	27054.25
533.50	27150.21
533.67	27019.14
533.84	26745.30
534.01	26611.89
534.18	26429.33
534.35	27440.44
534.52	26927.86
534.69	26988.72
534.86	26934.88
535.03	27243.84
535.20	27543.42
535.37	27271.92
535.54	27447.46
535.71	27365.54
535.88	27131.49
536.05	27122.13
536.22	27454.48
536.38	27498.95
536.55	27309.37
536.72	27550.45
536.89	27358.52
537.06	27356.18
537.23	27658.11
537.40	27349.16
537.57	27517.68
537.74	27782.16
537.91	28163.67
538.08	27573.85
538.25	28142.60
538.42	27541.08
538.59	28105.15
538.75	27683.86
538.92	27630.02
539.09	27920.25
539.26	28067.70
539.43	28166.01
539.60	28271.33
539.77	28430.49
539.94	28247.93
540.11	28187.07
540.28	28072.39
540.44	28306.44
540.61	28379.00
540.78	28252.61
540.95	28381.34
541.12	28542.83
541.29	28486.66
541.46	28936.04
541.62	29006.26
541.79	28716.03
541.96	28547.51
542.13	28465.60
542.30	28975.83
542.47	29233.29
542.63	29191.16
542.80	28816.68
542.97	29151.37
543.14	29628.84
543.31	29406.49
543.48	28994.56
543.64	29188.82
543.81	29544.58
543.98	29659.27
544.15	29507.13
544.32	29912.05
544.48	29785.66
544.65	29331.59
544.82	29415.85
544.99	29303.51
545.16	29230.95
545.32	29252.02
545.49	30040.78
545.66	30490.16
545.83	30562.72
546.00	30405.90
546.16	29738.85
546.33	29680.33
546.50	29457.98
546.67	29518.84
546.83	29333.93
547.00	29418.19
547.17	29528.20
547.34	29914.39
547.50	29914.39
547.67	30029.07
547.84	29823.11
548.00	29930.77
548.17	29757.57
548.34	30272.49
548.51	29848.85
548.67	30043.12
548.84	29848.85
549.01	29579.69
549.18	29996.31
549.34	29912.05
549.51	30050.14
549.68	29783.32
549.84	29776.30
550.01	29937.79
550.18	30066.52
550.34	30167.16
550.51	29682.67
550.68	30178.87
550.84	29813.74
551.01	30181.21
551.18	29881.62
551.34	29881.62
551.51	30221.00
551.68	30218.66
551.84	30068.86
552.01	29888.64
552.18	30199.93
552.34	30197.59
552.51	30148.44
552.68	30235.04
552.84	30370.79
553.01	30370.79
553.18	30225.68
553.34	30527.61
553.51	29825.45
553.67	30155.46
553.84	30831.88
554.01	30792.09
554.17	30450.37
554.34	30464.41
554.51	30649.32
554.67	30441.01
554.84	30391.86
555.00	30443.35
555.17	30874.01
555.33	30735.92
555.50	30499.52
555.67	30607.19
555.83	30506.54
556.00	30572.08
556.16	30925.50
556.33	30459.73
556.50	30110.99
556.66	30960.61
556.83	30654.00
556.99	30658.68
557.16	30768.68
557.32	30703.15
557.49	30834.22
557.65	30298.23
557.82	30810.81
557.98	30635.27
558.15	30359.09
558.32	30764.00
558.48	30616.55
558.65	30897.41
558.81	31409.99
558.98	31473.18
559.14	31056.57
559.31	30562.72
559.47	30768.68
559.64	30583.78
559.80	31075.29
559.97	30955.93
560.13	30941.88
560.30	31384.24
560.46	31124.44
560.63	30834.22
560.79	31021.46
560.96	31206.36
561.12	30815.49
561.29	30979.33
561.45	31000.40
561.61	30827.20
561.78	31157.21
561.94	30859.96
562.11	31023.80
562.27	31253.17
562.44	31122.10
562.60	31197.00
562.77	31281.26
562.93	30967.63
563.10	31632.34
563.26	31091.68
563.42	31307.01
563.59	31510.63
563.75	31330.41
563.92	31105.72
564.08	30976.99
564.24	31147.85
564.41	30899.75
564.57	31534.04
564.74	31189.98
564.90	31082.31
565.07	31349.14
565.23	31463.82
565.39	31489.57
565.56	31159.55
565.72	31218.07
565.88	31257.85
566.05	31370.20
566.21	31271.90
566.38	31026.14
566.54	31182.96
566.70	31952.99
566.87	31761.07
567.03	31246.15
567.19	31578.51
567.36	31386.58
567.52	31105.72
567.68	31351.48
567.85	31079.97
568.01	31087.00
568.17	31447.44
568.34	31527.02
568.50	31407.65
568.66	31562.12
568.83	31634.68
568.99	31606.59
569.15	31089.34
569.32	31091.68
569.48	31428.71
569.64	31297.64
569.81	31445.10
569.97	31021.46
570.13	31693.19
570.30	31367.86
570.46	31543.40
570.62	31395.95
570.78	31346.79
570.95	31512.97
571.11	31349.14
571.27	31407.65
571.43	31323.39
571.60	31218.07
571.76	31213.38
571.92	31676.81
572.09	31784.48
572.25	31461.48
572.41	31349.14
572.57	31559.78
572.74	31667.45
572.90	31571.49
573.06	31496.59
573.22	31608.93
573.38	31316.37
573.55	31335.09
573.71	31910.86
573.87	31522.34
574.03	31201.68
574.20	31072.95
574.36	31484.89
574.52	31152.53
574.68	31262.54
574.84	31817.24
575.01	31817.24
575.17	31749.37
575.33	31974.06
575.49	31550.42
575.65	31601.91
575.82	31798.52
575.98	31627.66
576.14	31512.97
576.30	31552.76
576.46	31508.29
576.62	31538.72
576.79	31751.71
576.95	31775.11
577.11	31625.32
577.27	31749.37
577.43	31976.40
577.59	31831.29
577.75	31637.02
577.92	31229.77
578.08	31124.44
578.24	31885.12
578.40	31601.91
578.56	31995.12
578.72	32063.00
578.88	32538.13
579.04	32268.97
579.21	31665.11
579.37	31903.84
579.53	31847.67
579.69	31278.92
579.85	31424.03
580.01	31747.03
580.17	31527.02
580.33	31716.60
580.49	31615.96
580.65	31934.27
580.82	31693.19
580.98	32048.96
581.14	31548.08
581.30	32004.49
581.46	31658.09
581.62	31702.56
581.78	31395.95
581.94	31779.79
582.10	31470.84
582.26	31791.50
582.42	31857.03
582.58	31604.25
582.74	31864.05
582.90	31796.18
583.06	31786.82
583.22	31700.22
583.38	31648.72
583.54	31501.27
583.70	31543.40
583.86	31440.42
584.02	31887.46
584.18	31779.79
584.34	31653.40
584.50	32128.53
584.66	32081.72
584.82	31697.88
584.98	32093.43
585.14	31744.69
585.30	31831.29
585.46	31709.58
585.62	31674.47
585.78	31683.83
585.94	31557.44
586.10	31711.92
586.26	31627.66
586.42	31882.78
586.58	32170.66
586.74	31889.80
586.90	31571.49
587.06	31763.41
587.22	31838.31
587.38	31665.11
587.54	31908.52
587.70	31978.74
587.86	32100.45
588.02	31950.65
588.18	32016.19
588.34	31796.18
588.49	32095.77
588.65	31630.00
588.81	31899.16
588.97	31812.56
589.13	31868.73
589.29	31974.06
589.45	32025.55
589.61	32074.70
589.77	32147.26
589.93	31798.52
590.08	32109.81
590.24	32093.43
590.40	31927.25
590.56	32058.32
590.72	32034.91
590.88	31641.70
591.04	32051.30
591.20	32060.66
591.35	32020.87
591.51	32355.57
591.67	32371.95
591.83	32378.97
