SpectraSuite Data File
++++++++++++++++++++++++++++++++++++
Date: Fri Oct 04 11:39:19 GMT-05:00 2013
User: price-jones
Dark Spectrum Present: No
Reference Spectrum Present: No
Number of Sampled Component Spectra: 1
Spectrometers: USB2+H05261
Integration Time (usec): 100000 (USB2+H05261)
Spectra Averaged: 1 (USB2+H05261)
Boxcar Smoothing: 0 (USB2+H05261)
Correct for Electrical Dark: No (USB2+H05261)
Strobe/Lamp Enabled: No (USB2+H05261)
Correct for Detector Non-linearity: No (USB2+H05261)
Correct for Stray Light: No (USB2+H05261)
Number of Pixels in Processed Spectrum: 2048
>>>>>Begin Processed Spectral Data<<<<<
365.73	63.19
365.92	63.19
366.12	63.19
366.32	0.00
366.52	0.00
366.72	0.00
366.91	21.06
367.11	7.02
367.31	0.00
367.51	0.00
367.70	0.00
367.90	0.00
368.10	0.00
368.30	18.72
368.49	0.00
368.69	14.04
368.89	0.00
369.09	0.00
369.28	0.00
369.48	0.00
369.68	0.00
369.87	0.00
370.07	56.17
370.27	28.09
370.47	126.39
370.66	203.63
370.86	287.89
371.06	276.18
371.25	290.23
371.45	252.78
371.65	327.68
371.84	264.48
372.04	266.82
372.24	280.86
372.44	320.65
372.63	355.76
372.83	418.96
373.03	330.02
373.22	315.97
373.42	379.17
373.62	273.84
373.81	372.15
374.01	355.76
374.21	358.10
374.40	355.76
374.60	386.19
374.79	369.80
374.99	416.62
375.19	430.66
375.38	458.74
375.58	400.23
375.78	425.98
375.97	341.72
376.17	475.13
376.37	402.57
376.56	486.83
376.76	388.53
376.95	433.00
377.15	414.27
377.35	411.93
377.54	411.93
377.74	358.10
377.93	421.30
378.13	451.72
378.33	470.45
378.52	344.06
378.72	510.24
378.91	430.66
379.11	430.66
379.31	393.21
379.50	463.43
379.70	465.77
379.89	486.83
380.09	397.89
380.28	449.38
380.48	449.38
380.68	470.45
380.87	416.62
381.07	475.13
381.26	496.19
381.46	550.03
381.65	484.49
381.85	442.36
382.04	498.53
382.24	461.09
382.43	456.40
382.63	442.36
382.83	528.96
383.02	533.64
383.22	610.88
383.41	451.72
383.61	543.00
383.80	535.98
384.00	475.13
384.19	543.00
384.39	543.00
384.58	489.17
384.78	601.52
384.97	533.64
385.17	578.11
385.36	564.07
385.56	545.34
385.75	491.51
385.95	470.45
386.14	531.30
386.34	540.66
386.53	587.47
386.72	620.24
386.92	592.16
387.11	641.31
387.31	528.96
387.50	528.96
387.70	582.79
387.89	596.84
388.09	568.75
388.28	603.86
388.48	507.90
388.67	648.33
388.86	648.33
389.06	636.63
389.25	671.73
389.45	624.92
389.64	636.63
389.84	678.76
390.03	648.33
390.22	629.60
390.42	585.13
390.61	692.80
390.81	645.99
391.00	716.20
391.19	695.14
391.39	744.29
391.58	716.20
391.78	725.57
391.97	732.59
392.16	601.52
392.36	786.42
392.55	767.70
392.75	751.31
392.94	741.95
393.13	706.84
393.33	774.72
393.52	669.39
393.71	816.85
393.91	800.46
394.10	741.95
394.29	718.54
394.49	763.01
394.68	840.25
394.88	791.10
395.07	912.81
395.26	791.10
395.46	760.67
395.65	851.96
395.84	882.38
396.04	901.11
396.23	812.17
396.42	800.46
396.62	800.46
396.81	840.25
397.00	786.42
397.19	887.06
397.39	931.53
397.58	990.05
397.77	938.55
397.97	926.85
398.16	976.00
398.35	1036.86
398.55	905.79
398.74	915.15
398.93	980.68
399.12	940.90
399.32	1013.45
399.51	1015.79
399.70	1144.52
399.90	1088.35
400.09	1004.09
400.28	973.66
400.47	1041.54
400.67	1109.41
400.86	1071.97
401.05	1100.05
401.24	1102.39
401.44	1156.22
401.63	1177.29
401.82	1158.57
402.01	1123.46
402.21	1144.52
402.40	1196.01
402.59	1111.75
402.78	1135.16
402.97	1156.22
403.17	1268.57
403.36	1242.82
403.55	1252.19
403.74	1350.49
403.93	1303.68
404.13	1322.40
404.32	1287.29
404.51	1259.21
404.70	1373.89
404.89	1245.16
405.09	1423.05
405.28	1294.32
405.47	1355.17
405.66	1423.05
405.85	1423.05
406.05	1362.19
406.24	1451.13
406.43	1521.35
406.62	1390.28
406.81	1659.44
407.00	1570.50
407.20	1439.43
407.39	1467.52
407.58	1514.33
407.77	1586.88
407.96	1537.73
408.15	1507.30
408.34	1614.97
408.54	1638.38
408.73	1490.92
408.92	1643.06
409.11	1631.35
409.30	1757.74
409.49	1540.07
409.68	1678.16
409.87	1671.14
410.07	1703.91
410.26	1675.82
410.45	1757.74
410.64	1795.19
410.83	1884.13
411.02	1799.87
411.21	1825.62
411.40	1891.15
411.59	1788.17
411.78	1846.68
411.98	1813.92
412.17	1809.23
412.36	1987.11
412.55	1952.01
412.74	2026.90
412.93	1982.43
413.12	1991.80
413.31	2141.59
413.50	2113.50
413.69	2132.23
413.88	2204.78
414.07	2141.59
414.26	2139.25
414.45	2106.48
414.64	2258.62
414.83	2263.30
415.02	2230.53
415.22	2277.34
415.41	2373.30
415.60	2319.47
415.79	2368.62
415.98	2450.54
416.17	2417.77
416.36	2289.04
416.55	2296.07
416.74	2361.60
416.93	2443.52
417.12	2441.18
417.31	2579.27
417.50	2420.11
417.69	2621.40
417.88	2607.36
418.07	2602.68
418.26	2663.53
418.45	2729.06
418.64	2848.43
418.83	2731.41
419.02	2801.62
419.21	2813.32
419.39	2642.46
419.58	2691.62
419.77	2738.43
419.96	2803.96
420.15	2883.54
420.34	2747.79
420.53	2881.20
420.72	2909.29
420.91	2963.12
421.10	2986.52
421.29	3007.59
421.48	2946.73
421.67	3016.95
421.86	2897.58
422.05	2897.58
422.24	2974.82
422.43	2939.71
422.61	2953.76
422.80	3075.46
422.99	3021.63
423.18	3045.04
423.37	3023.97
423.56	3089.51
423.75	3082.49
423.94	2988.86
424.13	2794.60
424.32	2892.90
424.50	3073.12
424.69	3215.90
424.88	3236.96
425.07	3143.34
425.26	2928.01
425.45	3077.80
425.64	2977.16
425.83	3089.51
426.01	3206.53
426.20	3096.53
426.39	3054.40
426.58	3225.26
426.77	3171.43
426.96	3112.91
427.15	3201.85
427.33	3141.00
427.52	3148.02
427.71	3192.49
427.90	3239.30
428.09	3307.18
428.28	3267.39
428.46	3405.48
428.65	3229.94
428.84	3445.27
429.03	3431.23
429.22	3204.19
429.40	3398.46
429.59	3372.71
429.78	3330.58
429.97	3361.01
430.16	3344.63
430.34	3412.50
430.53	3478.04
430.72	3531.87
430.91	3459.31
431.10	3625.49
431.28	3616.13
431.47	3630.17
431.66	3606.77
431.85	3667.62
432.03	3627.83
432.22	3794.01
432.41	3777.62
432.60	3754.22
432.79	3669.96
432.97	3737.84
433.16	3716.77
433.35	3772.94
433.54	3906.35
433.72	3784.65
433.91	3850.18
434.10	3857.20
434.28	3709.75
434.47	3999.98
434.66	3943.80
434.85	4035.08
435.03	4037.42
435.22	4177.86
435.41	4517.23
435.59	4367.44
435.78	4360.42
435.97	4107.64
436.16	4152.11
436.34	3971.89
436.53	4126.36
436.72	4145.09
436.90	4007.00
437.09	4124.02
437.28	4007.00
437.46	4234.03
437.65	4145.09
437.84	4311.27
438.02	4278.50
438.21	4320.63
438.40	4301.90
438.58	4414.25
438.77	4568.73
438.96	4390.84
439.14	4454.04
439.33	4573.41
439.52	4521.92
439.70	4404.89
439.89	4320.63
440.08	4725.54
440.26	4664.69
440.45	4809.80
440.63	4645.96
440.82	4718.52
441.01	4755.97
441.19	4681.07
441.38	4781.71
441.57	4863.63
441.75	4947.89
441.94	4957.25
442.12	4966.62
442.31	5188.97
442.50	5015.77
442.68	4990.02
442.87	5100.03
443.05	5046.20
443.24	5078.96
443.43	4959.60
443.61	5163.22
443.80	5317.70
443.98	5085.98
444.17	5064.92
444.35	5093.01
444.54	5235.78
444.73	5195.99
444.91	5088.32
445.10	5364.51
445.28	5219.39
445.47	5104.71
445.65	5280.25
445.84	5280.25
446.02	5350.46
446.21	5235.78
446.39	5212.37
446.58	5282.59
446.77	5200.67
446.95	5081.30
447.14	5348.12
447.32	5238.12
447.51	5357.49
447.69	5317.70
447.88	5376.21
448.06	5451.11
448.25	5224.08
448.43	5465.15
448.62	5308.34
448.80	5289.61
448.99	5399.62
449.17	5455.79
449.36	5416.00
449.54	5825.59
449.73	5668.78
449.91	5621.97
450.10	5621.97
450.28	5872.40
450.46	5603.24
450.65	5727.29
450.83	5710.91
451.02	5671.12
451.20	5809.21
451.39	5853.68
451.57	5783.46
451.76	5877.09
451.94	5837.30
452.13	5959.00
452.31	5933.26
452.49	5729.63
452.68	5921.56
452.86	5926.24
453.05	6033.90
453.23	6087.73
453.42	6005.81
453.60	5886.45
453.78	5942.62
453.97	5860.70
454.15	6017.52
454.34	6029.22
454.52	6115.82
454.70	6059.65
454.89	6317.11
455.07	6134.54
455.26	6221.14
455.44	6167.31
455.62	6230.51
455.81	6239.87
455.99	6328.81
456.17	6382.64
456.36	6420.09
456.54	6384.98
456.73	6354.55
456.91	6487.96
457.09	6555.84
457.28	6848.41
457.46	6420.09
457.64	6635.42
457.83	6604.99
458.01	6567.54
458.19	6649.46
458.38	6595.63
458.56	6803.94
458.74	6841.39
458.93	6679.89
459.11	6480.94
459.29	6899.90
459.48	6820.32
459.66	6759.47
459.84	6895.22
460.03	7190.13
460.21	6832.02
460.39	6897.56
460.57	6803.94
460.76	6991.18
460.94	7122.25
461.12	7162.04
461.31	7089.48
461.49	6902.24
461.67	7124.59
461.85	7173.74
462.04	7204.17
462.22	7749.51
462.40	7403.11
462.59	7197.15
462.77	7229.91
462.95	7358.64
463.13	7297.79
463.32	7318.86
463.50	7372.69
463.68	7260.34
463.86	7421.84
464.05	7232.26
464.23	7229.91
464.41	7356.30
464.59	7414.82
464.78	7597.38
464.96	7391.41
465.14	7351.62
465.32	7581.00
465.50	7646.53
465.69	7552.91
465.87	7534.18
466.05	7536.52
466.23	7555.25
466.41	7812.71
466.60	7845.48
466.78	7805.69
466.96	7716.75
467.14	7803.35
467.32	7691.00
467.51	7836.11
467.69	7543.55
467.87	7784.62
468.05	7775.26
468.23	7985.91
468.41	7723.77
468.60	7953.14
468.78	7948.46
468.96	7817.39
469.14	8046.76
469.32	8224.64
469.50	7887.61
469.69	8042.08
469.87	8112.30
470.05	8208.26
470.23	8278.47
470.41	8341.67
470.59	8407.20
470.77	8212.94
470.95	8238.69
471.14	8339.33
471.32	8287.84
471.50	8643.60
471.68	8458.70
471.86	8557.00
472.04	8568.70
472.22	8889.35
472.40	8622.53
472.58	8615.51
472.77	8608.49
472.95	8767.65
473.13	9109.36
473.31	8823.82
473.49	8781.69
473.67	8898.72
473.85	8868.29
474.03	9125.75
474.21	8954.89
474.39	9149.15
474.57	9256.82
474.75	9282.56
474.93	9275.54
475.12	9247.46
475.30	9413.63
475.48	9355.12
475.66	9327.03
475.84	9350.44
476.02	9673.43
476.20	9619.60
476.38	9717.90
476.56	9790.46
476.74	9799.82
476.92	9933.23
477.10	9961.32
477.28	9966.00
477.46	9951.96
477.64	10223.46
477.82	10129.84
478.00	10733.70
478.18	10366.23
478.36	10530.07
478.54	10817.96
478.72	10705.61
478.90	10841.36
479.08	10832.00
479.26	10890.51
479.44	11143.29
479.62	11330.53
479.80	11044.99
479.98	11339.90
480.16	11442.88
480.34	11052.01
480.52	11674.59
480.70	11545.86
480.88	11396.07
481.06	11688.64
481.24	11627.78
481.41	11723.74
481.59	11906.31
481.77	12102.91
481.95	12060.78
482.13	12322.92
482.31	12194.19
482.49	12458.67
482.67	12650.60
482.85	12739.54
483.03	12776.98
483.21	12989.97
483.39	13064.87
483.57	12917.42
483.74	13114.02
483.92	13390.20
484.10	13280.20
484.28	13490.85
484.46	13696.82
484.64	13937.89
484.82	13654.69
485.00	13748.31
485.18	14190.67
485.35	14164.92
485.53	14417.70
485.71	14260.88
485.89	14721.97
486.07	14445.79
486.25	14335.78
486.43	14719.63
486.61	14717.29
486.78	14883.47
486.96	15147.95
487.14	15592.65
487.32	15297.74
487.50	15351.57
487.68	15665.21
487.85	15545.84
488.03	15681.59
488.21	15948.41
488.39	15850.11
488.57	16224.59
488.75	16477.37
488.92	16641.21
489.10	16624.83
489.28	16608.44
489.46	17139.74
489.64	16940.80
489.81	17209.96
489.99	17193.58
490.17	17312.94
490.35	17441.67
490.53	17640.62
490.70	17582.10
490.88	17467.42
491.06	17811.48
491.24	17619.55
491.41	18066.60
491.59	18176.60
491.77	18153.20
491.95	18490.23
492.13	18307.67
492.30	18616.62
492.48	18822.59
492.66	18665.77
492.84	18752.37
493.01	19094.09
493.19	19115.16
493.37	19302.40
493.54	19344.53
493.72	19379.64
493.90	19435.81
494.08	19936.68
494.25	19913.28
494.43	19932.00
494.61	20149.67
494.79	20177.76
494.96	20077.12
495.14	20456.28
495.32	20636.50
495.49	20725.44
495.67	20952.48
495.85	20889.28
496.02	21053.12
496.20	20746.51
496.38	20896.30
496.55	21174.83
496.73	21685.06
496.91	21268.45
497.09	21495.48
497.26	21914.44
497.44	21862.94
497.62	21891.03
497.79	22291.26
497.97	22249.13
498.14	22324.03
498.32	22532.34
498.50	22267.86
498.67	22668.09
498.85	22703.20
499.03	22733.62
499.20	22838.95
499.38	22855.33
499.56	22850.65
499.73	22869.37
499.91	23325.78
500.08	23594.94
500.26	23150.24
500.44	23110.45
500.61	23627.71
500.79	23388.97
500.97	23981.13
501.14	24156.67
501.32	23779.84
501.49	24051.34
501.67	24037.30
501.84	24077.09
502.02	24245.61
502.20	24699.67
502.37	24559.24
502.55	24608.39
502.72	24648.18
502.90	24425.83
503.07	24584.99
503.25	24915.00
503.43	24720.74
503.60	24856.49
503.78	24905.64
503.95	25097.56
504.13	25223.95
504.30	25240.34
504.48	25427.58
504.65	25773.98
504.83	25273.10
505.01	25710.78
505.18	25591.42
505.36	26134.42
505.53	25989.31
505.71	25900.37
505.88	25869.94
506.06	25795.04
506.23	26228.04
506.41	25757.60
506.58	26522.95
506.76	26457.42
506.93	26253.79
507.11	26279.54
507.28	26520.61
507.46	26380.18
507.63	26618.91
507.81	27021.48
507.98	26464.44
508.16	26883.39
508.33	26682.11
508.50	27063.61
508.68	27236.81
508.85	27669.81
509.03	27365.54
509.20	27592.58
509.38	27660.45
509.55	27498.95
509.73	27777.48
509.90	27880.46
510.08	28002.17
510.25	28130.90
510.42	28072.39
510.60	28287.71
510.77	28451.55
510.95	28659.86
511.12	28184.73
511.30	28357.93
511.47	28844.76
511.64	28734.76
511.82	29017.96
511.99	28835.40
512.17	28914.98
512.34	29092.86
512.51	29212.23
512.69	29184.14
512.86	29373.72
513.04	29448.62
513.21	29572.67
513.38	29858.21
513.56	29465.00
513.73	28992.22
513.90	29291.80
514.08	29537.56
514.25	29879.28
514.43	29963.54
514.60	29940.13
514.77	29935.45
514.95	30328.66
515.12	30298.23
515.29	29930.77
515.47	30532.29
515.64	30462.07
515.81	30536.97
515.99	30775.70
516.16	30532.29
516.33	31005.08
516.51	30796.77
516.68	30668.04
516.85	30904.43
517.03	31232.11
517.20	31037.84
517.37	31297.64
517.54	31229.77
517.72	31302.32
517.89	30841.24
518.06	31072.95
518.24	31159.55
518.41	31365.52
518.58	31672.13
518.75	31644.04
518.93	32297.05
519.10	31342.11
519.27	31889.80
519.45	31747.03
519.62	32198.75
519.79	31683.83
519.96	31817.24
520.14	32275.99
520.31	32140.24
520.48	32481.95
520.65	32130.87
520.83	32577.92
521.00	32128.53
521.17	32428.12
521.34	32758.14
521.52	32797.93
521.69	32968.79
521.86	33172.41
522.03	33184.12
522.20	33376.04
522.38	33153.69
522.55	33233.27
522.72	33130.28
522.89	33408.81
523.07	33586.69
523.24	33448.60
523.41	33720.10
523.58	33479.02
523.75	33729.46
523.92	33783.29
524.10	33172.41
524.27	33844.15
524.44	34139.05
524.61	34480.77
524.78	33820.74
524.96	34237.36
525.13	34227.99
525.30	34267.78
525.47	34426.94
525.64	34424.60
525.81	34410.56
525.98	34452.69
526.16	34412.90
526.33	34632.91
526.50	34857.60
526.67	34602.48
526.84	35115.06
527.01	35021.44
527.18	34857.60
527.36	35260.17
527.53	35398.26
527.70	35175.91
527.87	35452.09
528.04	34780.36
528.21	35016.75
528.38	35278.89
528.55	35531.67
528.72	35615.93
528.89	35470.82
529.07	35548.06
529.24	35597.21
529.41	35896.80
529.58	35086.97
529.75	35578.48
529.92	35353.79
530.09	35976.37
530.26	35608.91
530.43	35587.85
530.60	35938.93
530.77	36451.50
530.94	36343.84
531.11	36095.74
531.28	36027.87
531.46	36507.68
531.63	36479.59
531.80	36444.48
531.97	36591.94
532.14	36524.06
532.31	36458.52
532.48	37008.55
532.65	36847.05
532.82	36613.00
532.99	36669.17
533.16	36355.54
533.33	36725.35
533.50	37202.82
533.67	36917.27
533.84	36727.69
534.01	37174.73
534.18	37127.92
534.35	37488.36
534.52	37418.14
534.69	37340.91
534.86	37579.64
535.03	37214.52
535.20	37907.32
535.37	37748.16
535.54	37427.51
535.71	37280.05
535.88	37907.32
536.05	37862.85
536.22	37495.38
536.38	38094.56
536.55	38211.59
536.72	38117.96
536.89	37907.32
537.06	38281.80
537.23	38066.47
537.40	37888.59
537.57	38246.69
537.74	38188.18
537.91	38572.03
538.08	38382.45
538.25	38124.99
538.42	38347.34
538.59	38808.42
538.75	37827.74
538.92	38438.62
539.09	38216.27
539.26	38387.13
539.43	38628.20
539.60	38810.76
539.77	38773.31
539.94	39714.21
540.11	39203.97
540.28	38998.01
540.44	39363.13
540.61	39323.34
540.78	39131.42
540.95	39264.83
541.12	39423.98
541.29	39388.88
541.46	39754.00
541.62	39044.82
541.79	39711.87
541.96	39164.18
542.13	39285.89
542.30	39770.38
542.47	39873.37
542.63	39929.54
542.80	40046.57
542.97	39915.50
543.14	40404.67
543.31	40072.31
543.48	40100.40
543.64	40280.62
543.81	40730.00
543.98	40261.90
544.15	40650.42
544.32	40882.14
544.48	40645.74
544.65	40861.07
544.82	40458.50
544.99	40067.63
545.16	40659.79
545.32	40589.57
545.49	40989.80
545.66	41490.68
545.83	41900.27
546.00	41698.98
546.16	41265.99
546.33	41212.15
546.50	40397.65
546.67	41214.49
546.83	40325.09
547.00	40341.47
547.17	41055.34
547.34	40612.98
547.50	40765.11
547.67	41163.00
547.84	40821.28
548.00	41160.66
548.17	41364.29
548.34	40790.86
548.51	41626.43
548.67	41574.94
548.84	41546.85
549.01	41090.44
549.18	41198.11
549.34	41504.72
549.51	41682.60
549.68	41691.96
549.84	41202.79
550.01	41429.82
550.18	41221.52
550.34	41542.17
550.51	41801.97
550.68	41862.82
550.84	41500.04
551.01	41647.49
551.18	41333.86
551.34	41371.31
551.51	41968.15
551.68	41935.38
551.84	41996.23
552.01	41808.99
552.18	42021.98
552.34	41696.64
552.51	41563.23
552.68	41993.89
552.84	42178.79
553.01	42272.42
553.18	42169.43
553.34	42115.60
553.51	41937.72
553.67	42150.71
553.84	42340.29
554.01	42291.14
554.17	42454.98
554.34	42305.18
554.51	42234.97
554.67	42199.86
554.84	42405.83
555.00	42419.87
555.17	41937.72
555.33	42703.07
555.50	42178.79
555.67	42518.17
555.83	42490.09
556.00	42731.16
556.16	42614.13
556.33	42312.20
556.50	42349.65
556.66	42628.18
556.83	42520.51
556.99	43328.00
557.16	42555.62
557.32	42691.37
557.49	42923.08
557.65	42471.36
557.82	42932.45
557.98	43199.27
558.15	42796.70
558.32	43133.73
558.48	43222.67
558.65	42714.78
558.81	43435.66
558.98	43454.39
559.14	43012.02
559.31	43246.08
559.47	43168.84
559.64	42967.55
559.80	43456.73
559.97	43171.18
560.13	42974.58
560.30	43159.48
560.46	43519.92
560.63	43744.61
560.79	43061.18
560.96	43342.04
561.12	43529.28
561.29	43313.95
561.45	43615.88
561.61	43454.39
561.78	43435.66
561.94	43140.75
562.11	43599.50
562.27	43260.12
562.44	43215.65
562.60	43831.21
562.77	43407.58
562.93	43159.48
563.10	43814.83
563.26	43210.97
563.42	43826.53
563.59	44013.77
563.75	43859.30
563.92	43854.62
564.08	43440.34
564.24	43814.83
564.41	43559.71
564.57	43594.82
564.74	43650.99
564.90	43435.66
565.07	43945.90
565.23	44182.29
565.39	44074.63
565.56	43852.28
565.72	43852.28
565.88	43498.86
566.05	43592.48
566.21	43702.48
566.38	43510.56
566.54	43737.59
566.70	44100.37
566.87	44238.47
567.03	43707.16
567.19	44505.29
567.36	44266.55
567.52	43908.45
567.68	43863.98
567.85	43789.08
568.01	44189.31
568.17	43765.68
568.34	44102.71
568.50	44467.84
568.66	44217.40
568.83	44226.76
568.99	44100.37
569.15	44046.54
569.32	43861.64
569.48	43496.52
569.64	44093.35
569.81	43927.17
569.97	43938.88
570.13	44301.66
570.30	44268.89
570.46	44318.04
570.62	44287.62
570.78	44240.81
570.95	44067.61
571.11	44217.40
571.27	44186.97
571.43	43847.60
571.60	44142.50
571.76	44495.92
571.92	44428.05
572.09	44608.27
572.25	44170.59
572.41	44233.78
572.57	44322.72
572.74	44222.08
572.90	44322.72
573.06	44327.41
573.22	44140.16
573.38	44549.76
573.55	44329.75
573.71	44671.46
573.87	44432.73
574.03	44261.87
574.20	44533.37
574.36	44250.17
574.52	44435.07
574.68	44411.67
574.84	44259.53
575.01	44067.61
575.17	44645.72
575.33	44182.29
575.49	44346.13
575.65	44741.68
575.82	44828.28
575.98	44460.82
576.14	44643.38
576.30	44601.25
576.46	44067.61
576.62	44779.13
576.79	44631.68
576.95	44428.05
577.11	45029.57
577.27	44978.07
577.43	44779.13
577.59	44521.67
577.75	44797.85
577.92	44512.31
578.08	44669.12
578.24	44465.50
578.40	44233.78
578.56	44615.29
578.72	44339.11
578.88	45041.27
579.04	44877.43
579.21	45151.27
579.37	45003.82
579.53	45022.54
579.69	44561.46
579.85	44339.11
580.01	44610.61
580.17	44428.05
580.33	44491.24
580.49	44453.79
580.65	44631.68
580.82	44659.76
580.98	44718.28
581.14	44617.63
581.30	44697.21
581.46	44402.30
581.62	44577.84
581.78	44428.05
581.94	44821.26
582.10	44720.62
582.26	44957.01
582.42	44886.79
582.58	44797.85
582.74	44968.71
582.90	45162.98
583.06	44971.05
583.22	44575.50
583.38	45067.02
583.54	45228.51
583.70	45050.63
583.86	44678.49
584.02	44477.20
584.18	44980.42
584.34	45095.10
584.50	45638.11
584.66	44893.82
584.82	44893.82
584.98	44774.45
585.14	44402.30
585.30	44432.73
585.46	44516.99
585.62	44896.16
585.78	44971.05
585.94	44491.24
586.10	44678.49
586.26	45050.63
586.42	45228.51
586.58	45654.49
586.74	45015.52
586.90	44748.70
587.06	44877.43
587.22	45244.90
587.38	45064.67
587.54	44912.54
587.70	45368.94
587.86	45464.91
588.02	45244.90
588.18	45705.98
588.34	44844.66
588.49	45202.77
588.65	44488.90
588.81	44704.23
588.97	45235.53
589.13	44837.64
589.29	44718.28
589.45	44470.18
589.61	45134.89
589.77	45310.43
589.93	45338.52
590.08	45640.45
590.24	44629.34
590.40	45591.30
590.56	45418.10
590.72	45287.03
590.88	44823.60
