SpectraSuite Data File
++++++++++++++++++++++++++++++++++++
Date: Fri Oct 04 11:39:22 GMT-05:00 2013
User: price-jones
Dark Spectrum Present: No
Reference Spectrum Present: No
Number of Sampled Component Spectra: 1
Spectrometers: USB2+H05261
Integration Time (usec): 100000 (USB2+H05261)
Spectra Averaged: 1 (USB2+H05261)
Boxcar Smoothing: 0 (USB2+H05261)
Correct for Electrical Dark: No (USB2+H05261)
Strobe/Lamp Enabled: No (USB2+H05261)
Correct for Detector Non-linearity: No (USB2+H05261)
Correct for Stray Light: No (USB2+H05261)
Number of Pixels in Processed Spectrum: 2048
>>>>>Begin Processed Spectral Data<<<<<
365.73	9.36
365.92	9.36
366.12	9.36
366.32	0.00
366.52	0.00
366.72	0.00
366.91	0.00
367.11	0.00
367.31	0.00
367.51	0.00
367.70	0.00
367.90	0.00
368.10	0.00
368.30	0.00
368.49	0.00
368.69	18.72
368.89	0.00
369.09	0.00
369.28	0.00
369.48	0.00
369.68	0.00
369.87	4.68
370.07	0.00
370.27	0.00
370.47	46.81
370.66	212.99
370.86	264.48
371.06	269.16
371.25	238.73
371.45	241.08
371.65	327.68
371.84	271.50
372.04	278.52
372.24	238.73
372.44	334.70
372.63	348.74
372.83	402.57
373.03	374.49
373.22	266.82
373.42	365.12
373.62	339.38
373.81	287.89
374.01	376.83
374.21	407.25
374.40	383.85
374.60	381.51
374.79	367.46
374.99	276.18
375.19	430.66
375.38	337.04
375.58	374.49
375.78	444.70
375.97	437.68
376.17	353.42
376.37	400.23
376.56	425.98
376.76	332.36
376.95	332.36
377.15	409.59
377.35	437.68
377.54	393.21
377.74	414.27
377.93	327.68
378.13	435.34
378.33	388.53
378.52	428.32
378.72	454.06
378.91	374.49
379.11	381.51
379.31	351.08
379.50	383.85
379.70	477.47
379.89	437.68
380.09	362.78
380.28	393.21
380.48	433.00
380.68	465.77
380.87	442.36
381.07	430.66
381.26	486.83
381.46	535.98
381.65	416.62
381.85	404.91
382.04	454.06
382.24	456.40
382.43	514.92
382.63	416.62
382.83	496.19
383.02	454.06
383.22	482.15
383.41	468.11
383.61	512.58
383.80	451.72
384.00	503.22
384.19	447.04
384.39	507.90
384.58	496.19
384.78	545.34
384.97	526.62
385.17	493.85
385.36	503.22
385.56	463.43
385.75	454.06
385.95	573.43
386.14	512.58
386.34	531.30
386.53	521.94
386.72	580.45
386.92	578.11
387.11	545.34
387.31	472.79
387.50	592.16
387.70	552.37
387.89	547.69
388.09	557.05
388.28	592.16
388.48	655.35
388.67	552.37
388.86	594.50
389.06	578.11
389.25	603.86
389.45	587.47
389.64	596.84
389.84	685.78
390.03	615.56
390.22	634.29
390.42	641.31
390.61	559.39
390.81	573.43
391.00	624.92
391.19	622.58
391.39	634.29
391.58	697.48
391.78	737.27
391.97	704.50
392.16	681.10
392.36	690.46
392.55	676.41
392.75	662.37
392.94	667.05
393.13	720.88
393.33	770.04
393.52	692.80
393.71	770.04
393.91	770.04
394.10	648.33
394.29	732.59
394.49	704.50
394.68	814.51
394.88	737.27
395.07	781.74
395.26	777.06
395.46	786.42
395.65	840.25
395.84	844.93
396.04	903.45
396.23	793.44
396.42	816.85
396.62	779.40
396.81	863.66
397.00	760.67
397.19	894.08
397.39	816.85
397.58	840.25
397.77	812.17
397.97	880.04
398.16	938.55
398.35	884.72
398.55	851.96
398.74	882.38
398.93	987.71
399.12	983.02
399.32	973.66
399.51	959.62
399.70	1020.47
399.90	912.81
400.09	882.38
400.28	1036.86
400.47	964.30
400.67	1055.58
400.86	1013.45
401.05	1053.24
401.24	1078.99
401.44	1062.60
401.63	1081.33
401.82	1093.03
402.01	1048.56
402.21	1121.12
402.40	1184.31
402.59	1069.62
402.78	1062.60
402.97	1146.86
403.17	1137.50
403.36	1128.14
403.55	1228.78
403.74	1153.88
403.93	1160.91
404.13	1188.99
404.32	1320.06
404.51	1289.64
404.70	1317.72
404.89	1163.25
405.09	1313.04
405.28	1310.70
405.47	1217.08
405.66	1418.36
405.85	1376.24
406.05	1343.47
406.24	1357.51
406.43	1401.98
406.62	1474.54
406.81	1469.86
407.00	1409.00
407.20	1472.20
407.39	1476.88
407.58	1481.56
407.77	1519.01
407.96	1507.30
408.15	1549.43
408.34	1554.12
408.54	1671.14
408.73	1561.14
408.92	1647.74
409.11	1668.80
409.30	1717.95
409.49	1537.73
409.68	1530.71
409.87	1640.72
410.07	1774.13
410.26	1593.90
410.45	1832.64
410.64	1832.64
410.83	1708.59
411.02	1781.15
411.21	1795.19
411.40	1743.70
411.59	1834.98
411.78	1863.07
411.98	1853.70
412.17	1919.24
412.36	1825.62
412.55	1919.24
412.74	2054.99
412.93	1980.09
413.12	1982.43
413.31	2090.10
413.50	2010.52
413.69	2033.93
413.88	2207.13
414.07	2221.17
414.26	2122.87
414.45	2078.40
414.64	2190.74
414.83	2291.38
415.02	2342.88
415.22	2157.97
415.41	2279.68
415.60	2267.98
415.79	2452.88
415.98	2406.07
416.17	2349.90
416.36	2448.20
416.55	2424.80
416.74	2445.86
416.93	2516.08
417.12	2497.35
417.31	2544.16
417.50	2544.16
417.69	2654.17
417.88	2581.61
418.07	2717.36
418.26	2675.23
418.45	2696.30
418.64	2736.09
418.83	2715.02
419.02	2691.62
419.21	2801.62
419.39	2916.31
419.58	2759.49
419.77	2675.23
419.96	2822.69
420.15	2942.05
420.34	3002.91
420.53	2960.78
420.72	2942.05
420.91	3021.63
421.10	3016.95
421.29	3016.95
421.48	2883.54
421.67	2946.73
421.86	2995.89
422.05	2892.90
422.24	3061.42
422.43	2977.16
422.61	3178.45
422.80	3054.40
422.99	3035.67
423.18	3197.17
423.37	3166.74
423.56	3201.85
423.75	3171.43
423.94	3007.59
424.13	2967.80
424.32	2906.95
424.50	3131.64
424.69	3185.47
424.88	3201.85
425.07	3166.74
425.26	3082.49
425.45	3143.34
425.64	3166.74
425.83	3173.77
426.01	3258.03
426.20	3166.74
426.39	3283.77
426.58	3323.56
426.77	3265.05
426.96	3262.71
427.15	3321.22
427.33	3178.45
427.52	3332.92
427.71	3316.54
427.90	3356.33
428.09	3314.20
428.28	3377.39
428.46	3431.23
428.65	3471.01
428.84	3438.25
429.03	3552.93
429.22	3363.35
429.40	3461.65
429.59	3555.27
429.78	3321.22
429.97	3304.84
430.16	3463.99
430.34	3651.24
430.53	3693.37
430.72	3733.15
430.91	3569.32
431.10	3574.00
431.28	3707.41
431.47	3590.38
431.66	3742.52
431.85	3751.88
432.03	3810.39
432.22	3726.13
432.41	3763.58
432.60	3941.46
432.79	3653.58
432.97	3995.29
433.16	3847.84
433.35	3861.88
433.54	3985.93
433.72	3861.88
433.91	3786.99
434.10	3969.55
434.28	3920.40
434.47	3964.87
434.66	4081.89
434.85	4117.00
435.03	4231.69
435.22	4273.82
435.41	4641.28
435.59	4608.51
435.78	4269.14
435.97	4313.61
436.16	4297.22
436.34	4257.43
436.53	4212.96
436.72	4294.88
436.90	4365.10
437.09	4100.62
437.28	4114.66
437.46	4119.34
437.65	4299.56
437.84	4383.82
438.02	4383.82
438.21	4535.96
438.40	4365.10
438.58	4393.19
438.77	4491.49
438.96	4514.89
439.14	4596.81
439.33	4617.88
439.52	4791.08
439.70	4608.51
439.89	4631.92
440.08	4718.52
440.26	4755.97
440.45	4847.25
440.63	4870.65
440.82	4748.95
441.01	4795.76
441.19	4849.59
441.38	5203.01
441.57	5004.07
441.75	4997.04
441.94	5146.84
442.12	5181.95
442.31	5093.01
442.50	5163.22
442.68	4968.96
442.87	5137.48
443.05	5172.58
443.24	5369.19
443.43	5184.29
443.61	5362.17
443.80	5404.30
443.98	5294.29
444.17	5240.46
444.35	5123.43
444.54	5467.49
444.73	5366.85
444.91	5362.17
445.10	5397.28
445.28	5397.28
445.47	5289.61
445.65	5322.38
445.84	5420.68
446.02	5598.56
446.21	5350.46
446.39	5408.98
446.58	5551.75
446.77	5497.92
446.95	5467.49
447.14	5528.35
447.32	5502.60
447.51	5488.56
447.69	5416.00
447.88	5526.00
448.06	5584.52
448.25	5488.56
448.43	5434.72
448.62	5397.28
448.80	5371.53
448.99	5661.76
449.17	5659.42
449.36	5614.95
449.54	5860.70
449.73	5701.54
449.91	5762.40
450.10	5839.64
450.28	5792.83
450.46	5865.38
450.65	5753.04
450.83	5797.51
451.02	5982.41
451.20	5973.05
451.39	5921.56
451.57	5933.26
451.76	5905.17
451.94	6024.54
452.13	5996.45
452.31	5989.43
452.49	5827.93
452.68	6017.52
452.86	6108.80
453.05	6267.95
453.23	6045.60
453.42	6038.58
453.60	6127.52
453.78	6094.76
453.97	6033.90
454.15	5991.77
454.34	6019.86
454.52	6392.00
454.70	6202.42
454.89	6179.01
455.07	6455.20
455.26	6370.94
455.44	6490.31
455.62	6448.18
455.81	6413.07
455.99	6375.62
456.17	6527.75
456.36	6520.73
456.54	6696.27
456.73	6693.93
456.91	6698.61
457.09	6511.37
457.28	6768.83
457.46	6787.55
457.64	6789.89
457.83	6691.59
458.01	6642.44
458.19	6930.33
458.38	6738.40
458.56	6927.99
458.74	6923.30
458.93	6853.09
459.11	6691.59
459.29	6923.30
459.48	6981.82
459.66	7054.37
459.84	7000.54
460.03	7028.63
460.21	7204.17
460.39	7145.66
460.57	7094.16
460.76	7166.72
460.94	7236.94
461.12	7119.91
461.31	7328.22
461.49	7262.68
461.67	7180.76
461.85	7307.15
462.04	7279.07
462.22	7344.60
462.40	7494.40
462.59	7346.94
462.77	7309.49
462.95	7419.50
463.13	7449.93
463.32	7524.82
463.50	7414.82
463.68	7543.55
463.86	7655.89
464.05	7424.18
464.23	7447.58
464.41	7700.36
464.59	7604.40
464.78	7653.55
464.96	7616.10
465.14	7639.51
465.32	7749.51
465.50	7831.43
465.69	7772.92
465.87	7740.15
466.05	7723.77
466.23	7796.32
466.41	7817.39
466.60	7967.18
466.78	7726.11
466.96	7922.71
467.14	7920.37
467.32	8039.74
467.51	8042.08
467.69	7639.51
467.87	7976.55
468.05	7936.76
468.23	7836.11
468.41	7901.65
468.60	8196.56
468.78	8100.59
468.96	8088.89
469.14	8128.68
469.32	8360.39
469.50	8229.32
469.69	8379.12
469.87	8451.67
470.05	8271.45
470.23	8432.95
470.41	8430.61
470.59	8463.38
470.77	8510.19
470.95	8505.51
471.14	8475.08
471.32	8559.34
471.50	8622.53
471.68	8943.19
471.86	8645.94
472.04	8821.48
472.22	8912.76
472.40	8767.65
472.58	8982.98
472.77	8931.48
472.95	8990.00
473.13	9303.63
473.31	9071.92
473.49	8884.67
473.67	9055.53
473.85	9408.95
474.03	9338.74
474.21	9149.15
474.39	9458.10
474.57	9303.63
474.75	9678.12
474.93	9867.70
475.12	9533.00
475.30	9549.39
475.48	9650.03
475.66	9771.74
475.84	9657.05
476.02	9818.55
476.20	9870.04
476.38	9968.34
476.56	10284.31
476.74	10127.50
476.92	10258.57
477.10	10139.20
477.28	10183.67
477.46	10504.32
477.64	10663.48
477.82	10523.05
478.00	10843.70
478.18	10637.73
478.36	10747.74
478.54	10822.64
478.72	10806.25
478.90	11077.76
479.08	10972.43
479.26	11119.89
479.44	11304.79
479.62	11396.07
479.80	11517.78
479.98	11447.56
480.16	11534.16
480.34	11658.21
480.52	11719.06
480.70	11901.62
480.88	11733.11
481.06	11880.56
481.24	12006.95
481.41	12102.91
481.59	12358.03
481.77	12262.07
481.95	12320.58
482.13	12519.53
482.31	12407.18
482.49	12828.48
482.67	12938.48
482.85	12910.40
483.03	13240.41
483.21	13270.84
483.39	13483.83
483.57	13359.78
483.74	13727.24
483.92	13493.19
484.10	13310.63
484.28	13818.52
484.46	14083.00
484.64	14356.85
484.82	13769.37
485.00	14188.33
485.18	14260.88
485.35	14717.29
485.53	14560.47
485.71	14520.68
485.89	14885.81
486.07	14733.67
486.25	14782.82
486.43	14970.07
486.61	15098.80
486.78	14988.79
486.96	15480.30
487.14	15899.26
487.32	15524.77
487.50	15770.53
487.68	15805.64
487.85	16404.81
488.03	16137.99
488.21	16360.34
488.39	16507.80
488.57	16650.57
488.75	16819.09
488.92	17041.44
489.10	17018.04
489.28	17032.08
489.46	17001.65
489.64	17177.19
489.81	17685.09
489.99	17322.30
490.17	17759.98
490.35	17858.29
490.53	18132.13
490.70	17860.63
490.88	18087.66
491.06	18485.55
491.24	18134.47
491.41	18174.26
491.59	18384.91
491.77	18637.69
491.95	18579.17
492.13	19206.44
492.30	19229.84
492.48	19143.24
492.66	19393.68
492.84	18965.36
493.01	19569.22
493.19	19658.16
493.37	20053.71
493.54	19946.05
493.72	20004.56
493.90	20034.99
494.08	20077.12
494.25	20493.73
494.43	20514.80
494.61	20643.52
494.79	20680.97
494.96	20678.63
495.14	21078.86
495.32	20996.95
495.49	21294.19
495.67	21312.92
495.85	21252.06
496.02	21546.97
496.20	21460.37
496.38	21528.25
496.55	21553.99
496.73	22356.80
496.91	22047.85
497.09	21928.48
497.26	22094.66
497.44	22089.98
497.62	22288.92
497.79	22621.28
497.97	22595.53
498.14	23159.60
498.32	22876.40
498.50	23016.83
498.67	22995.76
498.85	23246.20
499.03	23372.59
499.20	23178.33
499.38	23281.31
499.56	23744.73
499.73	23828.99
499.91	23892.19
500.08	23714.31
500.26	23644.09
500.44	23903.89
500.61	23824.31
500.79	24084.11
500.97	24287.74
501.14	24671.59
501.32	24465.62
501.49	24432.85
501.67	24397.74
501.84	24519.45
502.02	24868.19
502.20	24938.41
502.37	25228.63
502.55	25085.86
502.72	24716.06
502.90	25081.18
503.07	25502.48
503.25	25352.68
503.43	25163.10
503.60	25254.38
503.78	25476.73
503.95	25649.93
504.13	25427.58
504.30	25799.73
504.48	25713.13
504.65	25972.92
504.83	25975.27
505.01	26457.42
505.18	26352.09
505.36	26635.30
505.53	26536.99
505.71	26471.46
505.88	26616.57
506.06	26150.81
506.23	26885.73
506.41	26916.16
506.58	27082.34
506.76	26845.94
506.93	26995.74
507.11	26759.34
507.28	27316.39
507.46	27388.95
507.63	27735.35
507.81	27531.72
507.98	27077.66
508.16	27541.08
508.33	27363.20
508.50	27594.92
508.68	28201.11
508.85	28149.62
509.03	28173.03
509.20	28379.00
509.38	28587.30
509.55	28460.91
509.73	28390.70
509.90	28435.17
510.08	28669.22
510.25	28268.99
510.42	28435.17
510.60	29127.97
510.77	29282.44
510.95	28985.19
511.12	29163.08
511.30	28669.22
511.47	29134.99
511.64	29151.37
511.82	29607.78
511.99	29352.66
512.17	29586.71
512.34	29296.49
512.51	29535.22
512.69	29570.33
512.86	29979.92
513.04	30181.21
513.21	30263.13
513.38	30171.85
513.56	30059.50
513.73	30347.39
513.90	30038.44
514.08	30249.08
514.25	30724.21
514.43	30476.12
514.60	30396.54
514.77	30941.88
514.95	30981.67
515.12	30995.71
515.29	30759.32
515.47	30871.67
515.64	31033.16
515.81	31248.49
515.99	31683.83
516.16	31255.51
516.33	31646.38
516.51	31447.44
516.68	31302.32
516.85	31653.40
517.03	31541.06
517.20	31651.06
517.37	31700.22
517.54	31704.90
517.72	31999.80
517.89	31791.50
518.06	32020.87
518.24	32060.66
518.41	31899.16
518.58	32327.48
518.75	32142.58
518.93	32580.26
519.10	32753.46
519.27	32477.27
519.45	32091.09
519.62	32690.26
519.79	32500.68
519.96	32811.97
520.14	32952.40
520.31	32957.08
520.48	33039.00
520.65	33144.33
520.83	33326.89
521.00	33481.36
521.17	33069.43
521.34	33294.12
521.52	33507.11
521.69	33462.64
521.86	33464.98
522.03	33984.58
522.20	33820.74
522.38	33844.15
522.55	33546.90
522.72	34078.20
522.89	33935.43
523.07	34176.50
523.24	34029.05
523.41	34089.90
523.58	34216.29
523.75	34040.75
523.92	34569.71
524.10	34417.58
524.27	34265.44
524.44	34281.83
524.61	34815.47
524.78	34838.87
524.96	34995.69
525.13	35297.62
525.30	34911.43
525.47	34691.42
525.64	34932.50
525.81	34848.24
525.98	35124.42
526.16	35405.28
526.33	34998.03
526.50	35580.82
526.67	34799.08
526.84	35545.72
527.01	35199.32
527.18	35732.96
527.36	35927.22
527.53	36112.13
527.70	35847.64
527.87	36360.22
528.04	35959.99
528.21	36203.41
528.38	35899.14
528.55	35959.99
528.72	36126.17
528.89	36313.41
529.07	36278.30
529.24	35934.24
529.41	36168.30
529.58	36245.54
529.75	36577.89
529.92	36708.96
530.09	36414.05
530.26	36531.08
530.43	36631.72
530.60	36189.36
530.77	36526.40
530.94	36596.62
531.11	36673.85
531.28	36601.30
531.46	36727.69
531.63	37160.69
531.80	37233.24
531.97	36935.99
532.14	36896.20
532.31	36809.61
532.48	36989.83
532.65	37146.64
532.82	36898.55
532.99	37060.04
533.16	37495.38
533.33	37968.17
533.50	37972.85
533.67	37727.10
533.84	37296.44
534.01	37535.17
534.18	37729.44
534.35	37914.34
534.52	37816.04
534.69	38333.29
534.86	37663.90
535.03	38010.30
535.20	38637.56
535.37	38122.65
535.54	38417.55
535.71	38148.39
535.88	37902.64
536.05	38483.09
536.22	38813.10
536.38	38562.67
536.55	38363.72
536.72	38312.23
536.89	38747.57
537.06	38155.41
537.23	38719.48
537.40	38506.49
537.57	38738.21
537.74	38927.79
537.91	39000.35
538.08	38852.89
538.25	38696.08
538.42	38862.26
538.59	39253.12
538.75	38897.36
538.92	38939.49
539.09	38958.22
539.26	39454.41
539.43	39260.15
539.60	39267.17
539.77	39667.40
539.94	39889.75
540.11	39529.31
540.28	39938.90
540.44	39538.67
540.61	39524.63
540.78	40088.70
540.95	40259.55
541.12	40301.68
541.29	40156.57
541.46	40170.61
541.62	39805.49
541.79	40165.93
541.96	39824.22
542.13	40320.41
542.30	40437.44
542.47	40809.58
542.63	40795.54
542.80	40734.68
542.97	40989.80
543.14	40802.56
543.31	40514.67
543.48	41036.61
543.64	40947.67
543.81	41198.11
543.98	40961.72
544.15	40919.59
544.32	40730.00
544.48	41265.99
544.65	41160.66
544.82	41696.64
544.99	41209.81
545.16	41125.55
545.32	41069.38
545.49	42120.28
545.66	42426.89
545.83	42384.76
546.00	42555.62
546.16	42122.62
546.33	41383.01
546.50	41305.77
546.67	41368.97
546.83	41010.87
547.00	41345.56
547.17	41846.44
547.34	41677.92
547.50	42195.18
547.67	42085.17
547.84	41947.08
548.00	41911.97
548.17	41935.38
548.34	41790.27
548.51	42103.90
548.67	41972.83
548.84	41972.83
549.01	41958.78
549.18	42574.34
549.34	42146.03
549.51	41869.84
549.68	42096.88
549.84	42204.54
550.01	42309.86
550.18	41886.23
550.34	42548.60
550.51	42190.50
550.68	42298.16
550.84	42136.66
551.01	42300.50
551.18	41979.85
551.34	41783.24
551.51	41926.02
551.68	41935.38
551.84	42314.55
552.01	42417.53
552.18	42361.36
552.34	42216.24
552.51	42323.91
552.68	42281.78
552.84	42466.68
553.01	42710.10
553.18	42717.12
553.34	42731.16
553.51	42635.20
553.67	42909.04
553.84	43217.99
554.01	43089.26
554.17	42745.20
554.34	42944.15
554.51	42653.92
554.67	42646.90
554.84	42939.47
555.00	43019.05
555.17	42988.62
555.33	43143.09
555.50	42955.85
555.67	42813.08
555.83	42920.74
556.00	43112.67
556.16	43662.69
556.33	43023.73
556.50	43030.75
556.66	43054.15
556.83	43494.18
556.99	43512.90
557.16	43863.98
557.32	43482.47
557.49	43426.30
557.65	42787.33
557.82	43388.85
557.98	43168.84
558.15	43636.95
558.32	43833.55
558.48	43564.39
558.65	43742.27
558.81	43995.05
558.98	43606.52
559.14	43475.45
559.31	43320.98
559.47	43552.69
559.64	43559.71
559.80	44212.72
559.97	44196.34
560.13	43973.98
560.30	43856.96
560.46	43744.61
560.63	43536.30
560.79	43845.26
560.96	43971.64
561.12	44301.66
561.29	44168.25
561.45	43810.15
561.61	44425.71
561.78	43966.96
561.94	43599.50
562.11	44135.48
562.27	44079.31
562.44	44376.56
562.60	43629.93
562.77	43686.10
562.93	44079.31
563.10	44463.16
563.26	43981.01
563.42	44474.86
563.59	44495.92
563.75	44217.40
563.92	44402.30
564.08	44037.18
564.24	44095.69
564.41	44091.01
564.57	44140.16
564.74	44041.86
564.90	44727.64
565.07	44332.09
565.23	44076.97
565.39	44243.15
565.56	44116.76
565.72	44039.52
565.88	44556.78
566.05	44339.11
566.21	43997.39
566.38	44250.17
566.54	44325.07
566.70	44566.14
566.87	44645.72
567.03	44313.36
567.19	44655.08
567.36	44575.50
567.52	44729.98
567.68	44556.78
567.85	44406.98
568.01	44292.30
568.17	44594.23
568.34	44772.11
568.50	44554.44
568.66	44519.33
568.83	44301.66
568.99	44306.34
569.15	44697.21
569.32	44680.83
569.48	44690.19
569.64	44734.66
569.81	44378.90
569.97	45017.86
570.13	44727.64
570.30	44549.76
570.46	44683.17
570.62	44638.70
570.78	44299.32
570.95	44549.76
571.11	44837.64
571.27	44823.60
571.43	44294.64
571.60	44392.94
571.76	44737.00
571.92	44458.48
572.09	45270.64
572.25	44926.58
572.41	44898.50
572.57	44538.05
572.74	44973.39
572.90	44732.32
573.06	44701.89
573.22	44634.02
573.38	44872.75
573.55	44996.80
573.71	45237.87
573.87	45099.78
574.03	44790.83
574.20	44669.12
574.36	45027.23
574.52	44938.29
574.68	44954.67
574.84	44519.33
575.01	44594.23
575.17	45209.79
575.33	44067.61
575.49	44804.88
575.65	45062.33
575.82	45228.51
575.98	44809.56
576.14	45001.48
576.30	45097.44
576.46	44767.43
576.62	45015.52
576.79	45162.98
576.95	45123.19
577.11	45088.08
577.27	45184.04
577.43	44643.38
577.59	44875.09
577.75	44741.68
577.92	44432.73
578.08	44690.19
578.24	44917.22
578.40	44994.46
578.56	45113.83
578.72	45350.22
578.88	45411.07
579.04	45474.27
579.21	45546.82
579.37	45387.67
579.53	45228.51
579.69	44933.60
579.85	45048.29
580.01	45502.35
580.17	44947.65
580.33	45401.71
580.49	45193.40
580.65	45097.44
580.82	45338.52
580.98	45294.05
581.14	45507.04
581.30	45422.78
581.46	44652.74
581.62	45090.42
581.78	44701.89
581.94	45155.96
582.10	44912.54
582.26	45359.58
582.42	45439.16
582.58	45343.20
582.74	45003.82
582.90	45193.40
583.06	45031.91
583.22	44938.29
583.38	45427.46
583.54	45043.61
583.70	44928.92
583.86	45378.31
584.02	44954.67
584.18	45298.73
584.34	45029.57
584.50	45097.44
584.66	45202.77
584.82	45191.06
584.98	45130.21
585.14	44931.26
585.30	44769.77
585.46	44957.01
585.62	45352.56
585.78	45235.53
585.94	44985.10
586.10	45397.03
586.26	45242.56
586.42	45542.14
586.58	45542.14
586.74	44910.20
586.90	45312.77
587.06	44961.69
587.22	45460.23
587.38	44896.16
587.54	45792.58
587.70	45682.58
587.86	45181.70
588.02	45837.05
588.18	45556.19
588.34	45345.54
588.49	45514.06
588.65	45034.25
588.81	45525.76
588.97	45586.61
589.13	45247.24
589.29	45387.67
589.45	45823.01
589.61	45612.36
589.77	46230.26
589.93	45881.52
590.08	45820.67
590.24	45745.77
590.40	45584.27
590.56	46000.89
590.72	45724.71
590.88	45415.76
