SpectraSuite Data File
++++++++++++++++++++++++++++++++++++
Date: Fri Oct 04 11:39:24 GMT-05:00 2013
User: price-jones
Dark Spectrum Present: No
Reference Spectrum Present: No
Number of Sampled Component Spectra: 1
Spectrometers: USB2+H05261
Integration Time (usec): 100000 (USB2+H05261)
Spectra Averaged: 1 (USB2+H05261)
Boxcar Smoothing: 0 (USB2+H05261)
Correct for Electrical Dark: No (USB2+H05261)
Strobe/Lamp Enabled: No (USB2+H05261)
Correct for Detector Non-linearity: No (USB2+H05261)
Correct for Stray Light: No (USB2+H05261)
Number of Pixels in Processed Spectrum: 2048
>>>>>Begin Processed Spectral Data<<<<<
365.73	135.75
365.92	135.75
366.12	135.75
366.32	0.00
366.52	0.00
366.72	46.81
366.91	0.00
367.11	0.00
367.31	0.00
367.51	0.00
367.70	0.00
367.90	0.00
368.10	0.00
368.30	0.00
368.49	0.00
368.69	44.47
368.89	0.00
369.09	0.00
369.28	0.00
369.48	0.00
369.68	0.00
369.87	16.38
370.07	56.17
370.27	28.09
370.47	98.30
370.66	196.60
370.86	259.80
371.06	280.86
371.25	191.92
371.45	224.69
371.65	276.18
371.84	243.42
372.04	269.16
372.24	229.37
372.44	287.89
372.63	287.89
372.83	339.38
373.03	262.14
373.22	278.52
373.42	337.04
373.62	285.55
373.81	320.65
374.01	339.38
374.21	390.87
374.40	339.38
374.60	381.51
374.79	374.49
374.99	341.72
375.19	456.40
375.38	409.59
375.58	358.10
375.78	379.17
375.97	428.32
376.17	325.33
376.37	372.15
376.56	437.68
376.76	313.63
376.95	353.42
377.15	435.34
377.35	367.46
377.54	334.70
377.74	386.19
377.93	374.49
378.13	442.36
378.33	367.46
378.52	383.85
378.72	407.25
378.91	416.62
379.11	397.89
379.31	402.57
379.50	379.17
379.70	425.98
379.89	430.66
380.09	477.47
380.28	416.62
380.48	444.70
380.68	449.38
380.87	409.59
381.07	449.38
381.26	414.27
381.46	355.76
381.65	360.44
381.85	402.57
382.04	475.13
382.24	437.68
382.43	362.78
382.63	454.06
382.83	397.89
383.02	479.81
383.22	454.06
383.41	409.59
383.61	423.64
383.80	442.36
384.00	433.00
384.19	524.28
384.39	425.98
384.58	414.27
384.78	535.98
384.97	503.22
385.17	409.59
385.36	505.56
385.56	514.92
385.75	510.24
385.95	517.26
386.14	535.98
386.34	491.51
386.53	538.32
386.72	498.53
386.92	578.11
387.11	461.09
387.31	489.17
387.50	566.41
387.70	507.90
387.89	463.43
388.09	512.58
388.28	552.37
388.48	521.94
388.67	505.56
388.86	627.26
389.06	477.47
389.25	580.45
389.45	655.35
389.64	631.94
389.84	624.92
390.03	636.63
390.22	676.41
390.42	596.84
390.61	580.45
390.81	533.64
391.00	720.88
391.19	648.33
391.39	561.73
391.58	711.52
391.78	650.67
391.97	638.97
392.16	713.86
392.36	627.26
392.55	580.45
392.75	648.33
392.94	664.71
393.13	695.14
393.33	711.52
393.52	631.94
393.71	688.12
393.91	629.60
394.10	674.07
394.29	697.48
394.49	613.22
394.68	692.80
394.88	772.38
395.07	734.93
395.26	610.88
395.46	751.31
395.65	734.93
395.84	741.95
396.04	758.33
396.23	795.78
396.42	781.74
396.62	788.76
396.81	788.76
397.00	741.95
397.19	779.40
397.39	744.29
397.58	802.80
397.77	800.46
397.97	795.78
398.16	866.00
398.35	849.61
398.55	877.70
398.74	819.19
398.93	947.92
399.12	894.08
399.32	903.45
399.51	915.15
399.70	959.62
399.90	910.47
400.09	959.62
400.28	957.28
400.47	983.02
400.67	987.71
400.86	1011.11
401.05	954.94
401.24	943.24
401.44	997.07
401.63	978.34
401.82	1041.54
402.01	1039.20
402.21	990.05
402.40	1062.60
402.59	1083.67
402.78	1020.47
402.97	1032.18
403.17	1137.50
403.36	1111.75
403.55	1128.14
403.74	1153.88
403.93	1214.74
404.13	1135.16
404.32	1235.80
404.51	1167.93
404.70	1203.04
404.89	1151.54
405.09	1231.12
405.28	1254.53
405.47	1210.06
405.66	1301.34
405.85	1231.12
406.05	1306.02
406.24	1277.93
406.43	1362.19
406.62	1404.32
406.81	1465.18
407.00	1376.24
407.20	1378.58
407.39	1380.92
407.58	1448.79
407.77	1434.75
407.96	1423.05
408.15	1481.56
408.34	1380.92
408.54	1476.88
408.73	1460.49
408.92	1481.56
409.11	1544.75
409.30	1521.35
409.49	1540.07
409.68	1519.01
409.87	1551.78
410.07	1593.90
410.26	1687.53
410.45	1680.50
410.64	1743.70
410.83	1689.87
411.02	1713.27
411.21	1769.44
411.40	1802.21
411.59	1724.97
411.78	1783.49
411.98	1795.19
412.17	1732.00
412.36	1762.42
412.55	1813.92
412.74	1980.09
412.93	1853.70
413.12	1961.37
413.31	1956.69
413.50	2062.01
413.69	2094.78
413.88	2008.18
414.07	2012.86
414.26	2186.06
414.45	2148.61
414.64	2115.84
414.83	2120.53
415.02	2228.19
415.22	2183.72
415.41	2225.85
415.60	2275.00
415.79	2277.34
415.98	2293.72
416.17	2298.41
416.36	2317.13
416.55	2345.22
416.74	2354.58
416.93	2487.99
417.12	2513.74
417.31	2527.78
417.50	2586.29
417.69	2581.61
417.88	2555.86
418.07	2513.74
418.26	2546.50
418.45	2607.36
418.64	2719.70
418.83	2473.95
419.02	2658.85
419.21	2782.90
419.39	2726.72
419.58	2700.98
419.77	2773.53
419.96	2808.64
420.15	2794.60
420.34	2813.32
420.53	2827.37
420.72	3056.74
420.91	2869.50
421.10	2899.92
421.29	2925.67
421.48	2792.26
421.67	2822.69
421.86	2813.32
422.05	2972.48
422.24	2869.50
422.43	2684.59
422.61	2878.86
422.80	2977.16
422.99	2951.42
423.18	2946.73
423.37	3077.80
423.56	2998.23
423.75	2916.31
423.94	3035.67
424.13	2885.88
424.32	2937.37
424.50	3033.33
424.69	3169.09
424.88	3108.23
425.07	2974.82
425.26	3073.12
425.45	2920.99
425.64	3096.53
425.83	3178.45
426.01	3211.22
426.20	3038.02
426.39	3169.09
426.58	3101.21
426.77	3126.96
426.96	3096.53
427.15	3091.85
427.33	3155.04
427.52	3258.03
427.71	3194.83
427.90	3234.62
428.09	3199.51
428.28	3236.96
428.46	3248.66
428.65	3368.03
428.84	3440.59
429.03	3407.82
429.22	3370.37
429.40	3309.52
429.59	3417.18
429.78	3225.26
429.97	3246.32
430.16	3330.58
430.34	3463.99
430.53	3609.11
430.72	3606.77
430.91	3515.48
431.10	3379.73
431.28	3592.72
431.47	3524.85
431.66	3667.62
431.85	3538.89
432.03	3655.92
432.22	3728.47
432.41	3667.62
432.60	3728.47
432.79	3604.42
432.97	3730.81
433.16	3801.03
433.35	3768.26
433.54	3737.84
433.72	3702.73
433.91	3817.41
434.10	3728.47
434.28	3770.60
434.47	3901.67
434.66	3817.41
434.85	4009.34
435.03	3964.87
435.22	4140.41
435.41	4369.78
435.59	4397.87
435.78	4175.52
435.97	4194.24
436.16	4152.11
436.34	3913.38
436.53	4060.83
436.72	4056.15
436.90	3946.14
437.09	4109.98
437.28	4079.55
437.46	4065.51
437.65	3992.95
437.84	4248.07
438.02	4175.52
438.21	4273.82
438.40	4252.75
438.58	4362.76
438.77	4395.53
438.96	4423.61
439.14	4386.16
439.33	4379.14
439.52	4528.94
439.70	4542.98
439.89	4535.96
440.08	4542.98
440.26	4713.84
440.45	4526.60
440.63	4538.30
440.82	4613.20
441.01	4669.37
441.19	4777.03
441.38	4751.29
441.57	4807.46
441.75	4702.14
441.94	4842.57
442.12	5043.85
442.31	4999.38
442.50	4896.40
442.68	5001.72
442.87	4964.28
443.05	5121.09
443.24	5266.21
443.43	5156.20
443.61	5114.07
443.80	5130.45
443.98	5114.07
444.17	4933.85
444.35	5203.01
444.54	5254.50
444.73	5226.42
444.91	5046.20
445.10	5177.26
445.28	5193.65
445.47	5022.79
445.65	5186.63
445.84	5233.44
446.02	5158.54
446.21	5174.92
446.39	5263.86
446.58	5289.61
446.77	5284.93
446.95	5118.75
447.14	5268.55
447.32	5284.93
447.51	5275.57
447.69	5371.53
447.88	5256.84
448.06	5364.51
448.25	5242.80
448.43	5310.68
448.62	5327.06
448.80	5364.51
448.99	5423.02
449.17	5523.66
449.36	5493.24
449.54	5570.48
449.73	5617.29
449.91	5600.90
450.10	5657.07
450.28	5689.84
450.46	5797.51
450.65	5591.54
450.83	5816.23
451.02	5888.79
451.20	5724.95
451.39	5664.10
451.57	5425.36
451.76	5603.24
451.94	5799.85
452.13	5841.98
452.31	5834.96
452.49	5717.93
452.68	5598.56
452.86	5755.38
453.05	5959.00
453.23	5987.09
453.42	5804.53
453.60	5867.72
453.78	5839.64
453.97	5886.45
454.15	5933.26
454.34	5996.45
454.52	6040.92
454.70	5909.85
454.89	6005.81
455.07	6080.71
455.26	6059.65
455.44	6106.46
455.62	6078.37
455.81	6132.20
455.99	6342.85
456.17	6155.61
456.36	6179.01
456.54	6366.26
456.73	6441.15
456.91	6541.80
457.09	6558.18
457.28	6654.14
457.46	6305.40
457.64	6555.84
457.83	6380.30
458.01	6394.34
458.19	6635.42
458.38	6658.82
458.56	6813.30
458.74	6663.51
458.93	6595.63
459.11	6583.93
459.29	6738.40
459.48	6633.08
459.66	6670.53
459.84	6855.43
460.03	6925.65
460.21	6719.68
460.39	6853.09
460.57	6796.92
460.76	6717.34
460.94	6953.73
461.12	6846.07
461.31	6857.77
461.49	6993.52
461.67	6752.45
461.85	7169.06
462.04	6979.48
462.22	7300.13
462.40	7236.94
462.59	7115.23
462.77	7129.27
462.95	7080.12
463.13	7054.37
463.32	7297.79
463.50	7255.66
463.68	7012.24
463.86	7407.80
464.05	7023.95
464.23	7220.55
464.41	7363.33
464.59	7063.74
464.78	7475.67
464.96	7463.97
465.14	7424.18
465.32	7625.47
465.50	7494.40
465.69	7555.25
465.87	7552.91
466.05	7641.85
466.23	7555.25
466.41	7398.43
466.60	7859.52
466.78	7583.34
466.96	7569.29
467.14	7592.70
467.32	7515.46
467.51	7810.37
467.69	7676.96
467.87	7868.88
468.05	7623.12
468.23	7660.57
468.41	7705.04
468.60	7838.45
468.78	7957.82
468.96	7728.45
469.14	8060.80
469.32	7950.80
469.50	7761.22
469.69	7936.76
469.87	8100.59
470.05	8156.77
470.23	8049.10
470.41	8102.93
470.59	8229.32
470.77	8018.68
470.95	8004.63
471.14	8339.33
471.32	8322.94
471.50	8287.84
471.68	8318.26
471.86	8456.36
472.04	8435.29
472.22	8491.46
472.40	8404.86
472.58	8554.66
472.77	8561.68
472.95	8725.52
473.13	8879.99
473.31	8547.64
473.49	8798.07
473.67	8723.18
473.85	9018.08
474.03	8924.46
474.21	9057.87
474.39	9011.06
474.57	9235.75
474.75	9160.86
474.93	9172.56
475.12	9320.01
475.30	9423.00
475.48	9188.94
475.66	9324.69
475.84	9390.23
476.02	9469.81
476.20	9554.07
476.38	9439.38
476.56	9643.01
476.74	9591.52
476.92	9937.91
477.10	9729.61
477.28	10001.11
477.46	9961.32
477.64	9820.89
477.82	10361.55
478.00	10218.78
478.18	10513.69
478.36	10345.17
478.54	10525.39
478.72	10478.58
478.90	10581.56
479.08	10525.39
479.26	10721.99
479.44	10864.77
479.62	10949.03
479.80	10972.43
479.98	11119.89
480.16	11304.79
480.34	11178.40
480.52	11311.81
480.70	11379.68
480.88	11325.85
481.06	11332.87
481.24	11550.54
481.41	11681.61
481.59	12018.65
481.77	11850.13
481.95	11873.54
482.13	12250.36
482.31	12229.30
482.49	12372.07
482.67	12449.31
482.85	12482.08
483.03	12690.38
483.21	12746.56
483.39	12980.61
483.57	12929.12
483.74	12891.67
483.92	13050.83
484.10	13149.13
484.28	13205.30
484.46	13348.08
484.64	13909.80
484.82	13437.02
485.00	13521.27
485.18	13708.52
485.35	14118.11
485.53	14054.92
485.71	14143.86
485.89	14176.62
486.07	14324.08
486.25	14494.94
486.43	14448.13
486.61	14752.40
486.78	14904.53
486.96	15026.24
487.14	15414.77
487.32	14998.15
487.50	15272.00
487.68	15414.77
487.85	15538.82
488.03	15662.86
488.21	15742.44
488.39	15964.79
488.57	16067.78
488.75	15878.19
488.92	16114.59
489.10	16432.90
489.28	16540.57
489.46	16706.74
489.64	16482.05
489.81	16940.80
489.99	16519.50
490.17	16783.98
490.35	17305.92
490.53	17319.96
490.70	17556.36
490.88	17163.15
491.06	17296.56
491.24	17631.26
491.41	17652.32
491.59	17928.50
491.77	17736.58
491.95	18200.01
492.13	18340.44
492.30	18452.78
492.48	18354.48
492.66	18338.10
492.84	18513.64
493.01	18862.38
493.19	18649.39
493.37	18888.12
493.54	18878.76
493.72	19241.54
493.90	19440.49
494.08	19389.00
494.25	19655.82
494.43	19477.94
494.61	19580.92
494.79	19974.13
494.96	19562.20
495.14	20217.55
495.32	20287.76
495.49	20126.27
495.67	20329.89
495.85	20393.09
496.02	20393.09
496.20	20573.31
496.38	20702.04
496.55	20655.23
496.73	21612.51
496.91	20957.16
497.09	20982.90
497.26	21163.12
497.44	21195.89
497.62	21399.52
497.79	21837.20
497.97	21853.58
498.14	22141.47
498.32	21961.25
498.50	21979.97
498.67	22195.30
498.85	22059.55
499.03	22209.34
499.20	22288.92
499.38	22403.61
499.56	22649.36
499.73	22925.55
499.91	22801.50
500.08	22857.67
500.26	22829.59
500.44	23133.86
500.61	23524.72
500.79	23152.58
500.97	23363.23
501.14	23620.69
501.32	23447.49
501.49	23510.68
501.67	23381.95
501.84	23768.14
502.02	23576.22
502.20	24191.78
502.37	24105.18
502.55	24177.73
502.72	24100.50
502.90	24283.06
503.07	23880.49
503.25	24091.13
503.43	24060.71
503.60	24861.17
503.78	24737.12
503.95	24484.34
504.13	24655.20
504.30	24456.26
504.48	24936.07
504.65	25132.67
504.83	25149.06
505.01	25149.06
505.18	25392.47
505.36	25575.03
505.53	25085.86
505.71	25404.17
505.88	25820.79
506.06	25380.77
506.23	25923.77
506.41	25773.98
506.58	25783.34
506.76	25914.41
506.93	25797.38
507.11	25841.85
507.28	26218.68
507.46	26373.16
507.63	26108.68
507.81	26314.64
507.98	26380.18
508.16	26412.95
508.33	26366.13
508.50	26497.20
508.68	26602.53
508.85	26974.67
509.03	26836.58
509.20	26993.40
509.38	27122.13
509.55	27384.27
509.73	27424.06
509.90	27290.65
510.08	27234.47
510.25	27201.71
510.42	27737.69
510.60	28004.51
510.77	27721.30
510.95	28189.41
511.12	27742.37
511.30	28095.79
511.47	27550.45
511.64	27927.27
511.82	28397.72
511.99	28128.56
512.17	28772.21
512.34	28381.34
512.51	28638.80
512.69	28442.19
512.86	28687.95
513.04	28985.19
513.21	28823.70
513.38	28959.45
513.56	29151.37
513.73	29048.39
513.90	28837.74
514.08	29090.52
514.25	29905.02
514.43	29266.06
514.60	29593.73
514.77	29722.46
514.95	29694.38
515.12	29624.16
515.29	29331.59
515.47	30040.78
515.64	29752.89
515.81	30134.40
515.99	30221.00
516.16	30281.85
516.33	30136.74
516.51	30408.24
516.68	30192.91
516.85	30323.98
517.03	30417.60
517.20	30417.60
517.37	30693.79
517.54	30848.26
517.72	30616.55
517.89	30920.82
518.06	30799.11
518.24	30698.47
518.41	31161.89
518.58	31054.23
518.75	30803.79
518.93	31065.93
519.10	31096.36
519.27	31512.97
519.45	31211.04
519.62	31323.39
519.79	31269.56
519.96	31342.11
520.14	31957.67
520.31	31519.99
520.48	31562.12
520.65	31424.03
520.83	32023.21
521.00	31971.72
521.17	31821.92
521.34	31742.35
521.52	32189.39
521.69	32149.60
521.86	32545.15
522.03	32503.02
522.20	32453.87
522.38	32907.93
522.55	32631.75
522.72	32208.11
522.89	32809.63
523.07	32921.98
523.24	32844.74
523.41	32704.31
523.58	32568.55
523.75	33291.78
523.92	32797.93
524.10	33385.40
524.27	32957.08
524.44	33266.03
524.61	33556.26
524.78	33219.22
524.96	33694.35
525.13	33521.15
525.30	33284.76
525.47	33626.48
525.64	33462.64
525.81	33638.18
525.98	34314.59
526.16	33734.14
526.33	34103.95
526.50	34047.77
526.67	33785.63
526.84	33804.36
527.01	34054.79
527.18	34204.59
527.36	34462.05
527.53	34384.81
527.70	34848.24
527.87	34593.12
528.04	34452.69
528.21	34838.87
528.38	34731.21
528.55	34738.23
528.72	35042.50
528.89	34913.77
529.07	35012.07
529.24	34630.57
529.41	34932.50
529.58	35012.07
529.75	34979.31
529.92	35054.20
530.09	35400.60
530.26	35440.39
530.43	35201.66
530.60	35243.79
530.77	34801.43
530.94	35215.70
531.11	35463.80
531.28	35487.20
531.46	35367.84
531.63	35491.88
531.80	35398.26
531.97	35976.37
532.14	35852.33
532.31	35765.73
532.48	35627.63
532.65	36133.19
532.82	35522.31
532.99	36030.21
533.16	35934.24
533.33	36126.17
533.50	36451.50
533.67	36151.91
533.84	36285.33
534.01	36362.56
534.18	36208.09
534.35	36397.67
534.52	36519.38
534.69	36165.96
534.86	36598.96
535.03	36825.99
535.20	36673.85
535.37	36699.60
535.54	36554.49
535.71	36613.00
535.88	37305.80
536.05	36816.63
536.22	37013.23
536.38	37457.93
536.55	36652.79
536.72	37191.11
536.89	36844.71
537.06	37083.45
537.23	37539.85
537.40	37207.50
537.57	37291.76
537.74	37317.50
537.91	37673.26
538.08	37422.83
538.25	37240.26
538.42	37631.13
538.59	38150.73
538.75	37284.73
538.92	37326.86
539.09	37537.51
539.26	37937.74
539.43	38064.13
539.60	37855.82
539.77	37706.03
539.94	38660.97
540.11	38380.10
540.28	38298.19
540.44	37998.60
540.61	37970.51
540.78	38124.99
540.95	38026.68
541.12	38890.34
541.29	38955.88
541.46	38546.28
541.62	38803.74
541.79	38733.53
541.96	38281.80
542.13	38927.79
542.30	39061.20
542.47	39026.09
542.63	39367.81
542.80	38787.36
542.97	39313.98
543.14	39466.11
543.31	39019.07
543.48	39358.45
543.64	39461.43
543.81	39803.15
543.98	39330.36
544.15	39744.64
544.32	39966.99
544.48	39681.44
544.65	39552.71
544.82	39271.85
544.99	39487.18
545.16	39929.54
545.32	39491.86
545.49	40355.52
545.66	41015.55
545.83	40662.13
546.00	41029.59
546.16	40245.51
546.33	39861.66
546.50	39828.90
546.67	39936.56
546.83	39278.87
547.00	39920.18
547.17	40048.91
547.34	39952.94
547.50	40360.20
547.67	39875.71
547.84	40205.72
548.00	40905.54
548.17	40552.12
548.34	40184.66
548.51	40081.67
548.67	40753.41
548.84	40442.12
549.01	40261.90
549.18	40713.62
549.34	40563.82
549.51	40297.00
549.68	40334.45
549.84	40318.07
550.01	40435.10
550.18	40327.43
550.34	40535.74
550.51	40617.66
550.68	40769.79
550.84	40594.25
551.01	40620.00
551.18	40332.11
551.34	40641.06
551.51	40701.92
551.68	40692.55
551.84	40678.51
552.01	40568.51
552.18	41045.97
552.34	40620.00
552.51	41041.29
552.68	40512.33
552.84	40842.35
553.01	41125.55
553.18	41031.93
553.34	40982.78
553.51	41106.83
553.67	41326.84
553.84	41741.11
554.01	41340.88
554.17	41163.00
554.34	41261.30
554.51	41092.79
554.67	41528.13
554.84	41588.98
555.00	41163.00
555.17	41319.82
555.33	41848.78
555.50	41649.83
555.67	41464.93
555.83	41471.95
556.00	41123.21
556.16	42164.75
556.33	41518.76
556.50	41462.59
556.66	41516.42
556.83	41523.44
556.99	41509.40
557.16	41764.52
557.32	41778.56
557.49	42213.90
557.65	41780.90
557.82	41443.87
557.98	41834.74
558.15	41923.68
558.32	41853.46
558.48	42120.28
558.65	42082.83
558.81	42029.00
558.98	41771.54
559.14	41663.88
559.31	41530.47
559.47	41668.56
559.64	41954.10
559.80	42471.36
559.97	42298.16
560.13	42220.92
560.30	42478.38
560.46	42220.92
560.63	41961.12
560.79	41897.93
560.96	42038.36
561.12	42054.75
561.29	41907.29
561.45	42225.60
561.61	42314.55
561.78	42518.17
561.94	41926.02
562.11	42373.06
562.27	42265.39
562.44	42646.90
562.60	42490.09
562.77	42359.02
562.93	42178.79
563.10	42635.20
563.26	42768.61
563.42	42857.55
563.59	42649.24
563.75	42672.65
563.92	42801.38
564.08	42625.84
564.24	42340.29
564.41	42171.77
564.57	42487.74
564.74	42518.17
564.90	42590.73
565.07	42328.59
565.23	42628.18
565.39	42885.64
565.56	42197.52
565.72	42670.31
565.88	42829.46
566.05	42398.80
566.21	42139.00
566.38	42703.07
566.54	42869.25
566.70	42604.77
566.87	42876.27
567.03	42988.62
567.19	43115.01
567.36	42976.92
567.52	42703.07
567.68	43033.09
567.85	42541.58
568.01	42965.21
568.17	43014.37
568.34	42941.81
568.50	43000.32
568.66	42518.17
568.83	43077.56
568.99	42710.10
569.15	43105.65
569.32	42838.83
569.48	42452.64
569.64	42806.06
569.81	42981.60
569.97	42733.50
570.13	43063.52
570.30	42747.54
570.46	42674.99
570.62	43016.71
570.78	42946.49
570.95	42745.20
571.11	43339.70
571.27	42759.25
571.43	43122.03
571.60	42955.85
571.76	43035.43
571.92	43295.23
572.09	43377.15
572.25	43107.99
572.41	43007.34
572.57	42983.94
572.74	43503.54
572.90	43131.39
573.06	42653.92
573.22	43166.50
573.38	42948.83
573.55	43051.81
573.71	43302.25
573.87	43260.12
574.03	43180.54
574.20	43054.15
574.36	43079.90
574.52	42689.03
574.68	43058.84
574.84	43299.91
575.01	43203.95
575.17	43117.35
575.33	43480.13
575.49	42726.48
575.65	43405.23
575.82	43683.76
575.98	42684.35
576.14	43285.87
576.30	43215.65
576.46	43084.58
576.62	43131.39
576.79	43391.19
576.95	43049.47
577.11	43367.79
577.27	43452.05
577.43	42637.54
577.59	43400.55
577.75	43384.17
577.92	42714.78
578.08	42806.06
578.24	43023.73
578.40	43009.68
578.56	43419.28
578.72	43611.20
578.88	43875.68
579.04	43833.55
579.21	43166.50
579.37	43297.57
579.53	43922.49
579.69	43168.84
579.85	43220.33
580.01	42974.58
580.17	43051.81
580.33	43344.38
580.49	43285.87
580.65	43072.88
580.82	43344.38
580.98	43510.56
581.14	43154.80
581.30	43604.18
581.46	42810.74
581.62	42873.93
581.78	43054.15
581.94	43494.18
582.10	43189.91
582.26	43470.77
582.42	43260.12
582.58	43873.34
582.74	43496.52
582.90	43688.44
583.06	44020.80
583.22	42997.98
583.38	43288.21
583.54	43239.06
583.70	43335.02
583.86	43304.59
584.02	43054.15
584.18	43438.00
584.34	43615.88
584.50	43384.17
584.66	43466.09
584.82	43040.11
584.98	43466.09
585.14	43391.19
585.30	43107.99
585.46	43194.59
585.62	43559.71
585.78	43571.41
585.94	43124.37
586.10	43597.16
586.26	43330.34
586.42	43583.12
586.58	43650.99
586.74	43592.48
586.90	43402.89
587.06	43512.90
587.22	43990.37
587.38	43407.58
587.54	43337.36
587.70	43725.89
587.86	43522.26
588.02	43555.03
588.18	44231.44
588.34	43491.83
588.49	43845.26
588.65	43552.69
588.81	43100.97
588.97	43683.76
589.13	43704.82
589.29	43384.17
589.45	43779.72
589.61	43779.72
589.77	44002.07
589.93	43625.25
590.08	43983.35
590.24	43964.62
590.40	43842.92
590.56	43735.25
590.72	43721.21
590.88	43962.28
591.04	43543.33
