SpectraSuite Data File
++++++++++++++++++++++++++++++++++++
Date: Fri Oct 04 11:39:40 GMT-05:00 2013
User: price-jones
Dark Spectrum Present: No
Reference Spectrum Present: No
Number of Sampled Component Spectra: 1
Spectrometers: USB2+H05261
Integration Time (usec): 100000 (USB2+H05261)
Spectra Averaged: 1 (USB2+H05261)
Boxcar Smoothing: 0 (USB2+H05261)
Correct for Electrical Dark: No (USB2+H05261)
Strobe/Lamp Enabled: No (USB2+H05261)
Correct for Detector Non-linearity: No (USB2+H05261)
Correct for Stray Light: No (USB2+H05261)
Number of Pixels in Processed Spectrum: 2048
>>>>>Begin Processed Spectral Data<<<<<
365.73	60.85
365.92	60.85
366.12	60.85
366.32	0.00
366.52	0.00
366.72	0.00
366.91	0.00
367.11	0.00
367.31	0.00
367.51	0.00
367.70	0.00
367.90	0.00
368.10	0.00
368.30	0.00
368.49	0.00
368.69	0.00
368.89	0.00
369.09	0.00
369.28	2.34
369.48	0.00
369.68	23.41
369.87	0.00
370.07	28.09
370.27	25.75
370.47	161.50
370.66	313.63
370.86	327.68
371.06	337.04
371.25	337.04
371.45	278.52
371.65	416.62
371.84	393.21
372.04	313.63
372.24	458.74
372.44	425.98
372.63	353.42
372.83	421.30
373.03	447.04
373.22	353.42
373.42	449.38
373.62	463.43
373.81	468.11
374.01	489.17
374.21	461.09
374.40	491.51
374.60	566.41
374.79	498.53
374.99	421.30
375.19	500.87
375.38	489.17
375.58	491.51
375.78	430.66
375.97	521.94
376.17	519.60
376.37	585.13
376.56	554.71
376.76	507.90
376.95	550.03
377.15	587.47
377.35	514.92
377.54	571.09
377.74	472.79
377.93	507.90
378.13	559.39
378.33	599.18
378.52	540.66
378.72	580.45
378.91	557.05
379.11	552.37
379.31	571.09
379.50	587.47
379.70	587.47
379.89	624.92
380.09	603.86
380.28	617.90
380.48	568.75
380.68	587.47
380.87	599.18
381.07	592.16
381.26	636.63
381.46	662.37
381.65	674.07
381.85	631.94
382.04	660.03
382.24	636.63
382.43	601.52
382.63	622.58
382.83	585.13
383.02	772.38
383.22	748.97
383.41	737.27
383.61	664.71
383.80	587.47
384.00	650.67
384.19	683.44
384.39	636.63
384.58	723.23
384.78	692.80
384.97	767.70
385.17	826.21
385.36	739.61
385.56	767.70
385.75	753.65
385.95	723.23
386.14	753.65
386.34	702.16
386.53	723.23
386.72	716.20
386.92	821.53
387.11	798.12
387.31	709.18
387.50	751.31
387.70	840.25
387.89	791.10
388.09	819.19
388.28	727.91
388.48	798.12
388.67	814.51
388.86	819.19
389.06	908.13
389.25	847.27
389.45	863.66
389.64	767.70
389.84	732.59
390.03	873.02
390.22	891.74
390.42	887.06
390.61	863.66
390.81	880.04
391.00	929.19
391.19	945.58
391.39	889.40
391.58	947.92
391.78	983.02
391.97	887.06
392.16	973.66
392.36	1018.13
392.55	999.41
392.75	1001.75
392.94	922.17
393.13	966.64
393.33	966.64
393.52	1025.15
393.71	1034.52
393.91	973.66
394.10	966.64
394.29	1020.47
394.49	1022.81
394.68	1046.22
394.88	1067.28
395.07	1090.69
395.26	999.41
395.46	1043.88
395.65	1156.22
395.84	1062.60
396.04	1249.85
396.23	1200.69
396.42	1006.43
396.62	1163.25
396.81	1179.63
397.00	1165.59
397.19	1177.29
397.39	1186.65
397.58	1249.85
397.77	1158.57
397.97	1259.21
398.16	1233.46
398.35	1303.68
398.55	1231.12
398.74	1287.29
398.93	1266.23
399.12	1266.23
399.32	1247.51
399.51	1256.87
399.70	1406.66
399.90	1284.95
400.09	1322.40
400.28	1425.39
400.47	1343.47
400.67	1378.58
400.86	1404.32
401.05	1394.96
401.24	1458.15
401.44	1519.01
401.63	1500.28
401.82	1465.18
402.01	1420.71
402.21	1462.83
402.40	1535.39
402.59	1598.59
402.78	1495.60
402.97	1511.99
403.17	1570.50
403.36	1617.31
403.55	1558.80
403.74	1624.33
403.93	1474.54
404.13	1586.88
404.32	1650.08
404.51	1619.65
404.70	1722.63
404.89	1645.40
405.09	1661.78
405.28	1699.23
405.47	1710.93
405.66	1769.44
405.85	1692.21
406.05	1743.70
406.24	1811.57
406.43	1778.81
406.62	1823.28
406.81	1961.37
407.00	1795.19
407.20	1781.15
407.39	1804.55
407.58	1874.77
407.77	1930.94
407.96	1916.90
408.15	1989.46
408.34	2050.31
408.54	1947.33
408.73	1984.77
408.92	2036.27
409.11	2047.97
409.30	2076.06
409.49	2090.10
409.68	2073.71
409.87	2113.50
410.07	2235.21
410.26	2169.68
410.45	2083.08
410.64	2141.59
410.83	2197.76
411.02	2235.21
411.21	2349.90
411.40	2275.00
411.59	2373.30
411.78	2328.83
411.98	2291.38
412.17	2373.30
412.36	2380.32
412.55	2487.99
412.74	2469.27
412.93	2480.97
413.12	2516.08
413.31	2558.21
413.50	2567.57
413.69	2572.25
413.88	2588.63
414.07	2682.25
414.26	2682.25
414.45	2712.68
414.64	2696.30
414.83	2752.47
415.02	2773.53
415.22	2860.13
415.41	2881.20
415.60	2829.71
415.79	2832.05
415.98	2906.95
416.17	2956.10
416.36	3023.97
416.55	3073.12
416.74	3056.74
416.93	3014.61
417.12	3035.67
417.31	3068.44
417.50	3084.83
417.69	3171.43
417.88	3157.38
418.07	3124.62
418.26	3171.43
418.45	3232.28
418.64	3304.84
418.83	3332.92
419.02	3344.63
419.21	3253.34
419.39	3323.56
419.58	3206.53
419.77	3344.63
419.96	3501.44
420.15	3445.27
420.34	3466.33
420.53	3417.18
420.72	3646.55
420.91	3391.44
421.10	3595.06
421.29	3592.72
421.48	3524.85
421.67	3602.08
421.86	3604.42
422.05	3716.77
422.24	3599.74
422.43	3534.21
422.61	3599.74
422.80	3768.26
422.99	3634.85
423.18	3758.90
423.37	3646.55
423.56	3829.12
423.75	3674.64
423.94	3756.56
424.13	3571.66
424.32	3604.42
424.50	3866.56
424.69	3801.03
424.88	3829.12
425.07	3707.41
425.26	3772.94
425.45	3772.94
425.64	3882.95
425.83	3831.46
426.01	3852.52
426.20	3894.65
426.39	3913.38
426.58	3948.48
426.77	3892.31
426.96	3953.16
427.15	3922.74
427.33	3946.14
427.52	3971.89
427.71	3896.99
427.90	4016.36
428.09	4070.19
428.28	4025.72
428.46	4093.60
428.65	3995.29
428.84	4182.54
429.03	4229.35
429.22	4023.38
429.40	4271.48
429.59	4084.23
429.78	3953.16
429.97	4098.28
430.16	4098.28
430.34	4248.07
430.53	4315.95
430.72	4297.22
430.91	4180.20
431.10	4250.41
431.28	4327.65
431.47	4491.49
431.66	4358.08
431.85	4414.25
432.03	4580.43
432.22	4566.39
432.41	4552.34
432.60	4482.13
432.79	4564.04
432.97	4650.64
433.16	4631.92
433.35	4414.25
433.54	4643.62
433.72	4566.39
433.91	4559.36
434.10	4655.33
434.28	4568.73
434.47	4730.22
434.66	4865.97
434.85	4779.37
435.03	4765.33
435.22	4910.44
435.41	5205.35
435.59	5149.18
435.78	5001.72
435.97	5057.90
436.16	4964.28
436.34	4823.84
436.53	4983.00
436.72	5064.92
436.90	4915.12
437.09	5067.26
437.28	4894.06
437.46	4952.57
437.65	5048.54
437.84	5130.45
438.02	5020.45
438.21	5142.16
438.40	5067.26
438.58	5308.34
438.77	5338.76
438.96	5308.34
439.14	5413.66
439.33	5523.66
439.52	5469.83
439.70	5345.78
439.89	5640.69
440.08	5624.31
440.26	5626.65
440.45	5636.01
440.63	5586.86
440.82	5816.23
441.01	5774.10
441.19	5706.23
441.38	6026.88
441.57	5966.03
441.75	5841.98
441.94	5926.24
442.12	5792.83
442.31	6033.90
442.50	5893.47
442.68	6057.31
442.87	6073.69
443.05	6050.28
443.24	6202.42
443.43	6284.34
443.61	6356.90
443.80	6478.60
443.98	6057.31
444.17	6043.26
444.35	6328.81
444.54	6363.92
444.73	6345.19
444.91	6328.81
445.10	6303.06
445.28	6289.02
445.47	6312.42
445.65	6319.45
445.84	6340.51
446.02	6396.68
446.21	6286.68
446.39	6289.02
446.58	6307.74
446.77	6399.02
446.95	6321.79
447.14	6450.52
447.32	6361.58
447.51	6457.54
447.69	6408.39
447.88	6436.47
448.06	6340.51
448.25	6537.12
448.43	6422.43
448.62	6427.11
448.80	6438.81
448.99	6609.67
449.17	6693.93
449.36	6743.08
449.54	6553.50
449.73	6670.53
449.91	6707.98
450.10	6806.28
450.28	6803.94
450.46	6740.74
450.65	6862.45
450.83	6792.23
451.02	6771.17
451.20	6834.36
451.39	6890.54
451.57	6813.30
451.76	6672.87
451.94	6817.98
452.13	7019.27
452.31	7082.46
452.49	6771.17
452.68	7016.93
452.86	6993.52
453.05	7272.04
453.23	7213.53
453.42	7145.66
453.60	6911.60
453.78	7155.02
453.97	6958.41
454.15	7187.79
454.34	7183.10
454.52	7318.86
454.70	7410.14
454.89	7283.75
455.07	7368.01
455.26	7255.66
455.44	7382.05
455.62	7375.03
455.81	7410.14
455.99	7363.33
456.17	7506.10
456.36	7470.99
456.54	7627.81
456.73	7641.85
456.91	7691.00
457.09	7683.98
457.28	7885.26
457.46	7712.07
457.64	7845.48
457.83	7894.63
458.01	7485.03
458.19	7786.96
458.38	7880.58
458.56	7985.91
458.74	7915.69
458.93	8023.36
459.11	8142.72
459.29	7999.95
459.48	8039.74
459.66	8028.04
459.84	7946.12
460.03	8308.90
460.21	8187.19
460.39	8077.19
460.57	8102.93
460.76	8276.13
460.94	8421.25
461.12	8344.01
461.31	8355.71
461.49	8241.03
461.67	8388.48
461.85	8645.94
462.04	8528.91
462.22	8854.25
462.40	8636.58
462.59	8737.22
462.77	8568.70
462.95	8655.30
463.13	8538.27
463.32	8599.13
463.50	8767.65
463.68	8610.83
463.86	8758.28
464.05	8652.96
464.23	8667.00
464.41	8987.66
464.59	8772.33
464.78	9020.42
464.96	8879.99
465.14	8828.50
465.32	8910.42
465.50	8805.10
465.69	8957.23
465.87	8947.87
466.05	9081.28
466.23	9085.96
466.41	8975.95
466.60	9345.76
466.78	8978.30
466.96	8975.95
467.14	8947.87
467.32	9128.09
467.51	9266.18
467.69	9191.28
467.87	9188.94
468.05	9350.44
468.23	9383.21
468.41	9137.45
468.60	9107.02
468.78	9373.85
468.96	9151.49
469.14	9518.96
469.32	9722.59
469.50	9252.14
469.69	9483.85
469.87	9797.48
470.05	9680.46
470.23	9781.10
470.41	9589.17
470.59	9755.35
470.77	9657.05
470.95	10043.24
471.14	9846.63
471.32	9654.71
471.50	10078.35
471.68	9984.73
471.86	9895.78
472.04	10033.88
472.22	10347.51
472.40	10064.30
472.58	10359.21
472.77	10265.59
472.95	10204.74
473.13	10579.22
473.31	10127.50
473.49	10333.47
473.67	10473.90
473.85	10579.22
474.03	10759.44
474.21	10665.82
474.39	10738.38
474.57	11044.99
474.75	10876.47
474.93	10951.37
475.12	11000.52
475.30	10972.43
475.48	10876.47
475.66	11166.70
475.84	11243.93
476.02	11346.92
476.20	11442.88
476.38	11501.39
476.56	11648.85
476.74	11592.67
476.92	11597.35
477.10	11721.40
477.28	11854.81
477.46	11800.98
477.64	11981.20
477.82	11845.45
478.00	12451.65
478.18	12432.93
478.36	12374.41
478.54	12435.27
478.72	12472.71
478.90	12491.44
479.08	12896.35
479.26	12791.03
479.44	13118.70
479.62	12966.57
479.80	12952.52
479.98	13144.45
480.16	13486.17
480.34	13432.33
480.52	13516.59
480.70	13511.91
480.88	13404.25
481.06	13694.47
481.24	13383.18
481.41	13888.74
481.59	14183.65
481.77	14403.66
481.95	14146.20
482.13	14363.87
482.31	14310.04
482.49	14822.61
482.67	14710.27
482.85	14883.47
483.03	14925.60
483.21	14988.79
483.39	15316.47
483.57	15159.65
483.74	15374.98
483.92	15623.08
484.10	15463.92
484.28	16072.46
484.46	16105.23
484.64	16355.66
484.82	15927.35
485.00	16390.77
485.18	16465.67
485.35	16519.50
485.53	16570.99
485.71	16681.00
485.89	17413.59
486.07	16898.67
486.25	17179.53
486.43	17146.76
486.61	17266.13
486.78	17631.26
486.96	17767.01
487.14	17722.54
487.32	17947.23
487.50	18281.92
487.68	18085.32
487.85	18569.81
488.03	18370.86
488.21	18558.11
488.39	18874.08
488.57	19187.71
488.75	19000.47
488.92	19330.48
489.10	19613.69
489.28	19428.79
489.46	19721.35
489.64	19754.12
489.81	20189.46
489.99	20095.84
490.17	19810.29
490.35	20673.95
490.53	20432.88
490.70	20599.05
490.88	20741.83
491.06	20772.25
491.24	20739.49
491.41	20938.43
491.59	21296.53
491.77	21226.32
491.95	21572.72
492.13	21460.37
492.30	21778.68
492.48	21603.14
492.66	21851.24
492.84	21921.46
493.01	22359.14
493.19	22155.51
493.37	22499.57
493.54	22412.97
493.72	22593.19
493.90	22801.50
494.08	22864.69
494.25	23318.76
494.43	23040.23
494.61	23365.57
494.79	23491.96
494.96	23597.28
495.14	23683.88
495.32	24013.90
495.49	23927.30
495.67	24369.66
495.85	24278.38
496.02	24687.97
496.20	24760.53
496.38	24496.05
496.55	24709.04
496.73	25472.05
496.91	24662.22
497.09	25022.67
497.26	25163.10
497.44	25156.08
497.62	25399.49
497.79	25462.69
497.97	25453.33
498.14	26017.40
498.32	26188.25
498.50	25975.27
498.67	26384.86
498.85	26263.15
499.03	26324.01
499.20	26515.93
499.38	26228.04
499.56	26766.37
499.73	26862.33
499.91	27178.30
500.08	27295.33
500.26	26773.39
500.44	27431.08
500.61	27285.97
500.79	27374.91
500.97	27166.60
501.14	27707.26
501.32	27833.65
501.49	28189.41
501.67	27824.29
501.84	27730.67
502.02	28154.30
502.20	28381.34
502.37	28456.23
502.55	28453.89
502.72	28655.18
502.90	28423.47
503.07	28264.31
503.25	28577.94
503.43	28369.63
503.60	28826.04
503.78	28985.19
503.95	29125.63
504.13	28924.34
504.30	29142.01
504.48	29106.90
504.65	29333.93
504.83	29720.12
505.01	29823.11
505.18	29188.82
505.36	29961.20
505.53	30005.67
505.71	29979.92
505.88	29855.87
506.06	30096.95
506.23	30213.98
506.41	30445.69
506.58	30356.75
506.76	30429.30
506.93	30710.17
507.11	30263.13
507.28	31138.49
507.46	30616.55
507.63	31173.60
507.81	30969.97
507.98	31079.97
508.16	30995.71
508.33	31557.44
508.50	31234.45
508.68	31299.98
508.85	31737.66
509.03	31527.02
509.20	31716.60
509.38	31775.11
509.55	31887.46
509.73	32128.53
509.90	32467.91
510.08	32088.74
510.25	31871.07
510.42	32451.53
510.60	32793.25
510.77	32790.91
510.95	32547.49
511.12	32512.38
511.30	32519.40
511.47	32449.19
511.64	32858.78
511.82	33376.04
511.99	32870.48
512.17	33401.79
512.34	33017.94
512.51	33724.78
512.69	33460.30
512.86	33415.83
513.04	33172.41
513.21	34237.36
513.38	33799.68
513.56	33642.86
513.73	34113.31
513.90	33692.01
514.08	34181.18
514.25	34258.42
514.43	34204.59
514.60	34389.49
514.77	34293.53
514.95	34539.29
515.12	34548.65
515.29	34555.67
515.47	35140.80
515.64	35091.65
515.81	35182.93
515.99	35365.49
516.16	34841.21
516.33	34979.31
516.51	34991.01
516.68	35023.78
516.85	35166.55
517.03	35597.21
517.20	35512.95
517.37	35908.50
517.54	35702.53
517.72	35744.66
517.89	35852.33
518.06	35718.92
518.24	35564.44
518.41	35466.14
518.58	35889.77
518.75	35744.66
518.93	36587.25
519.10	36362.56
519.27	36411.71
519.45	36407.03
519.62	36334.48
519.79	36591.94
519.96	36414.05
520.14	36868.12
520.31	36451.50
520.48	36882.16
520.65	37308.14
520.83	36914.93
521.00	37055.36
521.17	37331.54
521.34	37053.02
521.52	37209.84
521.69	37261.33
521.86	37308.14
522.03	37504.74
522.20	37596.03
522.38	37731.78
522.55	37586.66
522.72	37844.12
522.89	37869.87
523.07	38368.40
523.24	38057.11
523.41	38190.52
523.58	37893.27
523.75	38197.54
523.92	38286.48
524.10	37902.64
524.27	38375.42
524.44	38639.90
524.61	39234.40
524.78	38789.70
524.96	38787.36
525.13	38583.73
525.30	38614.16
525.47	39019.07
525.64	39276.53
525.81	39325.68
525.98	39079.92
526.16	39098.65
526.33	39056.52
526.50	39400.58
526.67	38993.32
526.84	39456.75
527.01	39253.12
527.18	39543.35
527.36	39693.15
527.53	39903.79
527.70	39796.13
527.87	40203.38
528.04	39321.00
528.21	40041.88
528.38	39810.17
528.55	40084.01
528.72	39915.50
528.89	40416.37
529.07	39990.39
529.24	40142.53
529.41	40194.02
529.58	40072.31
529.75	40395.31
529.92	40641.06
530.09	40666.81
530.26	40662.13
530.43	40659.79
530.60	40692.55
530.77	40591.91
530.94	40495.95
531.11	40472.54
531.28	40753.41
531.46	40942.99
531.63	41331.52
531.80	40947.67
531.97	41053.00
532.14	41373.65
532.31	40968.74
532.48	41167.68
532.65	41486.00
532.82	41207.47
532.99	41216.83
533.16	41134.92
533.33	41546.85
533.50	41865.16
533.67	42052.41
533.84	41195.77
534.01	41722.39
534.18	41539.83
534.35	41982.19
534.52	41900.27
534.69	42094.53
534.86	41949.42
535.03	41804.31
535.20	41918.99
535.37	41766.86
535.54	42103.90
535.71	41949.42
535.88	42408.17
536.05	42256.03
536.22	42525.19
536.38	42794.36
536.55	42705.41
536.72	42665.63
536.89	42141.35
537.06	42597.75
537.23	42431.57
537.40	42380.08
537.57	42529.87
537.74	42873.93
537.91	43035.43
538.08	42887.98
538.25	43126.71
538.42	43199.27
538.59	42990.96
538.75	42122.62
538.92	43016.71
539.09	43225.01
539.26	43040.11
539.43	43267.14
539.60	43629.93
539.77	43196.93
539.94	43667.37
540.11	43590.14
540.28	43379.49
540.44	43924.83
540.61	43524.60
540.78	43402.89
540.95	43896.75
541.12	43845.26
541.29	43838.23
541.46	43632.27
541.62	44023.14
541.79	43826.53
541.96	43833.55
542.13	43885.04
542.30	44088.67
542.47	44591.89
542.63	44203.36
542.80	44332.09
542.97	44648.06
543.14	44758.06
543.31	44542.74
543.48	44823.60
543.64	45017.86
543.81	44865.73
543.98	45041.27
544.15	45638.11
544.32	45116.17
544.48	44954.67
544.65	44814.24
544.82	45022.54
544.99	44744.02
545.16	45006.16
545.32	45022.54
545.49	45450.86
545.66	46234.94
545.83	46309.84
546.00	46305.16
546.16	45933.01
546.33	45081.06
546.50	44725.30
546.67	45535.12
546.83	44753.38
547.00	45048.29
547.17	45277.66
547.34	45642.79
547.50	45605.34
547.67	45759.81
547.84	45387.67
548.00	45916.63
548.17	46080.47
548.34	45375.97
548.51	45439.16
548.67	46087.49
548.84	45701.30
549.01	45684.92
549.18	45757.47
549.34	45778.54
549.51	45762.15
549.68	46024.29
549.84	45883.86
550.01	46087.49
550.18	45727.05
550.34	46036.00
550.51	46019.61
550.68	46358.99
550.84	45588.95
551.01	45488.31
551.18	45642.79
551.34	45713.00
551.51	46092.17
551.68	46260.69
551.84	46101.53
552.01	46202.18
552.18	46424.53
552.34	45867.48
552.51	46445.59
552.68	46085.15
552.84	46064.08
553.01	46279.41
553.18	46085.15
553.34	46651.56
553.51	46492.40
553.67	46396.44
553.84	46543.89
554.01	47107.96
554.17	46574.32
554.34	46843.48
554.51	46368.35
554.67	46742.84
554.84	46698.37
555.00	46679.64
555.17	46810.71
555.33	46855.18
555.50	47103.28
555.67	46820.08
555.83	46239.62
556.00	46555.60
556.16	47192.22
556.33	46628.15
556.50	46784.97
556.66	46791.99
556.83	46775.61
556.99	47040.09
557.16	46813.05
557.32	46831.78
557.49	47044.77
557.65	47302.23
557.82	46962.85
557.98	47136.05
558.15	47627.56
558.32	47367.76
558.48	47126.69
558.65	47285.84
558.81	47278.82
558.98	47269.46
559.14	47445.00
559.31	46913.70
559.47	47166.48
559.64	47344.36
559.80	47608.84
559.97	47760.97
560.13	47426.28
560.30	47093.92
560.46	47257.76
560.63	47496.49
560.79	47320.95
560.96	47964.60
561.12	47629.90
561.29	47440.32
561.45	47803.10
561.61	47760.97
561.78	48062.90
561.94	47346.70
562.11	47627.56
562.27	47470.75
562.44	47618.20
562.60	47313.93
562.77	47732.89
562.93	47384.15
563.10	47679.05
563.26	47461.38
563.42	47540.96
563.59	47735.23
563.75	47459.04
563.92	48243.12
564.08	47835.87
564.24	47906.08
564.41	47739.91
564.57	47480.11
564.74	47484.79
564.90	48030.13
565.07	47445.00
565.23	48074.60
565.39	47856.93
565.56	47552.66
565.72	47812.46
565.88	47447.34
566.05	47426.28
566.21	47758.63
566.38	47796.08
566.54	47767.99
566.70	48210.35
566.87	48121.41
567.03	48266.53
567.19	48296.95
567.36	47917.79
567.52	47840.55
567.68	47718.84
567.85	47482.45
568.01	47852.25
568.17	47767.99
568.34	48093.33
568.50	47992.68
568.66	48203.33
568.83	48093.33
568.99	47763.31
569.15	47721.18
569.32	47863.96
569.48	47613.52
569.64	47899.06
569.81	48105.03
569.97	47880.34
570.13	47744.59
570.30	47819.49
570.46	48275.89
570.62	47901.40
570.78	48006.73
570.95	48074.60
571.11	47922.47
571.27	47962.26
571.43	47753.95
571.60	47863.96
571.76	48264.19
571.92	48205.67
572.09	48442.07
572.25	48151.84
572.41	48428.02
572.57	48236.10
572.74	48090.99
572.90	47746.93
573.06	48100.35
573.22	48037.16
573.38	48259.51
573.55	48090.99
573.71	48191.63
573.87	48002.05
574.03	48514.62
574.20	48083.97
574.36	47868.64
574.52	48093.33
574.68	48109.71
574.84	47742.25
575.01	48076.94
575.17	48561.44
575.33	47894.38
575.49	48383.55
575.65	48154.18
575.82	48538.03
575.98	48123.75
576.14	48219.72
576.30	48107.37
576.46	48371.85
576.62	47990.34
576.79	47636.92
576.95	48051.20
577.11	48205.67
577.27	47920.13
577.43	48416.32
577.59	48055.88
577.75	47892.04
577.92	47966.94
578.08	48027.79
578.24	47835.87
578.40	48385.89
578.56	48203.33
578.72	48179.93
578.88	48306.32
579.04	48999.12
579.21	48292.27
579.37	47899.06
579.53	48507.60
579.69	47969.28
579.85	47866.30
580.01	48418.66
580.17	48296.95
580.33	48170.57
580.49	48329.72
580.65	48577.82
580.82	48442.07
580.98	48119.07
581.14	48065.24
581.30	48341.42
581.46	48062.90
581.62	47810.12
581.78	48016.09
581.94	48116.73
582.10	47976.30
582.26	48193.97
582.42	48140.14
582.58	48659.74
582.74	48208.01
582.90	48760.38
583.06	48137.80
583.22	48231.42
583.38	48395.26
583.54	48229.08
583.70	47707.14
583.86	48030.13
584.02	48299.30
584.18	48465.47
584.34	48383.55
584.50	48484.20
584.66	48577.82
584.82	48161.20
584.98	48236.10
585.14	47896.72
585.30	47693.10
585.46	48238.44
585.62	48364.83
585.78	48587.18
585.94	48053.54
586.10	48744.00
586.26	48184.61
586.42	48488.88
586.58	48474.84
586.74	48350.79
586.90	47927.15
587.06	48189.29
587.22	48392.92
587.38	48027.79
587.54	48334.40
587.70	48549.73
587.86	48528.67
588.02	48549.73
588.18	48608.25
588.34	48193.97
588.49	48282.91
588.65	48376.53
588.81	48184.61
588.97	48039.50
589.13	48568.46
589.29	48154.18
589.45	48385.89
589.61	48633.99
589.77	48390.58
589.93	48657.40
590.08	48296.95
590.24	48519.31
