SpectraSuite Data File
++++++++++++++++++++++++++++++++++++
Date: Fri Oct 04 11:39:36 GMT-05:00 2013
User: price-jones
Dark Spectrum Present: No
Reference Spectrum Present: No
Number of Sampled Component Spectra: 1
Spectrometers: USB2+H05261
Integration Time (usec): 100000 (USB2+H05261)
Spectra Averaged: 1 (USB2+H05261)
Boxcar Smoothing: 0 (USB2+H05261)
Correct for Electrical Dark: No (USB2+H05261)
Strobe/Lamp Enabled: No (USB2+H05261)
Correct for Detector Non-linearity: No (USB2+H05261)
Correct for Stray Light: No (USB2+H05261)
Number of Pixels in Processed Spectrum: 2048
>>>>>Begin Processed Spectral Data<<<<<
365.73	77.24
365.92	77.24
366.12	77.24
366.32	0.00
366.52	0.00
366.72	0.00
366.91	0.00
367.11	0.00
367.31	0.00
367.51	0.00
367.70	0.00
367.90	0.00
368.10	0.00
368.30	0.00
368.49	0.00
368.69	0.00
368.89	0.00
369.09	0.00
369.28	0.00
369.48	14.04
369.68	25.75
369.87	0.00
370.07	0.00
370.27	58.51
370.47	46.81
370.66	241.08
370.86	229.37
371.06	238.73
371.25	313.63
371.45	245.76
371.65	339.38
371.84	320.65
372.04	278.52
372.24	325.33
372.44	365.12
372.63	301.93
372.83	311.29
373.03	369.80
373.22	369.80
373.42	320.65
373.62	341.72
373.81	400.23
374.01	374.49
374.21	353.42
374.40	325.33
374.60	423.64
374.79	404.91
374.99	386.19
375.19	449.38
375.38	437.68
375.58	388.53
375.78	482.15
375.97	379.17
376.17	421.30
376.37	353.42
376.56	397.89
376.76	456.40
376.95	416.62
377.15	433.00
377.35	407.25
377.54	407.25
377.74	475.13
377.93	416.62
378.13	411.93
378.33	437.68
378.52	409.59
378.72	440.02
378.91	395.55
379.11	388.53
379.31	381.51
379.50	386.19
379.70	479.81
379.89	472.79
380.09	416.62
380.28	472.79
380.48	458.74
380.68	437.68
380.87	454.06
381.07	440.02
381.26	578.11
381.46	461.09
381.65	557.05
381.85	554.71
382.04	463.43
382.24	545.34
382.43	510.24
382.63	512.58
382.83	468.11
383.02	540.66
383.22	552.37
383.41	559.39
383.61	414.27
383.80	512.58
384.00	479.81
384.19	568.75
384.39	531.30
384.58	533.64
384.78	535.98
384.97	526.62
385.17	503.22
385.36	482.15
385.56	608.54
385.75	510.24
385.95	578.11
386.14	655.35
386.34	571.09
386.53	519.60
386.72	582.79
386.92	695.14
387.11	620.24
387.31	578.11
387.50	594.50
387.70	552.37
387.89	620.24
388.09	678.76
388.28	594.50
388.48	552.37
388.67	671.73
388.86	720.88
389.06	695.14
389.25	566.41
389.45	657.69
389.64	662.37
389.84	669.39
390.03	755.99
390.22	664.71
390.42	685.78
390.61	669.39
390.81	655.35
391.00	732.59
391.19	664.71
391.39	702.16
391.58	667.05
391.78	709.18
391.97	713.86
392.16	725.57
392.36	779.40
392.55	716.20
392.75	720.88
392.94	793.44
393.13	657.69
393.33	716.20
393.52	690.46
393.71	807.48
393.91	758.33
394.10	837.91
394.29	760.67
394.49	840.25
394.68	814.51
394.88	849.61
395.07	884.72
395.26	858.98
395.46	905.79
395.65	809.83
395.84	840.25
396.04	929.19
396.23	851.96
396.42	861.32
396.62	894.08
396.81	882.38
397.00	882.38
397.19	898.77
397.39	894.08
397.58	978.34
397.77	938.55
397.97	880.04
398.16	926.85
398.35	887.06
398.55	961.96
398.74	1029.84
398.93	968.98
399.12	1083.67
399.32	1027.50
399.51	1022.81
399.70	1104.73
399.90	1062.60
400.09	1039.20
400.28	1130.48
400.47	1048.56
400.67	1128.14
400.86	1214.74
401.05	1123.46
401.24	1083.67
401.44	1149.20
401.63	1142.18
401.82	1128.14
402.01	1200.69
402.21	1078.99
402.40	1090.69
402.59	1100.05
402.78	1095.37
402.97	1217.08
403.17	1228.78
403.36	1193.67
403.55	1268.57
403.74	1294.32
403.93	1376.24
404.13	1380.92
404.32	1418.36
404.51	1301.34
404.70	1448.79
404.89	1371.55
405.09	1397.30
405.28	1390.28
405.47	1409.00
405.66	1401.98
405.85	1483.90
406.05	1397.30
406.24	1497.94
406.43	1540.07
406.62	1579.86
406.81	1612.63
407.00	1537.73
407.20	1467.52
407.39	1565.82
407.58	1563.48
407.77	1713.27
407.96	1715.61
408.15	1699.23
408.34	1591.56
408.54	1717.95
408.73	1605.61
408.92	1666.46
409.11	1680.50
409.30	1856.04
409.49	1760.08
409.68	1767.10
409.87	1755.40
410.07	1767.10
410.26	1804.55
410.45	1736.68
410.64	1860.73
410.83	1874.77
411.02	1937.96
411.21	1963.71
411.40	2040.95
411.59	2008.18
411.78	1942.64
411.98	2076.06
412.17	1980.09
412.36	1982.43
412.55	2139.25
412.74	2153.29
412.93	2211.81
413.12	2139.25
413.31	2216.49
413.50	2202.44
413.69	2146.27
413.88	2389.69
414.07	2300.75
414.26	2319.47
414.45	2399.05
414.64	2347.56
414.83	2401.39
415.02	2282.02
415.22	2436.50
415.41	2553.52
415.60	2541.82
415.79	2499.69
415.98	2623.74
416.17	2668.21
416.36	2663.53
416.55	2722.04
416.74	2717.36
416.93	2605.02
417.12	2764.17
417.31	2719.70
417.50	2785.24
417.69	2928.01
417.88	2885.88
418.07	2890.56
418.26	2881.20
418.45	2909.29
418.64	2944.39
418.83	2958.44
419.02	2899.92
419.21	3138.66
419.39	3110.57
419.58	2974.82
419.77	2958.44
419.96	3159.72
420.15	3101.21
420.34	3148.02
420.53	3091.85
420.72	3218.24
420.91	3155.04
421.10	3267.39
421.29	3307.18
421.48	3208.87
421.67	3183.13
421.86	3227.60
422.05	3265.05
422.24	3243.98
422.43	3199.51
422.61	3403.14
422.80	3384.41
422.99	3300.16
423.18	3375.05
423.37	3358.67
423.56	3384.41
423.75	3321.22
423.94	3353.99
424.13	3258.03
424.32	3243.98
424.50	3351.65
424.69	3508.46
424.88	3485.06
425.07	3335.26
425.26	3274.41
425.45	3466.33
425.64	3501.44
425.83	3363.35
426.01	3508.46
426.20	3438.25
426.39	3396.12
426.58	3562.30
426.77	3431.23
426.96	3569.32
427.15	3559.95
427.33	3445.27
427.52	3641.87
427.71	3499.10
427.90	3686.34
428.09	3693.37
428.28	3676.98
428.46	3784.65
428.65	3754.22
428.84	3768.26
429.03	3786.99
429.22	3702.73
429.40	3667.62
429.59	3808.05
429.78	3606.77
429.97	3639.53
430.16	3632.51
430.34	3843.16
430.53	3915.72
430.72	3920.40
430.91	3925.08
431.10	3929.76
431.28	3857.20
431.47	4102.96
431.66	4182.54
431.85	3922.74
432.03	4105.30
432.22	4182.54
432.41	4102.96
432.60	4077.21
432.79	4212.96
432.97	4102.96
433.16	4159.13
433.35	4091.26
433.54	4313.61
433.72	4376.80
433.91	4280.84
434.10	4222.33
434.28	4219.99
434.47	4241.05
434.66	4264.46
434.85	4297.22
435.03	4533.62
435.22	4608.51
435.41	4926.83
435.59	4807.46
435.78	4760.65
435.97	4524.26
436.16	4482.13
436.34	4423.61
436.53	4482.13
436.72	4622.56
436.90	4582.77
437.09	4774.69
437.28	4496.17
437.46	4631.92
437.65	4573.41
437.84	4706.82
438.02	4620.22
438.21	4720.86
438.40	4589.79
438.58	4823.84
438.77	4915.12
438.96	4779.37
439.14	5095.35
439.33	5041.51
439.52	5074.28
439.70	4959.60
439.89	5172.58
440.08	5036.83
440.26	5188.97
440.45	5097.69
440.63	5085.98
440.82	5212.37
441.01	5291.95
441.19	5329.40
441.38	5282.59
441.57	5345.78
441.75	5434.72
441.94	5523.66
442.12	5563.45
442.31	5710.91
442.50	5596.22
442.68	5558.77
442.87	5504.94
443.05	5551.75
443.24	5781.12
443.43	5771.76
443.61	5692.18
443.80	5694.52
443.98	5617.29
444.17	5605.58
444.35	5802.19
444.54	5806.87
444.73	5750.70
444.91	5933.26
445.10	5799.85
445.28	5891.13
445.47	5886.45
445.65	5823.25
445.84	5771.76
446.02	5919.21
446.21	5769.42
446.39	5760.06
446.58	5701.54
446.77	5923.90
446.95	5668.78
447.14	5888.79
447.32	5820.91
447.51	6015.18
447.69	5898.15
447.88	5921.56
448.06	5998.79
448.25	5942.62
448.43	5933.26
448.62	5900.49
448.80	5804.53
448.99	6052.63
449.17	6061.99
449.36	6122.84
449.54	6097.10
449.73	6204.76
449.91	6092.41
450.10	6092.41
450.28	6155.61
450.46	6153.27
450.65	6399.02
450.83	6377.96
451.02	6209.44
451.20	6497.33
451.39	6363.92
451.57	6242.21
451.76	5989.43
451.94	6291.36
452.13	6377.96
452.31	6420.09
452.49	6113.48
452.68	6644.78
452.86	6689.25
453.05	6595.63
453.23	6576.91
453.42	6401.37
453.60	6427.11
453.78	6586.27
453.97	6331.15
454.15	6614.35
454.34	6401.37
454.52	6768.83
454.70	6691.59
454.89	6738.40
455.07	6710.32
455.26	6832.02
455.44	6925.65
455.62	6782.87
455.81	6745.42
455.99	6785.21
456.17	7082.46
456.36	6888.20
456.54	7061.40
456.73	7110.55
456.91	7157.36
457.09	7201.83
457.28	7178.42
457.46	7126.93
457.64	7229.91
457.83	7351.62
458.01	7176.08
458.19	7456.95
458.38	7185.44
458.56	7351.62
458.74	7335.24
458.93	7328.22
459.11	7363.33
459.29	7295.45
459.48	7241.62
459.66	7382.05
459.84	7590.36
460.03	7648.87
460.21	7695.68
460.39	7578.65
460.57	7541.21
460.76	7494.40
460.94	7726.11
461.12	7784.62
461.31	7744.83
461.49	7770.58
461.67	7508.44
461.85	7859.52
462.04	7597.38
462.22	8049.10
462.40	7810.37
462.59	7953.14
462.77	7920.37
462.95	7812.71
463.13	7847.82
463.32	7908.67
463.50	7943.78
463.68	7925.05
463.86	7911.01
464.05	7932.08
464.23	8131.02
464.41	8229.32
464.59	7943.78
464.78	8170.81
464.96	8072.51
465.14	8121.66
465.32	8386.14
465.50	8154.43
465.69	8126.34
465.87	8257.41
466.05	8128.68
466.23	8276.13
466.41	8489.12
466.60	8318.26
466.78	8266.77
466.96	8128.68
467.14	8217.62
467.32	8540.61
467.51	8521.89
467.69	8285.50
467.87	8472.74
468.05	8580.40
468.23	8425.93
468.41	8468.06
468.60	8627.21
468.78	8676.37
468.96	8564.02
469.14	8540.61
469.32	8875.31
469.50	8617.85
469.69	8887.01
469.87	8795.73
470.05	9081.28
470.23	8671.68
470.41	8905.74
470.59	9006.38
470.77	8837.86
470.95	9032.13
471.14	9174.90
471.32	9011.06
471.50	9254.48
471.68	9245.12
471.86	9242.78
472.04	9221.71
472.22	9556.41
472.40	9411.29
472.58	9387.89
472.77	9446.40
472.95	9455.76
473.13	9832.59
473.31	9446.40
473.49	9341.08
473.67	9635.99
473.85	9666.41
474.03	9727.27
474.21	9848.97
474.39	9909.83
474.57	9863.02
474.75	10169.63
474.93	10235.16
475.12	10160.27
475.30	10319.42
475.48	10356.87
475.66	10113.45
475.84	10167.29
476.02	10415.38
476.20	10471.56
476.38	10485.60
476.56	10925.62
476.74	10717.31
476.92	10815.62
477.10	10839.02
477.28	10995.84
477.46	11162.01
477.64	11026.26
477.82	11286.06
478.00	11309.47
478.18	11379.68
478.36	11400.75
478.54	11698.00
478.72	11702.68
478.90	11740.13
479.08	11831.41
479.26	11751.83
479.44	11749.49
479.62	12060.78
479.80	12177.81
479.98	12233.98
480.16	12224.62
480.34	12362.71
480.52	12622.51
480.70	12411.86
480.88	12273.77
481.06	12688.04
481.24	12423.56
481.41	12711.45
481.59	13046.15
481.77	13088.28
481.95	13273.18
482.13	13177.22
482.31	13118.70
482.49	13465.10
482.67	13341.05
482.85	13558.72
483.03	13877.04
483.21	14059.60
483.39	14015.13
483.57	14019.81
483.74	14398.98
483.92	14424.72
484.10	14167.26
484.28	14745.38
484.46	14778.14
484.64	15220.50
484.82	14721.97
485.00	15033.26
485.18	15236.89
485.35	15396.04
485.53	15484.98
485.71	15346.89
485.89	15651.16
486.07	15793.94
486.25	15627.76
486.43	15967.13
486.61	15903.94
486.78	16248.00
486.96	16367.37
487.14	16709.08
487.32	16341.62
487.50	16397.79
487.68	16685.68
487.85	16823.77
488.03	16966.54
488.21	17397.20
488.39	17200.60
488.57	17472.10
488.75	17324.65
488.92	17626.57
489.10	17633.60
489.28	18281.92
489.46	18136.81
489.64	18054.89
489.81	18480.87
489.99	18361.50
490.17	18324.05
490.35	18916.21
490.53	18944.30
490.70	18986.43
490.88	18867.06
491.06	19129.20
491.24	19269.63
491.41	19688.59
491.59	19733.06
491.77	19536.45
491.95	20004.56
492.13	19768.16
492.30	19789.23
492.48	20222.23
492.66	20177.76
492.84	20243.29
493.01	20472.67
493.19	20449.26
493.37	20608.42
493.54	20933.75
493.72	21177.17
493.90	20938.43
494.08	21029.71
494.25	21390.16
494.43	21673.36
494.61	21790.39
494.79	21837.20
494.96	21642.93
495.14	21774.00
495.32	22221.05
495.49	22068.91
495.67	22401.27
495.85	22298.28
496.02	22754.69
496.20	22511.27
496.38	22670.43
496.55	22778.09
496.73	23232.16
496.91	22948.95
497.09	23220.45
497.26	23084.70
497.44	23412.38
497.62	23871.12
497.79	23714.31
497.97	23356.21
498.14	24077.09
498.32	23819.63
498.50	24304.12
498.67	24416.47
498.85	24484.34
499.03	24039.64
499.20	24261.99
499.38	24451.58
499.56	24755.85
499.73	24931.39
499.91	24751.17
500.08	25109.27
500.26	24753.51
500.44	25064.80
500.61	25064.80
500.79	25380.77
500.97	25476.73
501.14	25940.16
501.32	25612.48
501.49	25795.04
501.67	25603.12
501.84	25858.24
502.02	25935.48
502.20	26045.48
502.37	26361.45
502.55	26609.55
502.72	26129.74
502.90	26305.28
503.07	25865.26
503.25	26560.40
503.43	26501.89
503.60	27070.64
503.78	26689.13
503.95	26429.33
504.13	26600.19
504.30	27070.64
504.48	26682.11
504.65	27005.10
504.83	27190.00
505.01	27948.34
505.18	27473.21
505.36	27751.73
505.53	27824.29
505.71	27723.65
505.88	27733.01
506.06	27632.36
506.23	27971.74
506.41	28114.52
506.58	28121.54
506.76	28362.61
506.93	27903.87
507.11	28173.03
507.28	27735.35
507.46	28535.81
507.63	28479.64
507.81	28982.85
507.98	28498.36
508.16	28383.68
508.33	28847.10
508.50	29174.78
508.68	29336.27
508.85	29366.70
509.03	29331.59
509.20	29303.51
509.38	29497.77
509.55	29846.51
509.73	29523.52
509.90	29762.25
510.08	29982.26
510.25	30113.33
510.42	29984.60
510.60	30089.93
510.77	30298.23
510.95	30188.23
511.12	30424.62
511.30	29928.43
511.47	30611.87
511.64	30391.86
511.82	30937.20
511.99	30782.73
512.17	30866.98
512.34	30398.88
512.51	30876.35
512.69	30998.06
512.86	31047.21
513.04	30916.14
513.21	31435.74
513.38	31400.63
513.56	31070.61
513.73	31770.43
513.90	31360.84
514.08	30897.41
514.25	31903.84
514.43	31358.50
514.60	31976.40
514.77	31587.87
514.95	32158.96
515.12	31887.46
515.29	31548.08
515.47	32093.43
515.64	32224.50
515.81	31999.80
515.99	32222.16
516.16	32643.45
516.33	32746.44
516.51	32912.61
516.68	32411.74
516.85	32582.60
517.03	32900.91
517.20	32931.34
517.37	32996.87
517.54	33275.40
517.72	33029.64
517.89	33394.76
518.06	33099.86
518.24	33132.62
518.41	33624.14
518.58	33448.60
518.75	33406.47
518.93	33631.16
519.10	33380.72
519.27	34087.56
519.45	33687.33
519.62	33490.73
519.79	33731.80
519.96	33677.97
520.14	34127.35
520.31	34160.12
520.48	33923.72
520.65	34419.92
520.83	34691.42
521.00	34089.90
521.17	34363.75
521.34	34520.56
521.52	34890.37
521.69	34864.62
521.86	34710.14
522.03	35112.72
522.20	35068.25
522.38	34752.27
522.55	34731.21
522.72	35173.57
522.89	35419.33
523.07	35569.12
523.24	35157.19
523.41	35683.81
523.58	35388.90
523.75	35477.84
523.92	35452.09
524.10	35592.53
524.27	35985.74
524.44	35789.13
524.61	36128.51
524.78	35681.47
524.96	35941.27
525.13	36027.87
525.30	36257.24
525.47	36416.40
525.64	36020.84
525.81	36418.74
525.98	36720.66
526.16	36442.14
526.33	36315.75
526.50	36451.50
526.67	36121.49
526.84	36645.77
527.01	36547.47
527.18	36676.19
527.36	36711.30
527.53	37453.25
527.70	37385.38
527.87	37195.79
528.04	37097.49
528.21	36947.70
528.38	36933.65
528.55	37006.21
528.72	37333.89
528.89	37216.86
529.07	37371.33
529.24	37390.06
529.41	37457.93
529.58	37188.77
529.75	37331.54
529.92	37347.93
530.09	37776.25
530.26	37743.48
530.43	37963.49
530.60	37345.59
530.77	37762.20
530.94	37926.04
531.11	37464.96
531.28	37668.58
531.46	37968.17
531.63	37745.82
531.80	38326.27
531.97	38476.07
532.14	38440.96
532.31	37926.04
532.48	38295.85
532.65	38319.25
532.82	38087.54
532.99	38403.51
533.16	38354.36
533.33	38745.23
533.50	39585.48
533.67	39051.84
533.84	39201.63
534.01	38824.81
534.18	38487.77
534.35	38937.15
534.52	38902.04
534.69	39311.64
534.86	39770.38
535.03	39112.69
535.20	39267.17
535.37	39313.98
535.54	38930.13
535.71	38937.15
535.88	38930.13
536.05	39407.60
536.22	39250.78
536.38	39583.14
536.55	39885.07
536.72	39821.87
536.89	39749.32
537.06	39538.67
537.23	40051.25
537.40	39875.71
537.57	40086.36
537.74	40032.52
537.91	40285.30
538.08	39971.67
538.25	40046.57
538.42	40147.21
538.59	40362.54
538.75	39625.27
538.92	40123.80
539.09	40245.51
539.26	40577.87
539.43	40301.68
539.60	40570.85
539.77	40402.33
539.94	40725.32
540.11	40374.24
540.28	40715.96
540.44	41067.04
540.61	40814.26
540.78	40662.13
540.95	40744.05
541.12	41296.41
541.29	40919.59
541.46	41060.02
541.62	41322.16
541.79	41071.72
541.96	40985.12
542.13	40865.75
542.30	41476.63
542.47	41628.77
542.63	41546.85
542.80	41680.26
542.97	41752.82
543.14	42052.41
543.31	42033.68
543.48	41785.58
543.64	42103.90
543.81	42094.53
543.98	42174.11
544.15	41928.36
544.32	42117.94
544.48	42415.19
544.65	42316.89
544.82	42129.64
544.99	42101.56
545.16	41818.35
545.32	41949.42
545.49	42909.04
545.66	43143.09
545.83	43335.02
546.00	43419.28
546.16	42773.29
546.33	42295.82
546.50	42061.77
546.67	42445.62
546.83	41687.28
547.00	42291.14
547.17	42424.55
547.34	42480.72
547.50	42635.20
547.67	42595.41
547.84	42803.72
548.00	42529.87
548.17	42691.37
548.34	43007.34
548.51	42906.70
548.67	42937.13
548.84	42920.74
549.01	42817.76
549.18	42953.51
549.34	42686.69
549.51	42876.27
549.68	43030.75
549.84	42869.25
550.01	43028.41
550.18	42878.61
550.34	43346.72
550.51	42887.98
550.68	43377.15
550.84	43133.73
551.01	43152.46
551.18	42958.19
551.34	42700.73
551.51	43175.86
551.68	43201.61
551.84	43306.93
552.01	43290.55
552.18	43278.85
552.34	43019.05
552.51	43342.04
552.68	43246.08
552.84	43187.56
553.01	43763.34
553.18	43388.85
553.34	43999.73
553.51	43255.44
553.67	43416.94
553.84	43915.47
554.01	43969.30
554.17	43910.79
554.34	43707.16
554.51	43559.71
554.67	43938.88
554.84	43770.36
555.00	44053.56
555.17	43672.06
555.33	43856.96
555.50	44130.80
555.67	43889.73
555.83	43601.84
556.00	43688.44
556.16	44112.08
556.33	43819.51
556.50	43854.62
556.66	43997.39
556.83	43913.13
556.99	44142.50
557.16	44170.59
557.32	44133.14
557.49	44126.12
557.65	44048.88
557.82	43714.19
557.98	43929.51
558.15	44208.04
558.32	44184.63
558.48	44102.71
558.65	44449.11
558.81	44137.82
558.98	44027.82
559.14	44395.28
559.31	43880.36
559.47	44076.97
559.64	44215.06
559.80	44360.17
559.97	44697.21
560.13	44409.32
560.30	44329.75
560.46	44053.56
560.63	44650.40
560.79	44734.66
560.96	44715.93
561.12	44404.64
561.29	44355.49
561.45	44699.55
561.61	44912.54
561.78	44605.93
561.94	44605.93
562.11	44261.87
562.27	44566.14
562.44	44615.29
562.60	44605.93
562.77	44666.78
562.93	44729.98
563.10	44987.44
563.26	44683.17
563.42	45151.27
563.59	44662.10
563.75	44776.79
563.92	44713.59
564.08	44584.86
564.24	44751.04
564.41	44701.89
564.57	44903.18
564.74	44903.18
564.90	44758.06
565.07	44753.38
565.23	44680.83
565.39	44832.96
565.56	44626.99
565.72	44912.54
565.88	45155.96
566.05	44533.37
566.21	44603.59
566.38	44769.77
566.54	44793.17
566.70	44666.78
566.87	45263.62
567.03	44844.66
567.19	44907.86
567.36	45144.25
567.52	44402.30
567.68	45118.51
567.85	44659.76
568.01	44893.82
568.17	44664.44
568.34	45071.70
568.50	44643.38
568.66	45214.47
568.83	44814.24
568.99	44924.24
569.15	45048.29
569.32	45045.95
569.48	44900.84
569.64	45106.80
569.81	45003.82
569.97	44921.90
570.13	45249.58
570.30	44928.92
570.46	44912.54
570.62	45083.40
570.78	44893.82
570.95	44760.40
571.11	45303.41
571.27	44839.98
571.43	45158.30
571.60	45361.92
571.76	45315.11
571.92	45085.74
572.09	45020.20
572.25	45354.90
572.41	45277.66
572.57	45127.87
572.74	44973.39
572.90	45331.50
573.06	44994.46
573.22	45003.82
573.38	45717.68
573.55	45130.21
573.71	45392.35
573.87	45343.20
574.03	45198.09
574.20	44882.11
574.36	44797.85
574.52	44715.93
574.68	44868.07
574.84	45406.39
575.01	45244.90
575.17	45155.96
575.33	45179.36
575.49	45179.36
575.65	45525.76
575.82	45160.64
575.98	45315.11
576.14	45155.96
576.30	45263.62
576.46	45448.52
576.62	44980.42
576.79	45413.41
576.95	45106.80
577.11	45184.04
577.27	45069.36
577.43	44982.76
577.59	45045.95
577.75	45453.20
577.92	45177.02
578.08	44971.05
578.24	44811.90
578.40	45212.13
578.56	44898.50
578.72	45375.97
578.88	45797.26
579.04	45509.38
579.21	45450.86
579.37	45397.03
579.53	45570.23
579.69	45031.91
579.85	45322.13
580.01	44924.24
580.17	44748.70
580.33	45205.11
580.49	45193.40
580.65	45399.37
580.82	45418.10
580.98	45415.76
581.14	45298.73
581.30	45095.10
581.46	45111.49
581.62	45542.14
581.78	44645.72
581.94	45221.49
582.10	44896.16
582.26	45205.11
582.42	45785.56
582.58	45626.40
582.74	45127.87
582.90	45216.81
583.06	45764.49
583.22	45059.99
583.38	45476.61
583.54	45485.97
583.70	45071.70
583.86	45177.02
584.02	45375.97
584.18	45467.25
584.34	45612.36
584.50	45331.50
584.66	45523.42
584.82	45198.09
584.98	45315.11
585.14	45635.77
585.30	45284.68
585.46	45212.13
585.62	45322.13
585.78	45319.79
585.94	44919.56
586.10	45359.58
586.26	45471.93
586.42	45888.54
586.58	45640.45
586.74	45287.03
586.90	45326.81
587.06	45333.84
587.22	45249.58
587.38	45492.99
587.54	45315.11
587.70	45624.06
587.86	45638.11
588.02	45560.87
588.18	45481.29
588.34	45228.51
588.49	45797.26
588.65	45277.66
588.81	45443.84
588.97	45406.39
589.13	45373.63
589.29	45212.13
589.45	45694.28
589.61	45764.49
589.77	45933.01
589.93	45563.21
590.08	45600.66
590.24	45808.96
590.40	45549.17
590.56	45507.04
590.72	45701.30
