SpectraSuite Data File
++++++++++++++++++++++++++++++++++++
Date: Fri Oct 04 11:40:00 GMT-05:00 2013
User: price-jones
Dark Spectrum Present: No
Reference Spectrum Present: No
Number of Sampled Component Spectra: 1
Spectrometers: USB2+H05261
Integration Time (usec): 100000 (USB2+H05261)
Spectra Averaged: 1 (USB2+H05261)
Boxcar Smoothing: 0 (USB2+H05261)
Correct for Electrical Dark: No (USB2+H05261)
Strobe/Lamp Enabled: No (USB2+H05261)
Correct for Detector Non-linearity: No (USB2+H05261)
Correct for Stray Light: No (USB2+H05261)
Number of Pixels in Processed Spectrum: 2048
>>>>>Begin Processed Spectral Data<<<<<
365.73	11.70
365.92	11.70
366.12	11.70
366.32	0.00
366.52	0.00
366.72	0.00
366.91	2.34
367.11	0.00
367.31	0.00
367.51	0.00
367.70	0.00
367.90	30.43
368.10	0.00
368.30	0.00
368.49	0.00
368.69	0.00
368.89	0.00
369.09	0.00
369.28	0.00
369.48	0.00
369.68	0.00
369.87	0.00
370.07	42.13
370.27	14.04
370.47	205.97
370.66	671.73
370.86	676.41
371.06	807.48
371.25	741.95
371.45	685.78
371.65	753.65
371.84	875.36
372.04	674.07
372.24	816.85
372.44	741.95
372.63	805.14
372.83	863.66
373.03	919.83
373.22	814.51
373.42	847.27
373.62	882.38
373.81	919.83
374.01	880.04
374.21	936.21
374.40	861.32
374.60	1036.86
374.79	976.00
374.99	968.98
375.19	961.96
375.38	976.00
375.58	961.96
375.78	1025.15
375.97	980.68
376.17	1050.90
376.37	1008.77
376.56	1041.54
376.76	1034.52
376.95	1050.90
377.15	1153.88
377.35	1043.88
377.54	1064.94
377.74	1100.05
377.93	1160.91
378.13	1088.35
378.33	1158.57
378.52	1179.63
378.72	1238.14
378.91	1121.12
379.11	1149.20
379.31	1214.74
379.50	1057.92
379.70	1186.65
379.89	1231.12
380.09	1240.48
380.28	1210.06
380.48	1179.63
380.68	1207.72
380.87	1200.69
381.07	1217.08
381.26	1282.61
381.46	1320.06
381.65	1289.64
381.85	1329.42
382.04	1315.38
382.24	1296.66
382.43	1306.02
382.63	1373.89
382.83	1387.94
383.02	1439.43
383.22	1451.13
383.41	1380.92
383.61	1500.28
383.80	1357.51
384.00	1376.24
384.19	1460.49
384.39	1490.92
384.58	1533.05
384.78	1423.05
384.97	1516.67
385.17	1509.65
385.36	1551.78
385.56	1530.71
385.75	1483.90
385.95	1490.92
386.14	1570.50
386.34	1500.28
386.53	1629.01
386.72	1591.56
386.92	1610.29
387.11	1612.63
387.31	1540.07
387.50	1577.52
387.70	1664.12
387.89	1633.69
388.09	1678.16
388.28	1720.29
388.48	1678.16
388.67	1724.97
388.86	1755.40
389.06	1661.78
389.25	1795.19
389.45	1767.10
389.64	1652.42
389.84	1944.99
390.03	1933.28
390.22	1797.53
390.42	1813.92
390.61	1788.17
390.81	1942.64
391.00	1905.20
391.19	2012.86
391.39	1942.64
391.58	1959.03
391.78	1952.01
391.97	2012.86
392.16	1991.80
392.36	2094.78
392.55	1926.26
392.75	2059.67
392.94	2059.67
393.13	2003.50
393.33	2080.74
393.52	2085.42
393.71	2106.48
393.91	2207.13
394.10	2167.34
394.29	2232.87
394.49	2230.53
394.68	2197.76
394.88	2195.42
395.07	2307.77
395.26	2239.89
395.46	2408.41
395.65	2310.11
395.84	2324.15
396.04	2480.97
396.23	2497.35
396.42	2401.39
396.62	2349.90
396.81	2394.37
397.00	2457.56
397.19	2401.39
397.39	2509.05
397.58	2553.52
397.77	2520.76
397.97	2520.76
398.16	2509.05
398.35	2635.44
398.55	2684.59
398.74	2677.57
398.93	2796.94
399.12	2696.30
399.32	2532.46
399.51	2686.94
399.70	2719.70
399.90	2672.89
400.09	2881.20
400.28	2810.98
400.47	2682.25
400.67	2904.60
400.86	2878.86
401.05	2930.35
401.24	2916.31
401.44	2892.90
401.63	2995.89
401.82	3059.08
402.01	2993.55
402.21	3077.80
402.40	3101.21
402.59	3222.92
402.78	3171.43
402.97	3108.23
403.17	3150.36
403.36	3197.17
403.55	3138.66
403.74	3393.78
403.93	3314.20
404.13	3398.46
404.32	3323.56
404.51	3400.80
404.70	3419.52
404.89	3325.90
405.09	3382.07
405.28	3480.38
405.47	3463.99
405.66	3545.91
405.85	3557.61
406.05	3447.61
406.24	3583.36
406.43	3609.11
406.62	3634.85
406.81	3770.60
407.00	3569.32
407.20	3552.93
407.39	3679.32
407.58	3871.25
407.77	3803.37
407.96	3880.61
408.15	3988.27
408.34	3782.31
408.54	3885.29
408.73	3922.74
408.92	3960.19
409.11	4147.43
409.30	4105.30
409.49	4109.98
409.68	4037.42
409.87	4208.28
410.07	4168.49
410.26	4264.46
410.45	4238.71
410.64	4161.47
410.83	4313.61
411.02	4264.46
411.21	4447.02
411.40	4418.93
411.59	4627.24
411.78	4472.76
411.98	4486.81
412.17	4554.68
412.36	4636.60
412.55	4711.50
412.74	4758.31
412.93	4770.01
413.12	4882.36
413.31	4961.94
413.50	4882.36
413.69	5104.71
413.88	4936.19
414.07	5074.28
414.26	5139.82
414.45	5280.25
414.64	5221.74
414.83	5291.95
415.02	5270.89
415.22	5270.89
415.41	5537.71
415.60	5413.66
415.79	5750.70
415.98	5554.09
416.17	5528.35
416.36	5600.90
416.55	5727.29
416.74	5806.87
416.93	5710.91
417.12	5893.47
417.31	5975.39
417.50	5806.87
417.69	6083.05
417.88	6106.46
418.07	6010.50
418.26	6054.97
418.45	6186.04
418.64	6321.79
418.83	6253.91
419.02	6270.30
419.21	6368.60
419.39	6340.51
419.58	6207.10
419.77	6359.24
419.96	6431.79
420.15	6509.03
420.34	6595.63
420.53	6509.03
420.72	6511.37
420.91	6661.16
421.10	6672.87
421.29	6939.69
421.48	6712.66
421.67	7014.59
421.86	6939.69
422.05	6904.58
422.24	6864.79
422.43	6846.07
422.61	6913.94
422.80	6906.92
422.99	7026.29
423.18	7082.46
423.37	7108.21
423.56	7180.76
423.75	6998.20
423.94	6960.75
424.13	6647.12
424.32	6904.58
424.50	7255.66
424.69	7150.34
424.88	7267.36
425.07	7098.84
425.26	6974.80
425.45	6935.01
425.64	7180.76
425.83	7136.29
426.01	7297.79
426.20	7276.73
426.39	7253.32
426.58	7286.09
426.77	7272.04
426.96	7276.73
427.15	7077.78
427.33	7545.89
427.52	7438.22
427.71	7288.43
427.90	7517.80
428.09	7747.17
428.28	7478.01
428.46	7679.30
428.65	7735.47
428.84	7845.48
429.03	7936.76
429.22	7784.62
429.40	7969.52
429.59	7953.14
429.78	7581.00
429.97	7564.61
430.16	7880.58
430.34	8070.17
430.53	8105.28
430.72	7957.82
430.91	8079.53
431.10	8140.38
431.28	8231.66
431.47	8301.88
431.66	8290.18
431.85	8259.75
432.03	8542.96
432.22	8627.21
432.41	8542.96
432.60	8777.01
432.79	8421.25
432.97	8826.16
433.16	8800.41
433.35	8643.60
433.54	8812.12
433.72	8870.63
433.91	8856.59
434.10	8849.57
434.28	8875.31
434.47	8877.65
434.66	8954.89
434.85	9062.55
435.03	9214.69
435.22	9092.98
435.41	9699.18
435.59	9633.64
435.78	9720.24
435.97	9343.42
436.16	9469.81
436.34	9291.93
436.53	9401.93
436.72	9743.65
436.90	9399.59
437.09	9589.17
437.28	9310.65
437.46	9572.79
437.65	9731.95
437.84	9802.16
438.02	9619.60
438.21	9806.84
438.40	9923.87
438.58	10204.74
438.77	10012.81
438.96	10270.27
439.14	10305.38
439.33	10281.97
439.52	10700.93
439.70	10672.84
439.89	10717.31
440.08	10558.16
440.26	10773.49
440.45	10799.23
440.63	11087.12
440.82	11082.44
441.01	10794.55
441.19	11112.86
441.38	11159.67
441.57	11328.19
441.75	11463.94
441.94	11445.22
442.12	11536.50
442.31	11810.34
442.50	11808.00
442.68	11632.46
442.87	11772.89
443.05	11882.90
443.24	11988.22
443.43	11817.36
443.61	11840.77
443.80	12383.77
443.98	11800.98
444.17	11714.38
444.35	12035.03
444.54	12428.24
444.73	12184.83
444.91	12105.25
445.10	12322.92
445.28	12177.81
445.47	12098.23
445.65	12322.92
445.84	12187.17
446.02	12453.99
446.21	12198.87
446.39	12362.71
446.58	12575.70
446.77	12704.43
446.95	12121.63
447.14	12439.95
447.32	12578.04
447.51	12489.10
447.69	12315.90
447.88	12851.88
448.06	12425.90
448.25	12695.07
448.43	12706.77
448.62	12688.04
448.80	12531.23
448.99	12624.85
449.17	13132.75
449.36	12872.95
449.54	13001.68
449.73	13200.62
449.91	13205.30
450.10	12875.29
450.28	13383.18
450.46	13303.60
450.65	13324.67
450.83	13369.14
451.02	13174.88
451.20	13497.87
451.39	13617.24
451.57	13420.63
451.76	13561.06
451.94	13685.11
452.13	13699.16
452.31	13767.03
452.49	13853.63
452.68	13886.40
452.86	13507.23
453.05	13909.80
453.23	13853.63
453.42	13764.69
453.60	13853.63
453.78	14143.86
453.97	13928.53
454.15	14120.45
454.34	14183.65
454.52	14637.71
454.70	14183.65
454.89	14450.47
455.07	14349.82
455.26	14553.45
455.44	14897.51
455.62	14728.99
455.81	14532.39
455.99	14803.89
456.17	14813.25
456.36	14878.79
456.54	15119.86
456.73	15260.29
456.91	15529.45
457.09	15356.25
457.28	15618.39
457.46	15276.68
457.64	15599.67
457.83	15580.95
458.01	15393.70
458.19	15775.21
458.38	15679.25
458.56	15815.00
458.74	15960.11
458.93	15761.17
459.11	15786.91
459.29	15927.35
459.48	15999.90
459.66	16084.16
459.84	16217.57
460.03	16407.16
460.21	16271.40
460.39	16383.75
460.57	16142.67
460.76	16570.99
460.94	16823.77
461.12	16407.16
461.31	16664.61
461.49	16676.32
461.67	16585.04
461.85	17137.40
462.04	16772.28
462.22	17572.74
462.40	17193.58
462.59	17273.15
462.77	16999.31
462.95	17188.89
463.13	17338.69
463.32	17319.96
463.50	17266.13
463.68	17451.03
463.86	17357.41
464.05	17392.52
464.23	17628.92
464.41	17951.91
464.59	17172.51
464.78	17717.86
464.96	17734.24
465.14	17493.16
465.32	17752.96
465.50	18022.12
465.69	18349.80
465.87	17961.27
466.05	18010.42
466.23	18005.74
466.41	18235.11
466.60	18567.47
466.78	18302.99
466.96	18562.79
467.14	18398.95
467.32	18490.23
467.51	18902.17
467.69	18197.67
467.87	18820.25
468.05	18986.43
468.23	18478.53
468.41	18342.78
468.60	18764.07
468.78	19063.66
468.96	18794.50
469.14	19073.03
469.32	19335.17
469.50	18698.54
469.69	19447.51
469.87	19800.93
470.05	19653.48
470.23	19676.88
470.41	19178.35
470.59	19613.69
470.77	19672.20
470.95	19995.20
471.14	20147.33
471.32	19953.07
471.50	20372.02
471.68	20243.29
471.86	20276.06
472.04	20589.69
472.22	21078.86
472.40	20510.11
472.58	21099.93
472.77	21069.50
472.95	21109.29
473.13	21989.33
473.31	21191.21
473.49	20987.58
473.67	21195.89
473.85	21434.63
474.03	21994.01
474.21	21958.91
474.39	22054.87
474.57	22001.04
474.75	22359.14
474.93	22581.49
475.12	22314.67
475.30	22700.86
475.48	22656.39
475.66	22892.78
475.84	23042.57
476.02	23166.62
476.20	23285.99
476.38	23634.73
476.56	24194.12
476.74	23669.84
476.92	23648.77
477.10	23695.58
477.28	24173.05
477.46	24112.20
477.64	24587.33
477.82	24732.44
478.00	25612.48
478.18	25717.81
478.36	25694.40
478.54	25853.56
478.72	25979.95
478.90	26412.95
479.08	26293.58
479.26	26277.19
479.44	26600.19
479.62	27040.21
479.80	26972.33
479.98	27344.48
480.16	27723.65
480.34	27424.06
480.52	27798.54
480.70	28233.88
480.88	27840.67
481.06	28421.13
481.24	28524.11
481.41	28807.31
481.59	29095.20
481.77	29322.23
481.95	29247.33
482.13	29745.87
482.31	29635.86
482.49	30312.28
482.67	30855.28
482.85	31091.68
483.03	31288.28
483.21	31704.90
483.39	31381.90
483.57	31749.37
483.74	31658.09
483.92	32355.57
484.10	32180.03
484.28	32507.70
484.46	33387.74
484.64	33525.83
484.82	33352.63
485.00	33647.54
485.18	34202.25
485.35	34780.36
485.53	34913.77
485.71	34983.99
485.89	35475.50
486.07	35407.62
486.25	35667.42
486.43	35803.17
486.61	35938.93
486.78	36800.24
486.96	36627.04
487.14	37237.92
487.32	37413.46
487.50	37390.06
487.68	37549.21
487.85	38089.88
488.03	38927.79
488.21	39143.12
488.39	39063.54
488.57	39108.01
488.75	39562.08
488.92	39985.71
489.10	40245.51
489.28	40385.94
489.46	40980.44
489.64	40531.06
489.81	41738.77
489.99	41996.23
490.17	41998.57
490.35	42129.64
490.53	42377.74
490.70	42939.47
490.88	42508.81
491.06	43461.41
491.24	43253.10
491.41	43337.36
491.59	43693.12
491.77	44697.21
491.95	44074.63
492.13	44818.92
492.30	44987.44
492.48	44650.40
492.66	45249.58
492.84	45162.98
493.01	45890.88
493.19	45762.15
493.37	46691.35
493.54	46731.14
493.72	46756.88
493.90	46747.52
494.08	47391.17
494.25	47185.20
494.43	47887.36
494.61	48245.46
494.79	48397.60
494.96	48357.81
495.14	48718.25
495.32	48828.26
495.49	48921.88
495.67	49507.01
495.85	49415.73
496.02	49755.11
496.20	49949.37
496.38	50220.87
496.55	50026.61
496.73	50852.82
496.91	50490.04
497.09	50892.61
497.26	51206.24
497.44	51084.53
497.62	51292.84
497.79	51793.71
497.97	51395.82
498.14	52135.43
498.32	52362.46
498.50	51959.89
498.67	52364.81
498.85	52189.27
499.03	52636.31
499.20	52802.49
499.38	52680.78
499.56	53029.52
499.73	53153.57
499.91	53195.70
500.08	53535.07
500.26	53099.73
500.44	53579.54
500.61	53584.22
500.79	53687.21
500.97	54059.35
501.14	54150.63
501.32	54410.43
501.49	54019.56
501.67	54471.29
501.84	54670.23
502.02	54560.23
502.20	54571.93
502.37	54817.69
502.55	54969.82
502.72	55152.38
502.90	54759.17
503.07	54686.62
503.25	55234.30
503.43	55290.48
503.60	55363.03
503.78	55702.41
503.95	55725.81
504.13	55777.31
504.30	55618.15
504.48	55667.30
504.65	55758.58
504.83	56086.26
505.01	56545.00
505.18	56116.68
505.36	56643.30
505.53	56357.76
505.71	56439.68
505.88	56568.41
506.06	56252.44
506.23	56846.93
506.41	56605.86
506.58	57109.07
506.76	57041.20
506.93	57256.53
507.11	57069.28
507.28	57326.74
507.46	57446.11
507.63	57469.51
507.81	57673.14
507.98	57741.02
508.16	57640.37
508.33	57675.48
508.50	57932.94
508.68	57729.31
508.85	58138.91
509.03	57986.77
509.20	58127.20
509.38	58372.96
509.55	58674.89
509.73	58431.47
509.90	58358.92
510.08	58473.60
510.25	58515.73
510.42	58695.95
510.60	58754.47
510.77	59117.25
510.95	58986.18
511.12	58845.75
511.30	58922.99
511.47	59206.19
511.64	59040.01
511.82	59337.26
511.99	59353.65
512.17	59693.02
512.34	59524.50
512.51	59774.94
512.69	59718.77
512.86	59657.91
513.04	59929.42
513.21	59725.79
513.38	59969.21
513.56	60051.12
513.73	59908.35
513.90	60060.49
514.08	59917.71
514.25	60144.75
514.43	60303.90
514.60	60589.45
514.77	60486.46
514.95	60582.43
515.12	60610.51
515.29	60509.87
515.47	60671.37
515.64	60839.89
515.81	60732.22
515.99	61048.19
516.16	61034.15
516.33	61029.47
516.51	61158.20
516.68	61090.32
516.85	61013.08
517.03	61307.99
517.20	61310.33
517.37	61371.19
517.54	61413.32
517.72	61366.51
517.89	61359.48
518.06	61296.29
518.24	61413.32
518.41	61464.81
518.58	61591.20
518.75	61476.51
518.93	61961.00
519.10	61619.28
519.27	61939.94
519.45	61841.63
519.62	61939.94
519.79	61876.74
519.96	62026.54
520.14	62181.01
520.31	62171.65
520.48	62377.62
520.65	62391.66
520.83	62464.22
521.00	62501.67
521.17	62450.17
521.34	62415.07
521.52	62529.75
521.69	62646.78
521.86	62838.70
522.03	62908.92
522.20	62698.27
522.38	62899.56
522.55	62883.17
522.72	62817.64
522.89	62897.22
523.07	63075.10
523.24	63164.04
523.41	63278.72
523.58	62967.43
523.75	63388.73
523.92	63196.80
524.10	63379.37
524.27	63402.77
524.44	63470.65
524.61	63636.83
524.78	63629.80
524.96	63461.29
525.13	63599.38
525.30	63772.58
525.47	63845.13
525.64	63847.47
525.81	63903.65
525.98	64097.91
526.16	63819.39
526.33	64011.31
526.50	64264.09
526.67	63945.78
526.84	63971.52
527.01	64039.40
527.18	64118.98
527.36	64177.49
527.53	64362.39
527.70	64432.61
527.87	64460.69
528.04	64245.36
528.21	64434.95
528.38	64437.29
528.55	64505.16
528.72	64540.27
528.89	64647.94
529.07	64610.49
529.24	64760.28
529.41	64804.75
529.58	64659.64
529.75	64631.55
529.92	64549.63
530.09	64816.46
530.26	64856.24
530.43	64970.93
530.60	64725.17
530.77	65022.42
530.94	65076.26
531.11	64797.73
531.28	64872.63
531.46	64980.29
531.63	65286.90
531.80	65368.82
531.97	65368.82
532.14	65408.61
532.31	65375.84
532.48	65513.94
532.65	65481.17
532.82	65272.86
532.99	65535.00
533.16	65535.00
533.33	65535.00
533.50	65535.00
533.67	65535.00
533.84	65535.00
534.01	65460.10
534.18	65535.00
534.35	65535.00
534.52	65535.00
534.69	65535.00
534.86	65535.00
535.03	65535.00
535.20	65535.00
535.37	65535.00
535.54	65535.00
535.71	65535.00
535.88	65535.00
536.05	65535.00
536.22	65535.00
536.38	65535.00
536.55	65535.00
536.72	65535.00
536.89	65535.00
537.06	65535.00
537.23	65535.00
537.40	65535.00
537.57	65535.00
537.74	65535.00
537.91	65535.00
538.08	65535.00
538.25	65535.00
538.42	65535.00
538.59	65535.00
538.75	65535.00
538.92	65535.00
539.09	65535.00
539.26	65535.00
539.43	65535.00
539.60	65535.00
539.77	65535.00
539.94	65535.00
540.11	65535.00
540.28	65535.00
540.44	65535.00
540.61	65535.00
540.78	65535.00
540.95	65535.00
541.12	65535.00
541.29	65535.00
541.46	65535.00
541.62	65535.00
541.79	65535.00
541.96	65535.00
542.13	65535.00
542.30	65535.00
542.47	65535.00
542.63	65535.00
542.80	65535.00
542.97	65535.00
543.14	65535.00
543.31	65535.00
543.48	65535.00
543.64	65535.00
543.81	65535.00
543.98	65535.00
544.15	65535.00
544.32	65535.00
544.48	65535.00
544.65	65535.00
544.82	65535.00
544.99	65535.00
545.16	65535.00
545.32	65535.00
545.49	65535.00
545.66	65535.00
545.83	65535.00
546.00	65535.00
546.16	65535.00
546.33	65535.00
546.50	65535.00
546.67	65535.00
546.83	65535.00
547.00	65535.00
547.17	65535.00
547.34	65535.00
547.50	65535.00
547.67	65535.00
547.84	65535.00
548.00	65535.00
548.17	65535.00
548.34	65535.00
548.51	65535.00
548.67	65535.00
548.84	65535.00
549.01	65535.00
549.18	65535.00
549.34	65535.00
549.51	65535.00
549.68	65535.00
549.84	65535.00
550.01	65535.00
550.18	65535.00
550.34	65535.00
550.51	65535.00
550.68	65535.00
550.84	65535.00
551.01	65535.00
551.18	65535.00
551.34	65535.00
551.51	65535.00
551.68	65535.00
551.84	65535.00
552.01	65535.00
552.18	65535.00
552.34	65535.00
552.51	65535.00
552.68	65535.00
552.84	65535.00
553.01	65535.00
553.18	65535.00
553.34	65535.00
553.51	65535.00
553.67	65535.00
553.84	65535.00
554.01	65535.00
554.17	65535.00
554.34	65535.00
554.51	65535.00
554.67	65535.00
554.84	65535.00
555.00	65535.00
555.17	65535.00
555.33	65535.00
555.50	65535.00
555.67	65535.00
555.83	65535.00
556.00	65535.00
556.16	65535.00
556.33	65535.00
556.50	65535.00
556.66	65535.00
556.83	65535.00
556.99	65535.00
557.16	65535.00
557.32	65535.00
557.49	65535.00
557.65	65535.00
557.82	65535.00
557.98	65535.00
558.15	65535.00
558.32	65535.00
558.48	65535.00
558.65	65535.00
558.81	65535.00
558.98	65535.00
559.14	65535.00
559.31	65535.00
559.47	65535.00
559.64	65535.00
559.80	65535.00
559.97	65535.00
560.13	65535.00
560.30	65535.00
560.46	65535.00
560.63	65535.00
560.79	65535.00
560.96	65535.00
561.12	65535.00
561.29	65535.00
561.45	65535.00
561.61	65535.00
561.78	65535.00
561.94	65535.00
562.11	65535.00
562.27	65535.00
562.44	65535.00
562.60	65535.00
562.77	65535.00
562.93	65535.00
563.10	65535.00
563.26	65535.00
563.42	65535.00
563.59	65535.00
563.75	65535.00
563.92	65535.00
564.08	65535.00
564.24	65535.00
564.41	65535.00
564.57	65535.00
564.74	65535.00
564.90	65535.00
565.07	65535.00
565.23	65535.00
565.39	65535.00
565.56	65535.00
565.72	65535.00
565.88	65535.00
566.05	65535.00
566.21	65535.00
566.38	65535.00
566.54	65535.00
566.70	65535.00
566.87	65535.00
567.03	65535.00
567.19	65535.00
567.36	65535.00
567.52	65535.00
567.68	65535.00
567.85	65535.00
568.01	65535.00
568.17	65535.00
568.34	65535.00
568.50	65535.00
568.66	65535.00
568.83	65535.00
568.99	65535.00
569.15	65535.00
569.32	65535.00
569.48	65535.00
569.64	65535.00
569.81	65535.00
569.97	65535.00
570.13	65535.00
570.30	65535.00
570.46	65535.00
570.62	65535.00
570.78	65535.00
570.95	65535.00
571.11	65535.00
571.27	65535.00
571.43	65535.00
571.60	65535.00
571.76	65535.00
571.92	65535.00
572.09	65535.00
572.25	65535.00
572.41	65535.00
572.57	65535.00
572.74	65535.00
572.90	65535.00
573.06	65535.00
573.22	65535.00
573.38	65535.00
573.55	65535.00
573.71	65535.00
573.87	65535.00
574.03	65535.00
574.20	65535.00
574.36	65535.00
574.52	65535.00
574.68	65535.00
574.84	65535.00
575.01	65535.00
575.17	65535.00
575.33	65535.00
575.49	65535.00
575.65	65535.00
575.82	65535.00
575.98	65535.00
576.14	65535.00
576.30	65535.00
576.46	65535.00
576.62	65535.00
576.79	65535.00
576.95	65535.00
577.11	65535.00
577.27	65535.00
577.43	65535.00
577.59	65535.00
577.75	65535.00
577.92	65535.00
578.08	65535.00
578.24	65535.00
578.40	65535.00
578.56	65535.00
578.72	65535.00
578.88	65535.00
579.04	65535.00
579.21	65535.00
579.37	65535.00
579.53	65535.00
579.69	65535.00
579.85	65535.00
580.01	65535.00
580.17	65535.00
580.33	65535.00
580.49	65535.00
580.65	65535.00
580.82	65535.00
580.98	65535.00
581.14	65535.00
581.30	65535.00
581.46	65535.00
581.62	65535.00
581.78	65535.00
581.94	65535.00
582.10	65535.00
582.26	65535.00
582.42	65535.00
582.58	65535.00
582.74	65535.00
582.90	65535.00
583.06	65535.00
583.22	65535.00
583.38	65535.00
583.54	65535.00
583.70	65535.00
583.86	65535.00
584.02	65535.00
584.18	65535.00
584.34	65535.00
584.50	65535.00
584.66	65535.00
584.82	65535.00
584.98	65535.00
585.14	65535.00
585.30	65535.00
585.46	65535.00
585.62	65535.00
585.78	65535.00
585.94	65535.00
586.10	65535.00
586.26	65535.00
586.42	65535.00
586.58	65535.00
586.74	65535.00
586.90	65535.00
587.06	65535.00
587.22	65535.00
587.38	65535.00
587.54	65535.00
