SpectraSuite Data File
++++++++++++++++++++++++++++++++++++
Date: Fri Oct 04 11:39:59 GMT-05:00 2013
User: price-jones
Dark Spectrum Present: No
Reference Spectrum Present: No
Number of Sampled Component Spectra: 1
Spectrometers: USB2+H05261
Integration Time (usec): 100000 (USB2+H05261)
Spectra Averaged: 1 (USB2+H05261)
Boxcar Smoothing: 0 (USB2+H05261)
Correct for Electrical Dark: No (USB2+H05261)
Strobe/Lamp Enabled: No (USB2+H05261)
Correct for Detector Non-linearity: No (USB2+H05261)
Correct for Stray Light: No (USB2+H05261)
Number of Pixels in Processed Spectrum: 2048
>>>>>Begin Processed Spectral Data<<<<<
365.73	51.49
365.92	51.49
366.12	51.49
366.32	0.00
366.52	0.00
366.72	0.00
366.91	0.00
367.11	0.00
367.31	0.00
367.51	0.00
367.70	0.00
367.90	0.00
368.10	0.00
368.30	0.00
368.49	0.00
368.69	0.00
368.89	0.00
369.09	0.00
369.28	0.00
369.48	0.00
369.68	0.00
369.87	0.00
370.07	0.00
370.27	65.54
370.47	9.36
370.66	9.36
370.86	95.96
371.06	102.98
371.25	74.90
371.45	86.60
371.65	74.90
371.84	93.62
372.04	107.66
372.24	110.01
372.44	126.39
372.63	98.30
372.83	168.52
373.03	110.01
373.22	110.01
373.42	154.48
373.62	145.11
373.81	131.07
374.01	154.48
374.21	117.03
374.40	173.20
374.60	159.16
374.79	177.88
374.99	166.18
375.19	142.77
375.38	154.48
375.58	170.86
375.78	182.56
375.97	159.16
376.17	212.99
376.37	154.48
376.56	119.37
376.76	126.39
376.95	128.73
377.15	142.77
377.35	189.58
377.54	189.58
377.74	86.60
377.93	184.90
378.13	210.65
378.33	121.71
378.52	70.22
378.72	166.18
378.91	194.26
379.11	142.77
379.31	117.03
379.50	91.28
379.70	180.22
379.89	198.95
380.09	156.82
380.28	133.41
380.48	196.60
380.68	131.07
380.87	131.07
381.07	140.43
381.26	131.07
381.46	126.39
381.65	138.09
381.85	133.41
382.04	163.84
382.24	194.26
382.43	142.77
382.63	105.32
382.83	128.73
383.02	149.79
383.22	133.41
383.41	72.56
383.61	119.37
383.80	119.37
384.00	173.20
384.19	105.32
384.39	100.64
384.58	114.69
384.78	180.22
384.97	110.01
385.17	215.33
385.36	159.16
385.56	173.20
385.75	51.49
385.95	145.11
386.14	241.08
386.34	102.98
386.53	180.22
386.72	145.11
386.92	212.99
387.11	152.13
387.31	194.26
387.50	138.09
387.70	173.20
387.89	121.71
388.09	117.03
388.28	121.71
388.48	161.50
388.67	163.84
388.86	135.75
389.06	215.33
389.25	166.18
389.45	177.88
389.64	140.43
389.84	198.95
390.03	208.31
390.22	184.90
390.42	152.13
390.61	95.96
390.81	112.35
391.00	243.42
391.19	182.56
391.39	163.84
391.58	145.11
391.78	138.09
391.97	159.16
392.16	154.48
392.36	215.33
392.55	196.60
392.75	163.84
392.94	131.07
393.13	170.86
393.33	147.45
393.52	112.35
393.71	248.10
393.91	168.52
394.10	180.22
394.29	175.54
394.49	184.90
394.68	217.67
394.88	182.56
395.07	297.25
395.26	187.24
395.46	163.84
395.65	215.33
395.84	227.03
396.04	250.44
396.23	238.73
396.42	203.63
396.62	184.90
396.81	255.12
397.00	205.97
397.19	215.33
397.39	210.65
397.58	304.27
397.77	222.35
397.97	203.63
398.16	306.61
398.35	220.01
398.55	245.76
398.74	224.69
398.93	203.63
399.12	198.95
399.32	224.69
399.51	231.71
399.70	318.31
399.90	315.97
400.09	243.42
400.28	278.52
400.47	304.27
400.67	243.42
400.86	313.63
401.05	238.73
401.24	341.72
401.44	271.50
401.63	294.91
401.82	287.89
402.01	327.68
402.21	259.80
402.40	334.70
402.59	308.95
402.78	255.12
402.97	337.04
403.17	285.55
403.36	299.59
403.55	271.50
403.74	386.19
403.93	337.04
404.13	362.78
404.32	362.78
404.51	315.97
404.70	374.49
404.89	355.76
405.09	381.51
405.28	388.53
405.47	344.06
405.66	308.95
405.85	358.10
406.05	348.74
406.24	320.65
406.43	327.68
406.62	367.46
406.81	388.53
407.00	358.10
407.20	358.10
407.39	360.44
407.58	362.78
407.77	388.53
407.96	374.49
408.15	383.85
408.34	334.70
408.54	437.68
408.73	557.05
408.92	372.15
409.11	435.34
409.30	524.28
409.49	372.15
409.68	414.27
409.87	390.87
410.07	472.79
410.26	486.83
410.45	437.68
410.64	416.62
410.83	472.79
411.02	559.39
411.21	430.66
411.40	489.17
411.59	507.90
411.78	498.53
411.98	498.53
412.17	498.53
412.36	505.56
412.55	540.66
412.74	447.04
412.93	538.32
413.12	514.92
413.31	557.05
413.50	596.84
413.69	524.28
413.88	606.20
414.07	592.16
414.26	589.82
414.45	500.87
414.64	535.98
414.83	580.45
415.02	606.20
415.22	624.92
415.41	615.56
415.60	573.43
415.79	643.65
415.98	634.29
416.17	624.92
416.36	692.80
416.55	620.24
416.74	690.46
416.93	723.23
417.12	617.90
417.31	692.80
417.50	706.84
417.69	711.52
417.88	690.46
418.07	697.48
418.26	713.86
418.45	650.67
418.64	760.67
418.83	760.67
419.02	753.65
419.21	695.14
419.39	779.40
419.58	720.88
419.77	753.65
419.96	711.52
420.15	763.01
420.34	805.14
420.53	816.85
420.72	819.19
420.91	788.76
421.10	828.55
421.29	863.66
421.48	823.87
421.67	744.29
421.86	727.91
422.05	877.70
422.24	741.95
422.43	833.23
422.61	784.08
422.80	772.38
422.99	741.95
423.18	809.83
423.37	837.91
423.56	793.44
423.75	903.45
423.94	798.12
424.13	753.65
424.32	760.67
424.50	875.36
424.69	837.91
424.88	915.15
425.07	903.45
425.26	849.61
425.45	814.51
425.64	891.74
425.83	931.53
426.01	884.72
426.20	854.30
426.39	847.27
426.58	938.55
426.77	875.36
426.96	922.17
427.15	851.96
427.33	830.89
427.52	919.83
427.71	875.36
427.90	847.27
428.09	779.40
428.28	830.89
428.46	903.45
428.65	908.13
428.84	891.74
429.03	976.00
429.22	891.74
429.40	835.57
429.59	983.02
429.78	985.37
429.97	837.91
430.16	870.68
430.34	943.24
430.53	976.00
430.72	947.92
430.91	980.68
431.10	826.21
431.28	1022.81
431.47	983.02
431.66	999.41
431.85	938.55
432.03	983.02
432.22	1078.99
432.41	1046.22
432.60	1055.58
432.79	976.00
432.97	1046.22
433.16	926.85
433.35	964.30
433.54	952.60
433.72	1018.13
433.91	1071.97
434.10	978.34
434.28	1041.54
434.47	1060.26
434.66	1071.97
434.85	1149.20
435.03	1146.86
435.22	1348.15
435.41	1612.63
435.59	1668.80
435.78	1364.53
435.97	1334.11
436.16	1064.94
436.34	1076.65
436.53	1104.73
436.72	1086.01
436.90	1111.75
437.09	1144.52
437.28	1128.14
437.46	1121.12
437.65	1128.14
437.84	1245.16
438.02	1076.65
438.21	1104.73
438.40	1074.31
438.58	1046.22
438.77	1214.74
438.96	1128.14
439.14	1172.61
439.33	1219.42
439.52	1235.80
439.70	1172.61
439.89	1210.06
440.08	1193.67
440.26	1317.72
440.45	1308.36
440.63	1247.51
440.82	1261.55
441.01	1210.06
441.19	1266.23
441.38	1364.53
441.57	1221.76
441.75	1308.36
441.94	1313.04
442.12	1324.74
442.31	1306.02
442.50	1341.13
442.68	1303.68
442.87	1479.22
443.05	1338.79
443.24	1416.02
443.43	1397.30
443.61	1397.30
443.80	1352.83
443.98	1359.85
444.17	1345.81
444.35	1366.87
444.54	1331.76
444.73	1341.13
444.91	1448.79
445.10	1362.19
445.28	1420.71
445.47	1303.68
445.65	1359.85
445.84	1369.21
446.02	1334.11
446.21	1469.86
446.39	1401.98
446.58	1486.24
446.77	1427.73
446.95	1413.68
447.14	1516.67
447.32	1469.86
447.51	1488.58
447.69	1399.64
447.88	1474.54
448.06	1404.32
448.25	1502.62
448.43	1481.56
448.62	1383.26
448.80	1521.35
448.99	1465.18
449.17	1437.09
449.36	1460.49
449.54	1575.18
449.73	1533.05
449.91	1530.71
450.10	1610.29
450.28	1544.75
450.46	1493.26
450.65	1551.78
450.83	1570.50
451.02	1521.35
451.20	1465.18
451.39	1514.33
451.57	1526.03
451.76	1511.99
451.94	1572.84
452.13	1563.48
452.31	1540.07
452.49	1561.14
452.68	1462.83
452.86	1544.75
453.05	1640.72
453.23	1605.61
453.42	1537.73
453.60	1514.33
453.78	1537.73
453.97	1399.64
454.15	1605.61
454.34	1680.50
454.52	1535.39
454.70	1598.59
454.89	1617.31
455.07	1638.38
455.26	1703.91
455.44	1629.01
455.62	1661.78
455.81	1689.87
455.99	1610.29
456.17	1654.76
456.36	1701.57
456.54	1696.89
456.73	1671.14
456.91	1692.21
457.09	1785.83
457.28	1781.15
457.46	1654.76
457.64	1755.40
457.83	1717.95
458.01	1732.00
458.19	1743.70
458.38	1762.42
458.56	1701.57
458.74	1757.74
458.93	1799.87
459.11	1753.06
459.29	1743.70
459.48	1762.42
459.66	1895.83
459.84	1816.26
460.03	1797.53
460.21	1804.55
460.39	1792.85
460.57	1863.07
460.76	1867.75
460.94	1968.39
461.12	1760.08
461.31	1860.73
461.49	1842.00
461.67	1872.43
461.85	1853.70
462.04	1783.49
462.22	2190.74
462.40	1902.86
462.59	1827.96
462.77	1879.45
462.95	1900.52
463.13	1893.49
463.32	1870.09
463.50	1937.96
463.68	1853.70
463.86	1952.01
464.05	1944.99
464.23	1954.35
464.41	1961.37
464.59	1783.49
464.78	1970.73
464.96	1816.26
465.14	1942.64
465.32	1973.07
465.50	1891.15
465.69	2024.56
465.87	1921.58
466.05	2036.27
466.23	1975.41
466.41	2019.88
466.60	2066.69
466.78	2003.50
466.96	1975.41
467.14	1977.75
467.32	2031.58
467.51	2012.86
467.69	1975.41
467.87	2024.56
468.05	2111.16
468.23	2125.21
468.41	1989.46
468.60	1963.71
468.78	2008.18
468.96	2045.63
469.14	2038.61
469.32	2120.53
469.50	2008.18
469.69	2155.63
469.87	2113.50
470.05	2207.13
470.23	2087.76
470.41	2111.16
470.59	2143.93
470.77	2209.47
470.95	2047.97
471.14	2279.68
471.32	2129.89
471.50	2204.78
471.68	2235.21
471.86	2244.57
472.04	2237.55
472.22	2356.92
472.40	2214.15
472.58	2324.15
472.77	2221.17
472.95	2214.15
473.13	2382.67
473.31	2286.70
473.49	2275.00
473.67	2230.53
473.85	2296.07
474.03	2289.04
474.21	2319.47
474.39	2455.22
474.57	2366.28
474.75	2289.04
474.93	2356.92
475.12	2352.24
475.30	2279.68
475.48	2520.76
475.66	2408.41
475.84	2593.31
476.02	2539.48
476.20	2480.97
476.38	2565.23
476.56	2633.10
476.74	2525.44
476.92	2572.25
477.10	2541.82
477.28	2523.10
477.46	2588.63
477.64	2544.16
477.82	2595.65
478.00	2693.96
478.18	2780.56
478.36	2726.72
478.54	2736.09
478.72	2738.43
478.90	2612.04
479.08	2813.32
479.26	2818.00
479.44	2796.94
479.62	2782.90
479.80	2944.39
479.98	2895.24
480.16	2965.46
480.34	3098.87
480.52	2946.73
480.70	2899.92
480.88	3019.29
481.06	2979.50
481.24	2949.08
481.41	3124.62
481.59	3171.43
481.77	3101.21
481.95	3082.49
482.13	3262.71
482.31	3108.23
482.49	3208.87
482.67	3171.43
482.85	3321.22
483.03	3187.81
483.21	3286.11
483.39	3337.60
483.57	3318.88
483.74	3330.58
483.92	3339.94
484.10	3330.58
484.28	3595.06
484.46	3510.80
484.64	3510.80
484.82	3510.80
485.00	3435.91
485.18	3501.44
485.35	3566.98
485.53	3737.84
485.71	3655.92
485.89	3623.15
486.07	3585.70
486.25	3707.41
486.43	3688.68
486.61	3850.18
486.78	3815.07
486.96	3761.24
487.14	3845.50
487.32	3892.31
487.50	3939.12
487.68	3749.54
487.85	4044.45
488.03	4056.15
488.21	4168.49
488.39	3957.85
488.57	4198.92
488.75	4149.77
488.92	4425.95
489.10	4131.05
489.28	4105.30
489.46	4248.07
489.64	4112.32
489.81	4334.67
489.99	4290.20
490.17	4360.42
490.35	4533.62
490.53	4383.82
490.70	4470.42
490.88	4294.88
491.06	4526.60
491.24	4526.60
491.41	4442.34
491.59	4524.26
491.77	4566.39
491.95	4655.33
492.13	4664.69
492.30	4706.82
492.48	4610.86
492.66	4667.03
492.84	4603.83
493.01	4727.88
493.19	4727.88
493.37	4802.78
493.54	4781.71
493.72	4793.42
493.90	4770.01
494.08	4788.74
494.25	4774.69
494.43	4954.91
494.61	4851.93
494.79	4954.91
494.96	4800.44
495.14	5149.18
495.32	5118.75
495.49	5160.88
495.67	5118.75
495.85	5153.86
496.02	5247.48
496.20	5268.55
496.38	5163.22
496.55	5310.68
496.73	5242.80
496.91	5284.93
497.09	5390.25
497.26	5444.09
497.44	5348.12
497.62	5533.03
497.79	5537.71
497.97	5458.13
498.14	5554.09
498.32	5518.98
498.50	5551.75
498.67	5565.79
498.85	5500.26
499.03	5624.31
499.20	5689.84
499.38	5680.48
499.56	5584.52
499.73	5778.78
499.91	5657.07
500.08	5858.36
500.26	5785.80
500.44	5755.38
500.61	5804.53
500.79	5811.55
500.97	5701.54
501.14	5926.24
501.32	5874.74
501.49	6033.90
501.67	5860.70
501.84	5933.26
502.02	5799.85
502.20	5834.96
502.37	5914.53
502.55	6083.05
502.72	6001.13
502.90	6136.88
503.07	6026.88
503.25	6214.12
503.43	6094.76
503.60	6029.22
503.78	6094.76
503.95	5949.64
504.13	6099.44
504.30	6214.12
504.48	6136.88
504.65	6211.78
504.83	6392.00
505.01	6326.47
505.18	6282.00
505.36	6485.62
505.53	6225.82
505.71	6162.63
505.88	6410.73
506.06	6455.20
506.23	6305.40
506.41	6452.86
506.58	6422.43
506.76	6450.52
506.93	6392.00
507.11	6478.60
507.28	6260.93
507.46	6462.22
507.63	6527.75
507.81	6560.52
507.98	6494.99
508.16	6647.12
508.33	6689.25
508.50	6705.63
508.68	6600.31
508.85	6752.45
509.03	6733.72
509.20	6759.47
509.38	6743.08
509.55	6768.83
509.73	6953.73
509.90	7030.97
510.08	6703.29
510.25	6766.49
510.42	6841.39
510.60	6834.36
510.77	6827.34
510.95	6906.92
511.12	6951.39
511.30	6899.90
511.47	7037.99
511.64	7176.08
511.82	7157.36
511.99	6956.07
512.17	7014.59
512.34	7033.31
512.51	7281.41
512.69	6988.84
512.86	7016.93
513.04	7398.43
513.21	7396.09
513.38	7169.06
513.56	7405.46
513.73	7330.56
513.90	7187.79
514.08	7159.70
514.25	7487.37
514.43	7290.77
514.60	7325.88
514.77	7384.39
514.95	7363.33
515.12	7417.16
515.29	7375.03
515.47	7485.03
515.64	7489.71
515.81	7478.01
515.99	7548.23
516.16	7651.21
516.33	7585.68
516.51	7566.95
516.68	7597.38
516.85	7520.14
517.03	7681.64
517.20	7644.19
517.37	7616.10
517.54	7660.57
517.72	7426.52
517.89	7557.59
518.06	7571.63
518.24	7714.41
518.41	7679.30
518.58	7786.96
518.75	7768.24
518.93	7791.64
519.10	7761.22
519.27	7749.51
519.45	7681.64
519.62	7899.31
519.79	7889.95
519.96	7770.58
520.14	7768.24
520.31	8210.60
520.48	8100.59
520.65	7871.22
520.83	8060.80
521.00	8074.85
521.17	7934.42
521.34	8121.66
521.52	8063.15
521.69	8058.46
521.86	8037.40
522.03	8065.49
522.20	8102.93
522.38	8091.23
522.55	8154.43
522.72	8124.00
522.89	7889.95
523.07	8287.84
523.24	8177.83
523.41	8049.10
523.58	7962.50
523.75	8372.10
523.92	8173.15
524.10	8205.92
524.27	8156.77
524.44	8149.75
524.61	8332.31
524.78	8423.59
524.96	8379.12
525.13	8477.42
525.30	8400.18
525.47	8266.77
525.64	8264.43
525.81	8514.87
525.98	8629.56
526.16	8428.27
526.33	8346.35
526.50	8395.50
526.67	8482.10
526.84	8397.84
527.01	8589.77
527.18	8571.04
527.36	8594.45
527.53	8580.40
527.70	8678.71
527.87	8671.68
528.04	8638.92
528.21	8458.70
528.38	8465.72
528.55	8758.28
528.72	8709.13
528.89	8767.65
529.07	8655.30
529.24	8547.64
529.41	8622.53
529.58	8667.00
529.75	8720.84
529.92	8788.71
530.09	8659.98
530.26	8875.31
530.43	8697.43
530.60	8683.39
530.77	8870.63
530.94	8667.00
531.11	8772.33
531.28	8678.71
531.46	8879.99
531.63	8737.22
531.80	8950.21
531.97	8891.70
532.14	9011.06
532.31	8823.82
532.48	8950.21
532.65	9053.19
532.82	8837.86
532.99	8917.44
533.16	8950.21
533.33	8950.21
533.50	9057.87
533.67	9181.92
533.84	8898.72
534.01	9006.38
534.18	9078.94
534.35	9011.06
534.52	8952.55
534.69	9142.13
534.86	9266.18
535.03	9263.84
535.20	9287.25
535.37	9345.76
535.54	9167.88
535.71	9078.94
535.88	9188.94
536.05	9181.92
536.22	9172.56
536.38	9090.64
536.55	9371.50
536.72	9249.80
536.89	9041.49
537.06	9254.48
537.23	9170.22
537.40	9207.67
537.57	9165.54
537.74	9657.05
537.91	9364.48
538.08	9312.99
538.25	9511.94
538.42	9448.74
538.59	9486.19
538.75	9254.48
538.92	9488.53
539.09	9472.15
539.26	9413.63
539.43	9467.47
539.60	9523.64
539.77	9635.99
539.94	9710.88
540.11	9558.75
540.28	9544.70
540.44	9701.52
540.61	9638.33
540.78	10036.22
540.95	9898.13
541.12	10139.20
541.29	10113.45
541.46	10115.80
541.62	10202.40
541.79	10211.76
541.96	10005.79
542.13	10050.26
542.30	10146.22
542.47	10204.74
542.63	10293.68
542.80	10263.25
542.97	10160.27
543.14	10183.67
543.31	10122.82
543.48	10045.58
543.64	10169.63
543.81	10160.27
543.98	10595.61
544.15	10228.14
544.32	10274.95
544.48	10235.16
544.65	10256.23
544.82	10204.74
544.99	10176.65
545.16	10207.08
545.32	10167.29
545.49	10787.53
545.66	11330.53
545.83	11297.77
546.00	11375.00
546.16	10721.99
546.33	10478.58
546.50	10260.91
546.67	10307.72
546.83	10289.00
547.00	10251.55
547.17	10246.87
547.34	10178.99
547.50	10284.31
547.67	10324.10
547.84	10244.52
548.00	10176.65
548.17	10171.97
548.34	10097.07
548.51	10272.61
548.67	10389.64
548.84	10389.64
549.01	10246.87
549.18	10218.78
549.34	10061.96
549.51	10005.79
549.68	10146.22
549.84	10218.78
550.01	10188.35
550.18	10202.40
550.34	10319.42
550.51	10258.57
550.68	10125.16
550.84	10136.86
551.01	10331.12
551.18	10022.17
551.34	10066.64
551.51	10307.72
551.68	10188.35
551.84	10099.41
552.01	9989.41
552.18	10129.84
552.34	10094.73
552.51	10195.37
552.68	10106.43
552.84	10003.45
553.01	10469.22
553.18	10450.49
553.34	10328.78
553.51	10377.94
553.67	10305.38
553.84	10516.03
554.01	10083.03
554.17	10375.59
554.34	10389.64
554.51	10373.25
554.67	10476.24
554.84	10235.16
555.00	10232.82
555.17	10277.29
555.33	10406.02
555.50	10132.18
555.67	10204.74
555.83	10228.14
556.00	10450.49
556.16	10382.62
556.33	10443.47
556.50	10490.28
556.66	10382.62
556.83	10195.37
556.99	10239.84
557.16	10490.28
557.32	10415.38
557.49	10321.76
557.65	10352.19
557.82	10537.09
557.98	10193.03
558.15	10497.30
558.32	10314.74
558.48	10345.17
558.65	10286.65
558.81	10171.97
558.98	10352.19
559.14	10277.29
559.31	10422.41
559.47	10513.69
559.64	10434.11
559.80	10590.92
559.97	10464.54
560.13	10466.88
560.30	10296.02
560.46	10452.83
560.63	10579.22
560.79	10406.02
560.96	10459.85
561.12	10331.12
561.29	10391.98
561.45	10389.64
561.61	10450.49
561.78	10523.05
561.94	10347.51
562.11	10513.69
562.27	10516.03
562.44	10349.85
562.60	10532.41
562.77	10424.75
562.93	10445.81
563.10	10558.16
563.26	10530.07
563.42	10473.90
563.59	10511.35
563.75	10499.64
563.92	10619.01
564.08	10703.27
564.24	10539.43
564.41	10530.07
564.57	10579.22
564.74	10401.34
564.90	10415.38
565.07	10642.42
565.23	10607.31
565.39	10501.98
565.56	10572.20
565.72	10565.18
565.88	10579.22
566.05	10623.69
566.21	10342.83
566.38	10455.17
566.54	10644.76
566.70	10586.24
566.87	10553.48
567.03	10520.71
567.19	10637.73
567.36	10492.62
567.52	10588.58
567.68	10438.79
567.85	10455.17
568.01	10586.24
568.17	10497.30
568.34	10478.58
568.50	10621.35
568.66	10338.15
568.83	10677.52
568.99	10527.73
569.15	10649.44
569.32	10375.59
569.48	10450.49
569.64	10504.32
569.81	10768.80
569.97	10700.93
570.13	10640.08
570.30	10525.39
570.46	10752.42
570.62	10700.93
570.78	10581.56
570.95	10471.56
571.11	10576.88
571.27	10602.63
571.43	10581.56
571.60	10583.90
571.76	10621.35
571.92	10647.10
572.09	10736.04
572.25	10567.52
572.41	10623.69
572.57	10558.16
572.74	10654.12
572.90	10576.88
573.06	10726.68
573.22	10583.90
573.38	10717.31
573.55	10714.97
573.71	10537.09
573.87	10773.49
574.03	10576.88
574.20	10565.18
574.36	10609.65
574.52	10628.37
574.68	10595.61
574.84	10766.46
575.01	10626.03
575.17	10572.20
575.33	10668.16
575.49	10817.96
575.65	10729.02
575.82	10698.59
575.98	10675.18
576.14	10670.50
576.30	10705.61
576.46	10602.63
576.62	10684.55
576.79	10789.87
576.95	10775.83
577.11	10712.63
577.27	10897.53
577.43	10576.88
577.59	10853.06
577.75	10773.49
577.92	10544.11
578.08	10501.98
578.24	10665.82
578.40	10726.68
578.56	10899.87
578.72	11012.22
578.88	10932.64
579.04	10857.75
579.21	10998.18
579.37	10700.93
579.53	10768.80
579.69	10546.45
579.85	10806.25
580.01	10787.53
580.17	10726.68
580.33	10553.48
580.49	10675.18
580.65	10705.61
580.82	10764.12
580.98	10841.36
581.14	10892.85
581.30	10806.25
581.46	10668.16
581.62	10913.92
581.78	10757.10
581.94	10930.30
582.10	10675.18
582.26	10750.08
582.42	10934.98
582.58	11082.44
582.74	10862.43
582.90	10897.53
583.06	10956.05
583.22	10672.84
583.38	10937.32
583.54	10752.42
583.70	10703.27
583.86	10909.24
584.02	10780.51
584.18	10850.72
584.34	11047.33
584.50	10576.88
584.66	10658.80
584.82	10637.73
584.98	10855.40
585.14	10787.53
585.30	10628.37
585.46	10633.05
585.62	10782.85
585.78	10930.30
585.94	10867.11
586.10	10867.11
586.26	10806.25
586.42	10963.07
586.58	10839.02
586.74	10869.45
586.90	10930.30
587.06	10899.87
587.22	10883.49
587.38	10909.24
587.54	10810.93
587.70	11075.42
587.86	10822.64
588.02	10981.79
588.18	11026.26
588.34	10829.66
588.49	10707.95
588.65	10857.75
588.81	10803.91
588.97	10675.18
589.13	10780.51
589.29	10696.25
589.45	10768.80
589.61	10942.00
589.77	10689.23
589.93	11014.56
590.08	10984.13
590.24	10846.04
590.40	11091.80
590.56	11140.95
590.72	10822.64
590.88	10619.01
591.04	10920.94
591.20	10757.10
591.35	10796.89
591.51	10747.74
591.67	10839.02
591.83	10712.63
591.99	10951.37
592.15	11014.56
592.31	11066.05
592.46	10848.38
592.62	10824.98
592.78	10977.11
592.94	11091.80
593.10	10712.63
593.26	11070.73
593.41	10965.41
593.57	10932.64
593.73	10775.83
593.89	11082.44
594.05	11040.31
594.20	10867.11
594.36	10897.53
594.52	10686.89
594.68	11063.71
594.84	10724.33
594.99	10862.43
595.15	10920.94
595.31	11037.97
595.47	10934.98
595.62	10731.36
595.78	11094.14
595.94	10991.16
596.10	10717.31
596.25	10920.94
596.41	11014.56
