SpectraSuite Data File
++++++++++++++++++++++++++++++++++++
Date: Fri Oct 04 11:39:21 GMT-05:00 2013
User: price-jones
Dark Spectrum Present: No
Reference Spectrum Present: No
Number of Sampled Component Spectra: 1
Spectrometers: USB2+H05261
Integration Time (usec): 100000 (USB2+H05261)
Spectra Averaged: 1 (USB2+H05261)
Boxcar Smoothing: 0 (USB2+H05261)
Correct for Electrical Dark: No (USB2+H05261)
Strobe/Lamp Enabled: No (USB2+H05261)
Correct for Detector Non-linearity: No (USB2+H05261)
Correct for Stray Light: No (USB2+H05261)
Number of Pixels in Processed Spectrum: 2048
>>>>>Begin Processed Spectral Data<<<<<
365.73	0.00
365.92	0.00
366.12	0.00
366.32	0.00
366.52	0.00
366.72	0.00
366.91	0.00
367.11	0.00
367.31	0.00
367.51	0.00
367.70	0.00
367.90	0.00
368.10	0.00
368.30	0.00
368.49	0.00
368.69	0.00
368.89	18.72
369.09	0.00
369.28	7.02
369.48	0.00
369.68	0.00
369.87	0.00
370.07	0.00
370.27	0.00
370.47	208.31
370.66	238.73
370.86	163.84
371.06	271.50
371.25	325.33
371.45	334.70
371.65	306.61
371.84	297.25
372.04	252.78
372.24	330.02
372.44	271.50
372.63	262.14
372.83	339.38
373.03	271.50
373.22	322.99
373.42	271.50
373.62	360.44
373.81	418.96
374.01	367.46
374.21	407.25
374.40	320.65
374.60	369.80
374.79	369.80
374.99	404.91
375.19	362.78
375.38	437.68
375.58	397.89
375.78	409.59
375.97	362.78
376.17	510.24
376.37	395.55
376.56	421.30
376.76	414.27
376.95	404.91
377.15	498.53
377.35	411.93
377.54	414.27
377.74	414.27
377.93	451.72
378.13	442.36
378.33	475.13
378.52	493.85
378.72	407.25
378.91	449.38
379.11	397.89
379.31	358.10
379.50	477.47
379.70	475.13
379.89	444.70
380.09	470.45
380.28	479.81
380.48	437.68
380.68	486.83
380.87	510.24
381.07	390.87
381.26	531.30
381.46	475.13
381.65	461.09
381.85	496.19
382.04	512.58
382.24	472.79
382.43	414.27
382.63	418.96
382.83	477.47
383.02	557.05
383.22	524.28
383.41	510.24
383.61	479.81
383.80	493.85
384.00	475.13
384.19	449.38
384.39	421.30
384.58	489.17
384.78	514.92
384.97	550.03
385.17	564.07
385.36	526.62
385.56	561.73
385.75	463.43
385.95	566.41
386.14	528.96
386.34	491.51
386.53	587.47
386.72	550.03
386.92	594.50
387.11	554.71
387.31	613.22
387.50	566.41
387.70	489.17
387.89	514.92
388.09	629.60
388.28	547.69
388.48	620.24
388.67	613.22
388.86	559.39
389.06	578.11
389.25	610.88
389.45	674.07
389.64	671.73
389.84	599.18
390.03	660.03
390.22	645.99
390.42	564.07
390.61	704.50
390.81	653.01
391.00	772.38
391.19	711.52
391.39	634.29
391.58	671.73
391.78	683.44
391.97	681.10
392.16	711.52
392.36	788.76
392.55	751.31
392.75	702.16
392.94	704.50
393.13	681.10
393.33	772.38
393.52	676.41
393.71	788.76
393.91	725.57
394.10	697.48
394.29	777.06
394.49	763.01
394.68	744.29
394.88	805.14
395.07	795.78
395.26	784.08
395.46	784.08
395.65	814.51
395.84	823.87
396.04	978.34
396.23	880.04
396.42	880.04
396.62	844.93
396.81	861.32
397.00	814.51
397.19	903.45
397.39	910.47
397.58	994.73
397.77	912.81
397.97	936.21
398.16	926.85
398.35	1022.81
398.55	931.53
398.74	940.90
398.93	980.68
399.12	976.00
399.32	950.26
399.51	968.98
399.70	1048.56
399.90	954.94
400.09	1027.50
400.28	1043.88
400.47	1013.45
400.67	1090.69
400.86	1039.20
401.05	1055.58
401.24	1088.35
401.44	1130.48
401.63	1055.58
401.82	1128.14
402.01	1097.71
402.21	1076.65
402.40	1121.12
402.59	1153.88
402.78	1203.04
402.97	1193.67
403.17	1144.52
403.36	1121.12
403.55	1235.80
403.74	1205.38
403.93	1294.32
404.13	1266.23
404.32	1336.45
404.51	1306.02
404.70	1406.66
404.89	1263.89
405.09	1359.85
405.28	1322.40
405.47	1387.94
405.66	1446.45
405.85	1502.62
406.05	1425.39
406.24	1401.98
406.43	1455.81
406.62	1437.09
406.81	1533.05
407.00	1544.75
407.20	1469.86
407.39	1530.71
407.58	1448.79
407.77	1600.93
407.96	1692.21
408.15	1511.99
408.34	1528.37
408.54	1598.59
408.73	1626.67
408.92	1593.90
409.11	1633.69
409.30	1617.31
409.49	1659.44
409.68	1610.29
409.87	1685.19
410.07	1685.19
410.26	1783.49
410.45	1816.26
410.64	1802.21
410.83	1757.74
411.02	1820.94
411.21	1856.04
411.40	1830.30
411.59	1813.92
411.78	1823.28
411.98	1811.57
412.17	2024.56
412.36	1975.41
412.55	1982.43
412.74	1898.17
412.93	1994.14
413.12	1973.07
413.31	2066.69
413.50	2087.76
413.69	2106.48
413.88	2064.35
414.07	2179.04
414.26	2239.89
414.45	2155.63
414.64	2122.87
414.83	2228.19
415.02	2284.36
415.22	2363.94
415.41	2293.72
415.60	2361.60
415.79	2509.05
415.98	2389.69
416.17	2401.39
416.36	2375.64
416.55	2389.69
416.74	2534.80
416.93	2471.61
417.12	2422.45
417.31	2569.91
417.50	2558.21
417.69	2661.19
417.88	2710.34
418.07	2724.38
418.26	2595.65
418.45	2726.72
418.64	2745.45
418.83	2689.28
419.02	2766.51
419.21	2832.05
419.39	2874.18
419.58	2689.28
419.77	2916.31
419.96	2904.60
420.15	2944.39
420.34	2951.42
420.53	2876.52
420.72	2942.05
420.91	3052.06
421.10	3021.63
421.29	3021.63
421.48	2960.78
421.67	3030.99
421.86	3038.02
422.05	3040.36
422.24	3035.67
422.43	3056.74
422.61	3157.38
422.80	3150.36
422.99	3155.04
423.18	3206.53
423.37	3279.09
423.56	3274.41
423.75	3206.53
423.94	3038.02
424.13	2881.20
424.32	3108.23
424.50	3164.40
424.69	3187.81
424.88	3267.39
425.07	3047.38
425.26	3166.74
425.45	3108.23
425.64	3166.74
425.83	3316.54
426.01	3339.94
426.20	3206.53
426.39	3225.26
426.58	3290.79
426.77	3136.32
426.96	3208.87
427.15	3279.09
427.33	3379.73
427.52	3286.11
427.71	3478.04
427.90	3424.20
428.09	3480.38
428.28	3377.39
428.46	3463.99
428.65	3372.71
428.84	3447.61
429.03	3485.06
429.22	3538.89
429.40	3503.78
429.59	3562.30
429.78	3510.80
429.97	3562.30
430.16	3384.41
430.34	3529.53
430.53	3681.66
430.72	3604.42
430.91	3463.99
431.10	3538.89
431.28	3660.60
431.47	3779.97
431.66	3712.09
431.85	3637.19
432.03	3705.07
432.22	3887.63
432.41	3763.58
432.60	3789.33
432.79	3852.52
432.97	3866.56
433.16	3913.38
433.35	3995.29
433.54	3854.86
433.72	4044.45
433.91	3920.40
434.10	3840.82
434.28	4009.34
434.47	4053.81
434.66	4028.06
434.85	4053.81
435.03	4145.09
435.22	4203.60
435.41	4550.00
435.59	4585.11
435.78	4585.11
435.97	4353.40
436.16	4390.84
436.34	4269.14
436.53	4191.90
436.72	4311.27
436.90	4224.67
437.09	4269.14
437.28	4217.65
437.46	4126.36
437.65	4219.99
437.84	4292.54
438.02	4540.64
438.21	4372.12
438.40	4297.22
438.58	4547.66
438.77	4500.85
438.96	4533.62
439.14	4498.51
439.33	4624.90
439.52	4601.49
439.70	4716.18
439.89	4664.69
440.08	4791.08
440.26	4762.99
440.45	4645.96
440.63	4638.94
440.82	4816.82
441.01	4833.21
441.19	4947.89
441.38	5069.60
441.57	5116.41
441.75	4964.28
441.94	5071.94
442.12	5252.16
442.31	5200.67
442.50	5111.73
442.68	5170.24
442.87	5217.05
443.05	5277.91
443.24	5249.82
443.43	5224.08
443.61	5226.42
443.80	5591.54
443.98	5296.63
444.17	5121.09
444.35	5373.87
444.54	5392.59
444.73	5334.08
444.91	5509.62
445.10	5406.64
445.28	5434.72
445.47	5441.75
445.65	5420.68
445.84	5607.92
446.02	5488.56
446.21	5298.97
446.39	5455.79
446.58	5439.40
446.77	5511.96
446.95	5399.62
447.14	5509.62
447.32	5406.64
447.51	5624.31
447.69	5350.46
447.88	5598.56
448.06	5331.74
448.25	5432.38
448.43	5469.83
448.62	5488.56
448.80	5596.22
448.99	5603.24
449.17	5521.32
449.36	5708.57
449.54	5638.35
449.73	5584.52
449.91	5738.99
450.10	5738.99
450.28	5966.03
450.46	5891.13
450.65	5692.18
450.83	5905.17
451.02	5671.12
451.20	5755.38
451.39	5884.11
451.57	5996.45
451.76	5923.90
451.94	6024.54
452.13	6083.05
452.31	5961.34
452.49	6022.20
452.68	5877.09
452.86	6101.78
453.05	6118.16
453.23	6050.28
453.42	6045.60
453.60	6001.13
453.78	6099.44
453.97	5994.11
454.15	6214.12
454.34	6230.51
454.52	6359.24
454.70	6284.34
454.89	6279.66
455.07	6253.91
455.26	6363.92
455.44	6462.22
455.62	6401.37
455.81	6469.24
455.99	6392.00
456.17	6471.58
456.36	6480.94
456.54	6490.31
456.73	6513.71
456.91	6757.13
457.09	6729.04
457.28	6895.22
457.46	6541.80
457.64	6827.34
457.83	6719.68
458.01	6731.38
458.19	6810.96
458.38	6691.59
458.56	6888.20
458.74	6909.26
458.93	7016.93
459.11	6862.45
459.29	6885.86
459.48	6944.37
459.66	6857.77
459.84	7012.24
460.03	7091.82
460.21	7023.95
460.39	7171.40
460.57	7089.48
460.76	7166.72
460.94	7138.63
461.12	7140.97
461.31	7288.43
461.49	7316.51
461.67	7222.89
461.85	7220.55
462.04	7192.47
462.22	7817.39
462.40	7485.03
462.59	7625.47
462.77	7293.11
462.95	7447.58
463.13	7606.74
463.32	7382.05
463.50	7485.03
463.68	7646.53
463.86	7550.57
464.05	7625.47
464.23	7461.63
464.41	7676.96
464.59	7623.12
464.78	7634.83
464.96	7763.56
465.14	7606.74
465.32	7578.65
465.50	7772.92
465.69	7817.39
465.87	7808.03
466.05	7955.48
466.23	7833.77
466.41	7761.22
466.60	8044.42
466.78	7803.35
466.96	7967.18
467.14	7826.75
467.32	7831.43
467.51	8107.62
467.69	7758.88
467.87	8091.23
468.05	8065.49
468.23	7920.37
468.41	7896.97
468.60	8018.68
468.78	8348.69
468.96	7967.18
469.14	8304.22
469.32	8379.12
469.50	8100.59
469.69	8344.01
469.87	8542.96
470.05	8379.12
470.23	8346.35
470.41	8540.61
470.59	8533.59
470.77	8259.75
470.95	8517.21
471.14	8727.86
471.32	8575.72
471.50	8847.22
471.68	8645.94
471.86	8587.43
472.04	8643.60
472.22	8898.72
472.40	8669.34
472.58	8870.63
472.77	8950.21
472.95	9050.85
473.13	9287.25
473.31	9060.21
473.49	9090.64
473.67	9170.22
473.85	9214.69
474.03	9317.67
474.21	9233.41
474.39	9469.81
474.57	9371.50
474.75	9481.51
474.93	9598.54
475.12	9731.95
475.30	9551.73
475.48	9624.28
475.66	9748.33
475.84	9689.82
476.02	9825.57
476.20	9750.67
476.38	9825.57
476.56	10324.10
476.74	9973.02
476.92	10097.07
477.10	10284.31
477.28	10284.31
477.46	10230.48
477.64	10349.85
477.82	10626.03
478.00	10778.17
478.18	10888.17
478.36	10946.69
478.54	11007.54
478.72	11026.26
478.90	11225.21
479.08	11152.65
479.26	11246.27
479.44	11372.66
479.62	11564.59
479.80	11716.72
479.98	11665.23
480.16	11695.66
480.34	11641.82
480.52	11779.92
480.70	11887.58
480.88	11651.19
481.06	11946.09
481.24	11838.43
481.41	12107.59
481.59	12233.98
481.77	12346.33
481.95	12568.68
482.13	12589.74
482.31	12594.42
482.49	12617.83
482.67	12851.88
482.85	12957.21
483.03	13048.49
483.21	13305.95
483.39	13291.90
483.57	13233.39
483.74	13397.23
483.92	13699.16
484.10	13661.71
484.28	13886.40
484.46	13926.19
484.64	14352.16
484.82	13909.80
485.00	14150.88
485.18	14387.27
485.35	14785.16
485.53	14508.98
485.71	14532.39
485.89	14939.64
486.07	14925.60
486.25	14904.53
486.43	15115.18
486.61	15157.31
486.78	15442.85
486.96	15604.35
487.14	15648.82
487.32	15719.04
487.50	15770.53
487.68	15789.25
487.85	16121.61
488.03	16065.44
488.21	16627.17
488.39	16533.54
488.57	16545.25
488.75	16863.56
488.92	17172.51
489.10	16858.88
489.28	17298.90
489.46	17193.58
489.64	17312.94
489.81	17982.34
489.99	17619.55
490.17	17745.94
490.35	17921.48
490.53	17837.22
490.70	18101.70
490.88	18300.65
491.06	18253.84
491.24	18045.53
491.41	18848.33
491.59	18356.82
491.77	18757.05
491.95	19073.03
492.13	19037.92
492.30	19033.24
492.48	19239.20
492.66	19314.10
492.84	19466.24
493.01	19358.57
493.19	19559.86
493.37	19651.14
493.54	19536.45
493.72	20034.99
493.90	19796.25
494.08	19988.18
494.25	20362.66
494.43	20348.62
494.61	20737.15
494.79	20540.54
494.96	20666.93
495.14	21032.05
495.32	20819.07
495.49	21074.18
495.67	20926.73
495.85	21549.31
496.02	21666.34
496.20	21692.08
496.38	21579.74
496.55	21624.21
496.73	22092.32
496.91	21858.26
497.09	22199.98
497.26	22129.77
497.44	22031.46
497.62	22501.91
497.79	22810.86
497.97	22483.19
498.14	22623.62
498.32	23065.98
498.50	23206.41
498.67	23470.89
498.85	23091.73
499.03	23133.86
499.20	23498.98
499.38	23220.45
499.56	23573.88
499.73	23634.73
499.91	23625.37
500.08	24189.44
500.26	23484.94
500.44	23924.96
500.61	24182.42
500.79	23889.85
500.97	24130.92
501.14	24704.35
501.32	24673.93
501.49	24306.46
501.67	24891.60
501.84	24479.66
502.02	24395.40
502.20	25097.56
502.37	25057.78
502.55	24823.72
502.72	25120.97
502.90	25191.19
503.07	24945.43
503.25	25294.17
503.43	25301.19
503.60	25757.60
503.78	25565.67
503.95	25928.45
504.13	25366.73
504.30	25586.74
504.48	25853.56
504.65	25919.09
504.83	26256.13
505.01	26527.63
505.18	26251.45
505.36	26434.01
505.53	26291.24
505.71	26464.44
505.88	26141.44
506.06	26408.26
506.23	26604.87
506.41	26647.00
506.58	26962.97
506.76	26789.77
506.93	27325.75
507.11	26799.13
507.28	27225.11
507.46	27363.20
507.63	27126.81
507.81	27571.51
507.98	27330.44
508.16	27482.57
508.33	27716.62
508.50	27555.13
508.68	27887.48
508.85	28063.02
509.03	28039.62
509.20	28407.08
509.38	28371.97
509.55	28353.25
509.73	28442.19
509.90	28718.37
510.08	28922.00
510.25	28531.13
510.42	28484.32
510.60	29123.29
510.77	29013.28
510.95	29069.45
511.12	28952.43
511.30	28879.87
511.47	29294.14
511.64	29350.32
511.82	29418.19
511.99	29221.59
512.17	29465.00
512.34	29347.98
512.51	29677.99
512.69	29762.25
512.86	29689.70
513.04	30141.42
513.21	29745.87
513.38	30120.35
513.56	30000.99
513.73	30232.70
513.90	30022.05
514.08	30197.59
514.25	30448.03
514.43	30543.99
514.60	30651.66
514.77	30881.03
514.95	30925.50
515.12	30593.14
515.29	30852.94
515.47	31028.48
515.64	30969.97
515.81	31220.41
515.99	31173.60
516.16	31302.32
516.33	31580.85
516.51	31555.10
516.68	31711.92
516.85	31414.67
517.03	31690.85
517.20	31845.33
517.37	31777.45
517.54	31850.01
517.72	31775.11
517.89	32236.20
518.06	32023.21
518.24	32027.89
518.41	32308.76
518.58	32407.06
518.75	31906.18
518.93	32545.15
519.10	32907.93
519.27	32669.20
519.45	32435.14
519.62	32189.39
519.79	32994.53
519.96	32807.29
520.14	32905.59
520.31	32828.35
520.48	33111.56
520.65	33031.98
520.83	33518.81
521.00	33097.52
521.17	32957.08
521.34	33092.83
521.52	33319.87
521.69	33209.86
521.86	33472.00
522.03	33661.58
522.20	33659.24
522.38	33928.41
522.55	33958.83
522.72	33961.17
522.89	33844.15
523.07	34401.19
523.24	34319.28
523.41	34080.54
523.58	34059.48
523.75	34422.26
523.92	34258.42
524.10	34550.99
524.27	34658.65
524.44	34735.89
524.61	35098.67
524.78	35054.20
524.96	34663.33
525.13	35040.16
525.30	35042.50
525.47	35143.14
525.64	34895.05
525.81	35009.73
525.98	35761.05
526.16	35292.94
526.33	35299.96
526.50	35637.00
526.67	35152.51
526.84	35035.48
527.01	35419.33
527.18	35541.03
527.36	35613.59
527.53	35936.59
527.70	36444.48
527.87	35550.40
528.04	36215.11
528.21	35857.01
528.38	35896.80
528.55	35807.86
528.72	36067.66
528.89	36252.56
529.07	36388.31
529.24	36390.65
529.41	36531.08
529.58	36301.71
529.75	36348.52
529.92	36510.02
530.09	36421.08
530.26	36730.03
530.43	36718.32
530.60	36484.27
530.77	36514.70
530.94	37380.70
531.11	36231.49
531.28	36533.42
531.46	36601.30
531.63	37251.97
531.80	36996.85
531.97	37532.83
532.14	37549.21
532.31	36971.10
532.48	37078.77
532.65	36996.85
532.82	36980.46
532.99	37390.06
533.16	37432.19
533.33	37909.66
533.50	37792.63
533.67	37787.95
533.84	37652.20
534.01	37509.43
534.18	37439.21
534.35	38197.54
534.52	37989.24
534.69	38316.91
534.86	38045.41
535.03	37926.04
535.20	38047.75
535.37	38246.69
535.54	38314.57
535.71	37998.60
535.88	38321.59
536.05	38115.62
536.22	38330.95
536.38	38941.83
536.55	38691.40
536.72	38403.51
536.89	38677.35
537.06	38679.69
537.23	38969.92
537.40	38803.74
537.57	38670.33
537.74	38724.16
537.91	39065.88
538.08	39194.61
538.25	38888.00
538.42	39557.39
538.59	38986.30
538.75	38808.42
538.92	39615.91
539.09	39012.05
539.26	39210.99
539.43	39557.39
539.60	39367.81
539.77	39426.32
539.94	39775.06
540.11	39807.83
540.28	39746.98
540.44	39255.46
540.61	39889.75
540.78	39812.51
540.95	40051.25
541.12	39861.66
541.29	39983.37
541.46	40002.10
541.62	40222.11
541.79	40154.23
541.96	40135.51
542.13	39950.60
542.30	40179.98
542.47	41045.97
542.63	40802.56
542.80	40655.11
542.97	40608.29
543.14	41020.23
543.31	40994.48
543.48	39938.90
543.64	40896.18
543.81	40989.80
543.98	40921.93
544.15	41029.59
544.32	40732.34
544.48	41949.42
544.65	41109.17
544.82	41221.52
544.99	40701.92
545.16	41244.92
545.32	40996.82
545.49	42061.77
545.66	42813.08
545.83	42691.37
546.00	42557.96
546.16	42185.82
546.33	41420.46
546.50	41268.33
546.67	41640.47
546.83	41041.29
547.00	41949.42
547.17	41296.41
547.34	41345.56
547.50	41738.77
547.67	41673.24
547.84	41792.61
548.00	41818.35
548.17	41888.57
548.34	41911.97
548.51	42108.58
548.67	41471.95
548.84	42007.94
549.01	41970.49
549.18	41626.43
549.34	42244.33
549.51	41680.26
549.68	42260.71
549.84	42036.02
550.01	41921.34
550.18	41879.21
550.34	42614.13
550.51	42298.16
550.68	42218.58
550.84	42218.58
551.01	42351.99
551.18	42019.64
551.34	41883.89
551.51	42302.84
551.68	42880.95
551.84	42693.71
552.01	42431.57
552.18	42546.26
552.34	42368.38
552.51	42974.58
552.68	42539.24
552.84	41937.72
553.01	42916.06
553.18	42440.93
553.34	42976.92
553.51	42784.99
553.67	42946.49
553.84	43136.07
554.01	43180.54
554.17	43026.07
554.34	42747.54
554.51	42412.85
554.67	42789.67
554.84	42883.30
555.00	42756.91
555.17	42754.57
555.33	42983.94
555.50	43356.08
555.67	42953.51
555.83	43248.42
556.00	42955.85
556.16	43442.68
556.33	42850.53
556.50	43093.94
556.66	43325.66
556.83	43019.05
556.99	43302.25
557.16	43430.98
557.32	42981.60
557.49	43367.79
557.65	43353.74
557.82	43374.81
557.98	43580.78
558.15	43466.09
558.32	43660.35
558.48	43360.76
558.65	43866.32
558.81	43594.82
558.98	43573.75
559.14	43529.28
559.31	43215.65
559.47	43428.64
559.64	43496.52
559.80	43508.22
559.97	44013.77
560.13	43538.65
560.30	44065.27
560.46	44041.86
560.63	43803.13
560.79	43971.64
560.96	43697.80
561.12	43721.21
561.29	43391.19
561.45	43922.49
561.61	44060.58
561.78	43971.64
561.94	44247.83
562.11	44266.55
562.27	44285.28
562.44	43847.60
562.60	43814.83
562.77	43938.88
562.93	44219.74
563.10	44088.67
563.26	43906.11
563.42	44566.14
563.59	43934.20
563.75	44428.05
563.92	44215.06
564.08	43866.32
564.24	44091.01
564.41	44215.06
564.57	44325.07
564.74	43723.55
564.90	44528.69
565.07	44236.12
565.23	44699.55
565.39	44404.64
565.56	44030.16
565.72	44177.61
565.88	44559.12
566.05	44041.86
566.21	44037.18
566.38	44421.03
566.54	44608.27
566.70	44278.25
566.87	44643.38
567.03	44521.67
567.19	44093.35
567.36	44271.23
567.52	44617.63
567.68	44563.80
567.85	44327.41
568.01	44676.15
568.17	44472.52
568.34	44741.68
568.50	44591.89
568.66	44435.07
568.83	44765.09
568.99	44729.98
569.15	45177.02
569.32	44502.95
569.48	44442.09
569.64	44381.24
569.81	44669.12
569.97	44666.78
570.13	44683.17
570.30	44748.70
570.46	44994.46
570.62	44608.27
570.78	44587.21
570.95	44315.70
571.11	44292.30
571.27	44046.54
571.43	44116.76
571.60	44598.91
571.76	44722.96
571.92	45148.93
572.09	44790.83
572.25	44669.12
572.41	44641.04
572.57	44418.69
572.74	44851.69
572.90	44989.78
573.06	44488.90
573.22	44643.38
573.38	44479.54
573.55	44786.15
573.71	45287.03
573.87	44996.80
574.03	44847.00
574.20	45216.81
574.36	44797.85
574.52	44685.51
574.68	44837.64
574.84	44961.69
575.01	44879.77
575.17	45001.48
575.33	44493.58
575.49	44889.13
575.65	45071.70
575.82	44952.33
575.98	44947.65
576.14	44994.46
576.30	44575.50
576.46	45287.03
576.62	45067.02
576.79	45301.07
576.95	44793.17
577.11	45045.95
577.27	44774.45
577.43	45270.64
577.59	45027.23
577.75	44926.58
577.92	44875.09
578.08	44797.85
578.24	44765.09
578.40	45017.86
578.56	45235.53
578.72	44849.35
578.88	45525.76
579.04	45511.72
579.21	45083.40
579.37	44910.20
579.53	45418.10
579.69	44500.61
579.85	44790.83
580.01	44919.56
580.17	45172.34
580.33	45113.83
580.49	44973.39
580.65	45422.78
580.82	45223.83
580.98	45373.63
581.14	45008.50
581.30	45130.21
581.46	44907.86
581.62	44917.22
581.78	44884.45
581.94	45153.62
582.10	44875.09
582.26	45235.53
582.42	44994.46
582.58	45401.71
582.74	45067.02
582.90	45434.48
583.06	45631.08
583.22	45415.76
583.38	45181.70
583.54	45125.53
583.70	44912.54
583.86	44978.07
584.02	45247.24
584.18	45123.19
584.34	45523.42
584.50	45165.32
584.66	45439.16
584.82	44818.92
584.98	45170.00
585.14	45422.78
585.30	45186.38
585.46	45158.30
585.62	45146.59
585.78	45607.68
585.94	45155.96
586.10	45221.49
586.26	45282.34
586.42	45413.41
586.58	45965.78
586.74	45078.72
586.90	44978.07
587.06	45249.58
587.22	45366.60
587.38	45272.98
587.54	45090.42
587.70	45652.15
587.86	45294.05
588.02	45581.93
588.18	45284.68
588.34	45471.93
588.49	45476.61
588.65	45228.51
588.81	45184.04
588.97	45481.29
589.13	45392.35
589.29	45624.06
589.45	45612.36
589.61	45577.25
589.77	45750.45
589.93	45675.55
590.08	45741.09
590.24	45303.41
590.40	45759.81
590.56	45769.18
590.72	45652.15
590.88	45003.82
