SpectraSuite Data File
++++++++++++++++++++++++++++++++++++
Date: Fri Oct 04 11:39:14 GMT-05:00 2013
User: price-jones
Dark Spectrum Present: No
Reference Spectrum Present: No
Number of Sampled Component Spectra: 1
Spectrometers: USB2+H05261
Integration Time (usec): 100000 (USB2+H05261)
Spectra Averaged: 1 (USB2+H05261)
Boxcar Smoothing: 0 (USB2+H05261)
Correct for Electrical Dark: No (USB2+H05261)
Strobe/Lamp Enabled: No (USB2+H05261)
Correct for Detector Non-linearity: No (USB2+H05261)
Correct for Stray Light: No (USB2+H05261)
Number of Pixels in Processed Spectrum: 2048
>>>>>Begin Processed Spectral Data<<<<<
365.73	102.98
365.92	102.98
366.12	102.98
366.32	0.00
366.52	0.00
366.72	0.00
366.91	0.00
367.11	0.00
367.31	0.00
367.51	0.00
367.70	0.00
367.90	0.00
368.10	0.00
368.30	0.00
368.49	0.00
368.69	0.00
368.89	0.00
369.09	0.00
369.28	0.00
369.48	0.00
369.68	11.70
369.87	51.49
370.07	28.09
370.27	16.38
370.47	100.64
370.66	147.45
370.86	203.63
371.06	173.20
371.25	133.41
371.45	175.54
371.65	159.16
371.84	196.60
372.04	102.98
372.24	212.99
372.44	138.09
372.63	210.65
372.83	252.78
373.03	243.42
373.22	250.44
373.42	236.39
373.62	220.01
373.81	308.95
374.01	344.06
374.21	245.76
374.40	269.16
374.60	369.80
374.79	205.97
374.99	252.78
375.19	175.54
375.38	257.46
375.58	290.23
375.78	341.72
375.97	255.12
376.17	290.23
376.37	311.29
376.56	290.23
376.76	327.68
376.95	245.76
377.15	255.12
377.35	308.95
377.54	273.84
377.74	245.76
377.93	334.70
378.13	262.14
378.33	334.70
378.52	297.25
378.72	301.93
378.91	276.18
379.11	217.67
379.31	252.78
379.50	250.44
379.70	322.99
379.89	386.19
380.09	278.52
380.28	294.91
380.48	285.55
380.68	236.39
380.87	255.12
381.07	276.18
381.26	315.97
381.46	334.70
381.65	355.76
381.85	360.44
382.04	299.59
382.24	285.55
382.43	339.38
382.63	283.20
382.83	299.59
383.02	297.25
383.22	372.15
383.41	409.59
383.61	337.04
383.80	374.49
384.00	311.29
384.19	283.20
384.39	327.68
384.58	313.63
384.78	318.31
384.97	301.93
385.17	358.10
385.36	330.02
385.56	334.70
385.75	259.80
385.95	320.65
386.14	397.89
386.34	388.53
386.53	397.89
386.72	402.57
386.92	404.91
387.11	355.76
387.31	402.57
387.50	330.02
387.70	330.02
387.89	372.15
388.09	344.06
388.28	348.74
388.48	308.95
388.67	449.38
388.86	362.78
389.06	381.51
389.25	407.25
389.45	423.64
389.64	337.04
389.84	486.83
390.03	421.30
390.22	430.66
390.42	451.72
390.61	372.15
390.81	440.02
391.00	372.15
391.19	418.96
391.39	430.66
391.58	428.32
391.78	365.12
391.97	388.53
392.16	435.34
392.36	505.56
392.55	418.96
392.75	397.89
392.94	344.06
393.13	416.62
393.33	390.87
393.52	423.64
393.71	514.92
393.91	451.72
394.10	409.59
394.29	465.77
394.49	423.64
394.68	505.56
394.88	505.56
395.07	505.56
395.26	489.17
395.46	519.60
395.65	500.87
395.84	477.47
396.04	561.73
396.23	503.22
396.42	526.62
396.62	521.94
396.81	458.74
397.00	479.81
397.19	526.62
397.39	554.71
397.58	531.30
397.77	470.45
397.97	498.53
398.16	496.19
398.35	573.43
398.55	528.96
398.74	521.94
398.93	533.64
399.12	559.39
399.32	573.43
399.51	603.86
399.70	608.54
399.90	624.92
400.09	528.96
400.28	599.18
400.47	620.24
400.67	627.26
400.86	550.03
401.05	629.60
401.24	624.92
401.44	568.75
401.63	641.31
401.82	709.18
402.01	587.47
402.21	636.63
402.40	678.76
402.59	603.86
402.78	716.20
402.97	674.07
403.17	585.13
403.36	681.10
403.55	648.33
403.74	786.42
403.93	727.91
404.13	746.63
404.32	713.86
404.51	678.76
404.70	704.50
404.89	599.18
405.09	746.63
405.28	655.35
405.47	704.50
405.66	732.59
405.85	800.46
406.05	718.54
406.24	784.08
406.43	788.76
406.62	849.61
406.81	828.55
407.00	844.93
407.20	816.85
407.39	833.23
407.58	830.89
407.77	835.57
407.96	807.48
408.15	903.45
408.34	828.55
408.54	861.32
408.73	847.27
408.92	814.51
409.11	936.21
409.30	936.21
409.49	833.23
409.68	891.74
409.87	851.96
410.07	926.85
410.26	856.64
410.45	940.90
410.64	856.64
410.83	922.17
411.02	959.62
411.21	1039.20
411.40	1011.11
411.59	894.08
411.78	931.53
411.98	1067.28
412.17	1015.79
412.36	1071.97
412.55	1090.69
412.74	1055.58
412.93	1074.31
413.12	1097.71
413.31	1128.14
413.50	1116.44
413.69	1163.25
413.88	1158.57
414.07	1144.52
414.26	1165.59
414.45	1156.22
414.64	1081.33
414.83	1118.78
415.02	1174.95
415.22	1270.91
415.41	1191.33
415.60	1231.12
415.79	1252.19
415.98	1294.32
416.17	1338.79
416.36	1313.04
416.55	1167.93
416.74	1313.04
416.93	1383.26
417.12	1324.74
417.31	1284.95
417.50	1364.53
417.69	1409.00
417.88	1387.94
418.07	1362.19
418.26	1331.76
418.45	1324.74
418.64	1509.65
418.83	1472.20
419.02	1455.81
419.21	1462.83
419.39	1362.19
419.58	1343.47
419.77	1364.53
419.96	1516.67
420.15	1430.07
420.34	1453.47
420.53	1458.15
420.72	1589.22
420.91	1516.67
421.10	1570.50
421.29	1556.46
421.48	1549.43
421.67	1558.80
421.86	1600.93
422.05	1479.22
422.24	1575.18
422.43	1502.62
422.61	1547.09
422.80	1507.30
422.99	1554.12
423.18	1584.54
423.37	1610.29
423.56	1558.80
423.75	1572.84
423.94	1551.78
424.13	1514.33
424.32	1533.05
424.50	1582.20
424.69	1666.46
424.88	1764.76
425.07	1640.72
425.26	1591.56
425.45	1537.73
425.64	1598.59
425.83	1584.54
426.01	1682.85
426.20	1591.56
426.39	1657.10
426.58	1703.91
426.77	1500.28
426.96	1577.52
427.15	1652.42
427.33	1596.25
427.52	1556.46
427.71	1727.32
427.90	1668.80
428.09	1657.10
428.28	1771.79
428.46	1657.10
428.65	1685.19
428.84	1666.46
429.03	1696.89
429.22	1713.27
429.40	1724.97
429.59	1778.81
429.78	1724.97
429.97	1797.53
430.16	1760.08
430.34	1790.51
430.53	1853.70
430.72	1902.86
430.91	1823.28
431.10	1834.98
431.28	1818.60
431.47	1858.39
431.66	1935.62
431.85	1935.62
432.03	1874.77
432.22	2036.27
432.41	1928.60
432.60	2019.88
432.79	1888.81
432.97	1898.17
433.16	2054.99
433.35	2064.35
433.54	1893.49
433.72	2005.84
433.91	1937.96
434.10	1952.01
434.28	2001.16
434.47	2024.56
434.66	1952.01
434.85	1998.82
435.03	1947.33
435.22	2340.54
435.41	2319.47
435.59	2324.15
435.78	2162.66
435.97	2209.47
436.16	2115.84
436.34	1984.77
436.53	2078.40
436.72	2104.14
436.90	2071.37
437.09	2127.55
437.28	2172.02
437.46	2094.78
437.65	2104.14
437.84	2216.49
438.02	2179.04
438.21	2183.72
438.40	2083.08
438.58	2223.51
438.77	2275.00
438.96	2190.74
439.14	2275.00
439.33	2347.56
439.52	2321.81
439.70	2272.66
439.89	2207.13
440.08	2387.35
440.26	2251.60
440.45	2300.75
440.63	2466.92
440.82	2347.56
441.01	2443.52
441.19	2424.80
441.38	2415.43
441.57	2480.97
441.75	2438.84
441.94	2509.05
442.12	2452.88
442.31	2553.52
442.50	2553.52
442.68	2527.78
442.87	2537.14
443.05	2616.72
443.24	2579.27
443.43	2628.42
443.61	2700.98
443.80	2656.51
443.98	2513.74
444.17	2506.71
444.35	2698.64
444.54	2691.62
444.73	2537.14
444.91	2736.09
445.10	2647.15
445.28	2544.16
445.47	2502.03
445.65	2715.02
445.84	2654.17
446.02	2532.46
446.21	2633.10
446.39	2593.31
446.58	2693.96
446.77	2771.19
446.95	2691.62
447.14	2642.46
447.32	2745.45
447.51	2768.85
447.69	2715.02
447.88	2717.36
448.06	2651.83
448.25	2630.76
448.43	2672.89
448.62	2743.11
448.80	2586.29
448.99	2668.21
449.17	2750.13
449.36	2733.75
449.54	2719.70
449.73	2855.45
449.91	2686.94
450.10	2862.48
450.28	3005.25
450.46	2949.08
450.65	2815.66
450.83	2967.80
451.02	2937.37
451.20	2895.24
451.39	2881.20
451.57	2888.22
451.76	2810.98
451.94	2864.82
452.13	2860.13
452.31	3002.91
452.49	2806.30
452.68	3094.19
452.86	2902.26
453.05	3014.61
453.23	2995.89
453.42	2909.29
453.60	2939.71
453.78	3077.80
453.97	3035.67
454.15	3115.25
454.34	3012.27
454.52	2979.50
454.70	3005.25
454.89	3152.70
455.07	3012.27
455.26	3119.93
455.44	3047.38
455.62	3047.38
455.81	3169.09
455.99	3234.62
456.17	3138.66
456.36	3136.32
456.54	3136.32
456.73	3295.47
456.91	3368.03
457.09	3145.68
457.28	3339.94
457.46	3274.41
457.64	3318.88
457.83	3187.81
458.01	3314.20
458.19	3267.39
458.38	3260.37
458.56	3328.24
458.74	3428.88
458.93	3375.05
459.11	3386.76
459.29	3314.20
459.48	3258.03
459.66	3412.50
459.84	3438.25
460.03	3548.25
460.21	3510.80
460.39	3449.95
460.57	3386.76
460.76	3522.51
460.94	3463.99
461.12	3609.11
461.31	3414.84
461.49	3452.29
461.67	3389.10
461.85	3665.28
462.04	3569.32
462.22	3655.92
462.40	3630.17
462.59	3599.74
462.77	3581.02
462.95	3613.79
463.13	3660.60
463.32	3620.81
463.50	3632.51
463.68	3609.11
463.86	3737.84
464.05	3609.11
464.23	3590.38
464.41	3784.65
464.59	3625.49
464.78	3639.53
464.96	3674.64
465.14	3733.15
465.32	3684.00
465.50	3894.65
465.69	3770.60
465.87	3597.40
466.05	3702.73
466.23	3735.50
466.41	3763.58
466.60	3932.10
466.78	3822.09
466.96	3702.73
467.14	3770.60
467.32	3882.95
467.51	4037.42
467.69	3735.50
467.87	3929.76
468.05	3796.35
468.23	3756.56
468.41	3927.42
468.60	3815.07
468.78	3857.20
468.96	3941.46
469.14	3960.19
469.32	4035.08
469.50	3964.87
469.69	3964.87
469.87	4166.15
470.05	4011.68
470.23	3969.55
470.41	4098.28
470.59	4159.13
470.77	4107.64
470.95	4124.02
471.14	4156.79
471.32	4100.62
471.50	4264.46
471.68	4252.75
471.86	4088.92
472.04	4189.56
472.22	4308.93
472.40	4301.90
472.58	4283.18
472.77	4362.76
472.95	4311.27
473.13	4575.75
473.31	4547.66
473.49	4402.55
473.67	4444.68
473.85	4393.19
474.03	4695.11
474.21	4531.28
474.39	4540.64
474.57	4596.81
474.75	4526.60
474.93	4674.05
475.12	4493.83
475.30	4671.71
475.48	4571.07
475.66	4779.37
475.84	4645.96
476.02	4643.62
476.20	4903.42
476.38	4716.18
476.56	5046.20
476.74	4887.04
476.92	4802.78
477.10	4861.29
477.28	4901.08
477.46	4917.47
477.64	4943.21
477.82	5071.94
478.00	5055.56
478.18	5228.76
478.36	5284.93
478.54	5245.14
478.72	5224.08
478.90	5214.71
479.08	5392.59
479.26	5289.61
479.44	5371.53
479.62	5441.75
479.80	5502.60
479.98	5584.52
480.16	5628.99
480.34	5600.90
480.52	5755.38
480.70	5849.00
480.88	5647.71
481.06	5652.39
481.24	5706.23
481.41	5724.95
481.59	5771.76
481.77	5951.98
481.95	5839.64
482.13	6040.92
482.31	6078.37
482.49	6132.20
482.67	6125.18
482.85	6200.08
483.03	6146.25
483.21	6408.39
483.39	6417.75
483.57	6361.58
483.74	6466.90
483.92	6448.18
484.10	6494.99
484.28	6623.72
484.46	6715.00
484.64	6750.10
484.82	6705.63
485.00	6792.23
485.18	6878.83
485.35	7148.00
485.53	6813.30
485.71	7162.04
485.89	7084.80
486.07	7108.21
486.25	7211.19
486.43	7262.68
486.61	7206.51
486.78	7208.85
486.96	7438.22
487.14	7449.93
487.32	7461.63
487.50	7447.58
487.68	7536.52
487.85	7410.14
488.03	7770.58
488.21	8016.33
488.39	7770.58
488.57	7845.48
488.75	7613.76
488.92	8294.86
489.10	8056.12
489.28	8032.72
489.46	8112.30
489.64	8124.00
489.81	8166.13
489.99	8116.98
490.17	8318.26
490.35	8540.61
490.53	8486.78
490.70	8486.78
490.88	8552.32
491.06	8585.08
491.24	8648.28
491.41	8578.06
491.59	8772.33
491.77	8849.57
491.95	8898.72
492.13	8872.97
492.30	9085.96
492.48	9067.24
492.66	9282.56
492.84	8877.65
493.01	9107.02
493.19	9020.42
493.37	9518.96
493.54	9362.14
493.72	9394.91
493.90	9474.49
494.08	9427.68
494.25	9446.40
494.43	9518.96
494.61	9741.31
494.79	9879.40
494.96	9762.37
495.14	9818.55
495.32	9994.09
495.49	9853.66
495.67	9886.42
495.85	10001.11
496.02	10064.30
496.20	10064.30
496.38	10178.99
496.55	10160.27
496.73	10420.06
496.91	10202.40
497.09	10207.08
497.26	10569.86
497.44	10363.89
497.62	10551.14
497.79	10541.77
497.97	10487.94
498.14	10752.42
498.32	10920.94
498.50	10766.46
498.67	10895.19
498.85	10703.27
499.03	10977.11
499.20	11035.63
499.38	11047.33
499.56	10911.58
499.73	10946.69
499.91	11234.57
500.08	11136.27
500.26	11077.76
500.44	11232.23
500.61	11253.30
500.79	11384.37
500.97	11576.29
501.14	11377.34
501.32	11452.24
501.49	11431.18
501.67	11330.53
501.84	11318.83
502.02	11543.52
502.20	11616.08
502.37	11730.76
502.55	11735.45
502.72	11772.89
502.90	11779.92
503.07	11735.45
503.25	11756.51
503.43	11819.71
503.60	11882.90
503.78	11850.13
503.95	11850.13
504.13	11868.86
504.30	11967.16
504.48	11957.80
504.65	12257.39
504.83	12196.53
505.01	12163.76
505.18	12301.86
505.36	12418.88
505.53	12194.19
505.71	12255.04
505.88	12573.36
506.06	12329.94
506.23	12587.40
506.41	12353.35
506.58	12425.90
506.76	12615.49
506.93	12671.66
507.11	12718.47
507.28	12528.89
507.46	12889.33
507.63	12727.83
507.81	12776.98
507.98	12835.50
508.16	12936.14
508.33	13043.81
508.50	13020.40
508.68	13083.59
508.85	13266.16
509.03	13004.02
509.20	13132.75
509.38	13369.14
509.55	12987.63
509.73	13458.08
509.90	13041.46
510.08	13238.07
510.25	13317.65
510.42	13465.10
510.60	13554.04
510.77	13673.41
510.95	13614.90
511.12	13605.53
511.30	13523.62
511.47	13748.31
511.64	13465.10
511.82	13745.97
511.99	13664.05
512.17	13795.12
512.34	13741.29
512.51	13790.44
512.69	13652.34
512.86	13912.14
513.04	14066.62
513.21	14274.93
513.38	14050.24
513.56	14295.99
513.73	14075.98
513.90	14106.41
514.08	14045.55
514.25	14181.31
514.43	14052.58
514.60	14277.27
514.77	14244.50
514.95	14377.91
515.12	14583.88
515.29	14611.96
515.47	14651.75
515.64	14686.86
515.81	14455.15
515.99	14602.60
516.16	14829.63
516.33	14630.69
516.51	14621.33
516.68	14562.81
516.85	14588.56
517.03	14848.36
517.20	14803.89
517.37	14677.50
517.54	14869.42
517.72	14953.68
517.89	14572.18
518.06	14902.19
518.24	15005.17
518.41	15103.48
518.58	15019.22
518.75	14934.96
518.93	15325.83
519.10	15213.48
519.27	15082.41
519.45	15140.93
519.62	15054.33
519.79	15499.03
519.96	15185.40
520.14	15351.57
520.31	15510.73
520.48	15566.90
520.65	15321.15
520.83	15431.15
521.00	15604.35
521.17	15307.10
521.34	15576.27
521.52	15630.10
521.69	15688.61
521.86	15578.61
522.03	15878.19
522.20	16044.37
522.38	15850.11
522.55	16009.26
522.72	15866.49
522.89	15939.05
523.07	15988.20
523.24	16011.60
523.41	16140.33
523.58	15899.26
523.75	16180.12
523.92	16035.01
524.10	16278.43
524.27	16004.58
524.44	16102.89
524.61	16341.62
524.78	16067.78
524.96	16362.69
525.13	16252.68
525.30	16112.25
525.47	16409.50
525.64	16404.81
525.81	16599.08
525.98	16482.05
526.16	16528.86
526.33	16308.85
526.50	16505.46
526.67	16683.34
526.84	16360.34
527.01	16767.60
527.18	16556.95
527.36	16573.33
527.53	16678.66
527.70	16655.25
527.87	16835.47
528.04	16830.79
528.21	16844.84
528.38	16704.40
528.55	16819.09
528.72	16802.71
528.89	16973.56
529.07	16688.02
529.24	17090.59
529.41	17025.06
529.58	16723.13
529.75	17001.65
529.92	16999.31
530.09	16985.27
530.26	17177.19
530.43	17301.24
530.60	17193.58
530.77	16992.29
530.94	17053.14
531.11	17254.43
531.28	17448.69
531.46	17029.74
531.63	17378.48
531.80	17415.93
531.97	17558.70
532.14	17565.72
532.31	17097.61
532.48	17270.81
532.65	17767.01
532.82	17586.79
532.99	17495.50
533.16	17465.08
533.33	17678.07
533.50	17483.80
533.67	17767.01
533.84	17652.32
534.01	17642.96
534.18	17413.59
534.35	17980.00
534.52	17752.96
534.69	17657.00
534.86	18132.13
535.03	17851.27
535.20	17867.65
535.37	17923.82
535.54	18125.11
535.71	17844.24
535.88	18120.43
536.05	18118.09
536.22	18307.67
536.38	17764.67
536.55	18331.08
536.72	18148.51
536.89	17795.09
537.06	18092.34
537.23	18162.56
537.40	17748.28
537.57	18148.51
537.74	18260.86
537.91	18436.40
538.08	18260.86
538.25	18108.72
538.42	18300.65
538.59	18448.10
538.75	18539.38
538.92	18333.42
539.09	18342.78
539.26	18499.59
539.43	18710.24
539.60	18579.17
539.77	18410.65
539.94	18951.32
540.11	18684.50
540.28	18703.22
540.44	18689.18
540.61	18611.94
540.78	18651.73
540.95	18642.37
541.12	18806.20
541.29	18640.03
541.46	18902.17
541.62	19077.71
541.79	18738.33
541.96	18958.34
542.13	18651.73
542.30	19047.28
542.47	19140.90
542.63	19286.01
542.80	19253.25
542.97	19494.32
543.14	19307.08
543.31	19229.84
543.48	19328.14
543.64	19683.91
543.81	19456.87
543.98	19491.98
544.15	19398.36
544.32	19915.62
544.48	19686.25
544.65	19477.94
544.82	19590.28
544.99	19089.41
545.16	19686.25
545.32	19599.65
545.49	20156.69
545.66	20404.79
545.83	20313.51
546.00	20299.47
546.16	19988.18
546.33	19740.08
546.50	19374.95
546.67	19679.22
546.83	19543.47
547.00	19896.89
547.17	19428.79
547.34	19641.78
547.50	19583.26
547.67	19599.65
547.84	19459.21
548.00	19803.27
548.17	19950.73
548.34	19672.20
548.51	19976.47
548.67	19859.45
548.84	20081.80
549.01	19768.16
549.18	20032.65
549.34	19859.45
549.51	19796.25
549.68	19857.10
549.84	19805.61
550.01	19662.84
550.18	19740.08
550.34	19943.70
550.51	19878.17
550.68	20168.40
550.84	19688.59
551.01	20217.55
551.18	19800.93
551.34	19812.63
551.51	19854.76
551.68	19990.52
551.84	19974.13
552.01	20049.03
552.18	20273.72
552.34	20144.99
552.51	20437.56
552.68	20144.99
552.84	19913.28
553.01	20231.59
553.18	20032.65
553.34	20292.44
553.51	20163.72
553.67	20056.05
553.84	20269.04
554.01	20238.61
554.17	20292.44
554.34	20276.06
554.51	20222.23
554.67	20484.37
554.84	20247.97
555.00	20107.54
555.17	20327.55
555.33	20271.38
555.50	20442.24
555.67	20390.75
555.83	20020.94
556.00	20074.77
556.16	20505.43
556.33	20112.22
556.50	20219.89
556.66	20355.64
556.83	20147.33
556.99	20556.93
557.16	20577.99
557.32	20624.80
557.49	20676.29
557.65	20432.88
557.82	20365.00
557.98	20566.29
558.15	20535.86
558.32	20414.15
558.48	20463.30
558.65	20446.92
558.81	20594.37
558.98	20496.07
559.14	20636.50
559.31	20706.72
559.47	20659.91
559.64	20547.56
559.80	20905.66
559.97	20704.38
560.13	20510.11
560.30	20889.28
560.46	20695.02
560.63	20655.23
560.79	20692.68
560.96	20432.88
561.12	20833.11
561.29	20828.43
561.45	20643.52
561.61	20870.56
561.78	20971.20
561.94	20620.12
562.11	20835.45
562.27	20760.55
562.44	20919.71
562.60	20617.78
562.77	20987.58
562.93	20418.83
563.10	20884.60
563.26	20926.73
563.42	20973.54
563.59	20987.58
563.75	21202.91
563.92	20858.85
564.08	20851.83
564.24	20512.46
564.41	20713.74
564.57	20973.54
564.74	20849.49
564.90	21034.39
565.07	21146.74
565.23	20886.94
565.39	20844.81
565.56	21020.35
565.72	21099.93
565.88	20938.43
566.05	21102.27
566.21	20926.73
566.38	20966.52
566.54	20830.77
566.70	20891.62
566.87	21060.14
567.03	21235.68
567.19	21202.91
567.36	21200.57
567.52	20697.36
567.68	20765.23
567.85	20882.26
568.01	20790.98
568.17	20751.19
568.34	21301.22
568.50	21259.09
568.66	20931.41
568.83	21315.26
568.99	21064.82
569.15	21050.78
569.32	21399.52
569.48	20900.98
569.64	21125.68
569.81	21074.18
569.97	20982.90
570.13	21223.98
570.30	21036.74
570.46	21088.23
570.62	20978.22
570.78	21245.04
570.95	20833.11
571.11	21165.46
571.27	21202.91
571.43	20833.11
571.60	20842.47
571.76	21373.77
571.92	21170.15
572.09	21109.29
572.25	21181.85
572.41	20868.22
572.57	20950.14
572.74	21638.25
572.90	20655.23
573.06	20868.22
573.22	21294.19
573.38	21043.76
573.55	21214.62
573.71	21486.12
573.87	21151.42
574.03	21448.67
574.20	21273.13
574.36	21362.07
574.52	21467.39
574.68	21537.61
574.84	21408.88
575.01	21593.78
575.17	21280.15
575.33	21420.58
575.49	21048.44
575.65	21671.02
575.82	21535.27
575.98	21387.82
576.14	21319.94
576.30	21308.24
576.46	21399.52
576.62	21219.30
576.79	21102.27
576.95	21296.53
577.11	21212.28
577.27	21432.29
577.43	21289.51
577.59	21469.73
577.75	21256.75
577.92	21165.46
578.08	21036.74
578.24	21247.38
578.40	21284.83
578.56	21432.29
578.72	21462.71
578.88	21738.90
579.04	21525.91
579.21	21380.79
579.37	21486.12
579.53	21128.02
579.69	21490.80
579.85	21188.87
580.01	21397.18
580.17	21762.30
580.33	21390.16
580.49	21254.40
580.65	21294.19
580.82	21092.91
580.98	21413.56
581.14	21333.98
581.30	21343.35
581.46	21376.11
581.62	21329.30
581.78	21542.29
581.94	21249.72
582.10	21343.35
582.26	21685.06
582.42	21495.48
582.58	21752.94
582.74	21551.65
582.90	21603.14
583.06	21577.40
583.22	21710.81
583.38	21549.31
583.54	21439.31
583.70	21493.14
583.86	21617.19
584.02	21771.66
584.18	21649.96
584.34	21504.84
584.50	21790.39
584.66	21483.78
584.82	21528.25
584.98	21649.96
585.14	21654.64
585.30	21528.25
585.46	21551.65
585.62	21537.61
585.78	21584.42
585.94	21589.10
586.10	21671.02
586.26	21614.85
586.42	21462.71
586.58	21619.53
586.74	21565.70
586.90	21380.79
587.06	21247.38
587.22	21589.10
587.38	21589.10
587.54	21500.16
587.70	21745.92
587.86	21481.44
588.02	21266.11
588.18	21827.84
588.34	21453.35
588.49	21509.52
588.65	21376.11
588.81	21399.52
588.97	21467.39
589.13	21530.59
589.29	21589.10
589.45	21766.98
589.61	21523.57
589.77	21537.61
589.93	21425.26
590.08	21598.46
590.24	21624.21
590.40	21661.66
590.56	21577.40
590.72	21558.67
590.88	21811.45
591.04	21598.46
591.20	21710.81
591.35	21804.43
591.51	21930.82
591.67	21790.39
591.83	21958.91
591.99	21640.59
592.15	21708.47
592.31	21766.98
592.46	21839.54
