SpectraSuite Data File
++++++++++++++++++++++++++++++++++++
Date: Fri Oct 04 11:39:46 GMT-05:00 2013
User: price-jones
Dark Spectrum Present: No
Reference Spectrum Present: No
Number of Sampled Component Spectra: 1
Spectrometers: USB2+H05261
Integration Time (usec): 100000 (USB2+H05261)
Spectra Averaged: 1 (USB2+H05261)
Boxcar Smoothing: 0 (USB2+H05261)
Correct for Electrical Dark: No (USB2+H05261)
Strobe/Lamp Enabled: No (USB2+H05261)
Correct for Detector Non-linearity: No (USB2+H05261)
Correct for Stray Light: No (USB2+H05261)
Number of Pixels in Processed Spectrum: 2048
>>>>>Begin Processed Spectral Data<<<<<
365.73	112.35
365.92	112.35
366.12	112.35
366.32	0.00
366.52	0.00
366.72	0.00
366.91	0.00
367.11	0.00
367.31	0.00
367.51	0.00
367.70	0.00
367.90	0.00
368.10	0.00
368.30	0.00
368.49	0.00
368.69	91.28
368.89	0.00
369.09	0.00
369.28	0.00
369.48	0.00
369.68	0.00
369.87	0.00
370.07	0.00
370.27	0.00
370.47	177.88
370.66	510.24
370.86	484.49
371.06	510.24
371.25	575.77
371.45	547.69
371.65	482.15
371.84	585.13
372.04	514.92
372.24	552.37
372.44	608.54
372.63	638.97
372.83	713.86
373.03	613.22
373.22	624.92
373.42	624.92
373.62	587.47
373.81	660.03
374.01	697.48
374.21	720.88
374.40	716.20
374.60	713.86
374.79	638.97
374.99	713.86
375.19	760.67
375.38	678.76
375.58	753.65
375.78	772.38
375.97	805.14
376.17	847.27
376.37	709.18
376.56	779.40
376.76	800.46
376.95	727.91
377.15	781.74
377.35	746.63
377.54	819.19
377.74	847.27
377.93	781.74
378.13	816.85
378.33	887.06
378.52	856.64
378.72	809.83
378.91	807.48
379.11	847.27
379.31	791.10
379.50	809.83
379.70	903.45
379.89	863.66
380.09	877.70
380.28	964.30
380.48	952.60
380.68	933.87
380.87	875.36
381.07	976.00
381.26	968.98
381.46	943.24
381.65	926.85
381.85	903.45
382.04	980.68
382.24	964.30
382.43	978.34
382.63	1022.81
382.83	1060.26
383.02	1100.05
383.22	1053.24
383.41	1076.65
383.61	1062.60
383.80	1081.33
384.00	1128.14
384.19	1048.56
384.39	1149.20
384.58	1081.33
384.78	1046.22
384.97	1048.56
385.17	990.05
385.36	1123.46
385.56	1153.88
385.75	1104.73
385.95	1144.52
386.14	1203.04
386.34	1109.41
386.53	1132.82
386.72	1153.88
386.92	1177.29
387.11	1177.29
387.31	1055.58
387.50	1188.99
387.70	1212.40
387.89	1252.19
388.09	1151.54
388.28	1313.04
388.48	1270.91
388.67	1284.95
388.86	1308.36
389.06	1224.10
389.25	1322.40
389.45	1210.06
389.64	1341.13
389.84	1299.00
390.03	1362.19
390.22	1362.19
390.42	1338.79
390.61	1411.34
390.81	1404.32
391.00	1448.79
391.19	1493.26
391.39	1462.83
391.58	1366.87
391.78	1474.54
391.97	1481.56
392.16	1411.34
392.36	1563.48
392.55	1481.56
392.75	1537.73
392.94	1589.22
393.13	1516.67
393.33	1577.52
393.52	1537.73
393.71	1568.16
393.91	1605.61
394.10	1584.54
394.29	1614.97
394.49	1640.72
394.68	1647.74
394.88	1502.62
395.07	1729.66
395.26	1788.17
395.46	1675.82
395.65	1750.72
395.84	1762.42
396.04	1750.72
396.23	1717.95
396.42	1746.04
396.62	1893.49
396.81	1760.08
397.00	1816.26
397.19	1919.24
397.39	1872.43
397.58	1879.45
397.77	1816.26
397.97	1900.52
398.16	1863.07
398.35	1825.62
398.55	1898.17
398.74	2069.03
398.93	1996.48
399.12	2005.84
399.32	1898.17
399.51	1870.09
399.70	1989.46
399.90	1982.43
400.09	2017.54
400.28	2101.80
400.47	2134.57
400.67	2115.84
400.86	2076.06
401.05	2101.80
401.24	2143.93
401.44	2214.15
401.63	2153.29
401.82	2354.58
402.01	2197.76
402.21	2399.05
402.40	2396.71
402.59	2443.52
402.78	2244.57
402.97	2422.45
403.17	2408.41
403.36	2427.14
403.55	2370.96
403.74	2401.39
403.93	2480.97
404.13	2621.40
404.32	2574.59
404.51	2609.70
404.70	2546.50
404.89	2448.20
405.09	2651.83
405.28	2551.18
405.47	2647.15
405.66	2642.46
405.85	2813.32
406.05	2668.21
406.24	2609.70
406.43	2565.23
406.62	2796.94
406.81	2857.79
407.00	2827.37
407.20	2780.56
407.39	2878.86
407.58	2862.48
407.77	2888.22
407.96	2937.37
408.15	2904.60
408.34	2878.86
408.54	2932.69
408.73	2906.95
408.92	3014.61
409.11	3138.66
409.30	3056.74
409.49	3061.42
409.68	3133.98
409.87	3035.67
410.07	3157.38
410.26	3225.26
410.45	3124.62
410.64	3145.68
410.83	3311.86
411.02	3323.56
411.21	3309.52
411.40	3213.56
411.59	3424.20
411.78	3468.67
411.98	3403.14
412.17	3557.61
412.36	3637.19
412.55	3669.96
412.74	3714.43
412.93	3691.02
413.12	3576.34
413.31	3735.50
413.50	3754.22
413.69	3854.86
413.88	3955.51
414.07	3864.22
414.26	4018.70
414.45	3962.53
414.64	3957.85
414.83	4182.54
415.02	4170.83
415.22	4231.69
415.41	4313.61
415.60	4332.33
415.79	4159.13
415.98	4440.00
416.17	4320.63
416.36	4383.82
416.55	4465.74
416.74	4390.84
416.93	4582.77
417.12	4500.85
417.31	4613.20
417.50	4652.98
417.69	4610.86
417.88	4592.13
418.07	4681.07
418.26	4620.22
418.45	4844.91
418.64	4849.59
418.83	4908.10
419.02	5025.13
419.21	4840.23
419.39	4971.30
419.58	4870.65
419.77	4840.23
419.96	5064.92
420.15	5160.88
420.34	4887.04
420.53	5188.97
420.72	5163.22
420.91	5184.29
421.10	5132.79
421.29	5345.78
421.48	5224.08
421.67	5329.40
421.86	5280.25
422.05	5408.98
422.24	5210.03
422.43	5392.59
422.61	5371.53
422.80	5448.77
422.99	5376.21
423.18	5556.43
423.37	5413.66
423.56	5556.43
423.75	5469.83
423.94	5528.35
424.13	5130.45
424.32	5298.97
424.50	5537.71
424.69	5650.05
424.88	5603.24
425.07	5582.18
425.26	5458.13
425.45	5605.58
425.64	5593.88
425.83	5458.13
426.01	5668.78
426.20	5645.37
426.39	5664.10
426.58	5603.24
426.77	5664.10
426.96	5638.35
427.15	5694.52
427.33	5785.80
427.52	5596.22
427.71	5893.47
427.90	5804.53
428.09	5806.87
428.28	5865.38
428.46	5947.30
428.65	6108.80
428.84	6193.06
429.03	6223.48
429.22	5951.98
429.40	6164.97
429.59	6218.80
429.78	5947.30
429.97	5849.00
430.16	6008.16
430.34	6260.93
430.53	6487.96
430.72	6326.47
430.91	6202.42
431.10	6333.49
431.28	6366.26
431.47	6530.09
431.66	6539.46
431.85	6448.18
432.03	6548.82
432.22	6628.40
432.41	6745.42
432.60	6752.45
432.79	6609.67
432.97	6494.99
433.16	6724.36
433.35	6789.89
433.54	6750.10
433.72	6785.21
433.91	6696.27
434.10	6916.28
434.28	6836.70
434.47	7040.33
434.66	7129.27
434.85	7129.27
435.03	7239.28
435.22	7269.70
435.41	7543.55
435.59	7613.76
435.78	7522.48
435.97	7517.80
436.16	7332.90
436.34	7201.83
436.53	7311.83
436.72	7531.84
436.90	7400.77
437.09	7569.29
437.28	7222.89
437.46	7501.42
437.65	7590.36
437.84	7534.18
438.02	7499.08
438.21	7728.45
438.40	7461.63
438.58	7892.29
438.77	7936.76
438.96	7838.45
439.14	8032.72
439.33	8133.36
439.52	8128.68
439.70	8191.88
439.89	8175.49
440.08	8341.67
440.26	8365.07
440.45	8163.79
440.63	8601.47
440.82	8510.19
441.01	8388.48
441.19	8615.51
441.38	8505.51
441.57	8706.79
441.75	8678.71
441.94	8910.42
442.12	8915.10
442.31	8947.87
442.50	9064.89
442.68	9231.07
442.87	9111.71
443.05	9163.20
443.24	9273.20
443.43	9121.07
443.61	9305.97
443.80	9303.63
443.98	9226.39
444.17	8915.10
444.35	9479.17
444.54	9544.70
444.73	9493.21
444.91	9352.78
445.10	9430.02
445.28	9387.89
445.47	9359.80
445.65	9371.50
445.84	9558.75
446.02	9643.01
446.21	9540.02
446.39	9509.60
446.58	9411.29
446.77	9764.72
446.95	9362.14
447.14	9565.77
447.32	9593.86
447.51	9394.91
447.69	9537.68
447.88	9554.07
448.06	9561.09
448.25	9444.06
448.43	9579.81
448.62	9900.47
448.80	9638.33
448.99	9745.99
449.17	10052.60
449.36	9818.55
449.54	10022.17
449.73	10090.05
449.91	10120.48
450.10	10284.31
450.28	10225.80
450.46	10235.16
450.65	10333.47
450.83	10235.16
451.02	10293.68
451.20	10452.83
451.39	10504.32
451.57	10375.59
451.76	10183.67
451.94	10541.77
452.13	10513.69
452.31	10565.18
452.49	10516.03
452.68	10616.67
452.86	10511.35
453.05	10796.89
453.23	10766.46
453.42	10745.40
453.60	10740.72
453.78	10611.99
453.97	10576.88
454.15	10946.69
454.34	10808.59
454.52	11290.74
454.70	11077.76
454.89	11117.54
455.07	10974.77
455.26	11321.17
455.44	11239.25
455.62	11171.38
455.81	11197.12
455.99	11461.60
456.17	11442.88
456.36	11173.72
456.54	11700.34
456.73	11789.28
456.91	11934.39
457.09	11800.98
457.28	12105.25
457.46	11857.15
457.64	11981.20
457.83	12084.19
458.01	11826.73
458.19	12070.14
458.38	12067.80
458.56	12067.80
458.74	12248.02
458.93	12177.81
459.11	12219.94
459.29	12145.04
459.48	12390.80
459.66	12437.61
459.84	12360.37
460.03	12458.67
460.21	12514.84
460.39	12301.86
460.57	12599.10
460.76	12641.23
460.94	12720.81
461.12	12840.18
461.31	12903.37
461.49	12933.80
461.67	12556.97
461.85	13200.62
462.04	13020.40
462.22	13408.93
462.40	13116.36
462.59	13097.64
462.77	13102.32
462.95	13273.18
463.13	13034.44
463.32	13549.36
463.50	13432.33
463.68	13341.05
463.86	13345.73
464.05	13481.49
464.23	13420.63
464.41	13689.79
464.59	13425.31
464.78	13954.27
464.96	13741.29
465.14	13504.89
465.32	13727.24
465.50	14036.19
465.69	14036.19
465.87	13834.91
466.05	13804.48
466.23	13642.98
466.41	13855.97
466.60	14324.08
466.78	13994.06
466.96	14010.45
467.14	13839.59
467.32	14090.02
467.51	14195.35
467.69	14202.37
467.87	14333.44
468.05	14300.67
468.23	14038.53
468.41	14455.15
468.60	14326.42
468.78	14291.31
468.96	14394.29
469.14	14368.55
469.32	14904.53
469.50	14403.66
469.69	15108.16
469.87	15159.65
470.05	14918.57
470.23	15124.54
470.41	15136.24
470.59	15143.27
470.77	14937.30
470.95	14984.11
471.14	15695.63
471.32	14930.28
471.50	15410.09
471.68	15613.71
471.86	15557.54
472.04	15573.92
472.22	15910.96
472.40	15653.50
472.58	15815.00
472.77	16133.31
472.95	16170.76
473.13	16678.66
473.31	16006.92
473.49	15688.61
473.67	16318.22
473.85	16489.07
474.03	16676.32
474.21	16517.16
474.39	16819.09
474.57	17214.64
474.75	17121.02
474.93	17088.25
475.12	17057.82
475.30	17298.90
475.48	17495.50
475.66	17413.59
475.84	17483.80
476.02	17919.14
476.20	17624.23
476.38	18003.40
476.56	18366.18
476.74	18148.51
476.92	18239.79
477.10	18427.04
477.28	18665.77
477.46	18728.97
477.64	18808.54
477.82	18934.93
478.00	19307.08
478.18	19379.64
478.36	19426.45
478.54	19943.70
478.72	19711.99
478.90	20095.84
479.08	20049.03
479.26	20236.27
479.44	20304.15
479.62	20669.27
479.80	21008.65
479.98	20922.05
480.16	21174.83
480.34	20769.91
480.52	21420.58
480.70	21345.69
480.88	20971.20
481.06	21745.92
481.24	21593.78
481.41	21881.67
481.59	22141.47
481.77	22904.48
481.95	22721.92
482.13	22916.19
482.31	22712.56
482.49	23119.81
482.67	23529.41
482.85	23358.55
483.03	23978.79
483.21	24056.03
483.39	24318.17
483.57	24346.25
483.74	24084.11
483.92	24322.85
484.10	24430.51
484.28	25233.32
484.46	25532.90
484.64	25947.18
484.82	25273.10
485.00	25893.35
485.18	26281.88
485.35	26405.92
485.53	26335.71
485.71	26738.28
485.89	27283.62
486.07	27133.83
486.25	27365.54
486.43	27480.23
486.61	27550.45
486.78	28041.96
486.96	27880.46
487.14	28591.98
487.32	28489.00
487.50	28519.43
487.68	28734.76
487.85	29663.95
488.03	29509.47
488.21	29844.17
488.39	29940.13
488.57	30164.82
488.75	30576.76
488.92	30497.18
489.10	30916.14
489.28	30656.34
489.46	31604.25
489.64	31276.58
489.81	32329.82
489.99	32222.16
490.17	31819.58
490.35	32521.74
490.53	32488.98
490.70	33006.23
490.88	32664.52
491.06	33453.28
491.24	33106.88
491.41	33495.41
491.59	33397.10
491.77	33619.46
491.95	34071.18
492.13	34274.80
492.30	34419.92
492.48	34698.44
492.66	34747.59
492.84	34974.63
493.01	35627.63
493.19	35770.41
493.37	35866.37
493.54	35768.07
493.72	36121.49
493.90	36423.42
494.08	36638.75
494.25	36835.35
494.43	37324.52
494.61	37359.63
494.79	37914.34
494.96	37385.38
495.14	37757.52
495.32	38450.32
495.49	38548.62
495.67	38354.36
495.85	39007.37
496.02	39276.53
496.20	38967.58
496.38	39309.30
496.55	39402.92
496.73	40252.53
496.91	40226.79
497.09	40428.07
497.26	40280.62
497.44	40524.04
497.62	40760.43
497.79	40854.05
497.97	41127.89
498.14	41361.95
498.32	41696.64
498.50	41933.04
498.67	41720.05
498.85	41670.90
499.03	42412.85
499.20	42190.50
499.38	42169.43
499.56	42902.02
499.73	43152.46
499.91	43311.61
500.08	43295.23
500.26	42997.98
500.44	43416.94
500.61	43281.19
500.79	43725.89
500.97	43772.70
501.14	44659.76
501.32	44355.49
501.49	44341.45
501.67	44304.00
501.84	44460.82
502.02	44222.08
502.20	44875.09
502.37	45415.76
502.55	45280.00
502.72	45478.95
502.90	45029.57
503.07	45200.43
503.25	45694.28
503.43	45221.49
503.60	45986.85
503.78	46700.71
503.95	46153.02
504.13	46424.53
504.30	46206.86
504.48	45944.72
504.65	46784.97
504.83	46707.73
505.01	47419.25
505.18	46791.99
505.36	48004.39
505.53	47379.46
505.71	47079.88
505.88	47569.05
506.06	47271.80
506.23	47693.10
506.41	47840.55
506.58	47849.91
506.76	48140.14
506.93	48390.58
507.11	47838.21
507.28	48486.54
507.46	48423.34
507.63	48816.55
507.81	49165.29
507.98	48685.48
508.16	48701.87
508.33	49003.80
508.50	49261.26
508.68	49303.38
508.85	49710.64
509.03	49610.00
509.20	50213.85
509.38	50131.93
509.55	50160.02
509.73	49762.13
509.90	50263.00
510.08	49918.95
510.25	50293.43
510.42	50281.73
510.60	51023.68
510.77	50740.47
510.95	51302.20
511.12	50539.19
511.30	50752.18
511.47	50979.21
511.64	51133.68
511.82	51606.47
511.99	51234.33
512.17	51384.12
512.34	51559.66
512.51	51547.96
512.69	51868.61
512.86	51732.86
513.04	52123.73
513.21	52205.65
513.38	52128.41
513.56	52420.98
513.73	52367.15
513.90	52243.10
514.08	52207.99
514.25	52559.07
514.43	52694.82
514.60	52645.67
514.77	52870.36
514.95	53104.41
515.12	52673.76
515.29	52776.74
515.47	52919.51
515.64	53256.55
515.81	53434.43
515.99	53528.05
516.16	53661.46
516.33	53471.88
516.51	53743.38
516.68	53345.49
516.85	53502.31
517.03	53694.23
517.20	53811.26
517.37	53993.82
517.54	53932.96
517.72	54195.10
517.89	54110.85
518.06	54017.22
518.24	53989.14
518.41	53932.96
518.58	54600.02
518.75	54234.89
518.93	54621.08
519.10	54583.63
519.27	54571.93
519.45	54564.91
519.62	54642.15
519.79	54646.83
519.96	54658.53
520.14	54829.39
520.31	54869.18
520.48	55229.62
520.65	55056.42
520.83	55339.63
521.00	55033.02
521.17	55189.83
521.34	55100.89
521.52	55564.32
521.69	55578.36
521.86	55571.34
522.03	55742.20
522.20	55739.86
522.38	55798.37
522.55	55772.63
522.72	55805.39
522.89	56013.70
523.07	56023.06
523.24	56009.02
523.41	56339.04
523.58	56088.60
523.75	56416.27
523.92	56240.73
524.10	56369.46
524.27	56273.50
524.44	56453.72
524.61	56708.84
524.78	56561.39
524.96	56774.37
525.13	56893.74
525.30	56868.00
525.47	56882.04
525.64	56989.70
525.81	56889.06
525.98	56982.68
526.16	57050.56
526.33	57029.49
526.50	57162.90
526.67	57144.18
526.84	57146.52
527.01	57144.18
527.18	57223.76
527.36	57549.09
527.53	57364.19
527.70	57893.15
527.87	57616.97
528.04	57528.03
528.21	57708.25
528.38	57577.18
528.55	57574.84
528.72	57675.48
528.89	57890.81
529.07	57904.85
529.24	57497.60
529.41	58005.50
529.58	57815.91
529.75	57897.83
529.92	57862.72
530.09	57853.36
530.26	58042.95
530.43	58026.56
530.60	58127.20
530.77	57998.48
530.94	58291.04
531.11	58136.57
531.28	58312.11
531.46	58024.22
531.63	58375.30
531.80	58457.22
531.97	58710.00
532.14	58499.35
532.31	58653.82
532.48	58389.34
532.65	58597.65
532.82	58745.11
532.99	58820.00
533.16	58728.72
533.33	58707.66
533.50	58983.84
533.67	58946.39
533.84	58766.17
534.01	58749.79
534.18	58934.69
534.35	59185.13
534.52	59075.12
534.69	59016.61
534.86	59255.34
535.03	59096.19
535.20	59152.36
535.37	59250.66
535.54	59199.17
535.71	59035.33
535.88	59313.86
536.05	59388.75
536.22	59512.80
536.38	59529.19
536.55	59498.76
536.72	59580.68
536.89	59526.84
537.06	59592.38
537.23	59540.89
537.40	59676.64
537.57	59632.17
537.74	59728.13
537.91	59917.71
538.08	59908.35
538.25	59803.03
538.42	59678.98
538.59	59887.29
538.75	59632.17
538.92	59702.38
539.09	60062.83
539.26	60037.08
539.43	59922.40
539.60	60221.98
539.77	59906.01
539.94	60299.22
540.11	60133.04
540.28	60186.88
540.44	60303.90
540.61	60383.48
540.78	60275.82
540.95	60465.40
541.12	60441.99
541.29	60755.63
541.46	60617.53
541.62	60444.33
541.79	60610.51
541.96	60329.65
542.13	60584.77
542.30	60610.51
542.47	60898.40
542.63	60837.54
542.80	60886.70
542.97	60954.57
543.14	61176.92
543.31	60706.47
543.48	60977.98
543.64	61137.13
543.81	61158.20
543.98	61233.10
544.15	61226.07
544.32	61300.97
544.48	61364.17
544.65	61228.41
544.82	61162.88
544.99	61125.43
545.16	61378.21
545.32	61244.80
545.49	61689.50
545.66	61801.85
545.83	61879.08
546.00	61942.28
546.16	61574.81
546.33	61485.87
546.50	61214.37
546.67	61694.18
546.83	61265.86
547.00	61513.96
547.17	61523.32
547.34	61736.31
547.50	61820.57
547.67	61790.14
547.84	61715.25
548.00	61708.22
548.17	61843.98
548.34	61691.84
548.51	61853.34
548.67	62019.52
548.84	62003.13
549.01	61918.87
549.18	61946.96
549.34	61986.75
549.51	61858.02
549.68	61961.00
549.84	61726.95
550.01	62092.07
550.18	61975.05
550.34	61975.05
550.51	62234.84
550.68	62365.91
550.84	62094.41
551.01	62358.89
551.18	62136.54
551.34	61998.45
551.51	62003.13
551.68	62258.25
551.84	62337.83
552.01	62347.19
552.18	62272.29
552.34	62401.02
552.51	62363.57
552.68	62197.40
552.84	62260.59
553.01	62588.27
553.18	62321.44
553.34	62597.63
553.51	62518.05
553.67	62770.83
553.84	62756.78
554.01	62798.91
554.17	62754.44
554.34	62667.84
554.51	62635.08
554.67	62625.71
554.84	62681.89
555.00	62667.84
555.17	62731.04
555.33	62843.38
555.50	62628.05
555.67	62754.44
555.83	62518.05
556.00	62752.10
556.16	63054.03
556.33	62670.18
556.50	62819.98
556.66	62901.90
556.83	62920.62
556.99	63103.18
557.16	63128.93
557.32	63098.50
557.49	63140.63
557.65	63014.24
557.82	63135.95
557.98	62967.43
558.15	62974.45
558.32	63171.06
558.48	63203.83
558.65	63164.04
558.81	63154.68
558.98	63189.78
559.14	63157.02
559.31	63032.97
559.47	63044.67
559.64	63164.04
559.80	63267.02
559.97	63344.26
560.13	63091.48
560.30	63210.85
560.46	63276.38
560.63	63355.96
560.79	63264.68
560.96	63613.42
561.12	63063.39
561.29	63311.49
561.45	63463.63
561.61	63475.33
561.78	63620.44
561.94	63472.99
562.11	63437.88
562.27	63538.52
562.44	63449.58
562.60	63510.44
562.77	63543.20
562.93	63409.79
563.10	63700.02
563.26	63578.31
563.42	63615.76
563.59	63622.78
563.75	63627.46
563.92	63798.32
564.08	63552.57
564.24	63709.38
564.41	63482.35
564.57	63494.05
564.74	63681.30
564.90	63709.38
565.07	63950.46
565.23	63884.92
565.39	63756.19
565.56	63667.25
565.72	63597.04
565.88	63842.79
566.05	63669.59
566.21	63690.66
566.38	63805.34
566.54	63667.25
566.70	63896.62
566.87	63994.93
567.03	63791.30
567.19	63987.91
567.36	63856.84
567.52	63716.40
567.68	63934.07
567.85	63732.79
568.01	63896.62
568.17	63803.00
568.34	63877.90
568.50	63983.22
568.66	63959.82
568.83	64048.76
568.99	63735.13
569.15	63945.78
569.32	63777.26
569.48	63791.30
569.64	63964.50
569.81	63941.10
569.97	64011.31
570.13	64034.72
570.30	64027.70
570.46	64175.15
570.62	64069.82
570.78	63934.07
570.95	63721.08
571.11	64074.51
571.27	63604.06
571.43	64034.72
571.60	63896.62
571.76	64023.01
571.92	64015.99
572.09	64123.66
572.25	64154.08
572.41	64154.08
572.57	64116.64
572.74	64231.32
572.90	64025.35
573.06	64135.36
573.22	64161.11
573.38	64116.64
573.55	64205.58
573.71	64327.28
573.87	64346.01
574.03	64198.55
574.20	64172.81
574.36	64165.79
574.52	64111.95
574.68	64315.58
574.84	64346.01
575.01	64341.33
575.17	64198.55
575.33	64219.62
575.49	64233.66
575.65	64313.24
575.82	64364.73
575.98	64395.16
576.14	64413.88
576.30	64306.22
576.46	64271.11
576.62	64278.13
576.79	64179.83
576.95	64186.85
577.11	64383.46
577.27	64282.81
577.43	64376.43
577.59	64093.23
577.75	64369.41
577.92	64196.21
578.08	64060.46
578.24	64364.73
578.40	64254.73
578.56	64247.71
578.72	64418.56
578.88	64673.68
579.04	64596.45
579.21	64413.88
579.37	64514.53
579.53	64561.34
579.69	64303.88
579.85	64212.60
580.01	64343.67
580.17	64123.66
580.33	64338.99
580.49	64467.72
580.65	64460.69
580.82	64390.48
580.98	64514.53
581.14	64418.56
581.30	64411.54
581.46	64416.22
581.62	64402.18
581.78	64219.62
581.94	64479.42
582.10	64441.97
582.26	64491.12
582.42	64551.98
582.58	64647.94
582.74	64594.10
582.90	64659.64
583.06	64580.06
583.22	64477.08
583.38	64486.44
583.54	64259.41
583.70	64434.95
583.86	64526.23
584.02	64430.27
584.18	64493.46
584.34	64596.45
584.50	64626.87
584.66	64523.89
584.82	64329.62
584.98	64516.87
585.14	64575.38
585.30	64327.28
585.46	64537.93
585.62	64350.69
585.78	64666.66
585.94	64341.33
586.10	64491.12
586.26	64530.91
586.42	64661.98
586.58	64739.22
586.74	64458.35
586.90	64568.36
587.06	64472.40
587.22	64701.77
587.38	64512.19
587.54	64830.50
587.70	64633.89
587.86	64722.83
588.02	64793.05
588.18	64814.12
588.34	64741.56
588.49	64891.35
