SpectraSuite Data File
++++++++++++++++++++++++++++++++++++
Date: Fri Oct 04 11:39:58 GMT-05:00 2013
User: price-jones
Dark Spectrum Present: No
Reference Spectrum Present: No
Number of Sampled Component Spectra: 1
Spectrometers: USB2+H05261
Integration Time (usec): 100000 (USB2+H05261)
Spectra Averaged: 1 (USB2+H05261)
Boxcar Smoothing: 0 (USB2+H05261)
Correct for Electrical Dark: No (USB2+H05261)
Strobe/Lamp Enabled: No (USB2+H05261)
Correct for Detector Non-linearity: No (USB2+H05261)
Correct for Stray Light: No (USB2+H05261)
Number of Pixels in Processed Spectrum: 2048
>>>>>Begin Processed Spectral Data<<<<<
365.73	16.38
365.92	16.38
366.12	16.38
366.32	0.00
366.52	0.00
366.72	0.00
366.91	0.00
367.11	0.00
367.31	0.00
367.51	18.72
367.70	0.00
367.90	0.00
368.10	0.00
368.30	0.00
368.49	0.00
368.69	0.00
368.89	0.00
369.09	0.00
369.28	0.00
369.48	0.00
369.68	0.00
369.87	0.00
370.07	35.11
370.27	16.38
370.47	9.36
370.66	18.72
370.86	121.71
371.06	166.18
371.25	131.07
371.45	142.77
371.65	147.45
371.84	119.37
372.04	117.03
372.24	149.79
372.44	124.05
372.63	145.11
372.83	166.18
373.03	152.13
373.22	147.45
373.42	173.20
373.62	135.75
373.81	227.03
374.01	259.80
374.21	184.90
374.40	159.16
374.60	236.39
374.79	215.33
374.99	98.30
375.19	257.46
375.38	236.39
375.58	168.52
375.78	196.60
375.97	119.37
376.17	255.12
376.37	220.01
376.56	121.71
376.76	175.54
376.95	201.29
377.15	255.12
377.35	152.13
377.54	182.56
377.74	205.97
377.93	156.82
378.13	142.77
378.33	215.33
378.52	205.97
378.72	180.22
378.91	187.24
379.11	152.13
379.31	166.18
379.50	49.15
379.70	180.22
379.89	234.05
380.09	191.92
380.28	152.13
380.48	131.07
380.68	170.86
380.87	152.13
381.07	147.45
381.26	168.52
381.46	257.46
381.65	180.22
381.85	163.84
382.04	175.54
382.24	203.63
382.43	168.52
382.63	114.69
382.83	128.73
383.02	205.97
383.22	163.84
383.41	210.65
383.61	154.48
383.80	187.24
384.00	220.01
384.19	245.76
384.39	194.26
384.58	182.56
384.78	220.01
384.97	215.33
385.17	205.97
385.36	166.18
385.56	168.52
385.75	173.20
385.95	215.33
386.14	198.95
386.34	152.13
386.53	170.86
386.72	180.22
386.92	215.33
387.11	252.78
387.31	238.73
387.50	182.56
387.70	224.69
387.89	156.82
388.09	234.05
388.28	229.37
388.48	177.88
388.67	262.14
388.86	231.71
389.06	173.20
389.25	227.03
389.45	236.39
389.64	212.99
389.84	222.35
390.03	217.67
390.22	180.22
390.42	271.50
390.61	140.43
390.81	203.63
391.00	227.03
391.19	290.23
391.39	248.10
391.58	339.38
391.78	205.97
391.97	252.78
392.16	208.31
392.36	311.29
392.55	259.80
392.75	222.35
392.94	208.31
393.13	290.23
393.33	264.48
393.52	224.69
393.71	266.82
393.91	257.46
394.10	236.39
394.29	241.08
394.49	271.50
394.68	252.78
394.88	287.89
395.07	297.25
395.26	236.39
395.46	248.10
395.65	351.08
395.84	294.91
396.04	383.85
396.23	259.80
396.42	227.03
396.62	330.02
396.81	306.61
397.00	351.08
397.19	355.76
397.39	283.20
397.58	400.23
397.77	330.02
397.97	301.93
398.16	365.12
398.35	362.78
398.55	330.02
398.74	306.61
398.93	381.51
399.12	360.44
399.32	344.06
399.51	376.83
399.70	320.65
399.90	337.04
400.09	418.96
400.28	379.17
400.47	320.65
400.67	447.04
400.86	372.15
401.05	400.23
401.24	425.98
401.44	449.38
401.63	472.79
401.82	379.17
402.01	512.58
402.21	425.98
402.40	442.36
402.59	376.83
402.78	449.38
402.97	407.25
403.17	332.36
403.36	484.49
403.55	489.17
403.74	456.40
403.93	458.74
404.13	517.26
404.32	624.92
404.51	571.09
404.70	514.92
404.89	496.19
405.09	526.62
405.28	451.72
405.47	388.53
405.66	472.79
405.85	503.22
406.05	552.37
406.24	578.11
406.43	470.45
406.62	458.74
406.81	596.84
407.00	620.24
407.20	585.13
407.39	599.18
407.58	606.20
407.77	554.71
407.96	683.44
408.15	620.24
408.34	608.54
408.54	601.52
408.73	578.11
408.92	608.54
409.11	592.16
409.30	624.92
409.49	596.84
409.68	645.99
409.87	617.90
410.07	573.43
410.26	734.93
410.45	720.88
410.64	664.71
410.83	636.63
411.02	727.91
411.21	758.33
411.40	763.01
411.59	730.25
411.78	753.65
411.98	730.25
412.17	706.84
412.36	805.14
412.55	737.27
412.74	819.19
412.93	887.06
413.12	882.38
413.31	954.94
413.50	746.63
413.69	940.90
413.88	924.51
414.07	807.48
414.26	931.53
414.45	929.19
414.64	894.08
414.83	887.06
415.02	950.26
415.22	957.28
415.41	1004.09
415.60	947.92
415.79	959.62
415.98	1011.11
416.17	1060.26
416.36	1027.50
416.55	992.39
416.74	1107.07
416.93	1109.41
417.12	1086.01
417.31	1170.27
417.50	1142.18
417.69	1146.86
417.88	1137.50
418.07	1055.58
418.26	1060.26
418.45	1123.46
418.64	1142.18
418.83	1151.54
419.02	1177.29
419.21	1224.10
419.39	1188.99
419.58	1156.22
419.77	1193.67
419.96	1252.19
420.15	1231.12
420.34	1214.74
420.53	1273.25
420.72	1228.78
420.91	1282.61
421.10	1277.93
421.29	1261.55
421.48	1289.64
421.67	1273.25
421.86	1196.01
422.05	1196.01
422.24	1364.53
422.43	1277.93
422.61	1275.59
422.80	1277.93
422.99	1364.53
423.18	1327.08
423.37	1362.19
423.56	1284.95
423.75	1362.19
423.94	1348.15
424.13	1167.93
424.32	1196.01
424.50	1345.81
424.69	1418.36
424.88	1495.60
425.07	1313.04
425.26	1336.45
425.45	1462.83
425.64	1343.47
425.83	1289.64
426.01	1306.02
426.20	1362.19
426.39	1380.92
426.58	1256.87
426.77	1409.00
426.96	1401.98
427.15	1359.85
427.33	1416.02
427.52	1430.07
427.71	1425.39
427.90	1427.73
428.09	1378.58
428.28	1376.24
428.46	1448.79
428.65	1444.11
428.84	1575.18
429.03	1547.09
429.22	1359.85
429.40	1383.26
429.59	1533.05
429.78	1516.67
429.97	1359.85
430.16	1476.88
430.34	1481.56
430.53	1516.67
430.72	1591.56
430.91	1547.09
431.10	1500.28
431.28	1605.61
431.47	1584.54
431.66	1650.08
431.85	1521.35
432.03	1610.29
432.22	1689.87
432.41	1495.60
432.60	1551.78
432.79	1666.46
432.97	1600.93
433.16	1678.16
433.35	1687.53
433.54	1710.93
433.72	1701.57
433.91	1689.87
434.10	1673.48
434.28	1652.42
434.47	1586.88
434.66	1692.21
434.85	1652.42
435.03	1856.04
435.22	2043.29
435.41	2321.81
435.59	2172.02
435.78	2190.74
435.97	1949.67
436.16	1891.15
436.34	1820.94
436.53	1699.23
436.72	1944.99
436.90	1830.30
437.09	1746.04
437.28	1685.19
437.46	1792.85
437.65	1809.23
437.84	1832.64
438.02	1818.60
438.21	1926.26
438.40	1827.96
438.58	1872.43
438.77	1870.09
438.96	1916.90
439.14	1849.02
439.33	2017.54
439.52	1970.73
439.70	1984.77
439.89	1916.90
440.08	2031.58
440.26	2059.67
440.45	1996.48
440.63	2050.31
440.82	2047.97
441.01	2017.54
441.19	2092.44
441.38	1989.46
441.57	2080.74
441.75	2108.82
441.94	2195.42
442.12	2071.37
442.31	2157.97
442.50	2179.04
442.68	2120.53
442.87	2097.12
443.05	2242.23
443.24	2225.85
443.43	2251.60
443.61	2221.17
443.80	2225.85
443.98	2186.06
444.17	2108.82
444.35	2244.57
444.54	2389.69
444.73	2167.34
444.91	2141.59
445.10	2160.31
445.28	2211.81
445.47	2188.40
445.65	2347.56
445.84	2225.85
446.02	2275.00
446.21	2338.20
446.39	2246.91
446.58	2300.75
446.77	2326.49
446.95	2298.41
447.14	2267.98
447.32	2298.41
447.51	2459.90
447.69	2279.68
447.88	2305.43
448.06	2335.85
448.25	2223.51
448.43	2354.58
448.62	2382.67
448.80	2282.02
448.99	2338.20
449.17	2359.26
449.36	2396.71
449.54	2382.67
449.73	2382.67
449.91	2413.09
450.10	2424.80
450.28	2523.10
450.46	2429.48
450.65	2490.33
450.83	2450.54
451.02	2499.69
451.20	2541.82
451.39	2553.52
451.57	2382.67
451.76	2438.84
451.94	2415.43
452.13	2513.74
452.31	2612.04
452.49	2483.31
452.68	2539.48
452.86	2616.72
453.05	2513.74
453.23	2520.76
453.42	2569.91
453.60	2614.38
453.78	2471.61
453.97	2492.67
454.15	2581.61
454.34	2537.14
454.52	2651.83
454.70	2560.55
454.89	2452.88
455.07	2614.38
455.26	2675.23
455.44	2698.64
455.62	2647.15
455.81	2693.96
455.99	2803.96
456.17	2654.17
456.36	2654.17
456.54	2703.32
456.73	2801.62
456.91	2820.35
457.09	2768.85
457.28	2937.37
457.46	2818.00
457.64	2918.65
457.83	2808.64
458.01	2665.87
458.19	2970.14
458.38	2874.18
458.56	2935.03
458.74	2775.88
458.93	2825.03
459.11	2799.28
459.29	2918.65
459.48	2895.24
459.66	2897.58
459.84	2930.35
460.03	3066.10
460.21	2965.46
460.39	2937.37
460.57	2928.01
460.76	3054.40
460.94	2981.84
461.12	3052.06
461.31	2949.08
461.49	3005.25
461.67	2998.23
461.85	3096.53
462.04	3047.38
462.22	3475.70
462.40	3164.40
462.59	3187.81
462.77	2988.86
462.95	3089.51
463.13	2993.55
463.32	3159.72
463.50	3150.36
463.68	3080.14
463.86	3066.10
464.05	3112.91
464.23	3080.14
464.41	3117.59
464.59	3215.90
464.78	3059.08
464.96	3014.61
465.14	3075.46
465.32	3166.74
465.50	3248.66
465.69	3218.24
465.87	3178.45
466.05	3251.00
466.23	3162.06
466.41	3274.41
466.60	3342.28
466.78	3190.15
466.96	3255.69
467.14	3236.96
467.32	3215.90
467.51	3321.22
467.69	3262.71
467.87	3323.56
468.05	3253.34
468.23	3344.63
468.41	3211.22
468.60	3325.90
468.78	3330.58
468.96	3255.69
469.14	3463.99
469.32	3421.86
469.50	3442.93
469.69	3405.48
469.87	3485.06
470.05	3414.84
470.23	3379.73
470.41	3513.14
470.59	3506.12
470.77	3433.57
470.95	3566.98
471.14	3555.27
471.32	3466.33
471.50	3569.32
471.68	3613.79
471.86	3599.74
472.04	3590.38
472.22	3604.42
472.40	3471.01
472.58	3641.87
472.77	3705.07
472.95	3763.58
473.13	3962.53
473.31	3651.24
473.49	3688.68
473.67	3667.62
473.85	3896.99
474.03	3932.10
474.21	4002.32
474.39	3866.56
474.57	3873.59
474.75	3864.22
474.93	4070.19
475.12	3817.41
475.30	3889.97
475.48	3932.10
475.66	3955.51
475.84	3971.89
476.02	4060.83
476.20	4030.40
476.38	3892.31
476.56	4252.75
476.74	4184.88
476.92	4147.43
477.10	4124.02
477.28	4170.83
477.46	4276.16
477.64	4243.39
477.82	4285.52
478.00	4432.97
478.18	4414.25
478.36	4423.61
478.54	4512.55
478.72	4430.63
478.90	4470.42
479.08	4610.86
479.26	4608.51
479.44	4662.35
479.62	4580.43
479.80	4713.84
479.98	4812.14
480.16	4678.73
480.34	4695.11
480.52	4737.24
480.70	4903.42
480.88	4840.23
481.06	4821.50
481.24	4706.82
481.41	4779.37
481.59	4926.83
481.77	5102.37
481.95	5195.99
482.13	5078.96
482.31	5083.64
482.49	5308.34
482.67	5226.42
482.85	5254.50
483.03	5296.63
483.21	5385.57
483.39	5341.10
483.57	5369.19
483.74	5451.11
483.92	5476.85
484.10	5387.91
484.28	5575.16
484.46	5626.65
484.64	5731.97
484.82	5741.33
485.00	5867.72
485.18	5942.62
485.35	5963.68
485.53	5886.45
485.71	6019.86
485.89	6036.24
486.07	5970.71
486.25	6040.92
486.43	6047.94
486.61	6256.25
486.78	6155.61
486.96	6303.06
487.14	6342.85
487.32	6406.05
487.50	6420.09
487.68	6478.60
487.85	6509.03
488.03	6761.81
488.21	6775.85
488.39	6803.94
488.57	6839.05
488.75	6785.21
488.92	7215.87
489.10	6904.58
489.28	6899.90
489.46	7035.65
489.64	6719.68
489.81	7150.34
489.99	7204.17
490.17	7035.65
490.35	7236.94
490.53	7260.34
490.70	7185.44
490.88	7255.66
491.06	7265.02
491.24	7133.95
491.41	7274.38
491.59	7417.16
491.77	7602.06
491.95	7527.16
492.13	7463.97
492.30	7632.49
492.48	7765.90
492.66	7735.47
492.84	7691.00
493.01	7726.11
493.19	7873.56
493.37	8042.08
493.54	7859.52
493.72	8028.04
493.90	7964.84
494.08	7999.95
494.25	8194.22
494.43	8306.56
494.61	8236.35
494.79	8226.98
494.96	8304.22
495.14	8259.75
495.32	8461.04
495.49	8423.59
495.67	8414.23
495.85	8334.65
496.02	8685.73
496.20	8627.21
496.38	8465.72
496.55	8477.42
496.73	8594.45
496.91	8802.75
497.09	8695.09
497.26	8753.60
497.44	8858.93
497.62	8924.46
497.79	8784.03
497.97	8704.45
498.14	9107.02
498.32	9214.69
498.50	9116.39
498.67	9247.46
498.85	9022.77
499.03	9444.06
499.20	9247.46
499.38	9259.16
499.56	9528.32
499.73	9493.21
499.91	9488.53
500.08	9266.18
500.26	9362.14
500.44	9593.86
500.61	9729.61
500.79	9507.26
500.97	9563.43
501.14	9692.16
501.32	9722.59
501.49	9671.09
501.67	9802.16
501.84	9734.29
502.02	9809.19
502.20	9914.51
502.37	10050.26
502.55	9914.51
502.72	9820.89
502.90	10211.76
503.07	9973.02
503.25	9998.77
503.43	10008.13
503.60	10118.14
503.78	10101.75
503.95	10090.05
504.13	9909.83
504.30	10097.07
504.48	10076.01
504.65	10211.76
504.83	10321.76
505.01	10480.92
505.18	10237.50
505.36	10553.48
505.53	10389.64
505.71	10244.52
505.88	10429.43
506.06	10387.30
506.23	10647.10
506.41	10745.40
506.58	10719.65
506.76	10853.06
506.93	10611.99
507.11	10516.03
507.28	10757.10
507.46	10740.72
507.63	11040.31
507.81	10801.57
507.98	10733.70
508.16	11012.22
508.33	10939.66
508.50	11005.20
508.68	11110.52
508.85	11211.17
509.03	10813.28
509.20	11143.29
509.38	11171.38
509.55	11253.30
509.73	11166.70
509.90	11220.53
510.08	11192.44
510.25	11187.76
510.42	11351.60
510.60	11253.30
510.77	11487.35
510.95	11461.60
511.12	11417.13
511.30	11515.44
511.47	11609.06
511.64	11606.72
511.82	12042.06
511.99	11695.66
512.17	11569.27
512.34	11758.85
512.51	11838.43
512.69	11913.33
512.86	11833.75
513.04	11719.06
513.21	11992.90
513.38	11733.11
513.56	11901.62
513.73	11824.39
513.90	12046.74
514.08	11857.15
514.25	11880.56
514.43	12358.03
514.60	12280.79
514.77	12166.10
514.95	12215.26
515.12	12198.87
515.29	12109.93
515.47	12123.98
515.64	12290.15
515.81	12306.54
515.99	12463.35
516.16	12280.79
516.33	12252.70
516.51	12645.91
516.68	11988.22
516.85	12409.52
517.03	12549.95
517.20	12493.78
517.37	12486.76
517.54	12397.82
517.72	12620.17
517.89	12571.02
518.06	12592.08
518.24	12730.17
518.41	12676.34
518.58	12767.62
518.75	12620.17
518.93	12793.37
519.10	12959.55
519.27	13041.46
519.45	12931.46
519.62	12884.65
519.79	12929.12
519.96	12940.82
520.14	12982.95
520.31	12882.31
520.48	13224.03
520.65	13245.09
520.83	13144.45
521.00	13327.01
521.17	12978.27
521.34	13151.47
521.52	13207.64
521.69	13184.24
521.86	13429.99
522.03	13584.47
522.20	13319.99
522.38	13369.14
522.55	13523.62
522.72	13275.52
522.89	13689.79
523.07	13540.00
523.24	13582.13
523.41	13598.51
523.58	13411.27
523.75	13568.09
523.92	13568.09
524.10	13399.57
524.27	13444.04
524.44	13846.61
524.61	13607.87
524.78	13694.47
524.96	13561.06
525.13	13785.76
525.30	13722.56
525.47	13762.35
525.64	14024.49
525.81	13855.97
525.98	14043.21
526.16	13968.32
526.33	14036.19
526.50	14022.15
526.67	13893.42
526.84	13919.17
527.01	13947.25
527.18	14389.61
527.36	14092.37
527.53	14120.45
527.70	14111.09
527.87	14251.52
528.04	14480.89
528.21	14281.95
528.38	14288.97
528.55	14157.90
528.72	14476.21
528.89	14305.35
529.07	14232.80
529.24	14408.34
529.41	14604.94
529.58	14305.35
529.75	14382.59
529.92	14431.74
530.09	14581.54
530.26	14466.85
530.43	14387.27
530.60	14473.87
530.77	14534.73
530.94	14803.89
531.11	14263.22
531.28	14263.22
531.46	14665.80
531.63	14682.18
531.80	14787.50
531.97	14588.56
532.14	14714.95
532.31	14719.63
532.48	14698.56
532.65	14731.33
532.82	14710.27
532.99	14850.70
533.16	14857.72
533.33	14857.72
533.50	15009.86
533.67	15267.31
533.84	14618.99
534.01	15068.37
534.18	14906.87
534.35	15108.16
534.52	14871.76
534.69	15379.66
534.86	15140.93
535.03	15145.61
535.20	15112.84
535.37	15033.26
535.54	15424.13
535.71	15119.86
535.88	15393.70
536.05	15300.08
536.22	15152.63
536.38	15398.38
536.55	15171.35
536.72	15192.42
536.89	15084.75
537.06	14951.34
537.23	15166.67
537.40	15524.77
537.57	15311.78
537.74	15246.25
537.91	15576.27
538.08	15644.14
538.25	15412.43
538.42	15449.88
538.59	15428.81
538.75	15438.17
538.92	15569.24
539.09	15569.24
539.26	15630.10
539.43	15578.61
539.60	16119.27
539.77	15693.29
539.94	15946.07
540.11	15906.28
540.28	15875.85
540.44	15920.32
540.61	16088.84
540.78	16058.42
540.95	16222.25
541.12	16489.07
541.29	16407.16
541.46	16699.72
541.62	16105.23
541.79	16823.77
541.96	16137.99
542.13	16273.74
542.30	16264.38
542.47	16379.07
542.63	16173.10
542.80	16734.83
542.97	16540.57
543.14	16320.56
543.31	16578.01
543.48	16271.40
543.64	16503.12
543.81	16917.39
543.98	16538.23
544.15	16786.32
544.32	16877.60
544.48	16807.39
544.65	16830.79
544.82	16615.46
544.99	16697.38
545.16	16585.04
545.32	16697.38
545.49	17331.67
545.66	17811.48
545.83	17867.65
546.00	17645.30
546.16	17214.64
546.33	16917.39
546.50	16919.73
546.67	16905.69
546.83	16755.90
547.00	16498.44
547.17	16540.57
547.34	16334.60
547.50	16891.65
547.67	17036.76
547.84	16585.04
548.00	16617.80
548.17	16699.72
548.34	16788.66
548.51	17008.67
548.67	16772.28
548.84	16854.20
549.01	16580.36
549.18	16652.91
549.34	16959.52
549.51	16992.29
549.68	16896.33
549.84	16870.58
550.01	16723.13
550.18	16769.94
550.34	16741.85
550.51	16856.54
550.68	16758.24
550.84	16945.48
551.01	16779.30
551.18	16500.78
551.34	16744.19
551.51	16884.62
551.68	16931.44
551.84	16779.30
552.01	17011.01
552.18	17301.24
552.34	16821.43
552.51	17020.38
552.68	16702.06
552.84	16830.79
553.01	16931.44
553.18	17008.67
553.34	16713.77
553.51	16884.62
553.67	16833.13
553.84	16936.12
554.01	17181.87
554.17	16889.31
554.34	16886.97
554.51	16713.77
554.67	16849.52
554.84	17151.45
555.00	17261.45
555.17	17027.40
555.33	17441.67
555.50	16879.94
555.67	16971.22
555.83	16765.26
556.00	17046.12
556.16	17097.61
556.33	16879.94
556.50	17001.65
556.66	17048.46
556.83	17095.27
556.99	17369.12
557.16	17046.12
557.32	17149.11
557.49	17179.53
557.65	17095.27
557.82	17228.68
557.98	16933.78
558.15	17001.65
558.32	17242.73
558.48	17074.21
558.65	17177.19
558.81	17193.58
558.98	17289.54
559.14	17303.58
559.31	17067.19
559.47	17259.11
559.64	17224.00
559.80	17252.09
559.97	17216.98
560.13	17144.42
560.30	17221.66
560.46	17275.49
560.63	17486.14
560.79	17130.38
560.96	17118.68
561.12	17254.43
561.29	17254.43
561.45	17296.56
561.61	17029.74
561.78	17345.71
561.94	17207.62
562.11	17238.05
562.27	17191.23
562.44	17158.47
562.60	17184.21
562.77	17326.99
562.93	17226.34
563.10	17280.18
563.26	17280.18
563.42	17350.39
563.59	17376.14
563.75	17460.40
563.92	17326.99
564.08	17441.67
564.24	17326.99
564.41	17348.05
564.57	17053.14
564.74	17535.29
564.90	17383.16
565.07	17254.43
565.23	17345.71
565.39	17525.93
565.56	17352.73
565.72	17366.78
565.88	17357.41
566.05	17425.29
566.21	17542.32
566.38	17411.25
566.54	17603.17
566.70	17516.57
566.87	17603.17
567.03	17259.11
567.19	17490.82
567.36	17626.57
567.52	17198.26
567.68	17584.44
567.85	17420.61
568.01	17472.10
568.17	17448.69
568.34	17624.23
568.50	17638.28
568.66	17544.66
568.83	17614.87
568.99	17224.00
569.15	17500.19
569.32	17380.82
569.48	17198.26
569.64	17638.28
569.81	17614.87
569.97	17720.20
570.13	17661.68
570.30	17528.27
570.46	17680.41
570.62	17394.86
570.78	17584.44
570.95	17537.63
571.11	17488.48
571.27	17343.37
571.43	17350.39
571.60	17427.63
571.76	17371.46
571.92	17596.15
572.09	17570.40
572.25	17507.21
572.41	17734.24
572.57	17987.02
572.74	17668.70
572.90	17659.34
573.06	17469.76
573.22	17530.61
573.38	17451.03
573.55	17736.58
573.71	17687.43
573.87	17724.88
574.03	17542.32
574.20	17422.95
574.36	17759.98
574.52	17483.80
574.68	17921.48
574.84	17649.98
575.01	17366.78
575.17	17729.56
575.33	17874.67
575.49	17570.40
575.65	17834.88
575.82	17958.93
575.98	17542.32
576.14	17734.24
576.30	17706.15
576.46	17902.76
576.62	17872.33
576.79	17701.47
576.95	17781.05
577.11	17575.08
577.27	17998.72
577.43	17767.01
577.59	17752.96
577.75	17710.83
577.92	17624.23
578.08	17582.10
578.24	17514.23
578.40	17701.47
578.56	17617.21
578.72	17628.92
578.88	17884.03
579.04	18082.98
579.21	17811.48
579.37	17631.26
579.53	17664.02
579.69	17659.34
579.85	17846.58
580.01	17928.50
580.17	17680.41
580.33	17640.62
580.49	17537.63
580.65	17774.03
580.82	17572.74
580.98	17722.54
581.14	17699.13
581.30	17804.46
581.46	17750.62
581.62	17525.93
581.78	17741.26
581.94	17888.71
582.10	17783.39
582.26	17888.71
582.42	17799.77
582.58	17811.48
582.74	18099.36
582.90	17640.62
583.06	17799.77
583.22	17830.20
583.38	17841.90
583.54	17759.98
583.70	17544.66
583.86	17785.73
584.02	17757.64
584.18	17790.41
584.34	18150.85
584.50	17947.23
584.66	17764.67
584.82	17940.21
584.98	18066.60
585.14	17708.49
585.30	17743.60
585.46	17467.42
585.62	17544.66
585.78	17895.74
585.94	17612.53
586.10	17680.41
586.26	17673.39
586.42	17989.36
586.58	18183.62
586.74	17834.88
586.90	17743.60
587.06	17792.75
587.22	17767.01
587.38	17958.93
587.54	18010.42
587.70	18277.24
587.86	17558.70
588.02	18033.83
588.18	17881.69
588.34	17804.46
588.49	17743.60
588.65	17549.34
588.81	17839.56
588.97	17795.09
589.13	17827.86
589.29	17853.61
589.45	17717.86
589.61	17762.33
589.77	17493.16
589.93	17832.54
590.08	17741.26
590.24	17891.06
590.40	18024.47
590.56	17853.61
590.72	17818.50
590.88	17926.16
591.04	17605.51
591.20	17783.39
591.35	17722.54
591.51	17909.78
591.67	17799.77
591.83	18160.22
591.99	17947.23
592.15	18005.74
592.31	18026.81
592.46	17619.55
592.62	17841.90
592.78	17858.29
592.94	17940.21
593.10	18150.85
593.26	17881.69
