SpectraSuite Data File
++++++++++++++++++++++++++++++++++++
Date: Tue Oct 01 18:27:25 GMT-05:00 2013
User: stostad
Dark Spectrum Present: No
Reference Spectrum Present: No
Number of Sampled Component Spectra: 1
Spectrometers: USB2+H05261
Integration Time (usec): 100000 (USB2+H05261)
Spectra Averaged: 1 (USB2+H05261)
Boxcar Smoothing: 0 (USB2+H05261)
Correct for Electrical Dark: No (USB2+H05261)
Strobe/Lamp Enabled: No (USB2+H05261)
Correct for Detector Non-linearity: No (USB2+H05261)
Correct for Stray Light: No (USB2+H05261)
Number of Pixels in Processed Spectrum: 2048
>>>>>Begin Processed Spectral Data<<<<<
365.73	166.18
365.92	166.18
366.12	166.18
366.32	0.00
366.52	0.00
366.72	14.04
366.91	0.00
367.11	0.00
367.31	0.00
367.51	0.00
367.70	0.00
367.90	0.00
368.10	0.00
368.30	0.00
368.49	0.00
368.69	0.00
368.89	0.00
369.09	0.00
369.28	0.00
369.48	14.04
369.68	28.09
369.87	23.41
370.07	37.45
370.27	53.83
370.47	114.69
370.66	184.90
370.86	278.52
371.06	346.40
371.25	411.93
371.45	294.91
371.65	348.74
371.84	334.70
372.04	266.82
372.24	458.74
372.44	374.49
372.63	400.23
372.83	397.89
373.03	404.91
373.22	346.40
373.42	447.04
373.62	374.49
373.81	428.32
374.01	437.68
374.21	416.62
374.40	407.25
374.60	407.25
374.79	409.59
374.99	409.59
375.19	409.59
375.38	519.60
375.58	440.02
375.78	465.77
375.97	465.77
376.17	491.51
376.37	444.70
376.56	463.43
376.76	507.90
376.95	402.57
377.15	416.62
377.35	535.98
377.54	489.17
377.74	489.17
377.93	514.92
378.13	456.40
378.33	561.73
378.52	545.34
378.72	578.11
378.91	468.11
379.11	517.26
379.31	531.30
379.50	486.83
379.70	465.77
379.89	526.62
380.09	451.72
380.28	552.37
380.48	547.69
380.68	545.34
380.87	587.47
381.07	528.96
381.26	627.26
381.46	561.73
381.65	505.56
381.85	498.53
382.04	559.39
382.24	575.77
382.43	533.64
382.63	540.66
382.83	571.09
383.02	540.66
383.22	622.58
383.41	578.11
383.61	573.43
383.80	610.88
384.00	585.13
384.19	599.18
384.39	599.18
384.58	589.82
384.78	608.54
384.97	608.54
385.17	641.31
385.36	660.03
385.56	641.31
385.75	636.63
385.95	662.37
386.14	655.35
386.34	692.80
386.53	704.50
386.72	641.31
386.92	732.59
387.11	720.88
387.31	676.41
387.50	648.33
387.70	664.71
387.89	636.63
388.09	650.67
388.28	695.14
388.48	699.82
388.67	793.44
388.86	748.97
389.06	730.25
389.25	732.59
389.45	727.91
389.64	774.72
389.84	732.59
390.03	725.57
390.22	767.70
390.42	770.04
390.61	711.52
390.81	770.04
391.00	760.67
391.19	709.18
391.39	727.91
391.58	868.34
391.78	880.04
391.97	826.21
392.16	891.74
392.36	943.24
392.55	877.70
392.75	870.68
392.94	826.21
393.13	868.34
393.33	840.25
393.52	856.64
393.71	889.40
393.91	1020.47
394.10	940.90
394.29	858.98
394.49	905.79
394.68	854.30
394.88	933.87
395.07	999.41
395.26	929.19
395.46	877.70
395.65	1128.14
395.84	1043.88
396.04	954.94
396.23	985.37
396.42	983.02
396.62	1008.77
396.81	1109.41
397.00	1032.18
397.19	1074.31
397.39	1032.18
397.58	1043.88
397.77	1130.48
397.97	1048.56
398.16	959.62
398.35	1137.50
398.55	1100.05
398.74	1181.97
398.93	1153.88
399.12	1158.57
399.32	1090.69
399.51	1118.78
399.70	1228.78
399.90	1196.01
400.09	1184.31
400.28	1254.53
400.47	1301.34
400.67	1294.32
400.86	1205.38
401.05	1212.40
401.24	1287.29
401.44	1226.44
401.63	1249.85
401.82	1266.23
402.01	1423.05
402.21	1313.04
402.40	1385.60
402.59	1315.38
402.78	1331.76
402.97	1404.32
403.17	1432.41
403.36	1387.94
403.55	1465.18
403.74	1383.26
403.93	1458.15
404.13	1472.20
404.32	1575.18
404.51	1511.99
404.70	1537.73
404.89	1516.67
405.09	1563.48
405.28	1589.22
405.47	1591.56
405.66	1619.65
405.85	1535.39
406.05	1486.24
406.24	1664.12
406.43	1659.44
406.62	1792.85
406.81	1767.10
407.00	1720.29
407.20	1764.76
407.39	1687.53
407.58	1764.76
407.77	1813.92
407.96	1842.00
408.15	1827.96
408.34	1827.96
408.54	1832.64
408.73	1827.96
408.92	1865.41
409.11	1991.80
409.30	1987.11
409.49	1851.36
409.68	1926.26
409.87	1984.77
410.07	1996.48
410.26	1949.67
410.45	2059.67
410.64	2057.33
410.83	2001.16
411.02	2094.78
411.21	2165.00
411.40	2092.44
411.59	2307.77
411.78	2218.83
411.98	2169.68
412.17	2211.81
412.36	2275.00
412.55	2338.20
412.74	2328.83
412.93	2317.13
413.12	2277.34
413.31	2450.54
413.50	2443.52
413.69	2513.74
413.88	2504.37
414.07	2506.71
414.26	2560.55
414.45	2562.89
414.64	2593.31
414.83	2586.29
415.02	2565.23
415.22	2736.09
415.41	2738.43
415.60	2689.28
415.79	2656.51
415.98	2792.26
416.17	2764.17
416.36	2850.77
416.55	2757.15
416.74	2757.15
416.93	2864.82
417.12	2794.60
417.31	2920.99
417.50	3056.74
417.69	2951.42
417.88	3091.85
418.07	3070.78
418.26	3042.70
418.45	3049.72
418.64	3096.53
418.83	3171.43
419.02	3056.74
419.21	3197.17
419.39	3150.36
419.58	3229.94
419.77	3105.89
419.96	3176.11
420.15	3239.30
420.34	3361.01
420.53	3304.84
420.72	3236.96
420.91	3295.47
421.10	3433.57
421.29	3353.99
421.48	3307.18
421.67	3410.16
421.86	3492.08
422.05	3384.41
422.24	3487.40
422.43	3531.87
422.61	3534.21
422.80	3562.30
422.99	3410.16
423.18	3637.19
423.37	3531.87
423.56	3489.74
423.75	3496.76
423.94	3480.38
424.13	3269.73
424.32	3325.90
424.50	3581.02
424.69	3684.00
424.88	3550.59
425.07	3456.97
425.26	3585.70
425.45	3609.11
425.64	3583.36
425.83	3625.49
426.01	3705.07
426.20	3798.69
426.39	3859.54
426.58	3609.11
426.77	3609.11
426.96	3737.84
427.15	3569.32
427.33	3679.32
427.52	3620.81
427.71	3819.75
427.90	3712.09
428.09	3843.16
428.28	3892.31
428.46	3901.67
428.65	3786.99
428.84	3939.12
429.03	4098.28
429.22	3744.86
429.40	3868.91
429.59	4056.15
429.78	3817.41
429.97	3880.61
430.16	3934.44
430.34	3791.67
430.53	4058.49
430.72	3988.27
430.91	4126.36
431.10	4025.72
431.28	4102.96
431.47	4149.77
431.66	4205.94
431.85	4091.26
432.03	4234.03
432.22	4353.40
432.41	4227.01
432.60	4285.52
432.79	4358.08
432.97	4440.00
433.16	4355.74
433.35	4280.84
433.54	4465.74
433.72	4332.33
433.91	4428.29
434.10	4376.80
434.28	4512.55
434.47	4578.09
434.66	4475.10
434.85	4505.53
435.03	4561.70
435.22	4599.15
435.41	4610.86
435.59	4622.56
435.78	4608.51
435.97	4566.39
436.16	4690.43
436.34	4762.99
436.53	4671.71
436.72	4840.23
436.90	4699.80
437.09	4734.90
437.28	4662.35
437.46	4692.77
437.65	4891.72
437.84	4894.06
438.02	4903.42
438.21	4961.94
438.40	4844.91
438.58	5001.72
438.77	5057.90
438.96	5100.03
439.14	5146.84
439.33	5149.18
439.52	5280.25
439.70	5144.50
439.89	5430.04
440.08	5406.64
440.26	5385.57
440.45	5521.32
440.63	5366.85
440.82	5511.96
441.01	5518.98
441.19	5481.53
441.38	5591.54
441.57	5776.44
441.75	5638.35
441.94	5816.23
442.12	5743.67
442.31	5790.49
442.50	5877.09
442.68	5830.27
442.87	5874.74
443.05	5884.11
443.24	5909.85
443.43	6005.81
443.61	5970.71
443.80	6146.25
443.98	5692.18
444.17	5881.77
444.35	6090.07
444.54	6146.25
444.73	5977.73
444.91	6047.94
445.10	5907.51
445.28	6045.60
445.47	6031.56
445.65	5991.77
445.84	6125.18
446.02	6176.67
446.21	6197.74
446.39	6160.29
446.58	6118.16
446.77	6253.91
446.95	6122.84
447.14	6207.10
447.32	6317.11
447.51	6258.59
447.69	6258.59
447.88	6300.72
448.06	6197.74
448.25	6284.34
448.43	6331.15
448.62	6181.35
448.80	6127.52
448.99	6246.89
449.17	6422.43
449.36	6282.00
449.54	6490.31
449.73	6462.22
449.91	6431.79
450.10	6338.17
450.28	6576.91
450.46	6530.09
450.65	6494.99
450.83	6630.74
451.02	6593.29
451.20	6808.62
451.39	6817.98
451.57	6506.69
451.76	6565.20
451.94	6771.17
452.13	6841.39
452.31	6960.75
452.49	6717.34
452.68	6780.53
452.86	6913.94
453.05	6740.74
453.23	6956.07
453.42	6857.77
453.60	6953.73
453.78	7091.82
453.97	6820.32
454.15	6843.73
454.34	6766.49
454.52	7059.06
454.70	6981.82
454.89	7070.76
455.07	7126.93
455.26	7215.87
455.44	7302.47
455.62	7199.49
455.81	7199.49
455.99	7353.96
456.17	7346.94
456.36	7330.56
456.54	7583.34
456.73	7508.44
456.91	7473.33
457.09	7466.31
457.28	7749.51
457.46	7695.68
457.64	7592.70
457.83	7735.47
458.01	7548.23
458.19	7793.98
458.38	7693.34
458.56	8037.40
458.74	7805.69
458.93	7810.37
459.11	7875.90
459.29	8002.29
459.48	7840.79
459.66	7964.84
459.84	8006.97
460.03	8025.70
460.21	7948.46
460.39	8163.79
460.57	7833.77
460.76	8152.09
460.94	8088.89
461.12	8198.90
461.31	8248.05
461.49	8264.43
461.67	8215.28
461.85	8271.45
462.04	8318.26
462.22	8753.60
462.40	8557.00
462.59	8367.42
462.77	8336.99
462.95	8397.84
463.13	8547.64
463.32	8365.07
463.50	8589.77
463.68	8704.45
463.86	8737.22
464.05	8620.19
464.23	8608.49
464.41	8734.88
464.59	8498.49
464.78	8791.05
464.96	8833.18
465.14	8446.99
465.32	8793.39
465.50	8786.37
465.69	8784.03
465.87	8716.16
466.05	8922.12
466.23	8922.12
466.41	8917.44
466.60	9013.40
466.78	8772.33
466.96	8985.32
467.14	8896.38
467.32	9043.83
467.51	9259.16
467.69	8816.80
467.87	9018.08
468.05	9142.13
468.23	9074.26
468.41	9341.08
468.60	9200.65
468.78	9142.13
468.96	9167.88
469.14	9446.40
469.32	9486.19
469.50	9198.31
469.69	9441.72
469.87	9495.55
470.05	9465.13
470.23	9591.52
470.41	9689.82
470.59	9650.03
470.77	9650.03
470.95	9736.63
471.14	9809.19
471.32	9764.72
471.50	9970.68
471.68	9900.47
471.86	10078.35
472.04	10022.17
472.22	10108.77
472.40	9837.27
472.58	10225.80
472.77	10076.01
472.95	10260.91
473.13	10649.44
473.31	10153.24
473.49	10249.21
473.67	10349.85
473.85	10492.62
474.03	10501.98
474.21	10764.12
474.39	10796.89
474.57	10780.51
474.75	10881.15
474.93	10885.83
475.12	10761.78
475.30	11225.21
475.48	11044.99
475.66	11105.84
475.84	11171.38
476.02	11084.78
476.20	11213.51
476.38	11428.84
476.56	11613.74
476.74	11630.12
476.92	11367.98
477.10	11822.05
477.28	11728.42
477.46	11978.86
477.64	11908.65
477.82	12145.04
478.00	12294.83
478.18	12229.30
478.36	12547.61
478.54	12456.33
478.72	12636.55
478.90	12449.31
479.08	12774.64
479.26	12992.31
479.44	12875.29
479.62	12989.97
479.80	12915.08
479.98	12961.89
480.16	13542.34
480.34	13598.51
480.52	13437.02
480.70	13408.93
480.88	13397.23
481.06	13612.56
481.24	13650.00
481.41	13664.05
481.59	14010.45
481.77	14104.07
481.95	14452.81
482.13	14429.40
482.31	14649.41
482.49	14478.55
482.67	14855.38
482.85	14970.07
483.03	15051.99
483.21	15440.51
483.39	15527.11
483.57	15295.40
483.74	15295.40
483.92	15681.59
484.10	15468.60
484.28	15929.69
484.46	16236.30
484.64	16098.20
484.82	16072.46
485.00	16524.18
485.18	16472.69
485.35	16837.81
485.53	16795.68
485.71	16727.81
485.89	17064.85
486.07	17249.75
486.25	17336.35
486.43	17486.14
486.61	17607.85
486.78	17736.58
486.96	17514.23
487.14	17980.00
487.32	17804.46
487.50	17947.23
487.68	18218.73
487.85	18745.35
488.03	18845.99
488.21	18689.18
488.39	18941.96
488.57	18930.25
488.75	19019.19
488.92	19484.96
489.10	19594.96
489.28	19562.20
489.46	19927.32
489.64	19754.12
489.81	19990.52
489.99	20376.70
490.17	20177.76
490.35	20699.70
490.53	20418.83
490.70	20587.35
490.88	20807.36
491.06	21085.89
491.24	21270.79
491.41	21245.04
491.59	21682.72
491.77	21558.67
491.95	21876.99
492.13	21909.75
492.30	21876.99
492.48	22082.95
492.66	22190.62
492.84	22178.92
493.01	22721.92
493.19	22562.76
493.37	22651.70
493.54	22665.75
493.72	22787.46
493.90	23316.42
494.08	23253.22
494.25	23639.41
494.43	23337.48
494.61	23522.38
494.79	23765.80
494.96	23946.02
495.14	24130.92
495.32	24184.76
495.49	24606.05
495.67	24512.43
495.85	24676.27
496.02	24830.74
496.20	25036.71
496.38	24826.06
496.55	24915.00
496.73	25359.70
496.91	25057.78
497.09	25666.31
497.26	25631.21
497.44	25465.03
497.62	25755.26
497.79	26146.12
497.97	26244.43
498.14	26368.48
498.32	26368.48
498.50	27063.61
498.67	27065.96
498.85	26654.02
499.03	26658.70
499.20	26773.39
499.38	27080.00
499.56	27433.42
499.73	27372.57
499.91	27414.69
500.08	27522.36
500.26	27206.39
500.44	27693.22
500.61	27871.10
500.79	27922.59
500.97	28048.98
501.14	28575.60
501.32	28245.58
501.49	28133.24
501.67	28336.87
501.84	28624.75
502.02	28931.36
502.20	28774.55
502.37	29046.05
502.55	28931.36
502.72	28900.94
502.90	29074.13
503.07	29556.28
503.25	29497.77
503.43	29633.52
503.60	29645.23
503.78	29493.09
503.95	29565.65
504.13	29825.45
504.30	29991.62
504.48	30221.00
504.65	29972.90
504.83	30661.02
505.01	30796.77
505.18	30543.99
505.36	30361.43
505.53	30644.63
505.71	30635.27
505.88	30930.18
506.06	30728.89
506.23	31131.47
506.41	30764.00
506.58	31065.93
506.76	30644.63
506.93	31494.25
507.11	31299.98
507.28	31550.42
507.46	31814.90
507.63	31393.61
507.81	31952.99
507.98	31269.56
508.16	31915.54
508.33	32065.34
508.50	31929.59
508.68	32383.65
508.85	32519.40
509.03	32348.54
509.20	32460.89
509.38	32914.95
509.55	32896.23
509.73	32980.49
509.90	32966.45
510.08	33247.31
510.25	33200.50
510.42	33001.55
510.60	33469.66
510.77	33230.93
510.95	33624.14
511.12	33652.22
511.30	33757.55
511.47	33858.19
511.64	33900.32
511.82	34082.88
511.99	33701.37
512.17	34132.03
512.34	34227.99
512.51	34609.50
512.69	34888.03
512.86	34607.16
513.04	35042.50
513.21	34717.17
513.38	34747.59
513.56	35016.75
513.73	34684.40
513.90	34808.45
514.08	35110.38
514.25	35482.52
514.43	35419.33
514.60	35622.95
514.77	35241.45
514.95	35934.24
515.12	35555.08
515.29	35321.02
515.47	35917.86
515.64	36385.97
515.81	36151.91
515.99	35777.43
516.16	36266.60
516.33	35887.43
516.51	36596.62
516.68	36531.08
516.85	36797.90
517.03	37163.03
517.20	36865.78
517.37	36627.04
517.54	36437.46
517.72	37113.87
517.89	37008.55
518.06	36809.61
518.24	37294.10
518.41	37408.78
518.58	37600.71
518.75	36989.83
518.93	37413.46
519.10	37141.96
519.27	37773.91
519.45	37645.18
519.62	37724.75
519.79	37614.75
519.96	37923.70
520.14	38227.97
520.31	38005.62
520.48	38345.00
520.65	38464.36
520.83	38370.74
521.00	38574.37
521.17	38192.86
521.34	38574.37
521.52	38555.64
521.69	38820.13
521.86	38993.32
522.03	38824.81
522.20	38719.48
522.38	39161.84
522.55	39159.50
522.72	39243.76
522.89	39484.84
523.07	39007.37
523.24	39218.02
523.41	39800.81
523.58	39342.06
523.75	39632.29
523.92	39887.41
524.10	39775.06
524.27	40257.21
524.44	40456.16
524.61	40273.60
524.78	40292.32
524.96	40018.48
525.13	40123.80
525.30	40437.44
525.47	40779.15
525.64	40989.80
525.81	41081.08
525.98	40615.32
526.16	41212.15
526.33	40725.32
526.50	40933.63
526.67	41003.85
526.84	41474.29
527.01	41167.68
527.18	41258.96
527.36	41177.04
527.53	41331.52
527.70	41448.55
527.87	41467.27
528.04	41659.20
528.21	42117.94
528.38	41415.78
528.55	41691.96
528.72	42036.02
528.89	41834.74
529.07	41876.86
529.24	41223.86
529.41	41706.01
529.58	41860.48
529.75	42213.90
529.92	42405.83
530.09	42398.80
530.26	42096.88
530.43	42485.40
530.60	42515.83
530.77	42394.12
530.94	42815.42
531.11	42656.26
531.28	42581.37
531.46	43103.31
531.63	42359.02
531.80	42761.59
531.97	43171.18
532.14	42792.01
532.31	42887.98
532.48	42848.19
532.65	43309.27
532.82	42990.96
532.99	43442.68
533.16	42997.98
533.33	43679.08
533.50	43929.51
533.67	43868.66
533.84	43388.85
534.01	43524.60
534.18	43505.88
534.35	44072.29
534.52	44016.11
534.69	44516.99
534.86	43632.27
535.03	43873.34
535.20	43845.26
535.37	43831.21
535.54	44292.30
535.71	44112.08
535.88	44367.20
536.05	44538.05
536.22	44601.25
536.38	44509.97
536.55	44402.30
536.72	44327.41
536.89	44086.33
537.06	44837.64
537.23	45078.72
537.40	44479.54
537.57	44748.70
537.74	44676.15
537.91	44959.35
538.08	44931.26
538.25	45043.61
538.42	45139.57
538.59	45343.20
538.75	44975.73
538.92	45261.28
539.09	45429.80
539.26	45457.88
539.43	45469.59
539.60	45748.11
539.77	45095.10
539.94	45724.71
540.11	45722.37
540.28	45815.99
540.44	45954.08
540.61	46209.20
540.78	45436.82
540.95	45820.67
541.12	45474.27
541.29	45640.45
541.46	45631.08
541.62	45865.14
541.79	45773.86
541.96	45588.95
542.13	45823.01
542.30	46363.67
542.47	46239.62
542.63	46101.53
542.80	45886.20
542.97	46522.83
543.14	46787.31
543.31	46614.11
543.48	46951.15
543.64	47316.27
543.81	46967.53
543.98	46864.55
544.15	47510.53
544.32	46747.52
544.48	47482.45
544.65	46827.10
544.82	46937.10
544.99	47103.28
545.16	47194.56
545.32	46883.27
545.49	47716.50
545.66	47475.43
545.83	47124.35
546.00	48074.60
546.16	47536.28
546.33	47253.08
546.50	46918.38
546.67	47466.06
546.83	46740.50
547.00	47250.74
547.17	47447.34
547.34	47243.71
547.50	47913.11
547.67	47931.83
547.84	47461.38
548.00	48088.65
548.17	48327.38
548.34	48032.47
548.51	48296.95
548.67	48313.34
548.84	47936.51
549.01	47550.32
549.18	47625.22
549.34	47707.14
549.51	48353.13
549.68	48362.49
549.84	48603.56
550.01	48500.58
550.18	48229.08
550.34	48650.38
550.51	48311.00
550.68	48570.80
550.84	48561.44
551.01	48711.23
551.18	48491.22
551.34	48542.71
551.51	48619.95
551.68	48751.02
551.84	49081.03
552.01	48402.28
552.18	48404.62
552.34	48313.34
552.51	48645.69
552.68	48783.79
552.84	48825.92
553.01	49148.91
553.18	48533.35
553.34	48956.99
553.51	48767.40
553.67	49155.93
553.84	48912.52
554.01	48999.12
554.17	49165.29
554.34	49287.00
554.51	49195.72
554.67	49654.47
554.84	49448.50
555.00	49207.42
555.17	49305.73
555.33	49193.38
555.50	48992.09
555.67	49041.24
555.83	49703.62
556.00	49258.91
556.16	50059.38
556.33	49670.85
556.50	49799.58
556.66	49914.26
556.83	49605.31
556.99	49621.70
557.16	49408.71
557.32	49308.07
557.49	50019.59
557.65	49537.44
557.82	49954.05
557.98	49916.61
558.15	49698.94
558.32	50000.86
558.48	49736.38
558.65	50061.72
558.81	49851.07
558.98	49717.66
559.14	49705.96
559.31	50066.40
559.47	49820.64
559.64	50298.11
559.80	49947.03
559.97	49806.60
560.13	49797.24
560.30	50157.68
560.46	49860.43
560.63	49783.19
560.79	50253.64
560.96	50319.18
561.12	50113.21
561.29	50192.79
561.45	50237.26
561.61	50136.62
561.78	50602.38
561.94	49996.18
562.11	50244.28
562.27	50176.40
562.44	50220.87
562.60	50562.59
562.77	50574.30
562.93	50124.91
563.10	50880.91
563.26	50387.05
563.42	51117.30
563.59	50475.99
563.75	50279.39
563.92	50408.12
564.08	50347.26
564.24	50712.39
564.41	50871.54
564.57	50644.51
564.74	50382.37
564.90	50656.21
565.07	50672.60
565.23	50344.92
565.39	50267.69
565.56	50405.78
565.72	50698.34
565.88	50415.14
566.05	50525.14
566.21	50536.85
566.38	51070.49
566.54	50660.90
566.70	51154.75
566.87	50845.80
567.03	50789.62
567.19	50976.87
567.36	50824.73
567.52	50674.94
567.68	51217.94
567.85	50913.67
568.01	50990.91
568.17	51096.24
568.34	51063.47
568.50	50855.16
568.66	50887.93
568.83	50660.90
568.99	50688.98
569.15	50934.74
569.32	50885.59
569.48	50857.50
569.64	51339.65
569.81	50993.25
569.97	50864.52
570.13	51470.72
570.30	50724.09
570.46	51007.29
570.62	51121.98
570.78	50721.75
570.95	51054.11
571.11	51243.69
571.27	51082.19
571.43	51463.70
571.60	51089.21
571.76	51112.62
571.92	51234.33
572.09	51084.53
572.25	50705.37
572.41	51131.34
572.57	51044.74
572.74	51379.44
572.90	51049.42
573.06	51173.47
573.22	51236.67
573.38	51384.12
573.55	51082.19
573.71	51313.90
573.87	51444.98
574.03	51042.40
574.20	51026.02
574.36	51112.62
574.52	51145.39
574.68	51283.48
574.84	51501.15
575.01	51861.59
575.17	51210.92
575.33	51131.34
575.49	51049.42
575.65	51363.06
575.82	51035.38
575.98	51496.47
576.14	51643.92
576.30	51660.30
576.46	51283.48
576.62	51559.66
576.79	51456.68
576.95	51367.74
577.11	51566.68
577.27	51414.55
577.43	51239.01
577.59	51533.92
577.75	51192.20
577.92	51079.85
578.08	51157.09
578.24	51306.88
578.40	51683.71
578.56	51533.92
578.72	51323.27
578.88	51384.12
579.04	51723.50
579.21	51437.95
579.37	51444.98
579.53	51325.61
579.69	51423.91
579.85	51760.95
580.01	51557.32
580.17	51557.32
580.33	51536.26
580.49	51454.34
580.65	51468.38
580.82	51407.53
580.98	51356.03
581.14	51250.71
581.30	51423.91
581.46	51346.67
581.62	51899.04
581.78	51580.73
581.94	51597.11
582.10	51538.60
582.26	51632.22
582.42	51248.37
582.58	51297.52
582.74	51459.02
582.90	51585.41
583.06	51503.49
583.22	51550.30
583.38	51908.40
583.54	51456.68
583.70	51367.74
583.86	51791.37
584.02	51653.28
584.18	51910.74
584.34	51262.41
584.50	51866.27
584.66	51587.75
584.82	51220.28
584.98	51484.76
585.14	51473.06
585.30	51267.09
585.46	51449.66
585.62	51583.07
585.78	51964.57
585.94	51728.18
586.10	51522.21
586.26	51217.94
586.42	51672.01
586.58	51812.44
586.74	51587.75
586.90	51590.09
587.06	51856.91
587.22	51915.42
587.38	51906.06
587.54	51702.43
587.70	51679.03
587.86	51604.13
588.02	51597.11
588.18	51892.02
588.34	51718.82
588.49	51753.93
588.65	51679.03
588.81	51978.62
588.97	52055.85
589.13	51936.49
589.29	52023.09
589.45	51985.64
589.61	52112.03
589.77	52200.97
589.93	51950.53
590.08	51885.00
590.24	51983.30
590.40	52013.73
