SpectraSuite Data File
++++++++++++++++++++++++++++++++++++
Date: Fri Oct 04 11:39:41 GMT-05:00 2013
User: price-jones
Dark Spectrum Present: No
Reference Spectrum Present: No
Number of Sampled Component Spectra: 1
Spectrometers: USB2+H05261
Integration Time (usec): 100000 (USB2+H05261)
Spectra Averaged: 1 (USB2+H05261)
Boxcar Smoothing: 0 (USB2+H05261)
Correct for Electrical Dark: No (USB2+H05261)
Strobe/Lamp Enabled: No (USB2+H05261)
Correct for Detector Non-linearity: No (USB2+H05261)
Correct for Stray Light: No (USB2+H05261)
Number of Pixels in Processed Spectrum: 2048
>>>>>Begin Processed Spectral Data<<<<<
365.73	7.02
365.92	7.02
366.12	7.02
366.32	0.00
366.52	2.34
366.72	0.00
366.91	0.00
367.11	0.00
367.31	0.00
367.51	0.00
367.70	0.00
367.90	0.00
368.10	0.00
368.30	0.00
368.49	0.00
368.69	0.00
368.89	0.00
369.09	0.00
369.28	0.00
369.48	0.00
369.68	7.02
369.87	21.06
370.07	0.00
370.27	84.26
370.47	91.28
370.66	222.35
370.86	259.80
371.06	250.44
371.25	301.93
371.45	262.14
371.65	322.99
371.84	320.65
372.04	248.10
372.24	306.61
372.44	337.04
372.63	283.20
372.83	388.53
373.03	393.21
373.22	379.17
373.42	425.98
373.62	407.25
373.81	430.66
374.01	423.64
374.21	470.45
374.40	313.63
374.60	409.59
374.79	409.59
374.99	383.85
375.19	397.89
375.38	400.23
375.58	454.06
375.78	482.15
375.97	463.43
376.17	433.00
376.37	428.32
376.56	451.72
376.76	454.06
376.95	454.06
377.15	505.56
377.35	454.06
377.54	479.81
377.74	461.09
377.93	390.87
378.13	374.49
378.33	418.96
378.52	461.09
378.72	479.81
378.91	475.13
379.11	475.13
379.31	489.17
379.50	397.89
379.70	559.39
379.89	559.39
380.09	482.15
380.28	472.79
380.48	416.62
380.68	550.03
380.87	486.83
381.07	468.11
381.26	498.53
381.46	491.51
381.65	512.58
381.85	442.36
382.04	414.27
382.24	514.92
382.43	526.62
382.63	531.30
382.83	545.34
383.02	543.00
383.22	599.18
383.41	550.03
383.61	519.60
383.80	547.69
384.00	531.30
384.19	458.74
384.39	624.92
384.58	566.41
384.78	535.98
384.97	526.62
385.17	524.28
385.36	603.86
385.56	559.39
385.75	608.54
385.95	582.79
386.14	624.92
386.34	575.77
386.53	587.47
386.72	580.45
386.92	695.14
387.11	650.67
387.31	702.16
387.50	648.33
387.70	667.05
387.89	573.43
388.09	671.73
388.28	667.05
388.48	545.34
388.67	720.88
388.86	667.05
389.06	636.63
389.25	723.23
389.45	627.26
389.64	683.44
389.84	741.95
390.03	748.97
390.22	699.82
390.42	805.14
390.61	681.10
390.81	676.41
391.00	695.14
391.19	727.91
391.39	779.40
391.58	861.32
391.78	702.16
391.97	720.88
392.16	739.61
392.36	713.86
392.55	748.97
392.75	741.95
392.94	744.29
393.13	739.61
393.33	837.91
393.52	856.64
393.71	809.83
393.91	819.19
394.10	842.59
394.29	788.76
394.49	826.21
394.68	830.89
394.88	856.64
395.07	926.85
395.26	903.45
395.46	823.87
395.65	910.47
395.84	987.71
396.04	919.83
396.23	1078.99
396.42	961.96
396.62	945.58
396.81	1022.81
397.00	964.30
397.19	936.21
397.39	936.21
397.58	971.32
397.77	966.64
397.97	973.66
398.16	1043.88
398.35	1025.15
398.55	1069.62
398.74	1011.11
398.93	1121.12
399.12	1006.43
399.32	1060.26
399.51	983.02
399.70	1142.18
399.90	1067.28
400.09	1114.10
400.28	1203.04
400.47	1142.18
400.67	1249.85
400.86	1121.12
401.05	1186.65
401.24	1191.33
401.44	1273.25
401.63	1238.14
401.82	1188.99
402.01	1233.46
402.21	1282.61
402.40	1165.59
402.59	1207.72
402.78	1240.48
402.97	1235.80
403.17	1221.76
403.36	1299.00
403.55	1380.92
403.74	1308.36
403.93	1399.64
404.13	1481.56
404.32	1430.07
404.51	1460.49
404.70	1439.43
404.89	1472.20
405.09	1493.26
405.28	1437.09
405.47	1467.52
405.66	1490.92
405.85	1579.86
406.05	1577.52
406.24	1664.12
406.43	1591.56
406.62	1570.50
406.81	1624.33
407.00	1591.56
407.20	1610.29
407.39	1607.95
407.58	1650.08
407.77	1781.15
407.96	1757.74
408.15	1689.87
408.34	1739.02
408.54	1736.68
408.73	1816.26
408.92	1832.64
409.11	1858.39
409.30	1842.00
409.49	1856.04
409.68	1851.36
409.87	1907.54
410.07	1795.19
410.26	1881.79
410.45	1933.28
410.64	1940.30
410.83	2111.16
411.02	1975.41
411.21	1975.41
411.40	1956.69
411.59	2001.16
411.78	2019.88
411.98	2146.27
412.17	2167.34
412.36	2139.25
412.55	2197.76
412.74	2218.83
412.93	2256.28
413.12	2345.22
413.31	2342.88
413.50	2326.49
413.69	2406.07
413.88	2396.71
414.07	2438.84
414.26	2387.35
414.45	2459.90
414.64	2492.67
414.83	2457.56
415.02	2555.86
415.22	2518.42
415.41	2647.15
415.60	2544.16
415.79	2715.02
415.98	2754.81
416.17	2747.79
416.36	2649.49
416.55	2717.36
416.74	2874.18
416.93	2829.71
417.12	2925.67
417.31	2895.24
417.50	2953.76
417.69	2949.08
417.88	3016.95
418.07	2970.14
418.26	2935.03
418.45	3148.02
418.64	3061.42
418.83	3091.85
419.02	3045.04
419.21	3225.26
419.39	3185.47
419.58	3108.23
419.77	3194.83
419.96	3211.22
420.15	3236.96
420.34	3096.53
420.53	3356.33
420.72	3332.92
420.91	3206.53
421.10	3293.13
421.29	3447.61
421.48	3311.86
421.67	3461.65
421.86	3393.78
422.05	3332.92
422.24	3361.01
422.43	3386.76
422.61	3496.76
422.80	3407.82
422.99	3468.67
423.18	3538.89
423.37	3478.04
423.56	3606.77
423.75	3510.80
423.94	3496.76
424.13	3192.49
424.32	3349.31
424.50	3592.72
424.69	3672.30
424.88	3658.26
425.07	3585.70
425.26	3597.40
425.45	3583.36
425.64	3604.42
425.83	3578.68
426.01	3545.91
426.20	3660.60
426.39	3625.49
426.58	3684.00
426.77	3705.07
426.96	3641.87
427.15	3693.37
427.33	3737.84
427.52	3765.92
427.71	3698.05
427.90	3735.50
428.09	3843.16
428.28	3749.54
428.46	3798.69
428.65	3957.85
428.84	3936.78
429.03	3920.40
429.22	3946.14
429.40	3882.95
429.59	4051.47
429.78	3728.47
429.97	3852.52
430.16	3885.29
430.34	4072.53
430.53	4138.07
430.72	4002.32
430.91	3960.19
431.10	4121.68
431.28	4100.62
431.47	4177.86
431.66	4131.05
431.85	4187.22
432.03	4344.03
432.22	4322.97
432.41	4255.09
432.60	4388.50
432.79	4203.60
432.97	4451.70
433.16	4383.82
433.35	4329.99
433.54	4360.42
433.72	4348.72
433.91	4367.44
434.10	4538.30
434.28	4491.49
434.47	4505.53
434.66	4533.62
434.85	4542.98
435.03	4435.32
435.22	4627.24
435.41	4954.91
435.59	4990.02
435.78	4802.78
435.97	4669.37
436.16	4699.80
436.34	4655.33
436.53	4674.05
436.72	4741.93
436.90	4655.33
437.09	4854.27
437.28	4592.13
437.46	4723.20
437.65	4884.70
437.84	4798.10
438.02	4865.97
438.21	4922.15
438.40	4898.74
438.58	5027.47
438.77	5076.62
438.96	4917.47
439.14	5135.14
439.33	5032.15
439.52	5266.21
439.70	5191.31
439.89	5139.82
440.08	5118.75
440.26	5280.25
440.45	5284.93
440.63	5378.55
440.82	5411.32
441.01	5357.49
441.19	5518.98
441.38	5504.94
441.57	5706.23
441.75	5593.88
441.94	5748.36
442.12	5659.42
442.31	5818.57
442.50	5895.81
442.68	5750.70
442.87	5809.21
443.05	5738.99
443.24	5802.19
443.43	5870.06
443.61	5933.26
443.80	5963.68
443.98	5860.70
444.17	5668.78
444.35	5834.96
444.54	5984.75
444.73	5991.77
444.91	6132.20
445.10	6073.69
445.28	6181.35
445.47	6024.54
445.65	5963.68
445.84	5966.03
446.02	6155.61
446.21	5874.74
446.39	6024.54
446.58	6223.48
446.77	6045.60
446.95	5961.34
447.14	6087.73
447.32	6078.37
447.51	6010.50
447.69	6354.55
447.88	6150.93
448.06	5970.71
448.25	6258.59
448.43	6214.12
448.62	6221.14
448.80	6036.24
448.99	6366.26
449.17	6211.78
449.36	6272.64
449.54	6282.00
449.73	6413.07
449.91	6478.60
450.10	6480.94
450.28	6406.05
450.46	6370.94
450.65	6448.18
450.83	6572.22
451.02	6574.56
451.20	6670.53
451.39	6520.73
451.57	6530.09
451.76	6595.63
451.94	6424.77
452.13	6710.32
452.31	6654.14
452.49	6555.84
452.68	6668.19
452.86	6715.00
453.05	6635.42
453.23	6724.36
453.42	6677.55
453.60	6555.84
453.78	6759.47
453.97	6642.44
454.15	6677.55
454.34	6729.04
454.52	6963.09
454.70	6906.92
454.89	7005.22
455.07	6881.18
455.26	6825.00
455.44	7023.95
455.62	7037.99
455.81	6890.54
455.99	7143.32
456.17	7199.49
456.36	7183.10
456.54	7185.44
456.73	7250.98
456.91	7410.14
457.09	7478.01
457.28	7503.76
457.46	7239.28
457.64	7494.40
457.83	7536.52
458.01	7445.24
458.19	7676.96
458.38	7611.42
458.56	7588.02
458.74	7590.36
458.93	7522.48
459.11	7473.33
459.29	7599.72
459.48	7531.84
459.66	7660.57
459.84	7817.39
460.03	7957.82
460.21	7765.90
460.39	7730.79
460.57	7719.09
460.76	7793.98
460.94	7955.48
461.12	7824.41
461.31	7925.05
461.49	7978.89
461.67	7964.84
461.85	8035.06
462.04	8140.38
462.22	8475.08
462.40	8079.53
462.59	8126.34
462.77	8191.88
462.95	8301.88
463.13	8224.64
463.32	8332.31
463.50	8116.98
463.68	8257.41
463.86	8351.03
464.05	7948.46
464.23	8320.60
464.41	8727.86
464.59	8329.97
464.78	8566.36
464.96	8315.92
465.14	8458.70
465.32	8608.49
465.50	8449.33
465.69	8641.26
465.87	8458.70
466.05	8301.88
466.23	8451.67
466.41	8599.13
466.60	8915.10
466.78	8430.61
466.96	8571.04
467.14	8622.53
467.32	8676.37
467.51	8879.99
467.69	8442.31
467.87	8781.69
468.05	8762.97
468.23	8727.86
468.41	8858.93
468.60	9006.38
468.78	8940.85
468.96	8959.57
469.14	8975.95
469.32	8980.64
469.50	8865.95
469.69	9163.20
469.87	9174.90
470.05	9331.72
470.23	9331.72
470.41	9268.52
470.59	9291.93
470.77	9235.75
470.95	9305.97
471.14	9467.47
471.32	9420.66
471.50	9528.32
471.68	9479.17
471.86	9467.47
472.04	9607.90
472.22	9900.47
472.40	9586.83
472.58	9778.76
472.77	9860.68
472.95	9802.16
473.13	10061.96
473.31	9963.66
473.49	9891.10
473.67	9846.63
473.85	9961.32
474.03	10270.27
474.21	10174.31
474.39	10221.12
474.57	10373.25
474.75	10391.98
474.93	10532.41
475.12	10146.22
475.30	10551.14
475.48	10511.35
475.66	10771.15
475.84	10579.22
476.02	10569.86
476.20	10972.43
476.38	11098.82
476.56	10902.22
476.74	10963.07
476.92	11077.76
477.10	10789.87
477.28	11260.32
477.46	11372.66
477.64	11257.98
477.82	11585.65
478.00	11695.66
478.18	11700.34
478.36	11847.79
478.54	12009.29
478.72	11903.96
478.90	12233.98
479.08	12042.06
479.26	12051.42
479.44	12334.62
479.62	12287.81
479.80	12507.82
479.98	12463.35
480.16	12709.11
480.34	12746.56
480.52	13149.13
480.70	13142.11
480.88	12891.67
481.06	12996.99
481.24	12917.42
481.41	13062.53
481.59	13563.40
481.77	13324.67
481.95	13507.23
482.13	13366.80
482.31	13736.60
482.49	13710.86
482.67	14031.51
482.85	14265.57
483.03	14195.35
483.21	14295.99
483.39	14654.09
483.57	14551.11
483.74	14637.71
483.92	14864.74
484.10	14759.42
484.28	15157.31
484.46	15098.80
484.64	15419.45
484.82	15297.74
485.00	15382.00
485.18	15833.72
485.35	16079.48
485.53	15536.48
485.71	16091.18
485.89	16236.30
486.07	16184.80
486.25	16308.85
486.43	16079.48
486.61	16805.05
486.78	16758.24
486.96	16896.33
487.14	16919.73
487.32	17195.92
487.50	17322.30
487.68	17055.48
487.85	17486.14
488.03	17619.55
488.21	17752.96
488.39	17895.74
488.57	18403.63
488.75	18284.26
488.92	18466.83
489.10	18452.78
489.28	18300.65
489.46	18794.50
489.64	18436.40
489.81	18979.40
489.99	18981.74
490.17	19164.31
490.35	19463.90
490.53	19227.50
490.70	19747.10
490.88	19534.11
491.06	19845.40
491.24	19592.62
491.41	19800.93
491.59	20348.62
491.77	19953.07
491.95	20805.02
492.13	20676.29
492.30	20692.68
492.48	20727.78
492.66	20781.62
492.84	20730.12
493.01	21123.33
493.19	20781.62
493.37	21465.05
493.54	21668.68
493.72	21699.11
493.90	21530.59
494.08	21823.16
494.25	22169.55
494.43	22267.86
494.61	22199.98
494.79	22429.35
494.96	22761.71
495.14	22522.98
495.32	22815.54
495.49	22677.45
495.67	22979.38
495.85	23342.16
496.02	23033.21
496.20	23154.92
496.38	23241.52
496.55	23473.23
496.73	24077.09
496.91	23798.57
497.09	23889.85
497.26	24411.79
497.44	23969.43
497.62	24025.60
497.79	24765.21
497.97	24159.01
498.14	24807.34
498.32	24739.46
498.50	24510.09
498.67	24975.86
498.85	24751.17
499.03	25081.18
499.20	25034.37
499.38	25514.18
499.56	25516.52
499.73	25568.01
499.91	25661.63
500.08	25921.43
500.26	25970.58
500.44	25748.23
500.61	26029.10
500.79	25949.52
500.97	26073.57
501.14	26394.22
501.32	26469.12
501.49	26515.93
501.67	26160.17
501.84	26895.10
502.02	26555.72
502.20	26595.51
502.37	26984.04
502.55	27047.23
502.72	27117.45
502.90	27239.15
503.07	27248.52
503.25	26775.73
503.43	27101.06
503.60	27358.52
503.78	27150.21
503.95	27843.01
504.13	27646.41
504.30	27548.11
504.48	27653.43
504.65	28063.02
504.83	27962.38
505.01	28636.45
505.18	28142.60
505.36	28456.23
505.53	28514.75
505.71	28400.06
505.88	28437.51
506.06	28680.92
506.23	28905.62
506.41	28744.12
506.58	29296.49
506.76	29010.94
506.93	29294.14
507.11	28699.65
507.28	29223.93
507.46	28907.96
507.63	29448.62
507.81	29446.28
507.98	29521.18
508.16	29474.37
508.33	29699.06
508.50	30010.35
508.68	30103.97
508.85	30242.06
509.03	30260.79
509.20	30333.34
509.38	30731.23
509.55	30319.30
509.73	30621.23
509.90	30249.08
510.08	30251.42
510.25	30375.47
510.42	30913.80
510.60	31117.42
510.77	31239.13
510.95	31049.55
511.12	31087.00
511.30	31087.00
511.47	31358.50
511.64	31381.90
511.82	31775.11
511.99	31695.53
512.17	31662.77
512.34	31557.44
512.51	31798.52
512.69	32004.49
512.86	31882.78
513.04	32451.53
513.21	32264.28
513.38	32060.66
513.56	32378.97
513.73	32411.74
513.90	31995.12
514.08	32142.58
514.25	32718.35
514.43	32451.53
514.60	32826.01
514.77	32753.46
514.95	32840.06
515.12	32748.78
515.29	32528.77
515.47	32940.70
515.64	33202.84
515.81	33116.24
515.99	33914.36
516.16	33874.57
516.33	33460.30
516.51	33600.73
516.68	33390.08
516.85	33448.60
517.03	33792.65
517.20	33811.38
517.37	34323.96
517.54	33951.81
517.72	33937.77
517.89	34174.16
518.06	33773.93
518.24	34387.15
518.41	34396.51
518.58	34382.47
518.75	34225.65
518.93	34981.65
519.10	34934.84
519.27	34431.62
519.45	34515.88
519.62	34628.23
519.79	34721.85
519.96	34747.59
520.14	35007.39
520.31	35311.66
520.48	35632.32
520.65	35115.06
520.83	35360.81
521.00	35620.61
521.17	35365.49
521.34	35625.29
521.52	35828.92
521.69	35665.08
521.86	35913.18
522.03	36032.55
522.20	35931.90
522.38	35899.14
522.55	36280.64
522.72	36081.70
522.89	36004.46
523.07	36781.52
523.24	36196.38
523.41	36624.70
523.58	35749.34
523.75	36575.55
523.92	36435.12
524.10	36538.10
524.27	36622.36
524.44	36809.61
524.61	37251.97
524.78	37205.16
524.96	36959.40
525.13	37298.78
525.30	36847.05
525.47	37172.39
525.64	37305.80
525.81	37851.14
525.98	37771.57
526.16	37965.83
526.33	37317.50
526.50	37809.01
526.67	37303.46
526.84	37432.19
527.01	37249.63
527.18	37757.52
527.36	37830.08
527.53	38171.80
527.70	38410.53
527.87	37982.21
528.04	38019.66
528.21	38120.31
528.38	38068.81
528.55	38646.93
528.72	38127.33
528.89	38377.76
529.07	37926.04
529.24	38143.71
529.41	38485.43
529.58	38511.17
529.75	38651.61
529.92	38604.80
530.09	38518.20
530.26	39019.07
530.43	38745.23
530.60	38171.80
530.77	38824.81
530.94	39283.55
531.11	38899.70
531.28	39091.63
531.46	39047.16
531.63	39718.89
531.80	39264.83
531.97	39229.72
532.14	39440.37
532.31	39005.03
532.48	39470.79
532.65	39290.57
532.82	39072.90
532.99	40048.91
533.16	39856.98
533.33	39779.74
533.50	40018.48
533.67	39824.22
533.84	39739.96
534.01	39423.98
534.18	39700.17
534.35	39903.79
534.52	40254.87
534.69	39992.73
534.86	40294.66
535.03	39945.92
535.20	40292.32
535.37	40182.32
535.54	40191.68
535.71	39990.39
535.88	40411.69
536.05	40287.64
536.22	40259.55
536.38	40891.50
536.55	40896.18
536.72	40978.10
536.89	40554.46
537.06	40861.07
537.23	40664.47
537.40	40816.60
537.57	41354.93
537.74	40921.93
537.91	41500.04
538.08	41212.15
538.25	41153.64
538.42	41134.92
538.59	41244.92
538.75	40947.67
538.92	41240.24
539.09	41586.64
539.26	41530.47
539.43	41574.94
539.60	41727.07
539.77	41481.31
539.94	41975.17
540.11	41787.92
540.28	41577.28
540.44	41181.73
540.61	41706.01
540.78	41993.89
540.95	41883.89
541.12	42005.59
541.29	42307.52
541.46	42550.94
541.62	42148.37
541.79	42312.20
541.96	41677.92
542.13	42021.98
542.30	42408.17
542.47	43166.50
542.63	42768.61
542.80	42586.05
542.97	42710.10
543.14	42670.31
543.31	43159.48
543.48	42698.39
543.64	43201.61
543.81	43339.70
543.98	43269.48
544.15	43047.13
544.32	43430.98
544.48	43522.26
544.65	43079.90
544.82	42836.48
544.99	42691.37
545.16	42710.10
545.32	43023.73
545.49	43943.56
545.66	44224.42
545.83	44339.11
546.00	44194.00
546.16	43704.82
546.33	43227.35
546.50	43215.65
546.67	43295.23
546.83	42979.26
547.00	43515.24
547.17	43538.65
547.34	43498.86
547.50	44037.18
547.67	44367.20
547.84	43639.29
548.00	43564.39
548.17	44519.33
548.34	43803.13
548.51	43882.70
548.67	44299.32
548.84	43999.73
549.01	44069.95
549.18	43992.71
549.34	44254.85
549.51	43503.54
549.68	44566.14
549.84	43941.22
550.01	43920.15
550.18	43758.66
550.34	44531.03
550.51	44418.69
550.68	44577.84
550.84	44037.18
551.01	44362.51
551.18	43983.35
551.34	44165.91
551.51	44011.43
551.68	44327.41
551.84	44591.89
552.01	44039.52
552.18	44643.38
552.34	44226.76
552.51	44715.93
552.68	44421.03
552.84	44596.57
553.01	44631.68
553.18	44631.68
553.34	44765.09
553.51	44645.72
553.67	44999.14
553.84	44701.89
554.01	45085.74
554.17	44264.21
554.34	44851.69
554.51	44889.13
554.67	45048.29
554.84	44624.65
555.00	44655.08
555.17	44741.68
555.33	44601.25
555.50	44931.26
555.67	44783.81
555.83	44767.43
556.00	45221.49
556.16	45397.03
556.33	44980.42
556.50	45326.81
556.66	45062.33
556.83	44516.99
556.99	45165.32
557.16	45027.23
557.32	45202.77
557.49	45265.96
557.65	44968.71
557.82	44935.95
557.98	45294.05
558.15	45319.79
558.32	45399.37
558.48	45420.44
558.65	45528.10
558.81	45544.48
558.98	45399.37
559.14	45434.48
559.31	44760.40
559.47	45411.07
559.64	45343.20
559.80	45577.25
559.97	45778.54
560.13	45310.43
560.30	45502.35
560.46	45638.11
560.63	45937.69
560.79	45436.82
560.96	45792.58
561.12	45731.73
561.29	45427.46
561.45	45579.59
561.61	45846.41
561.78	45457.88
561.94	45514.06
562.11	45621.72
562.27	45544.48
562.44	45467.25
562.60	45813.65
562.77	45574.91
562.93	45890.88
563.10	45759.81
563.26	45904.93
563.42	46185.79
563.59	45687.26
563.75	45762.15
563.92	46237.28
564.08	45965.78
564.24	45766.84
564.41	45865.14
564.57	45488.31
564.74	45382.99
564.90	46038.34
565.07	45853.44
565.23	46138.98
565.39	46188.13
565.56	46438.57
565.72	45635.77
565.88	45813.65
566.05	45769.18
566.21	45565.55
566.38	45717.68
566.54	46248.99
566.70	45904.93
566.87	46199.83
567.03	46148.34
567.19	46178.77
567.36	45979.82
567.52	46146.00
567.68	45865.14
567.85	45717.68
568.01	46094.51
568.17	45610.02
568.34	46110.89
568.50	46113.23
568.66	46110.89
568.83	46513.47
568.99	45823.01
569.15	45911.95
569.32	45989.19
569.48	45834.71
569.64	46026.63
569.81	45890.88
569.97	45874.50
570.13	46117.92
570.30	46085.15
570.46	46312.18
570.62	46340.27
570.78	45975.14
570.95	45860.46
571.11	45958.76
571.27	45654.49
571.43	45773.86
571.60	45818.33
571.76	46000.89
571.92	46206.86
572.09	46110.89
572.25	46265.37
572.41	46199.83
572.57	46227.92
572.74	46188.13
572.90	46092.17
573.06	45897.91
573.22	46342.61
573.38	46059.40
573.55	45963.44
573.71	46644.54
573.87	46312.18
574.03	46174.09
574.20	46092.17
574.36	46019.61
574.52	45986.85
574.68	46447.93
574.84	46024.29
575.01	46415.16
575.17	46520.49
575.33	46162.39
575.49	46642.20
575.65	46536.87
575.82	46677.30
575.98	46674.96
576.14	46192.81
576.30	46649.22
576.46	45989.19
576.62	46129.62
576.79	46534.53
576.95	45972.80
577.11	46387.08
577.27	46513.47
577.43	46497.08
577.59	46157.70
577.75	46263.03
577.92	46138.98
578.08	45886.20
578.24	45720.02
578.40	46043.02
578.56	46480.70
578.72	46464.32
578.88	46569.64
579.04	46651.56
579.21	46871.57
579.37	46459.63
579.53	46717.09
579.69	46169.41
579.85	46080.47
580.01	46504.10
580.17	46033.66
580.33	46178.77
580.49	46504.10
580.65	46780.29
580.82	46548.57
580.98	46302.82
581.14	46274.73
581.30	46469.00
581.46	46265.37
581.62	46403.46
581.78	45776.20
581.94	46717.09
582.10	46204.52
582.26	46436.23
582.42	46738.16
582.58	46747.52
582.74	46504.10
582.90	46270.05
583.06	46866.89
583.22	46108.55
583.38	46440.91
583.54	46204.52
583.70	46368.35
583.86	46160.05
584.02	46265.37
584.18	46464.32
584.34	46770.93
584.50	46845.82
584.66	46600.07
584.82	45895.56
584.98	45867.48
585.14	46403.46
585.30	45944.72
585.46	46483.04
585.62	46043.02
585.78	46380.06
585.94	45881.52
586.10	46349.63
586.26	46522.83
586.42	46351.97
586.58	46483.04
586.74	46239.62
586.90	46300.48
587.06	46211.54
587.22	46401.12
587.38	46120.26
587.54	46218.56
587.70	46890.29
587.86	46639.86
588.02	46679.64
588.18	46691.35
588.34	46656.24
588.49	46637.51
588.65	46384.74
588.81	46410.48
588.97	46433.89
589.13	45970.46
589.29	46361.33
589.45	46506.44
589.61	46586.02
589.77	46855.18
589.93	46621.13
590.08	46831.78
590.24	46677.30
590.40	46782.63
590.56	46351.97
590.72	46492.40
