SpectraSuite Data File
++++++++++++++++++++++++++++++++++++
Date: Fri Oct 04 11:39:31 GMT-05:00 2013
User: price-jones
Dark Spectrum Present: No
Reference Spectrum Present: No
Number of Sampled Component Spectra: 1
Spectrometers: USB2+H05261
Integration Time (usec): 100000 (USB2+H05261)
Spectra Averaged: 1 (USB2+H05261)
Boxcar Smoothing: 0 (USB2+H05261)
Correct for Electrical Dark: No (USB2+H05261)
Strobe/Lamp Enabled: No (USB2+H05261)
Correct for Detector Non-linearity: No (USB2+H05261)
Correct for Stray Light: No (USB2+H05261)
Number of Pixels in Processed Spectrum: 2048
>>>>>Begin Processed Spectral Data<<<<<
365.73	53.83
365.92	53.83
366.12	53.83
366.32	0.00
366.52	0.00
366.72	0.00
366.91	0.00
367.11	0.00
367.31	0.00
367.51	0.00
367.70	0.00
367.90	14.04
368.10	0.00
368.30	0.00
368.49	0.00
368.69	0.00
368.89	56.17
369.09	56.17
369.28	39.79
369.48	0.00
369.68	0.00
369.87	28.09
370.07	11.70
370.27	16.38
370.47	112.35
370.66	257.46
370.86	220.01
371.06	292.57
371.25	287.89
371.45	224.69
371.65	341.72
371.84	252.78
372.04	259.80
372.24	290.23
372.44	187.24
372.63	337.04
372.83	360.44
373.03	330.02
373.22	383.85
373.42	348.74
373.62	374.49
373.81	395.55
374.01	433.00
374.21	397.89
374.40	308.95
374.60	374.49
374.79	346.40
374.99	287.89
375.19	428.32
375.38	393.21
375.58	367.46
375.78	383.85
375.97	397.89
376.17	358.10
376.37	411.93
376.56	390.87
376.76	451.72
376.95	425.98
377.15	526.62
377.35	428.32
377.54	454.06
377.74	386.19
377.93	367.46
378.13	395.55
378.33	402.57
378.52	421.30
378.72	418.96
378.91	454.06
379.11	425.98
379.31	400.23
379.50	423.64
379.70	512.58
379.89	465.77
380.09	479.81
380.28	449.38
380.48	397.89
380.68	449.38
380.87	421.30
381.07	514.92
381.26	547.69
381.46	524.28
381.65	486.83
381.85	449.38
382.04	552.37
382.24	547.69
382.43	500.87
382.63	449.38
382.83	477.47
383.02	538.32
383.22	475.13
383.41	421.30
383.61	458.74
383.80	547.69
384.00	566.41
384.19	557.05
384.39	533.64
384.58	594.50
384.78	491.51
384.97	517.26
385.17	571.09
385.36	571.09
385.56	554.71
385.75	559.39
385.95	543.00
386.14	557.05
386.34	613.22
386.53	627.26
386.72	566.41
386.92	571.09
387.11	606.20
387.31	608.54
387.50	543.00
387.70	566.41
387.89	645.99
388.09	641.31
388.28	592.16
388.48	587.47
388.67	662.37
388.86	578.11
389.06	601.52
389.25	631.94
389.45	627.26
389.64	617.90
389.84	594.50
390.03	674.07
390.22	638.97
390.42	641.31
390.61	617.90
390.81	629.60
391.00	683.44
391.19	713.86
391.39	702.16
391.58	699.82
391.78	650.67
391.97	734.93
392.16	669.39
392.36	739.61
392.55	772.38
392.75	695.14
392.94	746.63
393.13	716.20
393.33	851.96
393.52	779.40
393.71	798.12
393.91	847.27
394.10	840.25
394.29	788.76
394.49	746.63
394.68	755.99
394.88	798.12
395.07	866.00
395.26	856.64
395.46	823.87
395.65	919.83
395.84	880.04
396.04	922.17
396.23	828.55
396.42	901.11
396.62	786.42
396.81	887.06
397.00	840.25
397.19	877.70
397.39	877.70
397.58	896.43
397.77	940.90
397.97	891.74
398.16	896.43
398.35	1041.54
398.55	976.00
398.74	985.37
398.93	980.68
399.12	1008.77
399.32	1015.79
399.51	1027.50
399.70	1043.88
399.90	1039.20
400.09	1095.37
400.28	1032.18
400.47	1149.20
400.67	1111.75
400.86	992.39
401.05	1039.20
401.24	1149.20
401.44	1132.82
401.63	1188.99
401.82	1132.82
402.01	1193.67
402.21	1275.59
402.40	1170.27
402.59	1139.84
402.78	1158.57
402.97	1205.38
403.17	1238.14
403.36	1380.92
403.55	1245.16
403.74	1317.72
403.93	1343.47
404.13	1324.74
404.32	1336.45
404.51	1348.15
404.70	1273.25
404.89	1329.42
405.09	1497.94
405.28	1324.74
405.47	1413.68
405.66	1481.56
405.85	1441.77
406.05	1437.09
406.24	1516.67
406.43	1519.01
406.62	1514.33
406.81	1540.07
407.00	1446.45
407.20	1556.46
407.39	1549.43
407.58	1610.29
407.77	1570.50
407.96	1607.95
408.15	1687.53
408.34	1631.35
408.54	1734.34
408.73	1722.63
408.92	1689.87
409.11	1703.91
409.30	1785.83
409.49	1863.07
409.68	1776.47
409.87	1650.08
410.07	1849.02
410.26	1888.81
410.45	1898.17
410.64	1816.26
410.83	1893.49
411.02	1825.62
411.21	1991.80
411.40	1966.05
411.59	2036.27
411.78	1921.58
411.98	2062.01
412.17	2015.20
412.36	1935.62
412.55	2059.67
412.74	2122.87
412.93	2176.70
413.12	2073.71
413.31	2174.36
413.50	2136.91
413.69	2181.38
413.88	2305.43
414.07	2375.64
414.26	2413.09
414.45	2422.45
414.64	2380.32
414.83	2361.60
415.02	2466.92
415.22	2443.52
415.41	2495.01
415.60	2567.57
415.79	2497.35
415.98	2523.10
416.17	2597.99
416.36	2612.04
416.55	2607.36
416.74	2562.89
416.93	2586.29
417.12	2738.43
417.31	2754.81
417.50	2731.41
417.69	2686.94
417.88	2766.51
418.07	2768.85
418.26	2867.16
418.45	2818.00
418.64	3000.57
418.83	2930.35
419.02	2806.30
419.21	2944.39
419.39	2970.14
419.58	2951.42
419.77	2977.16
419.96	3084.83
420.15	3112.91
420.34	3052.06
420.53	3131.64
420.72	3262.71
420.91	3173.77
421.10	3269.73
421.29	3157.38
421.48	3110.57
421.67	3239.30
421.86	3169.09
422.05	3421.86
422.24	3304.84
422.43	3288.45
422.61	3248.66
422.80	3346.97
422.99	3269.73
423.18	3272.07
423.37	3396.12
423.56	3314.20
423.75	3290.79
423.94	3325.90
424.13	3115.25
424.32	3246.32
424.50	3435.91
424.69	3417.18
424.88	3356.33
425.07	3403.14
425.26	3290.79
425.45	3529.53
425.64	3344.63
425.83	3438.25
426.01	3478.04
426.20	3471.01
426.39	3428.88
426.58	3574.00
426.77	3454.63
426.96	3386.76
427.15	3461.65
427.33	3473.36
427.52	3566.98
427.71	3548.25
427.90	3447.61
428.09	3669.96
428.28	3644.21
428.46	3714.43
428.65	3637.19
428.84	3686.34
429.03	3726.13
429.22	3712.09
429.40	3826.78
429.59	3831.46
429.78	3812.73
429.97	3552.93
430.16	3716.77
430.34	3873.59
430.53	3946.14
430.72	3805.71
430.91	3829.12
431.10	3782.31
431.28	3868.91
431.47	3978.91
431.66	3976.57
431.85	3995.29
432.03	4091.26
432.22	4238.71
432.41	4060.83
432.60	4042.11
432.79	3995.29
432.97	4060.83
433.16	4212.96
433.35	4147.43
433.54	4124.02
433.72	4149.77
433.91	4266.80
434.10	4145.09
434.28	4208.28
434.47	4311.27
434.66	4365.10
434.85	4414.25
435.03	4414.25
435.22	4540.64
435.41	4753.63
435.59	4617.88
435.78	4744.27
435.97	4535.96
436.16	4603.83
436.34	4432.97
436.53	4369.78
436.72	4552.34
436.90	4358.08
437.09	4517.23
437.28	4325.31
437.46	4442.34
437.65	4608.51
437.84	4533.62
438.02	4652.98
438.21	4699.80
438.40	4624.90
438.58	4678.73
438.77	4788.74
438.96	4753.63
439.14	4887.04
439.33	5029.81
439.52	4889.38
439.70	4975.98
439.89	5097.69
440.08	4945.55
440.26	5029.81
440.45	5034.49
440.63	5153.86
440.82	5114.07
441.01	5233.44
441.19	5245.14
441.38	5327.06
441.57	5413.66
441.75	5273.23
441.94	5434.72
442.12	5366.85
442.31	5551.75
442.50	5430.04
442.68	5336.42
442.87	5490.90
443.05	5547.07
443.24	5589.20
443.43	5607.92
443.61	5502.60
443.80	5584.52
443.98	5502.60
444.17	5460.47
444.35	5717.93
444.54	5762.40
444.73	5731.97
444.91	5621.97
445.10	5689.84
445.28	5755.38
445.47	5657.07
445.65	5767.08
445.84	5668.78
446.02	5628.99
446.21	5783.46
446.39	5645.37
446.58	5722.61
446.77	5973.05
446.95	5893.47
447.14	5750.70
447.32	5944.96
447.51	5982.41
447.69	5795.17
447.88	5886.45
448.06	5750.70
448.25	5816.23
448.43	5820.91
448.62	5874.74
448.80	5767.08
448.99	5940.28
449.17	6193.06
449.36	6017.52
449.54	6129.86
449.73	6083.05
449.91	6176.67
450.10	6209.44
450.28	6078.37
450.46	6328.81
450.65	6094.76
450.83	6223.48
451.02	6090.07
451.20	6235.19
451.39	6338.17
451.57	6429.45
451.76	6090.07
451.94	6235.19
452.13	6420.09
452.31	6253.91
452.49	6317.11
452.68	6253.91
452.86	6270.30
453.05	6424.77
453.23	6537.12
453.42	6382.64
453.60	6420.09
453.78	6572.22
453.97	6401.37
454.15	6593.29
454.34	6392.00
454.52	6595.63
454.70	6560.52
454.89	6537.12
455.07	6810.96
455.26	6635.42
455.44	6923.30
455.62	6715.00
455.81	6810.96
455.99	6785.21
456.17	6731.38
456.36	6869.47
456.54	7002.88
456.73	6958.41
456.91	7070.76
457.09	6998.20
457.28	7372.69
457.46	6984.16
457.64	7337.58
457.83	7119.91
458.01	7063.74
458.19	7433.54
458.38	7176.08
458.56	7365.67
458.74	7279.07
458.93	7269.70
459.11	7360.98
459.29	7314.17
459.48	7400.77
459.66	7344.60
459.84	7473.33
460.03	7452.27
460.21	7442.90
460.39	7508.44
460.57	7351.62
460.76	7597.38
460.94	7655.89
461.12	7510.78
461.31	7534.18
461.49	7377.37
461.67	7468.65
461.85	7740.15
462.04	7700.36
462.22	7625.47
462.40	7716.75
462.59	7927.39
462.77	7861.86
462.95	7873.56
463.13	7845.48
463.32	7868.88
463.50	7997.61
463.68	8056.12
463.86	7901.65
464.05	7953.14
464.23	7976.55
464.41	7992.93
464.59	7894.63
464.78	8203.58
464.96	8124.00
465.14	8159.11
465.32	8140.38
465.50	7999.95
465.69	8311.24
465.87	8194.22
466.05	8154.43
466.23	8049.10
466.41	8264.43
466.60	8344.01
466.78	8229.32
466.96	8257.41
467.14	8018.68
467.32	8152.09
467.51	8315.92
467.69	8159.11
467.87	8451.67
468.05	8608.49
468.23	8561.68
468.41	8301.88
468.60	8629.56
468.78	8711.47
468.96	8599.13
469.14	8723.18
469.32	8685.73
469.50	8681.05
469.69	8601.47
469.87	8847.22
470.05	8868.29
470.23	8847.22
470.41	8828.50
470.59	8840.20
470.77	8870.63
470.95	9132.77
471.14	8861.27
471.32	8933.82
471.50	9198.31
471.68	9158.52
471.86	9336.40
472.04	9123.41
472.22	9214.69
472.40	9210.01
472.58	9303.63
472.77	9193.62
472.95	9596.20
473.13	9614.92
473.31	9479.17
473.49	9540.02
473.67	9525.98
473.85	9544.70
474.03	9891.10
474.21	9919.19
474.39	9956.64
474.57	9715.56
474.75	9830.25
474.93	10193.03
475.12	9839.61
475.30	10090.05
475.48	9914.51
475.66	10178.99
475.84	10239.84
476.02	10249.21
476.20	10274.95
476.38	10527.73
476.56	10834.34
476.74	10733.70
476.92	10721.99
477.10	10693.91
477.28	10834.34
477.46	10719.65
477.64	10902.22
477.82	11068.39
478.00	11342.24
478.18	11300.11
478.36	11379.68
478.54	11442.88
478.72	11442.88
478.90	11475.65
479.08	11779.92
479.26	11812.68
479.44	11847.79
479.62	12077.16
479.80	11920.35
479.98	12128.66
480.16	12386.12
480.34	12170.79
480.52	12334.62
480.70	12255.04
480.88	12245.68
481.06	12531.23
481.24	12283.13
481.41	12652.94
481.59	12901.03
481.77	12809.75
481.95	12966.57
482.13	13036.78
482.31	13214.66
482.49	13453.40
482.67	13399.57
482.85	13301.26
483.03	13652.34
483.21	13963.64
483.39	13942.57
483.57	13891.08
483.74	14078.32
483.92	14260.88
484.10	14104.07
484.28	14506.64
484.46	14738.35
484.64	14670.48
484.82	14609.62
485.00	14920.92
485.18	15143.27
485.35	15133.90
485.53	15246.25
485.71	15309.44
485.89	15473.28
486.07	15309.44
486.25	15627.76
486.43	15772.87
486.61	15756.49
486.78	16273.74
486.96	15939.05
487.14	16358.00
487.32	16465.67
487.50	16514.82
487.68	16435.24
487.85	16573.33
488.03	16975.91
488.21	16814.41
488.39	17149.11
488.57	17231.02
488.75	17434.65
488.92	17792.75
489.10	18033.83
489.28	17762.33
489.46	18104.04
489.64	17867.65
489.81	18380.23
489.99	18232.77
490.17	18363.84
490.35	18654.07
490.53	18520.66
490.70	19075.37
490.88	18876.42
491.06	19037.92
491.24	18972.38
491.41	19150.26
491.59	19367.93
491.77	19129.20
491.95	19695.61
492.13	19667.52
492.30	19875.83
492.48	19906.26
492.66	19920.30
492.84	20088.82
493.01	20198.82
493.19	20561.61
493.37	20339.26
493.54	20381.38
493.72	20643.52
493.90	20755.87
494.08	20823.75
494.25	21081.21
494.43	21221.64
494.61	21715.49
494.79	21341.00
494.96	21369.09
495.14	21865.28
495.32	21706.13
495.49	21914.44
495.67	22190.62
495.85	22141.47
496.02	22295.94
496.20	22419.99
496.38	22492.55
496.55	22527.66
496.73	22864.69
496.91	22773.41
497.09	22764.05
497.26	23063.64
497.44	23185.35
497.62	23171.30
497.79	23594.94
497.97	23426.42
498.14	23770.48
498.32	23875.80
498.50	24170.71
498.67	24006.87
498.85	24269.01
499.03	24556.90
499.20	24486.68
499.38	24517.11
499.56	24189.44
499.73	24627.12
499.91	24919.68
500.08	24683.29
500.26	24711.38
500.44	25132.67
500.61	24959.47
500.79	24863.51
500.97	24823.72
501.14	25633.55
501.32	25181.82
501.49	25500.14
501.67	25528.22
501.84	25654.61
502.02	25579.71
502.20	25865.26
502.37	26118.04
502.55	25518.86
502.72	26249.11
502.90	26111.02
503.07	25811.43
503.25	25951.86
503.43	26340.39
503.60	26398.90
503.78	26419.97
503.95	26632.96
504.13	26792.11
504.30	26668.06
504.48	26696.15
504.65	26948.93
504.83	27211.07
505.01	27370.22
505.18	26874.03
505.36	27215.75
505.53	27175.96
505.71	27143.19
505.88	27480.23
506.06	27470.87
506.23	27854.72
506.41	27578.53
506.58	28107.49
506.76	27819.61
506.93	28210.48
507.11	27936.63
507.28	27887.48
507.46	27992.81
507.63	28166.01
507.81	28435.17
507.98	28432.83
508.16	28526.45
508.33	28610.71
508.50	28266.65
508.68	28673.90
508.85	28809.65
509.03	28694.97
509.20	29256.70
509.38	29336.27
509.55	29172.44
509.73	29507.13
509.90	29788.00
510.08	29413.51
510.25	29518.84
510.42	30050.14
510.60	29783.32
510.77	30019.71
510.95	30206.95
511.12	29846.51
511.30	29958.86
511.47	30089.93
511.64	29954.18
511.82	30651.66
511.99	30513.56
512.17	30536.97
512.34	30696.13
512.51	30476.12
512.69	31049.55
512.86	30888.05
513.04	31342.11
513.21	31688.51
513.38	31344.45
513.56	31192.32
513.73	30991.03
513.90	31159.55
514.08	31178.28
514.25	31693.19
514.43	32055.98
514.60	31948.31
514.77	31665.11
514.95	31587.87
515.12	31728.30
515.29	31775.11
515.47	32053.64
515.64	32086.40
515.81	31978.74
515.99	32198.75
516.16	32638.77
516.33	32072.36
516.51	32704.31
516.68	32210.45
516.85	32133.21
517.03	32804.95
517.20	32669.20
517.37	32589.62
517.54	32847.08
517.72	32790.91
517.89	33083.47
518.06	33017.94
518.24	33312.84
518.41	33460.30
518.58	33055.39
518.75	32905.59
518.93	33759.89
519.10	33497.75
519.27	33762.23
519.45	33694.35
519.62	33900.32
519.79	33764.57
519.96	33930.75
520.14	34120.33
520.31	33233.27
520.48	34110.97
520.65	34043.09
520.83	34300.55
521.00	34235.02
521.17	34305.23
521.34	34321.62
521.52	34206.93
521.69	34497.16
521.86	35070.59
522.03	34778.02
522.20	35108.04
522.38	34785.04
522.55	34717.17
522.72	35213.36
522.89	35529.33
523.07	35253.15
523.24	35007.39
523.41	34881.00
523.58	34829.51
523.75	35681.47
523.92	35129.10
524.10	35606.57
524.27	35321.02
524.44	35288.26
524.61	35754.02
524.78	36093.40
524.96	36144.89
525.13	36154.26
525.30	36084.04
525.47	35875.73
525.64	36180.00
525.81	36701.94
525.98	36215.11
526.16	36376.61
526.33	36322.77
526.50	36711.30
526.67	35749.34
526.84	36573.21
527.01	36100.42
527.18	36587.25
527.36	36484.27
527.53	36643.43
527.70	37022.59
527.87	36851.73
528.04	37031.96
528.21	37401.76
528.38	36919.61
528.55	37202.82
528.72	36919.61
528.89	37219.20
529.07	37556.24
529.24	37212.18
529.41	37139.62
529.58	36961.74
529.75	37172.39
529.92	37347.93
530.09	37427.51
530.26	37638.15
530.43	37762.20
530.60	37614.75
530.77	37289.42
530.94	37790.29
531.11	37900.29
531.28	38096.90
531.46	37696.67
531.63	38256.06
531.80	37977.53
531.97	38101.58
532.14	38394.15
532.31	38080.52
532.48	37975.19
532.65	38712.46
532.82	38129.67
532.99	38354.36
533.16	38719.48
533.33	38522.88
533.50	38902.04
533.67	38686.71
533.84	38490.11
534.01	38567.35
534.18	38733.53
534.35	38609.48
534.52	38424.57
534.69	39023.75
534.86	39164.18
535.03	39098.65
535.20	38789.70
535.37	39007.37
535.54	39171.21
535.71	39395.90
535.88	39618.25
536.05	39243.76
536.22	39423.98
536.38	39885.07
536.55	39370.15
536.72	39931.88
536.89	39140.78
537.06	39454.41
537.23	39716.55
537.40	39697.83
537.57	39641.65
537.74	39583.14
537.91	39899.11
538.08	40318.07
538.25	39880.39
538.42	39990.39
538.59	40182.32
538.75	39838.26
538.92	40051.25
539.09	40088.70
539.26	40390.62
539.43	40156.57
539.60	40212.74
539.77	40652.76
539.94	40322.75
540.11	40367.22
540.28	40704.26
540.44	40641.06
540.61	40449.14
540.78	40669.15
540.95	41301.09
541.12	41139.60
541.29	40891.50
541.46	40926.61
541.62	41003.85
541.79	40926.61
541.96	40692.55
542.13	40928.95
542.30	41324.50
542.47	41703.67
542.63	41684.94
542.80	41757.50
542.97	41610.04
543.14	41977.51
543.31	41235.56
543.48	41326.84
543.64	41516.42
543.81	41970.49
543.98	41654.51
544.15	42249.01
544.32	42431.57
544.48	42443.27
544.65	41909.63
544.82	41640.47
544.99	41888.57
545.16	41902.61
545.32	41649.83
545.49	42567.32
545.66	43019.05
545.83	43182.88
546.00	43339.70
546.16	42576.69
546.33	41975.17
546.50	42033.68
546.67	42349.65
546.83	41787.92
547.00	41986.87
547.17	42298.16
547.34	42314.55
547.50	42752.23
547.67	42988.62
547.84	42761.59
548.00	42876.27
548.17	42476.04
548.34	42476.04
548.51	43445.02
548.67	42483.06
548.84	42887.98
549.01	42564.98
549.18	43054.15
549.34	42686.69
549.51	42871.59
549.68	42478.38
549.84	42997.98
550.01	42625.84
550.18	42483.06
550.34	43220.33
550.51	43342.04
550.68	42920.74
550.84	42885.64
551.01	43353.74
551.18	42850.53
551.34	42719.46
551.51	42649.24
551.68	43082.24
551.84	42871.59
552.01	43012.02
552.18	43377.15
552.34	43217.99
552.51	43143.09
552.68	42801.38
552.84	43487.15
553.01	43569.07
553.18	43496.52
553.34	43559.71
553.51	43381.83
553.67	43697.80
553.84	44053.56
554.01	43789.08
554.17	43700.14
554.34	43606.52
554.51	43445.02
554.67	43761.00
554.84	43793.76
555.00	43742.27
555.17	43695.46
555.33	43966.96
555.50	43536.30
555.67	43550.35
555.83	43817.17
556.00	43878.02
556.16	43653.33
556.33	43213.31
556.50	44388.26
556.66	43730.57
556.83	44275.91
556.99	44128.46
557.16	44416.35
557.32	44105.06
557.49	43985.69
557.65	43833.55
557.82	43880.36
557.98	43662.69
558.15	44219.74
558.32	44617.63
558.48	44067.61
558.65	44292.30
558.81	44102.71
558.98	44184.63
559.14	44198.68
559.31	43885.04
559.47	44259.53
559.64	43859.30
559.80	44341.45
559.97	44524.01
560.13	43952.92
560.30	44521.67
560.46	44800.19
560.63	44334.43
560.79	44582.52
560.96	44814.24
561.12	44385.92
561.29	44685.51
561.45	44446.77
561.61	45036.59
561.78	44924.24
561.94	44442.09
562.11	44481.88
562.27	44699.55
562.44	44465.50
562.60	44509.97
562.77	44598.91
562.93	44126.12
563.10	45097.44
563.26	44570.82
563.42	45404.05
563.59	44753.38
563.75	44884.45
563.92	44973.39
564.08	44285.28
564.24	44580.18
564.41	44231.44
564.57	44540.39
564.74	44619.97
564.90	44818.92
565.07	44746.36
565.23	44598.91
565.39	44732.32
565.56	44699.55
565.72	44325.07
565.88	44727.64
566.05	44893.82
566.21	44648.06
566.38	44275.91
566.54	45074.04
566.70	45256.60
566.87	45134.89
567.03	44896.16
567.19	45038.93
567.36	45109.14
567.52	44903.18
567.68	45265.96
567.85	44769.77
568.01	45099.78
568.17	45055.31
568.34	44978.07
568.50	45036.59
568.66	45008.50
568.83	45167.66
568.99	45132.55
569.15	44821.26
569.32	44980.42
569.48	45193.40
569.64	44992.12
569.81	44928.92
569.97	45481.29
570.13	45413.41
570.30	44706.57
570.46	44854.03
570.62	45029.57
570.78	44938.29
570.95	44624.65
571.11	45415.76
571.27	44935.95
571.43	44514.65
571.60	45104.46
571.76	45373.63
571.92	45151.27
572.09	45478.95
572.25	45361.92
572.41	45139.57
572.57	45160.64
572.74	45572.57
572.90	44835.30
573.06	45038.93
573.22	45006.16
573.38	45233.19
573.55	45361.92
573.71	45556.19
573.87	45614.70
574.03	45034.25
574.20	45001.48
574.36	45125.53
574.52	45221.49
574.68	45488.31
574.84	45303.41
575.01	45357.24
575.17	45242.56
575.33	44964.03
575.49	45081.06
575.65	45844.07
575.82	45305.75
575.98	45059.99
576.14	45186.38
576.30	45390.01
576.46	45235.53
576.62	45516.40
576.79	45397.03
576.95	45237.87
577.11	45528.10
577.27	45563.21
577.43	45638.11
577.59	45333.84
577.75	45551.51
577.92	45284.68
578.08	44980.42
578.24	45048.29
578.40	45139.57
578.56	45312.77
578.72	45619.38
578.88	45762.15
579.04	45560.87
579.21	45516.40
579.37	45263.62
579.53	45399.37
579.69	45373.63
579.85	44783.81
580.01	45301.07
580.17	45069.36
580.33	45324.47
580.49	45724.71
580.65	45928.33
580.82	45607.68
580.98	45195.74
581.14	44917.22
581.30	45607.68
581.46	45214.47
581.62	45530.44
581.78	45081.06
581.94	45324.47
582.10	45368.94
582.26	45652.15
582.42	45162.98
582.58	45289.37
582.74	45457.88
582.90	45368.94
583.06	45471.93
583.22	45195.74
583.38	45258.94
583.54	45102.12
583.70	45001.48
583.86	45390.01
584.02	45228.51
584.18	45532.78
584.34	45432.14
584.50	46176.43
584.66	45368.94
584.82	45233.19
584.98	45420.44
585.14	45301.07
585.30	45162.98
585.46	45162.98
585.62	45214.47
585.78	45525.76
585.94	45170.00
586.10	45481.29
586.26	45429.80
586.42	46066.42
586.58	45446.18
586.74	45207.45
586.90	45390.01
587.06	45312.77
587.22	45624.06
587.38	45076.38
587.54	45574.91
587.70	45315.11
587.86	45666.19
588.02	45610.02
588.18	45869.82
588.34	46031.32
588.49	45815.99
588.65	45085.74
588.81	45539.80
588.97	45677.90
589.13	45544.48
589.29	45743.43
589.45	45820.67
589.61	45441.50
589.77	45698.96
589.93	45308.09
590.08	45813.65
590.24	45680.24
590.40	45586.61
590.56	46134.30
590.72	45471.93
