SpectraSuite Data File
++++++++++++++++++++++++++++++++++++
Date: Fri Oct 04 11:39:49 GMT-05:00 2013
User: price-jones
Dark Spectrum Present: No
Reference Spectrum Present: No
Number of Sampled Component Spectra: 1
Spectrometers: USB2+H05261
Integration Time (usec): 100000 (USB2+H05261)
Spectra Averaged: 1 (USB2+H05261)
Boxcar Smoothing: 0 (USB2+H05261)
Correct for Electrical Dark: No (USB2+H05261)
Strobe/Lamp Enabled: No (USB2+H05261)
Correct for Detector Non-linearity: No (USB2+H05261)
Correct for Stray Light: No (USB2+H05261)
Number of Pixels in Processed Spectrum: 2048
>>>>>Begin Processed Spectral Data<<<<<
365.73	0.00
365.92	0.00
366.12	0.00
366.32	0.00
366.52	0.00
366.72	0.00
366.91	0.00
367.11	18.72
367.31	0.00
367.51	0.00
367.70	0.00
367.90	0.00
368.10	0.00
368.30	0.00
368.49	0.00
368.69	0.00
368.89	0.00
369.09	0.00
369.28	0.00
369.48	0.00
369.68	0.00
369.87	28.09
370.07	0.00
370.27	16.38
370.47	0.00
370.66	51.49
370.86	140.43
371.06	145.11
371.25	142.77
371.45	184.90
371.65	196.60
371.84	135.75
372.04	159.16
372.24	145.11
372.44	152.13
372.63	238.73
372.83	245.76
373.03	255.12
373.22	203.63
373.42	194.26
373.62	283.20
373.81	231.71
374.01	201.29
374.21	238.73
374.40	217.67
374.60	220.01
374.79	210.65
374.99	161.50
375.19	203.63
375.38	238.73
375.58	278.52
375.78	194.26
375.97	250.44
376.17	264.48
376.37	248.10
376.56	215.33
376.76	187.24
376.95	196.60
377.15	222.35
377.35	262.14
377.54	241.08
377.74	227.03
377.93	248.10
378.13	266.82
378.33	320.65
378.52	196.60
378.72	269.16
378.91	266.82
379.11	210.65
379.31	273.84
379.50	287.89
379.70	283.20
379.89	276.18
380.09	269.16
380.28	250.44
380.48	266.82
380.68	220.01
380.87	194.26
381.07	224.69
381.26	266.82
381.46	182.56
381.65	285.55
381.85	304.27
382.04	285.55
382.24	250.44
382.43	271.50
382.63	262.14
382.83	212.99
383.02	271.50
383.22	292.57
383.41	262.14
383.61	229.37
383.80	173.20
384.00	299.59
384.19	266.82
384.39	210.65
384.58	205.97
384.78	327.68
384.97	220.01
385.17	215.33
385.36	248.10
385.56	325.33
385.75	269.16
385.95	287.89
386.14	222.35
386.34	285.55
386.53	290.23
386.72	224.69
386.92	299.59
387.11	278.52
387.31	285.55
387.50	250.44
387.70	257.46
387.89	292.57
388.09	367.46
388.28	252.78
388.48	297.25
388.67	358.10
388.86	229.37
389.06	332.36
389.25	341.72
389.45	273.84
389.64	369.80
389.84	383.85
390.03	386.19
390.22	334.70
390.42	299.59
390.61	304.27
390.81	322.99
391.00	220.01
391.19	388.53
391.39	311.29
391.58	327.68
391.78	250.44
391.97	402.57
392.16	308.95
392.36	278.52
392.55	266.82
392.75	355.76
392.94	332.36
393.13	383.85
393.33	313.63
393.52	318.31
393.71	442.36
393.91	304.27
394.10	297.25
394.29	306.61
394.49	362.78
394.68	376.83
394.88	280.86
395.07	374.49
395.26	397.89
395.46	322.99
395.65	451.72
395.84	411.93
396.04	428.32
396.23	411.93
396.42	395.55
396.62	430.66
396.81	365.12
397.00	423.64
397.19	404.91
397.39	388.53
397.58	423.64
397.77	437.68
397.97	463.43
398.16	444.70
398.35	451.72
398.55	447.04
398.74	390.87
398.93	458.74
399.12	521.94
399.32	423.64
399.51	414.27
399.70	550.03
399.90	458.74
400.09	498.53
400.28	486.83
400.47	500.87
400.67	503.22
400.86	533.64
401.05	503.22
401.24	503.22
401.44	517.26
401.63	500.87
401.82	596.84
402.01	444.70
402.21	521.94
402.40	543.00
402.59	479.81
402.78	521.94
402.97	484.49
403.17	596.84
403.36	498.53
403.55	557.05
403.74	493.85
403.93	543.00
404.13	634.29
404.32	550.03
404.51	610.88
404.70	613.22
404.89	622.58
405.09	627.26
405.28	573.43
405.47	643.65
405.66	543.00
405.85	578.11
406.05	566.41
406.24	554.71
406.43	627.26
406.62	720.88
406.81	660.03
407.00	629.60
407.20	634.29
407.39	620.24
407.58	650.67
407.77	645.99
407.96	650.67
408.15	657.69
408.34	613.22
408.54	730.25
408.73	730.25
408.92	674.07
409.11	741.95
409.30	702.16
409.49	629.60
409.68	723.23
409.87	763.01
410.07	781.74
410.26	723.23
410.45	748.97
410.64	713.86
410.83	772.38
411.02	727.91
411.21	805.14
411.40	798.12
411.59	826.21
411.78	861.32
411.98	770.04
412.17	786.42
412.36	816.85
412.55	723.23
412.74	873.02
412.93	767.70
413.12	891.74
413.31	894.08
413.50	917.49
413.69	868.34
413.88	912.81
414.07	866.00
414.26	917.49
414.45	936.21
414.64	1022.81
414.83	959.62
415.02	924.51
415.22	990.05
415.41	1013.45
415.60	945.58
415.79	1041.54
415.98	1025.15
416.17	966.64
416.36	1029.84
416.55	1025.15
416.74	1039.20
416.93	1137.50
417.12	1062.60
417.31	1078.99
417.50	1090.69
417.69	1151.54
417.88	1151.54
418.07	1121.12
418.26	1088.35
418.45	1205.38
418.64	1060.26
418.83	1228.78
419.02	1128.14
419.21	1156.22
419.39	1205.38
419.58	1165.59
419.77	1153.88
419.96	1214.74
420.15	1186.65
420.34	1163.25
420.53	1275.59
420.72	1221.76
420.91	1062.60
421.10	1268.57
421.29	1282.61
421.48	1214.74
421.67	1142.18
421.86	1224.10
422.05	1315.38
422.24	1193.67
422.43	1252.19
422.61	1207.72
422.80	1259.21
422.99	1320.06
423.18	1296.66
423.37	1336.45
423.56	1308.36
423.75	1315.38
423.94	1247.51
424.13	1191.33
424.32	1207.72
424.50	1299.00
424.69	1308.36
424.88	1254.53
425.07	1254.53
425.26	1355.17
425.45	1170.27
425.64	1275.59
425.83	1252.19
426.01	1357.51
426.20	1359.85
426.39	1336.45
426.58	1362.19
426.77	1268.57
426.96	1336.45
427.15	1427.73
427.33	1345.81
427.52	1324.74
427.71	1294.32
427.90	1462.83
428.09	1310.70
428.28	1369.21
428.46	1350.49
428.65	1385.60
428.84	1439.43
429.03	1373.89
429.22	1376.24
429.40	1516.67
429.59	1399.64
429.78	1310.70
429.97	1327.08
430.16	1385.60
430.34	1406.66
430.53	1476.88
430.72	1467.52
430.91	1425.39
431.10	1434.75
431.28	1418.36
431.47	1582.20
431.66	1603.27
431.85	1483.90
432.03	1575.18
432.22	1570.50
432.41	1434.75
432.60	1558.80
432.79	1493.26
432.97	1561.14
433.16	1561.14
433.35	1544.75
433.54	1542.41
433.72	1645.40
433.91	1526.03
434.10	1692.21
434.28	1535.39
434.47	1563.48
434.66	1582.20
434.85	1657.10
435.03	1636.03
435.22	1863.07
435.41	2073.71
435.59	1944.99
435.78	1846.68
435.97	1753.06
436.16	1804.55
436.34	1603.27
436.53	1680.50
436.72	1741.36
436.90	1654.76
437.09	1664.12
437.28	1708.59
437.46	1722.63
437.65	1661.78
437.84	1764.76
438.02	1661.78
438.21	1760.08
438.40	1764.76
438.58	1764.76
438.77	1818.60
438.96	1792.85
439.14	1785.83
439.33	1778.81
439.52	1881.79
439.70	1912.22
439.89	1830.30
440.08	1863.07
440.26	1954.35
440.45	1905.20
440.63	1935.62
440.82	1935.62
441.01	1867.75
441.19	1893.49
441.38	1959.03
441.57	1912.22
441.75	2064.35
441.94	1963.71
442.12	1928.60
442.31	2017.54
442.50	2043.29
442.68	2033.93
442.87	2155.63
443.05	2029.24
443.24	2036.27
443.43	2094.78
443.61	2073.71
443.80	2188.40
443.98	1900.52
444.17	1886.47
444.35	2188.40
444.54	2127.55
444.73	2026.90
444.91	1989.46
445.10	2012.86
445.28	2125.21
445.47	2024.56
445.65	2139.25
445.84	2153.29
446.02	2218.83
446.21	2165.00
446.39	2127.55
446.58	2150.95
446.77	1991.80
446.95	2036.27
447.14	2092.44
447.32	2214.15
447.51	2129.89
447.69	2134.57
447.88	2230.53
448.06	2181.38
448.25	2143.93
448.43	2108.82
448.62	2193.08
448.80	2167.34
448.99	2218.83
449.17	2080.74
449.36	2228.19
449.54	2244.57
449.73	2235.21
449.91	2230.53
450.10	2193.08
450.28	2317.13
450.46	2244.57
450.65	2340.54
450.83	2282.02
451.02	2331.17
451.20	2246.91
451.39	2335.85
451.57	2242.23
451.76	2291.38
451.94	2246.91
452.13	2352.24
452.31	2373.30
452.49	2361.60
452.68	2401.39
452.86	2396.71
453.05	2385.01
453.23	2368.62
453.42	2256.28
453.60	2263.30
453.78	2410.75
453.97	2368.62
454.15	2394.37
454.34	2370.96
454.52	2443.52
454.70	2310.11
454.89	2459.90
455.07	2441.18
455.26	2537.14
455.44	2480.97
455.62	2520.76
455.81	2424.80
455.99	2492.67
456.17	2574.59
456.36	2417.77
456.54	2490.33
456.73	2478.63
456.91	2644.81
457.09	2555.86
457.28	2661.19
457.46	2518.42
457.64	2576.93
457.83	2602.68
458.01	2469.27
458.19	2672.89
458.38	2516.08
458.56	2586.29
458.74	2621.40
458.93	2616.72
459.11	2675.23
459.29	2663.53
459.48	2612.04
459.66	2675.23
459.84	2698.64
460.03	2876.52
460.21	2684.59
460.39	2698.64
460.57	2712.68
460.76	2787.58
460.94	2778.22
461.12	2700.98
461.31	2843.75
461.49	2820.35
461.67	2750.13
461.85	2750.13
462.04	2761.83
462.22	3152.70
462.40	2932.69
462.59	2719.70
462.77	2775.88
462.95	2949.08
463.13	2855.45
463.32	2876.52
463.50	2853.11
463.68	2850.77
463.86	2829.71
464.05	2801.62
464.23	2864.82
464.41	3014.61
464.59	2860.13
464.78	2902.26
464.96	2825.03
465.14	2899.92
465.32	2986.52
465.50	2904.60
465.69	2916.31
465.87	2949.08
466.05	2946.73
466.23	2874.18
466.41	2888.22
466.60	2977.16
466.78	2839.07
466.96	2930.35
467.14	3042.70
467.32	2984.18
467.51	3206.53
467.69	3019.29
467.87	3002.91
468.05	3059.08
468.23	3070.78
468.41	3084.83
468.60	3035.67
468.78	3138.66
468.96	3054.40
469.14	3045.04
469.32	3066.10
469.50	3159.72
469.69	3272.07
469.87	3131.64
470.05	3225.26
470.23	3098.87
470.41	3208.87
470.59	3211.22
470.77	3208.87
470.95	3218.24
471.14	3220.58
471.32	3208.87
471.50	3351.65
471.68	3229.94
471.86	3246.32
472.04	3190.15
472.22	3346.97
472.40	3297.81
472.58	3361.01
472.77	3344.63
472.95	3412.50
473.13	3564.64
473.31	3255.69
473.49	3239.30
473.67	3208.87
473.85	3417.18
474.03	3552.93
474.21	3550.59
474.39	3688.68
474.57	3574.00
474.75	3599.74
474.93	3662.94
475.12	3569.32
475.30	3543.57
475.48	3651.24
475.66	3627.83
475.84	3604.42
476.02	3634.85
476.20	3627.83
476.38	3658.26
476.56	3772.94
476.74	3761.24
476.92	3791.67
477.10	3929.76
477.28	3772.94
477.46	3840.82
477.64	3819.75
477.82	3922.74
478.00	4011.68
478.18	3964.87
478.36	4028.06
478.54	3868.91
478.72	4025.72
478.90	4145.09
479.08	4011.68
479.26	4152.11
479.44	4194.24
479.62	4077.21
479.80	4152.11
479.98	4236.37
480.16	4306.59
480.34	4180.20
480.52	4327.65
480.70	4285.52
480.88	4325.31
481.06	4285.52
481.24	4442.34
481.41	4486.81
481.59	4456.38
481.77	4531.28
481.95	4613.20
482.13	4629.58
482.31	4716.18
482.49	4645.96
482.67	4744.27
482.85	4697.46
483.03	4847.25
483.21	4933.85
483.39	4910.44
483.57	4971.30
483.74	4926.83
483.92	5074.28
484.10	5069.60
484.28	5107.05
484.46	5174.92
484.64	5179.61
484.82	5069.60
485.00	5217.05
485.18	5163.22
485.35	5291.95
485.53	5416.00
485.71	5291.95
485.89	5394.93
486.07	5329.40
486.25	5383.23
486.43	5589.20
486.61	5528.35
486.78	5626.65
486.96	5809.21
487.14	5783.46
487.32	5720.27
487.50	5724.95
487.68	5776.44
487.85	5898.15
488.03	5973.05
488.21	6015.18
488.39	6026.88
488.57	5961.34
488.75	6087.73
488.92	6282.00
489.10	6150.93
489.28	6183.70
489.46	6094.76
489.64	6237.53
489.81	6211.78
489.99	6359.24
490.17	6352.21
490.35	6600.31
490.53	6478.60
490.70	6537.12
490.88	6548.82
491.06	6579.25
491.24	6698.61
491.41	6569.88
491.59	6867.13
491.77	6759.47
491.95	6829.68
492.13	6757.13
492.30	6684.57
492.48	6813.30
492.66	6729.04
492.84	6850.75
493.01	6963.09
493.19	6906.92
493.37	7148.00
493.54	7035.65
493.72	7201.83
493.90	7213.53
494.08	7047.35
494.25	7382.05
494.43	7173.74
494.61	7363.33
494.79	7325.88
494.96	7468.65
495.14	7375.03
495.32	7508.44
495.49	7606.74
495.67	7566.95
495.85	7620.78
496.02	7623.12
496.20	7538.87
496.38	7719.09
496.55	7936.76
496.73	7918.03
496.91	7702.70
497.09	7801.01
497.26	7793.98
497.44	7798.66
497.62	7803.35
497.79	8191.88
497.97	7971.86
498.14	8156.77
498.32	8154.43
498.50	8149.75
498.67	8138.04
498.85	8112.30
499.03	8215.28
499.20	8049.10
499.38	8156.77
499.56	8386.14
499.73	8493.80
499.91	8355.71
500.08	8482.10
500.26	8519.55
500.44	8294.86
500.61	8601.47
500.79	8432.95
500.97	8706.79
501.14	8475.08
501.32	8451.67
501.49	8564.02
501.67	8659.98
501.84	8847.22
502.02	8674.03
502.20	8772.33
502.37	8725.52
502.55	8926.80
502.72	8894.04
502.90	8662.32
503.07	8727.86
503.25	8765.31
503.43	8847.22
503.60	9039.15
503.78	8842.54
503.95	9060.21
504.13	9121.07
504.30	9074.26
504.48	9046.17
504.65	8954.89
504.83	9235.75
505.01	9123.41
505.18	9142.13
505.36	9249.80
505.53	9493.21
505.71	9305.97
505.88	9348.10
506.06	9067.24
506.23	9423.00
506.41	9350.44
506.58	9502.58
506.76	9338.74
506.93	9579.81
507.11	9472.15
507.28	9425.34
507.46	9593.86
507.63	9823.23
507.81	9738.97
507.98	9640.67
508.16	9806.84
508.33	9806.84
508.50	9750.67
508.68	9785.78
508.85	9839.61
509.03	9703.86
509.20	9799.82
509.38	9750.67
509.55	9987.07
509.73	10064.30
509.90	9982.38
510.08	9961.32
510.25	9893.44
510.42	10071.33
510.60	10164.95
510.77	10258.57
510.95	10136.86
511.12	10078.35
511.30	10251.55
511.47	10296.02
511.64	10431.77
511.82	10389.64
511.99	10422.41
512.17	10366.23
512.34	10340.49
512.51	10511.35
512.69	10277.29
512.86	10436.45
513.04	10429.43
513.21	10415.38
513.38	10452.83
513.56	10473.90
513.73	10808.59
513.90	10623.69
514.08	10647.10
514.25	10520.71
514.43	10586.24
514.60	10600.29
514.77	10796.89
514.95	10878.81
515.12	10642.42
515.29	10824.98
515.47	10897.53
515.64	10942.00
515.81	10750.08
515.99	11119.89
516.16	11166.70
516.33	10960.73
516.51	10920.94
516.68	11023.92
516.85	10705.61
517.03	11070.73
517.20	10944.34
517.37	11089.46
517.54	11145.63
517.72	11140.95
517.89	11239.25
518.06	11070.73
518.24	11335.21
518.41	11178.40
518.58	11323.51
518.75	11260.32
518.93	11459.26
519.10	11250.96
519.27	11412.45
519.45	11061.37
519.62	11255.64
519.79	11290.74
519.96	11267.34
520.14	11548.20
520.31	11463.94
520.48	11382.03
520.65	11562.25
520.83	11761.19
521.00	11681.61
521.17	11571.61
521.34	11442.88
521.52	11660.55
521.69	11538.84
521.86	11531.82
522.03	11740.13
522.20	11805.66
522.38	11735.45
522.55	11838.43
522.72	11735.45
522.89	11932.05
523.07	11918.01
523.24	11637.14
523.41	11864.18
523.58	11789.28
523.75	11719.06
523.92	11913.33
524.10	11873.54
524.27	11939.07
524.44	11969.50
524.61	12210.57
524.78	12002.27
524.96	12105.25
525.13	11939.07
525.30	11995.25
525.47	12189.51
525.64	12004.61
525.81	12196.53
525.98	11976.52
526.16	12070.14
526.33	12088.87
526.50	12416.54
526.67	12131.00
526.84	12210.57
527.01	12212.92
527.18	12362.71
527.36	12453.99
527.53	12341.64
527.70	12556.97
527.87	12407.18
528.04	12477.40
528.21	12477.40
528.38	12365.05
528.55	12475.06
528.72	12435.27
528.89	12622.51
529.07	12608.47
529.24	12622.51
529.41	12524.21
529.58	12336.96
529.75	12301.86
529.92	12297.17
530.09	12716.13
530.26	12554.63
530.43	12685.70
530.60	12442.29
530.77	12596.76
530.94	12723.15
531.11	12552.29
531.28	12760.60
531.46	12709.11
531.63	12786.35
531.80	12627.19
531.97	12954.87
532.14	12982.95
532.31	13074.23
532.48	12463.35
532.65	12903.37
532.82	12713.79
532.99	12748.90
533.16	12816.77
533.33	13025.08
533.50	12917.42
533.67	13090.62
533.84	12985.29
534.01	13184.24
534.18	12837.84
534.35	13261.48
534.52	13195.94
534.69	13188.92
534.86	13153.81
535.03	13198.28
535.20	12828.48
535.37	13139.77
535.54	13039.12
535.71	13090.62
535.88	13296.58
536.05	12931.46
536.22	13266.16
536.38	13125.72
536.55	13413.61
536.72	13071.89
536.89	13411.27
537.06	13444.04
537.23	13385.52
537.40	12971.25
537.57	13415.95
537.74	13458.08
537.91	13266.16
538.08	13523.62
538.25	13500.21
538.42	13551.70
538.59	13441.70
538.75	13399.57
538.92	13568.09
539.09	13589.15
539.26	13507.23
539.43	13631.28
539.60	13408.93
539.77	13731.92
539.94	13584.47
540.11	13708.52
540.28	13956.61
540.44	13834.91
540.61	13781.07
540.78	13745.97
540.95	13916.83
541.12	13984.70
541.29	13867.67
541.46	14115.77
541.62	14157.90
541.79	14092.37
541.96	14054.92
542.13	13825.54
542.30	13886.40
542.47	13722.56
542.63	14052.58
542.80	14001.08
542.97	14359.19
543.14	14415.36
543.31	14328.76
543.48	14324.08
543.64	13989.38
543.81	14356.85
543.98	14719.63
544.15	14197.69
544.32	14338.12
544.48	14150.88
544.65	14265.57
544.82	14005.77
544.99	14256.20
545.16	14459.83
545.32	14487.92
545.49	14773.46
545.66	15119.86
545.83	15243.91
546.00	14946.66
546.16	14534.73
546.33	14579.20
546.50	14197.69
546.67	14382.59
546.83	14036.19
547.00	14087.68
547.17	14345.14
547.34	14139.18
547.50	14174.28
547.67	14616.65
547.84	14420.04
548.00	14298.33
548.17	14665.80
548.34	14473.87
548.51	14560.47
548.67	14431.74
548.84	14293.65
549.01	14436.42
549.18	14291.31
549.34	14466.85
549.51	14345.14
549.68	14520.68
549.84	14485.58
550.01	14555.79
550.18	14408.34
550.34	14555.79
550.51	14768.78
550.68	14340.46
550.84	14494.94
551.01	14457.49
551.18	14366.21
551.34	14256.20
551.51	14546.43
551.68	14595.58
551.84	14656.43
552.01	14604.94
552.18	14637.71
552.34	14560.47
552.51	14635.37
552.68	14621.33
552.84	14689.20
553.01	14719.63
553.18	14626.01
553.34	14471.53
553.51	14764.10
553.67	14572.18
553.84	14738.35
554.01	14527.71
554.17	14946.66
554.34	14993.47
554.51	14796.87
554.67	14902.19
554.84	14602.60
555.00	14745.38
555.17	14916.23
555.33	14860.06
555.50	14934.96
555.67	14707.93
555.83	14576.86
556.00	14567.49
556.16	15087.09
556.33	14427.06
556.50	14731.33
556.66	14892.83
556.83	14827.29
556.99	14719.63
557.16	14803.89
557.32	14750.06
557.49	14684.52
557.65	14867.08
557.82	14389.61
557.98	14682.18
558.15	14560.47
558.32	14686.86
558.48	14752.40
558.65	14801.55
558.81	14757.08
558.98	14956.02
559.14	14724.31
559.31	14785.16
559.47	15007.52
559.64	14778.14
559.80	14970.07
559.97	15126.88
560.13	14696.22
560.30	14698.56
560.46	14892.83
560.63	14930.28
560.79	14883.47
560.96	15030.92
561.12	15215.82
561.29	15166.67
561.45	14867.08
561.61	15117.52
561.78	15063.69
561.94	14867.08
562.11	14986.45
562.27	14864.74
562.44	14991.13
562.60	15033.26
562.77	15014.54
562.93	15056.67
563.10	15016.88
563.26	14937.30
563.42	15166.67
563.59	15000.49
563.75	14939.64
563.92	14970.07
564.08	14750.06
564.24	15147.95
564.41	14911.55
564.57	15063.69
564.74	14675.16
564.90	14941.98
565.07	14932.62
565.23	14930.28
565.39	15410.09
565.56	15002.83
565.72	14984.11
565.88	14984.11
566.05	15133.90
566.21	14745.38
566.38	15026.24
566.54	15211.14
566.70	15229.87
566.87	14965.39
567.03	15061.35
567.19	14909.21
567.36	15021.56
567.52	15009.86
567.68	15412.43
567.85	14932.62
568.01	14911.55
568.17	14665.80
568.34	14899.85
568.50	15059.01
568.66	15358.60
568.83	15087.09
568.99	15356.25
569.15	14724.31
569.32	14949.00
569.48	15154.97
569.64	15239.23
569.81	14792.19
569.97	15005.17
570.13	14904.53
570.30	15295.40
570.46	15089.43
570.62	15077.73
570.78	14916.23
570.95	14941.98
571.11	15016.88
571.27	14869.42
571.43	14949.00
571.60	14867.08
571.76	15115.18
571.92	15293.06
572.09	15080.07
572.25	14785.16
572.41	15180.71
572.57	15360.94
572.74	15297.74
572.90	15227.53
573.06	15087.09
573.22	15290.72
573.38	15133.90
573.55	15124.54
573.71	15288.38
573.87	15440.51
574.03	15183.06
574.20	15129.22
574.36	15208.80
574.52	14850.70
574.68	15183.06
574.84	15042.62
575.01	15119.86
575.17	15042.62
575.33	15014.54
575.49	15253.27
575.65	15112.84
575.82	15222.84
575.98	15000.49
576.14	14960.70
576.30	14949.00
576.46	15316.47
576.62	15054.33
576.79	15232.21
576.95	15068.37
577.11	15339.87
577.27	15260.29
577.43	15197.10
577.59	15220.50
577.75	14993.47
577.92	14913.89
578.08	14883.47
578.24	14897.51
578.40	15138.58
578.56	15173.69
578.72	15225.18
578.88	15424.13
579.04	15367.96
579.21	15101.14
579.37	15080.07
579.53	15115.18
579.69	15077.73
579.85	15225.18
580.01	15119.86
580.17	15187.74
580.33	15169.01
580.49	15316.47
580.65	15194.76
580.82	15262.63
580.98	15307.10
581.14	15061.35
581.30	15398.38
581.46	15089.43
581.62	15136.24
581.78	15295.40
581.94	15044.96
582.10	15007.52
582.26	15157.31
582.42	15037.94
582.58	15337.53
582.74	15012.20
582.90	15007.52
583.06	15000.49
583.22	14956.02
583.38	15382.00
583.54	15398.38
583.70	15314.13
583.86	15147.95
584.02	15009.86
584.18	15351.57
584.34	15353.91
584.50	15056.67
584.66	15108.16
584.82	15112.84
584.98	15047.30
585.14	15307.10
585.30	15246.25
585.46	15211.14
585.62	15253.27
585.78	15264.97
585.94	15358.60
586.10	15307.10
586.26	14984.11
586.42	15335.19
586.58	15325.83
586.74	15190.08
586.90	15232.21
587.06	15023.90
587.22	15297.74
587.38	15030.92
587.54	15267.31
587.70	15150.29
587.86	15496.69
588.02	15152.63
588.18	15152.63
588.34	15145.61
588.49	15197.10
588.65	14986.45
588.81	14988.79
588.97	15260.29
589.13	15321.15
589.29	15059.01
589.45	15295.40
589.61	15419.45
589.77	15335.19
589.93	15112.84
590.08	15094.11
590.24	15253.27
590.40	15358.60
590.56	15290.72
590.72	15250.93
590.88	15211.14
591.04	15248.59
591.20	15204.12
591.35	15571.58
591.51	15346.89
591.67	15353.91
591.83	15171.35
591.99	15527.11
592.15	15255.61
592.31	15332.85
592.46	15625.42
592.62	15318.81
592.78	15283.70
592.94	15367.96
593.10	15293.06
593.26	15400.72
593.41	15501.37
593.57	15274.34
