SpectraSuite Data File
++++++++++++++++++++++++++++++++++++
Date: Fri Oct 04 11:39:48 GMT-05:00 2013
User: price-jones
Dark Spectrum Present: No
Reference Spectrum Present: No
Number of Sampled Component Spectra: 1
Spectrometers: USB2+H05261
Integration Time (usec): 100000 (USB2+H05261)
Spectra Averaged: 1 (USB2+H05261)
Boxcar Smoothing: 0 (USB2+H05261)
Correct for Electrical Dark: No (USB2+H05261)
Strobe/Lamp Enabled: No (USB2+H05261)
Correct for Detector Non-linearity: No (USB2+H05261)
Correct for Stray Light: No (USB2+H05261)
Number of Pixels in Processed Spectrum: 2048
>>>>>Begin Processed Spectral Data<<<<<
365.73	11.70
365.92	11.70
366.12	11.70
366.32	14.04
366.52	0.00
366.72	0.00
366.91	0.00
367.11	0.00
367.31	0.00
367.51	35.11
367.70	0.00
367.90	0.00
368.10	0.00
368.30	0.00
368.49	0.00
368.69	0.00
368.89	23.41
369.09	0.00
369.28	0.00
369.48	0.00
369.68	0.00
369.87	28.09
370.07	9.36
370.27	0.00
370.47	98.30
370.66	358.10
370.86	498.53
371.06	498.53
371.25	526.62
371.45	482.15
371.65	615.56
371.84	624.92
372.04	531.30
372.24	627.26
372.44	608.54
372.63	641.31
372.83	748.97
373.03	631.94
373.22	620.24
373.42	660.03
373.62	540.66
373.81	723.23
374.01	744.29
374.21	669.39
374.40	601.52
374.60	720.88
374.79	716.20
374.99	716.20
375.19	753.65
375.38	809.83
375.58	734.93
375.78	758.33
375.97	690.46
376.17	823.87
376.37	741.95
376.56	723.23
376.76	739.61
376.95	681.10
377.15	826.21
377.35	737.27
377.54	868.34
377.74	760.67
377.93	786.42
378.13	802.80
378.33	833.23
378.52	830.89
378.72	980.68
378.91	866.00
379.11	926.85
379.31	816.85
379.50	910.47
379.70	856.64
379.89	1074.31
380.09	943.24
380.28	908.13
380.48	870.68
380.68	833.23
380.87	863.66
381.07	880.04
381.26	947.92
381.46	990.05
381.65	997.07
381.85	978.34
382.04	940.90
382.24	994.73
382.43	931.53
382.63	905.79
382.83	1029.84
383.02	1032.18
383.22	1034.52
383.41	1074.31
383.61	1074.31
383.80	1104.73
384.00	1022.81
384.19	1069.62
384.39	1109.41
384.58	1181.97
384.78	1062.60
384.97	1121.12
385.17	1057.92
385.36	1104.73
385.56	1137.50
385.75	1130.48
385.95	1083.67
386.14	1071.97
386.34	1118.78
386.53	1170.27
386.72	1062.60
386.92	1128.14
387.11	1179.63
387.31	1254.53
387.50	1163.25
387.70	1191.33
387.89	1247.51
388.09	1261.55
388.28	1228.78
388.48	1198.35
388.67	1268.57
388.86	1259.21
389.06	1299.00
389.25	1390.28
389.45	1284.95
389.64	1301.34
389.84	1394.96
390.03	1308.36
390.22	1409.00
390.42	1355.17
390.61	1345.81
390.81	1432.41
391.00	1507.30
391.19	1474.54
391.39	1392.62
391.58	1474.54
391.78	1420.71
391.97	1530.71
392.16	1507.30
392.36	1465.18
392.55	1558.80
392.75	1514.33
392.94	1514.33
393.13	1547.09
393.33	1420.71
393.52	1497.94
393.71	1554.12
393.91	1629.01
394.10	1570.50
394.29	1561.14
394.49	1661.78
394.68	1643.06
394.88	1607.95
395.07	1727.32
395.26	1647.74
395.46	1671.14
395.65	1734.34
395.84	1764.76
396.04	1806.89
396.23	1689.87
396.42	1750.72
396.62	1727.32
396.81	1741.36
397.00	1748.38
397.19	1809.23
397.39	1792.85
397.58	1781.15
397.77	1837.32
397.97	1919.24
398.16	1954.35
398.35	1982.43
398.55	1935.62
398.74	1851.36
398.93	2029.24
399.12	1933.28
399.32	1884.13
399.51	1802.21
399.70	2052.65
399.90	2001.16
400.09	2026.90
400.28	2101.80
400.47	2223.51
400.67	2080.74
400.86	2232.87
401.05	2113.50
401.24	2024.56
401.44	2242.23
401.63	2258.62
401.82	2258.62
402.01	2183.72
402.21	2085.42
402.40	2335.85
402.59	2263.30
402.78	2277.34
402.97	2352.24
403.17	2408.41
403.36	2373.30
403.55	2328.83
403.74	2450.54
403.93	2406.07
404.13	2546.50
404.32	2527.78
404.51	2452.88
404.70	2539.48
404.89	2541.82
405.09	2583.95
405.28	2609.70
405.47	2588.63
405.66	2586.29
405.85	2574.59
406.05	2640.12
406.24	2548.84
406.43	2586.29
406.62	2827.37
406.81	2747.79
407.00	2691.62
407.20	2738.43
407.39	2740.77
407.58	2787.58
407.77	2752.47
407.96	2743.11
408.15	2949.08
408.34	2867.16
408.54	2925.67
408.73	2899.92
408.92	2967.80
409.11	3119.93
409.30	3103.55
409.49	3138.66
409.68	3089.51
409.87	2967.80
410.07	3091.85
410.26	3122.27
410.45	3220.58
410.64	3112.91
410.83	3220.58
411.02	3192.49
411.21	3281.43
411.40	3389.10
411.59	3396.12
411.78	3346.97
411.98	3417.18
412.17	3393.78
412.36	3487.40
412.55	3529.53
412.74	3541.23
412.93	3630.17
413.12	3501.44
413.31	3674.64
413.50	3618.47
413.69	3728.47
413.88	3763.58
414.07	3712.09
414.26	3829.12
414.45	3904.01
414.64	3906.35
414.83	3911.04
415.02	4021.04
415.22	4063.17
415.41	4180.20
415.60	4163.81
415.79	4191.90
415.98	4142.75
416.17	4315.95
416.36	4264.46
416.55	4339.35
416.74	4348.72
416.93	4376.80
417.12	4500.85
417.31	4456.38
417.50	4339.35
417.69	4622.56
417.88	4627.24
418.07	4454.04
418.26	4657.67
418.45	4692.77
418.64	4748.95
418.83	4880.02
419.02	4786.40
419.21	4889.38
419.39	4791.08
419.58	4720.86
419.77	4777.03
419.96	4912.78
420.15	5043.85
420.34	4973.64
420.53	4922.15
420.72	5069.60
420.91	4987.68
421.10	5165.56
421.29	5235.78
421.48	5067.26
421.67	5144.50
421.86	5095.35
422.05	5163.22
422.24	5233.44
422.43	5231.10
422.61	5284.93
422.80	5387.91
422.99	5305.99
423.18	5219.39
423.37	5408.98
423.56	5322.38
423.75	5167.90
423.94	5268.55
424.13	4828.53
424.32	5104.71
424.50	5383.23
424.69	5455.79
424.88	5383.23
425.07	5362.17
425.26	5366.85
425.45	5383.23
425.64	5556.43
425.83	5467.49
426.01	5596.22
426.20	5385.57
426.39	5385.57
426.58	5528.35
426.77	5626.65
426.96	5556.43
427.15	5570.48
427.33	5568.13
427.52	5556.43
427.71	5647.71
427.90	5743.67
428.09	5657.07
428.28	5703.89
428.46	5951.98
428.65	5785.80
428.84	5942.62
429.03	6104.12
429.22	5736.65
429.40	5916.87
429.59	6125.18
429.78	5692.18
429.97	5713.25
430.16	6045.60
430.34	6059.65
430.53	6303.06
430.72	6239.87
430.91	6064.33
431.10	5956.66
431.28	6274.98
431.47	6221.14
431.66	6286.68
431.85	6244.55
432.03	6174.33
432.22	6513.71
432.41	6403.71
432.60	6544.14
432.79	6408.39
432.97	6321.79
433.16	6511.37
433.35	6478.60
433.54	6827.34
433.72	6663.51
433.91	6569.88
434.10	6616.69
434.28	6628.40
434.47	6764.15
434.66	6888.20
434.85	6850.75
435.03	6843.73
435.22	7129.27
435.41	7438.22
435.59	7314.17
435.78	7258.00
435.97	7030.97
436.16	7007.56
436.34	6993.52
436.53	7133.95
436.72	7267.36
436.90	7075.44
437.09	7293.11
437.28	7126.93
437.46	7148.00
437.65	7033.31
437.84	7442.90
438.02	7267.36
438.21	7426.52
438.40	7349.28
438.58	7653.55
438.77	7508.44
438.96	7810.37
439.14	7644.19
439.33	7819.73
439.52	7911.01
439.70	7845.48
439.89	7957.82
440.08	8149.75
440.26	8100.59
440.45	8191.88
440.63	8332.31
440.82	8292.52
441.01	8280.82
441.19	8451.67
441.38	8416.57
441.57	8407.20
441.75	8620.19
441.94	8730.20
442.12	8622.53
442.31	8947.87
442.50	8912.76
442.68	8809.78
442.87	8910.42
443.05	8910.42
443.24	8823.82
443.43	8819.14
443.61	8980.64
443.80	9142.13
443.98	8887.01
444.17	8819.14
444.35	9137.45
444.54	9301.29
444.73	9184.26
444.91	9025.11
445.10	9050.85
445.28	9202.99
445.47	9069.58
445.65	9006.38
445.84	9118.73
446.02	9383.21
446.21	9270.86
446.39	9259.16
446.58	9425.34
446.77	9465.13
446.95	9172.56
447.14	9301.29
447.32	9430.02
447.51	9156.18
447.69	9430.02
447.88	9345.76
448.06	9277.88
448.25	9210.01
448.43	9516.62
448.62	9324.69
448.80	9289.59
448.99	9437.04
449.17	9415.98
449.36	9469.81
449.54	9830.25
449.73	9652.37
449.91	9654.71
450.10	9774.08
450.28	9848.97
450.46	9912.17
450.65	9879.40
450.83	9898.13
451.02	9898.13
451.20	10143.88
451.39	10207.08
451.57	9650.03
451.76	9926.21
451.94	10300.70
452.13	10284.31
452.31	10260.91
452.49	10022.17
452.68	10389.64
452.86	10279.63
453.05	10188.35
453.23	10614.33
453.42	10284.31
453.60	10448.15
453.78	10417.72
453.97	10129.84
454.15	10621.35
454.34	10555.82
454.52	10731.36
454.70	10810.93
454.89	10740.72
455.07	10569.86
455.26	10836.68
455.44	10839.02
455.62	10766.46
455.81	10806.25
455.99	11082.44
456.17	10813.28
456.36	11150.31
456.54	11199.46
456.73	11290.74
456.91	11440.54
457.09	11618.42
457.28	11737.79
457.46	11482.67
457.64	11548.20
457.83	11644.17
458.01	11461.60
458.19	11714.38
458.38	11620.76
458.56	11915.67
458.74	12009.29
458.93	11833.75
459.11	11667.57
459.29	11784.60
459.48	11847.79
459.66	11847.79
459.84	11978.86
460.03	12030.35
460.21	11997.59
460.39	12379.09
460.57	12063.12
460.76	12063.12
460.94	12156.74
461.12	12252.70
461.31	12505.48
461.49	12533.57
461.67	12325.26
461.85	12730.17
462.04	12578.04
462.22	13125.72
462.40	12601.44
462.59	12610.81
462.77	12769.96
462.95	13085.94
463.13	12994.65
463.32	12933.80
463.50	12982.95
463.68	13032.10
463.86	12814.43
464.05	12793.37
464.23	12847.20
464.41	13067.21
464.59	13048.49
464.78	13303.60
464.96	13327.01
465.14	13078.91
465.32	13507.23
465.50	13446.38
465.69	13404.25
465.87	13331.69
466.05	13502.55
466.23	13305.95
466.41	13446.38
466.60	13738.94
466.78	13298.92
466.96	13521.27
467.14	13675.75
467.32	13572.77
467.51	13572.77
467.69	13488.51
467.87	13764.69
468.05	14003.43
468.23	13844.27
468.41	13673.41
468.60	13916.83
468.78	13954.27
468.96	13968.32
469.14	13998.74
469.32	14249.18
469.50	13841.93
469.69	14150.88
469.87	14265.57
470.05	14583.88
470.23	14457.49
470.41	14373.23
470.59	14677.50
470.77	14506.64
470.95	14630.69
471.14	14937.30
471.32	14590.90
471.50	15105.82
471.68	15080.07
471.86	15339.87
472.04	15192.42
472.22	15613.71
472.40	15281.36
472.58	15304.76
472.77	15501.37
472.95	15777.55
473.13	16130.97
473.31	15602.01
473.49	15742.44
473.67	15840.75
473.85	15967.13
474.03	15990.54
474.21	16245.66
474.39	16212.89
474.57	16271.40
474.75	16585.04
474.93	16617.80
475.12	16589.72
475.30	17137.40
475.48	17048.46
475.66	17071.87
475.84	16798.02
476.02	17146.76
476.20	17109.32
476.38	17572.74
476.56	18057.23
476.74	17502.53
476.92	17369.12
477.10	17954.25
477.28	18012.76
477.46	17738.92
477.64	18394.27
477.82	18448.10
478.00	18913.87
478.18	18717.26
478.36	18845.99
478.54	19101.11
478.72	19323.46
478.90	19124.52
479.08	19604.33
479.26	19573.90
479.44	19686.25
479.62	20116.90
479.80	20348.62
479.98	20177.76
480.16	20545.22
480.34	20397.77
480.52	20772.25
480.70	20657.57
480.88	20297.13
481.06	21046.10
481.24	21043.76
481.41	21010.99
481.59	21315.26
481.77	21788.05
481.95	21762.30
482.13	21996.35
482.31	22094.66
482.49	22686.81
482.67	22291.26
482.85	22785.12
483.03	23489.62
483.21	23613.66
483.39	23339.82
483.57	23232.16
483.74	23653.45
483.92	24116.88
484.10	23733.03
484.28	24587.33
484.46	24952.45
484.64	24816.70
484.82	24563.92
485.00	25062.46
485.18	25287.15
485.35	25757.60
485.53	25392.47
485.71	25846.54
485.89	26197.62
486.07	25860.58
486.25	25986.97
486.43	26515.93
486.61	26859.99
486.78	27145.53
486.96	27211.07
487.14	27459.16
487.32	27417.04
487.50	27700.24
487.68	28009.19
487.85	28109.83
488.03	28470.28
488.21	29010.94
488.39	28980.51
488.57	29006.26
488.75	29113.92
488.92	29893.32
489.10	29780.98
489.28	30040.78
489.46	30263.13
489.64	30274.83
489.81	30747.62
489.99	30883.37
490.17	31307.01
490.35	31438.08
490.53	31318.71
490.70	32098.11
490.88	31901.50
491.06	32151.94
491.24	31896.82
491.41	32123.85
491.59	32685.58
491.77	32472.59
491.95	33216.88
492.13	33528.17
492.30	33439.23
492.48	33860.53
492.66	33649.88
492.84	33696.69
493.01	34553.33
493.19	34422.26
493.37	34918.45
493.54	34841.21
493.72	35103.35
493.90	35117.40
494.08	35440.39
494.25	36041.91
494.43	36116.81
494.61	36065.31
494.79	36505.34
494.96	35938.93
495.14	36371.92
495.32	36856.42
495.49	36935.99
495.67	37170.05
495.85	37748.16
496.02	37469.64
496.20	38064.13
496.38	38508.83
496.55	38260.74
496.73	39335.04
496.91	38403.51
497.09	39206.31
497.26	39243.76
497.44	38630.54
497.62	39416.96
497.79	39728.25
497.97	39597.18
498.14	39887.41
498.32	40517.01
498.50	40411.69
498.67	40818.94
498.85	40500.63
499.03	41226.20
499.20	41041.29
499.38	41074.06
499.56	41542.17
499.73	41855.80
499.91	42171.77
500.08	42380.08
500.26	41996.23
500.44	41911.97
500.61	42195.18
500.79	42342.63
500.97	42513.49
501.14	42663.28
501.32	43021.39
501.49	42389.44
501.67	43019.05
501.84	43056.50
502.02	43398.21
502.20	44215.06
502.37	43835.89
502.55	43845.26
502.72	44013.77
502.90	44409.32
503.07	43842.92
503.25	44065.27
503.43	44177.61
503.60	44919.56
503.78	44685.51
503.95	44872.75
504.13	45020.20
504.30	44722.96
504.48	44959.35
504.65	45612.36
504.83	45560.87
505.01	46225.58
505.18	45759.81
505.36	46279.41
505.53	45970.46
505.71	45982.16
505.88	46707.73
506.06	45900.25
506.23	46717.09
506.41	46171.75
506.58	46803.69
506.76	46948.81
506.93	46658.58
507.11	46913.70
507.28	47271.80
507.46	47267.12
507.63	47557.35
507.81	47725.86
507.98	47475.43
508.16	47662.67
508.33	47590.11
508.50	47793.74
508.68	48126.10
508.85	48390.58
509.03	48554.41
509.20	48641.01
509.38	48992.09
509.55	48910.17
509.73	48914.86
509.90	49275.30
510.08	49064.65
510.25	49069.33
510.42	49415.73
510.60	49518.71
510.77	49797.24
510.95	49855.75
511.12	49228.49
511.30	49757.45
511.47	50234.92
511.64	49991.50
511.82	50274.71
511.99	50672.60
512.17	50492.38
512.34	50237.26
512.51	50380.03
512.69	50581.32
512.86	50885.59
513.04	50789.62
513.21	51011.98
513.38	51290.50
513.56	51150.07
513.73	51290.50
513.90	51672.01
514.08	50827.07
514.25	51695.41
514.43	51437.95
514.60	51887.34
514.77	52039.47
514.95	51840.53
515.12	52046.49
515.29	51800.74
515.47	52076.92
515.64	52154.16
515.81	52109.69
515.99	52317.99
516.16	52538.01
516.33	52657.37
516.51	52505.24
516.68	52577.79
516.85	52575.45
517.03	52655.03
517.20	52924.19
517.37	53010.79
517.54	52966.32
517.72	53059.94
517.89	52818.87
518.06	53361.87
518.24	53127.82
518.41	53008.45
518.58	53511.67
518.75	53609.97
518.93	53553.80
519.10	53446.13
519.27	53684.87
519.45	53558.48
519.62	53757.42
519.79	53560.82
519.96	53689.55
520.14	53982.12
520.31	53862.75
520.48	54354.26
520.65	54183.40
520.83	54450.22
521.00	54433.84
521.17	54138.93
521.34	54482.99
521.52	54635.13
521.69	54237.23
521.86	54787.26
522.03	54784.92
522.20	54915.99
522.38	54866.84
522.55	55044.72
522.72	54749.81
522.89	54927.69
523.07	55131.32
523.24	55185.15
523.41	55271.75
523.58	55047.06
523.75	55253.03
523.92	55370.05
524.10	55419.20
524.27	55618.15
524.44	55512.83
524.61	55721.13
524.78	55826.46
524.96	55828.80
525.13	55945.83
525.30	55746.88
525.47	56037.11
525.64	55983.27
525.81	55971.57
525.98	56156.47
526.16	55913.06
526.33	56055.83
526.50	56535.64
526.67	56065.19
526.84	56252.44
527.01	56364.78
527.18	56437.34
527.36	56282.86
527.53	56664.37
527.70	56701.82
527.87	56713.52
528.04	56495.85
528.21	56898.42
528.38	56713.52
528.55	56786.08
528.72	56650.33
528.89	56889.06
529.07	56811.82
529.24	56980.34
529.41	56900.76
529.58	56898.42
529.75	56811.82
529.92	56877.36
530.09	56994.39
530.26	57214.40
530.43	57434.41
530.60	57076.30
530.77	57106.73
530.94	57453.13
531.11	57495.26
531.28	57256.53
531.46	57378.23
531.63	57439.09
531.80	57708.25
531.97	57867.40
532.14	57588.88
532.31	57694.21
532.48	57614.63
532.65	57883.79
532.82	57715.27
532.99	57925.92
533.16	57762.08
533.33	58059.33
533.50	58265.30
533.67	58134.23
533.84	57902.51
534.01	58176.36
534.18	57780.81
534.35	58176.36
534.52	58206.78
534.69	58457.22
534.86	58539.14
535.03	58155.29
535.20	58665.53
535.37	58616.38
535.54	58548.50
535.71	58377.64
535.88	58363.60
536.05	58768.51
536.22	58560.20
536.38	58609.35
536.55	58894.90
536.72	58761.49
536.89	58700.64
537.06	58588.29
537.23	59035.33
537.40	58604.67
537.57	58906.60
537.74	58845.75
537.91	58948.73
538.08	58958.09
538.25	59035.33
538.42	59100.87
538.59	59255.34
538.75	58976.82
538.92	59021.29
539.09	59262.36
539.26	59253.00
539.43	59407.48
539.60	59384.07
539.77	59592.38
539.94	59629.83
540.11	59557.27
540.28	59365.35
540.44	59540.89
540.61	59580.68
540.78	59669.62
540.95	59489.40
541.12	59639.19
541.29	59828.77
541.46	59639.19
541.62	59583.02
541.79	59854.52
541.96	59547.91
542.13	59475.35
542.30	60072.19
542.47	59971.55
542.63	60170.49
542.80	59987.93
542.97	60189.22
543.14	60221.98
543.31	60252.41
543.48	60149.43
543.64	60423.27
543.81	60378.80
543.98	60449.02
544.15	60458.38
544.32	60657.32
544.48	60797.76
544.65	60446.68
544.82	60313.26
544.99	60107.30
545.16	60395.18
545.32	60570.72
545.49	60898.40
545.66	61052.87
545.83	60942.87
546.00	61209.69
546.16	60825.84
546.33	60528.59
546.50	60488.80
546.67	60605.83
546.83	60491.15
547.00	60713.50
547.17	60764.99
547.34	60846.91
547.50	60844.57
547.67	61038.83
547.84	61080.96
548.00	61038.83
548.17	61153.52
548.34	60786.05
548.51	60917.12
548.67	61097.34
548.84	61286.93
549.01	61214.37
549.18	61279.91
549.34	61071.60
549.51	61188.63
549.68	61123.09
549.84	61212.03
550.01	61284.59
550.18	61109.05
550.34	61331.40
550.51	61460.13
550.68	61455.45
550.84	61165.22
551.01	61300.97
551.18	61116.07
551.34	61172.24
551.51	61212.03
551.68	61455.45
551.84	61415.66
552.01	61488.21
552.18	61553.75
552.34	61392.25
552.51	61654.39
552.68	61382.89
552.84	61544.39
553.01	61666.09
553.18	61836.95
553.34	61757.38
553.51	61776.10
553.67	61888.45
553.84	61986.75
554.01	61911.85
554.17	62019.52
554.34	61911.85
554.51	61914.19
554.67	61804.19
554.84	61858.02
555.00	61787.80
555.17	61783.12
555.33	62071.01
555.50	62040.58
555.67	62035.90
555.83	62005.47
556.00	61993.77
556.16	62115.48
556.33	62049.94
556.50	62094.41
556.66	62071.01
556.83	62080.37
556.99	62443.15
557.16	62396.34
557.32	62342.51
557.49	62457.20
557.65	62164.63
557.82	62148.24
557.98	62288.68
558.15	62274.63
558.32	62162.29
558.48	62564.86
558.65	62443.15
558.81	62518.05
558.98	62574.22
559.14	62415.07
559.31	62096.75
559.47	62522.73
559.64	62511.03
559.80	62635.08
559.97	62688.91
560.13	62424.43
560.30	62644.44
560.46	62738.06
560.63	62667.84
560.79	62714.65
560.96	62756.78
561.12	62518.05
561.29	62606.99
561.45	62660.82
561.61	62649.12
561.78	62815.30
561.94	62812.96
562.11	62581.24
562.27	62532.09
562.44	62646.78
562.60	62719.34
562.77	62752.10
562.93	62637.42
563.10	62695.93
563.26	62768.49
563.42	62997.86
563.59	62932.32
563.75	63004.88
563.92	62885.51
564.08	62864.45
564.24	63002.54
564.41	62707.63
564.57	62714.65
564.74	62859.77
564.90	63121.91
565.07	62948.71
565.23	63093.82
565.39	62855.09
565.56	63037.65
565.72	62855.09
565.88	62944.03
566.05	62773.17
566.21	62829.34
566.38	63054.03
566.54	62941.69
566.70	63152.33
566.87	63231.91
567.03	63243.62
567.19	63320.85
567.36	63014.24
567.52	63061.05
567.68	63243.62
567.85	62958.07
568.01	63100.84
568.17	63018.92
568.34	63084.46
568.50	63269.36
568.66	63107.86
568.83	63147.65
568.99	63257.66
569.15	63374.69
569.32	63206.17
569.48	63004.88
569.64	63194.46
569.81	63063.39
569.97	63210.85
570.13	63341.92
570.30	63189.78
570.46	63367.66
570.62	63365.32
570.78	63323.19
570.95	63224.89
571.11	63285.75
571.27	63154.68
571.43	63054.03
571.60	63295.11
571.76	63210.85
571.92	63573.63
572.09	63494.05
572.25	63575.97
572.41	63561.93
572.57	63454.26
572.74	63531.50
572.90	63119.57
573.06	63320.85
573.22	63435.54
573.38	63377.03
573.55	63351.28
573.71	63650.87
573.87	63629.80
574.03	63414.47
574.20	63468.31
574.36	63372.34
574.52	63381.71
574.68	63437.88
574.84	63702.36
575.01	63505.76
575.17	63533.84
575.33	63615.76
575.49	63632.14
575.65	63737.47
575.82	63746.83
575.98	63482.35
576.14	63524.48
576.30	63716.40
576.46	63311.49
576.62	63557.25
576.79	63613.42
576.95	63444.90
577.11	63522.14
577.27	63767.90
577.43	63716.40
577.59	63552.57
577.75	63641.51
577.92	63580.65
578.08	63494.05
578.24	63384.05
578.40	63531.50
578.56	63477.67
578.72	63632.14
578.88	63931.73
579.04	63683.64
579.21	63529.16
579.37	63632.14
579.53	63894.28
579.69	63613.42
579.85	63470.65
580.01	63636.83
580.17	63395.75
580.33	63552.57
580.49	63529.16
580.65	63835.77
580.82	63805.34
580.98	63793.64
581.14	63751.51
581.30	64001.95
581.46	63781.94
581.62	63758.53
581.78	63533.84
581.94	63847.47
582.10	63746.83
582.26	63866.20
582.42	63751.51
582.58	63917.69
582.74	63969.18
582.90	63814.71
583.06	63737.47
583.22	63505.76
583.38	63795.98
583.54	63625.12
583.70	63550.23
583.86	63859.18
584.02	63763.21
584.18	63856.84
584.34	63910.67
584.50	63945.78
584.66	64015.99
584.82	63552.57
584.98	63849.81
585.14	63735.13
585.30	63884.92
585.46	63908.33
585.62	63746.83
585.78	63924.71
585.94	63739.81
586.10	63756.19
586.26	63781.94
586.42	64020.67
586.58	63910.67
586.74	63990.25
586.90	63835.77
587.06	63702.36
587.22	64039.40
587.38	63585.33
587.54	64126.00
587.70	63987.91
587.86	63936.41
588.02	64130.68
588.18	64130.68
588.34	63957.48
588.49	64020.67
588.65	63936.41
