SpectraSuite Data File
++++++++++++++++++++++++++++++++++++
Date: Fri Oct 04 11:39:56 GMT-05:00 2013
User: price-jones
Dark Spectrum Present: No
Reference Spectrum Present: No
Number of Sampled Component Spectra: 1
Spectrometers: USB2+H05261
Integration Time (usec): 100000 (USB2+H05261)
Spectra Averaged: 1 (USB2+H05261)
Boxcar Smoothing: 0 (USB2+H05261)
Correct for Electrical Dark: No (USB2+H05261)
Strobe/Lamp Enabled: No (USB2+H05261)
Correct for Detector Non-linearity: No (USB2+H05261)
Correct for Stray Light: No (USB2+H05261)
Number of Pixels in Processed Spectrum: 2048
>>>>>Begin Processed Spectral Data<<<<<
365.73	30.43
365.92	30.43
366.12	30.43
366.32	0.00
366.52	0.00
366.72	0.00
366.91	0.00
367.11	0.00
367.31	0.00
367.51	0.00
367.70	7.02
367.90	0.00
368.10	0.00
368.30	0.00
368.49	0.00
368.69	0.00
368.89	0.00
369.09	0.00
369.28	0.00
369.48	0.00
369.68	0.00
369.87	14.04
370.07	0.00
370.27	72.56
370.47	21.06
370.66	60.85
370.86	138.09
371.06	154.48
371.25	131.07
371.45	175.54
371.65	180.22
371.84	145.11
372.04	173.20
372.24	180.22
372.44	229.37
372.63	128.73
372.83	262.14
373.03	203.63
373.22	189.58
373.42	194.26
373.62	273.84
373.81	203.63
374.01	182.56
374.21	154.48
374.40	191.92
374.60	241.08
374.79	283.20
374.99	259.80
375.19	208.31
375.38	191.92
375.58	198.95
375.78	156.82
375.97	280.86
376.17	306.61
376.37	189.58
376.56	227.03
376.76	203.63
376.95	248.10
377.15	227.03
377.35	215.33
377.54	250.44
377.74	194.26
377.93	271.50
378.13	231.71
378.33	215.33
378.52	273.84
378.72	212.99
378.91	194.26
379.11	187.24
379.31	269.16
379.50	243.42
379.70	187.24
379.89	217.67
380.09	203.63
380.28	198.95
380.48	297.25
380.68	163.84
380.87	252.78
381.07	222.35
381.26	290.23
381.46	241.08
381.65	285.55
381.85	187.24
382.04	210.65
382.24	245.76
382.43	161.50
382.63	278.52
382.83	278.52
383.02	262.14
383.22	287.89
383.41	341.72
383.61	222.35
383.80	259.80
384.00	201.29
384.19	252.78
384.39	283.20
384.58	252.78
384.78	276.18
384.97	285.55
385.17	259.80
385.36	327.68
385.56	273.84
385.75	250.44
385.95	299.59
386.14	257.46
386.34	208.31
386.53	271.50
386.72	248.10
386.92	304.27
387.11	287.89
387.31	325.33
387.50	283.20
387.70	311.29
387.89	255.12
388.09	269.16
388.28	259.80
388.48	266.82
388.67	301.93
388.86	330.02
389.06	299.59
389.25	285.55
389.45	294.91
389.64	332.36
389.84	259.80
390.03	259.80
390.22	304.27
390.42	348.74
390.61	332.36
390.81	311.29
391.00	313.63
391.19	418.96
391.39	353.42
391.58	325.33
391.78	365.12
391.97	358.10
392.16	367.46
392.36	374.49
392.55	351.08
392.75	332.36
392.94	402.57
393.13	400.23
393.33	283.20
393.52	287.89
393.71	440.02
393.91	351.08
394.10	341.72
394.29	418.96
394.49	334.70
394.68	435.34
394.88	444.70
395.07	421.30
395.26	414.27
395.46	458.74
395.65	449.38
395.84	479.81
396.04	519.60
396.23	409.59
396.42	447.04
396.62	425.98
396.81	489.17
397.00	491.51
397.19	442.36
397.39	451.72
397.58	468.11
397.77	454.06
397.97	477.47
398.16	489.17
398.35	496.19
398.55	496.19
398.74	470.45
398.93	538.32
399.12	512.58
399.32	528.96
399.51	531.30
399.70	575.77
399.90	461.09
400.09	486.83
400.28	566.41
400.47	510.24
400.67	559.39
400.86	533.64
401.05	547.69
401.24	538.32
401.44	573.43
401.63	568.75
401.82	578.11
402.01	596.84
402.21	568.75
402.40	617.90
402.59	606.20
402.78	589.82
402.97	692.80
403.17	688.12
403.36	645.99
403.55	699.82
403.74	645.99
403.93	695.14
404.13	793.44
404.32	725.57
404.51	706.84
404.70	805.14
404.89	699.82
405.09	688.12
405.28	791.10
405.47	685.78
405.66	781.74
405.85	802.80
406.05	697.48
406.24	718.54
406.43	875.36
406.62	800.46
406.81	812.17
407.00	880.04
407.20	880.04
407.39	791.10
407.58	861.32
407.77	821.53
407.96	763.01
408.15	990.05
408.34	910.47
408.54	861.32
408.73	891.74
408.92	971.32
409.11	936.21
409.30	901.11
409.49	1008.77
409.68	971.32
409.87	1001.75
410.07	999.41
410.26	1025.15
410.45	1137.50
410.64	1041.54
410.83	1088.35
411.02	1121.12
411.21	1069.62
411.40	1025.15
411.59	1217.08
411.78	1149.20
411.98	1146.86
412.17	1156.22
412.36	1114.10
412.55	1231.12
412.74	1306.02
412.93	1256.87
413.12	1160.91
413.31	1235.80
413.50	1259.21
413.69	1282.61
413.88	1453.47
414.07	1345.81
414.26	1341.13
414.45	1430.07
414.64	1327.08
414.83	1427.73
415.02	1359.85
415.22	1345.81
415.41	1378.58
415.60	1453.47
415.79	1533.05
415.98	1474.54
416.17	1540.07
416.36	1516.67
416.55	1645.40
416.74	1610.29
416.93	1530.71
417.12	1591.56
417.31	1612.63
417.50	1544.75
417.69	1645.40
417.88	1776.47
418.07	1640.72
418.26	1645.40
418.45	1596.25
418.64	1816.26
418.83	1638.38
419.02	1659.44
419.21	1689.87
419.39	1661.78
419.58	1680.50
419.77	1654.76
419.96	1867.75
420.15	1827.96
420.34	1907.54
420.53	1818.60
420.72	1881.79
420.91	1788.17
421.10	1849.02
421.29	2024.56
421.48	1739.02
421.67	1914.56
421.86	1933.28
422.05	1959.03
422.24	1966.05
422.43	2008.18
422.61	2017.54
422.80	1959.03
422.99	1905.20
423.18	2008.18
423.37	1942.64
423.56	1970.73
423.75	1935.62
423.94	1942.64
424.13	1982.43
424.32	1879.45
424.50	2015.20
424.69	2015.20
424.88	1998.82
425.07	2017.54
425.26	2001.16
425.45	1980.09
425.64	1994.14
425.83	1989.46
426.01	2078.40
426.20	2019.88
426.39	2155.63
426.58	1987.11
426.77	2085.42
426.96	2094.78
427.15	2080.74
427.33	2101.80
427.52	2230.53
427.71	2143.93
427.90	2188.40
428.09	2193.08
428.28	2106.48
428.46	2242.23
428.65	2106.48
428.84	2218.83
429.03	2242.23
429.22	2235.21
429.40	2115.84
429.59	2251.60
429.78	2190.74
429.97	2104.14
430.16	2190.74
430.34	2326.49
430.53	2258.62
430.72	2265.64
430.91	2225.85
431.10	2272.66
431.28	2237.55
431.47	2354.58
431.66	2321.81
431.85	2317.13
432.03	2366.28
432.22	2457.56
432.41	2272.66
432.60	2427.14
432.79	2413.09
432.97	2434.16
433.16	2417.77
433.35	2506.71
433.54	2443.52
433.72	2462.24
433.91	2495.01
434.10	2408.41
434.28	2511.39
434.47	2473.95
434.66	2614.38
434.85	2722.04
435.03	2597.99
435.22	2787.58
435.41	2970.14
435.59	2928.01
435.78	2925.67
435.97	2841.41
436.16	2747.79
436.34	2696.30
436.53	2708.00
436.72	2696.30
436.90	2677.57
437.09	2656.51
437.28	2651.83
437.46	2665.87
437.65	2658.85
437.84	2738.43
438.02	2736.09
438.21	2665.87
438.40	2693.96
438.58	2740.77
438.77	2799.28
438.96	2820.35
439.14	2913.97
439.33	2991.20
439.52	2958.44
439.70	2883.54
439.89	2970.14
440.08	3002.91
440.26	2942.05
440.45	3136.32
440.63	3129.30
440.82	2946.73
441.01	3007.59
441.19	3162.06
441.38	3049.72
441.57	3145.68
441.75	3148.02
441.94	3220.58
442.12	3248.66
442.31	3293.13
442.50	3365.69
442.68	3227.60
442.87	3253.34
443.05	3236.96
443.24	3293.13
443.43	3220.58
443.61	3302.50
443.80	3513.14
443.98	3372.71
444.17	3150.36
444.35	3442.93
444.54	3351.65
444.73	3349.31
444.91	3431.23
445.10	3412.50
445.28	3248.66
445.47	3473.36
445.65	3414.84
445.84	3386.76
446.02	3548.25
446.21	3330.58
446.39	3220.58
446.58	3382.07
446.77	3454.63
446.95	3431.23
447.14	3459.31
447.32	3417.18
447.51	3466.33
447.69	3286.11
447.88	3548.25
448.06	3454.63
448.25	3400.80
448.43	3407.82
448.62	3391.44
448.80	3510.80
448.99	3461.65
449.17	3433.57
449.36	3412.50
449.54	3639.53
449.73	3545.91
449.91	3662.94
450.10	3726.13
450.28	3564.64
450.46	3648.90
450.65	3625.49
450.83	3782.31
451.02	3454.63
451.20	3688.68
451.39	3803.37
451.57	3705.07
451.76	3606.77
451.94	3730.81
452.13	3644.21
452.31	3740.18
452.49	3801.03
452.68	3651.24
452.86	3712.09
453.05	3726.13
453.23	3901.67
453.42	3737.84
453.60	3808.05
453.78	3726.13
453.97	3805.71
454.15	3768.26
454.34	3784.65
454.52	3922.74
454.70	3960.19
454.89	3873.59
455.07	3932.10
455.26	3861.88
455.44	4025.72
455.62	3878.27
455.81	3967.21
455.99	3988.27
456.17	4037.42
456.36	4081.89
456.54	4093.60
456.73	4107.64
456.91	4107.64
457.09	4133.39
457.28	4344.03
457.46	4095.94
457.64	4276.16
457.83	4187.22
458.01	4042.11
458.19	4257.43
458.38	4077.21
458.56	4287.86
458.74	4238.71
458.93	4266.80
459.11	4252.75
459.29	4196.58
459.48	4472.76
459.66	4311.27
459.84	4372.12
460.03	4472.76
460.21	4325.31
460.39	4327.65
460.57	4411.91
460.76	4454.04
460.94	4475.10
461.12	4617.88
461.31	4470.42
461.49	4414.25
461.67	4344.03
461.85	4540.64
462.04	4510.21
462.22	5039.17
462.40	4578.09
462.59	4535.96
462.77	4545.32
462.95	4510.21
463.13	4498.51
463.32	4564.04
463.50	4685.75
463.68	4648.30
463.86	4507.87
464.05	4575.75
464.23	4561.70
464.41	4674.05
464.59	4592.13
464.78	4664.69
464.96	4734.90
465.14	4655.33
465.32	4667.03
465.50	4943.21
465.69	4704.48
465.87	4627.24
466.05	4882.36
466.23	4842.57
466.41	4954.91
466.60	4987.68
466.78	4816.82
466.96	4877.68
467.14	4840.23
467.32	5006.41
467.51	5022.79
467.69	4858.95
467.87	4887.04
468.05	5025.13
468.23	4851.93
468.41	4910.44
468.60	4922.15
468.78	5144.50
468.96	5069.60
469.14	5018.11
469.32	5289.61
469.50	5032.15
469.69	5165.56
469.87	5160.88
470.05	5111.73
470.23	5104.71
470.41	5048.54
470.59	5238.12
470.77	5123.43
470.95	5198.33
471.14	5348.12
471.32	5228.76
471.50	5446.43
471.68	5408.98
471.86	5373.87
472.04	5289.61
472.22	5633.67
472.40	5423.02
472.58	5373.87
472.77	5423.02
472.95	5514.30
473.13	5584.52
473.31	5554.09
473.49	5408.98
473.67	5530.69
473.85	5703.89
474.03	5664.10
474.21	5706.23
474.39	5825.59
474.57	5743.67
474.75	5872.40
474.93	5841.98
475.12	5856.02
475.30	5900.49
475.48	5792.83
475.66	6003.47
475.84	5816.23
476.02	6113.48
476.20	6125.18
476.38	6179.01
476.56	6305.40
476.74	6312.42
476.92	6239.87
477.10	6134.54
477.28	6253.91
477.46	6263.27
477.64	6537.12
477.82	6485.62
478.00	6689.25
478.18	6743.08
478.36	6431.79
478.54	6656.48
478.72	6583.93
478.90	6913.94
479.08	6806.28
479.26	6665.85
479.44	6616.69
479.62	6993.52
479.80	6993.52
479.98	6806.28
480.16	6981.82
480.34	7262.68
480.52	7227.57
480.70	7300.13
480.88	7122.25
481.06	7094.16
481.24	7258.00
481.41	7321.20
481.59	7489.71
481.77	7449.93
481.95	7559.93
482.13	7683.98
482.31	7613.76
482.49	7651.21
482.67	7847.82
482.85	7936.76
483.03	7880.58
483.21	8028.04
483.39	8161.45
483.57	8121.66
483.74	7981.23
483.92	8255.07
484.10	8035.06
484.28	8339.33
484.46	8325.29
484.64	8627.21
484.82	8561.68
485.00	8463.38
485.18	8678.71
485.35	8716.16
485.53	8748.92
485.71	8798.07
485.89	8924.46
486.07	8917.44
486.25	9039.15
486.43	9076.60
486.61	9252.14
486.78	9329.38
486.96	9224.05
487.14	9390.23
487.32	9294.27
487.50	9348.10
487.68	9626.62
487.85	9603.22
488.03	9713.22
488.21	9863.02
488.39	9858.34
488.57	9989.41
488.75	9951.96
488.92	10272.61
489.10	10162.61
489.28	10134.52
489.46	10387.30
489.64	10286.65
489.81	10614.33
489.99	10399.00
490.17	10445.81
490.35	10745.40
490.53	10743.06
490.70	10775.83
490.88	10822.64
491.06	10953.71
491.24	10909.24
491.41	10899.87
491.59	11066.05
491.77	11192.44
491.95	11311.81
492.13	11129.25
492.30	11461.60
492.48	11246.27
492.66	11351.60
492.84	11304.79
493.01	11510.75
493.19	11683.95
493.37	11761.19
493.54	11871.20
493.72	11948.43
493.90	11843.11
494.08	12011.63
494.25	12147.38
494.43	12400.16
494.61	12402.50
494.79	12510.16
494.96	12425.90
495.14	12327.60
495.32	12564.00
495.49	12222.28
495.67	12482.08
495.85	12542.93
496.02	12725.49
496.20	13151.47
496.38	12901.03
496.55	13071.89
496.73	13001.68
496.91	12861.24
497.09	13406.59
497.26	13144.45
497.44	13254.45
497.62	13432.33
497.79	13530.64
497.97	13310.63
498.14	13617.24
498.32	13682.77
498.50	13467.44
498.67	13919.17
498.85	13731.92
499.03	14104.07
499.20	13738.94
499.38	13926.19
499.56	13987.04
499.73	13919.17
499.91	14139.18
500.08	14099.39
500.26	13940.23
500.44	14075.98
500.61	14253.86
500.79	14204.71
500.97	14347.48
501.14	14651.75
501.32	14370.89
501.49	14333.44
501.67	14406.00
501.84	14546.43
502.02	14719.63
502.20	14707.93
502.37	14874.10
502.55	14916.23
502.72	14434.08
502.90	15066.03
503.07	14831.97
503.25	14981.77
503.43	14738.35
503.60	15129.22
503.78	15248.59
503.95	15407.75
504.13	15346.89
504.30	15171.35
504.48	15318.81
504.65	15440.51
504.83	15506.05
505.01	15398.38
505.18	15377.32
505.36	15742.44
505.53	15824.36
505.71	15431.15
505.88	15936.71
506.06	15550.52
506.23	15896.92
506.41	15815.00
506.58	15754.15
506.76	15875.85
506.93	16037.35
507.11	15779.89
507.28	16269.06
507.46	16182.46
507.63	16259.70
507.81	16266.72
507.98	16294.81
508.16	16315.87
508.33	16376.73
508.50	16453.97
508.68	16559.29
508.85	16823.77
509.03	16727.81
509.20	16659.93
509.38	16987.61
509.55	17025.06
509.73	17191.23
509.90	16779.30
510.08	16802.71
510.25	16915.05
510.42	17064.85
510.60	17128.04
510.77	17486.14
510.95	17057.82
511.12	17401.88
511.30	17109.32
511.47	17174.85
511.64	17261.45
511.82	17568.06
511.99	17621.89
512.17	17715.51
512.34	17399.54
512.51	17645.30
512.69	17776.37
512.86	17776.37
513.04	17994.04
513.21	18078.30
513.38	17802.11
513.56	17867.65
513.73	17469.76
513.90	18012.76
514.08	17757.64
514.25	17984.68
514.43	18078.30
514.60	18190.64
514.77	18181.28
514.95	18459.81
515.12	18026.81
515.29	18235.11
515.47	18300.65
515.64	18391.93
515.81	18429.38
515.99	18623.64
516.16	18878.76
516.33	18452.78
516.51	18808.54
516.68	18377.89
516.85	18485.55
517.03	18724.29
517.20	18714.92
517.37	18750.03
517.54	18988.77
517.72	19028.56
517.89	19068.34
518.06	19082.39
518.24	19164.31
518.41	19213.46
518.58	19225.16
518.75	19304.74
518.93	19016.85
519.10	19183.03
519.27	19239.20
519.45	19393.68
519.62	19267.29
519.79	19166.65
519.96	19260.27
520.14	19758.80
520.31	19639.44
520.48	19421.77
520.65	19875.83
520.83	19845.40
521.00	19618.37
521.17	19882.85
521.34	19784.55
521.52	19728.38
521.69	19875.83
521.86	19819.66
522.03	19866.47
522.20	20182.44
522.38	19974.13
522.55	20205.84
522.72	19903.92
522.89	20201.16
523.07	20379.04
523.24	20255.00
523.41	20299.47
523.58	20051.37
523.75	20688.00
523.92	20187.12
524.10	20500.75
524.27	20641.18
524.44	20467.98
524.61	20615.44
524.78	20725.44
524.96	20404.79
525.13	20346.28
525.30	20821.41
525.47	20535.86
525.64	20690.34
525.81	20849.49
525.98	21088.23
526.16	20620.12
526.33	21055.46
526.50	20943.11
526.67	20842.47
526.84	20858.85
527.01	21235.68
527.18	21156.10
527.36	20891.62
527.53	21069.50
527.70	21231.00
527.87	21242.70
528.04	21298.88
528.21	21376.11
528.38	21109.29
528.55	21497.82
528.72	21352.71
528.89	21362.07
529.07	21469.73
529.24	21322.28
529.41	21514.20
529.58	21575.06
529.75	21598.46
529.92	21546.97
530.09	21671.02
530.26	21708.47
530.43	21788.05
530.60	21762.30
530.77	21848.90
530.94	21757.62
531.11	21563.36
531.28	21589.10
531.46	21867.63
531.63	21605.49
531.80	21577.40
531.97	22038.48
532.14	21802.09
532.31	21865.28
532.48	22024.44
532.65	21942.52
532.82	21965.93
532.99	22033.80
533.16	22089.98
533.33	22113.38
533.50	22363.82
533.67	22654.05
533.84	22223.39
534.01	22305.31
534.18	22256.15
534.35	22487.87
534.52	22190.62
534.69	22703.20
534.86	22373.18
535.03	22750.01
535.20	22455.10
535.37	22806.18
535.54	22682.13
535.71	22487.87
535.88	22642.34
536.05	22672.77
536.22	22611.92
536.38	22787.46
536.55	22871.72
536.72	22759.37
536.89	22579.15
537.06	22579.15
537.23	23073.00
537.40	22663.41
537.57	22984.06
537.74	22848.31
537.91	23145.56
538.08	23026.19
538.25	22946.61
538.42	23187.69
538.59	23234.50
538.75	22775.75
538.92	23016.83
539.09	23180.67
539.26	23346.84
539.43	23227.48
539.60	23351.52
539.77	23468.55
539.94	23421.74
540.11	23417.06
540.28	23283.65
540.44	23545.79
540.61	23620.69
540.78	23723.67
540.95	23550.47
541.12	23838.36
541.29	23922.62
541.46	24032.62
541.62	24063.05
541.79	24011.56
541.96	23714.31
542.13	23854.74
542.30	24070.07
542.47	24093.47
542.63	23985.81
542.80	23906.23
542.97	24203.48
543.14	24496.05
543.31	23910.91
543.48	24002.19
543.64	24191.78
543.81	24514.77
543.98	24673.93
544.15	24486.68
544.32	24603.71
544.48	24304.12
544.65	24496.05
544.82	24341.57
544.99	24407.11
545.16	24287.74
545.32	24570.94
545.49	25041.39
545.66	25589.08
545.83	25528.22
546.00	25596.10
546.16	24840.11
546.33	24762.87
546.50	24393.06
546.67	24458.60
546.83	24261.99
547.00	24341.57
547.17	24638.82
547.34	24276.04
547.50	24437.53
547.67	24805.00
547.84	24664.57
548.00	24870.53
548.17	24549.88
548.34	24451.58
548.51	24870.53
548.67	24840.11
548.84	24676.27
549.01	24879.89
549.18	24840.11
549.34	24776.91
549.51	24819.04
549.68	24816.70
549.84	24650.52
550.01	24533.50
550.18	25043.73
550.34	24973.52
550.51	24657.54
550.68	25088.20
550.84	24425.83
551.01	25020.33
551.18	24538.18
551.34	24570.94
551.51	25034.37
551.68	24760.53
551.84	25303.53
552.01	24929.05
552.18	24833.08
552.34	25132.67
552.51	25242.68
552.68	24636.48
552.84	24673.93
553.01	24903.30
553.18	25090.54
553.34	25055.43
553.51	25329.28
553.67	25315.23
553.84	25362.04
554.01	25303.53
554.17	25523.54
554.34	24910.32
554.51	25181.82
554.67	25355.02
554.84	25090.54
555.00	25209.91
555.17	25074.16
555.33	25415.88
555.50	25628.87
555.67	25174.80
555.83	24980.54
556.00	25312.89
556.16	25043.73
556.33	25348.00
556.50	25071.82
556.66	25350.34
556.83	25406.52
556.99	25291.83
557.16	25191.19
557.32	25371.41
557.49	25216.93
557.65	25284.81
557.82	24858.83
557.98	25486.09
558.15	25081.18
558.32	25542.27
558.48	25963.56
558.65	25453.33
558.81	25671.00
558.98	25589.08
559.14	25813.77
559.31	25649.93
559.47	25579.71
559.64	25392.47
559.80	25741.21
559.97	25371.41
560.13	25385.45
560.30	25722.49
560.46	25441.62
560.63	25687.38
560.79	25717.81
560.96	25483.75
561.12	25544.61
561.29	25439.28
561.45	25773.98
561.61	25827.81
561.78	25820.79
561.94	25977.61
562.11	25259.06
562.27	25591.42
562.44	25488.43
562.60	25420.56
562.77	25663.97
562.93	25392.47
563.10	25748.23
563.26	25509.50
563.42	26106.34
563.59	25638.23
563.75	25710.78
563.92	25591.42
564.08	25404.17
564.24	25722.49
564.41	25715.47
564.57	25876.96
564.74	25631.21
564.90	25956.54
565.07	25944.84
565.23	25757.60
565.39	25675.68
565.56	25647.59
565.72	25699.08
565.88	25947.18
566.05	25951.86
566.21	25490.77
566.38	25804.41
566.54	25881.64
566.70	25724.83
566.87	25813.77
567.03	25799.73
567.19	25893.35
567.36	25722.49
567.52	26087.61
567.68	25954.20
567.85	25469.71
568.01	26155.49
568.17	25682.70
568.34	25713.13
568.50	25603.12
568.66	25991.65
568.83	26162.51
568.99	25853.56
569.15	25619.50
569.32	25907.39
569.48	25785.68
569.64	26054.84
569.81	25991.65
569.97	26082.93
570.13	25748.23
570.30	25825.47
570.46	25848.88
570.62	25832.49
570.78	26031.44
570.95	26068.89
571.11	26008.03
571.27	25530.56
571.43	25495.46
571.60	25837.17
571.76	25979.95
571.92	26167.19
572.09	25921.43
572.25	25825.47
572.41	25792.70
572.57	25855.90
572.74	26059.52
572.90	25752.91
573.06	25862.92
573.22	25692.06
573.38	26001.01
573.55	26043.14
573.71	26370.82
573.87	26153.15
574.03	25958.88
574.20	26256.13
574.36	26005.69
574.52	26003.35
574.68	26314.64
574.84	26291.24
575.01	26253.79
575.17	25993.99
575.33	25649.93
575.49	25535.24
575.65	26132.08
575.82	26169.53
575.98	26064.21
576.14	25876.96
576.30	26099.31
576.46	25748.23
576.62	26214.00
576.79	26132.08
576.95	26312.30
577.11	25949.52
577.27	26015.05
577.43	26361.45
577.59	26150.81
577.75	26146.12
577.92	25710.78
578.08	25839.51
578.24	25703.76
578.40	26052.50
578.56	26422.31
578.72	26178.89
578.88	26309.96
579.04	26464.44
579.21	26122.72
579.37	26054.84
579.53	26242.09
579.69	26080.59
579.85	25764.62
580.01	26181.23
580.17	26108.68
580.33	26331.03
580.49	26078.25
580.65	26073.57
580.82	26211.66
580.98	26204.64
581.14	25968.24
581.30	25996.33
581.46	25905.05
581.62	26143.78
581.78	25706.10
581.94	26087.61
582.10	26115.70
582.26	26206.98
582.42	25841.85
582.58	26295.92
582.74	26195.28
582.90	26291.24
583.06	26361.45
583.22	26122.72
583.38	26054.84
583.54	25951.86
583.70	26162.51
583.86	25984.63
584.02	26066.55
584.18	25909.73
584.34	26010.37
584.50	26396.56
584.66	26111.02
584.82	25961.22
584.98	25937.82
585.14	26012.71
585.30	25893.35
585.46	25895.69
585.62	26300.60
585.78	26169.53
585.94	25991.65
586.10	26253.79
586.26	26265.49
586.42	26309.96
586.58	26281.88
586.74	26094.63
586.90	25888.67
587.06	25848.88
587.22	26485.50
587.38	26162.51
587.54	25869.94
587.70	26782.75
587.86	26408.26
588.02	26148.46
588.18	26326.35
588.34	26050.16
588.49	26185.91
588.65	25848.88
588.81	25935.48
588.97	26160.17
589.13	26546.36
589.29	26108.68
589.45	26103.99
589.61	26101.65
589.77	26412.95
589.93	26251.45
590.08	26305.28
590.24	26216.34
590.40	26466.78
590.56	26445.71
590.72	26321.66
590.88	26129.74
591.04	26361.45
591.20	26450.39
591.35	26724.24
591.51	26590.83
591.67	26375.50
591.83	26504.23
591.99	26541.68
592.15	26263.15
