SpectraSuite Data File
++++++++++++++++++++++++++++++++++++
Date: Fri Oct 04 11:39:22 GMT-05:00 2013
User: price-jones
Dark Spectrum Present: No
Reference Spectrum Present: No
Number of Sampled Component Spectra: 1
Spectrometers: USB2+H05261
Integration Time (usec): 100000 (USB2+H05261)
Spectra Averaged: 1 (USB2+H05261)
Boxcar Smoothing: 0 (USB2+H05261)
Correct for Electrical Dark: No (USB2+H05261)
Strobe/Lamp Enabled: No (USB2+H05261)
Correct for Detector Non-linearity: No (USB2+H05261)
Correct for Stray Light: No (USB2+H05261)
Number of Pixels in Processed Spectrum: 2048
>>>>>Begin Processed Spectral Data<<<<<
365.73	126.39
365.92	126.39
366.12	126.39
366.32	0.00
366.52	0.00
366.72	0.00
366.91	0.00
367.11	0.00
367.31	7.02
367.51	0.00
367.70	0.00
367.90	0.00
368.10	0.00
368.30	0.00
368.49	0.00
368.69	0.00
368.89	0.00
369.09	0.00
369.28	0.00
369.48	0.00
369.68	4.68
369.87	0.00
370.07	35.11
370.27	49.15
370.47	39.79
370.66	257.46
370.86	283.20
371.06	287.89
371.25	301.93
371.45	341.72
371.65	262.14
371.84	313.63
372.04	308.95
372.24	341.72
372.44	231.71
372.63	400.23
372.83	301.93
373.03	318.31
373.22	337.04
373.42	416.62
373.62	334.70
373.81	409.59
374.01	360.44
374.21	411.93
374.40	402.57
374.60	470.45
374.79	341.72
374.99	437.68
375.19	416.62
375.38	461.09
375.58	433.00
375.78	435.34
375.97	369.80
376.17	507.90
376.37	360.44
376.56	353.42
376.76	365.12
376.95	372.15
377.15	468.11
377.35	517.26
377.54	470.45
377.74	325.33
377.93	447.04
378.13	433.00
378.33	372.15
378.52	383.85
378.72	491.51
378.91	365.12
379.11	418.96
379.31	421.30
379.50	416.62
379.70	496.19
379.89	472.79
380.09	423.64
380.28	451.72
380.48	533.64
380.68	369.80
380.87	440.02
381.07	477.47
381.26	550.03
381.46	514.92
381.65	547.69
381.85	409.59
382.04	411.93
382.24	482.15
382.43	479.81
382.63	444.70
382.83	447.04
383.02	594.50
383.22	540.66
383.41	440.02
383.61	477.47
383.80	489.17
384.00	533.64
384.19	437.68
384.39	617.90
384.58	564.07
384.78	521.94
384.97	521.94
385.17	552.37
385.36	545.34
385.56	538.32
385.75	458.74
385.95	559.39
386.14	599.18
386.34	580.45
386.53	617.90
386.72	594.50
386.92	599.18
387.11	580.45
387.31	617.90
387.50	596.84
387.70	543.00
387.89	608.54
388.09	648.33
388.28	627.26
388.48	664.71
388.67	610.88
388.86	667.05
389.06	596.84
389.25	622.58
389.45	615.56
389.64	650.67
389.84	681.10
390.03	648.33
390.22	706.84
390.42	636.63
390.61	575.77
390.81	606.20
391.00	552.37
391.19	746.63
391.39	627.26
391.58	669.39
391.78	713.86
391.97	725.57
392.16	674.07
392.36	744.29
392.55	779.40
392.75	781.74
392.94	763.01
393.13	737.27
393.33	730.25
393.52	688.12
393.71	786.42
393.91	770.04
394.10	737.27
394.29	709.18
394.49	758.33
394.68	821.53
394.88	882.38
395.07	828.55
395.26	788.76
395.46	823.87
395.65	798.12
395.84	819.19
396.04	880.04
396.23	849.61
396.42	870.68
396.62	854.30
396.81	830.89
397.00	894.08
397.19	912.81
397.39	959.62
397.58	896.43
397.77	844.93
397.97	990.05
398.16	896.43
398.35	917.49
398.55	978.34
398.74	912.81
398.93	947.92
399.12	884.72
399.32	994.73
399.51	940.90
399.70	950.26
399.90	1050.90
400.09	1046.22
400.28	1013.45
400.47	1053.24
400.67	1081.33
400.86	1064.94
401.05	1062.60
401.24	1135.16
401.44	1217.08
401.63	1048.56
401.82	1109.41
402.01	1167.93
402.21	1114.10
402.40	1146.86
402.59	1205.38
402.78	1095.37
402.97	1207.72
403.17	1233.46
403.36	1196.01
403.55	1245.16
403.74	1256.87
403.93	1331.76
404.13	1350.49
404.32	1345.81
404.51	1263.89
404.70	1341.13
404.89	1348.15
405.09	1432.41
405.28	1303.68
405.47	1397.30
405.66	1427.73
405.85	1425.39
406.05	1465.18
406.24	1385.60
406.43	1376.24
406.62	1488.58
406.81	1495.60
407.00	1434.75
407.20	1533.05
407.39	1460.49
407.58	1596.25
407.77	1593.90
407.96	1577.52
408.15	1603.27
408.34	1652.42
408.54	1575.18
408.73	1607.95
408.92	1640.72
409.11	1624.33
409.30	1694.55
409.49	1654.76
409.68	1757.74
409.87	1720.29
410.07	1739.02
410.26	1631.35
410.45	1802.21
410.64	1832.64
410.83	1895.83
411.02	1844.34
411.21	1781.15
411.40	1837.32
411.59	1994.14
411.78	1905.20
411.98	1963.71
412.17	1820.94
412.36	1912.22
412.55	2029.24
412.74	2008.18
412.93	2054.99
413.12	2031.58
413.31	2202.44
413.50	2150.95
413.69	2172.02
413.88	2218.83
414.07	2211.81
414.26	2136.91
414.45	2228.19
414.64	2263.30
414.83	2260.96
415.02	2314.79
415.22	2340.54
415.41	2427.14
415.60	2363.94
415.79	2347.56
415.98	2562.89
416.17	2534.80
416.36	2429.48
416.55	2569.91
416.74	2459.90
416.93	2483.31
417.12	2605.02
417.31	2546.50
417.50	2649.49
417.69	2609.70
417.88	2656.51
418.07	2818.00
418.26	2747.79
418.45	2696.30
418.64	2862.48
418.83	2825.03
419.02	2754.81
419.21	2885.88
419.39	2867.16
419.58	2759.49
419.77	2895.24
419.96	2876.52
420.15	2874.18
420.34	2874.18
420.53	2876.52
420.72	3061.42
420.91	2958.44
421.10	3101.21
421.29	3258.03
421.48	3087.17
421.67	3068.44
421.86	2993.55
422.05	3103.55
422.24	3206.53
422.43	3094.19
422.61	3211.22
422.80	3272.07
422.99	3178.45
423.18	3267.39
423.37	3206.53
423.56	3178.45
423.75	3159.72
423.94	3180.79
424.13	3014.61
424.32	3089.51
424.50	3234.62
424.69	3297.81
424.88	3325.90
425.07	3251.00
425.26	3131.64
425.45	3253.34
425.64	3269.73
425.83	3314.20
426.01	3386.76
426.20	3138.66
426.39	3204.19
426.58	3295.47
426.77	3412.50
426.96	3410.16
427.15	3379.73
427.33	3234.62
427.52	3384.41
427.71	3431.23
427.90	3274.41
428.09	3407.82
428.28	3328.24
428.46	3515.48
428.65	3508.46
428.84	3684.00
429.03	3597.40
429.22	3449.95
429.40	3562.30
429.59	3698.05
429.78	3487.40
429.97	3552.93
430.16	3597.40
430.34	3768.26
430.53	3529.53
430.72	3726.13
430.91	3632.51
431.10	3721.45
431.28	3836.14
431.47	3794.01
431.66	3798.69
431.85	3705.07
432.03	3779.97
432.22	3950.82
432.41	3819.75
432.60	3918.06
432.79	3878.27
432.97	3742.52
433.16	3845.50
433.35	3901.67
433.54	3906.35
433.72	4023.38
433.91	3950.82
434.10	4135.73
434.28	3999.98
434.47	4044.45
434.66	4046.79
434.85	4163.81
435.03	4098.28
435.22	4545.32
435.41	4580.43
435.59	4428.29
435.78	4482.13
435.97	4437.66
436.16	4278.50
436.34	4409.57
436.53	4327.65
436.72	4360.42
436.90	4337.01
437.09	4517.23
437.28	4348.72
437.46	4262.12
437.65	4329.99
437.84	4423.61
438.02	4472.76
438.21	4514.89
438.40	4531.28
438.58	4566.39
438.77	4697.46
438.96	4507.87
439.14	4664.69
439.33	4697.46
439.52	4652.98
439.70	4765.33
439.89	4772.35
440.08	4863.63
440.26	4877.68
440.45	4915.12
440.63	4999.38
440.82	5036.83
441.01	4929.17
441.19	5132.79
441.38	5107.05
441.57	5013.43
441.75	5158.54
441.94	5310.68
442.12	5362.17
442.31	5453.45
442.50	5427.70
442.68	5308.34
442.87	5181.95
443.05	5188.97
443.24	5385.57
443.43	5528.35
443.61	5458.13
443.80	5631.33
443.98	5327.06
444.17	5263.86
444.35	5628.99
444.54	5518.98
444.73	5607.92
444.91	5397.28
445.10	5502.60
445.28	5467.49
445.47	5298.97
445.65	5448.77
445.84	5479.19
446.02	5518.98
446.21	5645.37
446.39	5441.75
446.58	5423.02
446.77	5497.92
446.95	5526.00
447.14	5526.00
447.32	5654.73
447.51	5556.43
447.69	5579.84
447.88	5671.12
448.06	5664.10
448.25	5603.24
448.43	5614.95
448.62	5659.42
448.80	5638.35
448.99	5785.80
449.17	5746.02
449.36	5680.48
449.54	5933.26
449.73	6012.84
449.91	5919.21
450.10	6071.35
450.28	5921.56
450.46	5949.64
450.65	6015.18
450.83	5933.26
451.02	6043.26
451.20	5998.79
451.39	6134.54
451.57	5841.98
451.76	6057.31
451.94	6043.26
452.13	6122.84
452.31	6132.20
452.49	6050.28
452.68	6099.44
452.86	6197.74
453.05	6209.44
453.23	6244.55
453.42	6324.13
453.60	6157.95
453.78	6303.06
453.97	6127.52
454.15	6291.36
454.34	6223.48
454.52	6359.24
454.70	6384.98
454.89	6387.32
455.07	6333.49
455.26	6490.31
455.44	6574.56
455.62	6462.22
455.81	6523.07
455.99	6604.99
456.17	6565.20
456.36	6724.36
456.54	6813.30
456.73	6836.70
456.91	6864.79
457.09	6977.14
457.28	6979.48
457.46	6780.53
457.64	6979.48
457.83	6834.36
458.01	6712.66
458.19	7000.54
458.38	6750.10
458.56	6836.70
458.74	6967.77
458.93	7066.08
459.11	7199.49
459.29	7040.33
459.48	7246.30
459.66	7105.87
459.84	7152.68
460.03	7328.22
460.21	7133.95
460.39	7283.75
460.57	7108.21
460.76	7328.22
460.94	7590.36
461.12	7325.88
461.31	7447.58
461.49	7363.33
461.67	7396.09
461.85	7400.77
462.04	7487.37
462.22	7630.15
462.40	7480.35
462.59	7585.68
462.77	7779.94
462.95	7625.47
463.13	7609.08
463.32	7672.28
463.50	7789.30
463.68	7737.81
463.86	7637.17
464.05	7693.34
464.23	7852.50
464.41	7812.71
464.59	7667.60
464.78	7801.01
464.96	7896.97
465.14	7850.16
465.32	8046.76
465.50	8035.06
465.69	7983.57
465.87	7700.36
466.05	7939.10
466.23	7838.45
466.41	8042.08
466.60	8126.34
466.78	7911.01
466.96	7925.05
467.14	8021.02
467.32	8255.07
467.51	8203.58
467.69	8079.53
467.87	8287.84
468.05	8166.13
468.23	8133.36
468.41	8198.90
468.60	8175.49
468.78	8336.99
468.96	8138.04
469.14	8531.25
469.32	8627.21
469.50	8456.36
469.69	8437.63
469.87	8643.60
470.05	8744.24
470.23	8617.85
470.41	8475.08
470.59	8901.06
470.77	8730.20
470.95	8685.73
471.14	8741.90
471.32	8552.32
471.50	8954.89
471.68	8999.36
471.86	9053.19
472.04	8961.91
472.22	9062.55
472.40	9032.13
472.58	9027.45
472.77	9111.71
472.95	9165.54
473.13	9521.30
473.31	9085.96
473.49	9273.20
473.67	9418.32
473.85	9387.89
474.03	9387.89
474.21	9668.75
474.39	9570.45
474.57	9776.42
474.75	9774.08
474.93	9792.80
475.12	9921.53
475.30	9914.51
475.48	9944.94
475.66	9879.40
475.84	9977.70
476.02	9942.60
476.20	10218.78
476.38	10139.20
476.56	10466.88
476.74	10448.15
476.92	10256.23
477.10	10445.81
477.28	10860.09
477.46	10448.15
477.64	10738.38
477.82	10726.68
478.00	10913.92
478.18	11021.58
478.36	11201.80
478.54	11321.17
478.72	11243.93
478.90	11194.78
479.08	11452.24
479.26	11562.25
479.44	11660.55
479.62	11690.98
479.80	11716.72
479.98	11833.75
480.16	11838.43
480.34	11779.92
480.52	12044.40
480.70	12182.49
480.88	12060.78
481.06	12051.42
481.24	12159.08
481.41	12587.40
481.59	12491.44
481.77	12678.68
481.95	12603.78
482.13	12996.99
482.31	12999.34
482.49	12800.39
482.67	13177.22
482.85	13308.29
483.03	13490.85
483.21	13371.48
483.39	14068.96
483.57	13600.85
483.74	13891.08
483.92	14094.71
484.10	13792.78
484.28	14265.57
484.46	14286.63
484.64	14747.72
484.82	14485.58
485.00	14721.97
485.18	14726.65
485.35	15084.75
485.53	14810.91
485.71	15061.35
485.89	15307.10
486.07	15051.99
486.25	15286.04
486.43	15213.48
486.61	15667.55
486.78	16039.69
486.96	16060.76
487.14	15906.28
487.32	15857.13
487.50	16294.81
487.68	16217.57
487.85	16458.65
488.03	16606.10
488.21	16739.51
488.39	16837.81
488.57	16924.41
488.75	16760.58
488.92	17224.00
489.10	17577.42
489.28	17495.50
489.46	17652.32
489.64	17504.87
489.81	18010.42
489.99	18284.26
490.17	18251.50
490.35	18424.70
490.53	18214.05
490.70	18824.93
490.88	18207.03
491.06	18766.42
491.24	18647.05
491.41	19129.20
491.59	19080.05
491.77	19396.02
491.95	19632.41
492.13	19391.34
492.30	19367.93
492.48	19517.73
492.66	19648.80
492.84	19889.87
493.01	19915.62
493.19	19875.83
493.37	20091.16
493.54	20498.41
493.72	20187.12
493.90	20514.80
494.08	20767.57
494.25	20847.15
494.43	20606.08
494.61	21308.24
494.79	21013.33
494.96	21483.78
495.14	21341.00
495.32	21600.80
495.49	21715.49
495.67	21757.62
495.85	21476.76
496.02	21729.53
496.20	22422.33
496.38	22312.33
496.55	22277.22
496.73	22707.88
496.91	22204.66
497.09	22909.16
497.26	22934.91
497.44	22597.87
497.62	22892.78
497.79	23171.30
497.97	23096.41
498.14	23410.04
498.32	23194.71
498.50	23283.65
498.67	23681.54
498.85	23726.01
499.03	23644.09
499.20	24063.05
499.38	23646.43
499.56	24079.43
499.73	24278.38
499.91	24301.78
500.08	24336.89
500.26	24369.66
500.44	24442.21
500.61	24484.34
500.79	24421.15
500.97	24954.79
501.14	24912.66
501.32	25282.47
501.49	25500.14
501.67	24842.45
501.84	25282.47
502.02	25025.01
502.20	25654.61
502.37	25619.50
502.55	25603.12
502.72	25411.20
502.90	25876.96
503.07	25591.42
503.25	25462.69
503.43	25624.18
503.60	26206.98
503.78	25766.96
503.95	26316.98
504.13	26518.27
504.30	26171.87
504.48	26520.61
504.65	26876.37
504.83	26932.54
505.01	27262.56
505.18	26934.88
505.36	27201.71
505.53	26574.44
505.71	26941.91
505.88	27199.37
506.06	26927.86
506.23	27513.00
506.41	27459.16
506.58	27758.75
506.76	27515.34
506.93	27571.51
507.11	27398.31
507.28	27805.56
507.46	27709.60
507.63	28027.92
507.81	28072.39
507.98	27782.16
508.16	27967.06
508.33	28278.35
508.50	28025.57
508.68	28498.36
508.85	28772.21
509.03	29081.16
509.20	28809.65
509.38	29099.88
509.55	28933.70
509.73	29029.66
509.90	29024.98
510.08	29142.01
510.25	28994.56
510.42	29362.02
510.60	29483.73
510.77	29745.87
510.95	29823.11
511.12	29769.27
511.30	29958.86
511.47	30073.54
511.64	29986.94
511.82	30520.59
511.99	30258.45
512.17	30029.07
512.34	30380.15
512.51	30529.95
512.69	30445.69
512.86	30342.70
513.04	30993.37
513.21	30920.82
513.38	31072.95
513.56	30972.31
513.73	30803.79
513.90	30993.37
514.08	31075.29
514.25	30782.73
514.43	31433.39
514.60	31452.12
514.77	31625.32
514.95	31571.49
515.12	31236.79
515.29	31309.35
515.47	31796.18
515.64	32147.26
515.81	31505.95
515.99	31793.84
516.16	32201.09
516.33	32165.98
516.51	32701.96
516.68	31962.36
516.85	32268.97
517.03	32510.04
517.20	32748.78
517.37	32783.88
517.54	32559.19
517.72	32641.11
517.89	32531.11
518.06	32734.73
518.24	32378.97
518.41	32657.49
518.58	32814.31
518.75	33001.55
518.93	33212.20
519.10	33048.36
519.27	33050.70
519.45	33322.21
519.62	33415.83
519.79	33401.79
519.96	33476.68
520.14	33715.42
520.31	33757.55
520.48	33778.61
520.65	33603.07
520.83	34022.03
521.00	34099.26
521.17	33947.13
521.34	33907.34
521.52	34099.26
521.69	34485.45
521.86	34478.43
522.03	34600.14
522.20	34600.14
522.38	35082.29
522.55	34490.13
522.72	34281.83
522.89	34869.30
523.07	35232.08
523.24	34909.09
523.41	35473.16
523.58	34906.75
523.75	35384.22
523.92	35278.89
524.10	35192.30
524.27	35370.18
524.44	35257.83
524.61	35608.91
524.78	35688.49
524.96	35246.13
525.13	35796.15
525.30	35831.26
525.47	35978.72
525.64	35899.14
525.81	36273.62
525.98	36418.74
526.16	35875.73
526.33	36163.62
526.50	36137.87
526.67	36463.21
526.84	35817.22
527.01	36233.83
527.18	36400.01
527.36	36575.55
527.53	36254.90
527.70	36825.99
527.87	37214.52
528.04	37038.98
528.21	36720.66
528.38	36706.62
528.55	36730.03
528.72	37088.13
528.89	36893.86
529.07	36804.92
529.24	36774.50
529.41	37200.47
529.58	37024.93
529.75	37368.99
529.92	37373.67
530.09	37610.07
530.26	37474.32
530.43	37841.78
530.60	37460.27
530.77	37446.23
530.94	37900.29
531.11	37289.42
531.28	37699.01
531.46	37652.20
531.63	37853.48
531.80	37755.18
531.97	37816.04
532.14	37984.55
532.31	37982.21
532.48	38054.77
532.65	38447.98
532.82	38178.82
532.99	38450.32
533.16	38171.80
533.33	38527.56
533.50	38843.53
533.67	38415.21
533.84	38450.32
534.01	38164.78
534.18	38211.59
534.35	38911.41
534.52	38508.83
534.69	38586.07
534.86	39505.90
535.03	38513.52
535.20	39068.22
535.37	39145.46
535.54	39199.29
535.71	38857.57
535.88	39290.57
536.05	39044.82
536.22	39365.47
536.38	39655.70
536.55	39629.95
536.72	39433.35
536.89	39253.12
537.06	39246.10
537.23	39601.86
537.40	39775.06
537.57	39718.89
537.74	39704.85
537.91	39952.94
538.08	39966.99
538.25	40039.54
538.42	39805.49
538.59	40275.94
538.75	39775.06
538.92	39866.34
539.09	40301.68
539.26	40383.60
539.43	40648.08
539.60	40168.27
539.77	40751.07
539.94	40898.52
540.11	40685.53
540.28	40507.65
540.44	40575.53
540.61	40982.78
540.78	40481.91
540.95	40952.35
541.12	41031.93
541.29	41216.83
541.46	41144.28
541.62	41074.06
541.79	41467.27
541.96	41127.89
542.13	40870.43
542.30	41593.66
542.47	41518.76
542.63	41345.56
542.80	41401.74
542.97	41621.75
543.14	42066.45
543.31	41874.52
543.48	41336.20
543.64	41780.90
543.81	42059.43
543.98	41914.31
544.15	41874.52
544.32	42225.60
544.48	42387.10
544.65	42071.13
544.82	41846.44
544.99	41804.31
545.16	42139.00
545.32	42157.73
545.49	43257.78
545.66	43562.05
545.83	43658.01
546.00	43662.69
546.16	43098.62
546.33	42487.74
546.50	41916.65
546.67	42550.94
546.83	41996.23
547.00	42459.66
547.17	42485.40
547.34	42735.84
547.50	42682.01
547.67	43449.70
547.84	43044.79
548.00	42731.16
548.17	42541.58
548.34	42705.41
548.51	42848.19
548.67	42691.37
548.84	42862.23
549.01	43213.31
549.18	42499.45
549.34	42682.01
549.51	43498.86
549.68	42939.47
549.84	42770.95
550.01	43194.59
550.18	42799.04
550.34	43346.72
550.51	43325.66
550.68	43107.99
550.84	43115.01
551.01	43477.79
551.18	43330.34
551.34	42941.81
551.51	43377.15
551.68	43157.14
551.84	43522.26
552.01	43786.74
552.18	43945.90
552.34	43112.67
552.51	43559.71
552.68	43295.23
552.84	43501.20
553.01	43761.00
553.18	43468.43
553.34	43793.76
553.51	43964.62
553.67	43854.62
553.84	44020.80
554.01	43943.56
554.17	43381.83
554.34	43744.61
554.51	43634.61
554.67	44554.44
554.84	44102.71
555.00	44289.96
555.17	44177.61
555.33	44100.37
555.50	43901.43
555.67	43782.06
555.83	44189.31
556.00	44212.72
556.16	44268.89
556.33	43852.28
556.50	44348.47
556.66	44498.26
556.83	43873.34
556.99	44196.34
557.16	44250.17
557.32	44683.17
557.49	44624.65
557.65	43859.30
557.82	44093.35
557.98	43941.22
558.15	44353.15
558.32	44514.65
558.48	44772.11
558.65	44802.53
558.81	44470.18
558.98	44470.18
559.14	44643.38
559.31	44472.52
559.47	44612.95
559.64	44898.50
559.80	44559.12
559.97	45120.85
560.13	44903.18
560.30	44783.81
560.46	44636.36
560.63	45074.04
560.79	44545.08
560.96	45160.64
561.12	44671.46
561.29	44737.00
561.45	45055.31
561.61	44779.13
561.78	44795.51
561.94	44933.60
562.11	45141.91
562.27	44828.28
562.44	44872.75
562.60	45048.29
562.77	45015.52
562.93	45067.02
563.10	45244.90
563.26	44987.44
563.42	45642.79
563.59	45228.51
563.75	44655.08
563.92	45390.01
564.08	45399.37
564.24	45235.53
564.41	44680.83
564.57	45467.25
564.74	45015.52
564.90	45251.92
565.07	45441.50
565.23	45476.61
565.39	44942.97
565.56	45811.31
565.72	45429.80
565.88	45375.97
566.05	44992.12
566.21	45177.02
566.38	44811.90
566.54	45256.60
566.70	45516.40
566.87	45991.53
567.03	45839.39
567.19	45825.35
567.36	45275.32
567.52	45715.34
567.68	45567.89
567.85	45305.75
568.01	45413.41
568.17	45617.04
568.34	45965.78
568.50	45413.41
568.66	45603.00
568.83	45801.94
568.99	45574.91
569.15	45076.38
569.32	45659.17
569.48	45640.45
569.64	45708.32
569.81	45315.11
569.97	45713.00
570.13	45652.15
570.30	46005.57
570.46	45933.01
570.62	45895.56
570.78	45645.13
570.95	45113.83
571.11	45399.37
571.27	44973.39
571.43	45406.39
571.60	45949.40
571.76	45567.89
571.92	45790.24
572.09	45757.47
572.25	46120.26
572.41	45886.20
572.57	45776.20
572.74	46005.57
572.90	45736.41
573.06	45755.13
573.22	45516.40
573.38	46033.66
573.55	46153.02
573.71	46326.22
573.87	46181.11
574.03	45771.52
574.20	45989.19
574.36	45750.45
574.52	45752.79
574.68	45504.70
574.84	45846.41
575.01	45605.34
575.17	45956.42
575.33	45741.09
575.49	46157.70
575.65	46005.57
575.82	45785.56
575.98	45741.09
576.14	46068.76
576.30	45855.78
576.46	45839.39
576.62	46019.61
576.79	45689.60
576.95	45965.78
577.11	45984.51
577.27	45972.80
577.43	46176.43
577.59	45858.12
577.75	45804.28
577.92	45801.94
578.08	45670.87
578.24	45581.93
578.40	46192.81
578.56	46607.09
578.72	46223.24
578.88	46593.04
579.04	46401.12
579.21	46415.16
579.37	46387.08
579.53	46073.45
579.69	45741.09
579.85	46183.45
580.01	46080.47
580.17	45860.46
580.33	45930.67
580.49	46031.32
580.65	46120.26
580.82	46078.13
580.98	46043.02
581.14	46052.38
581.30	46220.90
581.46	46071.10
581.62	45982.16
581.78	46021.95
581.94	45993.87
582.10	45914.29
582.26	46499.42
582.42	46068.76
582.58	46366.01
582.74	45762.15
582.90	46382.40
583.06	46223.24
583.22	45853.44
583.38	45904.93
583.54	46237.28
583.70	46115.58
583.86	45823.01
584.02	46019.61
584.18	46319.20
584.34	46300.48
584.50	46351.97
584.66	46351.97
584.82	45787.90
584.98	46347.29
585.14	46052.38
585.30	46038.34
585.46	45933.01
585.62	46190.47
585.78	46007.91
585.94	46218.56
586.10	46234.94
586.26	46281.75
586.42	46167.07
586.58	46494.74
586.74	45942.38
586.90	46300.48
587.06	46146.00
587.22	46265.37
587.38	46431.55
587.54	46534.53
587.70	46307.50
587.86	46361.33
588.02	46398.78
588.18	46677.30
588.34	46560.28
588.49	46415.16
588.65	46054.72
588.81	46546.23
588.97	46588.36
589.13	46115.58
589.29	46410.48
589.45	46724.11
589.61	46576.66
589.77	46672.62
589.93	46773.27
590.08	46522.83
590.24	46534.53
590.40	46288.77
590.56	46550.91
590.72	46328.56
590.88	46033.66
