SpectraSuite Data File
++++++++++++++++++++++++++++++++++++
Date: Fri Oct 04 11:39:53 GMT-05:00 2013
User: price-jones
Dark Spectrum Present: No
Reference Spectrum Present: No
Number of Sampled Component Spectra: 1
Spectrometers: USB2+H05261
Integration Time (usec): 100000 (USB2+H05261)
Spectra Averaged: 1 (USB2+H05261)
Boxcar Smoothing: 0 (USB2+H05261)
Correct for Electrical Dark: No (USB2+H05261)
Strobe/Lamp Enabled: No (USB2+H05261)
Correct for Detector Non-linearity: No (USB2+H05261)
Correct for Stray Light: No (USB2+H05261)
Number of Pixels in Processed Spectrum: 2048
>>>>>Begin Processed Spectral Data<<<<<
365.73	25.75
365.92	25.75
366.12	25.75
366.32	25.75
366.52	0.00
366.72	84.26
366.91	0.00
367.11	0.00
367.31	0.00
367.51	0.00
367.70	0.00
367.90	0.00
368.10	0.00
368.30	0.00
368.49	0.00
368.69	23.41
368.89	0.00
369.09	0.00
369.28	0.00
369.48	0.00
369.68	9.36
369.87	28.09
370.07	14.04
370.27	7.02
370.47	95.96
370.66	114.69
370.86	140.43
371.06	191.92
371.25	201.29
371.45	196.60
371.65	196.60
371.84	191.92
372.04	166.18
372.24	234.05
372.44	180.22
372.63	175.54
372.83	266.82
373.03	280.86
373.22	217.67
373.42	245.76
373.62	322.99
373.81	287.89
374.01	250.44
374.21	241.08
374.40	177.88
374.60	212.99
374.79	182.56
374.99	217.67
375.19	245.76
375.38	217.67
375.58	227.03
375.78	313.63
375.97	259.80
376.17	273.84
376.37	276.18
376.56	278.52
376.76	252.78
376.95	304.27
377.15	320.65
377.35	259.80
377.54	259.80
377.74	168.52
377.93	315.97
378.13	276.18
378.33	236.39
378.52	194.26
378.72	245.76
378.91	290.23
379.11	308.95
379.31	252.78
379.50	255.12
379.70	250.44
379.89	318.31
380.09	259.80
380.28	175.54
380.48	301.93
380.68	273.84
380.87	269.16
381.07	259.80
381.26	313.63
381.46	243.42
381.65	313.63
381.85	299.59
382.04	325.33
382.24	262.14
382.43	266.82
382.63	297.25
382.83	325.33
383.02	341.72
383.22	271.50
383.41	339.38
383.61	337.04
383.80	236.39
384.00	322.99
384.19	297.25
384.39	362.78
384.58	421.30
384.78	355.76
384.97	330.02
385.17	280.86
385.36	341.72
385.56	351.08
385.75	304.27
385.95	313.63
386.14	402.57
386.34	348.74
386.53	442.36
386.72	285.55
386.92	315.97
387.11	374.49
387.31	344.06
387.50	332.36
387.70	271.50
387.89	353.42
388.09	351.08
388.28	292.57
388.48	388.53
388.67	355.76
388.86	337.04
389.06	440.02
389.25	418.96
389.45	423.64
389.64	339.38
389.84	425.98
390.03	465.77
390.22	374.49
390.42	325.33
390.61	395.55
390.81	318.31
391.00	444.70
391.19	414.27
391.39	458.74
391.58	486.83
391.78	451.72
391.97	465.77
392.16	421.30
392.36	456.40
392.55	470.45
392.75	437.68
392.94	482.15
393.13	510.24
393.33	428.32
393.52	496.19
393.71	463.43
393.91	493.85
394.10	423.64
394.29	470.45
394.49	458.74
394.68	528.96
394.88	505.56
395.07	550.03
395.26	479.81
395.46	507.90
395.65	535.98
395.84	496.19
396.04	634.29
396.23	528.96
396.42	507.90
396.62	470.45
396.81	540.66
397.00	547.69
397.19	566.41
397.39	550.03
397.58	582.79
397.77	489.17
397.97	631.94
398.16	559.39
398.35	613.22
398.55	603.86
398.74	620.24
398.93	737.27
399.12	585.13
399.32	634.29
399.51	559.39
399.70	709.18
399.90	620.24
400.09	645.99
400.28	716.20
400.47	634.29
400.67	725.57
400.86	617.90
401.05	692.80
401.24	723.23
401.44	704.50
401.63	695.14
401.82	725.57
402.01	711.52
402.21	697.48
402.40	692.80
402.59	755.99
402.78	706.84
402.97	697.48
403.17	737.27
403.36	777.06
403.55	770.04
403.74	842.59
403.93	816.85
404.13	840.25
404.32	837.91
404.51	819.19
404.70	800.46
404.89	837.91
405.09	915.15
405.28	877.70
405.47	833.23
405.66	936.21
405.85	903.45
406.05	889.40
406.24	894.08
406.43	926.85
406.62	875.36
406.81	1025.15
407.00	959.62
407.20	889.40
407.39	1041.54
407.58	1057.92
407.77	987.71
407.96	1025.15
408.15	1018.13
408.34	1093.03
408.54	978.34
408.73	976.00
408.92	1020.47
409.11	1076.65
409.30	1191.33
409.49	1139.84
409.68	1081.33
409.87	1205.38
410.07	1174.95
410.26	1142.18
410.45	1142.18
410.64	1196.01
410.83	1226.44
411.02	1231.12
411.21	1196.01
411.40	1294.32
411.59	1296.66
411.78	1301.34
411.98	1317.72
412.17	1217.08
412.36	1352.83
412.55	1397.30
412.74	1355.17
412.93	1338.79
413.12	1317.72
413.31	1406.66
413.50	1355.17
413.69	1519.01
413.88	1556.46
414.07	1509.65
414.26	1511.99
414.45	1549.43
414.64	1488.58
414.83	1533.05
415.02	1598.59
415.22	1544.75
415.41	1661.78
415.60	1565.82
415.79	1694.55
415.98	1671.14
416.17	1682.85
416.36	1762.42
416.55	1724.97
416.74	1788.17
416.93	1748.38
417.12	1760.08
417.31	1753.06
417.50	1792.85
417.69	1886.47
417.88	1769.44
418.07	1806.89
418.26	1806.89
418.45	1781.15
418.64	1820.94
418.83	1907.54
419.02	1905.20
419.21	1914.56
419.39	1963.71
419.58	1895.83
419.77	1970.73
419.96	2113.50
420.15	2019.88
420.34	2064.35
420.53	2019.88
420.72	1980.09
420.91	2052.65
421.10	2047.97
421.29	2106.48
421.48	2108.82
421.67	2045.63
421.86	2214.15
422.05	2120.53
422.24	2155.63
422.43	2181.38
422.61	2153.29
422.80	2099.46
422.99	2328.83
423.18	2085.42
423.37	2232.87
423.56	2228.19
423.75	2186.06
423.94	2157.97
424.13	2099.46
424.32	2136.91
424.50	2197.76
424.69	2143.93
424.88	2317.13
425.07	2235.21
425.26	2165.00
425.45	2190.74
425.64	2305.43
425.83	2209.47
426.01	2277.34
426.20	2165.00
426.39	2157.97
426.58	2172.02
426.77	2141.59
426.96	2413.09
427.15	2223.51
427.33	2303.09
427.52	2279.68
427.71	2312.45
427.90	2342.88
428.09	2204.78
428.28	2246.91
428.46	2277.34
428.65	2415.43
428.84	2399.05
429.03	2469.27
429.22	2373.30
429.40	2438.84
429.59	2490.33
429.78	2270.32
429.97	2373.30
430.16	2448.20
430.34	2525.44
430.53	2539.48
430.72	2459.90
430.91	2473.95
431.10	2513.74
431.28	2544.16
431.47	2572.25
431.66	2452.88
431.85	2516.08
432.03	2593.31
432.22	2740.77
432.41	2773.53
432.60	2745.45
432.79	2696.30
432.97	2729.06
433.16	2621.40
433.35	2661.19
433.54	2766.51
433.72	2815.66
433.91	2778.22
434.10	2820.35
434.28	2668.21
434.47	2696.30
434.66	2729.06
434.85	2796.94
435.03	2869.50
435.22	2960.78
435.41	3162.06
435.59	3220.58
435.78	3082.49
435.97	2988.86
436.16	3009.93
436.34	2825.03
436.53	2958.44
436.72	2923.33
436.90	2953.76
437.09	2970.14
437.28	2995.89
437.46	3033.33
437.65	2935.03
437.84	2998.23
438.02	2963.12
438.21	2925.67
438.40	2937.37
438.58	3084.83
438.77	3176.11
438.96	3077.80
439.14	3222.92
439.33	3108.23
439.52	3169.09
439.70	3215.90
439.89	3328.24
440.08	3337.60
440.26	3201.85
440.45	3358.67
440.63	3353.99
440.82	3466.33
441.01	3297.81
441.19	3524.85
441.38	3548.25
441.57	3403.14
441.75	3428.88
441.94	3468.67
442.12	3449.95
442.31	3609.11
442.50	3494.42
442.68	3695.71
442.87	3562.30
443.05	3672.30
443.24	3599.74
443.43	3534.21
443.61	3714.43
443.80	3831.46
443.98	3562.30
444.17	3489.74
444.35	3763.58
444.54	3637.19
444.73	3735.50
444.91	3798.69
445.10	3705.07
445.28	3859.54
445.47	3723.79
445.65	3805.71
445.84	3709.75
446.02	3763.58
446.21	3660.60
446.39	3822.09
446.58	3901.67
446.77	3681.66
446.95	3777.62
447.14	3756.56
447.32	3852.52
447.51	3927.42
447.69	3817.41
447.88	3777.62
448.06	3719.11
448.25	3817.41
448.43	3726.13
448.62	3772.94
448.80	3824.44
448.99	3913.38
449.17	3847.84
449.36	3843.16
449.54	4044.45
449.73	4037.42
449.91	3997.64
450.10	4081.89
450.28	4245.73
450.46	4168.49
450.65	4128.70
450.83	4170.83
451.02	4175.52
451.20	4208.28
451.39	4159.13
451.57	4140.41
451.76	4042.11
451.94	4243.39
452.13	4184.88
452.31	4304.25
452.49	4109.98
452.68	4196.58
452.86	4180.20
453.05	4311.27
453.23	4191.90
453.42	4128.70
453.60	4215.30
453.78	4297.22
453.97	4411.91
454.15	4344.03
454.34	4142.75
454.52	4369.78
454.70	4372.12
454.89	4444.68
455.07	4425.95
455.26	4414.25
455.44	4526.60
455.62	4465.74
455.81	4437.66
455.99	4372.12
456.17	4547.66
456.36	4599.15
456.54	4655.33
456.73	4657.67
456.91	4655.33
457.09	4643.62
457.28	4931.51
457.46	4683.41
457.64	4706.82
457.83	4685.75
458.01	4706.82
458.19	4692.77
458.38	4760.65
458.56	4840.23
458.74	4858.95
458.93	4713.84
459.11	4774.69
459.29	4732.56
459.48	4837.89
459.66	4926.83
459.84	4882.36
460.03	5032.15
460.21	4957.25
460.39	4912.78
460.57	4905.76
460.76	4933.85
460.94	4940.87
461.12	5027.47
461.31	5102.37
461.49	5004.07
461.67	4997.04
461.85	5219.39
462.04	5081.30
462.22	5596.22
462.40	5081.30
462.59	5224.08
462.77	5130.45
462.95	5146.84
463.13	5167.90
463.32	5259.18
463.50	5291.95
463.68	5294.29
463.86	5158.54
464.05	5179.61
464.23	5210.03
464.41	5186.63
464.59	5207.69
464.78	5565.79
464.96	5476.85
465.14	5284.93
465.32	5334.08
465.50	5502.60
465.69	5533.03
465.87	5327.06
466.05	5284.93
466.23	5467.49
466.41	5451.11
466.60	5834.96
466.78	5430.04
466.96	5488.56
467.14	5502.60
467.32	5589.20
467.51	5607.92
467.69	5418.34
467.87	5650.05
468.05	5706.23
468.23	5598.56
468.41	5542.39
468.60	5516.64
468.78	5724.95
468.96	5703.89
469.14	5734.31
469.32	5900.49
469.50	5664.10
469.69	5715.59
469.87	5809.21
470.05	5989.43
470.23	5879.43
470.41	5940.28
470.59	5905.17
470.77	5830.27
470.95	5832.62
471.14	6050.28
471.32	5949.64
471.50	6073.69
471.68	6010.50
471.86	6157.95
472.04	6267.95
472.22	6328.81
472.40	6064.33
472.58	6251.57
472.77	6207.10
472.95	6291.36
473.13	6399.02
473.31	6333.49
473.49	6345.19
473.67	6504.35
473.85	6569.88
474.03	6502.01
474.21	6349.87
474.39	6705.63
474.57	6595.63
474.75	6612.01
474.93	6855.43
475.12	6623.72
475.30	6743.08
475.48	6675.21
475.66	6803.94
475.84	6895.22
476.02	6885.86
476.20	6906.92
476.38	6937.35
476.56	7033.31
476.74	7042.67
476.92	6927.99
477.10	7222.89
477.28	7199.49
477.46	7316.51
477.64	7204.17
477.82	7272.04
478.00	7396.09
478.18	7501.42
478.36	7566.95
478.54	7665.25
478.72	7758.88
478.90	7705.04
479.08	7702.70
479.26	7899.31
479.44	7728.45
479.62	8018.68
479.80	8042.08
479.98	8173.15
480.16	8297.20
480.34	8060.80
480.52	8397.84
480.70	8325.29
480.88	8198.90
481.06	8325.29
481.24	8332.31
481.41	8573.38
481.59	8624.87
481.77	8688.07
481.95	8690.41
482.13	8671.68
482.31	8884.67
482.49	8938.51
482.67	8973.61
482.85	9046.17
483.03	9263.84
483.21	9252.14
483.39	9371.50
483.57	9261.50
483.74	9413.63
483.92	9490.87
484.10	9467.47
484.28	9687.48
484.46	9713.22
484.64	10038.56
484.82	9942.60
485.00	9928.55
485.18	9966.00
485.35	10078.35
485.53	10040.90
485.71	10272.61
485.89	10457.51
486.07	10223.46
486.25	10497.30
486.43	10373.25
486.61	10478.58
486.78	10693.91
486.96	10747.74
487.14	10822.64
487.32	10986.47
487.50	10902.22
487.68	11199.46
487.85	11084.78
488.03	11311.81
488.21	11510.75
488.39	11585.65
488.57	11716.72
488.75	11524.80
488.92	11815.02
489.10	11922.69
489.28	11936.73
489.46	12093.55
489.64	12112.27
489.81	12175.47
489.99	12189.51
490.17	12407.18
490.35	12587.40
490.53	12475.06
490.70	12636.55
490.88	12601.44
491.06	12807.41
491.24	12622.51
491.41	13067.21
491.59	12758.26
491.77	12929.12
491.95	13240.41
492.13	13247.43
492.30	13296.58
492.48	13172.54
492.66	13331.69
492.84	13352.76
493.01	13689.79
493.19	13481.49
493.37	13968.32
493.54	13902.78
493.72	14068.96
493.90	14064.28
494.08	14122.79
494.25	14211.73
494.43	14408.34
494.61	14319.40
494.79	14370.89
494.96	14326.42
495.14	14560.47
495.32	14827.29
495.49	14710.27
495.67	14993.47
495.85	15033.26
496.02	14963.04
496.20	14850.70
496.38	14998.15
496.55	15147.95
496.73	15421.79
496.91	15220.50
497.09	15559.88
497.26	15597.33
497.44	15639.46
497.62	15578.61
497.79	15716.70
497.97	15676.91
498.14	16009.26
498.32	16042.03
498.50	16095.86
498.67	16365.03
498.85	16290.13
499.03	16049.05
499.20	16346.30
499.38	16208.21
499.56	16404.81
499.73	16596.74
499.91	16692.70
500.08	16491.41
500.26	16592.06
500.44	16964.20
500.61	16606.10
500.79	16650.57
500.97	16945.48
501.14	17280.18
501.32	16999.31
501.49	16889.31
501.67	17411.25
501.84	17252.09
502.02	17336.35
502.20	17479.12
502.37	17752.96
502.55	17422.95
502.72	17687.43
502.90	17537.63
503.07	17600.83
503.25	17432.31
503.43	17888.71
503.60	17877.01
503.78	17951.91
503.95	17972.97
504.13	18073.62
504.30	17980.00
504.48	17919.14
504.65	18082.98
504.83	18197.67
505.01	18813.23
505.18	18370.86
505.36	18614.28
505.53	18354.48
505.71	18375.55
505.88	18698.54
506.06	18764.07
506.23	18654.07
506.41	18759.39
506.58	19019.19
506.76	18883.44
506.93	18757.05
507.11	19056.64
507.28	18754.71
507.46	18967.70
507.63	19192.39
507.81	19300.06
507.98	19119.84
508.16	19447.51
508.33	19014.51
508.50	19353.89
508.68	19632.41
508.85	19672.20
509.03	19969.45
509.20	19548.15
509.38	19648.80
509.55	19803.27
509.73	19683.91
509.90	20067.75
510.08	19967.11
510.25	19889.87
510.42	20329.89
510.60	20210.53
510.77	20669.27
510.95	20524.16
511.12	20046.69
511.30	20577.99
511.47	20917.37
511.64	20634.16
511.82	20828.43
511.99	20554.58
512.17	21036.74
512.34	20755.87
512.51	20996.95
512.69	20561.61
512.86	21090.57
513.04	21069.50
513.21	21184.19
513.38	21521.23
513.56	21249.72
513.73	21296.53
513.90	21282.49
514.08	21116.31
514.25	21420.58
514.43	21516.54
514.60	21465.05
514.77	21518.89
514.95	21673.36
515.12	21687.40
515.29	21696.77
515.47	21937.84
515.64	21771.66
515.81	22087.64
515.99	21834.86
516.16	22136.79
516.33	22108.70
516.51	22335.73
516.68	22204.66
516.85	22113.38
517.03	22298.28
517.20	22391.91
517.37	22466.80
517.54	22462.12
517.72	22286.58
517.89	22698.52
518.06	22352.12
518.24	22333.39
518.41	22820.22
518.58	22731.28
518.75	22808.52
518.93	22941.93
519.10	22750.01
519.27	23129.17
519.45	22991.08
519.62	23056.62
519.79	23157.26
519.96	23131.51
520.14	23180.67
520.31	23328.12
520.48	23344.50
520.65	23164.28
520.83	23215.77
521.00	23653.45
521.17	23550.47
521.34	23356.21
521.52	23812.61
521.69	23644.09
521.86	23868.78
522.03	23737.71
522.20	23953.04
522.38	23927.30
522.55	23964.75
522.72	24095.82
522.89	24072.41
523.07	24547.54
523.24	24107.52
523.41	24416.47
523.58	24128.58
523.75	24135.60
523.92	24128.58
524.10	24486.68
524.27	24194.12
524.44	24498.39
524.61	24987.56
524.78	24458.60
524.96	24617.75
525.13	24840.11
525.30	24809.68
525.47	24907.98
525.64	24570.94
525.81	24833.08
525.98	25298.85
526.16	25350.34
526.33	24788.61
526.50	25263.74
526.67	24947.77
526.84	25034.37
527.01	24610.73
527.18	25158.42
527.36	25221.61
527.53	25427.58
527.70	25699.08
527.87	25553.97
528.04	25528.22
528.21	25422.90
528.38	25329.28
528.55	25626.53
528.72	25551.63
528.89	25694.40
529.07	25558.65
529.24	25858.24
529.41	25891.01
529.58	25706.10
529.75	25493.12
529.92	25785.68
530.09	25951.86
530.26	26356.77
530.43	26103.99
530.60	25839.51
530.77	26031.44
530.94	26192.94
531.11	25954.20
531.28	26235.06
531.46	26192.94
531.63	26403.58
531.80	26361.45
531.97	26338.05
532.14	26284.22
532.31	26024.42
532.48	26333.37
532.65	26572.10
532.82	26508.91
532.99	26799.13
533.16	26625.93
533.33	26965.31
533.50	26979.36
533.67	26742.96
533.84	26586.15
534.01	26876.37
534.18	26195.28
534.35	27040.21
534.52	27105.74
534.69	27115.11
534.86	27342.14
535.03	26981.70
535.20	26979.36
535.37	27367.88
535.54	27049.57
535.71	27026.17
535.88	26881.05
536.05	27402.99
536.22	27681.52
536.38	27353.84
536.55	27424.06
536.72	27302.35
536.89	27445.12
537.06	27393.63
537.23	27601.94
537.40	27262.56
537.57	27835.99
537.74	27938.97
537.91	27936.63
538.08	27854.72
538.25	27903.87
538.42	27871.10
538.59	27695.56
538.75	27604.28
538.92	27814.93
539.09	28123.88
539.26	28285.37
539.43	28299.42
539.60	28079.41
539.77	28039.62
539.94	28402.40
540.11	28589.64
540.28	28507.72
540.44	28659.86
540.61	28400.06
540.78	28217.50
540.95	28669.22
541.12	28409.42
541.29	28533.47
541.46	28858.81
541.62	28980.51
541.79	28730.08
541.96	28395.38
542.13	28446.87
542.30	28648.16
542.47	28868.17
542.63	28926.68
542.80	29085.84
542.97	28903.28
543.14	29406.49
543.31	29233.29
543.48	28996.90
543.64	29633.52
543.81	29401.81
543.98	29575.01
544.15	29500.11
544.32	29483.73
544.48	29633.52
544.65	29504.79
544.82	29291.80
544.99	29450.96
545.16	29177.12
545.32	29329.25
545.49	30548.67
545.66	30242.06
545.83	30632.93
546.00	30595.48
546.16	30567.40
546.33	29818.42
546.50	29453.30
546.67	29769.27
546.83	29472.03
547.00	29294.14
547.17	29509.47
547.34	29762.25
547.50	29895.66
547.67	30192.91
547.84	29818.42
548.00	30204.61
548.17	30068.86
548.34	30057.16
548.51	30436.33
548.67	30206.95
548.84	30237.38
549.01	29855.87
549.18	30141.42
549.34	30382.49
549.51	30050.14
549.68	29996.31
549.84	29788.00
550.01	30024.39
550.18	30279.51
550.34	30604.84
550.51	30525.27
550.68	30749.96
550.84	30054.82
551.01	30157.80
551.18	30553.35
551.34	29965.88
551.51	30462.07
551.68	30349.73
551.84	30665.70
552.01	30066.52
552.18	30541.65
552.34	30321.64
552.51	30286.53
552.68	30712.51
552.84	30099.29
553.01	31033.16
553.18	30518.25
553.34	30387.18
553.51	30976.99
553.67	30909.11
553.84	31367.86
554.01	31084.65
554.17	31012.10
554.34	30462.07
554.51	30785.07
554.67	31131.47
554.84	30876.35
555.00	31002.74
555.17	30768.68
555.33	30960.61
555.50	30965.29
555.67	30735.92
555.83	30976.99
556.00	31372.54
556.16	31512.97
556.33	30480.80
556.50	31136.15
556.66	31101.04
556.83	31021.46
556.99	31372.54
557.16	31197.00
557.32	31278.92
557.49	31204.02
557.65	30773.36
557.82	31199.34
557.98	31126.78
558.15	31157.21
558.32	31234.45
558.48	31040.18
558.65	31442.76
558.81	31718.94
558.98	31552.76
559.14	31391.26
559.31	31426.37
559.47	31332.75
559.64	31353.82
559.80	31655.75
559.97	31388.92
560.13	31728.30
560.30	31227.43
560.46	31660.43
560.63	31569.15
560.79	31580.85
560.96	31630.00
561.12	31630.00
561.29	31211.04
561.45	31393.61
561.61	31510.63
561.78	31498.93
561.94	31740.00
562.11	31831.29
562.27	31599.57
562.44	31527.02
562.60	31693.19
562.77	31735.32
562.93	31842.99
563.10	31658.09
563.26	32098.11
563.42	31964.70
563.59	31782.13
563.75	31627.66
563.92	32095.77
564.08	31782.13
564.24	31952.99
564.41	31412.33
564.57	31510.63
564.74	31431.05
564.90	31992.78
565.07	31793.84
565.23	32109.81
565.39	31978.74
565.56	31850.01
565.72	31990.44
565.88	31512.97
566.05	31842.99
566.21	31585.53
566.38	32135.56
566.54	32039.59
566.70	32175.34
566.87	31948.31
567.03	31707.24
567.19	32701.96
567.36	32156.62
567.52	32070.02
567.68	31967.04
567.85	31700.22
568.01	31681.49
568.17	31501.27
568.34	32135.56
568.50	32079.38
568.66	32229.18
568.83	32212.79
568.99	32350.88
569.15	31632.34
569.32	32203.43
569.48	31971.72
569.64	32084.06
569.81	32208.11
569.97	32407.06
570.13	32212.79
570.30	32105.13
570.46	32222.16
570.62	32224.50
570.78	31957.67
570.95	32247.90
571.11	32371.95
571.27	32404.72
571.43	31571.49
571.60	32521.74
571.76	32016.19
571.92	32587.28
572.09	32275.99
572.25	32233.86
572.41	32013.85
572.57	32311.10
572.74	31978.74
572.90	32175.34
573.06	31974.06
573.22	32339.18
573.38	32198.75
573.55	32610.68
573.71	32526.42
573.87	32868.14
574.03	31873.42
574.20	32308.76
574.36	32102.79
574.52	32521.74
574.68	32168.32
574.84	32556.85
575.01	32252.58
575.17	32882.19
575.33	32500.68
575.49	32416.42
575.65	32959.42
575.82	32596.64
575.98	32568.55
576.14	32472.59
576.30	32477.27
576.46	32779.20
576.62	32577.92
576.79	32421.10
576.95	32723.03
577.11	32535.79
577.27	32720.69
577.43	32306.41
577.59	32636.43
577.75	32650.47
577.92	32479.61
578.08	32437.48
578.24	32294.71
578.40	32528.77
578.56	32570.90
578.72	32505.36
578.88	32723.03
579.04	32985.17
579.21	32751.12
579.37	32613.02
579.53	32393.01
579.69	32641.11
579.85	32472.59
580.01	32360.25
580.17	32659.84
580.33	32414.08
580.49	32723.03
580.65	32987.51
580.82	33024.96
580.98	32926.66
581.14	32320.46
581.30	33132.62
581.46	32512.38
581.62	32603.66
581.78	32627.07
581.94	32512.38
582.10	32400.04
582.26	32940.70
582.42	32704.31
582.58	32680.90
582.74	33256.67
582.90	33067.09
583.06	32458.55
583.22	33050.70
583.38	32634.09
583.54	32769.84
583.70	32278.33
583.86	32718.35
584.02	32692.60
584.18	32898.57
584.34	33202.84
584.50	33048.36
584.66	32910.27
584.82	32861.12
584.98	32498.34
585.14	32872.82
585.30	32657.49
585.46	32755.80
585.62	32751.12
585.78	32713.67
585.94	32762.82
586.10	33053.05
586.26	32769.84
586.42	32978.15
586.58	33071.77
586.74	33081.13
586.90	32760.48
587.06	32697.28
587.22	33039.00
587.38	33060.07
587.54	33184.12
587.70	33226.24
587.86	32996.87
588.02	33251.99
588.18	32573.24
588.34	32975.81
588.49	32634.09
588.65	32959.42
588.81	32985.17
588.97	32959.42
589.13	33043.68
589.29	33174.75
589.45	32978.15
589.61	33050.70
589.77	33163.05
589.93	33266.03
590.08	33528.17
590.24	33111.56
590.40	33418.17
590.56	33310.50
590.72	33172.41
590.88	32708.99
591.04	33296.46
591.20	32950.06
591.35	33666.27
591.51	33441.57
591.67	33514.13
