SpectraSuite Data File
++++++++++++++++++++++++++++++++++++
Date: Fri Oct 04 11:39:22 GMT-05:00 2013
User: price-jones
Dark Spectrum Present: No
Reference Spectrum Present: No
Number of Sampled Component Spectra: 1
Spectrometers: USB2+H05261
Integration Time (usec): 100000 (USB2+H05261)
Spectra Averaged: 1 (USB2+H05261)
Boxcar Smoothing: 0 (USB2+H05261)
Correct for Electrical Dark: No (USB2+H05261)
Strobe/Lamp Enabled: No (USB2+H05261)
Correct for Detector Non-linearity: No (USB2+H05261)
Correct for Stray Light: No (USB2+H05261)
Number of Pixels in Processed Spectrum: 2048
>>>>>Begin Processed Spectral Data<<<<<
365.73	32.77
365.92	32.77
366.12	32.77
366.32	0.00
366.52	0.00
366.72	0.00
366.91	0.00
367.11	0.00
367.31	0.00
367.51	0.00
367.70	0.00
367.90	0.00
368.10	0.00
368.30	0.00
368.49	0.00
368.69	0.00
368.89	0.00
369.09	0.00
369.28	0.00
369.48	0.00
369.68	0.00
369.87	0.00
370.07	0.00
370.27	49.15
370.47	79.58
370.66	229.37
370.86	182.56
371.06	306.61
371.25	287.89
371.45	224.69
371.65	348.74
371.84	297.25
372.04	201.29
372.24	255.12
372.44	231.71
372.63	276.18
372.83	341.72
373.03	404.91
373.22	308.95
373.42	330.02
373.62	241.08
373.81	407.25
374.01	404.91
374.21	409.59
374.40	346.40
374.60	337.04
374.79	351.08
374.99	425.98
375.19	360.44
375.38	381.51
375.58	358.10
375.78	470.45
375.97	311.29
376.17	433.00
376.37	393.21
376.56	414.27
376.76	379.17
376.95	388.53
377.15	379.17
377.35	430.66
377.54	411.93
377.74	372.15
377.93	341.72
378.13	461.09
378.33	477.47
378.52	444.70
378.72	383.85
378.91	409.59
379.11	344.06
379.31	388.53
379.50	355.76
379.70	409.59
379.89	416.62
380.09	461.09
380.28	393.21
380.48	418.96
380.68	442.36
380.87	407.25
381.07	533.64
381.26	479.81
381.46	468.11
381.65	425.98
381.85	507.90
382.04	447.04
382.24	416.62
382.43	440.02
382.63	491.51
382.83	519.60
383.02	451.72
383.22	566.41
383.41	468.11
383.61	535.98
383.80	491.51
384.00	503.22
384.19	454.06
384.39	568.75
384.58	531.30
384.78	514.92
384.97	479.81
385.17	440.02
385.36	514.92
385.56	634.29
385.75	594.50
385.95	547.69
386.14	521.94
386.34	489.17
386.53	540.66
386.72	526.62
386.92	606.20
387.11	596.84
387.31	554.71
387.50	510.24
387.70	531.30
387.89	603.86
388.09	510.24
388.28	629.60
388.48	608.54
388.67	582.79
388.86	601.52
389.06	608.54
389.25	678.76
389.45	629.60
389.64	540.66
389.84	676.41
390.03	669.39
390.22	692.80
390.42	688.12
390.61	662.37
390.81	594.50
391.00	697.48
391.19	676.41
391.39	781.74
391.58	648.33
391.78	741.95
391.97	737.27
392.16	779.40
392.36	751.31
392.55	678.76
392.75	734.93
392.94	725.57
393.13	772.38
393.33	713.86
393.52	704.50
393.71	739.61
393.91	784.08
394.10	748.97
394.29	730.25
394.49	704.50
394.68	732.59
394.88	770.04
395.07	847.27
395.26	774.72
395.46	788.76
395.65	861.32
395.84	828.55
396.04	880.04
396.23	835.57
396.42	763.01
396.62	826.21
396.81	851.96
397.00	844.93
397.19	936.21
397.39	807.48
397.58	828.55
397.77	898.77
397.97	973.66
398.16	896.43
398.35	873.02
398.55	896.43
398.74	922.17
398.93	943.24
399.12	924.51
399.32	938.55
399.51	901.11
399.70	912.81
399.90	1034.52
400.09	1020.47
400.28	1013.45
400.47	1020.47
400.67	1011.11
400.86	1097.71
401.05	1083.67
401.24	1086.01
401.44	1149.20
401.63	1107.07
401.82	1130.48
402.01	1048.56
402.21	1181.97
402.40	1135.16
402.59	1200.69
402.78	1109.41
402.97	1174.95
403.17	1224.10
403.36	1263.89
403.55	1217.08
403.74	1282.61
403.93	1310.70
404.13	1306.02
404.32	1266.23
404.51	1308.36
404.70	1334.11
404.89	1259.21
405.09	1413.68
405.28	1210.06
405.47	1355.17
405.66	1399.64
405.85	1387.94
406.05	1366.87
406.24	1387.94
406.43	1430.07
406.62	1474.54
406.81	1500.28
407.00	1411.34
407.20	1526.03
407.39	1404.32
407.58	1519.01
407.77	1579.86
407.96	1490.92
408.15	1528.37
408.34	1563.48
408.54	1600.93
408.73	1624.33
408.92	1713.27
409.11	1673.48
409.30	1605.61
409.49	1654.76
409.68	1654.76
409.87	1661.78
410.07	1694.55
410.26	1696.89
410.45	1813.92
410.64	1732.00
410.83	1884.13
411.02	1732.00
411.21	1846.68
411.40	1849.02
411.59	1879.45
411.78	1863.07
411.98	1860.73
412.17	1909.88
412.36	1893.49
412.55	1865.41
412.74	1888.81
412.93	2017.54
413.12	1989.46
413.31	2104.14
413.50	2099.46
413.69	2111.16
413.88	2160.31
414.07	2221.17
414.26	2094.78
414.45	2202.44
414.64	2183.72
414.83	2319.47
415.02	2225.85
415.22	2380.32
415.41	2373.30
415.60	2328.83
415.79	2389.69
415.98	2403.73
416.17	2459.90
416.36	2448.20
416.55	2354.58
416.74	2523.10
416.93	2583.95
417.12	2534.80
417.31	2504.37
417.50	2495.01
417.69	2719.70
417.88	2633.10
418.07	2614.38
418.26	2677.57
418.45	2818.00
418.64	2726.72
418.83	2874.18
419.02	2682.25
419.21	2754.81
419.39	2885.88
419.58	2799.28
419.77	2843.75
419.96	2850.77
420.15	3007.59
420.34	2930.35
420.53	3005.25
420.72	2960.78
420.91	3098.87
421.10	2988.86
421.29	3045.04
421.48	2902.26
421.67	3089.51
421.86	3021.63
422.05	3030.99
422.24	3033.33
422.43	3110.57
422.61	3042.70
422.80	3056.74
422.99	3126.96
423.18	3126.96
423.37	3103.55
423.56	3206.53
423.75	3150.36
423.94	3052.06
424.13	2937.37
424.32	3070.78
424.50	3276.75
424.69	3229.94
424.88	3157.38
425.07	3236.96
425.26	3096.53
425.45	3054.40
425.64	3185.47
425.83	3136.32
426.01	3262.71
426.20	3225.26
426.39	3274.41
426.58	3260.37
426.77	3229.94
426.96	3138.66
427.15	3239.30
427.33	3255.69
427.52	3272.07
427.71	3421.86
427.90	3335.26
428.09	3400.80
428.28	3473.36
428.46	3562.30
428.65	3503.78
428.84	3599.74
429.03	3543.57
429.22	3468.67
429.40	3571.66
429.59	3552.93
429.78	3466.33
429.97	3351.65
430.16	3384.41
430.34	3637.19
430.53	3744.86
430.72	3543.57
430.91	3581.02
431.10	3492.08
431.28	3775.28
431.47	3676.98
431.66	3740.18
431.85	3691.02
432.03	3829.12
432.22	3840.82
432.41	3847.84
432.60	3833.80
432.79	3740.18
432.97	3925.08
433.16	3901.67
433.35	3908.69
433.54	3906.35
433.72	3955.51
433.91	3946.14
434.10	3983.59
434.28	4037.42
434.47	4128.70
434.66	4070.19
434.85	3943.80
435.03	4107.64
435.22	4308.93
435.41	4685.75
435.59	4629.58
435.78	4346.37
435.97	4238.71
436.16	4322.97
436.34	4124.02
436.53	4322.97
436.72	4311.27
436.90	4154.45
437.09	4283.18
437.28	4175.52
437.46	4124.02
437.65	4372.12
437.84	4365.10
438.02	4287.86
438.21	4222.33
438.40	4271.48
438.58	4463.40
438.77	4571.07
438.96	4517.23
439.14	4667.03
439.33	4482.13
439.52	4688.09
439.70	4622.56
439.89	4683.41
440.08	4779.37
440.26	4912.78
440.45	4903.42
440.63	4814.48
440.82	4788.74
441.01	4901.08
441.19	4931.51
441.38	5018.11
441.57	5172.58
441.75	4950.23
441.94	5078.96
442.12	5057.90
442.31	5233.44
442.50	5057.90
442.68	5095.35
442.87	5355.15
443.05	5254.50
443.24	5350.46
443.43	5411.32
443.61	5296.63
443.80	5383.23
443.98	5313.02
444.17	5083.64
444.35	5460.47
444.54	5589.20
444.73	5303.65
444.91	5490.90
445.10	5343.44
445.28	5397.28
445.47	5249.82
445.65	5586.86
445.84	5418.34
446.02	5458.13
446.21	5329.40
446.39	5455.79
446.58	5643.03
446.77	5476.85
446.95	5490.90
447.14	5399.62
447.32	5575.16
447.51	5458.13
447.69	5469.83
447.88	5530.69
448.06	5533.03
448.25	5439.40
448.43	5673.46
448.62	5437.06
448.80	5416.00
448.99	5631.33
449.17	5734.31
449.36	5638.35
449.54	5764.74
449.73	5865.38
449.91	5853.68
450.10	5977.73
450.28	5834.96
450.46	5806.87
450.65	5944.96
450.83	5937.94
451.02	5954.32
451.20	5849.00
451.39	6024.54
451.57	5837.30
451.76	5771.76
451.94	5860.70
452.13	6017.52
452.31	6136.88
452.49	5839.64
452.68	6029.22
452.86	5914.53
453.05	6200.08
453.23	6193.06
453.42	6129.86
453.60	5879.43
453.78	6169.65
453.97	6045.60
454.15	6054.97
454.34	6094.76
454.52	6164.97
454.70	6230.51
454.89	6289.02
455.07	6324.13
455.26	6441.15
455.44	6476.26
455.62	6338.17
455.81	6237.53
455.99	6588.61
456.17	6406.05
456.36	6469.24
456.54	6539.46
456.73	6471.58
456.91	6600.31
457.09	6684.57
457.28	6958.41
457.46	6640.10
457.64	6726.70
457.83	6717.34
458.01	6562.86
458.19	6857.77
458.38	6775.85
458.56	6937.35
458.74	6834.36
458.93	6916.28
459.11	6981.82
459.29	7075.44
459.48	7045.01
459.66	6857.77
459.84	6874.15
460.03	7096.50
460.21	6935.01
460.39	7108.21
460.57	7208.85
460.76	7023.95
460.94	7222.89
461.12	7265.02
461.31	7241.62
461.49	7258.00
461.67	7239.28
461.85	7300.13
462.04	7382.05
462.22	7288.43
462.40	7489.71
462.59	7536.52
462.77	7424.18
462.95	7288.43
463.13	7363.33
463.32	7494.40
463.50	7391.41
463.68	7449.93
463.86	7398.43
464.05	7566.95
464.23	7482.69
464.41	7428.86
464.59	7368.01
464.78	7786.96
464.96	7595.04
465.14	7662.91
465.32	7728.45
465.50	7658.23
465.69	7705.04
465.87	7737.81
466.05	7730.79
466.23	7768.24
466.41	7775.26
466.60	8067.83
466.78	7810.37
466.96	7686.32
467.14	7873.56
467.32	7922.71
467.51	8023.36
467.69	7737.81
467.87	7960.16
468.05	7918.03
468.23	8119.32
468.41	8030.38
468.60	8084.21
468.78	8119.32
468.96	7969.52
469.14	8369.76
469.32	8262.09
469.50	8119.32
469.69	8425.93
469.87	8435.29
470.05	8285.50
470.23	8329.97
470.41	8510.19
470.59	8376.78
470.77	8524.23
470.95	8528.91
471.14	8489.12
471.32	8425.93
471.50	8734.88
471.68	8594.45
471.86	8564.02
472.04	8800.41
472.22	8865.95
472.40	8891.70
472.58	9076.60
472.77	8905.74
472.95	8896.38
473.13	9240.44
473.31	8912.76
473.49	9104.68
473.67	9146.81
473.85	9263.84
474.03	9132.77
474.21	9102.34
474.39	9437.04
474.57	9415.98
474.75	9380.87
474.93	9645.35
475.12	9568.11
475.30	9645.35
475.48	9607.90
475.66	9689.82
475.84	9621.94
476.02	9596.20
476.20	9851.31
476.38	10122.82
476.56	10214.10
476.74	10008.13
476.92	10115.80
477.10	9914.51
477.28	10153.24
477.46	10258.57
477.64	10260.91
477.82	10387.30
478.00	10817.96
478.18	10796.89
478.36	10885.83
478.54	10679.86
478.72	11028.60
478.90	11110.52
479.08	11176.06
479.26	11227.55
479.44	11131.59
479.62	11314.15
479.80	11508.41
479.98	11751.83
480.16	11456.92
480.34	11744.81
480.52	11646.51
480.70	11831.41
480.88	11810.34
481.06	11915.67
481.24	12023.33
481.41	11784.60
481.59	12205.89
481.77	12161.42
481.95	12336.96
482.13	12599.10
482.31	12400.16
482.49	12805.07
482.67	12840.18
482.85	13109.34
483.03	13174.88
483.21	13062.53
483.39	13383.18
483.57	13331.69
483.74	13231.05
483.92	13612.56
484.10	13525.96
484.28	13947.25
484.46	13914.48
484.64	14190.67
484.82	14148.54
485.00	14270.25
485.18	14633.03
485.35	14611.96
485.53	14469.19
485.71	14616.65
485.89	15000.49
486.07	14991.13
486.25	14841.34
486.43	14916.23
486.61	15304.76
486.78	15482.64
486.96	15506.05
487.14	15765.85
487.32	15583.29
487.50	15445.20
487.68	15833.72
487.85	15943.73
488.03	16180.12
488.21	16269.06
488.39	16510.14
488.57	16365.03
488.75	16655.25
488.92	17146.76
489.10	16695.04
489.28	17060.16
489.46	17338.69
489.64	17071.87
489.81	17317.62
489.99	17493.16
490.17	17326.99
490.35	17694.45
490.53	17968.29
490.70	18148.51
490.88	18104.04
491.06	18244.48
491.24	17914.46
491.41	18104.04
491.59	18417.68
491.77	18675.13
491.95	18965.36
492.13	18850.67
492.30	18747.69
492.48	19077.71
492.66	18881.10
492.84	19220.48
493.01	19562.20
493.19	19325.80
493.37	19733.06
493.54	19611.35
493.72	19651.14
493.90	20222.23
494.08	19887.53
494.25	20156.69
494.43	20217.55
494.61	20290.10
494.79	20779.28
494.96	20531.18
495.14	20617.78
495.32	21097.59
495.49	21184.19
495.67	21125.68
495.85	21277.81
496.02	21610.17
496.20	21530.59
496.38	21743.58
496.55	21507.18
496.73	21986.99
496.91	21603.14
497.09	22106.36
497.26	22293.60
497.44	22094.66
497.62	22333.39
497.79	22684.47
497.97	22520.63
498.14	22892.78
498.32	22867.03
498.50	23236.84
498.67	23012.15
498.85	23152.58
499.03	23248.54
499.20	23386.63
499.38	23316.42
499.56	23676.86
499.73	23695.58
499.91	23400.68
500.08	23901.55
500.26	23924.96
500.44	23981.13
500.61	23852.40
500.79	23735.37
500.97	24264.33
501.14	24627.12
501.32	24367.32
501.49	24453.92
501.67	24484.34
501.84	24776.91
502.02	24734.78
502.20	24697.33
502.37	24959.47
502.55	24959.47
502.72	24917.34
502.90	24931.39
503.07	25010.96
503.25	25092.88
503.43	25027.35
503.60	25221.61
503.78	25467.37
503.95	25188.85
504.13	25455.67
504.30	25593.76
504.48	25846.54
504.65	26031.44
504.83	25923.77
505.01	26302.94
505.18	25951.86
505.36	26548.70
505.53	25982.29
505.71	26459.76
505.88	26628.27
506.06	26263.15
506.23	27016.80
506.41	26558.06
506.58	26998.08
506.76	26794.45
506.93	27225.11
507.11	26389.54
507.28	27147.87
507.46	27449.80
507.63	27676.83
507.81	27262.56
507.98	27555.13
508.16	27393.63
508.33	27309.37
508.50	27414.69
508.68	27704.92
508.85	27772.80
509.03	27861.74
509.20	28137.92
509.38	28374.31
509.55	28287.71
509.73	28662.20
509.90	28362.61
510.08	28524.11
510.25	28547.51
510.42	28559.22
510.60	28982.85
510.77	28704.33
510.95	29013.28
511.12	28624.75
511.30	29024.98
511.47	29174.78
511.64	28898.59
511.82	29486.07
511.99	29462.66
512.17	29535.22
512.34	29401.81
512.51	29610.12
512.69	29392.45
512.86	30174.19
513.04	30043.12
513.21	30113.33
513.38	30211.64
513.56	30216.32
513.73	29743.53
513.90	29909.71
514.08	30106.31
514.25	30525.27
514.43	30366.11
514.60	30906.77
514.77	30696.13
514.95	30965.29
515.12	30551.01
515.29	30621.23
515.47	30756.98
515.64	30927.84
515.81	30995.71
515.99	31615.96
516.16	31740.00
516.33	31218.07
516.51	31449.78
516.68	31091.68
516.85	31452.12
517.03	31578.51
517.20	31894.48
517.37	31608.93
517.54	31613.62
517.72	31519.99
517.89	31512.97
518.06	31695.53
518.24	31590.21
518.41	31817.24
518.58	31793.84
518.75	32189.39
518.93	32367.27
519.10	32488.98
519.27	32676.22
519.45	32601.32
519.62	32325.14
519.79	32547.49
519.96	32488.98
520.14	32737.07
520.31	32875.16
520.48	33010.92
520.65	32641.11
520.83	32886.87
521.00	33219.22
521.17	32725.37
521.34	33060.07
521.52	33303.48
521.69	33425.19
521.86	33888.62
522.03	34040.75
522.20	33469.66
522.38	33624.14
522.55	33951.81
522.72	33944.79
522.89	33977.56
523.07	34239.70
523.24	33790.31
523.41	34480.77
523.58	34108.63
523.75	34202.25
523.92	33876.91
524.10	34024.37
524.27	34600.14
524.44	34499.50
524.61	34763.98
524.78	34885.68
524.96	34913.77
525.13	34876.32
525.30	34794.40
525.47	34817.81
525.64	34782.70
525.81	35016.75
525.98	34972.28
526.16	35026.12
526.33	35208.68
526.50	35262.51
526.67	35232.08
526.84	35014.41
527.01	35386.56
527.18	35576.14
527.36	36020.84
527.53	35702.53
527.70	35805.52
527.87	35908.50
528.04	35388.90
528.21	35875.73
528.38	35800.83
528.55	35768.07
528.72	35847.64
528.89	35754.02
529.07	35901.48
529.24	35990.42
529.41	36325.11
529.58	36222.13
529.75	35803.17
529.92	36229.15
530.09	36437.46
530.26	36821.31
530.43	36594.28
530.60	36388.31
530.77	36779.18
530.94	36481.93
531.11	36634.06
531.28	36533.42
531.46	37017.91
531.63	36594.28
531.80	36833.01
531.97	37406.44
532.14	37046.00
532.31	37055.36
532.48	37003.87
532.65	36933.65
532.82	36945.36
532.99	37261.33
533.16	37411.12
533.33	37617.09
533.50	37825.40
533.67	37450.91
533.84	37106.85
534.01	37504.74
534.18	37434.53
534.35	37951.79
534.52	37455.59
534.69	37982.21
534.86	37989.24
535.03	37771.57
535.20	38225.63
535.37	37811.35
535.54	37949.45
535.71	37888.59
535.88	38157.75
536.05	38148.39
536.22	38635.22
536.38	38520.54
536.55	38337.98
536.72	38630.54
536.89	38277.12
537.06	38726.50
537.23	38859.91
537.40	38466.70
537.57	38635.22
537.74	38450.32
537.91	38878.64
538.08	39152.48
538.25	38740.55
538.42	39253.12
538.59	39112.69
538.75	38799.06
538.92	39267.17
539.09	39232.06
539.26	38932.47
539.43	39325.68
539.60	39210.99
539.77	39391.22
539.94	39501.22
540.11	39526.97
540.28	39508.24
540.44	39704.85
540.61	39601.86
540.78	39332.70
540.95	40088.70
541.12	39871.03
541.29	40011.46
541.46	40175.30
541.62	40378.92
541.79	40339.13
541.96	40081.67
542.13	40102.74
542.30	40182.32
542.47	40254.87
542.63	40414.03
542.80	40650.42
542.97	40781.49
543.14	40872.78
543.31	40519.35
543.48	40245.51
543.64	40711.28
543.81	40856.39
543.98	41050.66
544.15	40858.73
544.32	41170.02
544.48	41544.51
544.65	41123.21
544.82	41151.30
544.99	40587.23
545.16	41420.46
545.32	41092.79
545.49	41766.86
545.66	42466.68
545.83	42286.46
546.00	42377.74
546.16	41993.89
546.33	41361.95
546.50	40659.79
546.67	41191.09
546.83	40919.59
547.00	41368.97
547.17	41163.00
547.34	41762.18
547.50	41516.42
547.67	41942.40
547.84	41787.92
548.00	42251.35
548.17	41652.17
548.34	41764.52
548.51	41647.49
548.67	41914.31
548.84	41603.02
549.01	41745.80
549.18	42131.98
549.34	41638.13
549.51	41827.71
549.68	42225.60
549.84	41963.46
550.01	42075.81
550.18	42085.17
550.34	42335.61
550.51	41970.49
550.68	42082.83
550.84	41806.65
551.01	42251.35
551.18	41944.74
551.34	41532.81
551.51	41759.84
551.68	42274.76
551.84	42490.09
552.01	42281.78
552.18	42625.84
552.34	42117.94
552.51	42176.45
552.68	42405.83
552.84	42101.56
553.01	42260.71
553.18	42197.52
553.34	42457.32
553.51	42377.74
553.67	42674.99
553.84	42574.34
554.01	42710.10
554.17	42827.12
554.34	42651.58
554.51	42712.44
554.67	43096.28
554.84	42773.29
555.00	43005.00
555.17	42754.57
555.33	42967.55
555.50	42852.87
555.67	43044.79
555.83	42724.14
556.00	43019.05
556.16	43248.42
556.33	43143.09
556.50	43250.76
556.66	43367.79
556.83	42656.26
556.99	43173.52
557.16	43253.10
557.32	43138.41
557.49	43033.09
557.65	42752.23
557.82	42801.38
557.98	42953.51
558.15	43466.09
558.32	43194.59
558.48	43681.42
558.65	43728.23
558.81	43917.81
558.98	43264.80
559.14	43276.51
559.31	43260.12
559.47	43213.31
559.64	43576.09
559.80	43283.53
559.97	43693.12
560.13	43084.58
560.30	43971.64
560.46	43807.81
560.63	43627.59
560.79	43555.03
560.96	44154.21
561.12	43367.79
561.29	43470.77
561.45	43880.36
561.61	43739.93
561.78	43344.38
561.94	43966.96
562.11	43901.43
562.27	43959.94
562.44	43292.89
562.60	43508.22
562.77	43655.67
562.93	44004.41
563.10	44154.21
563.26	43590.14
563.42	44238.47
563.59	43636.95
563.75	44381.24
563.92	44100.37
564.08	44098.03
564.24	44030.16
564.41	44009.09
564.57	43545.67
564.74	43878.02
564.90	44292.30
565.07	44561.46
565.23	43875.68
565.39	44404.64
565.56	43990.37
565.72	44203.36
565.88	43929.51
566.05	43742.27
566.21	43917.81
566.38	43978.67
566.54	43784.40
566.70	44264.21
566.87	44795.51
567.03	44470.18
567.19	44210.38
567.36	44334.43
567.52	44287.62
567.68	44568.48
567.85	44065.27
568.01	44175.27
568.17	44154.21
568.34	44470.18
568.50	44158.89
568.66	44037.18
568.83	44753.38
568.99	44727.64
569.15	44425.71
569.32	44060.58
569.48	43672.06
569.64	44339.11
569.81	44243.15
569.97	44432.73
570.13	44605.93
570.30	44385.92
570.46	44521.67
570.62	44369.54
570.78	44516.99
570.95	44184.63
571.11	44521.67
571.27	44662.10
571.43	44355.49
571.60	44313.36
571.76	44325.07
571.92	44257.19
572.09	44744.02
572.25	44774.45
572.41	44776.79
572.57	44814.24
572.74	44781.47
572.90	44608.27
573.06	44493.58
573.22	44589.55
573.38	44645.72
573.55	44832.96
573.71	44837.64
573.87	45015.52
574.03	44545.08
574.20	44711.25
574.36	44486.56
574.52	44659.76
574.68	44975.73
574.84	44575.50
575.01	44418.69
575.17	45041.27
575.33	44809.56
575.49	44507.63
575.65	44828.28
575.82	44699.55
575.98	44615.29
576.14	44779.13
576.30	44629.34
576.46	44610.61
576.62	44549.76
576.79	45207.45
576.95	44706.57
577.11	45385.33
577.27	45347.88
577.43	44823.60
577.59	44634.02
577.75	44727.64
577.92	44615.29
578.08	44559.12
578.24	44528.69
578.40	45158.30
578.56	44889.13
578.72	45371.28
578.88	45427.46
579.04	45067.02
579.21	45261.28
579.37	44893.82
579.53	44786.15
579.69	44903.18
579.85	44715.93
580.01	45024.89
580.17	44830.62
580.33	45209.79
580.49	44907.86
580.65	45106.80
580.82	44779.13
580.98	44685.51
581.14	44758.06
581.30	45010.84
581.46	44631.68
581.62	45034.25
581.78	44737.00
581.94	45139.57
582.10	44477.20
582.26	45020.20
582.42	45048.29
582.58	45294.05
582.74	44973.39
582.90	44875.09
583.06	44928.92
583.22	45109.14
583.38	44966.37
583.54	44938.29
583.70	44734.66
583.86	44900.84
584.02	44631.68
584.18	45216.81
584.34	44854.03
584.50	45359.58
584.66	45031.91
584.82	44847.00
584.98	44694.87
585.14	44865.73
585.30	44882.11
585.46	45064.67
585.62	44732.32
585.78	45249.58
585.94	44790.83
586.10	44975.73
586.26	44975.73
586.42	45460.23
586.58	45401.71
586.74	45010.84
586.90	44889.13
587.06	44964.03
587.22	45137.23
587.38	45357.24
587.54	45329.16
587.70	45034.25
587.86	45045.95
588.02	45219.15
588.18	45607.68
588.34	44917.22
588.49	45081.06
588.65	45085.74
588.81	45256.60
588.97	45076.38
589.13	45057.65
589.29	44945.31
589.45	45851.09
589.61	45544.48
589.77	45542.14
589.93	45450.86
590.08	45542.14
590.24	45600.66
590.40	44994.46
590.56	45755.13
590.72	44973.39
590.88	45015.52
