SpectraSuite Data File
++++++++++++++++++++++++++++++++++++
Date: Fri Oct 04 11:39:45 GMT-05:00 2013
User: price-jones
Dark Spectrum Present: No
Reference Spectrum Present: No
Number of Sampled Component Spectra: 1
Spectrometers: USB2+H05261
Integration Time (usec): 100000 (USB2+H05261)
Spectra Averaged: 1 (USB2+H05261)
Boxcar Smoothing: 0 (USB2+H05261)
Correct for Electrical Dark: No (USB2+H05261)
Strobe/Lamp Enabled: No (USB2+H05261)
Correct for Detector Non-linearity: No (USB2+H05261)
Correct for Stray Light: No (USB2+H05261)
Number of Pixels in Processed Spectrum: 2048
>>>>>Begin Processed Spectral Data<<<<<
365.73	95.96
365.92	95.96
366.12	95.96
366.32	0.00
366.52	0.00
366.72	0.00
366.91	0.00
367.11	0.00
367.31	0.00
367.51	0.00
367.70	0.00
367.90	0.00
368.10	21.06
368.30	0.00
368.49	7.02
368.69	0.00
368.89	0.00
369.09	0.00
369.28	4.68
369.48	0.00
369.68	0.00
369.87	16.38
370.07	0.00
370.27	2.34
370.47	79.58
370.66	470.45
370.86	510.24
371.06	482.15
371.25	512.58
371.45	582.79
371.65	547.69
371.84	526.62
372.04	468.11
372.24	589.82
372.44	517.26
372.63	526.62
372.83	683.44
373.03	610.88
373.22	629.60
373.42	582.79
373.62	615.56
373.81	636.63
374.01	643.65
374.21	688.12
374.40	723.23
374.60	648.33
374.79	638.97
374.99	681.10
375.19	777.06
375.38	793.44
375.58	737.27
375.78	891.74
375.97	812.17
376.17	786.42
376.37	791.10
376.56	835.57
376.76	681.10
376.95	784.08
377.15	786.42
377.35	821.53
377.54	734.93
377.74	903.45
377.93	791.10
378.13	781.74
378.33	833.23
378.52	788.76
378.72	819.19
378.91	830.89
379.11	873.02
379.31	887.06
379.50	880.04
379.70	828.55
379.89	868.34
380.09	896.43
380.28	905.79
380.48	887.06
380.68	964.30
380.87	828.55
381.07	903.45
381.26	964.30
381.46	964.30
381.65	959.62
381.85	938.55
382.04	1004.09
382.24	931.53
382.43	1008.77
382.63	940.90
382.83	1036.86
383.02	1128.14
383.22	1036.86
383.41	1020.47
383.61	1027.50
383.80	1090.69
384.00	1090.69
384.19	1048.56
384.39	1057.92
384.58	1053.24
384.78	1036.86
384.97	1125.80
385.17	1083.67
385.36	1062.60
385.56	1053.24
385.75	1125.80
385.95	1057.92
386.14	1132.82
386.34	1200.69
386.53	1205.38
386.72	1167.93
386.92	1174.95
387.11	1179.63
387.31	1174.95
387.50	1219.42
387.70	1132.82
387.89	1163.25
388.09	1203.04
388.28	1200.69
388.48	1242.82
388.67	1238.14
388.86	1362.19
389.06	1263.89
389.25	1371.55
389.45	1179.63
389.64	1324.74
389.84	1273.25
390.03	1334.11
390.22	1369.21
390.42	1217.08
390.61	1341.13
390.81	1437.09
391.00	1366.87
391.19	1373.89
391.39	1376.24
391.58	1359.85
391.78	1423.05
391.97	1355.17
392.16	1502.62
392.36	1504.96
392.55	1469.86
392.75	1460.49
392.94	1544.75
393.13	1460.49
393.33	1406.66
393.52	1444.11
393.71	1542.41
393.91	1619.65
394.10	1446.45
394.29	1572.84
394.49	1612.63
394.68	1626.67
394.88	1600.93
395.07	1694.55
395.26	1572.84
395.46	1631.35
395.65	1666.46
395.84	1774.13
396.04	1753.06
396.23	1764.76
396.42	1830.30
396.62	1760.08
396.81	1888.81
397.00	1832.64
397.19	1741.36
397.39	1834.98
397.58	1844.34
397.77	1966.05
397.97	1863.07
398.16	1870.09
398.35	1984.77
398.55	1919.24
398.74	1994.14
398.93	1975.41
399.12	2029.24
399.32	1909.88
399.51	1949.67
399.70	2010.52
399.90	1937.96
400.09	2069.03
400.28	2050.31
400.47	2078.40
400.67	2139.25
400.86	2120.53
401.05	2069.03
401.24	2228.19
401.44	2111.16
401.63	2258.62
401.82	2242.23
402.01	2167.34
402.21	2162.66
402.40	2293.72
402.59	2256.28
402.78	2249.25
402.97	2300.75
403.17	2420.11
403.36	2345.22
403.55	2363.94
403.74	2375.64
403.93	2457.56
404.13	2574.59
404.32	2492.67
404.51	2583.95
404.70	2520.76
404.89	2389.69
405.09	2593.31
405.28	2567.57
405.47	2546.50
405.66	2740.77
405.85	2590.97
406.05	2644.81
406.24	2719.70
406.43	2736.09
406.62	2775.88
406.81	2771.19
407.00	2696.30
407.20	2700.98
407.39	2782.90
407.58	2867.16
407.77	2775.88
407.96	2864.82
408.15	3040.36
408.34	2773.53
408.54	2897.58
408.73	2993.55
408.92	3030.99
409.11	3049.72
409.30	3066.10
409.49	3045.04
409.68	3143.34
409.87	3232.28
410.07	3187.81
410.26	3173.77
410.45	3246.32
410.64	3141.00
410.83	3389.10
411.02	3260.37
411.21	3480.38
411.40	3304.84
411.59	3304.84
411.78	3435.91
411.98	3440.59
412.17	3466.33
412.36	3492.08
412.55	3510.80
412.74	3609.11
412.93	3672.30
413.12	3609.11
413.31	3681.66
413.50	3782.31
413.69	3857.20
413.88	3829.12
414.07	3805.71
414.26	3878.27
414.45	3913.38
414.64	4117.00
414.83	4105.30
415.02	4032.74
415.22	4070.19
415.41	4189.56
415.60	4175.52
415.79	4142.75
415.98	4168.49
416.17	4294.88
416.36	4381.48
416.55	4432.97
416.74	4388.50
416.93	4383.82
417.12	4470.42
417.31	4517.23
417.50	4500.85
417.69	4662.35
417.88	4512.55
418.07	4704.48
418.26	4676.39
418.45	4610.86
418.64	4966.62
418.83	5043.85
419.02	4772.35
419.21	4884.70
419.39	5048.54
419.58	4938.53
419.77	4812.14
419.96	4805.12
420.15	4987.68
420.34	4933.85
420.53	5011.09
420.72	5240.46
420.91	5200.67
421.10	5219.39
421.29	5165.56
421.48	5179.61
421.67	5252.16
421.86	5193.65
422.05	5256.84
422.24	5369.19
422.43	5188.97
422.61	5362.17
422.80	5448.77
422.99	5371.53
423.18	5322.38
423.37	5413.66
423.56	5514.30
423.75	5376.21
423.94	5380.89
424.13	5041.51
424.32	5198.33
424.50	5507.28
424.69	5710.91
424.88	5507.28
425.07	5570.48
425.26	5348.12
425.45	5390.25
425.64	5425.36
425.83	5486.22
426.01	5652.39
426.20	5437.06
426.39	5624.31
426.58	5523.66
426.77	5619.63
426.96	5591.54
427.15	5619.63
427.33	5750.70
427.52	5746.02
427.71	5898.15
427.90	5781.12
428.09	5844.32
428.28	5914.53
428.46	5757.72
428.65	5951.98
428.84	6071.35
429.03	6129.86
429.22	5823.25
429.40	6005.81
429.59	6008.16
429.78	5764.74
429.97	5806.87
430.16	6132.20
430.34	6186.04
430.53	6298.38
430.72	6146.25
430.91	6228.17
431.10	6080.71
431.28	6401.37
431.47	6452.86
431.66	6499.67
431.85	6338.17
432.03	6597.97
432.22	6689.25
432.41	6553.50
432.60	6722.02
432.79	6452.86
432.97	6635.42
433.16	6654.14
433.35	6740.74
433.54	6745.42
433.72	6766.49
433.91	6906.92
434.10	6626.06
434.28	6864.79
434.47	6890.54
434.66	6927.99
434.85	7023.95
435.03	6979.48
435.22	7229.91
435.41	7531.84
435.59	7232.26
435.78	7473.33
435.97	7262.68
436.16	7365.67
436.34	7293.11
436.53	7358.64
436.72	7321.20
436.90	7150.34
437.09	7494.40
437.28	7454.61
437.46	7302.47
437.65	7370.35
437.84	7480.35
438.02	7578.65
438.21	7536.52
438.40	7499.08
438.58	7698.02
438.77	8067.83
438.96	7705.04
439.14	7985.91
439.33	7967.18
439.52	8081.87
439.70	8013.99
439.89	8079.53
440.08	8205.92
440.26	8224.64
440.45	8182.51
440.63	8346.35
440.82	8351.03
441.01	8456.36
441.19	8510.19
441.38	8678.71
441.57	8725.52
441.75	8753.60
441.94	8812.12
442.12	8898.72
442.31	8968.93
442.50	8882.33
442.68	8912.76
442.87	9191.28
443.05	8973.61
443.24	9238.09
443.43	9041.49
443.61	9294.27
443.80	9437.04
443.98	9062.55
444.17	9018.08
444.35	9390.23
444.54	9547.05
444.73	9376.19
444.91	9448.74
445.10	9238.09
445.28	9334.06
445.47	9369.16
445.65	9497.89
445.84	9607.90
446.02	9430.02
446.21	9371.50
446.39	9533.00
446.58	9666.41
446.77	9530.66
446.95	9177.24
447.14	9322.35
447.32	9516.62
447.51	9558.75
447.69	9502.58
447.88	9790.46
448.06	9736.63
448.25	9537.68
448.43	9661.73
448.62	9568.11
448.80	9734.29
448.99	9893.44
449.17	9825.57
449.36	9659.39
449.54	10026.86
449.73	9895.78
449.91	10019.83
450.10	10008.13
450.28	10019.83
450.46	10171.97
450.65	10019.83
450.83	10223.46
451.02	10181.33
451.20	10380.28
451.39	10394.32
451.57	10153.24
451.76	10001.11
451.94	10321.76
452.13	10649.44
452.31	10525.39
452.49	10085.37
452.68	10644.76
452.86	10494.96
453.05	10693.91
453.23	10705.61
453.42	10462.19
453.60	10626.03
453.78	10530.07
453.97	10443.47
454.15	10806.25
454.34	10747.74
454.52	10981.79
454.70	10885.83
454.89	11007.54
455.07	10939.66
455.26	11091.80
455.44	11314.15
455.62	10998.18
455.81	11199.46
455.99	11073.07
456.17	11178.40
456.36	11494.37
456.54	11735.45
456.73	11496.71
456.91	11826.73
457.09	11765.87
457.28	12044.40
457.46	11651.19
457.64	11894.60
457.83	11978.86
458.01	11770.55
458.19	12161.42
458.38	11901.62
458.56	12264.41
458.74	12105.25
458.93	11936.73
459.11	12128.66
459.29	12135.68
459.48	12154.40
459.66	11981.20
459.84	12346.33
460.03	12678.68
460.21	12271.43
460.39	12287.81
460.57	12311.22
460.76	12491.44
460.94	12695.07
461.12	12631.87
461.31	12760.60
461.49	12737.20
461.67	12704.43
461.85	12812.09
462.04	12870.61
462.22	13582.13
462.40	12905.71
462.59	12975.93
462.77	12872.95
462.95	13179.56
463.13	12961.89
463.32	13032.10
463.50	13128.06
463.68	13207.64
463.86	13212.32
464.05	13191.26
464.23	13259.13
464.41	13327.01
464.59	13121.04
464.78	13600.85
464.96	13528.30
465.14	13593.83
465.32	13825.54
465.50	13734.26
465.69	13806.82
465.87	13853.63
466.05	13970.66
466.23	13682.77
466.41	13914.48
466.60	14031.51
466.78	13888.74
466.96	13776.39
467.14	13734.26
467.32	13736.60
467.51	14143.86
467.69	13701.50
467.87	14148.54
468.05	14310.04
468.23	14136.84
468.41	14083.00
468.60	14413.02
468.78	14417.70
468.96	14312.38
469.14	14237.48
469.32	14640.05
469.50	14230.46
469.69	14843.68
469.87	14717.29
470.05	14974.75
470.23	14867.08
470.41	14960.70
470.59	14780.48
470.77	14918.57
470.95	15339.87
471.14	15288.38
471.32	15028.58
471.50	15484.98
471.68	15325.83
471.86	15688.61
472.04	15475.62
472.22	15840.75
472.40	15737.76
472.58	15826.70
472.77	15826.70
472.95	15934.37
473.13	16578.01
473.31	16093.52
473.49	15899.26
473.67	16128.63
473.85	16273.74
474.03	16407.16
474.21	16379.07
474.39	16999.31
474.57	16833.13
474.75	17041.44
474.93	17081.23
475.12	17048.46
475.30	17011.01
475.48	17390.18
475.66	17479.12
475.84	17191.23
476.02	17774.03
476.20	17476.78
476.38	17926.16
476.56	17914.46
476.74	17940.21
476.92	17874.67
477.10	18071.28
477.28	18815.57
477.46	18558.11
477.64	18274.90
477.82	18920.89
478.00	19278.99
478.18	19367.93
478.36	19131.54
478.54	19606.67
478.72	19407.72
478.90	19754.12
479.08	19704.97
479.26	20325.21
479.44	20032.65
479.62	20491.39
479.80	20531.18
479.98	20561.61
480.16	20947.79
480.34	20559.27
480.52	21219.30
480.70	21673.36
480.88	21139.72
481.06	21509.52
481.24	21343.35
481.41	21584.42
481.59	21951.88
481.77	22270.20
481.95	22508.93
482.13	22707.88
482.31	22333.39
482.49	23150.24
482.67	22611.92
482.85	23309.40
483.03	23367.91
483.21	23946.02
483.39	23840.70
483.57	24072.41
483.74	24198.80
483.92	24341.57
484.10	24470.30
484.28	24587.33
484.46	25188.85
484.64	25773.98
484.82	24905.64
485.00	25411.20
485.18	25781.00
485.35	26045.48
485.53	26382.52
485.71	26309.96
485.89	27009.78
486.07	26717.22
486.25	26878.71
486.43	27042.55
486.61	27339.80
486.78	27339.80
486.96	27676.83
487.14	28130.90
487.32	28002.17
487.50	28100.47
487.68	28872.85
487.85	29099.88
488.03	29256.70
488.21	29713.10
488.39	29663.95
488.57	29853.53
488.75	30171.85
488.92	30419.94
489.10	30408.24
489.28	30862.30
489.46	31314.03
489.64	31192.32
489.81	31510.63
489.99	31648.72
490.17	31543.40
490.35	32397.70
490.53	31962.36
490.70	32552.17
490.88	32905.59
491.06	32907.93
491.24	32940.70
491.41	33244.97
491.59	33240.29
491.77	33624.14
491.95	33886.28
492.13	33905.00
492.30	34483.11
492.48	34312.25
492.66	34424.60
492.84	34749.93
493.01	35229.74
493.19	34862.28
493.37	35388.90
493.54	35578.48
493.72	36168.30
493.90	35707.21
494.08	36081.70
494.25	36643.43
494.43	36865.78
494.61	37099.83
494.79	37429.85
494.96	37378.36
495.14	37448.57
495.32	37897.95
495.49	37748.16
495.67	37851.14
495.85	38422.23
496.02	38588.41
496.20	38632.88
496.38	38679.69
496.55	39187.59
496.73	39379.51
496.91	39026.09
497.09	39765.70
497.26	40233.81
497.44	40009.12
497.62	39887.41
497.79	40540.42
497.97	40552.12
498.14	41045.97
498.32	41436.84
498.50	41469.61
498.67	41677.92
498.85	41656.85
499.03	41844.10
499.20	41930.70
499.38	42139.00
499.56	42462.00
499.73	42499.45
499.91	43009.68
500.08	42906.70
500.26	42632.86
500.44	43026.07
500.61	42969.90
500.79	42939.47
500.97	43143.09
501.14	44285.28
501.32	43732.91
501.49	43966.96
501.67	44334.43
501.84	44231.44
502.02	43896.75
502.20	44832.96
502.37	44961.69
502.55	44783.81
502.72	44882.11
502.90	44875.09
503.07	44655.08
503.25	45216.81
503.43	44938.29
503.60	45736.41
503.78	45408.73
503.95	45221.49
504.13	45846.41
504.30	45813.65
504.48	45710.66
504.65	46164.73
504.83	46454.95
505.01	46859.87
505.18	46529.85
505.36	47222.65
505.53	46827.10
505.71	46885.61
505.88	46976.89
506.06	47119.66
506.23	47540.96
506.41	47334.99
506.58	48006.73
506.76	47721.18
506.93	47536.28
507.11	48254.82
507.28	47547.98
507.46	48098.01
507.63	48240.78
507.81	48650.38
507.98	48086.31
508.16	48657.40
508.33	48481.86
508.50	48495.90
508.68	48839.96
508.85	49401.69
509.03	49514.03
509.20	49588.93
509.38	49712.98
509.55	49813.62
509.73	49659.15
509.90	49680.21
510.08	49654.47
510.25	49757.45
510.42	50230.24
510.60	50342.58
510.77	50405.78
510.95	50777.92
511.12	50064.06
511.30	50321.52
511.47	50595.36
511.64	50693.66
511.82	51423.91
511.99	50979.21
512.17	51246.03
512.34	51213.26
512.51	51585.41
512.69	51578.39
512.86	51337.31
513.04	51562.00
513.21	52140.11
513.38	51913.08
513.56	52144.80
513.73	51964.57
513.90	52123.73
514.08	51709.46
514.25	52308.63
514.43	52519.28
514.60	52107.35
514.77	52516.94
514.95	52655.03
515.12	52140.11
515.29	52219.69
515.47	52818.87
515.64	53006.11
515.81	52952.28
515.99	53371.24
516.16	53291.66
516.33	53195.70
516.51	53296.34
516.68	53333.79
516.85	53153.57
517.03	53326.77
517.20	53490.60
517.37	53649.76
517.54	53804.24
517.72	53638.06
517.89	53776.15
518.06	53729.34
518.24	53729.34
518.41	53869.77
518.58	54169.36
518.75	53820.62
518.93	54412.77
519.10	54316.81
519.27	54461.93
519.45	54160.00
519.62	54377.67
519.79	54157.66
519.96	54635.13
520.14	54801.30
520.31	54688.96
520.48	54791.94
520.65	54511.08
520.83	54979.18
521.00	54848.11
521.17	54756.83
521.34	54850.45
521.52	55180.47
521.69	55173.45
521.86	55253.03
522.03	55557.30
522.20	55447.29
522.38	55613.47
522.55	55592.40
522.72	55590.06
522.89	55599.43
523.07	55873.27
523.24	55737.52
523.41	55852.20
523.58	55735.18
523.75	56072.21
523.92	55913.06
524.10	56002.00
524.27	56044.13
524.44	56161.15
524.61	56610.54
524.78	56430.32
524.96	56453.72
525.13	56559.05
525.30	56329.67
525.47	56498.19
525.64	56582.45
525.81	56659.69
525.98	56769.69
526.16	56699.48
526.33	56968.64
526.50	56945.23
526.67	56802.46
526.84	56741.61
527.01	56790.76
527.18	56851.61
527.36	57272.91
527.53	56956.94
527.70	57401.64
527.87	57127.80
528.04	57235.46
528.21	57392.28
528.38	57183.97
528.55	57228.44
528.72	57394.62
528.89	57462.49
529.07	57595.90
529.24	57411.00
529.41	57705.91
529.58	57584.20
529.75	57403.98
529.92	57661.44
530.09	57724.63
530.26	57682.50
530.43	57872.09
530.60	57757.40
530.77	58052.31
530.94	58040.60
531.11	57733.99
531.28	57923.58
531.46	57794.85
531.63	58000.82
531.80	58232.53
531.97	58248.91
532.14	58260.62
532.31	58351.90
532.48	58401.05
532.65	58387.00
532.82	58265.30
532.99	58370.62
533.16	58347.21
533.33	58450.20
533.50	58880.86
533.67	58532.12
533.84	58492.33
534.01	58681.91
534.18	58363.60
534.35	58930.01
534.52	58646.80
534.69	59042.35
534.86	58920.65
535.03	58958.09
535.20	58918.31
535.37	59096.19
535.54	59032.99
535.71	59032.99
535.88	58972.14
536.05	58925.33
536.22	59206.19
536.38	59402.80
536.55	59419.18
536.72	59351.30
536.89	59353.65
537.06	59236.62
537.23	59325.56
537.40	59430.88
537.57	59377.05
537.74	59360.67
537.91	59524.50
538.08	59618.13
538.25	59580.68
538.42	59526.84
538.59	59669.62
538.75	59372.37
538.92	59608.76
539.09	59779.62
539.26	59678.98
539.43	59758.56
539.60	59931.76
539.77	60011.34
539.94	60198.58
540.11	60135.38
540.28	60011.34
540.44	60109.64
540.61	60088.57
540.78	59978.57
540.95	60114.32
541.12	60051.12
541.29	60191.56
541.46	60306.24
541.62	60182.19
541.79	60250.07
541.96	60090.91
542.13	60378.80
542.30	60346.03
542.47	60659.66
542.63	60601.15
542.80	60601.15
542.97	60926.49
543.14	60912.44
543.31	60764.99
543.48	60867.97
543.64	60823.50
543.81	60919.46
543.98	60963.93
544.15	60987.34
544.32	61001.38
544.48	61181.60
544.65	61066.92
544.82	61165.22
544.99	60671.37
545.16	61001.38
545.32	61183.94
545.49	61357.14
545.66	61462.47
545.83	61535.02
546.00	61581.84
546.16	61261.18
546.33	61319.70
546.50	61095.00
546.67	61200.33
546.83	61090.32
547.00	61209.69
547.17	61296.29
547.34	61453.11
547.50	61373.53
547.67	61649.71
547.84	61471.83
548.00	61537.36
548.17	61649.71
548.34	61490.55
548.51	61701.20
548.67	61694.18
548.84	61654.39
549.01	61757.38
549.18	61621.62
549.34	61710.56
549.51	61764.40
549.68	61715.25
549.84	61652.05
550.01	61883.76
550.18	61600.56
550.34	61804.19
550.51	61984.41
550.68	61790.14
550.84	61801.85
551.01	61907.17
551.18	61836.95
551.34	61813.55
551.51	61750.35
551.68	61956.32
551.84	61991.43
552.01	62012.49
552.18	62108.46
552.34	62026.54
552.51	62211.44
552.68	61984.41
552.84	62218.46
553.01	62333.15
553.18	62075.69
553.34	62265.27
553.51	62185.69
553.67	62223.14
553.84	62555.50
554.01	62384.64
554.17	62398.68
554.34	62433.79
554.51	62265.27
554.67	62457.20
554.84	62489.96
555.00	62255.91
555.17	62487.62
555.33	62539.11
555.50	62560.18
555.67	62515.71
555.83	62562.52
556.00	62534.43
556.16	62658.48
556.33	62557.84
556.50	62623.37
556.66	62637.42
556.83	62461.88
556.99	63058.71
557.16	62791.89
557.32	62841.04
557.49	62780.19
557.65	62688.91
557.82	62557.84
557.98	62595.29
558.15	62660.82
558.32	62939.35
558.48	62878.49
558.65	62944.03
558.81	62955.73
558.98	62752.10
559.14	62913.60
559.31	62908.92
559.47	62915.94
559.64	62841.04
559.80	62887.85
559.97	63196.80
560.13	62969.77
560.30	63121.91
560.46	63161.70
560.63	63128.93
560.79	63023.61
560.96	62976.79
561.12	63063.39
561.29	63072.76
561.45	63224.89
561.61	63196.80
561.78	63124.25
561.94	63128.93
562.11	63384.05
562.27	63260.00
562.44	63250.64
562.60	63213.19
562.77	63269.36
562.93	63285.75
563.10	63334.90
563.26	63278.72
563.42	63393.41
563.59	63271.70
563.75	63262.34
563.92	63435.54
564.08	63292.77
564.24	63313.83
564.41	63166.38
564.57	63374.69
564.74	63334.90
564.90	63480.01
565.07	63564.27
565.23	63487.03
565.39	63274.04
565.56	63449.58
565.72	63742.15
565.88	63604.06
566.05	63451.92
566.21	63353.62
566.38	63414.47
566.54	63641.51
566.70	63788.96
566.87	63807.68
567.03	63681.30
567.19	63772.58
567.36	63561.93
567.52	63639.17
567.68	63477.67
567.85	63550.23
568.01	63489.37
568.17	63508.10
568.34	63735.13
568.50	63732.79
568.66	63838.11
568.83	63903.65
568.99	63657.89
569.15	63795.98
569.32	63821.73
569.48	63482.35
569.64	63697.68
569.81	63732.79
569.97	63718.74
570.13	63774.92
570.30	63730.45
570.46	63831.09
570.62	63678.96
570.78	63728.11
570.95	63646.19
571.11	63840.45
571.27	63604.06
571.43	63678.96
571.60	63650.87
571.76	63840.45
571.92	63938.75
572.09	63903.65
572.25	63938.75
572.41	63875.56
572.57	63800.66
572.74	63948.12
572.90	63725.77
573.06	63863.86
573.22	63983.22
573.38	63845.13
573.55	63674.27
573.71	64163.45
573.87	64001.95
574.03	63840.45
574.20	64060.46
574.36	63863.86
574.52	63880.24
574.68	63973.86
574.84	64048.76
575.01	64037.06
575.17	64020.67
575.33	63901.31
575.49	63992.59
575.65	64083.87
575.82	64357.71
575.98	63922.37
576.14	64062.80
576.30	64006.63
576.46	64097.91
576.62	63997.27
576.79	64039.40
576.95	64048.76
577.11	64069.82
577.27	64111.95
577.43	64186.85
577.59	64020.67
577.75	64067.48
577.92	63934.07
578.08	63952.80
578.24	63931.73
578.40	64060.46
578.56	64126.00
578.72	64233.66
578.88	64205.58
579.04	64261.75
579.21	64196.21
579.37	64130.68
579.53	64296.86
579.69	64123.66
579.85	64055.78
580.01	63936.41
580.17	63807.68
580.33	64257.07
580.49	64102.59
580.65	64355.37
580.82	64224.30
580.98	64264.09
581.14	64133.02
581.30	64228.98
581.46	64093.23
581.62	63971.52
581.78	64109.61
581.94	64163.45
582.10	64060.46
582.26	64367.07
582.42	64413.88
582.58	64500.48
582.74	64259.41
582.90	64292.18
583.06	64254.73
583.22	64353.03
583.38	64343.67
583.54	64186.85
583.70	64109.61
583.86	64130.68
584.02	64205.58
584.18	64287.49
584.34	64383.46
584.50	64346.01
584.66	64243.02
584.82	64240.68
584.98	64294.52
585.14	64357.71
585.30	64111.95
585.46	64317.92
585.62	64175.15
585.78	64329.62
585.94	64090.89
586.10	64299.20
586.26	64338.99
586.42	64310.90
586.58	64404.52
586.74	64371.75
586.90	64416.22
587.06	64317.92
587.22	64346.01
587.38	64161.11
587.54	64608.15
587.70	64631.55
587.86	64498.14
588.02	64371.75
588.18	64652.62
588.34	64362.39
588.49	64500.48
