SpectraSuite Data File
++++++++++++++++++++++++++++++++++++
Date: Fri Oct 04 11:39:31 GMT-05:00 2013
User: price-jones
Dark Spectrum Present: No
Reference Spectrum Present: No
Number of Sampled Component Spectra: 1
Spectrometers: USB2+H05261
Integration Time (usec): 100000 (USB2+H05261)
Spectra Averaged: 1 (USB2+H05261)
Boxcar Smoothing: 0 (USB2+H05261)
Correct for Electrical Dark: No (USB2+H05261)
Strobe/Lamp Enabled: No (USB2+H05261)
Correct for Detector Non-linearity: No (USB2+H05261)
Correct for Stray Light: No (USB2+H05261)
Number of Pixels in Processed Spectrum: 2048
>>>>>Begin Processed Spectral Data<<<<<
365.73	0.00
365.92	0.00
366.12	0.00
366.32	2.34
366.52	0.00
366.72	18.72
366.91	0.00
367.11	0.00
367.31	0.00
367.51	0.00
367.70	18.72
367.90	32.77
368.10	0.00
368.30	0.00
368.49	0.00
368.69	0.00
368.89	0.00
369.09	0.00
369.28	70.22
369.48	0.00
369.68	0.00
369.87	4.68
370.07	0.00
370.27	70.22
370.47	65.54
370.66	166.18
370.86	308.95
371.06	369.80
371.25	306.61
371.45	278.52
371.65	369.80
371.84	294.91
372.04	290.23
372.24	372.15
372.44	311.29
372.63	348.74
372.83	374.49
373.03	367.46
373.22	400.23
373.42	332.36
373.62	397.89
373.81	430.66
374.01	428.32
374.21	449.38
374.40	421.30
374.60	442.36
374.79	461.09
374.99	376.83
375.19	447.04
375.38	430.66
375.58	472.79
375.78	402.57
375.97	433.00
376.17	451.72
376.37	454.06
376.56	521.94
376.76	456.40
376.95	418.96
377.15	374.49
377.35	470.45
377.54	500.87
377.74	470.45
377.93	449.38
378.13	451.72
378.33	437.68
378.52	568.75
378.72	477.47
378.91	465.77
379.11	456.40
379.31	435.34
379.50	491.51
379.70	449.38
379.89	538.32
380.09	468.11
380.28	470.45
380.48	397.89
380.68	519.60
380.87	517.26
381.07	594.50
381.26	554.71
381.46	524.28
381.65	557.05
381.85	514.92
382.04	538.32
382.24	550.03
382.43	533.64
382.63	517.26
382.83	528.96
383.02	524.28
383.22	615.56
383.41	622.58
383.61	526.62
383.80	624.92
384.00	613.22
384.19	538.32
384.39	564.07
384.58	653.01
384.78	645.99
384.97	580.45
385.17	620.24
385.36	613.22
385.56	601.52
385.75	655.35
385.95	585.13
386.14	667.05
386.34	638.97
386.53	615.56
386.72	634.29
386.92	634.29
387.11	671.73
387.31	702.16
387.50	676.41
387.70	636.63
387.89	664.71
388.09	676.41
388.28	643.65
388.48	631.94
388.67	718.54
388.86	723.23
389.06	683.44
389.25	671.73
389.45	653.01
389.64	678.76
389.84	798.12
390.03	734.93
390.22	741.95
390.42	809.83
390.61	662.37
390.81	765.36
391.00	807.48
391.19	683.44
391.39	765.36
391.58	709.18
391.78	732.59
391.97	833.23
392.16	734.93
392.36	856.64
392.55	763.01
392.75	844.93
392.94	777.06
393.13	816.85
393.33	819.19
393.52	887.06
393.71	964.30
393.91	887.06
394.10	842.59
394.29	856.64
394.49	807.48
394.68	952.60
394.88	915.15
395.07	898.77
395.26	919.83
395.46	954.94
395.65	954.94
395.84	933.87
396.04	994.73
396.23	999.41
396.42	912.81
396.62	952.60
396.81	1015.79
397.00	997.07
397.19	952.60
397.39	1034.52
397.58	1071.97
397.77	1053.24
397.97	999.41
398.16	1062.60
398.35	973.66
398.55	1011.11
398.74	1149.20
398.93	1121.12
399.12	1111.75
399.32	1090.69
399.51	1064.94
399.70	1067.28
399.90	1156.22
400.09	1076.65
400.28	1188.99
400.47	1132.82
400.67	1275.59
400.86	1137.50
401.05	1228.78
401.24	1359.85
401.44	1277.93
401.63	1259.21
401.82	1287.29
402.01	1277.93
402.21	1280.27
402.40	1270.91
402.59	1324.74
402.78	1327.08
402.97	1254.53
403.17	1306.02
403.36	1263.89
403.55	1418.36
403.74	1416.02
403.93	1474.54
404.13	1455.81
404.32	1399.64
404.51	1493.26
404.70	1425.39
404.89	1441.77
405.09	1486.24
405.28	1521.35
405.47	1472.20
405.66	1572.84
405.85	1563.48
406.05	1556.46
406.24	1547.09
406.43	1598.59
406.62	1565.82
406.81	1724.97
407.00	1689.87
407.20	1699.23
407.39	1640.72
407.58	1795.19
407.77	1804.55
407.96	1823.28
408.15	1762.42
408.34	1671.14
408.54	1888.81
408.73	1884.13
408.92	1820.94
409.11	1771.79
409.30	1802.21
409.49	1914.56
409.68	1844.34
409.87	1914.56
410.07	1944.99
410.26	2078.40
410.45	1933.28
410.64	1907.54
410.83	1954.35
411.02	1994.14
411.21	2111.16
411.40	2010.52
411.59	2003.50
411.78	2115.84
411.98	2136.91
412.17	2022.22
412.36	2160.31
412.55	2225.85
412.74	2324.15
412.93	2179.04
413.12	2284.36
413.31	2420.11
413.50	2368.62
413.69	2417.77
413.88	2469.27
414.07	2370.96
414.26	2464.58
414.45	2490.33
414.64	2567.57
414.83	2499.69
415.02	2513.74
415.22	2693.96
415.41	2605.02
415.60	2675.23
415.79	2700.98
415.98	2567.57
416.17	2747.79
416.36	2621.40
416.55	2780.56
416.74	2796.94
416.93	2841.41
417.12	2939.71
417.31	2862.48
417.50	2993.55
417.69	3061.42
417.88	3038.02
418.07	2895.24
418.26	2913.97
418.45	3166.74
418.64	3204.19
418.83	3098.87
419.02	3016.95
419.21	3108.23
419.39	3173.77
419.58	3059.08
419.77	3141.00
419.96	3201.85
420.15	3302.50
420.34	3243.98
420.53	3276.75
420.72	3335.26
420.91	3337.60
421.10	3391.44
421.29	3346.97
421.48	3382.07
421.67	3412.50
421.86	3391.44
422.05	3400.80
422.24	3405.48
422.43	3478.04
422.61	3545.91
422.80	3630.17
422.99	3538.89
423.18	3524.85
423.37	3442.93
423.56	3482.72
423.75	3557.61
423.94	3501.44
424.13	3323.56
424.32	3365.69
424.50	3655.92
424.69	3637.19
424.88	3562.30
425.07	3545.91
425.26	3555.27
425.45	3456.97
425.64	3592.72
425.83	3569.32
426.01	3684.00
426.20	3463.99
426.39	3543.57
426.58	3693.37
426.77	3576.34
426.96	3543.57
427.15	3646.55
427.33	3684.00
427.52	3845.50
427.71	3824.44
427.90	3700.39
428.09	3817.41
428.28	3857.20
428.46	3962.53
428.65	4014.02
428.84	3899.33
429.03	3999.98
429.22	3737.84
429.40	3932.10
429.59	3992.95
429.78	3845.50
429.97	3871.25
430.16	3992.95
430.34	4011.68
430.53	3927.42
430.72	4210.62
430.91	3997.64
431.10	3948.48
431.28	4182.54
431.47	4184.88
431.66	4180.20
431.85	4163.81
432.03	4252.75
432.22	4248.07
432.41	4294.88
432.60	4351.06
432.79	4320.63
432.97	4362.76
433.16	4283.18
433.35	4339.35
433.54	4334.67
433.72	4313.61
433.91	4355.74
434.10	4362.76
434.28	4468.08
434.47	4484.47
434.66	4519.57
434.85	4526.60
435.03	4589.79
435.22	4753.63
435.41	5123.43
435.59	4933.85
435.78	4788.74
435.97	4697.46
436.16	4809.80
436.34	4524.26
436.53	4664.69
436.72	4858.95
436.90	4606.17
437.09	4802.78
437.28	4664.69
437.46	4931.51
437.65	4840.23
437.84	4844.91
438.02	4823.84
438.21	4875.34
438.40	4713.84
438.58	4891.72
438.77	5151.52
438.96	4931.51
439.14	5116.41
439.33	5100.03
439.52	5071.94
439.70	5273.23
439.89	5308.34
440.08	5350.46
440.26	5324.72
440.45	5329.40
440.63	5231.10
440.82	5427.70
441.01	5504.94
441.19	5465.15
441.38	5453.45
441.57	5586.86
441.75	5596.22
441.94	5706.23
442.12	5661.76
442.31	5837.30
442.50	5710.91
442.68	5888.79
442.87	5870.06
443.05	5954.32
443.24	5858.36
443.43	5991.77
443.61	5944.96
443.80	5977.73
443.98	6005.81
444.17	5778.78
444.35	6052.63
444.54	6214.12
444.73	5982.41
444.91	5994.11
445.10	6043.26
445.28	5987.09
445.47	5898.15
445.65	5902.83
445.84	5977.73
446.02	6069.01
446.21	5921.56
446.39	6195.40
446.58	6169.65
446.77	6237.53
446.95	6010.50
447.14	6106.46
447.32	6132.20
447.51	6059.65
447.69	6153.27
447.88	6225.82
448.06	6071.35
448.25	6019.86
448.43	6300.72
448.62	6022.20
448.80	6059.65
448.99	6277.32
449.17	6263.27
449.36	6239.87
449.54	6459.88
449.73	6303.06
449.91	6539.46
450.10	6471.58
450.28	6616.69
450.46	6581.59
450.65	6609.67
450.83	6565.20
451.02	6553.50
451.20	6707.98
451.39	6600.31
451.57	6511.37
451.76	6619.04
451.94	6539.46
452.13	6691.59
452.31	6703.29
452.49	6544.14
452.68	6930.33
452.86	6757.13
453.05	6923.30
453.23	6888.20
453.42	6843.73
453.60	6796.92
453.78	6850.75
453.97	6761.81
454.15	6733.72
454.34	6913.94
454.52	6810.96
454.70	7012.24
454.89	6977.14
455.07	7026.29
455.26	7178.42
455.44	7087.14
455.62	7087.14
455.81	7126.93
455.99	7145.66
456.17	7300.13
456.36	7229.91
456.54	7300.13
456.73	7344.60
456.91	7463.97
457.09	7419.50
457.28	7627.81
457.46	7332.90
457.64	7707.38
457.83	7545.89
458.01	7475.67
458.19	7503.76
458.38	7590.36
458.56	7716.75
458.74	7618.44
458.93	7693.34
459.11	7639.51
459.29	7616.10
459.48	7716.75
459.66	7789.30
459.84	8004.63
460.03	7707.38
460.21	7784.62
460.39	7875.90
460.57	7742.49
460.76	7992.93
460.94	7866.54
461.12	7803.35
461.31	7892.29
461.49	7932.08
461.67	8006.97
461.85	8194.22
462.04	7950.80
462.22	8189.53
462.40	8163.79
462.59	8058.46
462.77	8234.00
462.95	8329.97
463.13	8276.13
463.32	8402.52
463.50	8400.18
463.68	8393.16
463.86	8559.34
464.05	8306.56
464.23	8264.43
464.41	8472.74
464.59	8241.03
464.78	8629.56
464.96	8540.61
465.14	8568.70
465.32	8662.32
465.50	8659.98
465.69	8669.34
465.87	8454.02
466.05	8681.05
466.23	8624.87
466.41	8582.74
466.60	9001.70
466.78	8753.60
466.96	8699.77
467.14	8549.98
467.32	8730.20
467.51	8926.80
467.69	8718.50
467.87	8877.65
468.05	8702.11
468.23	8887.01
468.41	8884.67
468.60	8938.51
468.78	8912.76
468.96	9050.85
469.14	9102.34
469.32	9153.84
469.50	9085.96
469.69	9284.91
469.87	9252.14
470.05	9277.88
470.23	9270.86
470.41	9273.20
470.59	9432.36
470.77	9329.38
470.95	9643.01
471.14	9689.82
471.32	9404.27
471.50	9600.88
471.68	9652.37
471.86	9731.95
472.04	9832.59
472.22	9970.68
472.40	9638.33
472.58	9874.72
472.77	9830.25
472.95	9956.64
473.13	10193.03
473.31	9970.68
473.49	9919.19
473.67	9860.68
473.85	10284.31
474.03	10345.17
474.21	10230.48
474.39	10509.01
474.57	10410.70
474.75	10434.11
474.93	10569.86
475.12	10693.91
475.30	10338.15
475.48	10633.05
475.66	10822.64
475.84	10546.45
476.02	10750.08
476.20	10857.75
476.38	11335.21
476.56	11066.05
476.74	11190.10
476.92	11265.00
477.10	11171.38
477.28	11419.47
477.46	11382.03
477.64	11431.18
477.82	11702.68
478.00	11995.25
478.18	11878.22
478.36	12203.55
478.54	11864.18
478.72	12142.70
478.90	12116.95
479.08	12224.62
479.26	12418.88
479.44	12402.50
479.62	12627.19
479.80	12547.61
479.98	12659.96
480.16	12826.14
480.34	12875.29
480.52	12968.91
480.70	13069.55
480.88	13114.02
481.06	13125.72
481.24	13125.72
481.41	13305.95
481.59	13825.54
481.77	14061.94
481.95	14005.77
482.13	13703.84
482.31	13792.78
482.49	14127.47
482.67	14097.05
482.85	14389.61
483.03	14569.83
483.21	14541.75
483.39	14747.72
483.57	14689.20
483.74	14750.06
483.92	14920.92
484.10	14778.14
484.28	15332.85
484.46	15438.17
484.64	15836.06
484.82	15468.60
485.00	15503.71
485.18	15625.42
485.35	16030.33
485.53	15978.84
485.71	15903.94
485.89	16339.28
486.07	16465.67
486.25	16301.83
486.43	16484.39
486.61	16491.41
486.78	16947.82
486.96	16877.60
487.14	17067.19
487.32	17380.82
487.50	17310.60
487.68	17455.72
487.85	17532.95
488.03	17790.41
488.21	18202.35
488.39	17799.77
488.57	18370.86
488.75	18560.45
488.92	18487.89
489.10	18656.41
489.28	18864.72
489.46	18810.89
489.64	18932.59
489.81	19351.55
489.99	19360.91
490.17	19309.42
490.35	19569.22
490.53	19456.87
490.70	19920.30
490.88	19758.80
491.06	20217.55
491.24	20137.97
491.41	20376.70
491.59	20556.93
491.77	20613.10
491.95	20802.68
492.13	20805.02
492.30	21207.59
492.48	21120.99
492.66	20737.15
492.84	21282.49
493.01	21710.81
493.19	21666.34
493.37	21797.41
493.54	21867.63
493.72	22462.12
493.90	21490.80
494.08	22260.84
494.25	22377.86
494.43	22569.79
494.61	22754.69
494.79	22827.24
494.96	22810.86
495.14	22970.02
495.32	23154.92
495.49	23094.07
495.67	23335.14
495.85	23536.43
496.02	23779.84
496.20	23695.58
496.38	23672.18
496.55	23704.95
496.73	24320.51
496.91	23915.59
497.09	24224.54
497.26	24683.29
497.44	24318.17
497.62	24538.18
497.79	24854.15
497.97	24802.66
498.14	25209.91
498.32	25331.62
498.50	25184.16
498.67	25443.96
498.85	25181.82
499.03	25500.14
499.20	25685.04
499.38	25703.76
499.56	25490.77
499.73	26150.81
499.91	26094.63
500.08	26529.97
500.26	25790.36
500.44	26146.12
500.61	26059.52
500.79	26457.42
500.97	26717.22
501.14	26930.20
501.32	26958.29
501.49	26953.61
501.67	26766.37
501.84	26920.84
502.02	26967.65
502.20	27344.48
502.37	27264.90
502.55	27630.02
502.72	27704.92
502.90	27606.62
503.07	27402.99
503.25	27749.39
503.43	28093.45
503.60	28133.24
503.78	27665.13
503.95	27997.49
504.13	28133.24
504.30	28182.39
504.48	28376.66
504.65	28547.51
504.83	28954.77
505.01	28926.68
505.18	28596.67
505.36	29322.23
505.53	29167.76
505.71	28706.67
505.88	28964.13
506.06	28868.17
506.23	29216.91
506.41	29434.58
506.58	29661.61
506.76	29591.39
506.93	29537.56
507.11	29579.69
507.28	29764.59
507.46	30143.76
507.63	30195.25
507.81	29919.07
507.98	30312.28
508.16	29902.68
508.33	30078.22
508.50	29902.68
508.68	30347.39
508.85	31000.40
509.03	30817.83
509.20	30658.68
509.38	31234.45
509.55	30864.64
509.73	30869.33
509.90	31159.55
510.08	31108.06
510.25	31180.62
510.42	31225.09
510.60	31342.11
510.77	31704.90
510.95	31676.81
511.12	31580.85
511.30	31896.82
511.47	31695.53
511.64	32102.79
511.82	32102.79
511.99	32048.96
512.17	32432.80
512.34	32802.61
512.51	32526.42
512.69	32580.26
512.86	32477.27
513.04	33167.73
513.21	32776.86
513.38	32959.42
513.56	33106.88
513.73	32877.51
513.90	33191.14
514.08	32851.76
514.25	33586.69
514.43	33376.04
514.60	33537.54
514.77	33565.62
514.95	33888.62
515.12	33401.79
515.29	33635.84
515.47	34040.75
515.64	33989.26
515.81	33717.76
515.99	34284.17
516.16	34405.88
516.33	34230.33
516.51	34487.79
516.68	34106.29
516.85	34249.06
517.03	34314.59
517.20	34646.95
517.37	34321.62
517.54	34974.63
517.72	35075.27
517.89	34763.98
518.06	34235.02
518.24	34787.38
518.41	34962.92
518.58	35487.20
518.75	35243.79
518.93	35618.27
519.10	35447.41
519.27	35351.45
519.45	35456.78
519.62	35316.34
519.79	35651.04
519.96	35473.16
520.14	35838.28
520.31	35543.38
520.48	36222.13
520.65	35641.68
520.83	36238.51
521.00	35899.14
521.17	35796.15
521.34	36510.02
521.52	36091.06
521.69	36385.97
521.86	36737.05
522.03	36746.41
522.20	36692.58
522.38	36898.55
522.55	36837.69
522.72	36776.84
522.89	36921.95
523.07	37361.97
523.24	37106.85
523.41	37345.59
523.58	36966.42
523.75	37542.19
523.92	37345.59
524.10	36905.57
524.27	37883.91
524.44	37532.83
524.61	37879.23
524.78	38000.94
524.96	38036.05
525.13	37865.19
525.30	38031.36
525.47	37956.47
525.64	37865.19
525.81	37947.11
525.98	38546.28
526.16	38134.35
526.33	38316.91
526.50	38494.79
526.67	38181.16
526.84	38174.14
527.01	38389.47
527.18	38487.77
527.36	38637.56
527.53	39117.37
527.70	39353.77
527.87	39124.40
528.04	39019.07
528.21	38979.28
528.38	38857.57
528.55	39103.33
528.72	39215.68
528.89	39173.55
529.07	39150.14
529.24	38834.17
529.41	39381.85
529.58	39203.97
529.75	38934.81
529.92	39281.21
530.09	39480.16
530.26	39440.37
530.43	39845.28
530.60	39529.31
530.77	39564.42
530.94	39779.74
531.11	40016.14
531.28	39859.32
531.46	39786.77
531.63	39992.73
531.80	40495.95
531.97	40034.86
532.14	40320.41
532.31	40069.97
532.48	39847.62
532.65	40411.69
532.82	40212.74
532.99	40594.25
533.16	40540.42
533.33	40919.59
533.50	40950.01
533.67	40961.72
533.84	40397.65
534.01	40371.90
534.18	40390.62
534.35	41205.13
534.52	40500.63
534.69	41095.13
534.86	41614.72
535.03	40655.11
535.20	41113.85
535.37	41310.46
535.54	41415.78
535.71	41305.77
535.88	41167.68
536.05	41298.75
536.22	41844.10
536.38	41469.61
536.55	41581.96
536.72	41907.29
536.89	41769.20
537.06	41397.06
537.23	42143.69
537.40	41736.43
537.57	41996.23
537.74	42246.67
537.91	42216.24
538.08	42209.22
538.25	41890.91
538.42	41794.95
538.59	42160.07
538.75	41757.50
538.92	42230.29
539.09	42281.78
539.26	42499.45
539.43	42632.86
539.60	42136.66
539.77	42213.90
539.94	43037.77
540.11	42550.94
540.28	43056.50
540.44	42632.86
540.61	42932.45
540.78	42728.82
540.95	43077.56
541.12	42855.21
541.29	42920.74
541.46	42906.70
541.62	43285.87
541.79	43253.10
541.96	43297.57
542.13	43241.40
542.30	43236.72
542.47	43981.01
542.63	43309.27
542.80	43522.26
542.97	43562.05
543.14	43866.32
543.31	44013.77
543.48	43732.91
543.64	44556.78
543.81	44095.69
543.98	44069.95
544.15	44491.24
544.32	44184.63
544.48	44385.92
544.65	44098.03
544.82	43959.94
544.99	43789.08
545.16	44538.05
545.32	44051.22
545.49	44729.98
545.66	45495.33
545.83	45336.18
546.00	45303.41
546.16	45144.25
546.33	44261.87
546.50	44130.80
546.67	44437.41
546.83	44390.60
547.00	44278.25
547.17	44886.79
547.34	44495.92
547.50	45090.42
547.67	45258.94
547.84	44638.70
548.00	45048.29
548.17	45024.89
548.34	44215.06
548.51	44910.20
548.67	45263.62
548.84	45144.25
549.01	44928.92
549.18	44961.69
549.34	44865.73
549.51	45029.57
549.68	45249.58
549.84	44816.58
550.01	44994.46
550.18	44737.00
550.34	44996.80
550.51	45560.87
550.68	45104.46
550.84	44903.18
551.01	45228.51
551.18	44971.05
551.34	45015.52
551.51	45310.43
551.68	45649.81
551.84	45497.67
552.01	45315.11
552.18	45305.75
552.34	45350.22
552.51	45336.18
552.68	45312.77
552.84	45081.06
553.01	45724.71
553.18	45235.53
553.34	45727.05
553.51	45986.85
553.67	45549.17
553.84	45989.19
554.01	46239.62
554.17	45902.59
554.34	45682.58
554.51	45701.30
554.67	45972.80
554.84	45883.86
555.00	45743.43
555.17	45556.19
555.33	45935.35
555.50	45862.80
555.67	45834.71
555.83	45865.14
556.00	46117.92
556.16	46586.02
556.33	45895.56
556.50	46113.23
556.66	46087.49
556.83	45986.85
556.99	46710.07
557.16	46157.70
557.32	46766.24
557.49	46267.71
557.65	46115.58
557.82	46344.95
557.98	46160.05
558.15	46377.72
558.32	46251.33
558.48	46637.51
558.65	46366.01
558.81	46681.98
558.98	46244.30
559.14	46258.35
559.31	46307.50
559.47	46146.00
559.64	46398.78
559.80	46806.03
559.97	46586.02
560.13	46354.31
560.30	46597.73
560.46	46787.31
560.63	46616.45
560.79	46188.13
560.96	46934.76
561.12	46604.75
561.29	46469.00
561.45	46656.24
561.61	46609.43
561.78	46894.97
561.94	47007.32
562.11	47061.15
562.27	46768.58
562.44	47000.30
562.60	46464.32
562.77	46787.31
562.93	46429.21
563.10	47519.90
563.26	46824.76
563.42	47143.07
563.59	46726.46
563.75	47042.43
563.92	47339.68
564.08	46705.39
564.24	46990.94
564.41	46857.52
564.57	46791.99
564.74	47054.13
564.90	47239.03
565.07	46878.59
565.23	47276.48
565.39	47047.11
565.56	47189.88
565.72	46684.33
565.88	46983.91
566.05	47276.48
566.21	46698.37
566.38	46810.71
566.54	46728.80
566.70	46993.28
566.87	47524.58
567.03	47243.71
567.19	47547.98
567.36	47325.63
567.52	47037.75
567.68	47297.55
567.85	47306.91
568.01	46960.51
568.17	47346.70
568.34	47515.22
568.50	47192.22
568.66	47571.39
568.83	47538.62
568.99	47384.15
569.15	47033.07
569.32	47164.14
569.48	47026.04
569.64	47295.21
569.81	47056.47
569.97	47468.40
570.13	47454.36
570.30	47433.30
570.46	47473.09
570.62	47292.86
570.78	47171.16
570.95	47129.03
571.11	47360.74
571.27	47091.58
571.43	47283.50
571.60	46897.31
571.76	47611.18
571.92	47379.46
572.09	47487.13
572.25	47295.21
572.41	47327.97
572.57	47309.25
572.74	47309.25
572.90	47210.95
573.06	47084.56
573.22	47419.25
573.38	47526.92
573.55	47531.60
573.71	47796.08
573.87	47889.70
574.03	47477.77
574.20	47480.11
574.36	46927.74
574.52	47533.94
574.68	47054.13
574.84	47653.31
575.01	48011.41
575.17	47564.37
575.33	47271.80
575.49	47686.07
575.65	47753.95
575.82	47693.10
575.98	47206.26
576.14	47744.59
576.30	47351.38
576.46	47515.22
576.62	47489.47
576.79	47419.25
576.95	47676.71
577.11	47620.54
577.27	47611.18
577.43	47775.02
577.59	47824.17
577.75	47519.90
577.92	47475.43
578.08	47475.43
578.24	47594.79
578.40	47667.35
578.56	47927.15
578.72	47679.05
578.88	47711.82
579.04	47524.58
579.21	47515.22
579.37	47299.89
579.53	47814.80
579.69	47470.75
579.85	47821.83
580.01	47730.54
580.17	47641.60
580.33	47459.04
580.49	47885.02
580.65	47550.32
580.82	47611.18
580.98	47782.04
581.14	47505.85
581.30	47763.31
581.46	47395.85
581.62	47578.41
581.78	47185.20
581.94	47753.95
582.10	47281.16
582.26	47562.03
582.42	47456.70
582.58	47964.60
582.74	47686.07
582.90	47702.46
583.06	47540.96
583.22	47421.59
583.38	47578.41
583.54	47529.26
583.70	47880.34
583.86	47732.89
584.02	47550.32
584.18	47213.29
584.34	47882.68
584.50	47571.39
584.66	47522.24
584.82	47690.76
584.98	47810.12
585.14	47466.06
585.30	47592.45
585.46	47533.94
585.62	47559.69
585.78	47880.34
585.94	47868.64
586.10	47594.79
586.26	47676.71
586.42	47943.53
586.58	48238.44
586.74	47767.99
586.90	47634.58
587.06	47480.11
587.22	47480.11
587.38	47540.96
587.54	47456.70
587.70	47819.49
587.86	47686.07
588.02	47721.18
588.18	47845.23
588.34	48079.28
588.49	48130.78
588.65	47489.47
588.81	47473.09
588.97	47473.09
589.13	47597.13
589.29	47646.29
589.45	47629.90
589.61	47594.79
589.77	48240.78
589.93	47723.52
590.08	47995.03
590.24	48027.79
590.40	47826.51
590.56	48250.14
