SpectraSuite Data File
++++++++++++++++++++++++++++++++++++
Date: Fri Oct 04 11:39:47 GMT-05:00 2013
User: price-jones
Dark Spectrum Present: No
Reference Spectrum Present: No
Number of Sampled Component Spectra: 1
Spectrometers: USB2+H05261
Integration Time (usec): 100000 (USB2+H05261)
Spectra Averaged: 1 (USB2+H05261)
Boxcar Smoothing: 0 (USB2+H05261)
Correct for Electrical Dark: No (USB2+H05261)
Strobe/Lamp Enabled: No (USB2+H05261)
Correct for Detector Non-linearity: No (USB2+H05261)
Correct for Stray Light: No (USB2+H05261)
Number of Pixels in Processed Spectrum: 2048
>>>>>Begin Processed Spectral Data<<<<<
365.73	49.15
365.92	49.15
366.12	49.15
366.32	0.00
366.52	0.00
366.72	0.00
366.91	0.00
367.11	9.36
367.31	0.00
367.51	0.00
367.70	0.00
367.90	4.68
368.10	0.00
368.30	0.00
368.49	0.00
368.69	0.00
368.89	0.00
369.09	0.00
369.28	0.00
369.48	0.00
369.68	0.00
369.87	0.00
370.07	0.00
370.27	79.58
370.47	196.60
370.66	533.64
370.86	510.24
371.06	580.45
371.25	543.00
371.45	554.71
371.65	613.22
371.84	554.71
372.04	587.47
372.24	566.41
372.44	564.07
372.63	664.71
372.83	645.99
373.03	636.63
373.22	610.88
373.42	711.52
373.62	655.35
373.81	685.78
374.01	671.73
374.21	744.29
374.40	681.10
374.60	744.29
374.79	734.93
374.99	739.61
375.19	781.74
375.38	816.85
375.58	844.93
375.78	819.19
375.97	772.38
376.17	840.25
376.37	767.70
376.56	842.59
376.76	826.21
376.95	793.44
377.15	816.85
377.35	821.53
377.54	919.83
377.74	894.08
377.93	835.57
378.13	884.72
378.33	961.96
378.52	922.17
378.72	898.77
378.91	936.21
379.11	915.15
379.31	837.91
379.50	870.68
379.70	994.73
379.89	936.21
380.09	847.27
380.28	971.32
380.48	938.55
380.68	903.45
380.87	912.81
381.07	915.15
381.26	1067.28
381.46	1013.45
381.65	1015.79
381.85	1064.94
382.04	1032.18
382.24	1027.50
382.43	954.94
382.63	999.41
382.83	1020.47
383.02	1093.03
383.22	1118.78
383.41	1048.56
383.61	1064.94
383.80	1135.16
384.00	1181.97
384.19	1167.93
384.39	1107.07
384.58	1111.75
384.78	1163.25
384.97	1100.05
385.17	1074.31
385.36	1135.16
385.56	1142.18
385.75	1273.25
385.95	1247.51
386.14	1219.42
386.34	1242.82
386.53	1107.07
386.72	1219.42
386.92	1231.12
387.11	1334.11
387.31	1383.26
387.50	1170.27
387.70	1275.59
387.89	1301.34
388.09	1289.64
388.28	1331.76
388.48	1385.60
388.67	1394.96
388.86	1411.34
389.06	1303.68
389.25	1366.87
389.45	1437.09
389.64	1362.19
389.84	1434.75
390.03	1392.62
390.22	1465.18
390.42	1434.75
390.61	1341.13
390.81	1385.60
391.00	1474.54
391.19	1490.92
391.39	1385.60
391.58	1390.28
391.78	1533.05
391.97	1493.26
392.16	1502.62
392.36	1570.50
392.55	1528.37
392.75	1736.68
392.94	1572.84
393.13	1547.09
393.33	1577.52
393.52	1696.89
393.71	1764.76
393.91	1720.29
394.10	1703.91
394.29	1818.60
394.49	1650.08
394.68	1717.95
394.88	1811.57
395.07	1748.38
395.26	1856.04
395.46	1748.38
395.65	1827.96
395.84	1804.55
396.04	1856.04
396.23	1905.20
396.42	1851.36
396.62	1881.79
396.81	1863.07
397.00	1916.90
397.19	1944.99
397.39	1872.43
397.58	2010.52
397.77	1914.56
397.97	1977.75
398.16	2001.16
398.35	2036.27
398.55	2005.84
398.74	2026.90
398.93	2050.31
399.12	2057.33
399.32	2069.03
399.51	2087.76
399.70	2172.02
399.90	2127.55
400.09	2113.50
400.28	2251.60
400.47	2214.15
400.67	2363.94
400.86	2232.87
401.05	2265.64
401.24	2312.45
401.44	2291.38
401.63	2356.92
401.82	2282.02
402.01	2244.57
402.21	2340.54
402.40	2345.22
402.59	2399.05
402.78	2487.99
402.97	2504.37
403.17	2359.26
403.36	2471.61
403.55	2546.50
403.74	2562.89
403.93	2633.10
404.13	2677.57
404.32	2626.08
404.51	2551.18
404.70	2649.49
404.89	2668.21
405.09	2705.66
405.28	2848.43
405.47	2651.83
405.66	2897.58
405.85	2803.96
406.05	2810.98
406.24	2794.60
406.43	2855.45
406.62	2848.43
406.81	2911.63
407.00	2771.19
407.20	2876.52
407.39	2977.16
407.58	2750.13
407.77	2953.76
407.96	3084.83
408.15	3148.02
408.34	3052.06
408.54	3056.74
408.73	3089.51
408.92	3122.27
409.11	3173.77
409.30	3213.56
409.49	3370.37
409.68	3255.69
409.87	3234.62
410.07	3307.18
410.26	3295.47
410.45	3358.67
410.64	3356.33
410.83	3405.48
411.02	3463.99
411.21	3400.80
411.40	3597.40
411.59	3548.25
411.78	3651.24
411.98	3543.57
412.17	3754.22
412.36	3702.73
412.55	3836.14
412.74	3786.99
412.93	3796.35
413.12	3840.82
413.31	3831.46
413.50	3843.16
413.69	3932.10
413.88	4084.23
414.07	4194.24
414.26	4025.72
414.45	4219.99
414.64	4063.17
414.83	4315.95
415.02	4271.48
415.22	4245.73
415.41	4301.90
415.60	4388.50
415.79	4372.12
415.98	4365.10
416.17	4510.21
416.36	4486.81
416.55	4571.07
416.74	4554.68
416.93	4414.25
417.12	4561.70
417.31	4746.61
417.50	4608.51
417.69	4947.89
417.88	4877.68
418.07	4910.44
418.26	4793.42
418.45	4961.94
418.64	5032.15
418.83	5174.92
419.02	4901.08
419.21	5029.81
419.39	5093.01
419.58	5041.51
419.77	5111.73
419.96	5043.85
420.15	5263.86
420.34	5104.71
420.53	5331.74
420.72	5378.55
420.91	5303.65
421.10	5533.03
421.29	5579.84
421.48	5327.06
421.67	5502.60
421.86	5373.87
422.05	5497.92
422.24	5460.47
422.43	5537.71
422.61	5493.24
422.80	5731.97
422.99	5729.63
423.18	5523.66
423.37	5696.86
423.56	5558.77
423.75	5582.18
423.94	5577.50
424.13	5245.14
424.32	5434.72
424.50	5746.02
424.69	5713.25
424.88	5788.14
425.07	5544.73
425.26	5575.16
425.45	5731.97
425.64	5692.18
425.83	5715.59
426.01	5734.31
426.20	5827.93
426.39	5774.10
426.58	5647.71
426.77	5647.71
426.96	5762.40
427.15	5776.44
427.33	5930.92
427.52	5996.45
427.71	6029.22
427.90	6099.44
428.09	6235.19
428.28	6045.60
428.46	6120.50
428.65	6267.95
428.84	6242.21
429.03	6307.74
429.22	6087.73
429.40	6373.28
429.59	6422.43
429.78	6106.46
429.97	5991.77
430.16	6258.59
430.34	6590.95
430.53	6469.24
430.72	6572.22
430.91	6420.09
431.10	6558.18
431.28	6672.87
431.47	6668.19
431.66	6731.38
431.85	6609.67
432.03	6754.79
432.22	6937.35
432.41	6799.26
432.60	6817.98
432.79	6918.62
432.97	7005.22
433.16	6946.71
433.35	6810.96
433.54	7169.06
433.72	6981.82
433.91	7007.56
434.10	7143.32
434.28	6963.09
434.47	7391.41
434.66	7187.79
434.85	7225.23
435.03	7428.86
435.22	7496.74
435.41	7765.90
435.59	7836.11
435.78	7765.90
435.97	7630.15
436.16	7632.49
436.34	7522.48
436.53	7527.16
436.72	7941.44
436.90	7417.16
437.09	7840.79
437.28	7592.70
437.46	7775.26
437.65	7705.04
437.84	7822.07
438.02	7609.08
438.21	7742.49
438.40	7758.88
438.58	7899.31
438.77	8039.74
438.96	8121.66
439.14	8166.13
439.33	8299.54
439.52	8294.86
439.70	8435.29
439.89	8477.42
440.08	8439.97
440.26	8688.07
440.45	8491.46
440.63	8919.78
440.82	8802.75
441.01	8713.81
441.19	8971.27
441.38	8954.89
441.57	9083.62
441.75	9191.28
441.94	9233.41
442.12	9193.62
442.31	9252.14
442.50	9362.14
442.68	9233.41
442.87	9259.16
443.05	9273.20
443.24	9673.43
443.43	9476.83
443.61	9645.35
443.80	9891.10
443.98	9554.07
444.17	9013.40
444.35	9575.13
444.54	9612.58
444.73	9682.80
444.91	9551.73
445.10	9682.80
445.28	9820.89
445.47	9671.09
445.65	9500.23
445.84	9970.68
446.02	9975.36
446.21	9727.27
446.39	9692.16
446.58	9813.87
446.77	9788.12
446.95	9607.90
447.14	9799.82
447.32	9963.66
447.51	9816.21
447.69	9788.12
447.88	10054.94
448.06	10001.11
448.25	10010.47
448.43	9930.89
448.62	9907.49
448.80	9905.15
448.99	10249.21
449.17	10043.24
449.36	10022.17
449.54	10537.09
449.73	10377.94
449.91	10569.86
450.10	10562.84
450.28	10574.54
450.46	10485.60
450.65	10593.26
450.83	10527.73
451.02	10707.95
451.20	10778.17
451.39	10637.73
451.57	10717.31
451.76	10700.93
451.94	10808.59
452.13	10792.21
452.31	10890.51
452.49	10658.80
452.68	10939.66
452.86	10759.44
453.05	11023.92
453.23	11073.07
453.42	10920.94
453.60	10927.96
453.78	11122.23
453.97	10883.49
454.15	11201.80
454.34	11070.73
454.52	11517.78
454.70	11283.72
454.89	11339.90
455.07	11477.99
455.26	11550.54
455.44	11613.74
455.62	11480.33
455.81	11470.97
455.99	11784.60
456.17	11768.21
456.36	11857.15
456.54	11833.75
456.73	12025.67
456.91	12126.32
457.09	12168.45
457.28	12346.33
457.46	12060.78
457.64	12170.79
457.83	12325.26
458.01	12135.68
458.19	12393.14
458.38	12496.12
458.56	12723.15
458.74	12662.30
458.93	12690.38
459.11	12535.91
459.29	12519.53
459.48	12676.34
459.66	12798.05
459.84	13081.25
460.03	13057.85
460.21	12755.92
460.39	13198.28
460.57	12858.90
460.76	12877.63
460.94	13399.57
461.12	12868.27
461.31	13107.00
461.49	13048.49
461.67	13111.68
461.85	13493.19
462.04	13146.79
462.22	14022.15
462.40	13633.62
462.59	13514.25
462.77	13657.03
462.95	13668.73
463.13	13509.57
463.32	13678.09
463.50	13790.44
463.68	13902.78
463.86	13755.33
464.05	13937.89
464.23	14031.51
464.41	14185.99
464.59	13799.80
464.78	14118.11
464.96	14038.53
465.14	14017.47
465.32	14286.63
465.50	14260.88
465.69	14225.78
465.87	14448.13
466.05	14083.00
466.23	14111.09
466.41	14260.88
466.60	14815.59
466.78	14424.72
466.96	14204.71
467.14	14459.83
467.32	14588.56
467.51	14808.57
467.69	14300.67
467.87	14897.51
468.05	15047.30
468.23	14888.15
468.41	14518.34
468.60	14939.64
468.78	14944.32
468.96	14635.37
469.14	15220.50
469.32	15264.97
469.50	14682.18
469.69	15531.80
469.87	15510.73
470.05	15393.70
470.23	15243.91
470.41	15356.25
470.59	15910.96
470.77	15194.76
470.95	15777.55
471.14	15723.72
471.32	15602.01
471.50	15960.11
471.68	16173.10
471.86	16102.89
472.04	16210.55
472.22	16514.82
472.40	16159.06
472.58	16458.65
472.77	16528.86
472.95	16666.95
473.13	16952.50
473.31	16362.69
473.49	16776.96
473.67	16973.56
473.85	16769.94
474.03	17371.46
474.21	17198.26
474.39	17474.44
474.57	17371.46
474.75	17706.15
474.93	17811.48
475.12	17752.96
475.30	17867.65
475.48	17855.95
475.66	18036.17
475.84	18118.09
476.02	18352.14
476.20	18197.67
476.38	18817.91
476.56	18691.52
476.74	18855.36
476.92	18885.78
477.10	18831.95
477.28	19246.23
477.46	19101.11
477.64	19461.55
477.82	19454.53
478.00	19953.07
478.18	20025.62
478.36	19812.63
478.54	20414.15
478.72	20175.42
478.90	20636.50
479.08	20968.86
479.26	20833.11
479.44	20596.71
479.62	21104.61
479.80	21238.02
479.98	21429.94
480.16	21884.01
480.34	21558.67
480.52	22207.00
480.70	22043.17
480.88	21521.23
481.06	22324.03
481.24	22321.69
481.41	22239.77
481.59	22860.01
481.77	23211.09
481.95	23342.16
482.13	23433.44
482.31	23433.44
482.49	23992.83
482.67	23990.49
482.85	23924.96
483.03	24589.67
483.21	24538.18
483.39	25177.14
483.57	24900.96
483.74	25446.30
483.92	25390.13
484.10	24989.90
484.28	25734.19
484.46	25954.20
484.64	26698.49
484.82	25930.80
485.00	26209.32
485.18	26434.01
485.35	27009.78
485.53	26869.35
485.71	27225.11
485.89	28018.55
486.07	28056.00
486.25	27702.58
486.43	28166.01
486.61	28379.00
486.78	28907.96
486.96	28917.32
487.14	29144.35
487.32	29488.41
487.50	29614.80
487.68	29743.53
487.85	30199.93
488.03	30106.31
488.21	31136.15
488.39	30892.73
488.57	31363.18
488.75	30981.67
488.92	31580.85
489.10	31796.18
489.28	31934.27
489.46	32203.43
489.64	32053.64
489.81	32950.06
489.99	32945.38
490.17	33181.77
490.35	33254.33
490.53	33291.78
490.70	34316.93
490.88	33900.32
491.06	34300.55
491.24	34218.63
491.41	34169.48
491.59	35164.21
491.77	34824.83
491.95	35470.82
492.13	35491.88
492.30	35704.87
492.48	35728.28
492.66	35981.06
492.84	35957.65
493.01	36566.19
493.19	36580.23
493.37	36671.51
493.54	36910.25
493.72	37038.98
493.90	37450.91
494.08	37806.67
494.25	38092.22
494.43	38106.26
494.61	38494.79
494.79	38857.57
494.96	38373.08
495.14	38998.01
495.32	39349.09
495.49	39489.52
495.67	39442.71
495.85	40044.23
496.02	40282.96
496.20	40531.06
496.38	40423.39
496.55	40210.40
496.73	41027.25
496.91	40872.78
497.09	41350.24
497.26	41521.10
497.44	41148.96
497.62	42000.91
497.79	42490.09
497.97	42377.74
498.14	42541.58
498.32	42731.16
498.50	42712.44
498.67	42969.90
498.85	43047.13
499.03	43297.57
499.20	43533.96
499.38	43707.16
499.56	44081.65
499.73	44147.18
499.91	44346.13
500.08	44655.08
500.26	44062.93
500.44	44624.65
500.61	44744.02
500.79	44334.43
500.97	45254.26
501.14	45511.72
501.32	45338.52
501.49	45411.07
501.67	45593.64
501.84	45804.28
502.02	45698.96
502.20	46265.37
502.37	46330.90
502.55	46232.60
502.72	46536.87
502.90	46405.80
503.07	46099.19
503.25	46763.90
503.43	46677.30
503.60	47082.22
503.78	47269.46
503.95	47384.15
504.13	47683.73
504.30	47952.90
504.48	47337.33
504.65	47711.82
504.83	48130.78
505.01	48467.81
505.18	48018.43
505.36	48568.46
505.53	48715.91
505.71	48322.70
505.88	48814.21
506.06	48729.95
506.23	49418.07
506.41	49088.06
506.58	49294.02
506.76	49617.02
506.93	49565.52
507.11	49249.55
507.28	49499.99
507.46	49553.82
507.63	49673.19
507.81	50047.68
507.98	50068.74
508.16	50223.22
508.33	50071.08
508.50	50209.17
508.68	50611.74
508.85	50717.07
509.03	50443.23
509.20	51054.11
509.38	51248.37
509.55	51196.88
509.73	51147.73
509.90	51393.48
510.08	51129.00
510.25	51496.47
510.42	51681.37
510.60	51718.82
510.77	51845.21
510.95	51889.68
511.12	51763.29
511.30	51948.19
511.47	51995.00
511.64	52044.15
511.82	52648.01
511.99	52186.92
512.17	52652.69
512.34	52839.93
512.51	52671.42
512.69	52598.86
512.86	52734.61
513.04	52816.53
513.21	53247.19
513.38	53418.05
513.56	53216.76
513.73	53041.22
513.90	53186.33
514.08	52942.92
514.25	53324.43
514.43	53560.82
514.60	53741.04
514.77	53822.96
514.95	54028.93
515.12	53710.61
515.29	53787.85
515.47	53951.69
515.64	54101.48
515.81	54110.85
515.99	54454.90
516.16	54307.45
516.33	54611.72
516.51	54583.63
516.68	54506.40
516.85	54499.37
517.03	54775.56
517.20	54939.39
517.37	54646.83
517.54	55018.97
517.72	55117.28
517.89	55002.59
518.06	54986.21
518.24	54958.12
518.41	55086.85
518.58	55199.19
518.75	54927.69
518.93	55613.47
519.10	55547.93
519.27	55643.90
519.45	55444.95
519.62	55372.39
519.79	55540.91
519.96	55580.70
520.14	55789.01
520.31	55660.28
520.48	55990.30
520.65	55978.59
520.83	56112.00
521.00	56170.52
521.17	55901.36
521.34	56254.78
521.52	56605.86
521.69	56317.97
521.86	56575.43
522.03	56467.76
522.20	56603.52
522.38	56720.54
522.55	56631.60
522.72	56652.67
522.89	56652.67
523.07	56938.21
523.24	56952.26
523.41	56982.68
523.58	56664.37
523.75	56945.23
523.92	57221.42
524.10	57057.58
524.27	57310.36
524.44	57261.21
524.61	57602.92
524.78	57509.30
524.96	57490.58
525.13	57282.27
525.30	57574.84
525.47	57483.56
525.64	57488.24
525.81	57453.13
525.98	57748.04
526.16	57900.17
526.33	57935.28
526.50	58087.42
526.67	57684.84
526.84	58024.22
527.01	57954.00
527.18	58241.89
527.36	57808.89
527.53	58323.81
527.70	58504.03
527.87	58550.84
528.04	58174.02
528.21	58225.51
528.38	58108.48
528.55	58417.43
528.72	58321.47
528.89	58567.23
529.07	58471.26
529.24	58466.58
529.41	58710.00
529.58	58571.91
529.75	58485.31
529.92	58656.17
530.09	58721.70
530.26	58981.50
530.43	59119.59
530.60	58665.53
530.77	58951.07
530.94	59154.70
531.11	58915.96
531.28	59030.65
531.46	59255.34
531.63	59143.00
531.80	59365.35
531.97	59489.40
532.14	59517.48
532.31	59178.10
532.48	59566.63
532.65	59639.19
532.82	59344.28
532.99	59552.59
533.16	59316.20
533.33	59693.02
533.50	59924.74
533.67	59653.23
533.84	59592.38
534.01	59791.33
534.18	59650.89
534.35	59910.69
534.52	59571.32
534.69	59903.67
534.86	60018.36
535.03	59739.83
535.20	60179.85
535.37	60254.75
535.54	60207.94
535.71	59908.35
535.88	60170.49
536.05	60310.92
536.22	60189.22
536.38	60247.73
536.55	60395.18
536.72	60481.78
536.89	60200.92
537.06	60191.56
537.23	60294.54
537.40	60388.16
537.57	60472.42
537.74	60322.63
537.91	60692.43
538.08	60430.29
538.25	60598.81
538.42	60645.62
538.59	60659.66
538.75	60601.15
538.92	60741.58
539.09	60931.17
539.26	60657.32
539.43	60919.46
539.60	61214.37
539.77	60914.78
539.94	61038.83
540.11	60935.85
540.28	61216.71
540.44	60994.36
540.61	60926.49
540.78	61001.38
540.95	61190.97
541.12	61205.01
541.29	61219.05
541.46	61352.46
541.62	61364.17
541.79	61326.72
541.96	61158.20
542.13	61322.04
542.30	61345.44
542.47	61488.21
542.63	61612.26
542.80	61574.81
542.97	61663.75
543.14	62061.64
543.31	61907.17
543.48	61811.21
543.64	61932.92
543.81	62049.94
543.98	62138.88
544.15	62178.67
544.32	62192.72
544.48	62181.01
544.65	61998.45
544.82	62005.47
544.99	61855.68
545.16	61946.96
545.32	62183.35
545.49	62209.10
545.66	62658.48
545.83	62733.38
546.00	62691.25
546.16	62386.98
546.33	62127.18
546.50	62169.31
546.67	62234.84
546.83	62085.05
547.00	62295.70
547.17	62248.89
547.34	62298.04
547.50	62429.11
547.67	62632.74
547.84	62506.35
548.00	62670.18
548.17	62576.56
548.34	62398.68
548.51	62588.27
548.67	62766.15
548.84	62691.25
549.01	62714.65
549.18	62768.49
549.34	62759.12
549.51	62721.68
549.68	62475.92
549.84	62747.42
550.01	62801.25
550.18	62712.31
550.34	62747.42
550.51	63056.37
550.68	62979.14
550.84	62628.05
551.01	63103.18
551.18	62850.41
551.34	62817.64
551.51	62901.90
551.68	62976.79
551.84	63117.23
552.01	62960.41
552.18	63063.39
552.34	63098.50
552.51	63227.23
552.68	63009.56
552.84	63075.10
553.01	63271.70
553.18	63311.49
553.34	63248.30
553.51	63377.03
553.67	63395.75
553.84	63636.83
554.01	63578.31
554.17	63407.45
554.34	63262.34
554.51	63236.59
554.67	63465.97
554.84	63393.41
555.00	63395.75
555.17	63419.16
555.33	63508.10
555.50	63561.93
555.67	63575.97
555.83	63587.67
556.00	63304.47
556.16	63655.55
556.33	63566.61
556.50	63622.78
556.66	63716.40
556.83	63685.98
556.99	63772.58
557.16	63744.49
557.32	63781.94
557.49	63861.52
557.65	63592.36
557.82	63700.02
557.98	63812.37
558.15	63896.62
558.32	63812.37
558.48	63793.64
558.65	63793.64
558.81	63955.14
558.98	64130.68
559.14	63922.37
559.31	63814.71
559.47	63903.65
559.64	64067.48
559.80	64032.38
559.97	64221.96
560.13	63840.45
560.30	64154.08
560.46	64165.79
560.63	64186.85
560.79	64207.92
560.96	64205.58
561.12	64060.46
561.29	64086.21
561.45	64147.06
561.61	64334.31
561.78	64100.25
561.94	64385.80
562.11	64088.55
562.27	64294.52
562.44	64301.54
562.60	64296.86
562.77	64418.56
562.93	64142.38
563.10	64310.90
563.26	64172.81
563.42	64516.87
563.59	64362.39
563.75	64320.26
563.92	64399.84
564.08	64240.68
564.24	64495.80
564.41	64406.86
564.57	64542.61
564.74	64369.41
564.90	64495.80
565.07	64472.40
565.23	64685.39
565.39	64577.72
565.56	64584.74
565.72	64420.90
565.88	64491.12
566.05	64507.50
566.21	64453.67
566.38	64521.55
566.54	64460.69
566.70	64807.09
566.87	64767.30
567.03	64767.30
567.19	64947.53
567.36	64633.89
567.52	64542.61
567.68	64795.39
567.85	64636.23
568.01	64484.10
568.17	64526.23
568.34	64694.75
568.50	64771.99
568.66	64891.35
568.83	64898.37
568.99	64575.38
569.15	64753.26
569.32	64554.32
569.48	64640.92
569.64	64690.07
569.81	64708.79
569.97	64755.60
570.13	64926.46
570.30	64741.56
570.46	64760.28
570.62	64956.89
570.78	64732.20
570.95	65003.70
571.11	64867.95
571.27	64673.68
571.43	64790.71
571.60	64867.95
571.76	64687.73
571.92	64811.77
572.09	64870.29
572.25	64994.34
572.41	64940.50
572.57	64940.50
572.74	65041.15
572.90	64748.58
573.06	64858.59
573.22	64870.29
573.38	65076.26
573.55	64961.57
573.71	65102.00
573.87	65106.68
574.03	64975.61
574.20	65109.02
574.36	65045.83
574.52	64961.57
574.68	65076.26
574.84	65144.13
575.01	64996.68
575.17	65144.13
575.33	65078.60
575.49	65226.05
575.65	65310.31
575.82	65350.10
575.98	65024.76
576.14	65113.70
576.30	65148.81
576.46	64896.03
576.62	65153.49
576.79	65050.51
576.95	64987.31
577.11	65057.53
577.27	65230.73
577.43	65153.49
577.59	65165.20
577.75	65310.31
577.92	65078.60
578.08	65120.73
578.24	64984.97
578.40	65202.64
578.56	65153.49
578.72	65130.09
578.88	65450.74
579.04	65289.24
579.21	65324.35
579.37	65401.59
579.53	65282.22
579.69	65167.54
579.85	65151.15
580.01	65132.43
580.17	64891.35
580.33	65052.85
580.49	65092.64
580.65	65415.63
580.82	65336.05
580.98	65244.77
581.14	65204.98
581.30	65408.61
581.46	65322.01
581.62	65223.71
581.78	65109.02
581.94	65296.27
582.10	65099.66
582.26	65357.12
582.42	65366.48
582.58	65462.44
582.74	65354.78
582.90	65434.36
583.06	65354.78
583.22	65167.54
583.38	65144.13
583.54	65209.67
583.70	65392.23
583.86	65443.72
584.02	65155.83
584.18	65296.27
584.34	65380.52
584.50	65476.49
584.66	65354.78
584.82	65324.35
584.98	65403.93
585.14	65331.37
585.30	65307.97
585.46	65478.83
585.62	65289.24
585.78	65535.00
585.94	65317.33
586.10	65286.90
586.26	65378.18
586.42	65469.46
586.58	65535.00
586.74	65467.12
586.90	65270.52
587.06	65336.05
587.22	65478.83
587.38	65233.07
587.54	65535.00
587.70	65535.00
587.86	65535.00
588.02	65535.00
588.18	65535.00
588.34	65535.00
588.49	65535.00
