SpectraSuite Data File
++++++++++++++++++++++++++++++++++++
Date: Fri Oct 04 11:39:47 GMT-05:00 2013
User: price-jones
Dark Spectrum Present: No
Reference Spectrum Present: No
Number of Sampled Component Spectra: 1
Spectrometers: USB2+H05261
Integration Time (usec): 100000 (USB2+H05261)
Spectra Averaged: 1 (USB2+H05261)
Boxcar Smoothing: 0 (USB2+H05261)
Correct for Electrical Dark: No (USB2+H05261)
Strobe/Lamp Enabled: No (USB2+H05261)
Correct for Detector Non-linearity: No (USB2+H05261)
Correct for Stray Light: No (USB2+H05261)
Number of Pixels in Processed Spectrum: 2048
>>>>>Begin Processed Spectral Data<<<<<
365.73	88.94
365.92	88.94
366.12	88.94
366.32	0.00
366.52	0.00
366.72	0.00
366.91	0.00
367.11	0.00
367.31	23.41
367.51	0.00
367.70	0.00
367.90	0.00
368.10	0.00
368.30	0.00
368.49	0.00
368.69	0.00
368.89	0.00
369.09	0.00
369.28	0.00
369.48	0.00
369.68	0.00
369.87	11.70
370.07	49.15
370.27	98.30
370.47	198.95
370.66	463.43
370.86	589.82
371.06	535.98
371.25	606.20
371.45	599.18
371.65	564.07
371.84	557.05
372.04	592.16
372.24	713.86
372.44	552.37
372.63	692.80
372.83	683.44
373.03	627.26
373.22	645.99
373.42	706.84
373.62	622.58
373.81	760.67
374.01	748.97
374.21	781.74
374.40	760.67
374.60	650.67
374.79	690.46
374.99	753.65
375.19	678.76
375.38	767.70
375.58	777.06
375.78	791.10
375.97	711.52
376.17	840.25
376.37	795.78
376.56	826.21
376.76	858.98
376.95	720.88
377.15	882.38
377.35	807.48
377.54	910.47
377.74	861.32
377.93	821.53
378.13	807.48
378.33	868.34
378.52	891.74
378.72	922.17
378.91	844.93
379.11	896.43
379.31	847.27
379.50	840.25
379.70	873.02
379.89	936.21
380.09	976.00
380.28	828.55
380.48	1011.11
380.68	1032.18
380.87	894.08
381.07	1048.56
381.26	866.00
381.46	1048.56
381.65	997.07
381.85	1015.79
382.04	987.71
382.24	1053.24
382.43	1020.47
382.63	1078.99
382.83	1050.90
383.02	1212.40
383.22	1214.74
383.41	1018.13
383.61	1095.37
383.80	1071.97
384.00	1114.10
384.19	1100.05
384.39	1135.16
384.58	1100.05
384.78	1177.29
384.97	1193.67
385.17	1214.74
385.36	1097.71
385.56	1186.65
385.75	1149.20
385.95	1135.16
386.14	1238.14
386.34	1170.27
386.53	1242.82
386.72	1188.99
386.92	1196.01
387.11	1228.78
387.31	1289.64
387.50	1184.31
387.70	1289.64
387.89	1249.85
388.09	1308.36
388.28	1299.00
388.48	1320.06
388.67	1376.24
388.86	1334.11
389.06	1385.60
389.25	1362.19
389.45	1378.58
389.64	1350.49
389.84	1458.15
390.03	1439.43
390.22	1530.71
390.42	1439.43
390.61	1451.13
390.81	1394.96
391.00	1530.71
391.19	1481.56
391.39	1533.05
391.58	1547.09
391.78	1554.12
391.97	1495.60
392.16	1521.35
392.36	1511.99
392.55	1497.94
392.75	1689.87
392.94	1591.56
393.13	1596.25
393.33	1589.22
393.52	1610.29
393.71	1720.29
393.91	1629.01
394.10	1643.06
394.29	1722.63
394.49	1645.40
394.68	1689.87
394.88	1703.91
395.07	1771.79
395.26	1680.50
395.46	1856.04
395.65	1778.81
395.84	1748.38
396.04	1891.15
396.23	1762.42
396.42	1856.04
396.62	1905.20
396.81	1867.75
397.00	1947.33
397.19	1977.75
397.39	1944.99
397.58	1959.03
397.77	2001.16
397.97	1982.43
398.16	1888.81
398.35	2029.24
398.55	2050.31
398.74	1975.41
398.93	2101.80
399.12	2139.25
399.32	1973.07
399.51	1949.67
399.70	2162.66
399.90	2218.83
400.09	2200.10
400.28	2272.66
400.47	2289.04
400.67	2312.45
400.86	2277.34
401.05	2225.85
401.24	2228.19
401.44	2354.58
401.63	2275.00
401.82	2417.77
402.01	2392.03
402.21	2307.77
402.40	2389.69
402.59	2392.03
402.78	2420.11
402.97	2483.31
403.17	2499.69
403.36	2495.01
403.55	2586.29
403.74	2609.70
403.93	2689.28
404.13	2607.36
404.32	2555.86
404.51	2562.89
404.70	2630.76
404.89	2541.82
405.09	2642.46
405.28	2700.98
405.47	2794.60
405.66	2883.54
405.85	2920.99
406.05	2724.38
406.24	2913.97
406.43	2860.13
406.62	2939.71
406.81	2935.03
407.00	2904.60
407.20	2773.53
407.39	2906.95
407.58	3082.49
407.77	3068.44
407.96	3002.91
408.15	3030.99
408.34	2953.76
408.54	3117.59
408.73	3185.47
408.92	3194.83
409.11	3173.77
409.30	3330.58
409.49	3129.30
409.68	3183.13
409.87	3279.09
410.07	3318.88
410.26	3377.39
410.45	3557.61
410.64	3487.40
410.83	3471.01
411.02	3431.23
411.21	3625.49
411.40	3513.14
411.59	3548.25
411.78	3637.19
411.98	3639.53
412.17	3684.00
412.36	3702.73
412.55	3801.03
412.74	3815.07
412.93	3822.09
413.12	3822.09
413.31	3990.61
413.50	3983.59
413.69	3934.44
413.88	4058.49
414.07	4063.17
414.26	4100.62
414.45	3920.40
414.64	4109.98
414.83	4290.20
415.02	4227.01
415.22	4353.40
415.41	4313.61
415.60	4353.40
415.79	4594.47
415.98	4479.79
416.17	4493.83
416.36	4580.43
416.55	4535.96
416.74	4610.86
416.93	4753.63
417.12	4603.83
417.31	4798.10
417.50	4896.40
417.69	4922.15
417.88	4917.47
418.07	4917.47
418.26	4884.70
418.45	5022.79
418.64	5121.09
418.83	5107.05
419.02	5090.67
419.21	5135.14
419.39	5097.69
419.58	5081.30
419.77	5027.47
419.96	5217.05
420.15	5364.51
420.34	5210.03
420.53	5291.95
420.72	5432.38
420.91	5554.09
421.10	5565.79
421.29	5577.50
421.48	5301.31
421.67	5530.69
421.86	5380.89
422.05	5528.35
422.24	5678.14
422.43	5455.79
422.61	5664.10
422.80	5589.20
422.99	5778.78
423.18	5820.91
423.37	5975.39
423.56	5666.44
423.75	5638.35
423.94	5636.01
424.13	5282.59
424.32	5451.11
424.50	5970.71
424.69	5823.25
424.88	5846.66
425.07	5767.08
425.26	5729.63
425.45	5668.78
425.64	5818.57
425.83	5788.14
426.01	5689.84
426.20	5750.70
426.39	5764.74
426.58	5832.62
426.77	5856.02
426.96	5942.62
427.15	5856.02
427.33	6017.52
427.52	6015.18
427.71	6153.27
427.90	6008.16
428.09	6129.86
428.28	6305.40
428.46	6487.96
428.65	6345.19
428.84	6352.21
429.03	6497.33
429.22	6085.39
429.40	6413.07
429.59	6466.90
429.78	6097.10
429.97	6146.25
430.16	6415.41
430.34	6513.71
430.53	6560.52
430.72	6548.82
430.91	6459.88
431.10	6635.42
431.28	6502.01
431.47	6682.23
431.66	6834.36
431.85	6658.82
432.03	6808.62
432.22	7047.35
432.41	6876.49
432.60	6860.11
432.79	6970.12
432.97	7047.35
433.16	7140.97
433.35	6998.20
433.54	7138.63
433.72	7215.87
433.91	6956.07
434.10	7089.48
434.28	7105.87
434.47	7262.68
434.66	7307.15
434.85	7412.48
435.03	7276.73
435.22	7538.87
435.41	7852.50
435.59	7873.56
435.78	7861.86
435.97	7747.17
436.16	7700.36
436.34	7737.81
436.53	7604.40
436.72	7953.14
436.90	7592.70
437.09	7812.71
437.28	7335.24
437.46	7854.84
437.65	7850.16
437.84	7955.48
438.02	7880.58
438.21	8116.98
438.40	7691.00
438.58	8072.51
438.77	8196.56
438.96	8140.38
439.14	8327.63
439.33	8313.58
439.52	8428.27
439.70	8397.84
439.89	8765.31
440.08	8489.12
440.26	8692.75
440.45	8730.20
440.63	8992.34
440.82	8950.21
441.01	8781.69
441.19	8966.59
441.38	9034.47
441.57	9280.22
441.75	9055.53
441.94	9537.68
442.12	9350.44
442.31	9575.13
442.50	9497.89
442.68	9165.54
442.87	9483.85
443.05	9647.69
443.24	9797.48
443.43	9628.96
443.61	9785.78
443.80	10078.35
443.98	9584.49
444.17	9657.05
444.35	9767.06
444.54	9837.27
444.73	9813.87
444.91	9958.98
445.10	9715.56
445.28	9778.76
445.47	9764.72
445.65	9696.84
445.84	9895.78
446.02	10125.16
446.21	9933.23
446.39	9935.57
446.58	10167.29
446.77	9968.34
446.95	9830.25
447.14	9987.07
447.32	10090.05
447.51	10078.35
447.69	9891.10
447.88	10134.52
448.06	10120.48
448.25	9947.28
448.43	10207.08
448.62	10167.29
448.80	10090.05
448.99	10319.42
449.17	10307.72
449.36	10160.27
449.54	10312.40
449.73	10628.37
449.91	10677.52
450.10	10438.79
450.28	10689.23
450.46	10616.67
450.65	10824.98
450.83	10897.53
451.02	10628.37
451.20	10874.13
451.39	10906.90
451.57	10883.49
451.76	10878.81
451.94	10892.85
452.13	11162.01
452.31	10998.18
452.49	10918.60
452.68	11014.56
452.86	11094.14
453.05	11225.21
453.23	11337.56
453.42	11281.38
453.60	11068.39
453.78	11410.11
453.97	11201.80
454.15	11335.21
454.34	11250.96
454.52	11424.15
454.70	11494.37
454.89	11604.38
455.07	11749.49
455.26	11585.65
455.44	11871.20
455.62	11803.32
455.81	11620.76
455.99	11967.16
456.17	12004.61
456.36	11946.09
456.54	12320.58
456.73	12079.50
456.91	12568.68
457.09	12388.46
457.28	12379.09
457.46	12325.26
457.64	12449.31
457.83	12498.46
458.01	12285.47
458.19	12713.79
458.38	12662.30
458.56	12821.45
458.74	12774.64
458.93	12641.23
459.11	12826.14
459.29	12835.50
459.48	12926.78
459.66	12961.89
459.84	13048.49
460.03	13289.56
460.21	13078.91
460.39	13156.15
460.57	13048.49
460.76	13224.03
460.94	13378.50
461.12	13181.90
461.31	13556.38
461.49	13352.76
461.67	13392.55
461.85	13598.51
462.04	13762.35
462.22	14015.13
462.40	13982.36
462.59	13523.62
462.77	13811.50
462.95	14012.79
463.13	13745.97
463.32	14066.62
463.50	13973.00
463.68	13877.04
463.86	13893.42
464.05	13958.96
464.23	14026.83
464.41	14094.71
464.59	14185.99
464.78	14382.59
464.96	14075.98
465.14	14001.08
465.32	14384.93
465.50	14560.47
465.69	14284.29
465.87	14190.67
466.05	14242.16
466.23	14436.42
466.41	14539.41
466.60	15037.94
466.78	14618.99
466.96	14284.29
467.14	14537.07
467.32	14932.62
467.51	14794.53
467.69	14380.25
467.87	14876.44
468.05	15030.92
468.23	14970.07
468.41	14448.13
468.60	14897.51
468.78	15403.07
468.96	14972.41
469.14	15344.55
469.32	15559.88
469.50	15138.58
469.69	15459.24
469.87	15789.25
470.05	15733.08
470.23	15721.38
470.41	15793.94
470.59	15805.64
470.77	15925.00
470.95	15988.20
471.14	16409.50
471.32	16030.33
471.50	16290.13
471.68	16383.75
471.86	16404.81
472.04	16489.07
472.22	16929.09
472.40	16402.47
472.58	16643.55
472.77	16636.53
472.95	17053.14
473.13	17305.92
473.31	16606.10
473.49	16961.86
473.67	16861.22
473.85	17097.61
474.03	17420.61
474.21	17319.96
474.39	17633.60
474.57	17750.62
474.75	17926.16
474.93	18478.53
475.12	18162.56
475.30	18045.53
475.48	17874.67
475.66	18260.86
475.84	18523.00
476.02	18553.43
476.20	18263.20
476.38	18939.62
476.56	18871.74
476.74	19208.78
476.92	18916.21
477.10	19328.14
477.28	19482.62
477.46	19239.20
477.64	19599.65
477.82	19833.70
478.00	20217.55
478.18	20156.69
478.36	20498.41
478.54	20585.01
478.72	20706.72
478.90	20692.68
479.08	21085.89
479.26	21001.63
479.44	21261.43
479.62	21617.19
479.80	21645.27
479.98	21795.07
480.16	22160.19
480.34	21841.88
480.52	22321.69
480.70	22757.03
480.88	22518.29
481.06	22628.30
481.24	22462.12
481.41	22829.59
481.59	23241.52
481.77	23768.14
481.95	23955.38
482.13	24149.65
482.31	23749.42
482.49	24416.47
482.67	24397.74
482.85	24606.05
483.03	24900.96
483.21	25333.96
483.39	25446.30
483.57	25486.09
483.74	25116.29
483.92	25963.56
484.10	25848.88
484.28	26087.61
484.46	26480.82
484.64	26986.38
484.82	26391.88
485.00	27377.25
485.18	27257.88
485.35	27592.58
485.53	27578.53
485.71	27812.59
485.89	28353.25
486.07	27456.82
486.25	28294.74
486.43	28692.63
486.61	28629.43
486.78	29270.74
486.96	29448.62
487.14	29617.14
487.32	29490.75
487.50	29879.28
487.68	30239.72
487.85	30637.61
488.03	30897.41
488.21	31307.01
488.39	31496.59
488.57	31754.05
488.75	31344.45
488.92	32065.34
489.10	32444.51
489.28	32517.06
489.46	33069.43
489.64	32615.37
489.81	33560.94
489.99	33184.12
490.17	33390.08
490.35	34066.50
490.53	33806.70
490.70	34438.64
490.88	34511.20
491.06	34965.26
491.24	34857.60
491.41	34857.60
491.59	35267.19
491.77	35510.61
491.95	36025.53
492.13	36041.91
492.30	36177.66
492.48	36055.95
492.66	36074.68
492.84	36566.19
493.01	37081.11
493.19	36973.44
493.37	37729.44
493.54	37549.21
493.72	37736.46
493.90	37977.53
494.08	38527.56
494.25	38794.38
494.43	38576.71
494.61	39435.69
494.79	39367.81
494.96	38892.68
495.14	39873.37
495.32	39847.62
495.49	40123.80
495.67	39995.07
495.85	40612.98
496.02	40451.48
496.20	41172.36
496.38	41031.93
496.55	41256.62
496.73	41893.25
496.91	41778.56
497.09	42323.91
497.26	42408.17
497.44	41556.21
497.62	41947.08
497.79	42916.06
497.97	42263.05
498.14	42773.29
498.32	43442.68
498.50	43899.09
498.67	44315.70
498.85	44067.61
499.03	43564.39
499.20	44259.53
499.38	44402.30
499.56	44669.12
499.73	44666.78
499.91	45008.50
500.08	45191.06
500.26	44746.36
500.44	45546.82
500.61	45310.43
500.79	45083.40
500.97	45708.32
501.14	46026.63
501.32	46181.11
501.49	46426.87
501.67	46099.19
501.84	46492.40
502.02	46389.42
502.20	46763.90
502.37	46864.55
502.55	47416.91
502.72	47224.99
502.90	46941.78
503.07	46902.00
503.25	47552.66
503.43	47452.02
503.60	48254.82
503.78	48090.99
503.95	48006.73
504.13	48046.52
504.30	48154.18
504.48	48266.53
504.65	48233.76
504.83	48811.87
505.01	48940.60
505.18	48800.17
505.36	49354.88
505.53	49071.67
505.71	49162.95
505.88	49598.29
506.06	49174.66
506.23	49549.14
506.41	49523.40
506.58	49965.76
506.76	49752.77
506.93	50141.30
507.11	49745.75
507.28	50593.02
507.46	50244.28
507.63	50483.01
507.81	50988.57
507.98	50637.49
508.16	50614.08
508.33	50637.49
508.50	50777.92
508.68	51023.68
508.85	51398.16
509.03	51283.48
509.20	51859.25
509.38	51686.05
509.55	51461.36
509.73	51695.41
509.90	51489.45
510.08	51849.89
510.25	51819.46
510.42	51831.16
510.60	52598.86
510.77	52474.81
510.95	52332.04
511.12	52334.38
511.30	52327.36
511.47	52559.07
511.64	52884.40
511.82	53207.40
511.99	52973.34
512.17	53165.27
512.34	52821.21
512.51	53352.51
512.69	53506.99
512.86	53350.17
513.04	53607.63
513.21	53492.94
513.38	53626.35
513.56	54007.86
513.73	53717.64
513.90	53696.57
514.08	53649.76
514.25	54216.17
514.43	54265.32
514.60	54370.64
514.77	54401.07
514.95	54457.24
515.12	54330.86
515.29	54372.99
515.47	54724.07
515.64	54541.50
515.81	54553.21
515.99	54681.94
516.16	54993.23
516.33	54944.08
516.51	55374.73
516.68	54901.95
516.85	54908.97
517.03	55091.53
517.20	55505.80
517.37	55402.82
517.54	55334.95
517.72	55451.97
517.89	55351.33
518.06	55533.89
518.24	55121.96
518.41	55393.46
518.58	55711.77
518.75	55800.71
518.93	56107.32
519.10	55779.65
519.27	56123.71
519.45	56048.81
519.62	55964.55
519.79	56053.49
519.96	56350.74
520.14	56568.41
520.31	56292.22
520.48	56413.93
520.65	56432.66
520.83	56673.73
521.00	56451.38
521.17	56369.46
521.34	56549.68
521.52	56734.59
521.69	56765.01
521.86	56910.13
522.03	57008.43
522.20	57254.18
522.38	57071.62
522.55	57226.10
522.72	57057.58
522.89	57146.52
523.07	57233.12
523.24	57331.42
523.41	57375.89
523.58	57392.28
523.75	57546.75
523.92	57481.22
524.10	57516.32
524.27	57794.85
524.44	57799.53
524.61	57984.43
524.78	57942.30
524.96	57836.98
525.13	57902.51
525.30	58152.95
525.47	58159.97
525.64	57977.41
525.81	58085.07
525.98	58349.56
526.16	58468.92
526.33	58337.85
526.50	58134.23
526.67	58159.97
526.84	58375.30
527.01	58305.09
527.18	58424.45
527.36	58684.25
527.53	58623.40
527.70	58979.16
527.87	58843.41
528.04	58492.33
528.21	58611.70
528.38	58759.15
528.55	58836.39
528.72	58866.81
528.89	59194.49
529.07	58976.82
529.24	59079.80
529.41	58986.18
529.58	59000.22
529.75	59054.06
529.92	59140.66
530.09	59248.32
530.26	59264.70
530.43	59494.08
530.60	59231.94
530.77	59318.54
530.94	59372.37
531.11	59344.28
531.28	59381.73
531.46	59470.67
531.63	59627.49
531.80	59615.79
531.97	59896.65
532.14	59833.46
532.31	59709.41
532.48	59749.20
532.65	59824.09
532.82	59676.64
532.99	59838.14
533.16	59803.03
533.33	59962.18
533.50	60339.01
533.67	60261.77
533.84	59934.10
534.01	60140.07
534.18	60149.43
534.35	60395.18
534.52	60067.51
534.69	60285.18
534.86	60446.68
535.03	60261.77
535.20	60544.98
535.37	60615.19
535.54	60488.80
535.71	60390.50
535.88	60451.36
536.05	60477.10
536.22	60678.39
536.38	60898.40
536.55	60720.52
536.72	60612.85
536.89	60711.16
537.06	60774.35
537.23	60626.90
537.40	60809.46
537.57	60720.52
537.74	60809.46
537.91	61317.35
538.08	61099.68
538.25	61216.71
538.42	60973.30
538.59	61197.99
538.75	60802.44
538.92	61155.86
539.09	61275.22
539.26	61357.14
539.43	61446.08
539.60	61188.63
539.77	61403.95
539.94	61343.10
540.11	61352.46
540.28	61525.66
540.44	61598.22
540.61	61336.08
540.78	61544.39
540.95	61675.46
541.12	61530.34
541.29	61755.03
541.46	61797.16
541.62	61675.46
541.79	61684.82
541.96	61670.78
542.13	61506.94
542.30	61820.57
542.47	61904.83
542.63	61895.47
542.80	62003.13
542.97	62269.95
543.14	62173.99
543.31	62244.21
543.48	62085.05
543.64	62379.96
543.81	62328.47
543.98	62398.68
544.15	62475.92
544.32	62639.76
544.48	62459.54
544.65	62274.63
544.82	62262.93
544.99	62206.76
545.16	62499.33
545.32	62358.89
545.49	62883.17
545.66	62944.03
545.83	63000.20
546.00	63070.42
546.16	62894.88
546.33	62525.07
546.50	62564.86
546.67	62592.95
546.83	62550.82
547.00	62642.10
547.17	62705.29
547.34	62962.75
547.50	62997.86
547.67	62864.45
547.84	62831.68
548.00	62953.39
548.17	62997.86
548.34	62906.58
548.51	63117.23
548.67	63131.27
548.84	63168.72
549.01	63042.33
549.18	62929.98
549.34	63061.05
549.51	62962.75
549.68	63039.99
549.84	62958.07
550.01	63100.84
550.18	62948.71
550.34	63187.44
550.51	63297.45
550.68	63475.33
550.84	63128.93
551.01	63360.64
551.18	63245.96
551.34	63243.62
551.51	63164.04
551.68	63491.71
551.84	63421.50
552.01	63227.23
552.18	63503.42
552.34	63627.46
552.51	63547.89
552.68	63288.09
552.84	63585.33
553.01	63674.27
553.18	63519.80
553.34	63590.01
553.51	63522.14
553.67	63725.77
553.84	63824.07
554.01	63805.34
554.17	63695.34
554.34	63849.81
554.51	63728.11
554.67	63674.27
554.84	63908.33
555.00	63693.00
555.17	63999.61
555.33	63852.15
555.50	63842.79
555.67	63824.07
555.83	63676.61
556.00	63866.20
556.16	64086.21
556.33	64055.78
556.50	63987.91
556.66	64053.44
556.83	64013.65
556.99	64236.00
557.16	64385.80
557.32	63994.93
557.49	64107.27
557.65	64039.40
557.82	64055.78
557.98	64116.64
558.15	64137.70
558.32	64296.86
558.48	64441.97
558.65	64406.86
558.81	64228.98
558.98	64381.12
559.14	64285.15
559.31	64221.96
559.47	64226.64
559.64	64444.31
559.80	64236.00
559.97	64404.52
560.13	64404.52
560.30	64516.87
560.46	64390.48
560.63	64601.13
560.79	64512.19
560.96	64427.93
561.12	64306.22
561.29	64547.29
561.45	64530.91
561.61	64448.99
561.78	64603.47
561.94	64671.34
562.11	64652.62
562.27	64654.96
562.44	64570.70
562.60	64650.28
562.77	64708.79
562.93	64481.76
563.10	64713.47
563.26	64453.67
563.42	64900.71
563.59	64678.36
563.75	64874.97
563.92	65015.40
564.08	64654.96
564.24	64687.73
564.41	64645.60
564.57	64743.90
564.74	64617.51
564.90	64779.01
565.07	64933.48
565.23	64954.55
565.39	64905.40
565.56	64945.18
565.72	64750.92
565.88	64832.84
566.05	64832.84
566.21	64804.75
566.38	64863.27
566.54	64933.48
566.70	65125.41
566.87	65001.36
567.03	65062.21
567.19	65167.54
567.36	65027.10
567.52	65045.83
567.68	64984.97
567.85	64914.76
568.01	65120.73
568.17	64893.69
568.34	64982.63
568.50	65071.57
568.66	65118.38
568.83	65263.50
568.99	64989.66
569.15	64910.08
569.32	65087.96
569.48	64900.71
569.64	65204.98
569.81	64835.18
569.97	65041.15
570.13	65169.88
570.30	65165.20
570.46	65102.00
570.62	65083.28
570.78	65015.40
570.95	64832.84
571.11	64860.93
571.27	65139.45
571.43	65066.89
571.60	65120.73
571.76	65003.70
571.92	65209.67
572.09	65457.76
572.25	65387.55
572.41	65181.58
572.57	65307.97
572.74	65291.58
572.90	65249.45
573.06	65251.80
573.22	65162.85
573.38	65368.82
573.55	65352.44
573.71	65511.59
573.87	65394.57
574.03	65293.92
574.20	65443.72
574.36	65403.93
574.52	65380.52
574.68	65228.39
574.84	65361.80
575.01	65504.57
575.17	65289.24
575.33	65305.63
575.49	65347.76
575.65	65436.70
575.82	65424.99
575.98	65520.96
576.14	65406.27
576.30	65516.28
576.46	65371.16
576.62	65312.65
576.79	65471.81
576.95	65263.50
577.11	65532.66
577.27	65535.00
577.43	65535.00
577.59	65343.08
577.75	65467.12
577.92	65087.96
578.08	65233.07
578.24	65336.05
578.40	65420.31
578.56	65422.65
578.72	65523.30
578.88	65535.00
579.04	65535.00
579.21	65535.00
579.37	65535.00
579.53	65535.00
579.69	65422.65
579.85	65455.42
580.01	65462.44
580.17	65331.37
580.33	65535.00
580.49	65535.00
580.65	65535.00
580.82	65535.00
580.98	65535.00
581.14	65532.66
581.30	65535.00
581.46	65511.59
581.62	65495.21
581.78	65366.48
581.94	65535.00
582.10	65535.00
582.26	65535.00
582.42	65535.00
582.58	65535.00
582.74	65535.00
582.90	65535.00
583.06	65535.00
583.22	65535.00
583.38	65506.91
583.54	65535.00
583.70	65506.91
583.86	65535.00
584.02	65535.00
584.18	65535.00
584.34	65535.00
584.50	65535.00
584.66	65535.00
584.82	65535.00
584.98	65535.00
585.14	65535.00
585.30	65410.95
585.46	65535.00
585.62	65532.66
585.78	65535.00
585.94	65436.70
586.10	65535.00
586.26	65535.00
586.42	65535.00
586.58	65535.00
586.74	65535.00
586.90	65535.00
587.06	65535.00
587.22	65535.00
587.38	65535.00
587.54	65535.00
587.70	65535.00
587.86	65535.00
588.02	65535.00
588.18	65535.00
588.34	65535.00
