SpectraSuite Data File
++++++++++++++++++++++++++++++++++++
Date: Fri Oct 04 11:40:06 GMT-05:00 2013
User: price-jones
Dark Spectrum Present: No
Reference Spectrum Present: No
Number of Sampled Component Spectra: 1
Spectrometers: USB2+H05261
Integration Time (usec): 100000 (USB2+H05261)
Spectra Averaged: 1 (USB2+H05261)
Boxcar Smoothing: 0 (USB2+H05261)
Correct for Electrical Dark: No (USB2+H05261)
Strobe/Lamp Enabled: No (USB2+H05261)
Correct for Detector Non-linearity: No (USB2+H05261)
Correct for Stray Light: No (USB2+H05261)
Number of Pixels in Processed Spectrum: 2048
>>>>>Begin Processed Spectral Data<<<<<
365.73	63.19
365.92	63.19
366.12	63.19
366.32	0.00
366.52	0.00
366.72	0.00
366.91	0.00
367.11	0.00
367.31	0.00
367.51	0.00
367.70	0.00
367.90	0.00
368.10	0.00
368.30	0.00
368.49	0.00
368.69	0.00
368.89	0.00
369.09	0.00
369.28	0.00
369.48	0.00
369.68	0.00
369.87	0.00
370.07	9.36
370.27	46.81
370.47	159.16
370.66	299.59
370.86	496.19
371.06	477.47
371.25	585.13
371.45	514.92
371.65	524.28
371.84	477.47
372.04	444.70
372.24	538.32
372.44	510.24
372.63	552.37
372.83	596.84
373.03	425.98
373.22	407.25
373.42	423.64
373.62	512.58
373.81	496.19
374.01	580.45
374.21	566.41
374.40	557.05
374.60	561.73
374.79	498.53
374.99	664.71
375.19	636.63
375.38	617.90
375.58	737.27
375.78	589.82
375.97	550.03
376.17	704.50
376.37	657.69
376.56	638.97
376.76	664.71
376.95	800.46
377.15	732.59
377.35	800.46
377.54	774.72
377.74	816.85
377.93	765.36
378.13	805.14
378.33	800.46
378.52	655.35
378.72	772.38
378.91	660.03
379.11	655.35
379.31	636.63
379.50	671.73
379.70	720.88
379.89	699.82
380.09	741.95
380.28	828.55
380.48	805.14
380.68	748.97
380.87	823.87
381.07	741.95
381.26	638.97
381.46	645.99
381.65	594.50
381.85	589.82
382.04	589.82
382.24	622.58
382.43	554.71
382.63	550.03
382.83	543.00
383.02	636.63
383.22	603.86
383.41	526.62
383.61	543.00
383.80	671.73
384.00	702.16
384.19	713.86
384.39	741.95
384.58	819.19
384.78	866.00
384.97	791.10
385.17	767.70
385.36	711.52
385.56	702.16
385.75	713.86
385.95	765.36
386.14	882.38
386.34	821.53
386.53	741.95
386.72	723.23
386.92	737.27
387.11	777.06
387.31	802.80
387.50	821.53
387.70	774.72
387.89	741.95
388.09	676.41
388.28	770.04
388.48	781.74
388.67	868.34
388.86	924.51
389.06	929.19
389.25	973.66
389.45	1022.81
389.64	1090.69
389.84	1048.56
390.03	861.32
390.22	1001.75
390.42	1027.50
390.61	1088.35
390.81	1076.65
391.00	1153.88
391.19	1240.48
391.39	1086.01
391.58	1043.88
391.78	1008.77
391.97	1006.43
392.16	933.87
392.36	863.66
392.55	730.25
392.75	568.75
392.94	554.71
393.13	526.62
393.33	580.45
393.52	697.48
393.71	880.04
393.91	919.83
394.10	929.19
394.29	1050.90
394.49	1039.20
394.68	1128.14
394.88	1210.06
395.07	1226.44
395.26	1212.40
395.46	1207.72
395.65	1200.69
395.84	1027.50
396.04	908.13
396.23	755.99
396.42	620.24
396.62	681.10
396.81	751.31
397.00	812.17
397.19	952.60
397.39	1158.57
397.58	1341.13
397.77	1432.41
397.97	1444.11
398.16	1434.75
398.35	1540.07
398.55	1451.13
398.74	1584.54
398.93	1619.65
399.12	1551.78
399.32	1600.93
399.51	1528.37
399.70	1636.03
399.90	1708.59
400.09	1692.21
400.28	1577.52
400.47	1755.40
400.67	1701.57
400.86	1760.08
401.05	1760.08
401.24	1879.45
401.44	1710.93
401.63	1811.57
401.82	1795.19
402.01	1856.04
402.21	1912.22
402.40	1799.87
402.59	1755.40
402.78	1741.36
402.97	1694.55
403.17	1717.95
403.36	1888.81
403.55	1849.02
403.74	1827.96
403.93	1863.07
404.13	1650.08
404.32	1631.35
404.51	1785.83
404.70	1795.19
404.89	1811.57
405.09	1947.33
405.28	1806.89
405.47	1757.74
405.66	1778.81
405.85	1842.00
406.05	1682.85
406.24	1755.40
406.43	1799.87
406.62	1827.96
406.81	1851.36
407.00	1811.57
407.20	1783.49
407.39	1713.27
407.58	1832.64
407.77	1902.86
407.96	1930.94
408.15	1963.71
408.34	2033.93
408.54	2069.03
408.73	2120.53
408.92	2097.12
409.11	1923.92
409.30	1940.30
409.49	1783.49
409.68	1701.57
409.87	1636.03
410.07	1792.85
410.26	1902.86
410.45	1888.81
410.64	2050.31
410.83	2127.55
411.02	2092.44
411.21	2141.59
411.40	2209.47
411.59	2193.08
411.78	2190.74
411.98	2176.70
412.17	2188.40
412.36	2122.87
412.55	2083.08
412.74	2113.50
412.93	2054.99
413.12	1961.37
413.31	2174.36
413.50	2253.94
413.69	2249.25
413.88	2214.15
414.07	2204.78
414.26	2244.57
414.45	2319.47
414.64	2218.83
414.83	2333.51
415.02	2235.21
415.22	2188.40
415.41	2410.75
415.60	2263.30
415.79	2415.43
415.98	2612.04
416.17	2448.20
416.36	2410.75
416.55	2429.48
416.74	2347.56
416.93	2356.92
417.12	2136.91
417.31	2211.81
417.50	2296.07
417.69	2401.39
417.88	2373.30
418.07	2324.15
418.26	2310.11
418.45	2324.15
418.64	2572.25
418.83	2478.63
419.02	2448.20
419.21	2546.50
419.39	2385.01
419.58	2172.02
419.77	2221.17
419.96	2310.11
420.15	2466.92
420.34	2466.92
420.53	2600.34
420.72	2717.36
420.91	2708.00
421.10	2562.89
421.29	2621.40
421.48	2539.48
421.67	2605.02
421.86	2513.74
422.05	2377.98
422.24	2239.89
422.43	2064.35
422.61	2303.09
422.80	2532.46
422.99	2532.46
423.18	2417.77
423.37	2408.41
423.56	2303.09
423.75	2349.90
423.94	2476.29
424.13	2345.22
424.32	2349.90
424.50	2441.18
424.69	2382.67
424.88	2410.75
425.07	2352.24
425.26	2279.68
425.45	2251.60
425.64	2338.20
425.83	2265.64
426.01	2448.20
426.20	2413.09
426.39	2392.03
426.58	2221.17
426.77	2157.97
426.96	2029.24
427.15	2193.08
427.33	2326.49
427.52	2326.49
427.71	2396.71
427.90	2303.09
428.09	2375.64
428.28	2265.64
428.46	2312.45
428.65	2298.41
428.84	2263.30
429.03	2235.21
429.22	2162.66
429.40	2113.50
429.59	1954.35
429.78	1743.70
429.97	1724.97
430.16	1746.04
430.34	1867.75
430.53	1668.80
430.72	1762.42
430.91	1994.14
431.10	2118.18
431.28	2471.61
431.47	2799.28
431.66	2853.11
431.85	2588.63
432.03	2520.76
432.22	2422.45
432.41	2403.73
432.60	2471.61
432.79	2588.63
432.97	2787.58
433.16	2747.79
433.35	2593.31
433.54	2373.30
433.72	2143.93
433.91	2143.93
434.10	2359.26
434.28	2612.04
434.47	2738.43
434.66	2682.25
434.85	2569.91
435.03	2663.53
435.22	2647.15
435.41	3005.25
435.59	3023.97
435.78	2963.12
435.97	3014.61
436.16	2944.39
436.34	2967.80
436.53	2766.51
436.72	2836.73
436.90	2801.62
437.09	2612.04
437.28	2555.86
437.46	2642.46
437.65	2775.88
437.84	2614.38
438.02	2448.20
438.21	2345.22
438.40	2347.56
438.58	2633.10
438.77	2738.43
438.96	2759.49
439.14	2857.79
439.33	2787.58
439.52	2951.42
439.70	2825.03
439.89	2951.42
440.08	2867.16
440.26	2736.09
440.45	2750.13
440.63	2974.82
440.82	3141.00
441.01	3178.45
441.19	3112.91
441.38	3082.49
441.57	3180.79
441.75	3253.34
441.94	3288.45
442.12	3201.85
442.31	3258.03
442.50	3197.17
442.68	3204.19
442.87	3232.28
443.05	3180.79
443.24	3239.30
443.43	3255.69
443.61	3393.78
443.80	3375.05
443.98	3166.74
444.17	3166.74
444.35	3384.41
444.54	3325.90
444.73	3356.33
444.91	3321.22
445.10	3112.91
445.28	3084.83
445.47	3073.12
445.65	3047.38
445.84	3105.89
446.02	3274.41
446.21	3119.93
446.39	3234.62
446.58	3178.45
446.77	3290.79
446.95	3389.10
447.14	3414.84
447.32	3442.93
447.51	3412.50
447.69	3328.24
447.88	3183.13
448.06	3353.99
448.25	3349.31
448.43	3433.57
448.62	3353.99
448.80	3187.81
448.99	3342.28
449.17	3321.22
449.36	3255.69
449.54	3421.86
449.73	3559.95
449.91	3492.08
450.10	3667.62
450.28	3794.01
450.46	3681.66
450.65	3606.77
450.83	3552.93
451.02	3602.08
451.20	3634.85
451.39	3510.80
451.57	3445.27
451.76	3461.65
451.94	3534.21
452.13	3419.52
452.31	3386.76
452.49	3218.24
452.68	3206.53
452.86	3190.15
453.05	3204.19
453.23	3335.26
453.42	3454.63
453.60	3356.33
453.78	3566.98
453.97	3513.14
454.15	3552.93
454.34	3339.94
454.52	3435.91
454.70	3227.60
454.89	3410.16
455.07	3403.14
455.26	3400.80
455.44	3585.70
455.62	3485.06
455.81	3634.85
455.99	3604.42
456.17	3494.42
456.36	3613.79
456.54	3737.84
456.73	3676.98
456.91	3686.34
457.09	3648.90
457.28	3730.81
457.46	3674.64
457.64	3712.09
457.83	3592.72
458.01	3449.95
458.19	3578.68
458.38	3557.61
458.56	3660.60
458.74	3606.77
458.93	3679.32
459.11	3737.84
459.29	3506.12
459.48	3480.38
459.66	3599.74
459.84	3653.58
460.03	3716.77
460.21	3644.21
460.39	3620.81
460.57	3721.45
460.76	3691.02
460.94	3866.56
461.12	3791.67
461.31	3754.22
461.49	3772.94
461.67	3737.84
461.85	3756.56
462.04	3735.50
462.22	4322.97
462.40	3772.94
462.59	3747.20
462.77	3812.73
462.95	3880.61
463.13	3913.38
463.32	3784.65
463.50	3707.41
463.68	3782.31
463.86	3747.20
464.05	3609.11
464.23	3499.10
464.41	3648.90
464.59	3480.38
464.78	3646.55
464.96	3765.92
465.14	3606.77
465.32	3784.65
465.50	3822.09
465.69	3843.16
465.87	3801.03
466.05	3894.65
466.23	3590.38
466.41	3613.79
466.60	3571.66
466.78	3520.17
466.96	3655.92
467.14	3712.09
467.32	3756.56
467.51	3812.73
467.69	3627.83
467.87	3583.36
468.05	3756.56
468.23	3611.45
468.41	3688.68
468.60	3611.45
468.78	3782.31
468.96	3623.15
469.14	3688.68
469.32	3815.07
469.50	3737.84
469.69	3686.34
469.87	3651.24
470.05	3503.78
470.23	3599.74
470.41	3524.85
470.59	3562.30
470.77	3665.28
470.95	3756.56
471.14	3779.97
471.32	3719.11
471.50	4009.34
471.68	4021.04
471.86	3976.57
472.04	4102.96
472.22	4126.36
472.40	3978.91
472.58	3794.01
472.77	3775.28
472.95	3899.33
473.13	3948.48
473.31	3777.62
473.49	3812.73
473.67	3978.91
473.85	3920.40
474.03	4147.43
474.21	4091.26
474.39	4053.81
474.57	4119.34
474.75	4170.83
474.93	4065.51
475.12	4086.58
475.30	4004.66
475.48	3906.35
475.66	4166.15
475.84	4056.15
476.02	4077.21
476.20	4060.83
476.38	3941.46
476.56	4070.19
476.74	4112.32
476.92	4348.72
477.10	4320.63
477.28	4381.48
477.46	4360.42
477.64	4397.87
477.82	4367.44
478.00	4409.57
478.18	4409.57
478.36	4318.29
478.54	4437.66
478.72	4482.13
478.90	4416.59
479.08	4627.24
479.26	4793.42
479.44	4589.79
479.62	4627.24
479.80	4641.28
479.98	4760.65
480.16	4688.09
480.34	4582.77
480.52	4720.86
480.70	4917.47
480.88	4662.35
481.06	4788.74
481.24	4919.81
481.41	4889.38
481.59	5123.43
481.77	4938.53
481.95	4690.43
482.13	4889.38
482.31	4971.30
482.49	4997.04
482.67	5050.88
482.85	5034.49
483.03	5193.65
483.21	5123.43
483.39	5212.37
483.57	4933.85
483.74	5062.58
483.92	5114.07
484.10	5139.82
484.28	5151.52
484.46	5331.74
484.64	5228.76
484.82	5118.75
485.00	5018.11
485.18	4999.38
485.35	4873.00
485.53	4629.58
485.71	4245.73
485.89	4060.83
486.07	4234.03
486.25	4564.04
486.43	4828.53
486.61	4873.00
486.78	5060.24
486.96	4805.12
487.14	5193.65
487.32	5270.89
487.50	5350.46
487.68	5696.86
487.85	5565.79
488.03	5600.90
488.21	5755.38
488.39	5584.52
488.57	5533.03
488.75	5401.96
488.92	5713.25
489.10	5804.53
489.28	6104.12
489.46	6256.25
489.64	6195.40
489.81	6202.42
489.99	6015.18
490.17	6384.98
490.35	6431.79
490.53	6125.18
490.70	6061.99
490.88	6164.97
491.06	6099.44
491.24	6218.80
491.41	6174.33
491.59	5820.91
491.77	5547.07
491.95	5961.34
492.13	5916.87
492.30	6246.89
492.48	6532.44
492.66	6434.13
492.84	6553.50
493.01	6438.81
493.19	6429.45
493.37	6319.45
493.54	6242.21
493.72	6370.94
493.90	6431.79
494.08	6565.20
494.25	6867.13
494.43	6817.98
494.61	6820.32
494.79	7108.21
494.96	6960.75
495.14	6895.22
495.32	6726.70
495.49	6457.54
495.67	6649.46
495.85	6970.12
496.02	7112.89
496.20	7040.33
496.38	6946.71
496.55	6899.90
496.73	7063.74
496.91	7166.72
497.09	7187.79
497.26	7162.04
497.44	7101.19
497.62	6923.30
497.79	7007.56
497.97	6539.46
498.14	6413.07
498.32	6815.64
498.50	6911.60
498.67	7187.79
498.85	7133.95
499.03	7225.23
499.20	7204.17
499.38	7307.15
499.56	7307.15
499.73	7087.14
499.91	6927.99
500.08	6867.13
500.26	6722.02
500.44	6813.30
500.61	6832.02
500.79	6839.05
500.97	6644.78
501.14	6860.11
501.32	6825.00
501.49	6740.74
501.67	6647.12
501.84	6799.26
502.02	6834.36
502.20	7037.99
502.37	7063.74
502.55	7197.15
502.72	7140.97
502.90	7265.02
503.07	7136.29
503.25	6935.01
503.43	6658.82
503.60	6710.32
503.78	6469.24
503.95	6469.24
504.13	6843.73
504.30	7215.87
504.48	6944.37
504.65	7040.33
504.83	7185.44
505.01	7089.48
505.18	7234.60
505.36	7424.18
505.53	7363.33
505.71	7452.27
505.88	7651.21
506.06	7426.52
506.23	7232.26
506.41	7197.15
506.58	7337.58
506.76	7250.98
506.93	7211.19
507.11	7026.29
507.28	7279.07
507.46	7166.72
507.63	7073.10
507.81	6970.12
507.98	6974.80
508.16	7166.72
508.33	7344.60
508.50	7576.31
508.68	7522.48
508.85	7641.85
509.03	7695.68
509.20	7623.12
509.38	7438.22
509.55	7447.58
509.73	7419.50
509.90	7330.56
510.08	7389.07
510.25	7311.83
510.42	7389.07
510.60	7321.20
510.77	7569.29
510.95	7597.38
511.12	7854.84
511.30	7873.56
511.47	7843.14
511.64	7915.69
511.82	7843.14
511.99	7515.46
512.17	7283.75
512.34	7138.63
512.51	7353.96
512.69	7307.15
512.86	7377.37
513.04	7597.38
513.21	7555.25
513.38	7461.63
513.56	7316.51
513.73	6918.62
513.90	7133.95
514.08	7155.02
514.25	7339.92
514.43	7316.51
514.60	7447.58
514.77	7548.23
514.95	7473.33
515.12	7325.88
515.29	7550.57
515.47	7485.03
515.64	7683.98
515.81	7627.81
515.99	7480.35
516.16	7265.02
516.33	6511.37
516.51	6375.62
516.68	6043.26
516.85	6040.92
517.03	6040.92
517.20	6487.96
517.37	7204.17
517.54	7360.98
517.72	7358.64
517.89	6796.92
518.06	6410.73
518.24	6256.25
518.41	6656.48
518.58	7112.89
518.75	7215.87
518.93	7208.85
519.10	7248.64
519.27	7269.70
519.45	7351.62
519.62	7384.39
519.79	7592.70
519.96	7517.80
520.14	7585.68
520.31	7288.43
520.48	7192.47
520.65	7243.96
520.83	7428.86
521.00	7669.94
521.17	7604.40
521.34	7447.58
521.52	7637.17
521.69	7707.38
521.86	7833.77
522.03	7894.63
522.20	7569.29
522.38	7353.96
522.55	7419.50
522.72	7344.60
522.89	7386.73
523.07	7391.41
523.24	7461.63
523.41	7786.96
523.58	7723.77
523.75	7754.19
523.92	7831.43
524.10	7941.44
524.27	7911.01
524.44	7779.94
524.61	7843.14
524.78	7592.70
524.96	7824.41
525.13	7726.11
525.30	7695.68
525.47	7990.59
525.64	7833.77
525.81	7815.05
525.98	7274.38
526.16	7070.76
526.33	6857.77
526.50	6965.43
526.67	6565.20
526.84	6712.66
527.01	6911.60
527.18	7145.66
527.36	7370.35
527.53	7487.37
527.70	7705.04
527.87	7541.21
528.04	7435.88
528.21	7454.61
528.38	7768.24
528.55	7985.91
528.72	7999.95
528.89	8140.38
529.07	8081.87
529.24	7946.12
529.41	7754.19
529.58	7613.76
529.75	7344.60
529.92	7695.68
530.09	7705.04
530.26	7929.74
530.43	7864.20
530.60	7892.29
530.77	8002.29
530.94	8044.42
531.11	8035.06
531.28	7602.06
531.46	7873.56
531.63	7981.23
531.80	7786.96
531.97	7763.56
532.14	7494.40
532.31	7351.62
532.48	7222.89
532.65	6913.94
532.82	7140.97
532.99	7667.60
533.16	7543.55
533.33	7817.39
533.50	7829.09
533.67	7763.56
533.84	7618.44
534.01	7573.97
534.18	7765.90
534.35	7714.41
534.52	7588.02
534.69	7602.06
534.86	7740.15
535.03	7772.92
535.20	7906.33
535.37	7967.18
535.54	7946.12
535.71	7866.54
535.88	7990.59
536.05	7817.39
536.22	7742.49
536.38	7583.34
536.55	7602.06
536.72	7632.49
536.89	7164.38
537.06	7590.36
537.23	7705.04
537.40	7728.45
537.57	7721.43
537.74	7728.45
537.91	7857.18
538.08	7761.22
538.25	7583.34
538.42	7798.66
538.59	7714.41
538.75	7681.64
538.92	7421.84
539.09	7529.50
539.26	7272.04
539.43	7468.65
539.60	7604.40
539.77	7496.74
539.94	7272.04
540.11	7155.02
540.28	7089.48
540.44	7143.32
540.61	7187.79
540.78	7117.57
540.95	7346.94
541.12	7368.01
541.29	7541.21
541.46	7688.66
541.62	7707.38
541.79	7681.64
541.96	7557.59
542.13	7473.33
542.30	7662.91
542.47	7801.01
542.63	7648.87
542.80	7550.57
542.97	7597.38
543.14	7590.36
543.31	7480.35
543.48	7623.12
543.64	7761.22
543.81	7875.90
543.98	7997.61
544.15	7714.41
544.32	7578.65
544.48	7403.11
544.65	7667.60
544.82	7590.36
544.99	7775.26
545.16	7637.17
545.32	7449.93
545.49	7894.63
545.66	8109.96
545.83	8430.61
546.00	7976.55
546.16	7768.24
546.33	7688.66
546.50	7520.14
546.67	7545.89
546.83	7658.23
547.00	7730.79
547.17	7564.61
547.34	7265.02
547.50	7410.14
547.67	7178.42
547.84	7323.54
548.00	7262.68
548.17	7782.28
548.34	7541.21
548.51	7499.08
548.67	7604.40
548.84	7625.47
549.01	7456.95
549.18	7571.63
549.34	7613.76
549.51	7531.84
549.68	7571.63
549.84	7452.27
550.01	7318.86
550.18	7536.52
550.34	7456.95
550.51	7328.22
550.68	7470.99
550.84	7391.41
551.01	7344.60
551.18	7297.79
551.34	7255.66
551.51	7346.94
551.68	7595.04
551.84	7665.25
552.01	7353.96
552.18	7321.20
552.34	7445.24
552.51	7143.32
552.68	7164.38
552.84	7243.96
553.01	7286.09
553.18	7339.92
553.34	7246.30
553.51	7365.67
553.67	7379.71
553.84	7405.46
554.01	7492.05
554.17	7382.05
554.34	7241.62
554.51	7384.39
554.67	7421.84
554.84	7382.05
555.00	7300.13
555.17	7349.28
555.33	7466.31
555.50	7297.79
555.67	7466.31
555.83	7236.94
556.00	7108.21
556.16	7208.85
556.33	7197.15
556.50	7110.55
556.66	7070.76
556.83	7014.59
556.99	6899.90
557.16	7138.63
557.32	7047.35
557.49	7115.23
557.65	7119.91
557.82	6988.84
557.98	7000.54
558.15	7007.56
558.32	6993.52
558.48	6637.76
558.65	6705.63
558.81	6876.49
558.98	6822.66
559.14	6839.05
559.31	6895.22
559.47	6806.28
559.64	6810.96
559.80	6796.92
559.97	6789.89
560.13	6719.68
560.30	7035.65
560.46	6981.82
560.63	7421.84
560.79	7349.28
560.96	7183.10
561.12	6841.39
561.29	6675.21
561.45	6579.25
561.61	6834.36
561.78	6909.26
561.94	6782.87
562.11	6817.98
562.27	6782.87
562.44	6658.82
562.60	6998.20
562.77	6855.43
562.93	6967.77
563.10	7045.01
563.26	6771.17
563.42	6733.72
563.59	6855.43
563.75	6850.75
563.92	6803.94
564.08	6925.65
564.24	6778.19
564.41	6764.15
564.57	6848.41
564.74	6949.05
564.90	6906.92
565.07	6761.81
565.23	6705.63
565.39	6441.15
565.56	6494.99
565.72	6368.60
565.88	6399.02
566.05	6520.73
566.21	6565.20
566.38	6635.42
566.54	6586.27
566.70	6853.09
566.87	6672.87
567.03	6853.09
567.19	7021.61
567.36	6654.14
567.52	6710.32
567.68	6731.38
567.85	6466.90
568.01	6221.14
568.17	6300.72
568.34	6284.34
568.50	6361.58
568.66	6202.42
568.83	6221.14
568.99	6429.45
569.15	6319.45
569.32	6363.92
569.48	6333.49
569.64	6101.78
569.81	6221.14
569.97	6029.22
570.13	6359.24
570.30	6076.03
570.46	6125.18
570.62	6029.22
570.78	6064.33
570.95	6120.50
571.11	6076.03
571.27	6253.91
571.43	6244.55
571.60	6197.74
571.76	6183.70
571.92	6291.36
572.09	6291.36
572.25	6368.60
572.41	6228.17
572.57	6232.85
572.74	6473.92
572.90	6033.90
573.06	6104.12
573.22	6335.83
573.38	6214.12
573.55	6101.78
573.71	6230.51
573.87	6078.37
574.03	5951.98
574.20	6211.78
574.36	5856.02
574.52	5914.53
574.68	6270.30
574.84	6267.95
575.01	5951.98
575.17	5930.92
575.33	5771.76
575.49	6164.97
575.65	6080.71
575.82	6113.48
575.98	5849.00
576.14	5846.66
576.30	6057.31
576.46	6134.54
576.62	6200.08
576.79	6274.98
576.95	6195.40
577.11	6141.57
577.27	6246.89
577.43	6153.27
577.59	6237.53
577.75	5935.60
577.92	5900.49
578.08	5731.97
578.24	5774.10
578.40	5980.07
578.56	5982.41
578.72	5900.49
578.88	6008.16
579.04	6094.76
579.21	5933.26
579.37	6017.52
579.53	5951.98
579.69	6136.88
579.85	5916.87
580.01	6136.88
580.17	5916.87
580.33	6015.18
580.49	6043.26
580.65	6242.21
580.82	6125.18
580.98	6019.86
581.14	6164.97
581.30	6127.52
581.46	5970.71
581.62	6176.67
581.78	6139.23
581.94	6125.18
582.10	6122.84
582.26	6211.78
582.42	6019.86
582.58	6073.69
582.74	6218.80
582.90	6134.54
583.06	5980.07
583.22	6164.97
583.38	6057.31
583.54	6155.61
583.70	5961.34
583.86	6036.24
584.02	6174.33
584.18	6235.19
584.34	6143.91
584.50	6054.97
584.66	6066.67
584.82	5860.70
584.98	5963.68
585.14	5841.98
585.30	5802.19
585.46	5762.40
585.62	5605.58
585.78	5596.22
585.94	5675.80
586.10	5935.60
586.26	5706.23
586.42	5956.66
586.58	5792.83
586.74	5776.44
586.90	5603.24
587.06	5600.90
587.22	5511.96
587.38	5636.01
587.54	5661.76
587.70	5476.85
587.86	5313.02
588.02	5256.84
588.18	5090.67
588.34	4924.49
588.49	4617.88
588.65	4491.49
588.81	4337.01
588.97	4327.65
589.13	4299.56
589.29	4285.52
589.45	4365.10
589.61	4397.87
589.77	4315.95
589.93	4493.83
590.08	4809.80
590.24	5020.45
590.40	5008.75
590.56	5011.09
590.72	5034.49
590.88	4919.81
591.04	4983.00
591.20	4961.94
591.35	4851.93
591.51	4980.66
591.67	4758.31
591.83	4744.27
591.99	4741.93
592.15	4786.40
592.31	5015.77
592.46	5050.88
592.62	5090.67
592.78	5135.14
592.94	5186.63
593.10	4940.87
593.26	5184.29
593.41	5151.52
593.57	5238.12
593.73	4929.17
593.89	4655.33
594.05	4594.47
594.20	4610.86
594.36	4812.14
594.52	4603.83
594.68	4451.70
594.84	4594.47
594.99	4903.42
595.15	4985.34
595.31	5008.75
595.47	4912.78
595.62	4875.34
595.78	4990.02
595.94	5130.45
596.10	5123.43
596.25	5074.28
596.41	4905.76
596.57	4905.76
596.73	4926.83
596.88	4980.66
597.04	5188.97
597.20	5076.62
597.36	4894.06
597.51	4910.44
597.67	5015.77
