SpectraSuite Data File
++++++++++++++++++++++++++++++++++++
Date: Tue Oct 01 18:27:24 GMT-05:00 2013
User: stostad
Dark Spectrum Present: No
Reference Spectrum Present: No
Number of Sampled Component Spectra: 1
Spectrometers: USB2+H05261
Integration Time (usec): 100000 (USB2+H05261)
Spectra Averaged: 1 (USB2+H05261)
Boxcar Smoothing: 0 (USB2+H05261)
Correct for Electrical Dark: No (USB2+H05261)
Strobe/Lamp Enabled: No (USB2+H05261)
Correct for Detector Non-linearity: No (USB2+H05261)
Correct for Stray Light: No (USB2+H05261)
Number of Pixels in Processed Spectrum: 2048
>>>>>Begin Processed Spectral Data<<<<<
365.73	102.98
365.92	102.98
366.12	102.98
366.32	16.38
366.52	0.00
366.72	7.02
366.91	0.00
367.11	0.00
367.31	0.00
367.51	0.00
367.70	0.00
367.90	0.00
368.10	0.00
368.30	0.00
368.49	0.00
368.69	0.00
368.89	0.00
369.09	0.00
369.28	21.06
369.48	35.11
369.68	32.77
369.87	32.77
370.07	30.43
370.27	74.90
370.47	126.39
370.66	245.76
370.86	299.59
371.06	276.18
371.25	266.82
371.45	313.63
371.65	332.36
371.84	425.98
372.04	337.04
372.24	369.80
372.44	351.08
372.63	383.85
372.83	421.30
373.03	425.98
373.22	367.46
373.42	407.25
373.62	407.25
373.81	409.59
374.01	465.77
374.21	451.72
374.40	433.00
374.60	465.77
374.79	484.49
374.99	451.72
375.19	437.68
375.38	512.58
375.58	468.11
375.78	491.51
375.97	454.06
376.17	475.13
376.37	472.79
376.56	458.74
376.76	468.11
376.95	475.13
377.15	517.26
377.35	510.24
377.54	528.96
377.74	498.53
377.93	507.90
378.13	449.38
378.33	533.64
378.52	594.50
378.72	510.24
378.91	496.19
379.11	547.69
379.31	543.00
379.50	552.37
379.70	564.07
379.89	510.24
380.09	545.34
380.28	533.64
380.48	489.17
380.68	430.66
380.87	629.60
381.07	505.56
381.26	575.77
381.46	573.43
381.65	550.03
381.85	521.94
382.04	545.34
382.24	596.84
382.43	557.05
382.63	596.84
382.83	601.52
383.02	695.14
383.22	550.03
383.41	596.84
383.61	603.86
383.80	690.46
384.00	550.03
384.19	617.90
384.39	655.35
384.58	596.84
384.78	547.69
384.97	690.46
385.17	582.79
385.36	657.69
385.56	648.33
385.75	645.99
385.95	681.10
386.14	638.97
386.34	629.60
386.53	636.63
386.72	727.91
386.92	711.52
387.11	739.61
387.31	716.20
387.50	725.57
387.70	641.31
387.89	730.25
388.09	690.46
388.28	755.99
388.48	685.78
388.67	748.97
388.86	734.93
389.06	720.88
389.25	706.84
389.45	795.78
389.64	751.31
389.84	828.55
390.03	784.08
390.22	840.25
390.42	786.42
390.61	727.91
390.81	809.83
391.00	800.46
391.19	807.48
391.39	847.27
391.58	926.85
391.78	861.32
391.97	924.51
392.16	861.32
392.36	919.83
392.55	898.77
392.75	997.07
392.94	779.40
393.13	922.17
393.33	828.55
393.52	908.13
393.71	973.66
393.91	1004.09
394.10	875.36
394.29	912.81
394.49	940.90
394.68	1022.81
394.88	1018.13
395.07	924.51
395.26	985.37
395.46	940.90
395.65	1090.69
395.84	983.02
396.04	1071.97
396.23	1050.90
396.42	1034.52
396.62	1004.09
396.81	1062.60
397.00	1036.86
397.19	1090.69
397.39	1090.69
397.58	1083.67
397.77	1043.88
397.97	1057.92
398.16	1188.99
398.35	1181.97
398.55	1100.05
398.74	1177.29
398.93	1181.97
399.12	1214.74
399.32	1146.86
399.51	1172.61
399.70	1165.59
399.90	1221.76
400.09	1184.31
400.28	1284.95
400.47	1142.18
400.67	1235.80
400.86	1284.95
401.05	1299.00
401.24	1383.26
401.44	1366.87
401.63	1268.57
401.82	1355.17
402.01	1441.77
402.21	1453.47
402.40	1437.09
402.59	1383.26
402.78	1369.21
402.97	1366.87
403.17	1413.68
403.36	1504.96
403.55	1465.18
403.74	1568.16
403.93	1511.99
404.13	1535.39
404.32	1460.49
404.51	1528.37
404.70	1619.65
404.89	1621.99
405.09	1675.82
405.28	1511.99
405.47	1577.52
405.66	1570.50
405.85	1717.95
406.05	1621.99
406.24	1640.72
406.43	1701.57
406.62	1736.68
406.81	1734.34
407.00	1764.76
407.20	1764.76
407.39	1734.34
407.58	1867.75
407.77	1919.24
407.96	1753.06
408.15	1825.62
408.34	1816.26
408.54	1820.94
408.73	1886.47
408.92	1937.96
409.11	2003.50
409.30	1944.99
409.49	1966.05
409.68	2026.90
409.87	2010.52
410.07	2062.01
410.26	2015.20
410.45	2066.69
410.64	2097.12
410.83	2181.38
411.02	2132.23
411.21	2122.87
411.40	2148.61
411.59	2136.91
411.78	2223.51
411.98	2195.42
412.17	2228.19
412.36	2242.23
412.55	2359.26
412.74	2448.20
412.93	2427.14
413.12	2413.09
413.31	2497.35
413.50	2483.31
413.69	2457.56
413.88	2530.12
414.07	2502.03
414.26	2551.18
414.45	2614.38
414.64	2553.52
414.83	2593.31
415.02	2626.08
415.22	2766.51
415.41	2801.62
415.60	2808.64
415.79	2710.34
415.98	2911.63
416.17	2848.43
416.36	2869.50
416.55	2956.10
416.74	2909.29
416.93	2869.50
417.12	3033.33
417.31	2897.58
417.50	3042.70
417.69	3077.80
417.88	3059.08
418.07	3110.57
418.26	2998.23
418.45	3166.74
418.64	3253.34
418.83	3251.00
419.02	3152.70
419.21	3187.81
419.39	3304.84
419.58	3171.43
419.77	3225.26
419.96	3335.26
420.15	3325.90
420.34	3323.56
420.53	3428.88
420.72	3517.83
420.91	3351.65
421.10	3508.46
421.29	3597.40
421.48	3351.65
421.67	3449.95
421.86	3536.55
422.05	3536.55
422.24	3585.70
422.43	3480.38
422.61	3440.59
422.80	3674.64
422.99	3627.83
423.18	3679.32
423.37	3536.55
423.56	3791.67
423.75	3630.17
423.94	3543.57
424.13	3384.41
424.32	3445.27
424.50	3676.98
424.69	3784.65
424.88	3791.67
425.07	3681.66
425.26	3506.12
425.45	3609.11
425.64	3637.19
425.83	3684.00
426.01	3815.07
426.20	3840.82
426.39	3712.09
426.58	3639.53
426.77	3845.50
426.96	3763.58
427.15	3623.15
427.33	3686.34
427.52	3763.58
427.71	3850.18
427.90	3840.82
428.09	3887.63
428.28	3960.19
428.46	3950.82
428.65	3971.89
428.84	4145.09
429.03	4060.83
429.22	3974.23
429.40	4053.81
429.59	3962.53
429.78	3901.67
429.97	4046.79
430.16	3946.14
430.34	3948.48
430.53	4056.15
430.72	4210.62
430.91	4156.79
431.10	4091.26
431.28	4198.92
431.47	4304.25
431.66	4215.30
431.85	4168.49
432.03	4381.48
432.22	4505.53
432.41	4313.61
432.60	4276.16
432.79	4348.72
432.97	4365.10
433.16	4557.02
433.35	4376.80
433.54	4641.28
433.72	4435.32
433.91	4447.02
434.10	4479.79
434.28	4514.89
434.47	4435.32
434.66	4587.45
434.85	4674.05
435.03	4634.26
435.22	4484.47
435.41	4800.44
435.59	4587.45
435.78	4725.54
435.97	4809.80
436.16	4652.98
436.34	4777.03
436.53	4842.57
436.72	4997.04
436.90	4830.87
437.09	4882.36
437.28	4718.52
437.46	4851.93
437.65	4973.64
437.84	4975.98
438.02	4926.83
438.21	5039.17
438.40	4868.31
438.58	5228.76
438.77	5032.15
438.96	5179.61
439.14	5284.93
439.33	5242.80
439.52	5291.95
439.70	5338.76
439.89	5413.66
440.08	5495.58
440.26	5490.90
440.45	5458.13
440.63	5591.54
440.82	5628.99
441.01	5664.10
441.19	5659.42
441.38	5731.97
441.57	5731.97
441.75	5771.76
441.94	5860.70
442.12	5834.96
442.31	5961.34
442.50	6008.16
442.68	5905.17
442.87	5788.14
443.05	6071.35
443.24	6085.39
443.43	6216.46
443.61	6106.46
443.80	6223.48
443.98	5914.53
444.17	5961.34
444.35	6183.70
444.54	6392.00
444.73	6120.50
444.91	5930.92
445.10	6141.57
445.28	6101.78
445.47	6223.48
445.65	6310.08
445.84	6155.61
446.02	6286.68
446.21	6104.12
446.39	6274.98
446.58	6300.72
446.77	6324.13
446.95	6120.50
447.14	6289.02
447.32	6342.85
447.51	6312.42
447.69	6401.37
447.88	6410.73
448.06	6399.02
448.25	6403.71
448.43	6399.02
448.62	6321.79
448.80	6457.54
448.99	6614.35
449.17	6380.30
449.36	6567.54
449.54	6555.84
449.73	6588.61
449.91	6658.82
450.10	6595.63
450.28	6719.68
450.46	6686.91
450.65	6661.16
450.83	6787.55
451.02	6827.34
451.20	6892.88
451.39	6841.39
451.57	6729.04
451.76	6843.73
451.94	6792.23
452.13	7157.36
452.31	6892.88
452.49	6773.51
452.68	6974.80
452.86	7052.03
453.05	6956.07
453.23	7075.44
453.42	6925.65
453.60	6815.64
453.78	7108.21
453.97	7016.93
454.15	7131.61
454.34	7098.84
454.52	7206.51
454.70	7236.94
454.89	7295.45
455.07	7363.33
455.26	7234.60
455.44	7372.69
455.62	7309.49
455.81	7410.14
455.99	7342.26
456.17	7332.90
456.36	7482.69
456.54	7616.10
456.73	7508.44
456.91	7740.15
457.09	7669.94
457.28	7641.85
457.46	7534.18
457.64	7688.66
457.83	7864.20
458.01	7676.96
458.19	7981.23
458.38	7831.43
458.56	8079.53
458.74	7892.29
458.93	7850.16
459.11	7955.48
459.29	8077.19
459.48	7946.12
459.66	8065.49
459.84	8091.23
460.03	8315.92
460.21	8173.15
460.39	8098.25
460.57	8266.77
460.76	8236.35
460.94	8341.67
461.12	8294.86
461.31	8063.15
461.49	8290.18
461.67	8266.77
461.85	8430.61
462.04	8266.77
462.22	9100.00
462.40	8582.74
462.59	8472.74
462.77	8585.08
462.95	8622.53
463.13	8711.47
463.32	8538.27
463.50	8645.94
463.68	8779.35
463.86	8847.22
464.05	8760.63
464.23	8578.06
464.41	8767.65
464.59	8610.83
464.78	8746.58
464.96	8875.31
465.14	8676.37
465.32	8938.51
465.50	9006.38
465.69	9081.28
465.87	8954.89
466.05	8943.19
466.23	9177.24
466.41	8856.59
466.60	9280.22
466.78	8933.82
466.96	9249.80
467.14	9018.08
467.32	9287.25
467.51	9312.99
467.69	9013.40
467.87	9291.93
468.05	9334.06
468.23	9212.35
468.41	9334.06
468.60	9385.55
468.78	9570.45
468.96	9383.21
469.14	9437.04
469.32	9441.72
469.50	9242.78
469.69	9661.73
469.87	9734.29
470.05	9877.06
470.23	9682.80
470.41	9708.54
470.59	9907.49
470.77	9727.27
470.95	9935.57
471.14	9994.09
471.32	9727.27
471.50	10090.05
471.68	10178.99
471.86	9937.91
472.04	10164.95
472.22	10415.38
472.40	10174.31
472.58	10139.20
472.77	10305.38
472.95	10555.82
473.13	10796.89
473.31	10406.02
473.49	10373.25
473.67	10448.15
473.85	10815.62
474.03	10864.77
474.21	10874.13
474.39	10836.68
474.57	11124.57
474.75	10949.03
474.93	11094.14
475.12	11201.80
475.30	11316.49
475.48	11272.02
475.66	11463.94
475.84	11269.68
476.02	11683.95
476.20	11463.94
476.38	11655.87
476.56	11840.77
476.74	11875.88
476.92	11922.69
477.10	11712.04
477.28	11896.94
477.46	12016.31
477.64	12257.39
477.82	12407.18
478.00	12531.23
478.18	12578.04
478.36	12491.44
478.54	12669.32
478.72	12884.65
478.90	12938.48
479.08	13167.85
479.26	13041.46
479.44	13111.68
479.62	13160.83
479.80	13537.66
479.98	13394.89
480.16	13699.16
480.34	13692.13
480.52	13858.31
480.70	13973.00
480.88	13532.98
481.06	14010.45
481.24	13919.17
481.41	14106.41
481.59	14406.00
481.77	14508.98
481.95	14574.52
482.13	14801.55
482.31	14764.10
482.49	14979.43
482.67	15028.58
482.85	14981.77
483.03	15239.23
483.21	15508.39
483.39	15506.05
483.57	15569.24
483.74	15522.43
483.92	15983.52
484.10	15815.00
484.28	16215.23
484.46	16142.67
484.64	16566.31
484.82	16329.92
485.00	16421.20
485.18	17139.74
485.35	17362.09
485.53	16992.29
485.71	16922.07
485.89	17514.23
486.07	17153.79
486.25	17680.41
486.43	17624.23
486.61	17879.35
486.78	17860.63
486.96	18293.63
487.14	18361.50
487.32	18164.90
487.50	18370.86
487.68	18544.06
487.85	19098.77
488.03	19028.56
488.21	19236.86
488.39	19246.23
488.57	19426.45
488.75	19747.10
488.92	19702.63
489.10	19833.70
489.28	20032.65
489.46	20329.89
489.64	20259.68
489.81	20472.67
489.99	20662.25
490.17	20512.46
490.35	21556.33
490.53	20744.17
490.70	21469.73
490.88	21446.33
491.06	21451.01
491.24	21614.85
491.41	21656.98
491.59	22005.72
491.77	21912.10
491.95	21963.59
492.13	22157.85
492.30	22513.61
492.48	22560.42
492.66	22668.09
492.84	22850.65
493.01	22970.02
493.19	22773.41
493.37	23318.76
493.54	23304.71
493.72	23613.66
493.90	23328.12
494.08	23791.55
494.25	23861.76
494.43	23950.70
494.61	23946.02
494.79	24299.44
494.96	24524.13
495.14	24364.98
495.32	25048.41
495.49	24842.45
495.67	25125.65
495.85	25060.12
496.02	25055.43
496.20	25296.51
496.38	25310.55
496.55	25729.51
496.73	25933.14
496.91	25982.29
497.09	25745.89
497.26	26150.81
497.44	25825.47
497.62	26075.91
497.79	26455.08
497.97	26518.27
498.14	26902.12
498.32	27164.26
498.50	26520.61
498.67	26916.16
498.85	26761.69
499.03	27323.41
499.20	27491.93
499.38	27681.52
499.56	27793.86
499.73	27847.69
499.91	27875.78
500.08	28013.87
500.26	27398.31
500.44	28037.28
500.61	28063.02
500.79	28737.10
500.97	28346.23
501.14	28755.82
501.32	29053.07
501.49	29151.37
501.67	28547.51
501.84	29385.43
502.02	29509.47
502.20	29457.98
502.37	29343.30
502.55	29303.51
502.72	29642.88
502.90	29380.74
503.07	29661.61
503.25	29949.50
503.43	29827.79
503.60	30038.44
503.78	29947.15
503.95	29855.87
504.13	30356.75
504.30	30195.25
504.48	30618.89
504.65	30656.34
504.83	30714.85
505.01	30988.69
505.18	30815.49
505.36	31332.75
505.53	31433.39
505.71	31620.64
505.88	31456.80
506.06	31646.38
506.23	31669.79
506.41	31519.99
506.58	31826.60
506.76	31646.38
506.93	32018.53
507.11	32079.38
507.28	32070.02
507.46	32275.99
507.63	32385.99
507.81	32580.26
507.98	32533.45
508.16	32680.90
508.33	32503.02
508.50	32692.60
508.68	33048.36
508.85	33191.14
509.03	33123.26
509.20	33226.24
509.38	32921.98
509.55	33656.90
509.73	33619.46
509.90	33488.38
510.08	33848.83
510.25	33567.96
510.42	34134.37
510.60	33862.87
510.77	34038.41
510.95	34185.86
511.12	34050.11
511.30	34305.23
511.47	34230.33
511.64	34714.83
511.82	34593.12
511.99	34139.05
512.17	34836.53
512.34	34506.52
512.51	35264.85
512.69	35512.95
512.86	34958.24
513.04	35428.69
513.21	35463.80
513.38	35063.57
513.56	35688.49
513.73	35512.95
513.90	35618.27
514.08	35833.60
514.25	36481.93
514.43	36210.43
514.60	36226.81
514.77	35847.64
514.95	36407.03
515.12	35859.35
515.29	36297.03
515.47	36758.11
515.64	36830.67
515.81	36648.11
515.99	36830.67
516.16	37251.97
516.33	36524.06
516.51	37411.12
516.68	36987.49
516.85	37319.84
517.03	37329.20
517.20	37436.87
517.37	37380.70
517.54	37670.92
517.72	37766.88
517.89	37167.71
518.06	37799.65
518.24	37801.99
518.41	38059.45
518.58	38323.93
518.75	38078.18
518.93	38139.03
519.10	38007.96
519.27	37832.42
519.45	38452.66
519.62	38623.52
519.79	39098.65
519.96	38567.35
520.14	38993.32
520.31	38611.82
520.48	39187.59
520.65	39061.20
520.83	38810.76
521.00	39208.65
521.17	39143.12
521.34	39601.86
521.52	39517.60
521.69	39339.72
521.86	39477.82
522.03	39550.37
522.20	39618.25
522.38	39817.19
522.55	40114.44
522.72	39812.51
522.89	40020.82
523.07	40481.91
523.24	40133.17
523.41	40404.67
523.58	40526.38
523.75	40332.11
523.92	40959.38
524.10	40615.32
524.27	40907.88
524.44	40814.26
524.61	41385.35
524.78	41383.01
524.96	40591.91
525.13	41071.72
525.30	41373.65
525.47	41560.89
525.64	41436.84
525.81	41277.69
525.98	41565.57
526.16	41851.12
526.33	41268.33
526.50	41839.42
526.67	41600.68
526.84	41614.72
527.01	42066.45
527.18	41991.55
527.36	42253.69
527.53	42246.67
527.70	42445.62
527.87	41904.95
528.04	42141.35
528.21	42181.13
528.38	42195.18
528.55	42747.54
528.72	42740.52
528.89	42667.97
529.07	42696.05
529.24	42534.56
529.41	42796.70
529.58	42656.26
529.75	43077.56
529.92	43021.39
530.09	43454.39
530.26	42927.77
530.43	42848.19
530.60	42941.81
530.77	42990.96
530.94	43693.12
531.11	43157.14
531.28	43475.45
531.46	43824.19
531.63	43491.83
531.80	43435.66
531.97	43749.29
532.14	43583.12
532.31	43679.08
532.48	43901.43
532.65	44074.63
532.82	43964.62
532.99	44093.35
533.16	44060.58
533.33	44479.54
533.50	44559.12
533.67	44144.84
533.84	44020.80
534.01	44151.87
534.18	44392.94
534.35	44823.60
534.52	44598.91
534.69	44767.43
534.86	45141.91
535.03	44802.53
535.20	44521.67
535.37	44996.80
535.54	44814.24
535.71	44790.83
535.88	45361.92
536.05	45153.62
536.22	45612.36
536.38	45518.74
536.55	45106.80
536.72	45052.97
536.89	44788.49
537.06	45247.24
537.23	45659.17
537.40	45324.47
537.57	45390.01
537.74	45783.22
537.91	45717.68
538.08	45682.58
538.25	45242.56
538.42	45436.82
538.59	46057.06
538.75	45783.22
538.92	45794.92
539.09	46314.52
539.26	45881.52
539.43	46429.21
539.60	46075.79
539.77	46164.73
539.94	45933.01
540.11	46405.80
540.28	46829.44
540.44	46490.06
540.61	46623.47
540.78	46841.14
540.95	46211.54
541.12	46616.45
541.29	46686.67
541.46	46754.54
541.62	46562.62
541.79	46911.36
541.96	46115.58
542.13	46569.64
542.30	46993.28
542.47	46983.91
542.63	46831.78
542.80	46993.28
542.97	47075.19
543.14	47412.23
543.31	47304.57
543.48	47318.61
543.64	48032.47
543.81	47777.36
543.98	47859.27
544.15	47543.30
544.32	47952.90
544.48	48088.65
544.65	47629.90
544.82	47894.38
544.99	47552.66
545.16	47934.17
545.32	47746.93
545.49	48313.34
545.66	48343.77
545.83	47533.94
546.00	48266.53
546.16	48388.24
546.33	48261.85
546.50	47938.85
546.67	48685.48
546.83	48168.22
547.00	48198.65
547.17	48285.25
547.34	48664.42
547.50	48453.77
547.67	48701.87
547.84	48561.44
548.00	48559.09
548.17	48781.45
548.34	48552.07
548.51	49024.86
548.67	48657.40
548.84	48832.94
549.01	48758.04
549.18	48465.47
549.34	48376.53
549.51	49008.48
549.68	49050.61
549.84	48879.75
550.01	48708.89
550.18	48945.28
550.34	49050.61
550.51	49462.54
550.68	49453.18
550.84	48870.39
551.01	49474.24
551.18	49289.34
551.34	48940.60
551.51	49249.55
551.68	49256.57
551.84	49268.28
552.01	49048.27
552.18	49174.66
552.34	49212.10
552.51	49298.70
552.68	49567.87
552.84	49698.94
553.01	50354.29
553.18	49956.39
553.34	49780.85
553.51	49591.27
553.67	49855.75
553.84	49940.01
554.01	50071.08
554.17	49867.45
554.34	50019.59
554.51	50089.80
554.67	50136.62
554.84	50309.82
555.00	49902.56
555.17	50064.06
555.33	49902.56
555.50	49504.67
555.67	49605.31
555.83	49977.46
556.00	49839.37
556.16	50410.46
556.33	50424.50
556.50	50335.56
556.66	50373.01
556.83	50127.25
556.99	50555.57
557.16	50590.68
557.32	50373.01
557.49	50550.89
557.65	50688.98
557.82	50611.74
557.98	50609.40
558.15	50562.59
558.32	50576.64
558.48	50684.30
558.65	50461.95
558.81	50475.99
558.98	50520.46
559.14	50274.71
559.31	50539.19
559.47	50770.90
559.64	50717.07
559.80	50859.84
559.97	50822.39
560.13	50389.39
560.30	50796.65
560.46	50567.27
560.63	50768.56
560.79	50932.40
560.96	50897.29
561.12	50869.20
561.29	51133.68
561.45	50890.27
561.61	51217.94
561.78	51035.38
561.94	51030.70
562.11	50768.56
562.27	51016.66
562.44	51271.78
562.60	51395.82
562.77	51290.50
562.93	51002.61
563.10	51477.74
563.26	51323.27
563.42	51374.76
563.59	51239.01
563.75	51112.62
563.92	50967.51
564.08	51058.79
564.24	50965.17
564.41	51295.18
564.57	51175.81
564.74	50958.14
564.90	51449.66
565.07	50894.95
565.23	51421.57
565.39	51166.45
565.56	51295.18
565.72	51419.23
565.88	51248.37
566.05	51562.00
566.21	51452.00
566.38	51173.47
566.54	51400.50
566.70	51667.33
566.87	51620.52
567.03	51498.81
567.19	51468.38
567.36	51508.17
567.52	51360.72
567.68	51826.48
567.85	51428.59
568.01	51463.70
568.17	51285.82
568.34	51753.93
568.50	51477.74
568.66	51281.14
568.83	52016.07
568.99	51292.84
569.15	51468.38
569.32	51789.03
569.48	51700.09
569.64	51821.80
569.81	51868.61
569.97	51398.16
570.13	51732.86
570.30	51559.66
570.46	51543.28
570.62	51613.49
570.78	51529.23
570.95	51669.67
571.11	51730.52
571.27	51892.02
571.43	51784.35
571.60	52161.18
571.76	51569.02
571.92	51973.94
572.09	51744.56
572.25	51971.60
572.41	51859.25
572.57	52072.24
572.74	51980.96
572.90	51906.06
573.06	51985.64
573.22	52203.31
573.38	52350.76
573.55	51650.94
573.71	52069.90
573.87	51892.02
574.03	51536.26
574.20	51681.37
574.36	51386.46
574.52	51826.48
574.68	52013.73
574.84	52168.20
575.01	52233.74
575.17	52243.10
575.33	51985.64
575.49	51786.69
575.65	52060.54
575.82	51702.43
575.98	51718.82
576.14	52233.74
576.30	52266.50
576.46	52097.98
576.62	52264.16
576.79	52130.75
576.95	52018.41
577.11	52079.26
577.27	51936.49
577.43	51576.04
577.59	52231.40
577.75	51889.68
577.92	51634.56
578.08	52233.74
578.24	52025.43
578.40	52207.99
578.56	52193.95
578.72	51931.81
578.88	52367.15
579.04	52182.24
579.21	51791.37
579.37	51913.08
579.53	51927.13
579.69	52051.17
579.85	52229.05
580.01	52271.18
580.17	52184.58
580.33	52212.67
580.49	52364.81
580.65	52058.20
580.82	52062.88
580.98	52062.88
581.14	51978.62
581.30	52205.65
581.46	52018.41
581.62	51936.49
581.78	52170.54
581.94	52268.84
582.10	52240.76
582.26	52137.77
582.42	52135.43
582.58	52151.82
582.74	52109.69
582.90	52147.14
583.06	52442.04
583.22	52292.25
583.38	52488.85
583.54	52353.10
583.70	52446.72
583.86	52708.86
584.02	52140.11
584.18	52219.69
584.34	52186.92
584.50	52346.08
584.66	52294.59
584.82	51917.76
584.98	52219.69
585.14	52411.62
585.30	51791.37
585.46	52516.94
585.62	52191.61
585.78	52561.41
585.94	51716.48
586.10	51957.55
586.26	52051.17
586.42	52151.82
586.58	52282.89
586.74	52271.18
586.90	52133.09
587.06	52392.89
587.22	52608.22
587.38	52310.97
587.54	52758.02
587.70	52811.85
587.86	52589.50
588.02	52210.33
588.18	52580.13
588.34	52451.41
588.49	52561.41
588.65	52090.96
588.81	52538.01
588.97	52694.82
589.13	52547.37
589.29	52765.04
589.45	52882.06
589.61	52528.64
589.77	52282.89
589.93	52542.69
590.08	52486.51
590.24	52715.89
590.40	52582.48
