SpectraSuite Data File
++++++++++++++++++++++++++++++++++++
Date: Fri Oct 04 11:40:04 GMT-05:00 2013
User: price-jones
Dark Spectrum Present: No
Reference Spectrum Present: No
Number of Sampled Component Spectra: 1
Spectrometers: USB2+H05261
Integration Time (usec): 100000 (USB2+H05261)
Spectra Averaged: 1 (USB2+H05261)
Boxcar Smoothing: 0 (USB2+H05261)
Correct for Electrical Dark: No (USB2+H05261)
Strobe/Lamp Enabled: No (USB2+H05261)
Correct for Detector Non-linearity: No (USB2+H05261)
Correct for Stray Light: No (USB2+H05261)
Number of Pixels in Processed Spectrum: 2048
>>>>>Begin Processed Spectral Data<<<<<
365.73	60.85
365.92	60.85
366.12	60.85
366.32	0.00
366.52	0.00
366.72	0.00
366.91	0.00
367.11	0.00
367.31	0.00
367.51	0.00
367.70	0.00
367.90	0.00
368.10	0.00
368.30	7.02
368.49	0.00
368.69	0.00
368.89	0.00
369.09	0.00
369.28	0.00
369.48	0.00
369.68	42.13
369.87	0.00
370.07	0.00
370.27	35.11
370.47	25.75
370.66	0.00
370.86	0.00
371.06	88.94
371.25	91.28
371.45	67.88
371.65	121.71
371.84	86.60
372.04	93.62
372.24	100.64
372.44	149.79
372.63	16.38
372.83	117.03
373.03	245.76
373.22	93.62
373.42	102.98
373.62	168.52
373.81	121.71
374.01	182.56
374.21	166.18
374.40	161.50
374.60	161.50
374.79	102.98
374.99	88.94
375.19	175.54
375.38	224.69
375.58	156.82
375.78	126.39
375.97	227.03
376.17	212.99
376.37	135.75
376.56	112.35
376.76	142.77
376.95	119.37
377.15	142.77
377.35	138.09
377.54	152.13
377.74	56.17
377.93	124.05
378.13	154.48
378.33	133.41
378.52	154.48
378.72	88.94
378.91	170.86
379.11	67.88
379.31	173.20
379.50	128.73
379.70	117.03
379.89	86.60
380.09	102.98
380.28	63.19
380.48	133.41
380.68	133.41
380.87	152.13
381.07	119.37
381.26	194.26
381.46	161.50
381.65	95.96
381.85	110.01
382.04	126.39
382.24	98.30
382.43	102.98
382.63	81.92
382.83	95.96
383.02	131.07
383.22	201.29
383.41	114.69
383.61	142.77
383.80	210.65
384.00	201.29
384.19	142.77
384.39	86.60
384.58	133.41
384.78	177.88
384.97	93.62
385.17	117.03
385.36	166.18
385.56	159.16
385.75	72.56
385.95	184.90
386.14	149.79
386.34	98.30
386.53	145.11
386.72	119.37
386.92	184.90
387.11	117.03
387.31	126.39
387.50	105.32
387.70	86.60
387.89	210.65
388.09	187.24
388.28	152.13
388.48	156.82
388.67	175.54
388.86	152.13
389.06	88.94
389.25	128.73
389.45	205.97
389.64	145.11
389.84	126.39
390.03	180.22
390.22	170.86
390.42	65.54
390.61	84.26
390.81	147.45
391.00	166.18
391.19	173.20
391.39	124.05
391.58	131.07
391.78	173.20
391.97	210.65
392.16	112.35
392.36	149.79
392.55	212.99
392.75	128.73
392.94	168.52
393.13	170.86
393.33	173.20
393.52	203.63
393.71	231.71
393.91	95.96
394.10	180.22
394.29	159.16
394.49	203.63
394.68	229.37
394.88	196.60
395.07	271.50
395.26	100.64
395.46	201.29
395.65	231.71
395.84	154.48
396.04	250.44
396.23	182.56
396.42	236.39
396.62	252.78
396.81	180.22
397.00	124.05
397.19	187.24
397.39	168.52
397.58	264.48
397.77	182.56
397.97	187.24
398.16	135.75
398.35	201.29
398.55	163.84
398.74	166.18
398.93	257.46
399.12	201.29
399.32	224.69
399.51	255.12
399.70	215.33
399.90	189.58
400.09	194.26
400.28	154.48
400.47	231.71
400.67	308.95
400.86	280.86
401.05	229.37
401.24	285.55
401.44	259.80
401.63	304.27
401.82	301.93
402.01	266.82
402.21	236.39
402.40	262.14
402.59	222.35
402.78	290.23
402.97	236.39
403.17	217.67
403.36	194.26
403.55	271.50
403.74	252.78
403.93	269.16
404.13	320.65
404.32	322.99
404.51	334.70
404.70	308.95
404.89	327.68
405.09	280.86
405.28	252.78
405.47	290.23
405.66	341.72
405.85	292.57
406.05	290.23
406.24	259.80
406.43	304.27
406.62	306.61
406.81	308.95
407.00	271.50
407.20	351.08
407.39	311.29
407.58	327.68
407.77	362.78
407.96	390.87
408.15	306.61
408.34	348.74
408.54	311.29
408.73	374.49
408.92	409.59
409.11	285.55
409.30	407.25
409.49	322.99
409.68	404.91
409.87	367.46
410.07	344.06
410.26	423.64
410.45	451.72
410.64	381.51
410.83	393.21
411.02	355.76
411.21	421.30
411.40	430.66
411.59	404.91
411.78	407.25
411.98	386.19
412.17	461.09
412.36	404.91
412.55	418.96
412.74	397.89
412.93	519.60
413.12	388.53
413.31	463.43
413.50	493.85
413.69	468.11
413.88	517.26
414.07	421.30
414.26	468.11
414.45	493.85
414.64	463.43
414.83	505.56
415.02	498.53
415.22	472.79
415.41	472.79
415.60	561.73
415.79	552.37
415.98	617.90
416.17	552.37
416.36	493.85
416.55	489.17
416.74	528.96
416.93	620.24
417.12	550.03
417.31	571.09
417.50	550.03
417.69	582.79
417.88	575.77
418.07	557.05
418.26	589.82
418.45	596.84
418.64	603.86
418.83	629.60
419.02	608.54
419.21	655.35
419.39	615.56
419.58	601.52
419.77	566.41
419.96	643.65
420.15	580.45
420.34	620.24
420.53	692.80
420.72	676.41
420.91	557.05
421.10	669.39
421.29	720.88
421.48	711.52
421.67	702.16
421.86	655.35
422.05	657.69
422.24	636.63
422.43	641.31
422.61	676.41
422.80	571.09
422.99	678.76
423.18	580.45
423.37	540.66
423.56	697.48
423.75	629.60
423.94	617.90
424.13	636.63
424.32	709.18
424.50	692.80
424.69	709.18
424.88	662.37
425.07	650.67
425.26	629.60
425.45	653.01
425.64	627.26
425.83	746.63
426.01	739.61
426.20	683.44
426.39	711.52
426.58	716.20
426.77	676.41
426.96	755.99
427.15	629.60
427.33	746.63
427.52	725.57
427.71	678.76
427.90	725.57
428.09	704.50
428.28	702.16
428.46	744.29
428.65	781.74
428.84	734.93
429.03	739.61
429.22	723.23
429.40	702.16
429.59	716.20
429.78	767.70
429.97	744.29
430.16	760.67
430.34	741.95
430.53	760.67
430.72	739.61
430.91	767.70
431.10	727.91
431.28	755.99
431.47	772.38
431.66	835.57
431.85	737.27
432.03	767.70
432.22	880.04
432.41	828.55
432.60	791.10
432.79	753.65
432.97	854.30
433.16	777.06
433.35	802.80
433.54	847.27
433.72	866.00
433.91	823.87
434.10	826.21
434.28	828.55
434.47	767.70
434.66	844.93
434.85	830.89
435.03	957.28
435.22	1163.25
435.41	1530.71
435.59	1570.50
435.78	1315.38
435.97	1107.07
436.16	1048.56
436.34	922.17
436.53	849.61
436.72	1006.43
436.90	854.30
437.09	908.13
437.28	945.58
437.46	873.02
437.65	908.13
437.84	931.53
438.02	851.96
438.21	978.34
438.40	915.15
438.58	940.90
438.77	985.37
438.96	929.19
439.14	997.07
439.33	917.49
439.52	1025.15
439.70	997.07
439.89	957.28
440.08	980.68
440.26	931.53
440.45	1025.15
440.63	1057.92
440.82	961.96
441.01	973.66
441.19	1067.28
441.38	1053.24
441.57	1069.62
441.75	957.28
441.94	1181.97
442.12	985.37
442.31	1013.45
442.50	1057.92
442.68	978.34
442.87	1107.07
443.05	1039.20
443.24	1025.15
443.43	1081.33
443.61	1144.52
443.80	1086.01
443.98	1135.16
444.17	1109.41
444.35	1029.84
444.54	1121.12
444.73	1165.59
444.91	1165.59
445.10	1060.26
445.28	1064.94
445.47	1104.73
445.65	1043.88
445.84	1116.44
446.02	1121.12
446.21	1191.33
446.39	1188.99
446.58	1128.14
446.77	1062.60
446.95	1139.84
447.14	1167.93
447.32	1170.27
447.51	1158.57
447.69	1156.22
447.88	1081.33
448.06	1088.35
448.25	990.05
448.43	1102.39
448.62	1100.05
448.80	1149.20
448.99	1177.29
449.17	1203.04
449.36	1158.57
449.54	1214.74
449.73	1238.14
449.91	1252.19
450.10	1135.16
450.28	1186.65
450.46	1100.05
450.65	1174.95
450.83	1193.67
451.02	1196.01
451.20	1151.54
451.39	1170.27
451.57	1100.05
451.76	1184.31
451.94	1132.82
452.13	1174.95
452.31	1268.57
452.49	1214.74
452.68	1153.88
452.86	1188.99
453.05	1231.12
453.23	1268.57
453.42	1163.25
453.60	1252.19
453.78	1184.31
453.97	1252.19
454.15	1233.46
454.34	1200.69
454.52	1193.67
454.70	1320.06
454.89	1228.78
455.07	1306.02
455.26	1273.25
455.44	1299.00
455.62	1247.51
455.81	1268.57
455.99	1303.68
456.17	1238.14
456.36	1341.13
456.54	1266.23
456.73	1390.28
456.91	1303.68
457.09	1362.19
457.28	1338.79
457.46	1348.15
457.64	1394.96
457.83	1345.81
458.01	1291.98
458.19	1357.51
458.38	1394.96
458.56	1334.11
458.74	1385.60
458.93	1380.92
459.11	1387.94
459.29	1406.66
459.48	1369.21
459.66	1425.39
459.84	1458.15
460.03	1544.75
460.21	1341.13
460.39	1413.68
460.57	1413.68
460.76	1371.55
460.94	1399.64
461.12	1448.79
461.31	1355.17
461.49	1401.98
461.67	1455.81
461.85	1446.45
462.04	1495.60
462.22	1858.39
462.40	1439.43
462.59	1455.81
462.77	1451.13
462.95	1493.26
463.13	1427.73
463.32	1451.13
463.50	1406.66
463.68	1563.48
463.86	1486.24
464.05	1462.83
464.23	1549.43
464.41	1507.30
464.59	1462.83
464.78	1483.90
464.96	1451.13
465.14	1397.30
465.32	1469.86
465.50	1568.16
465.69	1577.52
465.87	1535.39
466.05	1486.24
466.23	1341.13
466.41	1572.84
466.60	1488.58
466.78	1504.96
466.96	1509.65
467.14	1488.58
467.32	1542.41
467.51	1612.63
467.69	1535.39
467.87	1516.67
468.05	1579.86
468.23	1692.21
468.41	1568.16
468.60	1549.43
468.78	1603.27
468.96	1624.33
469.14	1614.97
469.32	1614.97
469.50	1497.94
469.69	1617.31
469.87	1600.93
470.05	1717.95
470.23	1575.18
470.41	1701.57
470.59	1743.70
470.77	1696.89
470.95	1636.03
471.14	1593.90
471.32	1638.38
471.50	1739.02
471.68	1717.95
471.86	1680.50
472.04	1708.59
472.22	1717.95
472.40	1685.19
472.58	1795.19
472.77	1809.23
472.95	1748.38
473.13	1895.83
473.31	1706.25
473.49	1675.82
473.67	1703.91
473.85	1809.23
474.03	1797.53
474.21	1732.00
474.39	1858.39
474.57	1865.41
474.75	1778.81
474.93	1790.51
475.12	1902.86
475.30	1919.24
475.48	1926.26
475.66	1781.15
475.84	1856.04
476.02	1900.52
476.20	1959.03
476.38	1877.11
476.56	1982.43
476.74	1956.69
476.92	1921.58
477.10	1921.58
477.28	2078.40
477.46	1952.01
477.64	1935.62
477.82	2022.22
478.00	2094.78
478.18	2054.99
478.36	2148.61
478.54	2085.42
478.72	2062.01
478.90	2127.55
479.08	2120.53
479.26	2106.48
479.44	2223.51
479.62	2143.93
479.80	2108.82
479.98	2188.40
480.16	2305.43
480.34	2319.47
480.52	2253.94
480.70	2260.96
480.88	2253.94
481.06	2352.24
481.24	2321.81
481.41	2190.74
481.59	2422.45
481.77	2331.17
481.95	2286.70
482.13	2307.77
482.31	2363.94
482.49	2396.71
482.67	2492.67
482.85	2438.84
483.03	2361.60
483.21	2368.62
483.39	2485.65
483.57	2476.29
483.74	2651.83
483.92	2562.89
484.10	2452.88
484.28	2623.74
484.46	2747.79
484.64	2630.76
484.82	2658.85
485.00	2820.35
485.18	2593.31
485.35	2832.05
485.53	2696.30
485.71	2834.39
485.89	2719.70
486.07	2801.62
486.25	2939.71
486.43	2888.22
486.61	2918.65
486.78	2836.73
486.96	2928.01
487.14	2967.80
487.32	2988.86
487.50	2911.63
487.68	2991.20
487.85	3021.63
488.03	3171.43
488.21	3143.34
488.39	3164.40
488.57	3028.65
488.75	3000.57
488.92	3293.13
489.10	3213.56
489.28	3164.40
489.46	3302.50
489.64	3243.98
489.81	3302.50
489.99	3302.50
490.17	3164.40
490.35	3356.33
490.53	3389.10
490.70	3428.88
490.88	3342.28
491.06	3190.15
491.24	3253.34
491.41	3365.69
491.59	3386.76
491.77	3447.61
491.95	3372.71
492.13	3473.36
492.30	3482.72
492.48	3459.31
492.66	3524.85
492.84	3620.81
493.01	3756.56
493.19	3602.08
493.37	3646.55
493.54	3695.71
493.72	3669.96
493.90	3613.79
494.08	3768.26
494.25	3667.62
494.43	3784.65
494.61	3719.11
494.79	3676.98
494.96	3740.18
495.14	3770.60
495.32	3726.13
495.49	3812.73
495.67	3803.37
495.85	3777.62
496.02	3927.42
496.20	3920.40
496.38	3915.72
496.55	3929.76
496.73	4093.60
496.91	3990.61
497.09	3964.87
497.26	4037.42
497.44	3960.19
497.62	3974.23
497.79	4229.35
497.97	4084.23
498.14	4124.02
498.32	4198.92
498.50	4105.30
498.67	4067.85
498.85	4138.07
499.03	4250.41
499.20	4126.36
499.38	4166.15
499.56	4149.77
499.73	4388.50
499.91	4313.61
500.08	4315.95
500.26	4386.16
500.44	4353.40
500.61	4341.69
500.79	4407.23
500.97	4292.54
501.14	4360.42
501.32	4379.14
501.49	4365.10
501.67	4395.53
501.84	4292.54
502.02	4400.21
502.20	4423.61
502.37	4376.80
502.55	4465.74
502.72	4496.17
502.90	4505.53
503.07	4557.02
503.25	4587.45
503.43	4610.86
503.60	4468.08
503.78	4559.36
503.95	4528.94
504.13	4538.30
504.30	4526.60
504.48	4479.79
504.65	4557.02
504.83	4667.03
505.01	4566.39
505.18	4685.75
505.36	4634.26
505.53	4678.73
505.71	4765.33
505.88	4807.46
506.06	4594.47
506.23	4779.37
506.41	4779.37
506.58	4828.53
506.76	4840.23
506.93	4746.61
507.11	4856.61
507.28	4788.74
507.46	4840.23
507.63	4772.35
507.81	5039.17
507.98	5043.85
508.16	4873.00
508.33	4908.10
508.50	4819.16
508.68	5006.41
508.85	4985.34
509.03	5011.09
509.20	5006.41
509.38	5025.13
509.55	5095.35
509.73	4936.19
509.90	5025.13
510.08	5050.88
510.25	5064.92
510.42	5022.79
510.60	5277.91
510.77	5111.73
510.95	5369.19
511.12	5153.86
511.30	5107.05
511.47	5181.95
511.64	5163.22
511.82	5238.12
511.99	5242.80
512.17	5378.55
512.34	5212.37
512.51	5153.86
512.69	5177.26
512.86	5313.02
513.04	5369.19
513.21	5329.40
513.38	5322.38
513.56	5254.50
513.73	5226.42
513.90	5146.84
514.08	5273.23
514.25	5444.09
514.43	5462.81
514.60	5399.62
514.77	5308.34
514.95	5420.68
515.12	5495.58
515.29	5455.79
515.47	5357.49
515.64	5439.40
515.81	5408.98
515.99	5533.03
516.16	5614.95
516.33	5596.22
516.51	5558.77
516.68	5394.93
516.85	5399.62
517.03	5509.62
517.20	5511.96
517.37	5621.97
517.54	5565.79
517.72	5397.28
517.89	5526.00
518.06	5633.67
518.24	5383.23
518.41	5523.66
518.58	5689.84
518.75	5694.52
518.93	5797.51
519.10	5738.99
519.27	5715.59
519.45	5699.20
519.62	5692.18
519.79	5790.49
519.96	5825.59
520.14	5708.57
520.31	5802.19
520.48	5858.36
520.65	5827.93
520.83	5785.80
521.00	6024.54
521.17	5647.71
521.34	5856.02
521.52	5813.89
521.69	5858.36
521.86	5811.55
522.03	5860.70
522.20	5996.45
522.38	5884.11
522.55	5898.15
522.72	6043.26
522.89	6052.63
523.07	6050.28
523.24	6080.71
523.41	6024.54
523.58	5898.15
523.75	5895.81
523.92	6080.71
524.10	6195.40
524.27	6200.08
524.44	6059.65
524.61	6019.86
524.78	6333.49
524.96	6115.82
525.13	6197.74
525.30	6064.33
525.47	6022.20
525.64	6179.01
525.81	6129.86
525.98	6221.14
526.16	6174.33
526.33	6176.67
526.50	6143.91
526.67	6097.10
526.84	6141.57
527.01	6085.39
527.18	6204.76
527.36	6272.64
527.53	6132.20
527.70	6289.02
527.87	6422.43
528.04	6232.85
528.21	6284.34
528.38	6279.66
528.55	6230.51
528.72	6368.60
528.89	6382.64
529.07	6462.22
529.24	6314.77
529.41	6403.71
529.58	6356.90
529.75	6258.59
529.92	6345.19
530.09	6436.47
530.26	6427.11
530.43	6546.48
530.60	6399.02
530.77	6326.47
530.94	6448.18
531.11	6558.18
531.28	6366.26
531.46	6265.61
531.63	6471.58
531.80	6368.60
531.97	6607.33
532.14	6523.07
532.31	6602.65
532.48	6469.24
532.65	6534.78
532.82	6534.78
532.99	6396.68
533.16	6672.87
533.33	6602.65
533.50	6649.46
533.67	6771.17
533.84	6520.73
534.01	6621.38
534.18	6616.69
534.35	6551.16
534.52	6462.22
534.69	6888.20
534.86	6661.16
535.03	6738.40
535.20	6752.45
535.37	6682.23
535.54	6729.04
535.71	6750.10
535.88	6672.87
536.05	6642.44
536.22	6801.60
536.38	6857.77
536.55	6787.55
536.72	6803.94
536.89	6857.77
537.06	6677.55
537.23	6752.45
537.40	6600.31
537.57	6766.49
537.74	6832.02
537.91	6801.60
538.08	6923.30
538.25	6780.53
538.42	6911.60
538.59	7098.84
538.75	6729.04
538.92	6848.41
539.09	7012.24
539.26	6981.82
539.43	7059.06
539.60	7007.56
539.77	7150.34
539.94	7190.13
540.11	7136.29
540.28	7122.25
540.44	7133.95
540.61	7222.89
540.78	7403.11
540.95	7311.83
541.12	7335.24
541.29	7569.29
541.46	7592.70
541.62	7616.10
541.79	7747.17
541.96	7564.61
542.13	7789.30
542.30	7632.49
542.47	7714.41
542.63	7714.41
542.80	7660.57
542.97	7648.87
543.14	7618.44
543.31	7576.31
543.48	7585.68
543.64	7648.87
543.81	7609.08
543.98	7775.26
544.15	7775.26
544.32	7569.29
544.48	7754.19
544.65	7658.23
544.82	7625.47
544.99	7761.22
545.16	7550.57
545.32	7831.43
545.49	8201.24
545.66	8709.13
545.83	9310.65
546.00	8912.76
546.16	8327.63
546.33	7847.82
546.50	7728.45
546.67	7662.91
546.83	7452.27
547.00	7538.87
547.17	7356.30
547.34	7646.53
547.50	7426.52
547.67	7550.57
547.84	7571.63
548.00	7573.97
548.17	7709.72
548.34	7403.11
548.51	7555.25
548.67	7555.25
548.84	7510.78
549.01	7517.80
549.18	7571.63
549.34	7529.50
549.51	7522.48
549.68	7478.01
549.84	7379.71
550.01	7330.56
550.18	7531.84
550.34	7438.22
550.51	7382.05
550.68	7459.29
550.84	7375.03
551.01	7435.88
551.18	7581.00
551.34	7442.90
551.51	7370.35
551.68	7400.77
551.84	7431.20
552.01	7611.42
552.18	7368.01
552.34	7419.50
552.51	7485.03
552.68	7541.21
552.84	7199.49
553.01	7339.92
553.18	7438.22
553.34	7440.56
553.51	7412.48
553.67	7536.52
553.84	7550.57
554.01	7620.78
554.17	7520.14
554.34	7351.62
554.51	7478.01
554.67	7541.21
554.84	7480.35
555.00	7435.88
555.17	7360.98
555.33	7370.35
555.50	7405.46
555.67	7248.64
555.83	7393.75
556.00	7309.49
556.16	7756.54
556.33	7321.20
556.50	7213.53
556.66	7358.64
556.83	7393.75
556.99	7478.01
557.16	7323.54
557.32	7360.98
557.49	7489.71
557.65	7410.14
557.82	7433.54
557.98	7501.42
558.15	7534.18
558.32	7377.37
558.48	7356.30
558.65	7506.10
558.81	7489.71
558.98	7573.97
559.14	7466.31
559.31	7382.05
559.47	7243.96
559.64	7499.08
559.80	7290.77
559.97	7463.97
560.13	7538.87
560.30	7569.29
560.46	7377.37
560.63	7482.69
560.79	7363.33
560.96	7400.77
561.12	7566.95
561.29	7452.27
561.45	7412.48
561.61	7363.33
561.78	7709.72
561.94	7660.57
562.11	7784.62
562.27	7438.22
562.44	7576.31
562.60	7487.37
562.77	7531.84
562.93	7407.80
563.10	7382.05
563.26	7365.67
563.42	7318.86
563.59	7459.29
563.75	7492.05
563.92	7485.03
564.08	7534.18
564.24	7627.81
564.41	7524.82
564.57	7733.13
564.74	7365.67
564.90	7599.72
565.07	7473.33
565.23	7576.31
565.39	7449.93
565.56	7339.92
565.72	7470.99
565.88	7449.93
566.05	7389.07
566.21	7515.46
566.38	7499.08
566.54	7466.31
566.70	7529.50
566.87	7545.89
567.03	7688.66
567.19	7576.31
567.36	7578.65
567.52	7513.12
567.68	7463.97
567.85	7417.16
568.01	7564.61
568.17	7489.71
568.34	7522.48
568.50	7461.63
568.66	7487.37
568.83	7646.53
568.99	7658.23
569.15	7503.76
569.32	7569.29
569.48	7492.05
569.64	7503.76
569.81	7412.48
569.97	7583.34
570.13	7499.08
570.30	7447.58
570.46	7637.17
570.62	7782.28
570.78	7449.93
570.95	7599.72
571.11	7501.42
571.27	7473.33
571.43	7513.12
571.60	7646.53
571.76	7494.40
571.92	7541.21
572.09	7438.22
572.25	7719.09
572.41	7714.41
572.57	7342.26
572.74	7595.04
572.90	7564.61
573.06	7510.78
573.22	7463.97
573.38	7510.78
573.55	7475.67
573.71	7632.49
573.87	7644.19
574.03	7522.48
574.20	7588.02
574.36	7772.92
574.52	7506.10
574.68	7716.75
574.84	7695.68
575.01	7508.44
575.17	7630.15
575.33	7590.36
575.49	7517.80
575.65	7754.19
575.82	7545.89
575.98	7707.38
576.14	7391.41
576.30	7508.44
576.46	7758.88
576.62	7740.15
576.79	7983.57
576.95	7908.67
577.11	7681.64
577.27	7740.15
577.43	7520.14
577.59	7669.94
577.75	7672.28
577.92	7581.00
578.08	7552.91
578.24	7606.74
578.40	7691.00
578.56	7667.60
578.72	7981.23
578.88	7817.39
579.04	7925.05
579.21	7903.99
579.37	7531.84
579.53	7604.40
579.69	7686.32
579.85	7606.74
580.01	7581.00
580.17	7653.55
580.33	7613.76
580.49	7693.34
580.65	7826.75
580.82	7747.17
580.98	7707.38
581.14	7585.68
581.30	7639.51
581.46	7527.16
581.62	7655.89
581.78	7543.55
581.94	7660.57
582.10	7777.60
582.26	7602.06
582.42	7758.88
582.58	7894.63
582.74	7662.91
582.90	7637.17
583.06	7943.78
583.22	7515.46
583.38	7852.50
583.54	7805.69
583.70	7655.89
583.86	7609.08
584.02	7847.82
584.18	7756.54
584.34	7641.85
584.50	7868.88
584.66	7660.57
584.82	7695.68
584.98	7779.94
585.14	7852.50
585.30	7578.65
585.46	7978.89
585.62	7829.09
585.78	7840.79
585.94	7655.89
586.10	7646.53
586.26	7777.60
586.42	7691.00
586.58	7843.14
586.74	7871.22
586.90	7885.26
587.06	7913.35
587.22	8004.63
587.38	7861.86
587.54	7709.72
587.70	7763.56
587.86	7761.22
588.02	7747.17
588.18	7744.83
588.34	7597.38
588.49	7857.18
588.65	7653.55
588.81	7669.94
588.97	7716.75
589.13	7667.60
589.29	7686.32
589.45	7630.15
589.61	7735.47
589.77	7737.81
589.93	7620.78
590.08	7836.11
590.24	7817.39
590.40	7744.83
590.56	7796.32
590.72	7683.98
590.88	7555.25
591.04	7707.38
591.20	7583.34
591.35	8046.76
591.51	7761.22
591.67	7826.75
591.83	7784.62
591.99	7765.90
592.15	7733.13
592.31	7761.22
592.46	7866.54
592.62	7754.19
592.78	7712.07
592.94	7772.92
593.10	7754.19
593.26	7838.45
593.41	7819.73
593.57	7815.05
593.73	7719.09
593.89	7674.62
594.05	7791.64
594.20	7779.94
594.36	7740.15
594.52	7606.74
594.68	7625.47
594.84	7655.89
594.99	7648.87
595.15	7571.63
595.31	7751.85
595.47	7833.77
595.62	7709.72
595.78	7665.25
595.94	7805.69
596.10	7740.15
596.25	7651.21
596.41	7634.83
596.57	7648.87
596.73	7770.58
596.88	7754.19
597.04	7831.43
597.20	7639.51
597.36	7651.21
597.51	7885.26
597.67	7658.23
597.83	7662.91
597.99	7712.07
598.14	7609.08
598.30	7583.34
598.46	7590.36
598.61	7700.36
598.77	7719.09
598.93	7606.74
599.09	7749.51
599.24	7679.30
599.40	7658.23
599.56	7763.56
599.71	7798.66
599.87	7791.64
600.03	7686.32
600.18	7775.26
600.34	7833.77
600.50	7632.49
