SpectraSuite Data File
++++++++++++++++++++++++++++++++++++
Date: Fri Oct 04 11:39:54 GMT-05:00 2013
User: price-jones
Dark Spectrum Present: No
Reference Spectrum Present: No
Number of Sampled Component Spectra: 1
Spectrometers: USB2+H05261
Integration Time (usec): 100000 (USB2+H05261)
Spectra Averaged: 1 (USB2+H05261)
Boxcar Smoothing: 0 (USB2+H05261)
Correct for Electrical Dark: No (USB2+H05261)
Strobe/Lamp Enabled: No (USB2+H05261)
Correct for Detector Non-linearity: No (USB2+H05261)
Correct for Stray Light: No (USB2+H05261)
Number of Pixels in Processed Spectrum: 2048
>>>>>Begin Processed Spectral Data<<<<<
365.73	84.26
365.92	84.26
366.12	84.26
366.32	0.00
366.52	4.68
366.72	0.00
366.91	0.00
367.11	0.00
367.31	0.00
367.51	0.00
367.70	0.00
367.90	0.00
368.10	0.00
368.30	0.00
368.49	0.00
368.69	0.00
368.89	0.00
369.09	16.38
369.28	0.00
369.48	0.00
369.68	0.00
369.87	0.00
370.07	65.54
370.27	4.68
370.47	131.07
370.66	95.96
370.86	156.82
371.06	170.86
371.25	191.92
371.45	142.77
371.65	117.03
371.84	95.96
372.04	140.43
372.24	173.20
372.44	238.73
372.63	222.35
372.83	145.11
373.03	175.54
373.22	175.54
373.42	152.13
373.62	280.86
373.81	227.03
374.01	264.48
374.21	280.86
374.40	252.78
374.60	299.59
374.79	301.93
374.99	264.48
375.19	255.12
375.38	248.10
375.58	264.48
375.78	283.20
375.97	262.14
376.17	241.08
376.37	236.39
376.56	243.42
376.76	201.29
376.95	182.56
377.15	189.58
377.35	241.08
377.54	215.33
377.74	238.73
377.93	259.80
378.13	306.61
378.33	283.20
378.52	203.63
378.72	231.71
378.91	259.80
379.11	301.93
379.31	217.67
379.50	194.26
379.70	262.14
379.89	196.60
380.09	241.08
380.28	250.44
380.48	184.90
380.68	245.76
380.87	198.95
381.07	245.76
381.26	220.01
381.46	304.27
381.65	308.95
381.85	212.99
382.04	271.50
382.24	322.99
382.43	325.33
382.63	236.39
382.83	245.76
383.02	217.67
383.22	332.36
383.41	269.16
383.61	276.18
383.80	252.78
384.00	285.55
384.19	327.68
384.39	285.55
384.58	287.89
384.78	255.12
384.97	362.78
385.17	299.59
385.36	203.63
385.56	372.15
385.75	346.40
385.95	255.12
386.14	304.27
386.34	304.27
386.53	315.97
386.72	271.50
386.92	285.55
387.11	299.59
387.31	339.38
387.50	297.25
387.70	313.63
387.89	285.55
388.09	306.61
388.28	285.55
388.48	318.31
388.67	304.27
388.86	358.10
389.06	306.61
389.25	351.08
389.45	266.82
389.64	330.02
389.84	369.80
390.03	351.08
390.22	362.78
390.42	390.87
390.61	304.27
390.81	318.31
391.00	308.95
391.19	411.93
391.39	351.08
391.58	360.44
391.78	430.66
391.97	383.85
392.16	355.76
392.36	428.32
392.55	430.66
392.75	388.53
392.94	433.00
393.13	435.34
393.33	360.44
393.52	397.89
393.71	393.21
393.91	376.83
394.10	383.85
394.29	468.11
394.49	451.72
394.68	386.19
394.88	393.21
395.07	332.36
395.26	479.81
395.46	407.25
395.65	430.66
395.84	433.00
396.04	491.51
396.23	454.06
396.42	360.44
396.62	442.36
396.81	386.19
397.00	456.40
397.19	496.19
397.39	411.93
397.58	528.96
397.77	484.49
397.97	505.56
398.16	510.24
398.35	496.19
398.55	552.37
398.74	512.58
398.93	507.90
399.12	510.24
399.32	587.47
399.51	538.32
399.70	543.00
399.90	540.66
400.09	557.05
400.28	568.75
400.47	608.54
400.67	531.30
400.86	624.92
401.05	648.33
401.24	615.56
401.44	671.73
401.63	617.90
401.82	610.88
402.01	594.50
402.21	528.96
402.40	641.31
402.59	669.39
402.78	660.03
402.97	657.69
403.17	744.29
403.36	725.57
403.55	704.50
403.74	685.78
403.93	777.06
404.13	795.78
404.32	739.61
404.51	730.25
404.70	823.87
404.89	678.76
405.09	732.59
405.28	791.10
405.47	744.29
405.66	713.86
405.85	856.64
406.05	777.06
406.24	826.21
406.43	875.36
406.62	791.10
406.81	905.79
407.00	924.51
407.20	870.68
407.39	917.49
407.58	952.60
407.77	861.32
407.96	901.11
408.15	856.64
408.34	1034.52
408.54	999.41
408.73	954.94
408.92	994.73
409.11	968.98
409.30	978.34
409.49	1041.54
409.68	1053.24
409.87	983.02
410.07	1118.78
410.26	1097.71
410.45	1088.35
410.64	1050.90
410.83	1081.33
411.02	1156.22
411.21	1156.22
411.40	1210.06
411.59	1196.01
411.78	1277.93
411.98	1231.12
412.17	1310.70
412.36	1221.76
412.55	1320.06
412.74	1291.98
412.93	1409.00
413.12	1364.53
413.31	1355.17
413.50	1446.45
413.69	1313.04
413.88	1432.41
414.07	1423.05
414.26	1299.00
414.45	1448.79
414.64	1507.30
414.83	1479.22
415.02	1481.56
415.22	1554.12
415.41	1647.74
415.60	1542.41
415.79	1554.12
415.98	1526.03
416.17	1572.84
416.36	1603.27
416.55	1638.38
416.74	1584.54
416.93	1689.87
417.12	1727.32
417.31	1652.42
417.50	1689.87
417.69	1860.73
417.88	1708.59
418.07	1732.00
418.26	1818.60
418.45	1783.49
418.64	1839.66
418.83	1839.66
419.02	1870.09
419.21	1891.15
419.39	1919.24
419.58	1902.86
419.77	1874.77
419.96	1863.07
420.15	1947.33
420.34	1959.03
420.53	1991.80
420.72	1900.52
420.91	1921.58
421.10	2078.40
421.29	2003.50
421.48	1963.71
421.67	2155.63
421.86	2026.90
422.05	1980.09
422.24	1973.07
422.43	2120.53
422.61	2040.95
422.80	2136.91
422.99	2019.88
423.18	2146.27
423.37	2115.84
423.56	2078.40
423.75	2146.27
423.94	2031.58
424.13	2052.65
424.32	2045.63
424.50	2087.76
424.69	2186.06
424.88	2099.46
425.07	2050.31
425.26	2172.02
425.45	2186.06
425.64	2038.61
425.83	2108.82
426.01	2228.19
426.20	2143.93
426.39	2228.19
426.58	2071.37
426.77	2148.61
426.96	2284.36
427.15	2204.78
427.33	2162.66
427.52	2169.68
427.71	2282.02
427.90	2270.32
428.09	2239.89
428.28	2363.94
428.46	2214.15
428.65	2338.20
428.84	2495.01
429.03	2462.24
429.22	2246.91
429.40	2464.58
429.59	2457.56
429.78	2270.32
429.97	2265.64
430.16	2214.15
430.34	2431.82
430.53	2349.90
430.72	2349.90
430.91	2445.86
431.10	2403.73
431.28	2417.77
431.47	2544.16
431.66	2551.18
431.85	2424.80
432.03	2455.22
432.22	2572.25
432.41	2576.93
432.60	2628.42
432.79	2616.72
432.97	2565.23
433.16	2668.21
433.35	2654.17
433.54	2590.97
433.72	2684.59
433.91	2724.38
434.10	2593.31
434.28	2684.59
434.47	2766.51
434.66	2693.96
434.85	2736.09
435.03	2752.47
435.22	2951.42
435.41	3274.41
435.59	3239.30
435.78	3061.42
435.97	2846.09
436.16	2930.35
436.34	2881.20
436.53	2843.75
436.72	2888.22
436.90	2771.19
437.09	2928.01
437.28	2818.00
437.46	2993.55
437.65	2930.35
437.84	3005.25
438.02	2974.82
438.21	2932.69
438.40	2888.22
438.58	3087.17
438.77	3073.12
438.96	2965.46
439.14	3173.77
439.33	3108.23
439.52	3073.12
439.70	3073.12
439.89	3309.52
440.08	3164.40
440.26	3344.63
440.45	3218.24
440.63	3222.92
440.82	3274.41
441.01	3300.16
441.19	3375.05
441.38	3398.46
441.57	3419.52
441.75	3304.84
441.94	3503.78
442.12	3506.12
442.31	3473.36
442.50	3581.02
442.68	3442.93
442.87	3550.59
443.05	3412.50
443.24	3644.21
443.43	3686.34
443.61	3618.47
443.80	3599.74
443.98	3623.15
444.17	3473.36
444.35	3658.26
444.54	3665.28
444.73	3735.50
444.91	3599.74
445.10	3616.13
445.28	3655.92
445.47	3527.19
445.65	3719.11
445.84	3737.84
446.02	3794.01
446.21	3751.88
446.39	3803.37
446.58	3688.68
446.77	3892.31
446.95	3775.28
447.14	3772.94
447.32	3749.54
447.51	3770.60
447.69	3784.65
447.88	3709.75
448.06	3693.37
448.25	3667.62
448.43	3775.28
448.62	3878.27
448.80	3798.69
448.99	3857.20
449.17	3796.35
449.36	3779.97
449.54	3948.48
449.73	3889.97
449.91	3906.35
450.10	3953.16
450.28	4114.66
450.46	4011.68
450.65	3983.59
450.83	3918.06
451.02	4060.83
451.20	4049.13
451.39	4109.98
451.57	3920.40
451.76	3985.93
451.94	4177.86
452.13	4269.14
452.31	4140.41
452.49	4046.79
452.68	4109.98
452.86	4014.02
453.05	4124.02
453.23	4124.02
453.42	4231.69
453.60	4098.28
453.78	4166.15
453.97	4088.92
454.15	4182.54
454.34	4016.36
454.52	4341.69
454.70	4203.60
454.89	4219.99
455.07	4203.60
455.26	4304.25
455.44	4337.01
455.62	4407.23
455.81	4369.78
455.99	4355.74
456.17	4313.61
456.36	4521.92
456.54	4498.51
456.73	4627.24
456.91	4425.95
457.09	4608.51
457.28	4517.23
457.46	4470.42
457.64	4545.32
457.83	4678.73
458.01	4409.57
458.19	4755.97
458.38	4723.20
458.56	4807.46
458.74	4793.42
458.93	4697.46
459.11	4718.52
459.29	4692.77
459.48	4734.90
459.66	4833.21
459.84	4746.61
460.03	4732.56
460.21	4784.06
460.39	4748.95
460.57	4830.87
460.76	4919.81
460.94	4823.84
461.12	4908.10
461.31	5001.72
461.49	4854.27
461.67	4959.60
461.85	5076.62
462.04	4940.87
462.22	5460.47
462.40	5046.20
462.59	5032.15
462.77	5137.48
462.95	5053.22
463.13	5231.10
463.32	5212.37
463.50	5338.76
463.68	5203.01
463.86	5228.76
464.05	5057.90
464.23	5130.45
464.41	5217.05
464.59	5043.85
464.78	5219.39
464.96	5313.02
465.14	5149.18
465.32	5294.29
465.50	5408.98
465.69	5413.66
465.87	5167.90
466.05	5439.40
466.23	5338.76
466.41	5350.46
466.60	5423.02
466.78	5329.40
466.96	5298.97
467.14	5322.38
467.32	5411.32
467.51	5523.66
467.69	5504.94
467.87	5572.82
468.05	5446.43
468.23	5514.30
468.41	5416.00
468.60	5530.69
468.78	5579.84
468.96	5483.88
469.14	5685.16
469.32	5619.63
469.50	5500.26
469.69	5619.63
469.87	5696.86
470.05	5837.30
470.23	5706.23
470.41	5645.37
470.59	5764.74
470.77	5795.17
470.95	5865.38
471.14	5991.77
471.32	5806.87
471.50	6083.05
471.68	5930.92
471.86	6101.78
472.04	5827.93
472.22	6019.86
472.40	5874.74
472.58	6024.54
472.77	6122.84
472.95	6200.08
473.13	6258.59
473.31	6303.06
473.49	6092.41
473.67	6221.14
473.85	6141.57
474.03	6307.74
474.21	6258.59
474.39	6265.61
474.57	6478.60
474.75	6546.48
474.93	6588.61
475.12	6452.86
475.30	6693.93
475.48	6457.54
475.66	6745.42
475.84	6642.44
476.02	6621.38
476.20	6670.53
476.38	7021.61
476.56	7002.88
476.74	6841.39
476.92	6832.02
477.10	7007.56
477.28	7122.25
477.46	7030.97
477.64	7110.55
477.82	7157.36
478.00	7272.04
478.18	7309.49
478.36	7419.50
478.54	7510.78
478.72	7365.67
478.90	7573.97
479.08	7550.57
479.26	7562.27
479.44	7609.08
479.62	7871.22
479.80	7843.14
479.98	7723.77
480.16	7850.16
480.34	7960.16
480.52	7948.46
480.70	8152.09
480.88	8032.72
481.06	8053.78
481.24	7824.41
481.41	8313.58
481.59	8365.07
481.77	8404.86
481.95	8468.06
482.13	8599.13
482.31	8547.64
482.49	8575.72
482.67	8793.39
482.85	8861.27
483.03	8882.33
483.21	8894.04
483.39	9090.64
483.57	9053.19
483.74	8990.00
483.92	9217.03
484.10	9114.05
484.28	9390.23
484.46	9430.02
484.64	9568.11
484.82	9479.17
485.00	9647.69
485.18	9912.17
485.35	9834.93
485.53	10012.81
485.71	10010.47
485.89	9991.75
486.07	10122.82
486.25	10169.63
486.43	10216.44
486.61	10274.95
486.78	10406.02
486.96	10445.81
487.14	10609.65
487.32	10497.30
487.50	10527.73
487.68	10743.06
487.85	10871.79
488.03	10981.79
488.21	11389.05
488.39	11166.70
488.57	11276.70
488.75	11126.91
488.92	11681.61
489.10	11709.70
489.28	11531.82
489.46	11805.66
489.64	11428.84
489.81	11791.62
489.99	12093.55
490.17	12053.76
490.35	11992.90
490.53	12088.87
490.70	12294.83
490.88	12362.71
491.06	12325.26
491.24	12355.69
491.41	12430.59
491.59	12638.89
491.77	12606.13
491.95	12798.05
492.13	12826.14
492.30	13238.07
492.48	12966.57
492.66	13020.40
492.84	12985.29
493.01	13156.15
493.19	13214.66
493.37	13310.63
493.54	13219.35
493.72	13455.74
493.90	13476.80
494.08	13532.98
494.25	13900.44
494.43	13715.54
494.61	14094.71
494.79	13933.21
494.96	13923.85
495.14	14178.97
495.32	14169.60
495.49	14036.19
495.67	14380.25
495.85	14387.27
496.02	14618.99
496.20	14658.78
496.38	14614.30
496.55	14796.87
496.73	15122.20
496.91	14906.87
497.09	15082.41
497.26	14927.94
497.44	15028.58
497.62	15201.78
497.79	15360.94
497.97	15346.89
498.14	15480.30
498.32	15541.16
498.50	15676.91
498.67	15742.44
498.85	15740.10
499.03	15789.25
499.20	15995.22
499.38	16100.55
499.56	15899.26
499.73	16037.35
499.91	16173.10
500.08	15974.16
500.26	16079.48
500.44	16477.37
500.61	16278.43
500.79	16304.17
500.97	16666.95
501.14	16662.27
501.32	16650.57
501.49	16662.27
501.67	16568.65
501.84	16774.62
502.02	16631.85
502.20	16786.32
502.37	17008.67
502.55	16692.70
502.72	17249.75
502.90	17081.23
503.07	16926.75
503.25	17104.64
503.43	17329.33
503.60	17666.36
503.78	17343.37
503.95	17329.33
504.13	17727.22
504.30	17647.64
504.48	17472.10
504.65	17699.13
504.83	17736.58
505.01	17994.04
505.18	17921.48
505.36	18078.30
505.53	18368.52
505.71	17961.27
505.88	18146.17
506.06	18228.09
506.23	18422.36
506.41	18195.32
506.58	18450.44
506.76	18403.63
506.93	18431.72
507.11	18097.02
507.28	18401.29
507.46	18590.88
507.63	18464.49
507.81	18831.95
507.98	18871.74
508.16	18941.96
508.33	18806.20
508.50	18817.91
508.68	18855.36
508.85	19225.16
509.03	19133.88
509.20	19379.64
509.38	19616.03
509.55	19337.51
509.73	19707.31
509.90	19482.62
510.08	19426.45
510.25	19484.96
510.42	19630.07
510.60	19733.06
510.77	19784.55
510.95	20081.80
511.12	19667.52
511.30	19744.76
511.47	19974.13
511.64	20025.62
511.82	19988.18
511.99	19847.74
512.17	20175.42
512.34	20299.47
512.51	20198.82
512.69	20554.58
512.86	20381.38
513.04	20816.72
513.21	20868.22
513.38	20751.19
513.56	20645.87
513.73	20725.44
513.90	20652.89
514.08	20437.56
514.25	20964.18
514.43	20940.77
514.60	21074.18
514.77	20996.95
514.95	21067.16
515.12	20716.08
515.29	20828.43
515.47	21165.46
515.64	21184.19
515.81	21184.19
515.99	21329.30
516.16	21825.50
516.33	21626.55
516.51	21441.65
516.68	21535.27
516.85	21722.51
517.03	21750.60
517.20	21984.65
517.37	22066.57
517.54	21914.44
517.72	21806.77
517.89	22026.78
518.06	22181.26
518.24	22101.68
518.41	21975.29
518.58	22155.51
518.75	22176.58
518.93	21935.50
519.10	22314.67
519.27	22515.95
519.45	22401.27
519.62	22398.93
519.79	22424.67
519.96	22705.54
520.14	22569.79
520.31	22895.12
520.48	22869.37
520.65	22565.10
520.83	22742.99
521.00	23014.49
521.17	22733.62
521.34	22904.48
521.52	22977.04
521.69	23044.91
521.86	23058.96
522.03	23311.74
522.20	23358.55
522.38	23033.21
522.55	23529.41
522.72	23187.69
522.89	23468.55
523.07	23550.47
523.24	23351.52
523.41	23784.52
523.58	23388.97
523.75	23763.46
523.92	23934.32
524.10	23608.98
524.27	23468.55
524.44	24236.25
524.61	24034.96
524.78	24041.98
524.96	24229.23
525.13	24173.05
525.30	23819.63
525.47	24004.53
525.64	23744.73
525.81	24446.90
525.98	24180.07
526.16	24442.21
526.33	24283.06
526.50	24554.56
526.67	24205.82
526.84	24350.93
527.01	24292.42
527.18	24606.05
527.36	24657.54
527.53	24477.32
527.70	25106.93
527.87	24755.85
528.04	24601.37
528.21	24418.81
528.38	24556.90
528.55	24638.82
528.72	24753.51
528.89	24886.92
529.07	24720.74
529.24	25137.35
529.41	24985.22
529.58	24636.48
529.75	24793.29
529.92	24723.08
530.09	25369.07
530.26	25380.77
530.43	25425.24
530.60	25390.13
530.77	25135.01
530.94	25336.30
531.11	25324.60
531.28	25392.47
531.46	25542.27
531.63	25399.49
531.80	25467.37
531.97	25891.01
532.14	25713.13
532.31	25687.38
532.48	25743.55
532.65	25692.06
532.82	25303.53
532.99	25802.07
533.16	25984.63
533.33	26080.59
533.50	26005.69
533.67	26225.70
533.84	25961.22
534.01	26153.15
534.18	25724.83
534.35	26171.87
534.52	25846.54
534.69	26115.70
534.86	26281.88
535.03	26176.55
535.20	26340.39
535.37	26448.05
535.54	26218.68
535.71	26352.09
535.88	26309.96
536.05	26361.45
536.22	26602.53
536.38	26796.79
536.55	26794.45
536.72	26684.45
536.89	26696.15
537.06	26597.85
537.23	26986.38
537.40	26632.96
537.57	26817.86
537.74	27019.14
537.91	27349.16
538.08	27168.94
538.25	27124.47
538.42	26820.20
538.59	27253.20
538.75	26693.81
538.92	27292.99
539.09	27180.64
539.26	27330.44
539.43	27229.79
539.60	27651.09
539.77	27445.12
539.94	27651.09
540.11	27435.76
540.28	27400.65
540.44	27618.32
540.61	27658.11
540.78	27332.78
540.95	27887.48
541.12	27843.01
541.29	27955.36
541.46	28098.13
541.62	28070.04
541.79	28285.37
541.96	28318.14
542.13	28343.89
542.30	28182.39
542.47	28318.14
542.63	28381.34
542.80	28608.37
542.97	28802.63
543.14	28615.39
543.31	28430.49
543.48	28505.38
543.64	28435.17
543.81	28561.56
543.98	28629.43
544.15	28587.30
544.32	28542.83
544.48	28975.83
544.65	28121.54
544.82	28313.46
544.99	28526.45
545.16	28659.86
545.32	28687.95
545.49	29378.40
545.66	29727.14
545.83	30040.78
546.00	29816.08
546.16	29050.73
546.33	29207.55
546.50	28606.03
546.67	28739.44
546.83	28261.97
547.00	29064.77
547.17	28713.69
547.34	28823.70
547.50	28903.28
547.67	29310.53
547.84	29027.32
548.00	28931.36
548.17	29261.38
548.34	29312.87
548.51	29284.78
548.67	29427.56
548.84	29397.13
549.01	29322.23
549.18	29099.88
549.34	29064.77
549.51	29216.91
549.68	29151.37
549.84	29099.88
550.01	29429.90
550.18	29235.63
550.34	29661.61
550.51	29582.03
550.68	29432.24
550.84	29149.03
551.01	29420.53
551.18	28706.67
551.34	29097.54
551.51	29514.16
551.68	29626.50
551.84	29598.41
552.01	29565.65
552.18	29640.54
552.34	29668.63
552.51	29958.86
552.68	29490.75
552.84	29633.52
553.01	30043.12
553.18	29670.97
553.34	29820.77
553.51	30017.37
553.67	29706.08
553.84	30073.54
554.01	30106.31
554.17	29713.10
554.34	29633.52
554.51	29666.29
554.67	30232.70
554.84	29706.08
555.00	29792.68
555.17	29816.08
555.33	29750.55
555.50	30139.08
555.67	29898.00
555.83	30015.03
556.00	29820.77
556.16	30174.19
556.33	29881.62
556.50	29996.31
556.66	30244.40
556.83	29827.79
556.99	30448.03
557.16	30188.23
557.32	30281.85
557.49	30380.15
557.65	29956.52
557.82	30239.72
557.98	30141.42
558.15	30113.33
558.32	30354.41
558.48	30258.45
558.65	30277.17
558.81	30658.68
558.98	30586.12
559.14	30754.64
559.31	30066.52
559.47	30298.23
559.64	30698.47
559.80	30834.22
559.97	30309.94
560.13	30433.99
560.30	30485.48
560.46	30609.53
560.63	30424.62
560.79	30366.11
560.96	30768.68
561.12	30536.97
561.29	30501.86
561.45	30700.81
561.61	30520.59
561.78	30665.70
561.94	30719.53
562.11	30958.27
562.27	30405.90
562.44	30511.22
562.60	30553.35
562.77	30410.58
562.93	30719.53
563.10	31002.74
563.26	30717.19
563.42	31234.45
563.59	30913.80
563.75	30691.44
563.92	31058.91
564.08	30735.92
564.24	30614.21
564.41	30874.01
564.57	30536.97
564.74	30646.97
564.90	30590.80
565.07	30733.57
565.23	30551.01
565.39	30969.97
565.56	30883.37
565.72	30740.60
565.88	31152.53
566.05	30766.34
566.21	30646.97
566.38	30955.93
566.54	30520.59
566.70	30948.90
566.87	31061.25
567.03	31110.40
567.19	31285.94
567.36	31035.50
567.52	30960.61
567.68	31105.72
567.85	31344.45
568.01	30843.58
568.17	31365.52
568.34	31054.23
568.50	31070.61
568.66	31290.62
568.83	31171.25
568.99	31089.34
569.15	30962.95
569.32	31150.19
569.48	31124.44
569.64	30888.05
569.81	30962.95
569.97	31307.01
570.13	31232.11
570.30	31075.29
570.46	31133.81
570.62	30787.41
570.78	30878.69
570.95	30998.06
571.11	31068.27
571.27	31140.83
571.43	31194.66
571.60	31309.35
571.76	31119.76
571.92	31360.84
572.09	31124.44
572.25	31456.80
572.41	31349.14
572.57	30857.62
572.74	31304.67
572.90	31295.30
573.06	31365.52
573.22	31002.74
573.38	31281.26
573.55	31288.28
573.71	31527.02
573.87	31056.57
574.03	31122.10
574.20	31576.17
574.36	30855.28
574.52	31040.18
574.68	31283.60
574.84	31384.24
575.01	31307.01
575.17	31337.43
575.33	31337.43
575.49	31063.59
575.65	31866.39
575.82	31501.27
575.98	31405.31
576.14	31613.62
576.30	31248.49
576.46	31576.17
576.62	31641.70
576.79	31421.69
576.95	31398.29
577.11	31468.50
577.27	31545.74
577.43	31409.99
577.59	31103.38
577.75	31377.22
577.92	31255.51
578.08	31288.28
578.24	31295.30
578.40	31328.07
578.56	31459.14
578.72	31344.45
578.88	31758.73
579.04	31662.77
579.21	31482.55
579.37	32034.91
579.53	31414.67
579.69	31360.84
579.85	31512.97
580.01	31505.95
580.17	31412.33
580.33	31578.51
580.49	31131.47
580.65	31360.84
580.82	31641.70
580.98	31630.00
581.14	31695.53
581.30	31889.80
581.46	31627.66
581.62	31239.13
581.78	31861.71
581.94	31929.59
582.10	31384.24
582.26	31777.45
582.42	31725.96
582.58	31632.34
582.74	31583.19
582.90	31941.29
583.06	31522.34
583.22	31412.33
583.38	31639.36
583.54	31372.54
583.70	31529.36
583.86	31477.86
584.02	31477.86
584.18	31803.20
584.34	31550.42
584.50	31761.07
584.66	31941.29
584.82	31379.56
584.98	31622.98
585.14	32070.02
585.30	31496.59
585.46	31592.55
585.62	31611.28
585.78	31765.75
585.94	31452.12
586.10	31798.52
586.26	31735.32
586.42	31700.22
586.58	32123.85
586.74	31730.64
586.90	31480.21
587.06	31482.55
587.22	31590.21
587.38	31871.07
587.54	31929.59
587.70	31915.54
587.86	31908.52
588.02	31683.83
588.18	32233.86
588.34	31887.46
588.49	31819.58
588.65	31461.48
588.81	31861.71
588.97	31637.02
589.13	31681.49
589.29	31885.12
589.45	31510.63
589.61	31835.97
589.77	32098.11
589.93	32048.96
590.08	32320.46
590.24	32077.04
590.40	31892.14
590.56	31999.80
590.72	31611.28
590.88	31903.84
591.04	31924.91
591.20	31803.20
591.35	31988.10
591.51	32716.01
591.67	32112.15
591.83	32634.09
