SpectraSuite Data File
++++++++++++++++++++++++++++++++++++
Date: Fri Oct 04 11:39:44 GMT-05:00 2013
User: price-jones
Dark Spectrum Present: No
Reference Spectrum Present: No
Number of Sampled Component Spectra: 1
Spectrometers: USB2+H05261
Integration Time (usec): 100000 (USB2+H05261)
Spectra Averaged: 1 (USB2+H05261)
Boxcar Smoothing: 0 (USB2+H05261)
Correct for Electrical Dark: No (USB2+H05261)
Strobe/Lamp Enabled: No (USB2+H05261)
Correct for Detector Non-linearity: No (USB2+H05261)
Correct for Stray Light: No (USB2+H05261)
Number of Pixels in Processed Spectrum: 2048
>>>>>Begin Processed Spectral Data<<<<<
365.73	128.73
365.92	128.73
366.12	128.73
366.32	28.09
366.52	16.38
366.72	0.00
366.91	0.00
367.11	0.00
367.31	0.00
367.51	0.00
367.70	0.00
367.90	0.00
368.10	0.00
368.30	0.00
368.49	0.00
368.69	0.00
368.89	0.00
369.09	4.68
369.28	0.00
369.48	51.49
369.68	0.00
369.87	95.96
370.07	63.19
370.27	23.41
370.47	128.73
370.66	367.46
370.86	465.77
371.06	505.56
371.25	550.03
371.45	493.85
371.65	524.28
371.84	500.87
372.04	528.96
372.24	545.34
372.44	477.47
372.63	636.63
372.83	601.52
373.03	653.01
373.22	568.75
373.42	606.20
373.62	589.82
373.81	608.54
374.01	561.73
374.21	596.84
374.40	653.01
374.60	648.33
374.79	552.37
374.99	622.58
375.19	653.01
375.38	648.33
375.58	711.52
375.78	713.86
375.97	702.16
376.17	725.57
376.37	730.25
376.56	746.63
376.76	753.65
376.95	678.76
377.15	704.50
377.35	770.04
377.54	784.08
377.74	709.18
377.93	711.52
378.13	716.20
378.33	657.69
378.52	781.74
378.72	798.12
378.91	725.57
379.11	767.70
379.31	835.57
379.50	802.80
379.70	882.38
379.89	760.67
380.09	826.21
380.28	816.85
380.48	851.96
380.68	844.93
380.87	821.53
381.07	851.96
381.26	947.92
381.46	866.00
381.65	835.57
381.85	919.83
382.04	861.32
382.24	805.14
382.43	863.66
382.63	802.80
382.83	924.51
383.02	912.81
383.22	1013.45
383.41	1004.09
383.61	1001.75
383.80	903.45
384.00	952.60
384.19	1001.75
384.39	1025.15
384.58	954.94
384.78	950.26
384.97	968.98
385.17	1015.79
385.36	1029.84
385.56	1018.13
385.75	999.41
385.95	1043.88
386.14	973.66
386.34	997.07
386.53	1001.75
386.72	1025.15
386.92	1060.26
387.11	1029.84
387.31	1048.56
387.50	1025.15
387.70	1069.62
387.89	1184.31
388.09	1142.18
388.28	1086.01
388.48	1118.78
388.67	1203.04
388.86	1196.01
389.06	1146.86
389.25	1268.57
389.45	1219.42
389.64	1249.85
389.84	1186.65
390.03	1348.15
390.22	1322.40
390.42	1259.21
390.61	1226.44
390.81	1196.01
391.00	1263.89
391.19	1306.02
391.39	1235.80
391.58	1343.47
391.78	1245.16
391.97	1371.55
392.16	1371.55
392.36	1420.71
392.55	1322.40
392.75	1348.15
392.94	1411.34
393.13	1376.24
393.33	1345.81
393.52	1460.49
393.71	1455.81
393.91	1446.45
394.10	1411.34
394.29	1427.73
394.49	1355.17
394.68	1511.99
394.88	1448.79
395.07	1572.84
395.26	1540.07
395.46	1448.79
395.65	1570.50
395.84	1589.22
396.04	1703.91
396.23	1565.82
396.42	1535.39
396.62	1654.76
396.81	1636.03
397.00	1586.88
397.19	1652.42
397.39	1776.47
397.58	1678.16
397.77	1753.06
397.97	1722.63
398.16	1724.97
398.35	1736.68
398.55	1741.36
398.74	1898.17
398.93	1797.53
399.12	1832.64
399.32	1715.61
399.51	1762.42
399.70	1944.99
399.90	1732.00
400.09	1893.49
400.28	1909.88
400.47	1947.33
400.67	1949.67
400.86	1966.05
401.05	1998.82
401.24	1968.39
401.44	1994.14
401.63	1963.71
401.82	2019.88
402.01	2015.20
402.21	2033.93
402.40	2040.95
402.59	2136.91
402.78	2071.37
402.97	2155.63
403.17	2125.21
403.36	2052.65
403.55	2204.78
403.74	2195.42
403.93	2246.91
404.13	2359.26
404.32	2401.39
404.51	2279.68
404.70	2333.51
404.89	2303.09
405.09	2284.36
405.28	2363.94
405.47	2335.85
405.66	2518.42
405.85	2431.82
406.05	2438.84
406.24	2541.82
406.43	2422.45
406.62	2565.23
406.81	2670.55
407.00	2516.08
407.20	2537.14
407.39	2523.10
407.58	2541.82
407.77	2633.10
407.96	2710.34
408.15	2740.77
408.34	2715.02
408.54	2675.23
408.73	2855.45
408.92	2803.96
409.11	2771.19
409.30	2860.13
409.49	2855.45
409.68	2892.90
409.87	2949.08
410.07	2853.11
410.26	2977.16
410.45	2913.97
410.64	2993.55
410.83	3007.59
411.02	3056.74
411.21	3117.59
411.40	3110.57
411.59	3166.74
411.78	3269.73
411.98	3274.41
412.17	3342.28
412.36	3281.43
412.55	3356.33
412.74	3375.05
412.93	3426.54
413.12	3314.20
413.31	3592.72
413.50	3433.57
413.69	3482.72
413.88	3471.01
414.07	3653.58
414.26	3686.34
414.45	3714.43
414.64	3819.75
414.83	3782.31
415.02	3838.48
415.22	3761.24
415.41	3918.06
415.60	4049.13
415.79	3824.44
415.98	4035.08
416.17	4194.24
416.36	4021.04
416.55	3911.04
416.74	4039.76
416.93	4194.24
417.12	4229.35
417.31	4159.13
417.50	4252.75
417.69	4362.76
417.88	4339.35
418.07	4440.00
418.26	4542.98
418.45	4421.27
418.64	4496.17
418.83	4566.39
419.02	4596.81
419.21	4564.04
419.39	4440.00
419.58	4606.17
419.77	4479.79
419.96	4645.96
420.15	4746.61
420.34	4561.70
420.53	4767.67
420.72	4662.35
420.91	4699.80
421.10	4992.36
421.29	5060.24
421.48	4744.27
421.67	4940.87
421.86	5029.81
422.05	4999.38
422.24	4779.37
422.43	4917.47
422.61	4943.21
422.80	5034.49
422.99	5188.97
423.18	5214.71
423.37	5163.22
423.56	5121.09
423.75	5078.96
423.94	4910.44
424.13	4746.61
424.32	4753.63
424.50	5142.16
424.69	5224.08
424.88	5203.01
425.07	5121.09
425.26	5231.10
425.45	5245.14
425.64	5172.58
425.83	5200.67
426.01	5118.75
426.20	5254.50
426.39	5287.27
426.58	5280.25
426.77	5355.15
426.96	5224.08
427.15	5139.82
427.33	5303.65
427.52	5308.34
427.71	5270.89
427.90	5495.58
428.09	5490.90
428.28	5589.20
428.46	5500.26
428.65	5757.72
428.84	5750.70
429.03	5853.68
429.22	5537.71
429.40	5657.07
429.59	5692.18
429.78	5540.05
429.97	5376.21
430.16	5598.56
430.34	5870.06
430.53	5907.51
430.72	5860.70
430.91	5888.79
431.10	5830.27
431.28	6017.52
431.47	6118.16
431.66	6113.48
431.85	6043.26
432.03	6076.03
432.22	6239.87
432.41	6347.53
432.60	6310.08
432.79	6036.24
432.97	6356.90
433.16	6305.40
433.35	6141.57
433.54	6487.96
433.72	6354.55
433.91	6370.94
434.10	6424.77
434.28	6469.24
434.47	6410.73
434.66	6396.68
434.85	6768.83
435.03	6612.01
435.22	6740.74
435.41	7061.40
435.59	6916.28
435.78	6937.35
435.97	6738.40
436.16	6967.77
436.34	6834.36
436.53	6815.64
436.72	7019.27
436.90	6700.95
437.09	6871.81
437.28	6729.04
437.46	6839.05
437.65	7012.24
437.84	7087.14
438.02	7112.89
438.21	7098.84
438.40	7068.42
438.58	7372.69
438.77	7379.71
438.96	7346.94
439.14	7571.63
439.33	7485.03
439.52	7658.23
439.70	7599.72
439.89	7719.09
440.08	7812.71
440.26	7686.32
440.45	7775.26
440.63	7946.12
440.82	8030.38
441.01	7901.65
441.19	8088.89
441.38	8121.66
441.57	8152.09
441.75	8124.00
441.94	8369.76
442.12	8362.73
442.31	8486.78
442.50	8367.42
442.68	8362.73
442.87	8409.54
443.05	8423.59
443.24	8557.00
443.43	8482.10
443.61	8545.30
443.80	8978.30
443.98	8400.18
444.17	8332.31
444.35	8706.79
444.54	8725.52
444.73	8933.82
444.91	8791.05
445.10	8573.38
445.28	8662.32
445.47	8774.67
445.65	8798.07
445.84	8844.88
446.02	8968.93
446.21	8809.78
446.39	8751.26
446.58	9020.42
446.77	9008.72
446.95	8521.89
447.14	9018.08
447.32	8868.29
447.51	9036.81
447.69	8919.78
447.88	8994.68
448.06	9095.32
448.25	8968.93
448.43	9039.15
448.62	8973.61
448.80	8931.48
448.99	9135.11
449.17	9291.93
449.36	9032.13
449.54	9432.36
449.73	9282.56
449.91	9479.17
450.10	9423.00
450.28	9530.66
450.46	9420.66
450.65	9687.48
450.83	9624.28
451.02	9593.86
451.20	9792.80
451.39	9837.27
451.57	9743.65
451.76	9507.26
451.94	9825.57
452.13	9713.22
452.31	9823.23
452.49	9514.28
452.68	10012.81
452.86	10005.79
453.05	10106.43
453.23	10097.07
453.42	9762.37
453.60	9909.83
453.78	9982.38
453.97	9884.08
454.15	10043.24
454.34	9921.53
454.52	10256.23
454.70	10349.85
454.89	10211.76
455.07	10289.00
455.26	10239.84
455.44	10377.94
455.62	10270.27
455.81	10562.84
455.99	10516.03
456.17	10399.00
456.36	10644.76
456.54	10691.57
456.73	10787.53
456.91	11272.02
457.09	11201.80
457.28	11066.05
457.46	10848.38
457.64	11103.50
457.83	11066.05
458.01	10960.73
458.19	11220.53
458.38	11033.29
458.56	11304.79
458.74	11431.18
458.93	11094.14
459.11	11260.32
459.29	11377.34
459.48	11655.87
459.66	11492.03
459.84	11573.95
460.03	11379.68
460.21	11676.93
460.39	11477.99
460.57	11585.65
460.76	11705.02
460.94	11854.81
461.12	11810.34
461.31	11796.30
461.49	11885.24
461.67	11812.68
461.85	12318.24
462.04	11948.43
462.22	12592.08
462.40	12388.46
462.59	12294.83
462.77	12156.74
462.95	12414.20
463.13	12201.21
463.32	12128.66
463.50	12299.52
463.68	12334.62
463.86	12390.80
464.05	12236.32
464.23	12358.03
464.41	12592.08
464.59	12379.09
464.78	12685.70
464.96	12578.04
465.14	12306.54
465.32	12732.51
465.50	12882.31
465.69	12851.88
465.87	12812.09
466.05	12926.78
466.23	12901.03
466.41	12961.89
466.60	13240.41
466.78	13032.10
466.96	12978.27
467.14	12774.64
467.32	13123.38
467.51	13399.57
467.69	12943.16
467.87	13202.96
468.05	13163.17
468.23	13055.51
468.41	13245.09
468.60	13469.78
468.78	13366.80
468.96	13469.78
469.14	13568.09
469.32	13568.09
469.50	13352.76
469.69	13809.16
469.87	13923.85
470.05	13827.88
470.23	14001.08
470.41	13900.44
470.59	14249.18
470.77	13879.38
470.95	14108.75
471.14	14319.40
471.32	14099.39
471.50	14335.78
471.68	14443.45
471.86	14445.79
472.04	14434.08
472.22	14712.61
472.40	14640.05
472.58	14719.63
472.77	14806.23
472.95	15117.52
473.13	15356.25
473.31	14951.34
473.49	14857.72
473.67	15096.46
473.85	14881.13
474.03	15494.35
474.21	15616.05
474.39	15583.29
474.57	15569.24
474.75	16027.99
474.93	15971.82
475.12	16016.29
475.30	16142.67
475.48	15903.94
475.66	15878.19
475.84	16222.25
476.02	16549.93
476.20	16556.95
476.38	16610.78
476.56	16910.37
476.74	16547.59
476.92	16938.46
477.10	17020.38
477.28	16783.98
477.46	17240.39
477.64	17436.99
477.82	17549.34
478.00	17839.56
478.18	18085.32
478.36	18207.03
478.54	18572.15
478.72	18265.54
478.90	18171.92
479.08	18352.14
479.26	18508.96
479.44	18668.11
479.62	18944.30
479.80	19281.33
479.98	19403.04
480.16	19489.64
480.34	19730.72
480.52	19681.56
480.70	19962.43
480.88	19646.46
481.06	20212.87
481.24	20105.20
481.41	20109.88
481.59	20807.36
481.77	20444.58
481.95	21039.08
482.13	20952.48
482.31	21193.55
482.49	21729.53
482.67	21497.82
482.85	22019.76
483.03	21825.50
483.21	22214.02
483.39	22560.42
483.57	22270.20
483.74	22242.11
483.92	22698.52
484.10	22782.77
484.28	23175.98
484.46	23440.47
484.64	24236.25
484.82	23648.77
485.00	23887.51
485.18	24114.54
485.35	24357.96
485.53	24273.70
485.71	24739.46
485.89	25369.07
486.07	25010.96
486.25	24952.45
486.43	25420.56
486.61	25439.28
486.78	25891.01
486.96	25872.28
487.14	26511.25
487.32	26232.72
487.50	26600.19
487.68	26611.89
487.85	26934.88
488.03	27487.25
488.21	27520.02
488.39	27707.26
488.57	27950.68
488.75	27946.00
488.92	28341.55
489.10	28479.64
489.28	28657.52
489.46	29181.80
489.64	29078.82
489.81	29472.03
489.99	29397.13
490.17	29378.40
490.35	30045.46
490.53	30300.58
490.70	30506.54
490.88	30497.18
491.06	30937.20
491.24	30614.21
491.41	30780.39
491.59	31211.04
491.77	31278.92
491.95	31892.14
492.13	32030.23
492.30	31985.76
492.48	32133.21
492.66	32114.49
492.84	32460.89
493.01	33022.62
493.19	33163.05
493.37	33450.94
493.54	33425.19
493.72	33867.55
493.90	33799.68
494.08	33890.96
494.25	34267.78
494.43	34656.31
494.61	34611.84
494.79	34831.85
494.96	34789.72
495.14	34916.11
495.32	35194.64
495.49	35381.88
495.67	35952.97
495.85	36219.79
496.02	36624.70
496.20	35887.43
496.38	35903.82
496.55	36519.38
496.73	37118.56
496.91	36912.59
497.09	37467.30
497.26	37801.99
497.44	36821.31
497.62	37097.49
497.79	38101.58
497.97	37930.72
498.14	38483.09
498.32	38586.07
498.50	38700.76
498.67	39072.90
498.85	38871.62
499.03	39250.78
499.20	39079.92
499.38	39295.25
499.56	39505.90
499.73	39370.15
499.91	40030.18
500.08	40301.68
500.26	39754.00
500.44	39908.47
500.61	40287.64
500.79	40100.40
500.97	41013.21
501.14	41078.74
501.32	41364.29
501.49	41481.31
501.67	40921.93
501.84	41244.92
502.02	41556.21
502.20	41591.32
502.37	41780.90
502.55	41970.49
502.72	42204.54
502.90	42080.49
503.07	42293.48
503.25	42480.72
503.43	42050.06
503.60	42892.66
503.78	42911.38
503.95	43035.43
504.13	42990.96
504.30	42972.24
504.48	43601.84
504.65	43386.51
504.83	43648.65
505.01	44030.16
505.18	43536.30
505.36	44296.98
505.53	43892.07
505.71	44107.40
505.88	44556.78
506.06	44039.52
506.23	44942.97
506.41	44964.03
506.58	44856.37
506.76	45291.71
506.93	44715.93
507.11	44921.90
507.28	45083.40
507.46	45446.18
507.63	45621.72
507.81	45923.65
507.98	45673.21
508.16	45947.06
508.33	45933.01
508.50	45907.27
508.68	46164.73
508.85	46794.33
509.03	46483.04
509.20	46593.04
509.38	47227.33
509.55	47337.33
509.73	46602.41
509.90	47248.39
510.08	46665.60
510.25	47084.56
510.42	47440.32
510.60	47700.12
510.77	47934.17
510.95	48224.40
511.12	48018.43
511.30	47924.81
511.47	47859.27
511.64	48362.49
511.82	48631.65
511.99	48479.52
512.17	48729.95
512.34	48685.48
512.51	49059.97
512.69	49223.81
512.86	48961.67
513.04	49106.78
513.21	49471.90
513.38	49272.96
513.56	49366.58
513.73	49125.50
513.90	49338.49
514.08	49368.92
514.25	49659.15
514.43	50185.77
514.60	50274.71
514.77	49766.81
514.95	50567.27
515.12	49935.33
515.29	50035.97
515.47	50176.40
515.64	50504.08
515.81	50475.99
515.99	50667.92
516.16	50972.19
516.33	50852.82
516.51	51049.42
516.68	50918.35
516.85	51203.90
517.03	51327.95
517.20	51152.41
517.37	51547.96
517.54	51388.80
517.72	51367.74
517.89	51330.29
518.06	51379.44
518.24	51531.57
518.41	51077.51
518.58	51707.12
518.75	51910.74
518.93	52156.50
519.10	52058.20
519.27	52474.81
519.45	52357.78
519.62	51885.00
519.79	52292.25
519.96	52186.92
520.14	52561.41
520.31	52406.94
520.48	52739.29
520.65	52458.43
520.83	52626.95
521.00	52949.94
521.17	52748.65
521.34	52727.59
521.52	53001.43
521.69	53174.63
521.86	53099.73
522.03	53546.78
522.20	53240.17
522.38	53542.10
522.55	53294.00
522.72	53155.91
522.89	53361.87
523.07	53853.39
523.24	53851.05
523.41	53741.04
523.58	53633.38
523.75	54204.47
523.92	53729.34
524.10	53932.96
524.27	54075.74
524.44	54323.83
524.61	54312.13
524.78	54227.87
524.96	54251.28
525.13	54536.82
525.30	54323.83
525.47	54492.35
525.64	54335.54
525.81	54735.77
525.98	54539.16
526.16	54726.41
526.33	54824.71
526.50	55051.74
526.67	54555.55
526.84	54967.48
527.01	55072.81
527.18	55166.43
527.36	55236.64
527.53	55136.00
527.70	55416.86
527.87	55243.66
528.04	55217.92
528.21	55412.18
528.38	55367.71
528.55	55274.09
528.72	55304.52
528.89	55620.49
529.07	55536.23
529.24	55430.91
529.41	55662.62
529.58	55515.17
529.75	55358.35
529.92	55789.01
530.09	55709.43
530.26	55807.73
530.43	55866.25
530.60	55810.07
530.77	55936.46
530.94	56107.32
531.11	55875.61
531.28	55899.01
531.46	55997.32
531.63	56179.88
531.80	56395.21
531.97	56406.91
532.14	56598.83
532.31	56495.85
532.48	56346.06
532.65	56584.79
532.82	56287.54
532.99	56612.88
533.16	56650.33
533.33	56851.61
533.50	56949.92
533.67	56783.74
533.84	56790.76
534.01	56757.99
534.18	56713.52
534.35	56898.42
534.52	57022.47
534.69	57167.58
534.86	57261.21
535.03	57080.98
535.20	57279.93
535.37	57034.17
535.54	56832.89
535.71	56952.26
535.88	57186.31
536.05	57097.37
536.22	57256.53
536.38	57422.70
536.55	57371.21
536.72	57235.46
536.89	57340.78
537.06	57418.02
537.23	57546.75
537.40	57609.95
537.57	57382.91
537.74	57565.48
537.91	57799.53
538.08	57687.18
538.25	57717.61
538.42	57619.31
538.59	57982.09
538.75	57703.57
538.92	57932.94
539.09	57949.32
539.26	58106.14
539.43	58092.10
539.60	58211.46
539.77	58162.31
539.94	58328.49
540.11	58024.22
540.28	58190.40
540.44	58314.45
540.61	58026.56
540.78	58094.44
540.95	58262.96
541.12	58464.24
541.29	58482.97
541.46	58419.77
541.62	58445.52
541.79	58506.37
541.96	58340.19
542.13	58508.71
542.30	58667.87
542.47	58700.64
542.63	58731.06
542.80	58883.20
542.97	58955.75
543.14	58796.60
543.31	58822.34
543.48	58941.71
543.64	59166.40
543.81	59288.11
543.98	59217.89
544.15	59150.02
544.32	59262.36
544.48	59196.83
544.65	59164.06
544.82	59318.54
544.99	58899.58
545.16	59484.72
545.32	59220.23
545.49	59440.24
545.66	59847.50
545.83	59695.36
546.00	59910.69
546.16	59737.49
546.33	59388.75
546.50	59318.54
546.67	59414.50
546.83	58995.54
547.00	59428.54
547.17	59402.80
547.34	59554.93
547.50	59711.75
547.67	59894.31
547.84	59671.96
548.00	59845.16
548.17	59632.17
548.34	59812.39
548.51	60067.51
548.67	59901.33
548.84	59877.93
549.01	59814.73
549.18	59723.45
549.34	59847.50
549.51	59807.71
549.68	59824.09
549.84	59917.71
550.01	59992.61
550.18	59800.69
550.34	59875.58
550.51	60060.49
550.68	60154.11
550.84	60072.19
551.01	60247.73
551.18	59950.48
551.34	59856.86
551.51	60039.42
551.68	60095.60
551.84	60282.84
552.01	60191.56
552.18	60268.79
552.34	60404.55
552.51	60395.18
552.68	60207.94
552.84	60324.97
553.01	60544.98
553.18	60470.08
553.34	60509.87
553.51	60229.01
553.67	60512.21
553.84	60711.16
554.01	60657.32
554.17	60390.50
554.34	60776.69
554.51	60439.65
554.67	60498.17
554.84	60561.36
555.00	60612.85
555.17	60629.24
555.33	60935.85
555.50	60664.35
555.67	60577.75
555.83	60739.24
556.00	60776.69
556.16	60856.27
556.33	60804.78
556.50	60790.73
556.66	60900.74
556.83	60664.35
556.99	61125.43
557.16	61043.51
557.32	60919.46
557.49	60849.25
557.65	60589.45
557.82	60898.40
557.98	60739.24
558.15	61080.96
558.32	61127.77
558.48	60938.19
558.65	61387.57
558.81	61240.12
558.98	61123.09
559.14	61167.56
559.31	60903.08
559.47	60959.25
559.64	60966.27
559.80	61001.38
559.97	61216.71
560.13	61205.01
560.30	61228.41
560.46	61307.99
560.63	61443.74
560.79	61347.78
560.96	61462.47
561.12	61247.14
561.29	61001.38
561.45	61223.73
561.61	61513.96
561.78	61385.23
561.94	61364.17
562.11	61504.60
562.27	61525.66
562.44	61607.58
562.60	61303.31
562.77	61432.04
562.93	61343.10
563.10	61593.54
563.26	61286.93
563.42	61619.28
563.59	61380.55
563.75	61528.00
563.92	61647.37
564.08	61530.34
564.24	61535.02
564.41	61366.51
564.57	61495.24
564.74	61455.45
564.90	61635.67
565.07	61722.27
565.23	61776.10
565.39	61663.75
565.56	61724.61
565.72	61659.07
565.88	61698.86
566.05	61654.39
566.21	61542.05
566.38	61495.24
566.54	61530.34
566.70	61790.14
566.87	61925.89
567.03	61843.98
567.19	61904.83
567.36	61841.63
567.52	61705.88
567.68	61897.81
567.85	61649.71
568.01	61733.97
568.17	61759.72
568.34	61834.61
568.50	61853.34
568.66	61953.98
568.83	62045.26
568.99	61860.36
569.15	61804.19
569.32	61839.29
569.48	61719.93
569.64	61881.42
569.81	61825.25
569.97	61785.46
570.13	61982.07
570.30	61867.38
570.46	62124.84
570.62	61916.53
570.78	61918.87
570.95	61743.33
571.11	61886.10
571.27	61834.61
571.43	61717.59
571.60	61872.06
571.76	61771.42
571.92	61928.23
572.09	61989.09
572.25	62326.13
572.41	62056.96
572.57	61984.41
572.74	62035.90
572.90	62007.81
573.06	61815.89
573.22	62136.54
573.38	62312.08
573.55	61944.62
573.71	62356.55
573.87	62401.02
574.03	62138.88
574.20	62120.16
574.36	61862.70
574.52	62075.69
574.68	62066.33
574.84	62131.86
575.01	62330.81
575.17	62075.69
575.33	62190.37
575.49	62096.75
575.65	62181.01
575.82	62281.66
575.98	62045.26
576.14	62284.00
576.30	62361.23
576.46	62225.48
576.62	61963.34
576.79	62136.54
576.95	62176.33
577.11	62361.23
577.27	62075.69
577.43	62365.91
577.59	62230.16
577.75	62225.48
577.92	62049.94
578.08	62099.09
578.24	62145.90
578.40	62246.55
578.56	62307.40
578.72	62326.13
578.88	62637.42
579.04	62466.56
579.21	62384.64
579.37	62522.73
579.53	62330.81
579.69	62085.05
579.85	62237.19
580.01	62181.01
580.17	62419.75
580.33	62267.61
580.49	62342.51
580.65	62611.67
580.82	62583.58
580.98	62466.56
581.14	62302.72
581.30	62323.78
581.46	62134.20
581.62	62150.59
581.78	62389.32
581.94	62487.62
582.10	62286.34
582.26	62527.41
582.42	62307.40
582.58	62506.35
582.74	62454.86
582.90	62485.28
583.06	62588.27
583.22	62234.84
583.38	62302.72
583.54	62260.59
583.70	62216.12
583.86	62377.62
584.02	62260.59
584.18	62487.62
584.34	62225.48
584.50	62485.28
584.66	62288.68
584.82	62265.27
584.98	62408.04
585.14	62541.45
585.30	62199.74
585.46	62223.14
585.62	62237.19
585.78	62452.51
585.94	62218.46
586.10	62651.46
586.26	62525.07
586.42	62745.08
586.58	62677.21
586.74	62419.75
586.90	62344.85
587.06	62482.94
587.22	62738.06
587.38	62511.03
587.54	62670.18
587.70	62721.68
587.86	62623.37
588.02	62644.44
588.18	62709.97
588.34	62637.42
588.49	62864.45
588.65	62394.00
588.81	62618.69
