SpectraSuite Data File
++++++++++++++++++++++++++++++++++++
Date: Fri Oct 04 11:39:35 GMT-05:00 2013
User: price-jones
Dark Spectrum Present: No
Reference Spectrum Present: No
Number of Sampled Component Spectra: 1
Spectrometers: USB2+H05261
Integration Time (usec): 100000 (USB2+H05261)
Spectra Averaged: 1 (USB2+H05261)
Boxcar Smoothing: 0 (USB2+H05261)
Correct for Electrical Dark: No (USB2+H05261)
Strobe/Lamp Enabled: No (USB2+H05261)
Correct for Detector Non-linearity: No (USB2+H05261)
Correct for Stray Light: No (USB2+H05261)
Number of Pixels in Processed Spectrum: 2048
>>>>>Begin Processed Spectral Data<<<<<
365.73	72.56
365.92	72.56
366.12	72.56
366.32	23.41
366.52	0.00
366.72	0.00
366.91	0.00
367.11	0.00
367.31	0.00
367.51	11.70
367.70	0.00
367.90	18.72
368.10	0.00
368.30	0.00
368.49	0.00
368.69	0.00
368.89	0.00
369.09	0.00
369.28	0.00
369.48	0.00
369.68	0.00
369.87	0.00
370.07	56.17
370.27	77.24
370.47	56.17
370.66	194.26
370.86	241.08
371.06	358.10
371.25	339.38
371.45	257.46
371.65	220.01
371.84	189.58
372.04	278.52
372.24	339.38
372.44	315.97
372.63	353.42
372.83	444.70
373.03	297.25
373.22	294.91
373.42	374.49
373.62	327.68
373.81	423.64
374.01	409.59
374.21	404.91
374.40	372.15
374.60	381.51
374.79	341.72
374.99	400.23
375.19	341.72
375.38	393.21
375.58	367.46
375.78	362.78
375.97	409.59
376.17	521.94
376.37	360.44
376.56	360.44
376.76	414.27
376.95	400.23
377.15	388.53
377.35	386.19
377.54	479.81
377.74	496.19
377.93	421.30
378.13	447.04
378.33	381.51
378.52	500.87
378.72	428.32
378.91	442.36
379.11	416.62
379.31	409.59
379.50	423.64
379.70	418.96
379.89	440.02
380.09	458.74
380.28	475.13
380.48	409.59
380.68	327.68
380.87	367.46
381.07	395.55
381.26	465.77
381.46	479.81
381.65	421.30
381.85	477.47
382.04	484.49
382.24	447.04
382.43	512.58
382.63	465.77
382.83	475.13
383.02	507.90
383.22	571.09
383.41	470.45
383.61	507.90
383.80	526.62
384.00	524.28
384.19	479.81
384.39	456.40
384.58	454.06
384.78	491.51
384.97	524.28
385.17	531.30
385.36	437.68
385.56	603.86
385.75	524.28
385.95	582.79
386.14	561.73
386.34	526.62
386.53	554.71
386.72	575.77
386.92	538.32
387.11	557.05
387.31	573.43
387.50	573.43
387.70	531.30
387.89	610.88
388.09	564.07
388.28	559.39
388.48	648.33
388.67	653.01
388.86	540.66
389.06	648.33
389.25	580.45
389.45	575.77
389.64	613.22
389.84	636.63
390.03	699.82
390.22	650.67
390.42	608.54
390.61	681.10
390.81	631.94
391.00	660.03
391.19	685.78
391.39	662.37
391.58	704.50
391.78	704.50
391.97	662.37
392.16	702.16
392.36	617.90
392.55	695.14
392.75	772.38
392.94	737.27
393.13	709.18
393.33	711.52
393.52	760.67
393.71	706.84
393.91	755.99
394.10	655.35
394.29	781.74
394.49	781.74
394.68	753.65
394.88	760.67
395.07	894.08
395.26	791.10
395.46	837.91
395.65	835.57
395.84	835.57
396.04	936.21
396.23	819.19
396.42	840.25
396.62	847.27
396.81	915.15
397.00	835.57
397.19	926.85
397.39	830.89
397.58	952.60
397.77	849.61
397.97	821.53
398.16	922.17
398.35	952.60
398.55	968.98
398.74	905.79
398.93	887.06
399.12	971.32
399.32	950.26
399.51	957.28
399.70	1032.18
399.90	1048.56
400.09	1043.88
400.28	1067.28
400.47	992.39
400.67	1151.54
400.86	1022.81
401.05	1050.90
401.24	1135.16
401.44	1097.71
401.63	1128.14
401.82	1165.59
402.01	1130.48
402.21	1142.18
402.40	1163.25
402.59	1221.76
402.78	1146.86
402.97	1100.05
403.17	1261.55
403.36	1231.12
403.55	1233.46
403.74	1217.08
403.93	1348.15
404.13	1399.64
404.32	1317.72
404.51	1383.26
404.70	1343.47
404.89	1266.23
405.09	1469.86
405.28	1394.96
405.47	1355.17
405.66	1371.55
405.85	1411.34
406.05	1423.05
406.24	1476.88
406.43	1479.22
406.62	1514.33
406.81	1528.37
407.00	1451.13
407.20	1511.99
407.39	1533.05
407.58	1614.97
407.77	1607.95
407.96	1652.42
408.15	1593.90
408.34	1617.31
408.54	1652.42
408.73	1652.42
408.92	1575.18
409.11	1673.48
409.30	1774.13
409.49	1750.72
409.68	1757.74
409.87	1701.57
410.07	1750.72
410.26	1839.66
410.45	1797.53
410.64	1746.04
410.83	1907.54
411.02	1839.66
411.21	1907.54
411.40	1933.28
411.59	1849.02
411.78	1928.60
411.98	2022.22
412.17	1973.07
412.36	2052.65
412.55	2057.33
412.74	2195.42
412.93	2260.96
413.12	2136.91
413.31	2207.13
413.50	2214.15
413.69	2270.32
413.88	2228.19
414.07	2328.83
414.26	2282.02
414.45	2263.30
414.64	2380.32
414.83	2373.30
415.02	2401.39
415.22	2452.88
415.41	2560.55
415.60	2548.84
415.79	2642.46
415.98	2546.50
416.17	2658.85
416.36	2661.19
416.55	2619.06
416.74	2663.53
416.93	2677.57
417.12	2773.53
417.31	2848.43
417.50	2799.28
417.69	2965.46
417.88	2888.22
418.07	2853.11
418.26	2768.85
418.45	2974.82
418.64	2986.52
418.83	2951.42
419.02	3002.91
419.21	3005.25
419.39	2857.79
419.58	2965.46
419.77	2932.69
419.96	3019.29
420.15	3038.02
420.34	3136.32
420.53	3045.04
420.72	3330.58
420.91	3178.45
421.10	3119.93
421.29	3213.56
421.48	3124.62
421.67	3295.47
421.86	3269.73
422.05	3290.79
422.24	3220.58
422.43	3281.43
422.61	3421.86
422.80	3258.03
422.99	3494.42
423.18	3297.81
423.37	3403.14
423.56	3421.86
423.75	3328.24
423.94	3351.65
424.13	3145.68
424.32	3098.87
424.50	3487.40
424.69	3442.93
424.88	3417.18
425.07	3370.37
425.26	3353.99
425.45	3377.39
425.64	3286.11
425.83	3442.93
426.01	3428.88
426.20	3426.54
426.39	3391.44
426.58	3564.64
426.77	3412.50
426.96	3522.51
427.15	3527.19
427.33	3545.91
427.52	3503.78
427.71	3485.06
427.90	3555.27
428.09	3557.61
428.28	3611.45
428.46	3777.62
428.65	3634.85
428.84	3702.73
429.03	3751.88
429.22	3716.77
429.40	3840.82
429.59	3866.56
429.78	3667.62
429.97	3632.51
430.16	3714.43
430.34	3789.33
430.53	3911.04
430.72	3894.65
430.91	3955.51
431.10	3922.74
431.28	3955.51
431.47	3999.98
431.66	4081.89
431.85	3962.53
432.03	3925.08
432.22	4046.79
432.41	4058.49
432.60	3882.95
432.79	4079.55
432.97	3960.19
433.16	4135.73
433.35	4121.68
433.54	4271.48
433.72	4154.45
433.91	4252.75
434.10	4269.14
434.28	4276.16
434.47	4269.14
434.66	4383.82
434.85	4353.40
435.03	4454.04
435.22	4510.21
435.41	4840.23
435.59	4734.90
435.78	4652.98
435.97	4458.72
436.16	4510.21
436.34	4402.55
436.53	4461.06
436.72	4627.24
436.90	4482.13
437.09	4697.46
437.28	4461.06
437.46	4580.43
437.65	4655.33
437.84	4599.15
438.02	4643.62
438.21	4648.30
438.40	4624.90
438.58	4781.71
438.77	4676.39
438.96	4732.56
439.14	4873.00
439.33	4816.82
439.52	5018.11
439.70	5006.41
439.89	4933.85
440.08	4957.25
440.26	5121.09
440.45	4994.70
440.63	5128.11
440.82	5313.02
441.01	5256.84
441.19	5174.92
441.38	5263.86
441.57	5228.76
441.75	5479.19
441.94	5502.60
442.12	5593.88
442.31	5448.77
442.50	5420.68
442.68	5474.51
442.87	5493.24
443.05	5696.86
443.24	5673.46
443.43	5746.02
443.61	5682.82
443.80	5881.77
443.98	5671.12
444.17	5371.53
444.35	5666.44
444.54	5729.63
444.73	5694.52
444.91	5645.37
445.10	5806.87
445.28	5727.29
445.47	5631.33
445.65	5757.72
445.84	5764.74
446.02	5884.11
446.21	5729.63
446.39	5696.86
446.58	5884.11
446.77	5724.95
446.95	5617.29
447.14	5891.13
447.32	5816.23
447.51	5853.68
447.69	5673.46
447.88	5994.11
448.06	5987.09
448.25	5844.32
448.43	5921.56
448.62	5802.19
448.80	5884.11
448.99	5851.34
449.17	5963.68
449.36	5987.09
449.54	6069.01
449.73	6076.03
449.91	6221.14
450.10	6237.53
450.28	6153.27
450.46	6188.38
450.65	6111.14
450.83	6253.91
451.02	6345.19
451.20	6331.15
451.39	6324.13
451.57	6251.57
451.76	6429.45
451.94	6277.32
452.13	6478.60
452.31	6228.17
452.49	6256.25
452.68	6436.47
452.86	6235.19
453.05	6492.65
453.23	6614.35
453.42	6370.94
453.60	6436.47
453.78	6565.20
453.97	6441.15
454.15	6459.88
454.34	6644.78
454.52	6579.25
454.70	6504.35
454.89	6715.00
455.07	6546.48
455.26	6724.36
455.44	6885.86
455.62	6792.23
455.81	6722.02
455.99	6881.18
456.17	6820.32
456.36	6834.36
456.54	6878.83
456.73	6836.70
456.91	7180.76
457.09	7171.40
457.28	7360.98
457.46	7026.29
457.64	7290.77
457.83	7211.19
458.01	7157.36
458.19	7166.72
458.38	7295.45
458.56	7206.51
458.74	7311.83
458.93	7145.66
459.11	7211.19
459.29	7255.66
459.48	7262.68
459.66	7316.51
459.84	7414.82
460.03	7698.02
460.21	7442.90
460.39	7485.03
460.57	7410.14
460.76	7585.68
460.94	7496.74
461.12	7407.80
461.31	7562.27
461.49	7618.44
461.67	7576.31
461.85	7581.00
462.04	7602.06
462.22	7960.16
462.40	7784.62
462.59	7660.57
462.77	7885.26
462.95	7761.22
463.13	7786.96
463.32	7768.24
463.50	7824.41
463.68	7824.41
463.86	7882.92
464.05	7967.18
464.23	8124.00
464.41	8180.17
464.59	8025.70
464.78	8006.97
464.96	8049.10
465.14	7866.54
465.32	8299.54
465.50	8088.89
465.69	8098.25
465.87	8250.39
466.05	8128.68
466.23	8088.89
466.41	8362.73
466.60	8435.29
466.78	8313.58
466.96	8159.11
467.14	8238.69
467.32	8271.45
467.51	8542.96
467.69	8334.65
467.87	8430.61
468.05	8517.21
468.23	8402.52
468.41	8435.29
468.60	8428.27
468.78	8732.54
468.96	8334.65
469.14	8482.10
469.32	8678.71
469.50	8585.08
469.69	8751.26
469.87	8943.19
470.05	8861.27
470.23	8875.31
470.41	8854.25
470.59	8933.82
470.77	8908.08
470.95	8821.48
471.14	9050.85
471.32	8889.35
471.50	9359.80
471.68	9146.81
471.86	9165.54
472.04	9153.84
472.22	9336.40
472.40	9170.22
472.58	9130.43
472.77	9212.35
472.95	9418.32
473.13	9788.12
473.31	9371.50
473.49	9673.43
473.67	9544.70
473.85	9652.37
474.03	9710.88
474.21	9774.08
474.39	9996.43
474.57	10024.51
474.75	10001.11
474.93	10052.60
475.12	10068.98
475.30	10186.01
475.48	9937.91
475.66	10143.88
475.84	10307.72
476.02	10335.81
476.20	10260.91
476.38	10443.47
476.56	10710.29
476.74	10707.95
476.92	10724.33
477.10	10689.23
477.28	10824.98
477.46	10759.44
477.64	10951.37
477.82	11152.65
478.00	11147.97
478.18	11211.17
478.36	11276.70
478.54	11496.71
478.72	11419.47
478.90	11606.72
479.08	11810.34
479.26	11953.12
479.44	11971.84
479.62	11936.73
479.80	12084.19
479.98	11918.01
480.16	12077.16
480.34	12123.98
480.52	12159.08
480.70	12500.80
480.88	12273.77
481.06	12395.48
481.24	12718.47
481.41	12547.61
481.59	13025.08
481.77	12950.18
481.95	13074.23
482.13	13231.05
482.31	13036.78
482.49	13352.76
482.67	13418.29
482.85	13675.75
483.03	13851.29
483.21	13947.25
483.39	13958.96
483.57	13963.64
483.74	13947.25
483.92	14298.33
484.10	14312.38
484.28	14602.60
484.46	14794.53
484.64	14953.68
484.82	14501.96
485.00	14871.76
485.18	14846.02
485.35	15300.08
485.53	15077.73
485.71	15232.21
485.89	15421.79
486.07	15403.07
486.25	15489.67
486.43	15651.16
486.61	15751.81
486.78	16023.31
486.96	16248.00
487.14	16276.09
487.32	16407.16
487.50	16514.82
487.68	16460.99
487.85	16774.62
488.03	16978.25
488.21	17013.35
488.39	17111.66
488.57	17193.58
488.75	17233.36
488.92	17862.97
489.10	17549.34
489.28	17830.20
489.46	17895.74
489.64	17816.16
489.81	18225.75
489.99	18209.37
490.17	18192.98
490.35	18878.76
490.53	18616.62
490.70	18916.21
490.88	18948.98
491.06	19005.15
491.24	19066.00
491.41	19241.54
491.59	19410.06
491.77	19342.19
491.95	19772.85
492.13	20009.24
492.30	20070.09
492.48	19927.32
492.66	19969.45
492.84	20109.88
493.01	20350.96
493.19	20233.93
493.37	20353.30
493.54	20582.67
493.72	20666.93
493.90	20706.72
494.08	21156.10
494.25	21242.70
494.43	21387.82
494.61	21289.51
494.79	21631.23
494.96	21289.51
495.14	21790.39
495.32	21713.15
495.49	21687.40
495.67	22068.91
495.85	22265.52
496.02	22422.33
496.20	22352.12
496.38	22066.57
496.55	22169.55
496.73	22668.09
496.91	22806.18
497.09	23168.96
497.26	23412.38
497.44	22822.56
497.62	23145.56
497.79	23421.74
497.97	23517.70
498.14	23620.69
498.32	23674.52
498.50	23833.68
498.67	23880.49
498.85	23571.54
499.03	24018.58
499.20	24517.11
499.38	24383.70
499.56	24212.84
499.73	24666.91
499.91	25111.61
500.08	24833.08
500.26	24524.13
500.44	24992.24
500.61	24884.58
500.79	24907.98
500.97	24819.04
501.14	25046.07
501.32	25415.88
501.49	25198.21
501.67	25450.99
501.84	25935.48
502.02	25474.39
502.20	25696.74
502.37	25706.10
502.55	25909.73
502.72	26026.76
502.90	26061.87
503.07	25853.56
503.25	26150.81
503.43	25795.04
503.60	26527.63
503.78	26331.03
503.95	26658.70
504.13	26623.59
504.30	26583.80
504.48	26445.71
504.65	26740.62
504.83	26951.27
505.01	27103.40
505.18	27323.41
505.36	27433.42
505.53	27410.01
505.71	27314.05
505.88	27510.66
506.06	27192.34
506.23	27580.87
506.41	27440.44
506.58	27740.03
506.76	27571.51
506.93	27604.28
507.11	27875.78
507.28	28048.98
507.46	28060.68
507.63	28034.94
507.81	28718.37
507.98	28161.33
508.16	28388.36
508.33	28517.09
508.50	28589.64
508.68	28800.29
508.85	29163.08
509.03	28865.83
509.20	29209.89
509.38	29390.11
509.55	29111.58
509.73	29347.98
509.90	29610.12
510.08	29242.65
510.25	29326.91
510.42	29699.06
510.60	29942.47
510.77	29930.77
510.95	30218.66
511.12	29972.90
511.30	29837.15
511.47	30216.32
511.64	30185.89
511.82	30401.22
511.99	30092.27
512.17	30389.52
512.34	30405.90
512.51	30822.51
512.69	30574.42
512.86	30946.56
513.04	31089.34
513.21	30855.28
513.38	31314.03
513.56	31084.65
513.73	30909.11
513.90	30801.45
514.08	30925.50
514.25	31363.18
514.43	31388.92
514.60	31871.07
514.77	31644.04
514.95	31417.01
515.12	31393.61
515.29	31988.10
515.47	31735.32
515.64	32250.24
515.81	32011.51
515.99	32411.74
516.16	32318.12
516.33	32659.84
516.51	32273.65
516.68	32053.64
516.85	31901.50
517.03	32247.90
517.20	32851.76
517.37	32940.70
517.54	32952.40
517.72	32844.74
517.89	32629.41
518.06	32510.04
518.24	32865.80
518.41	32793.25
518.58	33109.22
518.75	33228.59
518.93	33214.54
519.10	33600.73
519.27	33464.98
519.45	33687.33
519.62	33483.70
519.79	33888.62
519.96	33528.17
520.14	33813.72
520.31	33661.58
520.48	33706.05
520.65	34113.31
520.83	34422.26
521.00	33750.52
521.17	33865.21
521.34	33741.16
521.52	34260.76
521.69	34340.34
521.86	34740.57
522.03	34583.76
522.20	34340.34
522.38	34487.79
522.55	34834.19
522.72	34913.77
522.89	35234.42
523.07	35211.02
523.24	35260.17
523.41	35297.62
523.58	34801.43
523.75	35185.27
523.92	35007.39
524.10	35353.79
524.27	35435.71
524.44	35618.27
524.61	35754.02
524.78	35952.97
524.96	35721.26
525.13	35826.58
525.30	35924.88
525.47	35749.34
525.64	36084.04
525.81	36091.06
525.98	35761.05
526.16	35786.79
526.33	36189.36
526.50	36325.11
526.67	36020.84
526.84	36488.95
527.01	36208.09
527.18	36484.27
527.36	36282.98
527.53	36491.29
527.70	37251.97
527.87	36734.71
528.04	36570.87
528.21	36795.56
528.38	36854.08
528.55	36917.27
528.72	37109.19
528.89	37017.91
529.07	37401.76
529.24	37006.21
529.41	37284.73
529.58	36821.31
529.75	37507.08
529.92	37591.34
530.09	37476.66
530.26	37088.13
530.43	37148.98
530.60	37284.73
530.77	37596.03
530.94	37699.01
531.11	37333.89
531.28	37256.65
531.46	37411.12
531.63	37748.16
531.80	37837.10
531.97	38501.81
532.14	38422.23
532.31	38370.74
532.48	37846.46
532.65	38068.81
532.82	38260.74
532.99	38232.65
533.16	38005.62
533.33	38506.49
533.50	38483.09
533.67	38576.71
533.84	38373.08
534.01	38213.93
534.18	38146.05
534.35	38667.99
534.52	38602.46
534.69	38789.70
534.86	39257.81
535.03	38831.83
535.20	39028.43
535.37	39154.82
535.54	39199.29
535.71	38829.49
535.88	38974.60
536.05	38974.60
536.22	38951.20
536.38	39295.25
536.55	39522.29
536.72	39655.70
536.89	39206.31
537.06	39503.56
537.23	39459.09
537.40	39606.55
537.57	39360.79
537.74	39438.03
537.91	40315.73
538.08	40123.80
538.25	39789.11
538.42	39814.85
538.59	39831.24
538.75	39384.19
538.92	40016.14
539.09	39866.34
539.26	39901.45
539.43	40425.73
539.60	40399.99
539.77	40236.15
539.94	40488.93
540.11	40388.28
540.28	40641.06
540.44	40320.41
540.61	40350.84
540.78	40512.33
540.95	40519.35
541.12	41053.00
541.29	40865.75
541.46	40816.60
541.62	40816.60
541.79	40954.69
541.96	40662.13
542.13	40832.99
542.30	41088.10
542.47	41371.31
542.63	41312.80
542.80	40877.46
542.97	41727.07
543.14	41551.53
543.31	41476.63
543.48	41298.75
543.64	41551.53
543.81	41724.73
543.98	41727.07
544.15	41612.38
544.32	41935.38
544.48	41935.38
544.65	41387.69
544.82	41748.14
544.99	41537.49
545.16	41813.67
545.32	41731.75
545.49	42347.31
545.66	42887.98
545.83	43007.34
546.00	42913.72
546.16	42696.05
546.33	42354.33
546.50	41769.20
546.67	42127.30
546.83	41551.53
547.00	42003.25
547.17	42066.45
547.34	42667.97
547.50	42326.25
547.67	42787.33
547.84	42356.67
548.00	42445.62
548.17	42691.37
548.34	42209.22
548.51	42546.26
548.67	42656.26
548.84	42824.78
549.01	42595.41
549.18	42780.31
549.34	42740.52
549.51	42609.45
549.68	42480.72
549.84	42300.50
550.01	42909.04
550.18	42396.46
550.34	42902.02
550.51	42906.70
550.68	42972.24
550.84	42471.36
551.01	42784.99
551.18	42763.93
551.34	42604.77
551.51	43093.94
551.68	42836.48
551.84	42859.89
552.01	42733.50
552.18	42897.34
552.34	42660.94
552.51	43091.60
552.68	42848.19
552.84	43107.99
553.01	43054.15
553.18	43033.09
553.34	43140.75
553.51	43461.41
553.67	43438.00
553.84	43487.15
554.01	43779.72
554.17	43442.68
554.34	42981.60
554.51	43189.91
554.67	43709.50
554.84	43220.33
555.00	43470.77
555.17	43503.54
555.33	43672.06
555.50	43494.18
555.67	43592.48
555.83	43688.44
556.00	43550.35
556.16	44203.36
556.33	43438.00
556.50	43533.96
556.66	43761.00
556.83	43625.25
556.99	44289.96
557.16	44273.57
557.32	43578.43
557.49	44140.16
557.65	43454.39
557.82	43758.66
557.98	44055.90
558.15	43728.23
558.32	43945.90
558.48	44196.34
558.65	43999.73
558.81	44051.22
558.98	43725.89
559.14	43803.13
559.31	44128.46
559.47	43756.32
559.64	44369.54
559.80	44046.54
559.97	43995.05
560.13	44030.16
560.30	43749.29
560.46	43913.13
560.63	44039.52
560.79	44156.55
560.96	44081.65
561.12	43917.81
561.29	43969.30
561.45	44041.86
561.61	44575.50
561.78	44130.80
561.94	44079.31
562.11	44458.48
562.27	44339.11
562.44	44767.43
562.60	44238.47
562.77	44570.82
562.93	43950.58
563.10	44837.64
563.26	44252.51
563.42	44973.39
563.59	44432.73
563.75	44025.48
563.92	44624.65
564.08	44163.57
564.24	43950.58
564.41	44460.82
564.57	43732.91
564.74	44144.84
564.90	45109.14
565.07	44500.61
565.23	44561.46
565.39	44315.70
565.56	44521.67
565.72	44367.20
565.88	44346.13
566.05	44411.67
566.21	44430.39
566.38	44842.32
566.54	44320.38
566.70	44570.82
566.87	44673.81
567.03	44659.76
567.19	45198.09
567.36	44708.91
567.52	44488.90
567.68	44966.37
567.85	44287.62
568.01	44594.23
568.17	44329.75
568.34	44949.99
568.50	44629.34
568.66	44528.69
568.83	44994.46
568.99	44402.30
569.15	44657.42
569.32	44872.75
569.48	44306.34
569.64	44566.14
569.81	44650.40
569.97	44531.03
570.13	44886.79
570.30	44687.85
570.46	44591.89
570.62	44816.58
570.78	44509.97
570.95	44594.23
571.11	44758.06
571.27	44254.85
571.43	44404.64
571.60	44858.71
571.76	44851.69
571.92	44814.24
572.09	44610.61
572.25	44875.09
572.41	45165.32
572.57	44638.70
572.74	45022.54
572.90	44383.58
573.06	44465.50
573.22	44495.92
573.38	45069.36
573.55	44657.42
573.71	45446.18
573.87	44912.54
574.03	44884.45
574.20	44552.10
574.36	44776.79
574.52	44540.39
574.68	44671.46
574.84	44626.99
575.01	44928.92
575.17	44917.22
575.33	44903.18
575.49	44591.89
575.65	44821.26
575.82	45397.03
575.98	44945.31
576.14	44744.02
576.30	44912.54
576.46	44847.00
576.62	44786.15
576.79	44486.56
576.95	44643.38
577.11	44690.19
577.27	45200.43
577.43	44987.44
577.59	44910.20
577.75	45151.27
577.92	44516.99
578.08	44650.40
578.24	44641.04
578.40	44383.58
578.56	45193.40
578.72	44924.24
578.88	44942.97
579.04	44961.69
579.21	45064.67
579.37	45148.93
579.53	45347.88
579.69	44816.58
579.85	45074.04
580.01	44959.35
580.17	44591.89
580.33	44905.52
580.49	45228.51
580.65	44615.29
580.82	45104.46
580.98	44570.82
581.14	44928.92
581.30	44889.13
581.46	44767.43
581.62	44978.07
581.78	44364.85
581.94	45062.33
582.10	44875.09
582.26	44844.66
582.42	44903.18
582.58	45235.53
582.74	44954.67
582.90	44949.99
583.06	45109.14
583.22	44680.83
583.38	44802.53
583.54	44699.55
583.70	44889.13
583.86	44694.87
584.02	44531.03
584.18	45261.28
584.34	45221.49
584.50	45399.37
584.66	44989.78
584.82	44959.35
584.98	44863.39
585.14	44938.29
585.30	44729.98
585.46	44788.49
585.62	44828.28
585.78	45024.89
585.94	44601.25
586.10	44924.24
586.26	44907.86
586.42	44839.98
586.58	45315.11
586.74	45331.50
586.90	45001.48
587.06	44952.33
587.22	45052.97
587.38	45137.23
587.54	45144.25
587.70	45291.71
587.86	45088.08
588.02	45439.16
588.18	45029.57
588.34	45261.28
588.49	45233.19
588.65	44727.64
588.81	44978.07
588.97	44980.42
589.13	44968.71
589.29	44907.86
589.45	44835.30
589.61	45137.23
589.77	45329.16
589.93	45401.71
590.08	45581.93
590.24	45359.58
590.40	45525.76
590.56	45275.32
590.72	45258.94
