SpectraSuite Data File
++++++++++++++++++++++++++++++++++++
Date: Fri Oct 04 11:39:26 GMT-05:00 2013
User: price-jones
Dark Spectrum Present: No
Reference Spectrum Present: No
Number of Sampled Component Spectra: 1
Spectrometers: USB2+H05261
Integration Time (usec): 100000 (USB2+H05261)
Spectra Averaged: 1 (USB2+H05261)
Boxcar Smoothing: 0 (USB2+H05261)
Correct for Electrical Dark: No (USB2+H05261)
Strobe/Lamp Enabled: No (USB2+H05261)
Correct for Detector Non-linearity: No (USB2+H05261)
Correct for Stray Light: No (USB2+H05261)
Number of Pixels in Processed Spectrum: 2048
>>>>>Begin Processed Spectral Data<<<<<
365.73	86.60
365.92	86.60
366.12	86.60
366.32	0.00
366.52	0.00
366.72	0.00
366.91	21.06
367.11	0.00
367.31	0.00
367.51	0.00
367.70	0.00
367.90	0.00
368.10	0.00
368.30	0.00
368.49	0.00
368.69	0.00
368.89	0.00
369.09	0.00
369.28	0.00
369.48	0.00
369.68	72.56
369.87	0.00
370.07	32.77
370.27	30.43
370.47	51.49
370.66	156.82
370.86	208.31
371.06	133.41
371.25	250.44
371.45	210.65
371.65	180.22
371.84	217.67
372.04	229.37
372.24	262.14
372.44	238.73
372.63	252.78
372.83	308.95
373.03	236.39
373.22	280.86
373.42	234.05
373.62	236.39
373.81	287.89
374.01	362.78
374.21	269.16
374.40	266.82
374.60	306.61
374.79	311.29
374.99	285.55
375.19	330.02
375.38	245.76
375.58	297.25
375.78	334.70
375.97	276.18
376.17	301.93
376.37	332.36
376.56	353.42
376.76	229.37
376.95	243.42
377.15	360.44
377.35	332.36
377.54	395.55
377.74	301.93
377.93	283.20
378.13	290.23
378.33	386.19
378.52	332.36
378.72	245.76
378.91	365.12
379.11	341.72
379.31	278.52
379.50	306.61
379.70	290.23
379.89	243.42
380.09	297.25
380.28	292.57
380.48	301.93
380.68	332.36
380.87	332.36
381.07	383.85
381.26	360.44
381.46	320.65
381.65	287.89
381.85	290.23
382.04	418.96
382.24	346.40
382.43	351.08
382.63	290.23
382.83	337.04
383.02	327.68
383.22	341.72
383.41	346.40
383.61	400.23
383.80	409.59
384.00	332.36
384.19	308.95
384.39	351.08
384.58	360.44
384.78	330.02
384.97	241.08
385.17	294.91
385.36	358.10
385.56	388.53
385.75	407.25
385.95	409.59
386.14	430.66
386.34	393.21
386.53	360.44
386.72	402.57
386.92	447.04
387.11	423.64
387.31	421.30
387.50	407.25
387.70	376.83
387.89	437.68
388.09	400.23
388.28	411.93
388.48	404.91
388.67	346.40
388.86	440.02
389.06	390.87
389.25	440.02
389.45	428.32
389.64	496.19
389.84	554.71
390.03	444.70
390.22	449.38
390.42	498.53
390.61	505.56
390.81	418.96
391.00	489.17
391.19	526.62
391.39	498.53
391.58	575.77
391.78	472.79
391.97	454.06
392.16	468.11
392.36	505.56
392.55	547.69
392.75	557.05
392.94	465.77
393.13	489.17
393.33	531.30
393.52	496.19
393.71	552.37
393.91	582.79
394.10	531.30
394.29	521.94
394.49	667.05
394.68	610.88
394.88	669.39
395.07	587.47
395.26	606.20
395.46	521.94
395.65	589.82
395.84	627.26
396.04	709.18
396.23	615.56
396.42	601.52
396.62	601.52
396.81	627.26
397.00	648.33
397.19	580.45
397.39	692.80
397.58	638.97
397.77	566.41
397.97	662.37
398.16	641.31
398.35	695.14
398.55	636.63
398.74	758.33
398.93	667.05
399.12	688.12
399.32	709.18
399.51	723.23
399.70	704.50
399.90	713.86
400.09	741.95
400.28	760.67
400.47	777.06
400.67	734.93
400.86	753.65
401.05	753.65
401.24	795.78
401.44	809.83
401.63	807.48
401.82	877.70
402.01	868.34
402.21	819.19
402.40	882.38
402.59	840.25
402.78	767.70
402.97	837.91
403.17	844.93
403.36	823.87
403.55	884.72
403.74	959.62
403.93	957.28
404.13	1006.43
404.32	947.92
404.51	1029.84
404.70	1034.52
404.89	1004.09
405.09	985.37
405.28	1013.45
405.47	1069.62
405.66	1067.28
405.85	1053.24
406.05	1069.62
406.24	1093.03
406.43	1011.11
406.62	1135.16
406.81	1130.48
407.00	1179.63
407.20	1032.18
407.39	1130.48
407.58	1170.27
407.77	1191.33
407.96	1198.35
408.15	1196.01
408.34	1233.46
408.54	1221.76
408.73	1266.23
408.92	1306.02
409.11	1245.16
409.30	1306.02
409.49	1355.17
409.68	1341.13
409.87	1289.64
410.07	1371.55
410.26	1451.13
410.45	1413.68
410.64	1387.94
410.83	1455.81
411.02	1317.72
411.21	1432.41
411.40	1476.88
411.59	1401.98
411.78	1472.20
411.98	1444.11
412.17	1511.99
412.36	1636.03
412.55	1563.48
412.74	1610.29
412.93	1760.08
413.12	1636.03
413.31	1727.32
413.50	1680.50
413.69	1783.49
413.88	1734.34
414.07	1816.26
414.26	1715.61
414.45	1743.70
414.64	1692.21
414.83	1921.58
415.02	1884.13
415.22	1933.28
415.41	1905.20
415.60	1975.41
415.79	1893.49
415.98	1980.09
416.17	2062.01
416.36	2040.95
416.55	2069.03
416.74	1998.82
416.93	2125.21
417.12	2064.35
417.31	2050.31
417.50	2069.03
417.69	2277.34
417.88	2160.31
418.07	2038.61
418.26	2179.04
418.45	2186.06
418.64	2284.36
418.83	2331.17
419.02	2267.98
419.21	2368.62
419.39	2326.49
419.58	2216.49
419.77	2249.25
419.96	2370.96
420.15	2429.48
420.34	2438.84
420.53	2466.92
420.72	2256.28
420.91	2406.07
421.10	2504.37
421.29	2539.48
421.48	2457.56
421.67	2476.29
421.86	2485.65
422.05	2504.37
422.24	2473.95
422.43	2588.63
422.61	2530.12
422.80	2583.95
422.99	2572.25
423.18	2579.27
423.37	2612.04
423.56	2686.94
423.75	2593.31
423.94	2548.84
424.13	2518.42
424.32	2368.62
424.50	2700.98
424.69	2661.19
424.88	2553.52
425.07	2553.52
425.26	2581.61
425.45	2672.89
425.64	2717.36
425.83	2689.28
426.01	2633.10
426.20	2693.96
426.39	2705.66
426.58	2764.17
426.77	2642.46
426.96	2775.88
427.15	2803.96
427.33	2787.58
427.52	2857.79
427.71	2871.84
427.90	2623.74
428.09	2778.22
428.28	2867.16
428.46	2871.84
428.65	2818.00
428.84	2888.22
429.03	2986.52
429.22	2801.62
429.40	2764.17
429.59	2916.31
429.78	2862.48
429.97	2778.22
430.16	2883.54
430.34	2958.44
430.53	2932.69
430.72	3007.59
430.91	2993.55
431.10	2949.08
431.28	3047.38
431.47	3019.29
431.66	3052.06
431.85	3019.29
432.03	3073.12
432.22	3052.06
432.41	3171.43
432.60	3197.17
432.79	3192.49
432.97	3211.22
433.16	3197.17
433.35	3246.32
433.54	3283.77
433.72	3337.60
433.91	3129.30
434.10	3232.28
434.28	3276.75
434.47	3318.88
434.66	3386.76
434.85	3318.88
435.03	3412.50
435.22	3478.04
435.41	3868.91
435.59	3798.69
435.78	3611.45
435.97	3428.88
436.16	3445.27
436.34	3454.63
436.53	3508.46
436.72	3405.48
436.90	3475.70
437.09	3613.79
437.28	3531.87
437.46	3496.76
437.65	3447.61
437.84	3592.72
438.02	3543.57
438.21	3625.49
438.40	3684.00
438.58	3550.59
438.77	3726.13
438.96	3658.26
439.14	3847.84
439.33	3829.12
439.52	3852.52
439.70	3889.97
439.89	3847.84
440.08	3822.09
440.26	3894.65
440.45	4023.38
440.63	3943.80
440.82	3957.85
441.01	3969.55
441.19	4088.92
441.38	4063.17
441.57	3911.04
441.75	4187.22
441.94	4126.36
442.12	4035.08
442.31	4292.54
442.50	4227.01
442.68	4248.07
442.87	4308.93
443.05	4252.75
443.24	4395.53
443.43	4346.37
443.61	4386.16
443.80	4690.43
443.98	4386.16
444.17	4124.02
444.35	4477.44
444.54	4454.04
444.73	4449.36
444.91	4372.12
445.10	4477.44
445.28	4489.15
445.47	4367.44
445.65	4414.25
445.84	4465.74
446.02	4592.13
446.21	4643.62
446.39	4491.49
446.58	4578.09
446.77	4500.85
446.95	4418.93
447.14	4521.92
447.32	4491.49
447.51	4601.49
447.69	4449.36
447.88	4589.79
448.06	4620.22
448.25	4477.44
448.43	4603.83
448.62	4521.92
448.80	4552.34
448.99	4678.73
449.17	4711.50
449.36	4657.67
449.54	4723.20
449.73	4854.27
449.91	4645.96
450.10	4652.98
450.28	4880.02
450.46	4741.93
450.65	4966.62
450.83	4812.14
451.02	4777.03
451.20	4851.93
451.39	4851.93
451.57	4929.17
451.76	4720.86
451.94	4950.23
452.13	4835.55
452.31	4877.68
452.49	4936.19
452.68	4952.57
452.86	4997.04
453.05	5060.24
453.23	5022.79
453.42	4975.98
453.60	5020.45
453.78	5006.41
453.97	5163.22
454.15	5078.96
454.34	5001.72
454.52	4997.04
454.70	5191.31
454.89	5114.07
455.07	5100.03
455.26	5231.10
455.44	5289.61
455.62	5275.57
455.81	4992.36
455.99	5355.15
456.17	5392.59
456.36	5284.93
456.54	5472.17
456.73	5425.36
456.91	5565.79
457.09	5572.82
457.28	5516.64
457.46	5245.14
457.64	5540.05
457.83	5596.22
458.01	5376.21
458.19	5509.62
458.38	5533.03
458.56	5710.91
458.74	5659.42
458.93	5607.92
459.11	5631.33
459.29	5724.95
459.48	5727.29
459.66	5696.86
459.84	5731.97
460.03	5881.77
460.21	5795.17
460.39	5912.19
460.57	5797.51
460.76	5902.83
460.94	5844.32
461.12	5881.77
461.31	5963.68
461.49	5689.84
461.67	5919.21
461.85	5984.75
462.04	5970.71
462.22	6162.63
462.40	6001.13
462.59	6094.76
462.77	6094.76
462.95	6090.07
463.13	6078.37
463.32	6125.18
463.50	6291.36
463.68	6202.42
463.86	5959.00
464.05	6223.48
464.23	5989.43
464.41	6272.64
464.59	6132.20
464.78	6207.10
464.96	6038.58
465.14	6356.90
465.32	6429.45
465.50	6265.61
465.69	6438.81
465.87	6279.66
466.05	6427.11
466.23	6338.17
466.41	6516.05
466.60	6459.88
466.78	6331.15
466.96	6455.20
467.14	6408.39
467.32	6459.88
467.51	6403.71
467.69	6403.71
467.87	6581.59
468.05	6595.63
468.23	6649.46
468.41	6565.20
468.60	6504.35
468.78	6857.77
468.96	6558.18
469.14	6799.26
469.32	6747.76
469.50	6792.23
469.69	6839.05
469.87	6967.77
470.05	6906.92
470.23	6902.24
470.41	7023.95
470.59	7056.72
470.77	6832.02
470.95	6970.12
471.14	6890.54
471.32	6895.22
471.50	7033.31
471.68	7157.36
471.86	7309.49
472.04	7258.00
472.22	7250.98
472.40	7180.76
472.58	7300.13
472.77	7265.02
472.95	7283.75
473.13	7531.84
473.31	7461.63
473.49	7250.98
473.67	7524.82
473.85	7426.52
474.03	7534.18
474.21	7529.50
474.39	7730.79
474.57	7597.38
474.75	7808.03
474.93	7957.82
475.12	7786.96
475.30	7847.82
475.48	7845.48
475.66	7836.11
475.84	7918.03
476.02	8044.42
476.20	8138.04
476.38	8107.62
476.56	8332.31
476.74	8276.13
476.92	8304.22
477.10	8203.58
477.28	8444.65
477.46	8334.65
477.64	8418.91
477.82	8538.27
478.00	8720.84
478.18	8737.22
478.36	8699.77
478.54	8922.12
478.72	8882.33
478.90	8997.02
479.08	8891.70
479.26	9177.24
479.44	9378.53
479.62	9296.61
479.80	9048.51
479.98	9261.50
480.16	9586.83
480.34	9383.21
480.52	9748.33
480.70	9635.99
480.88	9528.32
481.06	9799.82
481.24	9584.49
481.41	9762.37
481.59	10008.13
481.77	10132.18
481.95	10164.95
482.13	10136.86
482.31	10216.44
482.49	10314.74
482.67	10200.05
482.85	10717.31
483.03	10918.60
483.21	10787.53
483.39	11023.92
483.57	10654.12
483.74	10682.20
483.92	10813.28
484.10	10939.66
484.28	11124.57
484.46	11456.92
484.64	11719.06
484.82	11517.78
485.00	11529.48
485.18	11726.08
485.35	11943.75
485.53	11824.39
485.71	12004.61
485.89	12006.95
486.07	12006.95
486.25	12147.38
486.43	12358.03
486.61	12159.08
486.78	12351.01
486.96	12472.71
487.14	12561.66
487.32	12751.24
487.50	12884.65
487.68	12968.91
487.85	12788.69
488.03	13198.28
488.21	13301.26
488.39	13411.27
488.57	13383.18
488.75	13551.70
488.92	13870.01
489.10	13708.52
489.28	13879.38
489.46	13652.34
489.64	14118.11
489.81	14242.16
489.99	14171.94
490.17	14078.32
490.35	14429.40
490.53	14565.15
490.70	14731.33
490.88	14576.86
491.06	14789.85
491.24	14956.02
491.41	15007.52
491.59	14904.53
491.77	15019.22
491.95	15082.41
492.13	15241.57
492.30	15389.02
492.48	15342.21
492.66	15260.29
492.84	15545.84
493.01	15873.51
493.19	15499.03
493.37	15929.69
493.54	16042.03
493.72	16215.23
493.90	15910.96
494.08	16116.93
494.25	16283.11
494.43	16512.48
494.61	16727.81
494.79	16891.65
494.96	16966.54
495.14	16915.05
495.32	16568.65
495.49	16723.13
495.67	17238.05
495.85	17151.45
496.02	17305.92
496.20	17455.72
496.38	17441.67
496.55	17612.53
496.73	17797.43
496.91	17310.60
497.09	17776.37
497.26	17902.76
497.44	17532.95
497.62	18054.89
497.79	18111.07
497.97	18153.20
498.14	18265.54
498.32	18494.91
498.50	18497.25
498.67	18597.90
498.85	18429.38
499.03	18558.11
499.20	18576.83
499.38	19002.81
499.56	18864.72
499.73	18911.53
499.91	19026.21
500.08	19417.08
500.26	19271.97
500.44	19290.70
500.61	19257.93
500.79	19555.18
500.97	19300.06
501.14	19887.53
501.32	19655.82
501.49	19637.09
501.67	19751.78
501.84	19852.42
502.02	20049.03
502.20	20173.08
502.37	20100.52
502.55	19941.36
502.72	20123.93
502.90	20266.70
503.07	20039.67
503.25	20409.47
503.43	20517.14
503.60	20627.14
503.78	20088.82
503.95	20835.45
504.13	20931.41
504.30	20592.03
504.48	20732.47
504.65	20910.35
504.83	21069.50
505.01	21266.11
505.18	21111.63
505.36	21385.47
505.53	21113.97
505.71	21118.65
505.88	21308.24
506.06	21209.93
506.23	21458.03
506.41	21656.98
506.58	21577.40
506.76	21703.79
506.93	21769.32
507.11	21497.82
507.28	21731.87
507.46	21790.39
507.63	21865.28
507.81	22328.71
507.98	21951.88
508.16	22232.75
508.33	22087.64
508.50	22403.61
508.68	22242.11
508.85	22590.85
509.03	22258.49
509.20	22918.53
509.38	22684.47
509.55	22897.46
509.73	22897.46
509.90	22782.77
510.08	22892.78
510.25	23033.21
510.42	23276.63
510.60	23063.64
510.77	23222.80
510.95	23337.48
511.12	23183.01
511.30	23269.61
511.47	23283.65
511.64	23536.43
511.82	23686.22
511.99	23470.89
512.17	23859.42
512.34	23903.89
512.51	23620.69
512.69	23873.46
512.86	24025.60
513.04	24159.01
513.21	24006.87
513.38	24325.19
513.56	24451.58
513.73	23889.85
513.90	24437.53
514.08	24236.25
514.25	24372.00
514.43	24498.39
514.60	24713.72
514.77	24643.50
514.95	24741.80
515.12	24713.72
515.29	24570.94
515.47	24966.49
515.64	24849.47
515.81	24606.05
515.99	25069.48
516.16	25233.32
516.33	25067.14
516.51	25352.68
516.68	25144.38
516.85	25041.39
517.03	25418.22
517.20	25741.21
517.37	25043.73
517.54	25818.45
517.72	25312.89
517.89	25560.99
518.06	25703.76
518.24	25944.84
518.41	25537.59
518.58	25942.50
518.75	25977.61
518.93	26221.02
519.10	26050.16
519.27	26024.42
519.45	25933.14
519.62	26080.59
519.79	25689.72
519.96	26169.53
520.14	26799.13
520.31	26157.83
520.48	26391.88
520.65	26621.25
520.83	26532.31
521.00	26789.77
521.17	26700.83
521.34	26726.58
521.52	26899.78
521.69	26567.42
521.86	27129.15
522.03	27047.23
522.20	26867.01
522.38	27222.77
522.55	27222.77
522.72	27005.10
522.89	27168.94
523.07	27618.32
523.24	27672.15
523.41	27449.80
523.58	27489.59
523.75	27669.81
523.92	27555.13
524.10	27522.36
524.27	27878.12
524.44	27777.48
524.61	28114.52
524.78	28006.85
524.96	27618.32
525.13	28041.96
525.30	27971.74
525.47	27931.95
525.64	28063.02
525.81	28439.85
525.98	28350.91
526.16	28315.80
526.33	28203.46
526.50	28332.18
526.67	27969.40
526.84	28315.80
527.01	28535.81
527.18	28416.44
527.36	28884.55
527.53	28540.49
527.70	29237.97
527.87	28961.79
528.04	28617.73
528.21	29193.50
528.38	28875.19
528.55	28727.74
528.72	28781.57
528.89	29167.76
529.07	29212.23
529.24	28814.34
529.41	29387.77
529.58	28676.24
529.75	29099.88
529.92	29284.78
530.09	29317.55
530.26	29357.34
530.43	29177.12
530.60	29092.86
530.77	29483.73
530.94	29453.30
531.11	29324.57
531.28	29584.37
531.46	29575.01
531.63	29373.72
531.80	29748.21
531.97	29776.30
532.14	29984.60
532.31	29619.48
532.48	29820.77
532.65	29778.64
532.82	29675.65
532.99	29890.98
533.16	29834.81
533.33	30361.43
533.50	30321.64
533.67	30260.79
533.84	29844.17
534.01	29883.96
534.18	29591.39
534.35	30515.90
534.52	30178.87
534.69	30541.65
534.86	30522.93
535.03	30237.38
535.20	30419.94
535.37	30817.83
535.54	30469.09
535.71	30637.61
535.88	30778.04
536.05	30756.98
536.22	30703.15
536.38	31414.67
536.55	31302.32
536.72	30536.97
536.89	30419.94
537.06	30654.00
537.23	30792.09
537.40	30735.92
537.57	30995.71
537.74	30841.24
537.91	31110.40
538.08	31491.91
538.25	30911.46
538.42	31201.68
538.59	31452.12
538.75	30960.61
538.92	31047.21
539.09	31828.95
539.26	31566.81
539.43	31346.79
539.60	31622.98
539.77	31505.95
539.94	31740.00
540.11	31543.40
540.28	31812.56
540.44	31779.79
540.61	31899.16
540.78	31999.80
540.95	32154.28
541.12	32154.28
541.29	32273.65
541.46	31845.33
541.62	32332.16
541.79	32081.72
541.96	32238.54
542.13	31924.91
542.30	32767.50
542.47	32622.39
542.63	32556.85
542.80	32514.72
542.97	32723.03
543.14	32980.49
543.31	32531.11
543.48	32526.42
543.64	32992.19
543.81	33050.70
543.98	32929.00
544.15	33118.58
544.32	33104.54
544.48	33146.67
544.65	32938.36
544.82	32816.65
544.99	32804.95
545.16	32769.84
545.32	33259.01
545.49	33659.24
545.66	33872.23
545.83	34387.15
546.00	34134.37
546.16	33612.43
546.33	33158.37
546.50	33116.24
546.67	33085.81
546.83	33277.74
547.00	33092.83
547.17	33071.77
547.34	33275.40
547.50	33509.45
547.67	33287.10
547.84	33207.52
548.00	33888.62
548.17	33710.74
548.34	33109.22
548.51	33610.09
548.67	33591.37
548.84	33596.05
549.01	33507.11
549.18	33387.74
549.34	33455.62
549.51	33773.93
549.68	33710.74
549.84	33399.44
550.01	33846.49
550.18	33813.72
550.34	33692.01
550.51	33689.67
550.68	34373.11
550.84	33837.12
551.01	34092.24
551.18	33776.27
551.34	33528.17
551.51	33865.21
551.68	33951.81
551.84	33457.96
552.01	33802.02
552.18	34263.10
552.34	33684.99
552.51	33905.00
552.68	33883.94
552.84	34244.38
553.01	34005.64
553.18	33961.17
553.34	34022.03
553.51	34305.23
553.67	34101.61
553.84	34546.31
554.01	34312.25
554.17	34490.13
554.34	34082.88
554.51	34136.71
554.67	34593.12
554.84	34298.21
555.00	34246.72
555.17	34368.43
555.33	34401.19
555.50	33947.13
555.67	34113.31
555.83	34501.84
556.00	34164.80
556.16	34590.78
556.33	34160.12
556.50	34340.34
556.66	34768.66
556.83	34244.38
556.99	34815.47
557.16	34747.59
557.32	34808.45
557.49	34700.78
557.65	34450.35
557.82	34398.85
557.98	34558.01
558.15	34422.26
558.32	34749.93
558.48	34597.80
558.65	34576.73
558.81	34665.67
558.98	34628.23
559.14	34593.12
559.31	34703.12
559.47	34412.90
559.64	34766.32
559.80	35030.80
559.97	35000.37
560.13	34487.79
560.30	34979.31
560.46	35021.44
560.63	35157.19
560.79	35098.67
560.96	34749.93
561.12	34965.26
561.29	34974.63
561.45	34602.48
561.61	34946.54
561.78	34991.01
561.94	34958.24
562.11	35068.25
562.27	34609.50
562.44	35253.15
562.60	34710.14
562.77	35161.87
562.93	35255.49
563.10	35419.33
563.26	35152.51
563.42	35688.49
563.59	34981.65
563.75	35157.19
563.92	35016.75
564.08	35051.86
564.24	35131.44
564.41	34937.18
564.57	35285.92
564.74	35295.28
564.90	35278.89
565.07	35452.09
565.23	35318.68
565.39	35171.23
565.56	35395.92
565.72	34998.03
565.88	35428.69
566.05	35049.52
566.21	35122.08
566.38	34859.94
566.54	34988.67
566.70	35201.66
566.87	35391.24
567.03	35147.82
567.19	35704.87
567.36	35381.88
567.52	35110.38
567.68	35543.38
567.85	35328.05
568.01	35344.43
568.17	35211.02
568.34	35438.05
568.50	35182.93
568.66	35644.02
568.83	35716.58
568.99	35353.79
569.15	35302.30
569.32	35447.41
569.48	35175.91
569.64	35395.92
569.81	35271.87
569.97	35227.40
570.13	35634.66
570.30	35288.26
570.46	35793.81
570.62	35285.92
570.78	35496.56
570.95	35447.41
571.11	35349.11
571.27	35005.05
571.43	35122.08
571.60	35419.33
571.76	35566.78
571.92	35695.51
572.09	35435.71
572.25	35426.35
572.41	35470.82
572.57	35199.32
572.74	35566.78
572.90	35667.42
573.06	35622.95
573.22	35274.21
573.38	35281.24
573.55	35452.09
573.71	35552.74
573.87	35325.71
574.03	35187.61
574.20	35477.84
574.36	35545.72
574.52	35864.03
574.68	35482.52
574.84	35658.06
575.01	35405.28
575.17	35868.71
575.33	35756.36
575.49	35765.73
575.65	35913.18
575.82	35510.61
575.98	35409.96
576.14	36046.59
576.30	35522.31
576.46	35454.44
576.62	35482.52
576.79	35842.96
576.95	35526.99
577.11	35728.28
577.27	35459.12
577.43	36093.40
577.59	35468.48
577.75	35639.34
577.92	35416.99
578.08	35433.37
578.24	35749.34
578.40	35653.38
578.56	35409.96
578.72	35672.10
578.88	35716.58
579.04	35634.66
579.21	35742.32
579.37	35974.03
579.53	35606.57
579.69	35297.62
579.85	35679.13
580.01	35803.17
580.17	35288.26
580.33	35849.99
580.49	35824.24
580.65	36055.95
580.82	35658.06
580.98	35800.83
581.14	35751.68
581.30	35969.35
581.46	35421.67
581.62	35660.40
581.78	35215.70
581.94	35859.35
582.10	35571.46
582.26	35943.61
582.42	35763.39
582.58	35646.36
582.74	36067.66
582.90	35508.27
583.06	35945.95
583.22	35440.39
583.38	35632.32
583.54	35578.48
583.70	35646.36
583.86	35332.73
584.02	35576.14
584.18	36210.43
584.34	35927.22
584.50	35658.06
584.66	35929.56
584.82	35693.17
584.98	35660.40
585.14	35379.54
585.30	35438.05
585.46	35541.03
585.62	35585.50
585.78	35503.59
585.94	35475.50
586.10	35723.60
586.26	35583.16
586.42	35955.31
586.58	36264.26
586.74	35744.66
586.90	35758.70
587.06	35704.87
587.22	36156.60
587.38	35653.38
587.54	35810.20
587.70	36053.61
587.86	35433.37
588.02	35868.71
588.18	35854.67
588.34	36201.07
588.49	35922.54
588.65	35800.83
588.81	35777.43
588.97	35920.20
589.13	35749.34
589.29	36210.43
589.45	36112.13
589.61	35688.49
589.77	36175.32
589.93	36383.63
590.08	35992.76
590.24	36098.08
590.40	36467.89
590.56	35952.97
590.72	35875.73
590.88	35587.85
591.04	35941.27
591.20	35683.81
591.35	35910.84
