SpectraSuite Data File
++++++++++++++++++++++++++++++++++++
Date: Fri Oct 04 11:39:11 GMT-05:00 2013
User: price-jones
Dark Spectrum Present: No
Reference Spectrum Present: No
Number of Sampled Component Spectra: 1
Spectrometers: USB2+H05261
Integration Time (usec): 100000 (USB2+H05261)
Spectra Averaged: 1 (USB2+H05261)
Boxcar Smoothing: 0 (USB2+H05261)
Correct for Electrical Dark: No (USB2+H05261)
Strobe/Lamp Enabled: No (USB2+H05261)
Correct for Detector Non-linearity: No (USB2+H05261)
Correct for Stray Light: No (USB2+H05261)
Number of Pixels in Processed Spectrum: 2048
>>>>>Begin Processed Spectral Data<<<<<
365.73	65.54
365.92	65.54
366.12	65.54
366.32	0.00
366.52	0.00
366.72	0.00
366.91	0.00
367.11	2.34
367.31	0.00
367.51	0.00
367.70	0.00
367.90	0.00
368.10	0.00
368.30	0.00
368.49	0.00
368.69	0.00
368.89	16.38
369.09	0.00
369.28	0.00
369.48	0.00
369.68	0.00
369.87	0.00
370.07	0.00
370.27	60.85
370.47	9.36
370.66	39.79
370.86	88.94
371.06	93.62
371.25	156.82
371.45	100.64
371.65	100.64
371.84	145.11
372.04	98.30
372.24	119.37
372.44	142.77
372.63	156.82
372.83	231.71
373.03	140.43
373.22	173.20
373.42	126.39
373.62	208.31
373.81	182.56
374.01	203.63
374.21	229.37
374.40	114.69
374.60	131.07
374.79	182.56
374.99	182.56
375.19	133.41
375.38	100.64
375.58	217.67
375.78	191.92
375.97	250.44
376.17	259.80
376.37	131.07
376.56	227.03
376.76	124.05
376.95	203.63
377.15	189.58
377.35	177.88
377.54	229.37
377.74	173.20
377.93	163.84
378.13	79.58
378.33	121.71
378.52	128.73
378.72	198.95
378.91	182.56
379.11	198.95
379.31	163.84
379.50	184.90
379.70	250.44
379.89	194.26
380.09	196.60
380.28	217.67
380.48	131.07
380.68	205.97
380.87	187.24
381.07	138.09
381.26	156.82
381.46	222.35
381.65	196.60
381.85	184.90
382.04	189.58
382.24	234.05
382.43	154.48
382.63	175.54
382.83	140.43
383.02	210.65
383.22	138.09
383.41	210.65
383.61	177.88
383.80	128.73
384.00	203.63
384.19	100.64
384.39	189.58
384.58	163.84
384.78	145.11
384.97	236.39
385.17	159.16
385.36	215.33
385.56	191.92
385.75	222.35
385.95	208.31
386.14	210.65
386.34	215.33
386.53	217.67
386.72	154.48
386.92	255.12
387.11	248.10
387.31	198.95
387.50	252.78
387.70	159.16
387.89	182.56
388.09	264.48
388.28	198.95
388.48	152.13
388.67	182.56
388.86	248.10
389.06	201.29
389.25	222.35
389.45	196.60
389.64	196.60
389.84	220.01
390.03	269.16
390.22	175.54
390.42	245.76
390.61	208.31
390.81	236.39
391.00	194.26
391.19	248.10
391.39	201.29
391.58	227.03
391.78	149.79
391.97	273.84
392.16	257.46
392.36	231.71
392.55	241.08
392.75	210.65
392.94	271.50
393.13	191.92
393.33	231.71
393.52	159.16
393.71	257.46
393.91	252.78
394.10	227.03
394.29	250.44
394.49	255.12
394.68	201.29
394.88	294.91
395.07	248.10
395.26	234.05
395.46	222.35
395.65	271.50
395.84	250.44
396.04	283.20
396.23	257.46
396.42	227.03
396.62	255.12
396.81	292.57
397.00	255.12
397.19	301.93
397.39	252.78
397.58	292.57
397.77	292.57
397.97	234.05
398.16	257.46
398.35	245.76
398.55	236.39
398.74	276.18
398.93	322.99
399.12	250.44
399.32	271.50
399.51	344.06
399.70	346.40
399.90	278.52
400.09	327.68
400.28	292.57
400.47	220.01
400.67	304.27
400.86	301.93
401.05	320.65
401.24	264.48
401.44	355.76
401.63	362.78
401.82	365.12
402.01	322.99
402.21	334.70
402.40	320.65
402.59	330.02
402.78	334.70
402.97	294.91
403.17	322.99
403.36	332.36
403.55	280.86
403.74	306.61
403.93	414.27
404.13	374.49
404.32	344.06
404.51	341.72
404.70	369.80
404.89	330.02
405.09	395.55
405.28	330.02
405.47	311.29
405.66	320.65
405.85	447.04
406.05	360.44
406.24	344.06
406.43	348.74
406.62	390.87
406.81	404.91
407.00	362.78
407.20	330.02
407.39	360.44
407.58	411.93
407.77	330.02
407.96	393.21
408.15	358.10
408.34	411.93
408.54	440.02
408.73	346.40
408.92	360.44
409.11	430.66
409.30	346.40
409.49	320.65
409.68	430.66
409.87	433.00
410.07	416.62
410.26	402.57
410.45	351.08
410.64	411.93
410.83	330.02
411.02	430.66
411.21	320.65
411.40	454.06
411.59	367.46
411.78	447.04
411.98	470.45
412.17	425.98
412.36	482.15
412.55	496.19
412.74	521.94
412.93	468.11
413.12	526.62
413.31	547.69
413.50	463.43
413.69	505.56
413.88	524.28
414.07	496.19
414.26	510.24
414.45	472.79
414.64	463.43
414.83	592.16
415.02	505.56
415.22	475.13
415.41	538.32
415.60	528.96
415.79	552.37
415.98	615.56
416.17	533.64
416.36	498.53
416.55	538.32
416.74	526.62
416.93	582.79
417.12	461.09
417.31	629.60
417.50	554.71
417.69	631.94
417.88	641.31
418.07	596.84
418.26	622.58
418.45	645.99
418.64	620.24
418.83	660.03
419.02	669.39
419.21	610.88
419.39	578.11
419.58	550.03
419.77	636.63
419.96	638.97
420.15	601.52
420.34	589.82
420.53	507.90
420.72	599.18
420.91	655.35
421.10	645.99
421.29	660.03
421.48	599.18
421.67	664.71
421.86	678.76
422.05	643.65
422.24	650.67
422.43	664.71
422.61	645.99
422.80	657.69
422.99	648.33
423.18	655.35
423.37	669.39
423.56	692.80
423.75	631.94
423.94	718.54
424.13	596.84
424.32	615.56
424.50	657.69
424.69	784.08
424.88	671.73
425.07	587.47
425.26	669.39
425.45	669.39
425.64	596.84
425.83	645.99
426.01	671.73
426.20	617.90
426.39	617.90
426.58	578.11
426.77	699.82
426.96	734.93
427.15	610.88
427.33	718.54
427.52	685.78
427.71	636.63
427.90	699.82
428.09	699.82
428.28	662.37
428.46	737.27
428.65	685.78
428.84	760.67
429.03	798.12
429.22	660.03
429.40	678.76
429.59	695.14
429.78	772.38
429.97	683.44
430.16	741.95
430.34	737.27
430.53	660.03
430.72	725.57
430.91	732.59
431.10	737.27
431.28	716.20
431.47	734.93
431.66	851.96
431.85	755.99
432.03	798.12
432.22	760.67
432.41	763.01
432.60	765.36
432.79	748.97
432.97	798.12
433.16	791.10
433.35	809.83
433.54	795.78
433.72	781.74
433.91	795.78
434.10	793.44
434.28	727.91
434.47	723.23
434.66	727.91
434.85	795.78
435.03	795.78
435.22	1013.45
435.41	1224.10
435.59	1200.69
435.78	1039.20
435.97	924.51
436.16	856.64
436.34	809.83
436.53	861.32
436.72	835.57
436.90	763.01
437.09	861.32
437.28	723.23
437.46	868.34
437.65	802.80
437.84	931.53
438.02	812.17
438.21	919.83
438.40	791.10
438.58	884.72
438.77	870.68
438.96	858.98
439.14	917.49
439.33	889.40
439.52	945.58
439.70	894.08
439.89	844.93
440.08	945.58
440.26	828.55
440.45	976.00
440.63	980.68
440.82	990.05
441.01	987.71
441.19	936.21
441.38	894.08
441.57	926.85
441.75	938.55
441.94	971.32
442.12	954.94
442.31	990.05
442.50	994.73
442.68	1076.65
442.87	983.02
443.05	992.39
443.24	1001.75
443.43	1048.56
443.61	1135.16
443.80	1022.81
443.98	973.66
444.17	922.17
444.35	966.64
444.54	957.28
444.73	1018.13
444.91	1029.84
445.10	887.06
445.28	964.30
445.47	1004.09
445.65	973.66
445.84	1015.79
446.02	1043.88
446.21	1025.15
446.39	1020.47
446.58	1050.90
446.77	1013.45
446.95	1104.73
447.14	1055.58
447.32	1034.52
447.51	1083.67
447.69	1060.26
447.88	1039.20
448.06	1008.77
448.25	1067.28
448.43	1055.58
448.62	971.32
448.80	1090.69
448.99	1055.58
449.17	973.66
449.36	954.94
449.54	1088.35
449.73	1102.39
449.91	1036.86
450.10	1057.92
450.28	1156.22
450.46	1151.54
450.65	1064.94
450.83	1114.10
451.02	1128.14
451.20	1128.14
451.39	1132.82
451.57	1053.24
451.76	1142.18
451.94	1043.88
452.13	1184.31
452.31	1102.39
452.49	1043.88
452.68	1090.69
452.86	1121.12
453.05	1165.59
453.23	1130.48
453.42	1074.31
453.60	1174.95
453.78	1144.52
453.97	1102.39
454.15	1165.59
454.34	1086.01
454.52	1184.31
454.70	1217.08
454.89	1317.72
455.07	1165.59
455.26	1090.69
455.44	1135.16
455.62	1135.16
455.81	1146.86
455.99	1130.48
456.17	1174.95
456.36	1235.80
456.54	1200.69
456.73	1158.57
456.91	1252.19
457.09	1254.53
457.28	1238.14
457.46	1163.25
457.64	1277.93
457.83	1240.48
458.01	1172.61
458.19	1284.95
458.38	1228.78
458.56	1294.32
458.74	1240.48
458.93	1266.23
459.11	1371.55
459.29	1242.82
459.48	1235.80
459.66	1280.27
459.84	1299.00
460.03	1327.08
460.21	1284.95
460.39	1188.99
460.57	1336.45
460.76	1369.21
460.94	1268.57
461.12	1387.94
461.31	1261.55
461.49	1291.98
461.67	1231.12
461.85	1315.38
462.04	1277.93
462.22	1497.94
462.40	1331.76
462.59	1301.34
462.77	1341.13
462.95	1343.47
463.13	1341.13
463.32	1331.76
463.50	1313.04
463.68	1364.53
463.86	1359.85
464.05	1364.53
464.23	1320.06
464.41	1383.26
464.59	1317.72
464.78	1406.66
464.96	1357.51
465.14	1355.17
465.32	1324.74
465.50	1526.03
465.69	1399.64
465.87	1261.55
466.05	1406.66
466.23	1439.43
466.41	1303.68
466.60	1420.71
466.78	1390.28
466.96	1448.79
467.14	1390.28
467.32	1521.35
467.51	1432.41
467.69	1357.51
467.87	1425.39
468.05	1509.65
468.23	1430.07
468.41	1465.18
468.60	1357.51
468.78	1488.58
468.96	1460.49
469.14	1460.49
469.32	1451.13
469.50	1394.96
469.69	1474.54
469.87	1455.81
470.05	1439.43
470.23	1420.71
470.41	1554.12
470.59	1383.26
470.77	1411.34
470.95	1488.58
471.14	1511.99
471.32	1523.69
471.50	1614.97
471.68	1479.22
471.86	1511.99
472.04	1509.65
472.22	1540.07
472.40	1502.62
472.58	1533.05
472.77	1551.78
472.95	1551.78
473.13	1621.99
473.31	1579.86
473.49	1507.30
473.67	1591.56
473.85	1516.67
474.03	1565.82
474.21	1624.33
474.39	1600.93
474.57	1708.59
474.75	1596.25
474.93	1621.99
475.12	1724.97
475.30	1678.16
475.48	1699.23
475.66	1689.87
475.84	1689.87
476.02	1636.03
476.20	1694.55
476.38	1771.79
476.56	1825.62
476.74	1769.44
476.92	1818.60
477.10	1792.85
477.28	1720.29
477.46	1788.17
477.64	1755.40
477.82	1863.07
478.00	1858.39
478.18	1820.94
478.36	1858.39
478.54	1750.72
478.72	1937.96
478.90	1984.77
479.08	1914.56
479.26	1837.32
479.44	1898.17
479.62	1879.45
479.80	1905.20
479.98	2010.52
480.16	2083.08
480.34	2015.20
480.52	2045.63
480.70	1998.82
480.88	1926.26
481.06	2052.65
481.24	1928.60
481.41	2050.31
481.59	2118.18
481.77	2099.46
481.95	2033.93
482.13	2099.46
482.31	2174.36
482.49	2172.02
482.67	2143.93
482.85	2270.32
483.03	2193.08
483.21	2256.28
483.39	2284.36
483.57	2223.51
483.74	2256.28
483.92	2172.02
484.10	2113.50
484.28	2361.60
484.46	2340.54
484.64	2382.67
484.82	2492.67
485.00	2382.67
485.18	2293.72
485.35	2450.54
485.53	2459.90
485.71	2495.01
485.89	2483.31
486.07	2324.15
486.25	2572.25
486.43	2359.26
486.61	2530.12
486.78	2502.03
486.96	2541.82
487.14	2691.62
487.32	2565.23
487.50	2548.84
487.68	2635.44
487.85	2534.80
488.03	2684.59
488.21	2684.59
488.39	2729.06
488.57	2715.02
488.75	2710.34
488.92	3035.67
489.10	2710.34
489.28	2846.09
489.46	2759.49
489.64	2808.64
489.81	2841.41
489.99	2944.39
490.17	2836.73
490.35	2939.71
490.53	2902.26
490.70	2857.79
490.88	2906.95
491.06	2825.03
491.24	3026.31
491.41	3098.87
491.59	2979.50
491.77	2984.18
491.95	2991.20
492.13	3068.44
492.30	3049.72
492.48	3070.78
492.66	3192.49
492.84	3192.49
493.01	3133.98
493.19	3126.96
493.37	3148.02
493.54	3166.74
493.72	3201.85
493.90	3218.24
494.08	3183.13
494.25	3265.05
494.43	3382.07
494.61	3304.84
494.79	3243.98
494.96	3267.39
495.14	3218.24
495.32	3386.76
495.49	3400.80
495.67	3267.39
495.85	3323.56
496.02	3442.93
496.20	3393.78
496.38	3396.12
496.55	3384.41
496.73	3529.53
496.91	3417.18
497.09	3503.78
497.26	3620.81
497.44	3515.48
497.62	3463.99
497.79	3480.38
497.97	3475.70
498.14	3550.59
498.32	3545.91
498.50	3604.42
498.67	3630.17
498.85	3719.11
499.03	3791.67
499.20	3588.04
499.38	3789.33
499.56	3754.22
499.73	3662.94
499.91	3833.80
500.08	3684.00
500.26	3698.05
500.44	3810.39
500.61	3850.18
500.79	3688.68
500.97	3864.22
501.14	3920.40
501.32	3915.72
501.49	3784.65
501.67	3866.56
501.84	3880.61
502.02	3688.68
502.20	3922.74
502.37	3927.42
502.55	3754.22
502.72	3943.80
502.90	3861.88
503.07	3908.69
503.25	3948.48
503.43	4016.36
503.60	4049.13
503.78	4039.76
503.95	3894.65
504.13	3927.42
504.30	3896.99
504.48	4051.47
504.65	4093.60
504.83	3999.98
505.01	4112.32
505.18	4018.70
505.36	4088.92
505.53	4046.79
505.71	3934.44
505.88	4112.32
506.06	4100.62
506.23	4238.71
506.41	4170.83
506.58	4173.18
506.76	4156.79
506.93	4194.24
507.11	4210.62
507.28	4140.41
507.46	4306.59
507.63	4248.07
507.81	4285.52
507.98	4196.58
508.16	4229.35
508.33	4189.56
508.50	4177.86
508.68	4353.40
508.85	4395.53
509.03	4355.74
509.20	4381.48
509.38	4329.99
509.55	4360.42
509.73	4423.61
509.90	4334.67
510.08	4393.19
510.25	4535.96
510.42	4372.12
510.60	4489.15
510.77	4447.02
510.95	4458.72
511.12	4477.44
511.30	4526.60
511.47	4573.41
511.64	4528.94
511.82	4737.24
511.99	4425.95
512.17	4638.94
512.34	4407.23
512.51	4484.47
512.69	4484.47
512.86	4610.86
513.04	4512.55
513.21	4669.37
513.38	4692.77
513.56	4589.79
513.73	4683.41
513.90	4554.68
514.08	4671.71
514.25	4592.13
514.43	4692.77
514.60	4692.77
514.77	4767.67
514.95	4887.04
515.12	4751.29
515.29	4795.76
515.47	4781.71
515.64	4814.48
515.81	4856.61
515.99	4779.37
516.16	4748.95
516.33	4758.31
516.51	4840.23
516.68	4643.62
516.85	4713.84
517.03	4774.69
517.20	4844.91
517.37	4814.48
517.54	4933.85
517.72	4788.74
517.89	4844.91
518.06	4896.40
518.24	4997.04
518.41	4924.49
518.58	4837.89
518.75	4732.56
518.93	4919.81
519.10	4940.87
519.27	5088.32
519.45	5013.43
519.62	4961.94
519.79	4896.40
519.96	4957.25
520.14	5008.75
520.31	5011.09
520.48	5156.20
520.65	5025.13
520.83	5046.20
521.00	5008.75
521.17	4940.87
521.34	5085.98
521.52	5055.56
521.69	5123.43
521.86	5041.51
522.03	5085.98
522.20	5025.13
522.38	5034.49
522.55	5123.43
522.72	5104.71
522.89	5179.61
523.07	5301.31
523.24	5167.90
523.41	5165.56
523.58	5275.57
523.75	5172.58
523.92	5186.63
524.10	5266.21
524.27	5284.93
524.44	5273.23
524.61	5338.76
524.78	5151.52
524.96	5219.39
525.13	5305.99
525.30	5315.36
525.47	5252.16
525.64	5413.66
525.81	5284.93
525.98	5401.96
526.16	5277.91
526.33	5359.83
526.50	5308.34
526.67	5298.97
526.84	5420.68
527.01	5343.44
527.18	5380.89
527.36	5373.87
527.53	5298.97
527.70	5378.55
527.87	5495.58
528.04	5467.49
528.21	5294.29
528.38	5530.69
528.55	5373.87
528.72	5434.72
528.89	5453.45
529.07	5460.47
529.24	5521.32
529.41	5378.55
529.58	5420.68
529.75	5362.17
529.92	5366.85
530.09	5612.60
530.26	5570.48
530.43	5458.13
530.60	5413.66
530.77	5430.04
530.94	5593.88
531.11	5523.66
531.28	5493.24
531.46	5476.85
531.63	5469.83
531.80	5636.01
531.97	5619.63
532.14	5689.84
532.31	5575.16
532.48	5537.71
532.65	5465.15
532.82	5568.13
532.99	5640.69
533.16	5645.37
533.33	5738.99
533.50	5659.42
533.67	5563.45
533.84	5605.58
534.01	5710.91
534.18	5731.97
534.35	5666.44
534.52	5575.16
534.69	5844.32
534.86	5729.63
535.03	5818.57
535.20	5748.36
535.37	5570.48
535.54	5694.52
535.71	5738.99
535.88	5905.17
536.05	5738.99
536.22	5792.83
536.38	5834.96
536.55	5682.82
536.72	5846.66
536.89	5795.17
537.06	5720.27
537.23	5841.98
537.40	5788.14
537.57	5746.02
537.74	5680.48
537.91	5973.05
538.08	5823.25
538.25	5689.84
538.42	5937.94
538.59	5884.11
538.75	5902.83
538.92	5867.72
539.09	5860.70
539.26	5942.62
539.43	5961.34
539.60	5959.00
539.77	5977.73
539.94	6005.81
540.11	5959.00
540.28	6083.05
540.44	6085.39
540.61	6113.48
540.78	6162.63
540.95	6153.27
541.12	6324.13
541.29	6157.95
541.46	6244.55
541.62	6043.26
541.79	6324.13
541.96	6164.97
542.13	6043.26
542.30	6209.44
542.47	6258.59
542.63	6303.06
542.80	6300.72
542.97	6291.36
543.14	6242.21
543.31	6452.86
543.48	6265.61
543.64	6370.94
543.81	6232.85
543.98	6274.98
544.15	6473.92
544.32	6326.47
544.48	6356.90
544.65	6434.13
544.82	6167.31
544.99	6265.61
545.16	6349.87
545.32	6242.21
545.49	6602.65
545.66	6848.41
545.83	6953.73
546.00	6853.09
546.16	6530.09
546.33	6382.64
546.50	6324.13
546.67	6317.11
546.83	6246.89
547.00	6127.52
547.17	6153.27
547.34	6188.38
547.50	6207.10
547.67	6239.87
547.84	6183.70
548.00	6565.20
548.17	6424.77
548.34	6230.51
548.51	6216.46
548.67	6420.09
548.84	6305.40
549.01	6363.92
549.18	6260.93
549.34	6251.57
549.51	6373.28
549.68	6291.36
549.84	6209.44
550.01	6300.72
550.18	6321.79
550.34	6408.39
550.51	6450.52
550.68	6396.68
550.84	6286.68
551.01	6284.34
551.18	6090.07
551.34	6179.01
551.51	6204.76
551.68	6377.96
551.84	6431.79
552.01	6356.90
552.18	6384.98
552.34	6424.77
552.51	6267.95
552.68	6422.43
552.84	6345.19
553.01	6375.62
553.18	6277.32
553.34	6249.23
553.51	6317.11
553.67	6464.56
553.84	6333.49
554.01	6427.11
554.17	6452.86
554.34	6354.55
554.51	6576.91
554.67	6377.96
554.84	6331.15
555.00	6342.85
555.17	6293.70
555.33	6183.70
555.50	6076.03
555.67	6270.30
555.83	6232.85
556.00	6375.62
556.16	6665.85
556.33	6349.87
556.50	6328.81
556.66	6356.90
556.83	6197.74
556.99	6459.88
557.16	6331.15
557.32	6279.66
557.49	6445.84
557.65	6307.74
557.82	6279.66
557.98	6504.35
558.15	6293.70
558.32	6361.58
558.48	6277.32
558.65	6462.22
558.81	6370.94
558.98	6361.58
559.14	6471.58
559.31	6291.36
559.47	6324.13
559.64	6527.75
559.80	6593.29
559.97	6473.92
560.13	6441.15
560.30	6361.58
560.46	6494.99
560.63	6417.75
560.79	6406.05
560.96	6422.43
561.12	6333.49
561.29	6443.49
561.45	6305.40
561.61	6429.45
561.78	6555.84
561.94	6373.28
562.11	6345.19
562.27	6396.68
562.44	6232.85
562.60	6480.94
562.77	6415.41
562.93	6590.95
563.10	6319.45
563.26	6473.92
563.42	6415.41
563.59	6476.26
563.75	6483.28
563.92	6466.90
564.08	6476.26
564.24	6640.10
564.41	6553.50
564.57	6345.19
564.74	6272.64
564.90	6581.59
565.07	6410.73
565.23	6415.41
565.39	6413.07
565.56	6574.56
565.72	6403.71
565.88	6431.79
566.05	6370.94
566.21	6314.77
566.38	6520.73
566.54	6518.39
566.70	6438.81
566.87	6314.77
567.03	6434.13
567.19	6366.26
567.36	6473.92
567.52	6298.38
567.68	6370.94
567.85	6441.15
568.01	6649.46
568.17	6513.71
568.34	6567.54
568.50	6459.88
568.66	6342.85
568.83	6513.71
568.99	6546.48
569.15	6600.31
569.32	6560.52
569.48	6272.64
569.64	6502.01
569.81	6328.81
569.97	6478.60
570.13	6504.35
570.30	6392.00
570.46	6389.66
570.62	6319.45
570.78	6609.67
570.95	6480.94
571.11	6583.93
571.27	6490.31
571.43	6331.15
571.60	6537.12
571.76	6424.77
571.92	6494.99
572.09	6368.60
572.25	6459.88
572.41	6530.09
572.57	6534.78
572.74	6394.34
572.90	6558.18
573.06	6403.71
573.22	6516.05
573.38	6478.60
573.55	6473.92
573.71	6583.93
573.87	6513.71
574.03	6335.83
574.20	6455.20
574.36	6258.59
574.52	6471.58
574.68	6363.92
574.84	6434.13
575.01	6506.69
575.17	6476.26
575.33	6363.92
575.49	6293.70
575.65	6567.54
575.82	6525.41
575.98	6471.58
576.14	6338.17
576.30	6417.75
576.46	6586.27
576.62	6607.33
576.79	6733.72
576.95	6565.20
577.11	6452.86
577.27	6450.52
577.43	6427.11
577.59	6516.05
577.75	6516.05
577.92	6265.61
578.08	6700.95
578.24	6352.21
578.40	6497.33
578.56	6710.32
578.72	6612.01
578.88	6661.16
579.04	6745.42
579.21	6719.68
579.37	6345.19
579.53	6682.23
579.69	6663.51
579.85	6560.52
580.01	6509.03
580.17	6403.71
580.33	6471.58
580.49	6476.26
580.65	6455.20
580.82	6616.69
580.98	6370.94
581.14	6593.29
581.30	6558.18
581.46	6422.43
581.62	6621.38
581.78	6427.11
581.94	6593.29
582.10	6342.85
582.26	6555.84
582.42	6546.48
582.58	6782.87
582.74	6513.71
582.90	6633.08
583.06	6558.18
583.22	6593.29
583.38	6761.81
583.54	6478.60
583.70	6581.59
583.86	6429.45
584.02	6518.39
584.18	6576.91
584.34	6623.72
584.50	6766.49
584.66	6590.95
584.82	6523.07
584.98	6562.86
585.14	6628.40
585.30	6569.88
585.46	6562.86
585.62	6396.68
585.78	6775.85
585.94	6590.95
586.10	6464.56
586.26	6312.42
586.42	6612.01
586.58	6619.04
586.74	6588.61
586.90	6583.93
587.06	6581.59
587.22	6593.29
587.38	6649.46
587.54	6574.56
587.70	6450.52
587.86	6567.54
588.02	6635.42
588.18	6600.31
588.34	6504.35
588.49	6455.20
588.65	6445.84
588.81	6532.44
588.97	6523.07
589.13	6363.92
589.29	6450.52
589.45	6485.62
589.61	6476.26
589.77	6583.93
589.93	6452.86
590.08	6466.90
590.24	6565.20
590.40	6361.58
590.56	6560.52
590.72	6541.80
590.88	6494.99
591.04	6548.82
591.20	6476.26
591.35	6665.85
591.51	6651.80
591.67	6633.08
591.83	6574.56
591.99	6740.74
592.15	6626.06
592.31	6630.74
592.46	6532.44
592.62	6438.81
592.78	6485.62
592.94	6494.99
593.10	6328.81
593.26	6647.12
593.41	6511.37
593.57	6576.91
593.73	6579.25
593.89	6590.95
594.05	6417.75
594.20	6403.71
594.36	6576.91
594.52	6546.48
594.68	6373.28
594.84	6382.64
594.99	6462.22
595.15	6408.39
595.31	6588.61
595.47	6663.51
595.62	6487.96
595.78	6476.26
595.94	6710.32
596.10	6654.14
596.25	6590.95
596.41	6539.46
596.57	6401.37
596.73	6410.73
596.88	6548.82
597.04	6530.09
597.20	6558.18
597.36	6569.88
597.51	6462.22
597.67	6541.80
597.83	6459.88
597.99	6572.22
598.14	6604.99
598.30	6457.54
598.46	6422.43
598.61	6679.89
598.77	6462.22
598.93	6548.82
599.09	6473.92
599.24	6527.75
599.40	6553.50
599.56	6696.27
599.71	6537.12
599.87	6576.91
600.03	6553.50
600.18	6415.41
600.34	6506.69
600.50	6548.82
