SpectraSuite Data File
++++++++++++++++++++++++++++++++++++
Date: Fri Oct 04 11:39:38 GMT-05:00 2013
User: price-jones
Dark Spectrum Present: No
Reference Spectrum Present: No
Number of Sampled Component Spectra: 1
Spectrometers: USB2+H05261
Integration Time (usec): 100000 (USB2+H05261)
Spectra Averaged: 1 (USB2+H05261)
Boxcar Smoothing: 0 (USB2+H05261)
Correct for Electrical Dark: No (USB2+H05261)
Strobe/Lamp Enabled: No (USB2+H05261)
Correct for Detector Non-linearity: No (USB2+H05261)
Correct for Stray Light: No (USB2+H05261)
Number of Pixels in Processed Spectrum: 2048
>>>>>Begin Processed Spectral Data<<<<<
365.73	37.45
365.92	37.45
366.12	37.45
366.32	0.00
366.52	0.00
366.72	0.00
366.91	0.00
367.11	0.00
367.31	0.00
367.51	0.00
367.70	0.00
367.90	4.68
368.10	0.00
368.30	28.09
368.49	0.00
368.69	0.00
368.89	51.49
369.09	0.00
369.28	0.00
369.48	0.00
369.68	2.34
369.87	0.00
370.07	28.09
370.27	0.00
370.47	147.45
370.66	248.10
370.86	362.78
371.06	475.13
371.25	472.79
371.45	318.31
371.65	416.62
371.84	358.10
372.04	393.21
372.24	442.36
372.44	383.85
372.63	393.21
372.83	430.66
373.03	409.59
373.22	447.04
373.42	416.62
373.62	491.51
373.81	507.90
374.01	617.90
374.21	564.07
374.40	489.17
374.60	589.82
374.79	517.26
374.99	564.07
375.19	503.22
375.38	566.41
375.58	554.71
375.78	596.84
375.97	458.74
376.17	662.37
376.37	564.07
376.56	517.26
376.76	500.87
376.95	512.58
377.15	596.84
377.35	568.75
377.54	535.98
377.74	596.84
377.93	564.07
378.13	561.73
378.33	613.22
378.52	636.63
378.72	603.86
378.91	655.35
379.11	512.58
379.31	627.26
379.50	636.63
379.70	594.50
379.89	617.90
380.09	648.33
380.28	622.58
380.48	578.11
380.68	671.73
380.87	559.39
381.07	589.82
381.26	667.05
381.46	713.86
381.65	671.73
381.85	629.60
382.04	690.46
382.24	615.56
382.43	622.58
382.63	631.94
382.83	678.76
383.02	751.31
383.22	809.83
383.41	674.07
383.61	629.60
383.80	727.91
384.00	802.80
384.19	674.07
384.39	727.91
384.58	763.01
384.78	755.99
384.97	821.53
385.17	767.70
385.36	765.36
385.56	744.29
385.75	828.55
385.95	795.78
386.14	774.72
386.34	840.25
386.53	908.13
386.72	791.10
386.92	882.38
387.11	842.59
387.31	917.49
387.50	767.70
387.70	833.23
387.89	816.85
388.09	905.79
388.28	905.79
388.48	936.21
388.67	873.02
388.86	891.74
389.06	917.49
389.25	866.00
389.45	866.00
389.64	947.92
389.84	922.17
390.03	910.47
390.22	910.47
390.42	875.36
390.61	936.21
390.81	924.51
391.00	945.58
391.19	964.30
391.39	880.04
391.58	926.85
391.78	922.17
391.97	1015.79
392.16	997.07
392.36	1067.28
392.55	1104.73
392.75	1008.77
392.94	1057.92
393.13	1048.56
393.33	994.73
393.52	1116.44
393.71	1114.10
393.91	1083.67
394.10	1125.80
394.29	1088.35
394.49	1046.22
394.68	1156.22
394.88	1142.18
395.07	1252.19
395.26	1144.52
395.46	1125.80
395.65	1095.37
395.84	1165.59
396.04	1273.25
396.23	1240.48
396.42	1186.65
396.62	1242.82
396.81	1287.29
397.00	1235.80
397.19	1186.65
397.39	1280.27
397.58	1284.95
397.77	1261.55
397.97	1238.14
398.16	1249.85
398.35	1329.42
398.55	1252.19
398.74	1310.70
398.93	1313.04
399.12	1280.27
399.32	1348.15
399.51	1357.51
399.70	1437.09
399.90	1341.13
400.09	1385.60
400.28	1420.71
400.47	1383.26
400.67	1556.46
400.86	1490.92
401.05	1544.75
401.24	1444.11
401.44	1547.09
401.63	1490.92
401.82	1535.39
402.01	1519.01
402.21	1586.88
402.40	1572.84
402.59	1516.67
402.78	1600.93
402.97	1558.80
403.17	1699.23
403.36	1591.56
403.55	1603.27
403.74	1680.50
403.93	1785.83
404.13	1673.48
404.32	1652.42
404.51	1699.23
404.70	1743.70
404.89	1720.29
405.09	1755.40
405.28	1724.97
405.47	1699.23
405.66	1788.17
405.85	1799.87
406.05	1912.22
406.24	1907.54
406.43	1778.81
406.62	1842.00
406.81	1944.99
407.00	1830.30
407.20	1842.00
407.39	1921.58
407.58	1987.11
407.77	1952.01
407.96	1968.39
408.15	1975.41
408.34	1937.96
408.54	1975.41
408.73	2050.31
408.92	2038.61
409.11	2076.06
409.30	2176.70
409.49	2104.14
409.68	2289.04
409.87	2188.40
410.07	2221.17
410.26	2216.49
410.45	2235.21
410.64	2277.34
410.83	2326.49
411.02	2298.41
411.21	2307.77
411.40	2349.90
411.59	2450.54
411.78	2431.82
411.98	2459.90
412.17	2429.48
412.36	2476.29
412.55	2520.76
412.74	2579.27
412.93	2462.24
413.12	2509.05
413.31	2747.79
413.50	2567.57
413.69	2698.64
413.88	2736.09
414.07	2696.30
414.26	2698.64
414.45	2663.53
414.64	2771.19
414.83	2892.90
415.02	2820.35
415.22	2932.69
415.41	2932.69
415.60	2956.10
415.79	3068.44
415.98	3075.46
416.17	2918.65
416.36	3035.67
416.55	3084.83
416.74	2977.16
416.93	3194.83
417.12	3152.70
417.31	3208.87
417.50	3148.02
417.69	3248.66
417.88	3286.11
418.07	3332.92
418.26	3290.79
418.45	3314.20
418.64	3190.15
418.83	3421.86
419.02	3337.60
419.21	3555.27
419.39	3393.78
419.58	3501.44
419.77	3403.14
419.96	3463.99
420.15	3559.95
420.34	3562.30
420.53	3550.59
420.72	3777.62
420.91	3478.04
421.10	3742.52
421.29	3648.90
421.48	3552.93
421.67	3672.30
421.86	3630.17
422.05	3796.35
422.24	3676.98
422.43	3728.47
422.61	3712.09
422.80	3815.07
422.99	3815.07
423.18	3859.54
423.37	3908.69
423.56	3667.62
423.75	3786.99
423.94	3740.18
424.13	3513.14
424.32	3667.62
424.50	3854.86
424.69	3857.20
424.88	3967.21
425.07	3796.35
425.26	3772.94
425.45	3955.51
425.64	3822.09
425.83	3864.22
426.01	3922.74
426.20	3854.86
426.39	3976.57
426.58	3875.93
426.77	3941.46
426.96	4037.42
427.15	3943.80
427.33	4072.53
427.52	4102.96
427.71	4060.83
427.90	4021.04
428.09	4093.60
428.28	4156.79
428.46	4217.65
428.65	4159.13
428.84	4313.61
429.03	4456.38
429.22	4072.53
429.40	4201.26
429.59	4339.35
429.78	4035.08
429.97	4152.11
430.16	4107.64
430.34	4170.83
430.53	4430.63
430.72	4241.05
430.91	4208.28
431.10	4365.10
431.28	4449.36
431.47	4294.88
431.66	4397.87
431.85	4271.48
432.03	4531.28
432.22	4603.83
432.41	4468.08
432.60	4699.80
432.79	4559.36
432.97	4521.92
433.16	4664.69
433.35	4692.77
433.54	4718.52
433.72	4842.57
433.91	4706.82
434.10	4760.65
434.28	4793.42
434.47	4748.95
434.66	4601.49
434.85	4816.82
435.03	4933.85
435.22	5160.88
435.41	5390.25
435.59	5369.19
435.78	5181.95
435.97	5095.35
436.16	5018.11
436.34	4840.23
436.53	4891.72
436.72	5097.69
436.90	5071.94
437.09	5191.31
437.28	5018.11
437.46	5107.05
437.65	5217.05
437.84	5186.63
438.02	5174.92
438.21	5231.10
438.40	5043.85
438.58	5226.42
438.77	5366.85
438.96	5203.01
439.14	5462.81
439.33	5607.92
439.52	5565.79
439.70	5692.18
439.89	5652.39
440.08	5790.49
440.26	5722.61
440.45	5668.78
440.63	5762.40
440.82	5724.95
441.01	5823.25
441.19	5863.04
441.38	6026.88
441.57	6057.31
441.75	6012.84
441.94	6038.58
442.12	6071.35
442.31	6235.19
442.50	6237.53
442.68	6078.37
442.87	6136.88
443.05	6277.32
443.24	6239.87
443.43	6160.29
443.61	6291.36
443.80	6492.65
443.98	6333.49
444.17	6279.66
444.35	6345.19
444.54	6502.01
444.73	6363.92
444.91	6562.86
445.10	6462.22
445.28	6375.62
445.47	6384.98
445.65	6387.32
445.84	6382.64
446.02	6471.58
446.21	6497.33
446.39	6548.82
446.58	6450.52
446.77	6546.48
446.95	6455.20
447.14	6523.07
447.32	6670.53
447.51	6555.84
447.69	6619.04
447.88	6530.09
448.06	6464.56
448.25	6450.52
448.43	6717.34
448.62	6574.56
448.80	6588.61
448.99	6483.28
449.17	6752.45
449.36	6654.14
449.54	6857.77
449.73	6750.10
449.91	6815.64
450.10	6740.74
450.28	6939.69
450.46	6799.26
450.65	7082.46
450.83	7007.56
451.02	6993.52
451.20	7080.12
451.39	7040.33
451.57	6930.33
451.76	7021.61
451.94	6930.33
452.13	7169.06
452.31	7084.80
452.49	7028.63
452.68	7098.84
452.86	7089.48
453.05	7342.26
453.23	7492.05
453.42	7269.70
453.60	7143.32
453.78	7309.49
453.97	7190.13
454.15	7435.88
454.34	7140.97
454.52	7389.07
454.70	7286.09
454.89	7337.58
455.07	7267.36
455.26	7461.63
455.44	7550.57
455.62	7435.88
455.81	7489.71
455.99	7597.38
456.17	7695.68
456.36	7463.97
456.54	7662.91
456.73	7644.19
456.91	7941.44
457.09	7536.52
457.28	7999.95
457.46	7763.56
457.64	8035.06
457.83	8025.70
458.01	8006.97
458.19	8234.00
458.38	8114.64
458.56	8201.24
458.74	8081.87
458.93	8079.53
459.11	8081.87
459.29	8189.53
459.48	8191.88
459.66	8177.83
459.84	8454.02
460.03	8552.32
460.21	8416.57
460.39	8402.52
460.57	8421.25
460.76	8533.59
460.94	8650.62
461.12	8351.03
461.31	8358.05
461.49	8446.99
461.67	8449.33
461.85	8798.07
462.04	8835.52
462.22	8688.07
462.40	8634.24
462.59	8725.52
462.77	8669.34
462.95	8901.06
463.13	9001.70
463.32	8833.18
463.50	8826.16
463.68	9011.06
463.86	8816.80
464.05	8784.03
464.23	8947.87
464.41	9004.04
464.59	8762.97
464.78	9163.20
464.96	9006.38
465.14	8912.76
465.32	8985.32
465.50	8964.25
465.69	9441.72
465.87	9074.26
466.05	9156.18
466.23	9069.58
466.41	9132.77
466.60	9528.32
466.78	9104.68
466.96	9188.94
467.14	9212.35
467.32	9481.51
467.51	9535.34
467.69	9233.41
467.87	9385.55
468.05	9563.43
468.23	9371.50
468.41	9556.41
468.60	9425.34
468.78	9570.45
468.96	9420.66
469.14	9713.22
469.32	9874.72
469.50	9441.72
469.69	9916.85
469.87	10005.79
470.05	9804.50
470.23	9797.48
470.41	9816.21
470.59	9848.97
470.77	9804.50
470.95	10125.16
471.14	10214.10
471.32	9933.23
471.50	10092.39
471.68	10155.58
471.86	10342.83
472.04	10127.50
472.22	10497.30
472.40	10324.10
472.58	10361.55
472.77	10462.19
472.95	10623.69
473.13	10878.81
473.31	10464.54
473.49	10497.30
473.67	10773.49
473.85	10663.48
474.03	10721.99
474.21	10832.00
474.39	10909.24
474.57	11154.99
474.75	11159.67
474.93	11290.74
475.12	11206.48
475.30	11229.89
475.48	11201.80
475.66	11272.02
475.84	11283.72
476.02	11669.91
476.20	11712.04
476.38	11679.27
476.56	12009.29
476.74	12126.32
476.92	11798.64
477.10	11953.12
477.28	12231.64
477.46	11793.96
477.64	12030.35
477.82	12404.84
478.00	12718.47
478.18	12451.65
478.36	12514.84
478.54	12720.81
478.72	12985.29
478.90	12847.20
479.08	13282.54
479.26	12994.65
479.44	13245.09
479.62	13383.18
479.80	13263.82
479.98	13511.91
480.16	13687.45
480.34	13652.34
480.52	13680.43
480.70	13900.44
480.88	13619.58
481.06	14031.51
481.24	13963.64
481.41	14230.46
481.59	14417.70
481.77	14628.35
481.95	14361.53
482.13	14640.05
482.31	14511.32
482.49	14972.41
482.67	15026.24
482.85	15358.60
483.03	15683.93
483.21	15190.08
483.39	15688.61
483.57	15543.50
483.74	15632.44
483.92	15817.34
484.10	15831.38
484.28	16198.85
484.46	16547.59
484.64	16416.52
484.82	16240.98
485.00	16812.07
485.18	17128.04
485.35	17170.17
485.53	16931.44
485.71	17069.53
485.89	17657.00
486.07	17514.23
486.25	17617.21
486.43	17818.50
486.61	17617.21
486.78	17914.46
486.96	18097.02
487.14	18029.15
487.32	18340.44
487.50	18401.29
487.68	18347.46
487.85	18824.93
488.03	18895.14
488.21	19208.78
488.39	19119.84
488.57	19398.36
488.75	19316.44
488.92	19850.08
489.10	19791.57
489.28	20102.86
489.46	20154.35
489.64	20079.46
489.81	20498.41
489.99	20727.78
490.17	20868.22
490.35	20716.08
490.53	20893.96
490.70	20917.37
490.88	20863.54
491.06	21460.37
491.24	21228.66
491.41	21324.62
491.59	21745.92
491.77	21497.82
491.95	22104.02
492.13	22377.86
492.30	22167.21
492.48	22094.66
492.66	22040.82
492.84	22530.00
493.01	22663.41
493.19	22817.88
493.37	22836.61
493.54	23239.18
493.72	23225.14
493.90	23073.00
494.08	23538.77
494.25	23396.00
494.43	23812.61
494.61	23831.33
494.79	23920.28
494.96	23875.80
495.14	24203.48
495.32	24446.90
495.49	24271.36
495.67	24407.11
495.85	24891.60
496.02	24996.92
496.20	25010.96
496.38	25170.12
496.55	24973.52
496.73	25663.97
496.91	25558.65
497.09	25516.52
497.26	26235.06
497.44	25795.04
497.62	25617.16
497.79	25951.86
497.97	25968.24
498.14	26300.60
498.32	26766.37
498.50	26773.39
498.67	26843.60
498.85	26796.79
499.03	26888.07
499.20	27080.00
499.38	26808.50
499.56	27468.53
499.73	27328.10
499.91	27536.40
500.08	28037.28
500.26	27470.87
500.44	27758.75
500.61	27714.28
500.79	27861.74
500.97	28072.39
501.14	28559.22
501.32	28364.95
501.49	28037.28
501.67	28577.94
501.84	28655.18
502.02	28568.58
502.20	28561.56
502.37	29216.91
502.55	28786.25
502.72	29134.99
502.90	28697.31
503.07	28746.46
503.25	29244.99
503.43	29130.31
503.60	29579.69
503.78	29635.86
503.95	29472.03
504.13	29792.68
504.30	29729.48
504.48	29867.58
504.65	29977.58
504.83	30181.21
505.01	30595.48
505.18	30415.26
505.36	30712.51
505.53	30457.39
505.71	30431.65
505.88	30775.70
506.06	30845.92
506.23	30494.84
506.41	30691.44
506.58	31084.65
506.76	31257.85
506.93	30965.29
507.11	31101.04
507.28	31468.50
507.46	31407.65
507.63	31562.12
507.81	31754.05
507.98	31440.42
508.16	31630.00
508.33	31800.86
508.50	31754.05
508.68	32098.11
508.85	32215.13
509.03	32287.69
509.20	32325.14
509.38	32886.87
509.55	32687.92
509.73	32685.58
509.90	33043.68
510.08	33219.22
510.25	33034.32
510.42	33230.93
510.60	33017.94
510.77	33369.02
510.95	33317.53
511.12	33048.36
511.30	33364.34
511.47	33303.48
511.64	33474.34
511.82	34061.82
511.99	33790.31
512.17	34099.26
512.34	34213.95
512.51	34326.30
512.69	34345.02
512.86	34103.95
513.04	34106.29
513.21	34263.10
513.38	34829.51
513.56	34380.13
513.73	35033.14
513.90	34890.37
514.08	34824.83
514.25	34721.85
514.43	35199.32
514.60	35065.91
514.77	35002.71
514.95	35110.38
515.12	35030.80
515.29	35140.80
515.47	35456.78
515.64	35297.62
515.81	35351.45
515.99	35824.24
516.16	36018.50
516.33	35995.10
516.51	35791.47
516.68	35821.90
516.85	35854.67
517.03	36357.88
517.20	36634.06
517.37	36294.69
517.54	36442.14
517.72	36301.71
517.89	36392.99
518.06	36540.44
518.24	36907.91
518.41	36776.84
518.58	36587.25
518.75	36701.94
518.93	37013.23
519.10	37254.31
519.27	37256.65
519.45	37017.91
519.62	36971.10
519.79	37177.07
519.96	37017.91
520.14	37895.61
520.31	37123.24
520.48	37546.87
520.65	37654.54
520.83	38078.18
521.00	38106.26
521.17	37858.17
521.34	37385.38
521.52	37956.47
521.69	38258.40
521.86	38265.42
522.03	38122.65
522.20	38803.74
522.38	38565.01
522.55	38380.10
522.72	38396.49
522.89	38682.03
523.07	39173.55
523.24	39100.99
523.41	39124.40
523.58	38541.60
523.75	38899.70
523.92	38976.94
524.10	39044.82
524.27	39526.97
524.44	39716.55
524.61	39236.74
524.78	39529.31
524.96	39143.12
525.13	39515.26
525.30	39477.82
525.47	39482.50
525.64	39519.95
525.81	39702.51
525.98	40250.19
526.16	39777.40
526.33	39770.38
526.50	40055.93
526.67	39735.27
526.84	40062.95
527.01	40072.31
527.18	40385.94
527.36	40648.08
527.53	40711.28
527.70	40409.35
527.87	40589.57
528.04	40598.93
528.21	40559.14
528.38	40547.44
528.55	40877.46
528.72	41113.85
528.89	40973.42
529.07	41184.07
529.24	41062.36
529.41	41221.52
529.58	40933.63
529.75	41289.39
529.92	41481.31
530.09	40942.99
530.26	41495.36
530.43	41317.48
530.60	41132.57
530.77	41481.31
530.94	41734.09
531.11	41551.53
531.28	41467.27
531.46	41549.19
531.63	41635.79
531.80	41706.01
531.97	41883.89
532.14	41811.33
532.31	42204.54
532.48	42045.38
532.65	41755.16
532.82	41825.37
532.99	42328.59
533.16	41954.10
533.33	42176.45
533.50	42611.79
533.67	42618.81
533.84	42003.25
534.01	42469.02
534.18	41778.56
534.35	42902.02
534.52	42260.71
534.69	42995.64
534.86	43115.01
535.03	42937.13
535.20	42745.20
535.37	42775.63
535.54	42897.34
535.71	42714.78
535.88	43166.50
536.05	42761.59
536.22	43550.35
536.38	43332.68
536.55	43203.95
536.72	43430.98
536.89	43222.67
537.06	43639.29
537.23	43611.20
537.40	43669.72
537.57	43316.29
537.74	42969.90
537.91	43784.40
538.08	43770.36
538.25	43573.75
538.42	43973.98
538.59	44002.07
538.75	44060.58
538.92	44067.61
539.09	43597.16
539.26	44215.06
539.43	44135.48
539.60	44421.03
539.77	44741.68
539.94	44610.61
540.11	44364.85
540.28	44559.12
540.44	44437.41
540.61	44179.95
540.78	44339.11
540.95	44683.17
541.12	44746.36
541.29	44404.64
541.46	45076.38
541.62	44584.86
541.79	45146.59
541.96	44641.04
542.13	44484.22
542.30	44687.85
542.47	45151.27
542.63	45682.58
542.80	45535.12
542.97	45750.45
543.14	45579.59
543.31	45450.86
543.48	45703.64
543.64	45759.81
543.81	45911.95
543.98	46106.21
544.15	45780.88
544.32	45918.97
544.48	46363.67
544.65	45734.07
544.82	46040.68
544.99	45717.68
545.16	45804.28
545.32	46078.13
545.49	46546.23
545.66	46843.48
545.83	47002.64
546.00	47239.03
546.16	46476.02
546.33	46218.56
546.50	45778.54
546.67	46059.40
546.83	45673.21
547.00	45977.48
547.17	46066.42
547.34	46478.36
547.50	46206.86
547.67	46560.28
547.84	46036.00
548.00	46476.02
548.17	46473.68
548.34	46770.93
548.51	46880.93
548.67	46656.24
548.84	46731.14
549.01	46506.44
549.18	47105.62
549.34	46728.80
549.51	46443.25
549.68	46813.05
549.84	46478.36
550.01	47070.51
550.18	46693.69
550.34	47072.85
550.51	47098.60
550.68	47007.32
550.84	46466.66
551.01	46997.96
551.18	46614.11
551.34	46876.25
551.51	47061.15
551.68	47012.00
551.84	47105.62
552.01	46892.63
552.18	47243.71
552.34	46887.95
552.51	47227.33
552.68	47470.75
552.84	47131.37
553.01	47283.50
553.18	47154.77
553.34	47533.94
553.51	47533.94
553.67	47643.94
553.84	47763.31
554.01	47721.18
554.17	47496.49
554.34	47786.72
554.51	47311.59
554.67	47405.21
554.84	47679.05
555.00	47599.47
555.17	47950.56
555.33	47585.43
555.50	47845.23
555.67	47828.85
555.83	47337.33
556.00	47885.02
556.16	47737.57
556.33	47805.44
556.50	47510.53
556.66	47767.99
556.83	47569.05
556.99	48322.70
557.16	48205.67
557.32	48076.94
557.49	48030.13
557.65	48147.16
557.82	48034.81
557.98	47878.00
558.15	47917.79
558.32	48421.00
558.48	48062.90
558.65	48147.16
558.81	48243.12
558.98	47779.70
559.14	48250.14
559.31	47817.14
559.47	48411.64
559.64	47959.92
559.80	48369.51
559.97	48231.42
560.13	48217.38
560.30	48348.45
560.46	48065.24
560.63	48428.02
560.79	48341.42
560.96	48226.74
561.12	48325.04
561.29	48226.74
561.45	48411.64
561.61	48215.04
561.78	48816.55
561.94	48547.39
562.11	48610.59
562.27	48205.67
562.44	48697.19
562.60	48472.49
562.77	48470.15
562.93	48353.13
563.10	48409.30
563.26	48502.92
563.42	48910.17
563.59	48708.89
563.75	48680.80
563.92	48432.71
564.08	48341.42
564.24	48516.96
564.41	48477.18
564.57	48685.48
564.74	48582.50
564.90	48589.52
565.07	48755.70
565.23	48748.68
565.39	48917.20
565.56	49216.78
565.72	48364.83
565.88	49076.35
566.05	48566.12
566.21	48596.54
566.38	48664.42
566.54	48643.35
566.70	49088.06
566.87	48900.81
567.03	48671.44
567.19	49024.86
567.36	48734.63
567.52	48774.42
567.68	49013.16
567.85	48261.85
568.01	48982.73
568.17	48856.34
568.34	48729.95
568.50	49219.13
568.66	48603.56
568.83	48907.83
568.99	48765.06
569.15	48608.25
569.32	48633.99
569.48	48659.74
569.64	48575.48
569.81	48907.83
569.97	48617.61
570.13	49256.57
570.30	48961.67
570.46	48868.05
570.62	48891.45
570.78	49013.16
570.95	48657.40
571.11	48947.62
571.27	48685.48
571.43	48996.77
571.60	48811.87
571.76	49097.42
571.92	48851.66
572.09	49420.41
572.25	49373.60
572.41	48952.30
572.57	49148.91
572.74	48729.95
572.90	48893.79
573.06	49134.87
573.22	48933.58
573.38	49045.93
573.55	49457.86
573.71	49338.49
573.87	48982.73
574.03	48884.43
574.20	48903.15
574.36	48587.18
574.52	48980.39
574.68	48779.10
574.84	49207.42
575.01	48809.53
575.17	49291.68
575.33	48825.92
575.49	49146.57
575.65	49167.63
575.82	49144.23
575.98	49198.06
576.14	49074.01
576.30	48945.28
576.46	48760.38
576.62	48940.60
576.79	49532.76
576.95	49020.18
577.11	49013.16
577.27	48898.47
577.43	49324.45
577.59	49221.47
577.75	49104.44
577.92	48982.73
578.08	48863.36
578.24	48875.07
578.40	48624.63
578.56	49275.30
578.72	49099.76
578.88	49322.11
579.04	49277.64
579.21	49099.76
579.37	49251.89
579.53	49504.67
579.69	48919.54
579.85	48863.36
580.01	49193.38
580.17	48839.96
580.33	48811.87
580.49	49357.22
580.65	49167.63
580.82	49586.59
580.98	49165.29
581.14	49013.16
581.30	49357.22
581.46	49130.19
581.62	49209.76
581.78	48849.32
581.94	49036.56
582.10	49041.24
582.26	49448.50
582.42	49160.61
582.58	48992.09
582.74	48973.37
582.90	49095.08
583.06	49291.68
583.22	48687.82
583.38	48980.39
583.54	49162.95
583.70	49649.78
583.86	49279.98
584.02	49155.93
584.18	49715.32
584.34	49659.15
584.50	49076.35
584.66	49270.62
584.82	48900.81
584.98	49478.92
585.14	49118.48
585.30	49055.29
585.46	49020.18
585.62	49329.13
585.78	49509.35
585.94	49137.21
586.10	49462.54
586.26	49191.04
586.42	49301.04
586.58	49553.82
586.74	49186.36
586.90	49092.74
587.06	49212.10
587.22	49345.51
587.38	48811.87
587.54	49134.87
587.70	49542.12
587.86	49289.34
588.02	49291.68
588.18	49600.63
588.34	49389.98
588.49	49277.64
588.65	49008.48
588.81	49237.85
588.97	49485.95
589.13	49284.66
589.29	49076.35
589.45	49771.49
589.61	49130.19
589.77	49595.95
589.93	49951.71
590.08	49570.21
590.24	49441.48
