SpectraSuite Data File
++++++++++++++++++++++++++++++++++++
Date: Fri Oct 04 11:39:13 GMT-05:00 2013
User: price-jones
Dark Spectrum Present: No
Reference Spectrum Present: No
Number of Sampled Component Spectra: 1
Spectrometers: USB2+H05261
Integration Time (usec): 100000 (USB2+H05261)
Spectra Averaged: 1 (USB2+H05261)
Boxcar Smoothing: 0 (USB2+H05261)
Correct for Electrical Dark: No (USB2+H05261)
Strobe/Lamp Enabled: No (USB2+H05261)
Correct for Detector Non-linearity: No (USB2+H05261)
Correct for Stray Light: No (USB2+H05261)
Number of Pixels in Processed Spectrum: 2048
>>>>>Begin Processed Spectral Data<<<<<
365.73	0.00
365.92	0.00
366.12	0.00
366.32	18.72
366.52	0.00
366.72	0.00
366.91	0.00
367.11	0.00
367.31	0.00
367.51	0.00
367.70	0.00
367.90	0.00
368.10	0.00
368.30	0.00
368.49	0.00
368.69	0.00
368.89	0.00
369.09	0.00
369.28	0.00
369.48	0.00
369.68	28.09
369.87	0.00
370.07	67.88
370.27	0.00
370.47	81.92
370.66	138.09
370.86	159.16
371.06	152.13
371.25	182.56
371.45	142.77
371.65	215.33
371.84	173.20
372.04	184.90
372.24	182.56
372.44	227.03
372.63	269.16
372.83	243.42
373.03	262.14
373.22	234.05
373.42	210.65
373.62	297.25
373.81	234.05
374.01	278.52
374.21	238.73
374.40	229.37
374.60	280.86
374.79	308.95
374.99	306.61
375.19	248.10
375.38	322.99
375.58	238.73
375.78	203.63
375.97	297.25
376.17	290.23
376.37	205.97
376.56	292.57
376.76	241.08
376.95	271.50
377.15	297.25
377.35	318.31
377.54	203.63
377.74	238.73
377.93	283.20
378.13	245.76
378.33	304.27
378.52	290.23
378.72	318.31
378.91	337.04
379.11	217.67
379.31	231.71
379.50	271.50
379.70	243.42
379.89	205.97
380.09	257.46
380.28	231.71
380.48	379.17
380.68	252.78
380.87	313.63
381.07	231.71
381.26	362.78
381.46	304.27
381.65	332.36
381.85	280.86
382.04	262.14
382.24	231.71
382.43	287.89
382.63	341.72
382.83	418.96
383.02	227.03
383.22	285.55
383.41	341.72
383.61	297.25
383.80	264.48
384.00	266.82
384.19	322.99
384.39	339.38
384.58	313.63
384.78	294.91
384.97	325.33
385.17	402.57
385.36	353.42
385.56	360.44
385.75	299.59
385.95	327.68
386.14	341.72
386.34	367.46
386.53	416.62
386.72	269.16
386.92	301.93
387.11	334.70
387.31	280.86
387.50	330.02
387.70	344.06
387.89	393.21
388.09	334.70
388.28	402.57
388.48	362.78
388.67	400.23
388.86	421.30
389.06	325.33
389.25	395.55
389.45	341.72
389.64	318.31
389.84	325.33
390.03	409.59
390.22	299.59
390.42	433.00
390.61	339.38
390.81	393.21
391.00	362.78
391.19	367.46
391.39	358.10
391.58	393.21
391.78	365.12
391.97	454.06
392.16	409.59
392.36	425.98
392.55	486.83
392.75	451.72
392.94	433.00
393.13	444.70
393.33	362.78
393.52	313.63
393.71	362.78
393.91	442.36
394.10	421.30
394.29	395.55
394.49	463.43
394.68	482.15
394.88	465.77
395.07	440.02
395.26	433.00
395.46	454.06
395.65	404.91
395.84	543.00
396.04	484.49
396.23	397.89
396.42	500.87
396.62	430.66
396.81	374.49
397.00	507.90
397.19	528.96
397.39	491.51
397.58	470.45
397.77	571.09
397.97	463.43
398.16	528.96
398.35	554.71
398.55	550.03
398.74	491.51
398.93	610.88
399.12	524.28
399.32	442.36
399.51	535.98
399.70	564.07
399.90	587.47
400.09	594.50
400.28	540.66
400.47	566.41
400.67	608.54
400.86	582.79
401.05	594.50
401.24	645.99
401.44	568.75
401.63	636.63
401.82	613.22
402.01	592.16
402.21	585.13
402.40	585.13
402.59	615.56
402.78	678.76
402.97	596.84
403.17	636.63
403.36	617.90
403.55	636.63
403.74	676.41
403.93	690.46
404.13	763.01
404.32	718.54
404.51	648.33
404.70	753.65
404.89	685.78
405.09	716.20
405.28	667.05
405.47	741.95
405.66	713.86
405.85	800.46
406.05	692.80
406.24	753.65
406.43	744.29
406.62	739.61
406.81	828.55
407.00	814.51
407.20	741.95
407.39	734.93
407.58	653.01
407.77	844.93
407.96	844.93
408.15	734.93
408.34	767.70
408.54	856.64
408.73	800.46
408.92	873.02
409.11	903.45
409.30	866.00
409.49	894.08
409.68	877.70
409.87	880.04
410.07	760.67
410.26	823.87
410.45	868.34
410.64	915.15
410.83	823.87
411.02	828.55
411.21	938.55
411.40	919.83
411.59	968.98
411.78	983.02
411.98	922.17
412.17	870.68
412.36	940.90
412.55	1039.20
412.74	1001.75
412.93	999.41
413.12	1006.43
413.31	952.60
413.50	1015.79
413.69	1086.01
413.88	1046.22
414.07	1078.99
414.26	1100.05
414.45	1074.31
414.64	1196.01
414.83	1090.69
415.02	1088.35
415.22	1149.20
415.41	1128.14
415.60	1167.93
415.79	1167.93
415.98	1181.97
416.17	1139.84
416.36	1186.65
416.55	1275.59
416.74	1160.91
416.93	1235.80
417.12	1315.38
417.31	1217.08
417.50	1233.46
417.69	1289.64
417.88	1184.31
418.07	1315.38
418.26	1226.44
418.45	1336.45
418.64	1352.83
418.83	1404.32
419.02	1291.98
419.21	1294.32
419.39	1317.72
419.58	1352.83
419.77	1359.85
419.96	1369.21
420.15	1385.60
420.34	1437.09
420.53	1404.32
420.72	1432.41
420.91	1289.64
421.10	1502.62
421.29	1423.05
421.48	1437.09
421.67	1462.83
421.86	1406.66
422.05	1425.39
422.24	1444.11
422.43	1507.30
422.61	1479.22
422.80	1444.11
422.99	1453.47
423.18	1444.11
423.37	1493.26
423.56	1507.30
423.75	1495.60
423.94	1434.75
424.13	1455.81
424.32	1390.28
424.50	1530.71
424.69	1572.84
424.88	1476.88
425.07	1495.60
425.26	1465.18
425.45	1385.60
425.64	1476.88
425.83	1488.58
426.01	1504.96
426.20	1582.20
426.39	1516.67
426.58	1533.05
426.77	1521.35
426.96	1467.52
427.15	1551.78
427.33	1563.48
427.52	1558.80
427.71	1654.76
427.90	1572.84
428.09	1605.61
428.28	1584.54
428.46	1607.95
428.65	1696.89
428.84	1666.46
429.03	1739.02
429.22	1629.01
429.40	1640.72
429.59	1710.93
429.78	1584.54
429.97	1605.61
430.16	1659.44
430.34	1682.85
430.53	1657.10
430.72	1659.44
430.91	1717.95
431.10	1692.21
431.28	1668.80
431.47	1638.38
431.66	1790.51
431.85	1710.93
432.03	1827.96
432.22	1858.39
432.41	1694.55
432.60	1760.08
432.79	1771.79
432.97	1781.15
433.16	1778.81
433.35	1708.59
433.54	1844.34
433.72	1792.85
433.91	1804.55
434.10	1914.56
434.28	1785.83
434.47	1844.34
434.66	1844.34
434.85	1844.34
435.03	1870.09
435.22	2057.33
435.41	2324.15
435.59	2275.00
435.78	2146.27
435.97	2087.76
436.16	1930.94
436.34	2047.97
436.53	1989.46
436.72	1886.47
436.90	1891.15
437.09	2064.35
437.28	1989.46
437.46	2026.90
437.65	2026.90
437.84	1970.73
438.02	2078.40
438.21	2045.63
438.40	1998.82
438.58	2090.10
438.77	2104.14
438.96	2064.35
439.14	2190.74
439.33	2136.91
439.52	2136.91
439.70	2066.69
439.89	2186.06
440.08	2157.97
440.26	2291.38
440.45	2125.21
440.63	2239.89
440.82	2272.66
441.01	2258.62
441.19	2235.21
441.38	2207.13
441.57	2202.44
441.75	2321.81
441.94	2298.41
442.12	2368.62
442.31	2293.72
442.50	2431.82
442.68	2349.90
442.87	2420.11
443.05	2373.30
443.24	2420.11
443.43	2497.35
443.61	2457.56
443.80	2539.48
443.98	2448.20
444.17	2352.24
444.35	2502.03
444.54	2466.92
444.73	2541.82
444.91	2420.11
445.10	2459.90
445.28	2462.24
445.47	2368.62
445.65	2506.71
445.84	2609.70
446.02	2368.62
446.21	2377.98
446.39	2473.95
446.58	2448.20
446.77	2565.23
446.95	2516.08
447.14	2443.52
447.32	2555.86
447.51	2548.84
447.69	2492.67
447.88	2565.23
448.06	2576.93
448.25	2466.92
448.43	2637.78
448.62	2525.44
448.80	2509.05
448.99	2693.96
449.17	2469.27
449.36	2560.55
449.54	2628.42
449.73	2661.19
449.91	2551.18
450.10	2553.52
450.28	2705.66
450.46	2693.96
450.65	2700.98
450.83	2717.36
451.02	2647.15
451.20	2630.76
451.39	2712.68
451.57	2740.77
451.76	2679.91
451.94	2747.79
452.13	2815.66
452.31	2736.09
452.49	2693.96
452.68	2668.21
452.86	2750.13
453.05	2897.58
453.23	2818.00
453.42	2700.98
453.60	2843.75
453.78	2778.22
453.97	2918.65
454.15	2724.38
454.34	2703.32
454.52	2803.96
454.70	2892.90
454.89	2818.00
455.07	2839.07
455.26	2871.84
455.44	2963.12
455.62	2895.24
455.81	2883.54
455.99	3012.27
456.17	2878.86
456.36	2970.14
456.54	2972.48
456.73	2972.48
456.91	2991.20
457.09	2972.48
457.28	3070.78
457.46	3000.57
457.64	3119.93
457.83	2970.14
458.01	2977.16
458.19	3119.93
458.38	3103.55
458.56	3234.62
458.74	3124.62
458.93	3171.43
459.11	3208.87
459.29	3138.66
459.48	3126.96
459.66	3197.17
459.84	3232.28
460.03	3398.46
460.21	3293.13
460.39	3162.06
460.57	3199.51
460.76	3304.84
460.94	3391.44
461.12	3117.59
461.31	3363.35
461.49	3260.37
461.67	3262.71
461.85	3400.80
462.04	3307.18
462.22	3421.86
462.40	3501.44
462.59	3456.97
462.77	3304.84
462.95	3379.73
463.13	3454.63
463.32	3375.05
463.50	3281.43
463.68	3393.78
463.86	3431.23
464.05	3417.18
464.23	3417.18
464.41	3424.20
464.59	3478.04
464.78	3506.12
464.96	3396.12
465.14	3419.52
465.32	3487.40
465.50	3555.27
465.69	3461.65
465.87	3449.95
466.05	3517.83
466.23	3475.70
466.41	3609.11
466.60	3658.26
466.78	3478.04
466.96	3508.46
467.14	3641.87
467.32	3747.20
467.51	3641.87
467.69	3531.87
467.87	3564.64
468.05	3571.66
468.23	3463.99
468.41	3684.00
468.60	3545.91
468.78	3707.41
468.96	3566.98
469.14	3641.87
469.32	3564.64
469.50	3602.08
469.69	3754.22
469.87	3611.45
470.05	3777.62
470.23	3758.90
470.41	3749.54
470.59	3772.94
470.77	3705.07
470.95	3826.78
471.14	3941.46
471.32	3805.71
471.50	3943.80
471.68	3817.41
471.86	3915.72
472.04	3861.88
472.22	3918.06
472.40	4023.38
472.58	3995.29
472.77	4065.51
472.95	4067.85
473.13	4102.96
473.31	4133.39
473.49	4133.39
473.67	4016.36
473.85	4077.21
474.03	4166.15
474.21	4098.28
474.39	4212.96
474.57	4311.27
474.75	4236.37
474.93	4353.40
475.12	4011.68
475.30	4369.78
475.48	4294.88
475.66	4423.61
475.84	4528.94
476.02	4409.57
476.20	4388.50
476.38	4491.49
476.56	4741.93
476.74	4657.67
476.92	4510.21
477.10	4498.51
477.28	4657.67
477.46	4484.47
477.64	4798.10
477.82	4737.24
478.00	4880.02
478.18	4793.42
478.36	4779.37
478.54	4823.84
478.72	4809.80
478.90	4940.87
479.08	4952.57
479.26	5064.92
479.44	4877.68
479.62	4908.10
479.80	5041.51
479.98	4980.66
480.16	5123.43
480.34	5210.03
480.52	5294.29
480.70	5186.63
480.88	5338.76
481.06	5313.02
481.24	5394.93
481.41	5268.55
481.59	5439.40
481.77	5416.00
481.95	5523.66
482.13	5643.03
482.31	5636.01
482.49	5645.37
482.67	5734.31
482.85	5776.44
483.03	5785.80
483.21	5940.28
483.39	5708.57
483.57	5837.30
483.74	5844.32
483.92	6176.67
484.10	6059.65
484.28	6052.63
484.46	6303.06
484.64	6303.06
484.82	6218.80
485.00	6221.14
485.18	6375.62
485.35	6445.84
485.53	6410.73
485.71	6530.09
485.89	6654.14
486.07	6558.18
486.25	6689.25
486.43	6586.27
486.61	6464.56
486.78	6707.98
486.96	6832.02
487.14	6743.08
487.32	7030.97
487.50	6963.09
487.68	7047.35
487.85	7152.68
488.03	7302.47
488.21	7253.32
488.39	7183.10
488.57	7234.60
488.75	7311.83
488.92	7744.83
489.10	7470.99
489.28	7538.87
489.46	7499.08
489.64	7524.82
489.81	7534.18
489.99	7705.04
490.17	7599.72
490.35	7932.08
490.53	8016.33
490.70	7948.46
490.88	7838.45
491.06	8004.63
491.24	7967.18
491.41	7939.10
491.59	8177.83
491.77	8116.98
491.95	8292.52
492.13	8243.37
492.30	8266.77
492.48	8271.45
492.66	8332.31
492.84	8301.88
493.01	8519.55
493.19	8706.79
493.37	8669.34
493.54	8702.11
493.72	8748.92
493.90	8645.94
494.08	8772.33
494.25	8863.61
494.43	8835.52
494.61	8952.55
494.79	9238.09
494.96	8964.25
495.14	9107.02
495.32	9011.06
495.49	9186.60
495.67	9376.19
495.85	9254.48
496.02	9572.79
496.20	9390.23
496.38	9261.50
496.55	9341.08
496.73	9521.30
496.91	9572.79
497.09	9724.93
497.26	9603.22
497.44	9731.95
497.62	9467.47
497.79	9823.23
497.97	9781.10
498.14	9902.81
498.32	9980.04
498.50	9989.41
498.67	9994.09
498.85	10001.11
499.03	10111.11
499.20	10076.01
499.38	10251.55
499.56	9935.57
499.73	10197.71
499.91	10384.96
500.08	10202.40
500.26	10183.67
500.44	10235.16
500.61	10324.10
500.79	10583.90
500.97	10539.43
501.14	10693.91
501.32	10934.98
501.49	10497.30
501.67	10562.84
501.84	10658.80
502.02	10810.93
502.20	10832.00
502.37	10916.26
502.55	10630.71
502.72	10927.96
502.90	10909.24
503.07	10834.34
503.25	10977.11
503.43	11066.05
503.60	10993.50
503.78	10766.46
503.95	10979.45
504.13	11089.46
504.30	11192.44
504.48	11047.33
504.65	11220.53
504.83	11346.92
505.01	11353.94
505.18	11293.08
505.36	11435.86
505.53	11323.51
505.71	11475.65
505.88	11501.39
506.06	11435.86
506.23	11447.56
506.41	11447.56
506.58	11550.54
506.76	11452.24
506.93	11667.57
507.11	11562.25
507.28	11805.66
507.46	11716.72
507.63	11887.58
507.81	12028.01
507.98	11791.62
508.16	11953.12
508.33	11894.60
508.50	12091.21
508.68	12241.00
508.85	12201.21
509.03	11988.22
509.20	12283.13
509.38	12306.54
509.55	12128.66
509.73	12442.29
509.90	12358.03
510.08	12154.40
510.25	12182.49
510.42	12423.56
510.60	12437.61
510.77	12498.46
510.95	12709.11
511.12	12542.93
511.30	12587.40
511.47	12765.28
511.64	12809.75
511.82	12470.37
511.99	12762.94
512.17	12776.98
512.34	12706.77
512.51	12835.50
512.69	12746.56
512.86	12865.92
513.04	13242.75
513.21	12940.82
513.38	13130.41
513.56	13036.78
513.73	12891.67
513.90	12877.63
514.08	12938.48
514.25	13078.91
514.43	13341.05
514.60	13205.30
514.77	13537.66
514.95	13422.97
515.12	13289.56
515.29	13336.37
515.47	13467.44
515.64	13535.32
515.81	13495.53
515.99	13535.32
516.16	13668.73
516.33	13628.94
516.51	13530.64
516.68	13561.06
516.85	13542.34
517.03	13532.98
517.20	13598.51
517.37	13745.97
517.54	13848.95
517.72	13310.63
517.89	13769.37
518.06	14017.47
518.24	13755.33
518.41	13694.47
518.58	14078.32
518.75	13877.04
518.93	14038.53
519.10	13958.96
519.27	14005.77
519.45	14005.77
519.62	14054.92
519.79	13989.38
519.96	14221.10
520.14	14291.31
520.31	13886.40
520.48	14256.20
520.65	14232.80
520.83	14478.55
521.00	14162.58
521.17	14361.53
521.34	14321.74
521.52	14284.29
521.69	14504.30
521.86	14579.20
522.03	14490.26
522.20	14820.27
522.38	14780.48
522.55	14862.40
522.72	14455.15
522.89	14754.74
523.07	14984.11
523.24	14700.90
523.41	14778.14
523.58	14846.02
523.75	14846.02
523.92	14728.99
524.10	14871.76
524.27	14918.57
524.44	15040.28
524.61	14946.66
524.78	15234.55
524.96	15250.93
525.13	15061.35
525.30	15187.74
525.47	15274.34
525.64	15145.61
525.81	15129.22
525.98	15236.89
526.16	15077.73
526.33	15063.69
526.50	15351.57
526.67	15426.47
526.84	15328.17
527.01	15363.28
527.18	15625.42
527.36	15494.35
527.53	15494.35
527.70	15576.27
527.87	15688.61
528.04	15562.22
528.21	15377.32
528.38	15585.63
528.55	15618.39
528.72	15730.74
528.89	15719.04
529.07	15700.31
529.24	15688.61
529.41	15981.18
529.58	15569.24
529.75	15723.72
529.92	15831.38
530.09	15791.59
530.26	15765.85
530.43	15611.37
530.60	15819.68
530.77	15953.09
530.94	15948.41
531.11	15941.39
531.28	15735.42
531.46	16170.76
531.63	15967.13
531.80	15695.63
531.97	16292.47
532.14	16208.21
532.31	15885.22
532.48	16191.83
532.65	16248.00
532.82	15957.77
532.99	16233.96
533.16	16276.09
533.33	16175.44
533.50	16322.90
533.67	16271.40
533.84	16290.13
534.01	16269.06
534.18	16051.39
534.35	16472.69
534.52	16407.16
534.69	16535.88
534.86	16390.77
535.03	16449.28
535.20	16421.20
535.37	16505.46
535.54	16631.85
535.71	16166.08
535.88	16732.49
536.05	16556.95
536.22	16812.07
536.38	16596.74
536.55	16788.66
536.72	16549.93
536.89	16879.94
537.06	16884.62
537.23	16781.64
537.40	16610.78
537.57	16456.31
537.74	17008.67
537.91	17015.69
538.08	16870.58
538.25	16915.05
538.42	17048.46
538.59	17095.27
538.75	16835.47
538.92	17043.78
539.09	17088.25
539.26	16994.63
539.43	17062.51
539.60	17003.99
539.77	17305.92
539.94	17420.61
540.11	17092.93
540.28	17132.72
540.44	17570.40
540.61	17057.82
540.78	17060.16
540.95	17366.78
541.12	17994.04
541.29	17207.62
541.46	17558.70
541.62	17334.01
541.79	17680.41
541.96	17422.95
542.13	17429.97
542.30	17869.99
542.47	17668.70
542.63	17525.93
542.80	17956.59
542.97	17855.95
543.14	18003.40
543.31	17626.57
543.48	17647.64
543.64	18047.87
543.81	17984.68
543.98	17823.18
544.15	17869.99
544.32	17799.77
544.48	18462.15
544.65	17848.93
544.82	17877.01
544.99	18150.85
545.16	18045.53
545.32	17884.03
545.49	18319.37
545.66	18714.92
545.83	18759.39
546.00	18672.79
546.16	18326.39
546.33	18281.92
546.50	17912.12
546.67	18230.43
546.83	18132.13
547.00	18195.32
547.17	18305.33
547.34	17886.37
547.50	18012.76
547.67	18073.62
547.84	18501.93
548.00	18228.09
548.17	18195.32
548.34	18099.36
548.51	18567.47
548.67	18452.78
548.84	18551.09
549.01	18473.85
549.18	18038.51
549.34	18176.60
549.51	18246.82
549.68	17877.01
549.84	18284.26
550.01	18494.91
550.18	18270.22
550.34	18270.22
550.51	18164.90
550.68	18492.57
550.84	18515.98
551.01	18544.06
551.18	18249.16
551.34	18391.93
551.51	18558.11
551.68	18644.71
551.84	18654.07
552.01	18455.12
552.18	18665.77
552.34	18228.09
552.51	18663.43
552.68	18225.75
552.84	18438.74
553.01	18728.97
553.18	18553.43
553.34	18700.88
553.51	18546.40
553.67	18590.88
553.84	18731.31
554.01	18810.89
554.17	18253.84
554.34	18661.09
554.51	18675.13
554.67	18696.20
554.84	18614.28
555.00	18827.27
555.17	18806.20
555.33	18782.80
555.50	18534.70
555.67	18743.01
555.83	18478.53
556.00	18878.76
556.16	18836.63
556.33	18574.49
556.50	18750.03
556.66	18881.10
556.83	18930.25
556.99	18764.07
557.16	19119.84
557.32	19044.94
557.49	18829.61
557.65	18916.21
557.82	18956.00
557.98	18548.75
558.15	18703.22
558.32	19222.82
558.48	19002.81
558.65	18836.63
558.81	18822.59
558.98	18878.76
559.14	19047.28
559.31	18948.98
559.47	19220.48
559.64	19112.81
559.80	19087.07
559.97	19002.81
560.13	18909.19
560.30	19136.22
560.46	19035.58
560.63	18939.62
560.79	19365.59
560.96	18979.40
561.12	18979.40
561.29	19166.65
561.45	19051.96
561.61	19241.54
561.78	19159.63
561.94	19089.41
562.11	19236.86
562.27	19316.44
562.44	19082.39
562.60	19215.80
562.77	19204.10
562.93	18874.08
563.10	19133.88
563.26	19286.01
563.42	19269.63
563.59	19211.12
563.75	19246.23
563.92	19192.39
564.08	19150.26
564.24	19225.16
564.41	19421.77
564.57	19307.08
564.74	19239.20
564.90	19260.27
565.07	19363.25
565.23	19339.85
565.39	19152.60
565.56	19559.86
565.72	19349.21
565.88	19110.47
566.05	19211.12
566.21	19187.71
566.38	19206.44
566.54	19094.09
566.70	19236.86
566.87	19655.82
567.03	19403.04
567.19	19681.56
567.36	19194.73
567.52	19274.31
567.68	19211.12
567.85	19248.57
568.01	19515.39
568.17	19276.65
568.34	19775.19
568.50	19419.42
568.66	19515.39
568.83	19501.34
568.99	19644.12
569.15	19431.13
569.32	19190.05
569.48	19398.36
569.64	19463.90
569.81	19407.72
569.97	19541.13
570.13	19274.31
570.30	19335.17
570.46	19541.13
570.62	19344.53
570.78	19456.87
570.95	19339.85
571.11	19585.60
571.27	19421.77
571.43	19325.80
571.60	19559.86
571.76	19290.70
571.92	19307.08
572.09	19225.16
572.25	19396.02
572.41	19330.48
572.57	19520.07
572.74	19784.55
572.90	19410.06
573.06	19604.33
573.22	19606.67
573.38	19763.48
573.55	19604.33
573.71	19887.53
573.87	19651.14
574.03	19396.02
574.20	19396.02
574.36	19501.34
574.52	19901.58
574.68	19484.96
574.84	19590.28
575.01	19695.61
575.17	19992.86
575.33	19693.27
575.49	19405.38
575.65	19536.45
575.82	19948.39
575.98	19756.46
576.14	19812.63
576.30	19332.82
576.46	19826.68
576.62	19641.78
576.79	19398.36
576.95	19676.88
577.11	19690.93
577.27	19714.33
577.43	19946.05
577.59	19882.85
577.75	19480.28
577.92	19632.41
578.08	19398.36
578.24	19742.42
578.40	19798.59
578.56	19711.99
578.72	20100.52
578.88	20023.28
579.04	19456.87
579.21	19716.67
579.37	19735.40
579.53	19704.97
579.69	19831.36
579.85	19475.60
580.01	19995.20
580.17	19288.35
580.33	19936.68
580.49	19789.23
580.65	20025.62
580.82	20060.73
580.98	19569.22
581.14	19761.14
581.30	20018.60
581.46	19442.83
581.62	19934.34
581.78	19726.04
581.94	19747.10
582.10	19578.58
582.26	19714.33
582.42	19948.39
582.58	19594.96
582.74	19709.65
582.90	19913.28
583.06	19946.05
583.22	19711.99
583.38	19880.51
583.54	19915.62
583.70	19737.74
583.86	19786.89
584.02	19985.83
584.18	20123.93
584.34	19929.66
584.50	19817.32
584.66	19796.25
584.82	19597.31
584.98	19936.68
585.14	19541.13
585.30	19826.68
585.46	20002.22
585.62	19836.04
585.78	19946.05
585.94	19782.21
586.10	19751.78
586.26	19871.15
586.42	19758.80
586.58	20074.77
586.74	19751.78
586.90	19868.81
587.06	19709.65
587.22	20271.38
587.38	19889.87
587.54	19983.49
587.70	19976.47
587.86	19683.91
588.02	19637.09
588.18	19974.13
588.34	19868.81
588.49	19653.48
588.65	19817.32
588.81	19559.86
588.97	19850.08
589.13	19969.45
589.29	19777.53
589.45	20112.22
589.61	20025.62
589.77	19885.19
589.93	20166.06
590.08	19978.81
590.24	19819.66
590.40	19829.02
590.56	19953.07
590.72	19934.34
590.88	19566.88
591.04	19805.61
591.20	19943.70
591.35	20102.86
591.51	20315.85
591.67	20205.84
591.83	19946.05
591.99	20105.20
592.15	20411.81
592.31	20016.26
592.46	19967.11
592.62	20065.41
592.78	20032.65
