SpectraSuite Data File
++++++++++++++++++++++++++++++++++++
Date: Fri Oct 04 11:40:07 GMT-05:00 2013
User: price-jones
Dark Spectrum Present: No
Reference Spectrum Present: No
Number of Sampled Component Spectra: 1
Spectrometers: USB2+H05261
Integration Time (usec): 100000 (USB2+H05261)
Spectra Averaged: 1 (USB2+H05261)
Boxcar Smoothing: 0 (USB2+H05261)
Correct for Electrical Dark: No (USB2+H05261)
Strobe/Lamp Enabled: No (USB2+H05261)
Correct for Detector Non-linearity: No (USB2+H05261)
Correct for Stray Light: No (USB2+H05261)
Number of Pixels in Processed Spectrum: 2048
>>>>>Begin Processed Spectral Data<<<<<
365.73	18.72
365.92	18.72
366.12	18.72
366.32	0.00
366.52	0.00
366.72	0.00
366.91	0.00
367.11	11.70
367.31	0.00
367.51	0.00
367.70	0.00
367.90	0.00
368.10	0.00
368.30	0.00
368.49	0.00
368.69	0.00
368.89	0.00
369.09	18.72
369.28	0.00
369.48	0.00
369.68	0.00
369.87	0.00
370.07	16.38
370.27	42.13
370.47	124.05
370.66	372.15
370.86	430.66
371.06	449.38
371.25	524.28
371.45	444.70
371.65	465.77
371.84	482.15
372.04	449.38
372.24	517.26
372.44	451.72
372.63	482.15
372.83	554.71
373.03	496.19
373.22	409.59
373.42	500.87
373.62	505.56
373.81	552.37
374.01	547.69
374.21	484.49
374.40	484.49
374.60	550.03
374.79	533.64
374.99	566.41
375.19	599.18
375.38	657.69
375.58	615.56
375.78	545.34
375.97	620.24
376.17	629.60
376.37	650.67
376.56	660.03
376.76	648.33
376.95	634.29
377.15	716.20
377.35	737.27
377.54	690.46
377.74	819.19
377.93	737.27
378.13	653.01
378.33	685.78
378.52	667.05
378.72	603.86
378.91	674.07
379.11	540.66
379.31	608.54
379.50	634.29
379.70	648.33
379.89	688.12
380.09	685.78
380.28	709.18
380.48	807.48
380.68	760.67
380.87	732.59
381.07	704.50
381.26	657.69
381.46	650.67
381.65	552.37
381.85	587.47
382.04	528.96
382.24	552.37
382.43	566.41
382.63	498.53
382.83	547.69
383.02	543.00
383.22	503.22
383.41	526.62
383.61	496.19
383.80	596.84
384.00	601.52
384.19	667.05
384.39	671.73
384.58	657.69
384.78	716.20
384.97	643.65
385.17	662.37
385.36	699.82
385.56	711.52
385.75	582.79
385.95	758.33
386.14	819.19
386.34	814.51
386.53	699.82
386.72	688.12
386.92	676.41
387.11	711.52
387.31	793.44
387.50	660.03
387.70	657.69
387.89	704.50
388.09	704.50
388.28	725.57
388.48	753.65
388.67	791.10
388.86	784.08
389.06	873.02
389.25	978.34
389.45	917.49
389.64	976.00
389.84	936.21
390.03	945.58
390.22	971.32
390.42	894.08
390.61	952.60
390.81	985.37
391.00	1053.24
391.19	1088.35
391.39	1008.77
391.58	1025.15
391.78	957.28
391.97	936.21
392.16	847.27
392.36	798.12
392.55	751.31
392.75	585.13
392.94	514.92
393.13	557.05
393.33	493.85
393.52	634.29
393.71	755.99
393.91	760.67
394.10	840.25
394.29	990.05
394.49	990.05
394.68	1027.50
394.88	1095.37
395.07	1123.46
395.26	1074.31
395.46	1060.26
395.65	1146.86
395.84	950.26
396.04	802.80
396.23	638.97
396.42	603.86
396.62	615.56
396.81	645.99
397.00	882.38
397.19	1025.15
397.39	1093.03
397.58	1203.04
397.77	1200.69
397.97	1446.45
398.16	1299.00
398.35	1345.81
398.55	1355.17
398.74	1383.26
398.93	1514.33
399.12	1441.77
399.32	1474.54
399.51	1469.86
399.70	1495.60
399.90	1451.13
400.09	1572.84
400.28	1591.56
400.47	1577.52
400.67	1565.82
400.86	1624.33
401.05	1626.67
401.24	1584.54
401.44	1610.29
401.63	1598.59
401.82	1636.03
402.01	1589.22
402.21	1743.70
402.40	1675.82
402.59	1689.87
402.78	1661.78
402.97	1619.65
403.17	1607.95
403.36	1640.72
403.55	1612.63
403.74	1783.49
403.93	1739.02
404.13	1673.48
404.32	1629.01
404.51	1645.40
404.70	1713.27
404.89	1675.82
405.09	1727.32
405.28	1643.06
405.47	1643.06
405.66	1577.52
405.85	1577.52
406.05	1629.01
406.24	1537.73
406.43	1600.93
406.62	1762.42
406.81	1739.02
407.00	1633.69
407.20	1533.05
407.39	1652.42
407.58	1710.93
407.77	1809.23
407.96	1743.70
408.15	1734.34
408.34	1776.47
408.54	1863.07
408.73	1975.41
408.92	1867.75
409.11	1865.41
409.30	1760.08
409.49	1689.87
409.68	1586.88
409.87	1511.99
410.07	1633.69
410.26	1743.70
410.45	1795.19
410.64	1750.72
410.83	1870.09
411.02	1905.20
411.21	1963.71
411.40	1959.03
411.59	2047.97
411.78	2036.27
411.98	1989.46
412.17	2043.29
412.36	1956.69
412.55	1879.45
412.74	1935.62
412.93	1968.39
413.12	1891.15
413.31	2099.46
413.50	2136.91
413.69	2062.01
413.88	2125.21
414.07	1942.64
414.26	2090.10
414.45	2047.97
414.64	2059.67
414.83	2157.97
415.02	2050.31
415.22	1973.07
415.41	2085.42
415.60	2106.48
415.79	2256.28
415.98	2249.25
416.17	2289.04
416.36	2298.41
416.55	2139.25
416.74	2183.72
416.93	2108.82
417.12	2012.86
417.31	2143.93
417.50	2099.46
417.69	2272.66
417.88	2169.68
418.07	2040.95
418.26	2134.57
418.45	2078.40
418.64	2242.23
418.83	2246.91
419.02	2221.17
419.21	2214.15
419.39	2160.31
419.58	2066.69
419.77	2024.56
419.96	2146.27
420.15	2251.60
420.34	2246.91
420.53	2443.52
420.72	2459.90
420.91	2471.61
421.10	2298.41
421.29	2363.94
421.48	2298.41
421.67	2300.75
421.86	2263.30
422.05	2235.21
422.24	2022.22
422.43	1966.05
422.61	2155.63
422.80	2296.07
422.99	2352.24
423.18	2141.59
423.37	2277.34
423.56	2183.72
423.75	2230.53
423.94	2181.38
424.13	2073.71
424.32	2209.47
424.50	2216.49
424.69	2251.60
424.88	2216.49
425.07	2176.70
425.26	2221.17
425.45	2104.14
425.64	2085.42
425.83	1959.03
426.01	2249.25
426.20	2202.44
426.39	2223.51
426.58	2015.20
426.77	2019.88
426.96	1891.15
427.15	1987.11
427.33	2118.18
427.52	2146.27
427.71	2111.16
427.90	2132.23
428.09	2010.52
428.28	2019.88
428.46	2017.54
428.65	2005.84
428.84	2026.90
429.03	2125.21
429.22	1963.71
429.40	1774.13
429.59	1760.08
429.78	1558.80
429.97	1488.58
430.16	1643.06
430.34	1563.48
430.53	1598.59
430.72	1570.50
430.91	1720.29
431.10	1963.71
431.28	2244.57
431.47	2539.48
431.66	2513.74
431.85	2450.54
432.03	2207.13
432.22	2101.80
432.41	2047.97
432.60	2359.26
432.79	2560.55
432.97	2520.76
433.16	2450.54
433.35	2284.36
433.54	2083.08
433.72	2031.58
433.91	2008.18
434.10	2186.06
434.28	2392.03
434.47	2452.88
434.66	2546.50
434.85	2373.30
435.03	2459.90
435.22	2473.95
435.41	2794.60
435.59	2689.28
435.78	2595.65
435.97	2710.34
436.16	2663.53
436.34	2637.78
436.53	2623.74
436.72	2495.01
436.90	2399.05
437.09	2403.73
437.28	2455.22
437.46	2394.37
437.65	2597.99
437.84	2349.90
438.02	2230.53
438.21	2218.83
438.40	2200.10
438.58	2410.75
438.77	2478.63
438.96	2480.97
439.14	2480.97
439.33	2649.49
439.52	2715.02
439.70	2644.81
439.89	2523.10
440.08	2476.29
440.26	2394.37
440.45	2576.93
440.63	2719.70
440.82	2892.90
441.01	2904.60
441.19	2780.56
441.38	2778.22
441.57	2906.95
441.75	3056.74
441.94	2979.50
442.12	2979.50
442.31	3091.85
442.50	2906.95
442.68	2848.43
442.87	2848.43
443.05	2937.37
443.24	2958.44
443.43	3021.63
443.61	3054.40
443.80	3040.36
443.98	2867.16
444.17	2874.18
444.35	3045.04
444.54	3061.42
444.73	2965.46
444.91	3026.31
445.10	2799.28
445.28	2764.17
445.47	2696.30
445.65	2733.75
445.84	2827.37
446.02	2825.03
446.21	2920.99
446.39	2949.08
446.58	2801.62
446.77	3012.27
446.95	3028.65
447.14	3105.89
447.32	3190.15
447.51	3021.63
447.69	2986.52
447.88	2906.95
448.06	2949.08
448.25	3119.93
448.43	2986.52
448.62	2951.42
448.80	3028.65
448.99	3009.93
449.17	2993.55
449.36	3014.61
449.54	3028.65
449.73	3262.71
449.91	3229.94
450.10	3225.26
450.28	3438.25
450.46	3463.99
450.65	3332.92
450.83	3243.98
451.02	3157.38
451.20	3283.77
451.39	3295.47
451.57	3255.69
451.76	3197.17
451.94	3206.53
452.13	3166.74
452.31	3059.08
452.49	2895.24
452.68	2930.35
452.86	2935.03
453.05	3023.97
453.23	2970.14
453.42	3038.02
453.60	3206.53
453.78	3133.98
453.97	3047.38
454.15	3141.00
454.34	3098.87
454.52	3038.02
454.70	3005.25
454.89	3075.46
455.07	2937.37
455.26	3070.78
455.44	3169.09
455.62	3300.16
455.81	3269.73
455.99	3255.69
456.17	3243.98
456.36	3311.86
456.54	3379.73
456.73	3389.10
456.91	3428.88
457.09	3428.88
457.28	3478.04
457.46	3307.18
457.64	3342.28
457.83	3311.86
458.01	3150.36
458.19	3255.69
458.38	3112.91
458.56	3449.95
458.74	3314.20
458.93	3342.28
459.11	3272.07
459.29	3269.73
459.48	3227.60
459.66	3208.87
459.84	3300.16
460.03	3433.57
460.21	3251.00
460.39	3419.52
460.57	3440.59
460.76	3524.85
460.94	3548.25
461.12	3566.98
461.31	3478.04
461.49	3435.91
461.67	3461.65
461.85	3510.80
462.04	3417.18
462.22	4074.87
462.40	3531.87
462.59	3433.57
462.77	3344.63
462.95	3515.48
463.13	3407.82
463.32	3583.36
463.50	3449.95
463.68	3384.41
463.86	3459.31
464.05	3286.11
464.23	3318.88
464.41	3391.44
464.59	3297.81
464.78	3489.74
464.96	3361.01
465.14	3255.69
465.32	3379.73
465.50	3454.63
465.69	3583.36
465.87	3386.76
466.05	3361.01
466.23	3101.21
466.41	3173.77
466.60	3227.60
466.78	3199.51
466.96	3255.69
467.14	3246.32
467.32	3295.47
467.51	3449.95
467.69	3227.60
467.87	3433.57
468.05	3332.92
468.23	3361.01
468.41	3407.82
468.60	3447.61
468.78	3454.63
468.96	3300.16
469.14	3442.93
469.32	3384.41
469.50	3349.31
469.69	3393.78
469.87	3307.18
470.05	3166.74
470.23	3267.39
470.41	3145.68
470.59	3236.96
470.77	3286.11
470.95	3356.33
471.14	3382.07
471.32	3487.40
471.50	3576.34
471.68	3494.42
471.86	3838.48
472.04	3651.24
472.22	3784.65
472.40	3428.88
472.58	3485.06
472.77	3468.67
472.95	3646.55
473.13	3552.93
473.31	3576.34
473.49	3424.20
473.67	3379.73
473.85	3595.06
474.03	3824.44
474.21	3786.99
474.39	3709.75
474.57	3751.88
474.75	3810.39
474.93	3756.56
475.12	3700.39
475.30	3676.98
475.48	3613.79
475.66	3819.75
475.84	3616.13
476.02	3599.74
476.20	3503.78
476.38	3653.58
476.56	3824.44
476.74	3801.03
476.92	3756.56
477.10	3791.67
477.28	4014.02
477.46	4021.04
477.64	4105.30
477.82	4018.70
478.00	4028.06
478.18	3946.14
478.36	4072.53
478.54	3946.14
478.72	4023.38
478.90	3955.51
479.08	4210.62
479.26	4290.20
479.44	4306.59
479.62	4308.93
479.80	4212.96
479.98	4121.68
480.16	4173.18
480.34	4449.36
480.52	4294.88
480.70	4397.87
480.88	4266.80
481.06	4365.10
481.24	4449.36
481.41	4423.61
481.59	4669.37
481.77	4435.32
481.95	4594.47
482.13	4479.79
482.31	4423.61
482.49	4643.62
482.67	4512.55
482.85	4652.98
483.03	4770.01
483.21	4718.52
483.39	4688.09
483.57	4568.73
483.74	4540.64
483.92	4643.62
484.10	4580.43
484.28	4777.03
484.46	4856.61
484.64	4784.06
484.82	4765.33
485.00	4777.03
485.18	4542.98
485.35	4475.10
485.53	4126.36
485.71	3901.67
485.89	3770.60
486.07	3913.38
486.25	4311.27
486.43	4360.42
486.61	4468.08
486.78	4681.07
486.96	4664.69
487.14	4681.07
487.32	4805.12
487.50	4964.28
487.68	4980.66
487.85	5181.95
488.03	5093.01
488.21	5193.65
488.39	5064.92
488.57	4954.91
488.75	4842.57
488.92	5160.88
489.10	5252.16
489.28	5348.12
489.46	5645.37
489.64	5593.88
489.81	5755.38
489.99	5619.63
490.17	5647.71
490.35	5650.05
490.53	5636.01
490.70	5568.13
490.88	5570.48
491.06	5738.99
491.24	5748.36
491.41	5753.04
491.59	5298.97
491.77	5050.88
491.95	5345.78
492.13	5425.36
492.30	5586.86
492.48	5860.70
492.66	5928.58
492.84	5900.49
493.01	5966.03
493.19	5823.25
493.37	5774.10
493.54	5750.70
493.72	5874.74
493.90	6059.65
494.08	6164.97
494.25	6392.00
494.43	6211.78
494.61	6277.32
494.79	6319.45
494.96	6286.68
495.14	6267.95
495.32	6012.84
495.49	5867.72
495.67	6069.01
495.85	6420.09
496.02	6335.83
496.20	6293.70
496.38	6384.98
496.55	6342.85
496.73	6551.16
496.91	6413.07
497.09	6731.38
497.26	6782.87
497.44	6546.48
497.62	6347.53
497.79	6260.93
497.97	6092.41
498.14	6069.01
498.32	6251.57
498.50	6434.13
498.67	6424.77
498.85	6525.41
499.03	6457.54
499.20	6583.93
499.38	6712.66
499.56	6609.67
499.73	6623.72
499.91	6345.19
500.08	6333.49
500.26	6066.67
500.44	6155.61
500.61	6265.61
500.79	6354.55
500.97	6129.86
501.14	6113.48
501.32	6186.04
501.49	6113.48
501.67	6319.45
501.84	6333.49
502.02	6223.48
502.20	6403.71
502.37	6349.87
502.55	6326.47
502.72	6523.07
502.90	6712.66
503.07	6562.86
503.25	6265.61
503.43	6047.94
503.60	5933.26
503.78	5879.43
503.95	5806.87
504.13	6253.91
504.30	6509.03
504.48	6502.01
504.65	6436.47
504.83	6558.18
505.01	6553.50
505.18	6672.87
505.36	6792.23
505.53	6766.49
505.71	6787.55
505.88	7119.91
506.06	6911.60
506.23	6745.42
506.41	6574.56
506.58	6651.80
506.76	6520.73
506.93	6427.11
507.11	6541.80
507.28	6464.56
507.46	6609.67
507.63	6394.34
507.81	6328.81
507.98	6373.28
508.16	6511.37
508.33	6612.01
508.50	6827.34
508.68	7007.56
508.85	7143.32
509.03	7059.06
509.20	6846.07
509.38	6775.85
509.55	6665.85
509.73	6717.34
509.90	6946.71
510.08	6722.02
510.25	6874.15
510.42	6738.40
510.60	6633.08
510.77	6897.56
510.95	7122.25
511.12	7115.23
511.30	7105.87
511.47	7258.00
511.64	7148.00
511.82	7080.12
511.99	6862.45
512.17	6808.62
512.34	6745.42
512.51	6628.40
512.69	6707.98
512.86	6799.26
513.04	6974.80
513.21	7194.81
513.38	6857.77
513.56	6635.42
513.73	6579.25
513.90	6696.27
514.08	6700.95
514.25	6619.04
514.43	6773.51
514.60	6789.89
514.77	6815.64
514.95	7054.37
515.12	6668.19
515.29	6750.10
515.47	6988.84
515.64	7054.37
515.81	7012.24
515.99	6740.74
516.16	6581.59
516.33	6061.99
516.51	5760.06
516.68	5776.44
516.85	5673.46
517.03	5432.38
517.20	5867.72
517.37	6565.20
517.54	6722.02
517.72	6686.91
517.89	6190.72
518.06	5846.66
518.24	5741.33
518.41	6108.80
518.58	6471.58
518.75	6656.48
518.93	6626.06
519.10	6572.22
519.27	6597.97
519.45	6752.45
519.62	6867.13
519.79	7115.23
519.96	7047.35
520.14	6665.85
520.31	6616.69
520.48	6832.02
520.65	6717.34
520.83	7030.97
521.00	7026.29
521.17	7035.65
521.34	7075.44
521.52	7084.80
521.69	7187.79
521.86	7094.16
522.03	7248.64
522.20	6979.48
522.38	6670.53
522.55	6478.60
522.72	6813.30
522.89	6731.38
523.07	6731.38
523.24	6803.94
523.41	6970.12
523.58	7035.65
523.75	7222.89
523.92	7148.00
524.10	7206.51
524.27	7232.26
524.44	7262.68
524.61	7171.40
524.78	7056.72
524.96	7115.23
525.13	6867.13
525.30	7112.89
525.47	7178.42
525.64	7272.04
525.81	7171.40
525.98	6764.15
526.16	6436.47
526.33	6167.31
526.50	6186.04
526.67	6195.40
526.84	6174.33
527.01	6354.55
527.18	6647.12
527.36	6595.63
527.53	6932.67
527.70	7126.93
527.87	7035.65
528.04	6827.34
528.21	6909.26
528.38	7176.08
528.55	7080.12
528.72	7258.00
528.89	7463.97
529.07	7290.77
529.24	7183.10
529.41	6906.92
529.58	6874.15
529.75	6794.58
529.92	6857.77
530.09	7211.19
530.26	7098.84
530.43	7229.91
530.60	7178.42
530.77	7258.00
530.94	7236.94
531.11	7365.67
531.28	7110.55
531.46	7183.10
531.63	7283.75
531.80	7122.25
531.97	7232.26
532.14	6794.58
532.31	6670.53
532.48	6574.56
532.65	6408.39
532.82	6494.99
532.99	6878.83
533.16	6927.99
533.33	7155.02
533.50	7243.96
533.67	6927.99
533.84	6839.05
534.01	6803.94
534.18	7091.82
534.35	7012.24
534.52	6967.77
534.69	7028.63
534.86	7103.53
535.03	7176.08
535.20	7246.30
535.37	7499.08
535.54	7559.93
535.71	7346.94
535.88	7344.60
536.05	7063.74
536.22	7122.25
536.38	7007.56
536.55	6773.51
536.72	6789.89
536.89	6604.99
537.06	6684.57
537.23	7016.93
537.40	6923.30
537.57	7007.56
537.74	7164.38
537.91	7075.44
538.08	6981.82
538.25	6986.50
538.42	7148.00
538.59	7307.15
538.75	7185.44
538.92	6860.11
539.09	6899.90
539.26	6700.95
539.43	6670.53
539.60	6759.47
539.77	6853.09
539.94	6909.26
540.11	6740.74
540.28	6544.14
540.44	6429.45
540.61	6544.14
540.78	6597.97
540.95	6710.32
541.12	6881.18
541.29	7096.50
541.46	7073.10
541.62	7136.29
541.79	7056.72
541.96	6899.90
542.13	7056.72
542.30	6998.20
542.47	7197.15
542.63	6857.77
542.80	6822.66
542.97	6939.69
543.14	6885.86
543.31	6740.74
543.48	6899.90
543.64	7082.46
543.81	7138.63
543.98	7414.82
544.15	7138.63
544.32	7068.42
544.48	6808.62
544.65	6923.30
544.82	7253.32
544.99	7201.83
545.16	7131.61
545.32	6958.41
545.49	7372.69
545.66	7754.19
545.83	7478.01
546.00	7307.15
546.16	7009.90
546.33	7164.38
546.50	6874.15
546.67	7087.14
546.83	6932.67
547.00	6984.16
547.17	6888.20
547.34	6661.16
547.50	6614.35
547.67	6693.93
547.84	6686.91
548.00	6806.28
548.17	6881.18
548.34	6906.92
548.51	7002.88
548.67	6867.13
548.84	7002.88
549.01	6970.12
549.18	6682.23
549.34	6764.15
549.51	6895.22
549.68	6717.34
549.84	6736.06
550.01	6822.66
550.18	6906.92
550.34	6871.81
550.51	6820.32
550.68	6846.07
550.84	6773.51
551.01	6712.66
551.18	6719.68
551.34	6747.76
551.51	6782.87
551.68	6864.79
551.84	6974.80
552.01	6808.62
552.18	6703.29
552.34	6853.09
552.51	6541.80
552.68	6401.37
552.84	6532.44
553.01	6654.14
553.18	6750.10
553.34	6810.96
553.51	6766.49
553.67	6841.39
553.84	6780.53
554.01	6684.57
554.17	6682.23
554.34	6899.90
554.51	6761.81
554.67	6890.54
554.84	6757.13
555.00	6771.17
555.17	6857.77
555.33	6630.74
555.50	6544.14
555.67	6719.68
555.83	6539.46
556.00	6534.78
556.16	6712.66
556.33	6429.45
556.50	6480.94
556.66	6504.35
556.83	6279.66
556.99	6333.49
557.16	6338.17
557.32	6420.09
557.49	6670.53
557.65	6600.31
557.82	6415.41
557.98	6471.58
558.15	6438.81
558.32	6375.62
558.48	6274.98
558.65	6038.58
558.81	6139.23
558.98	6352.21
559.14	6345.19
559.31	6225.82
559.47	6272.64
559.64	6335.83
559.80	6204.76
559.97	6171.99
560.13	6061.99
560.30	6310.08
560.46	6464.56
560.63	6539.46
560.79	6743.08
560.96	6452.86
561.12	6230.51
561.29	6090.07
561.45	6162.63
561.61	6235.19
561.78	6342.85
561.94	6282.00
562.11	6331.15
562.27	6258.59
562.44	6300.72
562.60	6258.59
562.77	6438.81
562.93	6590.95
563.10	6499.67
563.26	6324.13
563.42	6384.98
563.59	6155.61
563.75	6256.25
563.92	6244.55
564.08	6296.04
564.24	6265.61
564.41	6085.39
564.57	6349.87
564.74	6139.23
564.90	6312.42
565.07	6113.48
565.23	6122.84
565.39	6061.99
565.56	5959.00
565.72	5872.40
565.88	6045.60
566.05	6050.28
566.21	6132.20
566.38	5996.45
566.54	6293.70
566.70	6251.57
566.87	6265.61
567.03	6122.84
567.19	6221.14
567.36	6190.72
567.52	6094.76
567.68	5818.57
567.85	5996.45
568.01	5755.38
568.17	5748.36
568.34	5790.49
568.50	5624.31
568.66	5439.40
568.83	5785.80
568.99	5701.54
569.15	5696.86
569.32	5715.59
569.48	5591.54
569.64	5434.72
569.81	5771.76
569.97	5631.33
570.13	5659.42
570.30	5706.23
570.46	5563.45
570.62	5631.33
570.78	5628.99
570.95	5511.96
571.11	5689.84
571.27	5561.11
571.43	5575.16
571.60	5696.86
571.76	5926.24
571.92	5870.06
572.09	5865.38
572.25	5921.56
572.41	5668.78
572.57	5799.85
572.74	5830.27
572.90	5776.44
573.06	5708.57
573.22	5717.93
573.38	5755.38
573.55	5654.73
573.71	5600.90
573.87	5724.95
574.03	5537.71
574.20	5638.35
574.36	5547.07
574.52	5425.36
574.68	5488.56
574.84	5621.97
575.01	5591.54
575.17	5270.89
575.33	5577.50
575.49	5598.56
575.65	5577.50
575.82	5465.15
575.98	5495.58
576.14	5355.15
576.30	5687.50
576.46	5617.29
576.62	5762.40
576.79	5727.29
576.95	5542.39
577.11	5736.65
577.27	5528.35
577.43	5689.84
577.59	5502.60
577.75	5556.43
577.92	5310.68
578.08	5224.08
578.24	5310.68
578.40	5322.38
578.56	5247.48
578.72	5603.24
578.88	5530.69
579.04	5554.09
579.21	5416.00
579.37	5514.30
579.53	5359.83
579.69	5589.20
579.85	5516.64
580.01	5628.99
580.17	5483.88
580.33	5547.07
580.49	5528.35
580.65	5507.28
580.82	5708.57
580.98	5708.57
581.14	5607.92
581.30	5586.86
581.46	5439.40
581.62	5647.71
581.78	5614.95
581.94	5509.62
582.10	5584.52
582.26	5750.70
582.42	5554.09
582.58	5687.50
582.74	5544.73
582.90	5589.20
583.06	5621.97
583.22	5509.62
583.38	5643.03
583.54	5399.62
583.70	5626.65
583.86	5453.45
584.02	5563.45
584.18	5654.73
584.34	5575.16
584.50	5514.30
584.66	5551.75
584.82	5493.24
584.98	5537.71
585.14	5256.84
585.30	5259.18
585.46	5249.82
585.62	5095.35
585.78	5231.10
585.94	5376.21
586.10	5151.52
586.26	5233.44
586.42	5441.75
586.58	5460.47
586.74	5226.42
586.90	5303.65
587.06	5298.97
587.22	5144.50
587.38	5139.82
587.54	5114.07
587.70	4964.28
587.86	4798.10
588.02	4830.87
588.18	4657.67
588.34	4587.45
588.49	4245.73
588.65	4121.68
588.81	3859.54
588.97	3941.46
589.13	3836.14
589.29	3889.97
589.45	3946.14
589.61	4011.68
589.77	4145.09
589.93	4290.20
590.08	4468.08
590.24	4650.64
590.40	4430.63
590.56	4671.71
590.72	4566.39
590.88	4580.43
591.04	4561.70
591.20	4568.73
591.35	4559.36
591.51	4440.00
591.67	4407.23
591.83	4278.50
591.99	4449.36
592.15	4414.25
592.31	4447.02
592.46	4762.99
592.62	4779.37
592.78	4674.05
592.94	4777.03
593.10	4760.65
593.26	4777.03
593.41	4835.55
593.57	4594.47
593.73	4596.81
593.89	4365.10
594.05	4353.40
594.20	4297.22
594.36	4205.94
594.52	4149.77
594.68	4142.75
594.84	4465.74
594.99	4531.28
595.15	4461.06
595.31	4524.26
595.47	4531.28
595.62	4475.10
595.78	4608.51
595.94	4720.86
596.10	4802.78
596.25	4561.70
596.41	4482.13
596.57	4510.21
596.73	4566.39
596.88	4608.51
597.04	4627.24
597.20	4510.21
597.36	4622.56
597.51	4393.19
597.67	4517.23
