SpectraSuite Data File
++++++++++++++++++++++++++++++++++++
Date: Fri Oct 04 11:39:27 GMT-05:00 2013
User: price-jones
Dark Spectrum Present: No
Reference Spectrum Present: No
Number of Sampled Component Spectra: 1
Spectrometers: USB2+H05261
Integration Time (usec): 100000 (USB2+H05261)
Spectra Averaged: 1 (USB2+H05261)
Boxcar Smoothing: 0 (USB2+H05261)
Correct for Electrical Dark: No (USB2+H05261)
Strobe/Lamp Enabled: No (USB2+H05261)
Correct for Detector Non-linearity: No (USB2+H05261)
Correct for Stray Light: No (USB2+H05261)
Number of Pixels in Processed Spectrum: 2048
>>>>>Begin Processed Spectral Data<<<<<
365.73	7.02
365.92	7.02
366.12	7.02
366.32	0.00
366.52	0.00
366.72	0.00
366.91	0.00
367.11	28.09
367.31	0.00
367.51	0.00
367.70	0.00
367.90	7.02
368.10	0.00
368.30	0.00
368.49	0.00
368.69	0.00
368.89	0.00
369.09	14.04
369.28	0.00
369.48	0.00
369.68	0.00
369.87	0.00
370.07	0.00
370.27	46.81
370.47	72.56
370.66	191.92
370.86	84.26
371.06	212.99
371.25	201.29
371.45	220.01
371.65	266.82
371.84	229.37
372.04	102.98
372.24	285.55
372.44	236.39
372.63	173.20
372.83	252.78
373.03	184.90
373.22	278.52
373.42	276.18
373.62	255.12
373.81	271.50
374.01	252.78
374.21	278.52
374.40	229.37
374.60	344.06
374.79	283.20
374.99	245.76
375.19	231.71
375.38	360.44
375.58	248.10
375.78	248.10
375.97	271.50
376.17	318.31
376.37	339.38
376.56	320.65
376.76	203.63
376.95	205.97
377.15	259.80
377.35	227.03
377.54	250.44
377.74	287.89
377.93	252.78
378.13	327.68
378.33	367.46
378.52	337.04
378.72	315.97
378.91	308.95
379.11	227.03
379.31	198.95
379.50	227.03
379.70	334.70
379.89	273.84
380.09	365.12
380.28	224.69
380.48	292.57
380.68	308.95
380.87	215.33
381.07	372.15
381.26	304.27
381.46	372.15
381.65	360.44
381.85	313.63
382.04	243.42
382.24	283.20
382.43	339.38
382.63	301.93
382.83	266.82
383.02	297.25
383.22	407.25
383.41	315.97
383.61	320.65
383.80	348.74
384.00	308.95
384.19	301.93
384.39	330.02
384.58	341.72
384.78	322.99
384.97	374.49
385.17	313.63
385.36	259.80
385.56	351.08
385.75	402.57
385.95	325.33
386.14	348.74
386.34	318.31
386.53	346.40
386.72	339.38
386.92	397.89
387.11	276.18
387.31	376.83
387.50	313.63
387.70	367.46
387.89	341.72
388.09	362.78
388.28	257.46
388.48	346.40
388.67	407.25
388.86	437.68
389.06	404.91
389.25	374.49
389.45	409.59
389.64	362.78
389.84	437.68
390.03	362.78
390.22	311.29
390.42	322.99
390.61	393.21
390.81	411.93
391.00	360.44
391.19	444.70
391.39	379.17
391.58	458.74
391.78	327.68
391.97	379.17
392.16	430.66
392.36	475.13
392.55	433.00
392.75	365.12
392.94	458.74
393.13	456.40
393.33	365.12
393.52	538.32
393.71	517.26
393.91	470.45
394.10	440.02
394.29	491.51
394.49	376.83
394.68	440.02
394.88	468.11
395.07	543.00
395.26	538.32
395.46	512.58
395.65	489.17
395.84	533.64
396.04	580.45
396.23	517.26
396.42	533.64
396.62	545.34
396.81	500.87
397.00	512.58
397.19	592.16
397.39	545.34
397.58	578.11
397.77	554.71
397.97	599.18
398.16	582.79
398.35	585.13
398.55	587.47
398.74	627.26
398.93	547.69
399.12	603.86
399.32	748.97
399.51	610.88
399.70	645.99
399.90	634.29
400.09	720.88
400.28	678.76
400.47	643.65
400.67	681.10
400.86	674.07
401.05	671.73
401.24	706.84
401.44	784.08
401.63	730.25
401.82	732.59
402.01	706.84
402.21	795.78
402.40	725.57
402.59	723.23
402.78	774.72
402.97	727.91
403.17	791.10
403.36	884.72
403.55	786.42
403.74	821.53
403.93	891.74
404.13	933.87
404.32	908.13
404.51	873.02
404.70	1006.43
404.89	926.85
405.09	990.05
405.28	924.51
405.47	917.49
405.66	889.40
405.85	915.15
406.05	950.26
406.24	933.87
406.43	905.79
406.62	922.17
406.81	1004.09
407.00	1034.52
407.20	994.73
407.39	992.39
407.58	1032.18
407.77	1069.62
407.96	1116.44
408.15	1074.31
408.34	1032.18
408.54	1043.88
408.73	1109.41
408.92	1160.91
409.11	1170.27
409.30	1191.33
409.49	1186.65
409.68	1165.59
409.87	1247.51
410.07	1221.76
410.26	1179.63
410.45	1224.10
410.64	1273.25
410.83	1294.32
411.02	1242.82
411.21	1270.91
411.40	1334.11
411.59	1390.28
411.78	1390.28
411.98	1373.89
412.17	1362.19
412.36	1348.15
412.55	1401.98
412.74	1481.56
412.93	1404.32
413.12	1486.24
413.31	1476.88
413.50	1509.65
413.69	1483.90
413.88	1579.86
414.07	1544.75
414.26	1682.85
414.45	1668.80
414.64	1626.67
414.83	1645.40
415.02	1788.17
415.22	1694.55
415.41	1797.53
415.60	1720.29
415.79	1701.57
415.98	1741.36
416.17	1898.17
416.36	1874.77
416.55	1853.70
416.74	1825.62
416.93	1788.17
417.12	1930.94
417.31	1975.41
417.50	1837.32
417.69	1947.33
417.88	1949.67
418.07	1919.24
418.26	2024.56
418.45	1952.01
418.64	2101.80
418.83	2040.95
419.02	1994.14
419.21	2085.42
419.39	2043.29
419.58	2106.48
419.77	2120.53
419.96	2162.66
420.15	2141.59
420.34	2073.71
420.53	2113.50
420.72	2207.13
420.91	2195.42
421.10	2249.25
421.29	2270.32
421.48	2228.19
421.67	2228.19
421.86	2321.81
422.05	2249.25
422.24	2291.38
422.43	2347.56
422.61	2246.91
422.80	2399.05
422.99	2328.83
423.18	2476.29
423.37	2380.32
423.56	2349.90
423.75	2394.37
423.94	2347.56
424.13	2155.63
424.32	2333.51
424.50	2480.97
424.69	2457.56
424.88	2469.27
425.07	2333.51
425.26	2272.66
425.45	2380.32
425.64	2289.04
425.83	2457.56
426.01	2525.44
426.20	2492.67
426.39	2466.92
426.58	2422.45
426.77	2441.18
426.96	2539.48
427.15	2548.84
427.33	2523.10
427.52	2555.86
427.71	2478.63
427.90	2593.31
428.09	2509.05
428.28	2565.23
428.46	2504.37
428.65	2534.80
428.84	2675.23
429.03	2693.96
429.22	2597.99
429.40	2642.46
429.59	2637.78
429.78	2553.52
429.97	2530.12
430.16	2717.36
430.34	2729.06
430.53	2871.84
430.72	2663.53
430.91	2665.87
431.10	2885.88
431.28	2743.11
431.47	2846.09
431.66	2949.08
431.85	2782.90
432.03	2937.37
432.22	2895.24
432.41	2775.88
432.60	2935.03
432.79	2764.17
432.97	2930.35
433.16	3000.57
433.35	2853.11
433.54	3007.59
433.72	2995.89
433.91	2981.84
434.10	3002.91
434.28	2899.92
434.47	3087.17
434.66	3021.63
434.85	3108.23
435.03	3133.98
435.22	3428.88
435.41	3559.95
435.59	3456.97
435.78	3398.46
435.97	3344.63
436.16	3288.45
436.34	3110.57
436.53	3232.28
436.72	3302.50
436.90	3225.26
437.09	3222.92
437.28	3241.64
437.46	3269.73
437.65	3206.53
437.84	3353.99
438.02	3309.52
438.21	3148.02
438.40	3204.19
438.58	3410.16
438.77	3445.27
438.96	3489.74
439.14	3384.41
439.33	3588.04
439.52	3599.74
439.70	3588.04
439.89	3581.02
440.08	3604.42
440.26	3641.87
440.45	3756.56
440.63	3637.19
440.82	3698.05
441.01	3606.77
441.19	3740.18
441.38	3796.35
441.57	3808.05
441.75	3815.07
441.94	3873.59
442.12	3920.40
442.31	4023.38
442.50	4070.19
442.68	3894.65
442.87	4011.68
443.05	3941.46
443.24	4049.13
443.43	3904.01
443.61	3925.08
443.80	4032.74
443.98	3946.14
444.17	3911.04
444.35	3929.76
444.54	4107.64
444.73	3971.89
444.91	4131.05
445.10	4060.83
445.28	3978.91
445.47	3864.22
445.65	3878.27
445.84	4105.30
446.02	4014.02
446.21	4095.94
446.39	4109.98
446.58	4067.85
446.77	4198.92
446.95	4056.15
447.14	4180.20
447.32	4173.18
447.51	4063.17
447.69	4149.77
447.88	4191.90
448.06	4109.98
448.25	4060.83
448.43	4079.55
448.62	4011.68
448.80	4163.81
448.99	4173.18
449.17	4191.90
449.36	4170.83
449.54	4255.09
449.73	4346.37
449.91	4397.87
450.10	4451.70
450.28	4271.48
450.46	4472.76
450.65	4440.00
450.83	4461.06
451.02	4479.79
451.20	4409.57
451.39	4498.51
451.57	4400.21
451.76	4463.40
451.94	4395.53
452.13	4573.41
452.31	4564.04
452.49	4449.36
452.68	4617.88
452.86	4484.47
453.05	4610.86
453.23	4699.80
453.42	4629.58
453.60	4507.87
453.78	4545.32
453.97	4716.18
454.15	4674.05
454.34	4734.90
454.52	4718.52
454.70	4755.97
454.89	4903.42
455.07	4784.06
455.26	4821.50
455.44	4891.72
455.62	4770.01
455.81	4851.93
455.99	4835.55
456.17	4858.95
456.36	4830.87
456.54	4980.66
456.73	4994.70
456.91	5060.24
457.09	5081.30
457.28	5228.76
457.46	5036.83
457.64	5111.73
457.83	4947.89
458.01	5020.45
458.19	5186.63
458.38	5069.60
458.56	5055.56
458.74	5135.14
458.93	5137.48
459.11	5156.20
459.29	5228.76
459.48	5252.16
459.66	5233.44
459.84	5203.01
460.03	5399.62
460.21	5275.57
460.39	5446.43
460.57	5322.38
460.76	5451.11
460.94	5320.04
461.12	5315.36
461.31	5231.10
461.49	5500.26
461.67	5511.96
461.85	5486.22
462.04	5373.87
462.22	5556.43
462.40	5650.05
462.59	5516.64
462.77	5554.09
462.95	5516.64
463.13	5472.17
463.32	5792.83
463.50	5652.39
463.68	5905.17
463.86	5781.12
464.05	5729.63
464.23	5671.12
464.41	5753.04
464.59	5659.42
464.78	5818.57
464.96	5750.70
465.14	5523.66
465.32	5844.32
465.50	5769.42
465.69	5762.40
465.87	5790.49
466.05	5809.21
466.23	5996.45
466.41	5942.62
466.60	5879.43
466.78	5834.96
466.96	5802.19
467.14	5816.23
467.32	5956.66
467.51	6036.24
467.69	5872.40
467.87	5912.19
468.05	6001.13
468.23	5902.83
468.41	5804.53
468.60	5980.07
468.78	6155.61
468.96	6017.52
469.14	6001.13
469.32	6214.12
469.50	5963.68
469.69	6237.53
469.87	6331.15
470.05	6375.62
470.23	6193.06
470.41	6286.68
470.59	6429.45
470.77	6237.53
470.95	6284.34
471.14	6403.71
471.32	6225.82
471.50	6677.55
471.68	6427.11
471.86	6466.90
472.04	6637.76
472.22	6679.89
472.40	6375.62
472.58	6593.29
472.77	6750.10
472.95	6656.48
473.13	6839.05
473.31	6707.98
473.49	6876.49
473.67	6604.99
473.85	6813.30
474.03	6825.00
474.21	6794.58
474.39	6881.18
474.57	7140.97
474.75	7119.91
474.93	7194.81
475.12	7143.32
475.30	7349.28
475.48	7157.36
475.66	7026.29
475.84	7215.87
476.02	7522.48
476.20	7485.03
476.38	7419.50
476.56	7779.94
476.74	7566.95
476.92	7515.46
477.10	7688.66
477.28	7721.43
477.46	7630.15
477.64	7726.11
477.82	7817.39
478.00	8028.04
478.18	8042.08
478.36	7903.99
478.54	8215.28
478.72	8091.23
478.90	8187.19
479.08	8528.91
479.26	8241.03
479.44	8341.67
479.62	8348.69
479.80	8327.63
479.98	8388.48
480.16	8540.61
480.34	8655.30
480.52	8528.91
480.70	8929.14
480.88	8599.13
481.06	9013.40
481.24	8826.16
481.41	8779.35
481.59	8910.42
481.77	9228.73
481.95	9181.92
482.13	9387.89
482.31	9348.10
482.49	9362.14
482.67	9680.46
482.85	9432.36
483.03	9778.76
483.21	9699.18
483.39	9893.44
483.57	9841.95
483.74	9863.02
483.92	10141.54
484.10	9940.26
484.28	10256.23
484.46	10422.41
484.64	10649.44
484.82	10319.42
485.00	10457.51
485.18	10663.48
485.35	10623.69
485.53	10867.11
485.71	10810.93
485.89	10721.99
486.07	10780.51
486.25	11150.31
486.43	11166.70
486.61	11143.29
486.78	11225.21
486.96	11337.56
487.14	11480.33
487.32	11496.71
487.50	11660.55
487.68	11770.55
487.85	11889.92
488.03	12049.08
488.21	12018.65
488.39	11913.33
488.57	12053.76
488.75	12276.11
488.92	12435.27
489.10	12486.76
489.28	12463.35
489.46	12690.38
489.64	12744.22
489.81	13013.38
489.99	12784.01
490.17	12851.88
490.35	13008.70
490.53	13074.23
490.70	13427.65
490.88	13170.19
491.06	13408.93
491.24	13462.76
491.41	13432.33
491.59	13738.94
491.77	13862.99
491.95	13944.91
492.13	13902.78
492.30	13668.73
492.48	13839.59
492.66	14221.10
492.84	14197.69
493.01	14207.05
493.19	14445.79
493.37	14443.45
493.54	14511.32
493.72	14508.98
493.90	14808.57
494.08	14764.10
494.25	14768.78
494.43	15096.46
494.61	15009.86
494.79	15194.76
494.96	15044.96
495.14	15367.96
495.32	15492.01
495.49	15449.88
495.67	15566.90
495.85	15559.88
496.02	15857.13
496.20	15838.41
496.38	15882.88
496.55	15866.49
496.73	16343.96
496.91	16133.31
497.09	16020.97
497.26	16304.17
497.44	16198.85
497.62	16430.56
497.79	16514.82
497.97	16231.62
498.14	16486.73
498.32	16847.18
498.50	16798.02
498.67	16999.31
498.85	16861.22
499.03	16938.46
499.20	16929.09
499.38	16989.95
499.56	17085.91
499.73	17429.97
499.91	17607.85
500.08	17341.03
500.26	17214.64
500.44	17406.56
500.61	17411.25
500.79	17207.62
500.97	17764.67
501.14	17696.79
501.32	17980.00
501.49	17926.16
501.67	17804.46
501.84	17989.36
502.02	18097.02
502.20	18188.30
502.37	18387.25
502.55	18260.86
502.72	17980.00
502.90	17998.72
503.07	18434.06
503.25	18412.99
503.43	18630.66
503.60	18382.57
503.78	18588.53
503.95	18644.71
504.13	18778.12
504.30	18717.26
504.48	18562.79
504.65	19234.52
504.83	19096.43
505.01	19159.63
505.18	19257.93
505.36	19541.13
505.53	19051.96
505.71	19166.65
505.88	19452.19
506.06	19061.32
506.23	19646.46
506.41	19529.43
506.58	19850.08
506.76	19470.92
506.93	19763.48
507.11	19681.56
507.28	19737.74
507.46	19793.91
507.63	20147.33
507.81	20116.90
507.98	19686.25
508.16	20112.22
508.33	19831.36
508.50	20142.65
508.68	20411.81
508.85	20381.38
509.03	20116.90
509.20	20711.40
509.38	20762.89
509.55	20430.54
509.73	20809.70
509.90	21036.74
510.08	20725.44
510.25	20538.20
510.42	20772.25
510.60	20783.96
510.77	21008.65
510.95	21539.95
511.12	21158.44
511.30	21378.45
511.47	21057.80
511.64	21731.87
511.82	21357.39
511.99	21490.80
512.17	21341.00
512.34	21441.65
512.51	21539.95
512.69	21558.67
512.86	21649.96
513.04	22071.25
513.21	21818.47
513.38	22118.06
513.56	21811.45
513.73	21888.69
513.90	22309.99
514.08	22040.82
514.25	22347.44
514.43	22169.55
514.60	22382.54
514.77	22188.28
514.95	22799.16
515.12	22307.65
515.29	22387.22
515.47	22794.48
515.64	22775.75
515.81	22782.77
515.99	22747.67
516.16	23328.12
516.33	23098.75
516.51	22874.06
516.68	22806.18
516.85	22946.61
517.03	23110.45
517.20	23082.36
517.37	23367.91
517.54	23028.53
517.72	23168.96
517.89	23138.54
518.06	23269.61
518.24	23307.05
518.41	23655.79
518.58	23786.86
518.75	23311.74
518.93	23688.56
519.10	23538.77
519.27	23611.32
519.45	23803.25
519.62	23953.04
519.79	23726.01
519.96	23747.08
520.14	23997.51
520.31	24067.73
520.48	24446.90
520.65	24098.16
520.83	24006.87
521.00	24261.99
521.17	24009.22
521.34	24112.20
521.52	24233.91
521.69	24327.53
521.86	24465.62
522.03	24673.93
522.20	24634.14
522.38	24727.76
522.55	24308.80
522.72	24395.40
522.89	24893.94
523.07	24994.58
523.24	24889.26
523.41	24905.64
523.58	24863.51
523.75	25025.01
523.92	25020.33
524.10	24893.94
524.27	25142.03
524.44	25193.53
524.61	25209.91
524.78	25352.68
524.96	25432.26
525.13	25415.88
525.30	25446.30
525.47	25469.71
525.64	25282.47
525.81	25579.71
525.98	25811.43
526.16	25654.61
526.33	25743.55
526.50	25872.28
526.67	25979.95
526.84	25975.27
527.01	25582.06
527.18	25745.89
527.36	26024.42
527.53	26082.93
527.70	26106.34
527.87	26384.86
528.04	26153.15
528.21	25977.61
528.38	26038.46
528.55	26134.42
528.72	26366.13
528.89	26885.73
529.07	26314.64
529.24	26038.46
529.41	26356.77
529.58	26302.94
529.75	26197.62
529.92	26562.74
530.09	26663.38
530.26	26398.90
530.43	26749.98
530.60	26412.95
530.77	26740.62
530.94	26941.91
531.11	27070.64
531.28	26749.98
531.46	27063.61
531.63	27131.49
531.80	27061.27
531.97	27246.18
532.14	27302.35
532.31	27054.25
532.48	27087.02
532.65	27185.32
532.82	26934.88
532.99	27419.38
533.16	27356.18
533.33	27377.25
533.50	27550.45
533.67	27789.18
533.84	27515.34
534.01	27498.95
534.18	27307.03
534.35	27349.16
534.52	27447.46
534.69	27700.24
534.86	27601.94
535.03	27814.93
535.20	28215.16
535.37	27805.56
535.54	28004.51
535.71	27482.57
535.88	27887.48
536.05	27861.74
536.22	28102.81
536.38	28196.43
536.55	27908.55
536.72	28306.44
536.89	28154.30
537.06	27770.46
537.23	28233.88
537.40	28072.39
537.57	28332.18
537.74	28350.91
537.91	28465.60
538.08	28776.89
538.25	28439.85
538.42	28753.48
538.59	28456.23
538.75	28236.22
538.92	28444.53
539.09	28453.89
539.26	28353.25
539.43	28945.41
539.60	28950.09
539.77	28779.23
539.94	29186.48
540.11	29060.09
540.28	28751.14
540.44	29074.13
540.61	28900.94
540.78	28861.15
540.95	29237.97
541.12	29186.48
541.29	29507.13
541.46	29294.14
541.62	29628.84
541.79	29394.79
541.96	29277.76
542.13	29001.58
542.30	29769.27
542.47	29399.47
542.63	29593.73
542.80	29706.08
542.97	30225.68
543.14	30057.16
543.31	30057.16
543.48	29645.23
543.64	29975.24
543.81	30061.84
543.98	30235.04
544.15	29984.60
544.32	30139.08
544.48	30148.44
544.65	30043.12
544.82	29968.22
544.99	29881.62
545.16	30024.39
545.32	30043.12
545.49	30822.51
545.66	31236.79
545.83	31447.44
546.00	31213.38
546.16	30761.66
546.33	30408.24
546.50	30059.50
546.67	30354.41
546.83	29755.23
547.00	30235.04
547.17	30569.74
547.34	30398.88
547.50	30380.15
547.67	30841.24
547.84	30129.72
548.00	30412.92
548.17	30438.67
548.34	30834.22
548.51	30469.09
548.67	30663.36
548.84	30717.19
549.01	30422.28
549.18	30637.61
549.34	30604.84
549.51	30712.51
549.68	30747.62
549.84	30078.22
550.01	30874.01
550.18	30775.70
550.34	30169.51
550.51	30806.13
550.68	30740.60
550.84	30780.39
551.01	30895.07
551.18	30497.18
551.34	30696.13
551.51	30803.79
551.68	30691.44
551.84	31044.87
552.01	30733.57
552.18	31040.18
552.34	30836.56
552.51	31227.43
552.68	31007.42
552.84	30766.34
553.01	30843.58
553.18	30696.13
553.34	30909.11
553.51	31136.15
553.67	31105.72
553.84	31225.09
554.01	31257.85
554.17	30780.39
554.34	30782.73
554.51	31047.21
554.67	31402.97
554.84	31108.06
555.00	30724.21
555.17	31332.75
555.33	31253.17
555.50	31194.66
555.67	31105.72
555.83	31414.67
556.00	31307.01
556.16	31608.93
556.33	30944.22
556.50	31332.75
556.66	31227.43
556.83	31519.99
556.99	31292.96
557.16	31299.98
557.32	31835.97
557.49	31321.05
557.65	31534.04
557.82	31400.63
557.98	31138.49
558.15	31510.63
558.32	31501.27
558.48	31126.78
558.65	31438.08
558.81	31491.91
558.98	31857.03
559.14	31618.30
559.31	31077.63
559.47	31271.90
559.64	31697.88
559.80	32208.11
559.97	31585.53
560.13	31850.01
560.30	31847.67
560.46	31805.54
560.63	31461.48
560.79	31761.07
560.96	31938.95
561.12	31737.66
561.29	31555.10
561.45	31964.70
561.61	31641.70
561.78	31915.54
561.94	31693.19
562.11	31887.46
562.27	31999.80
562.44	31667.45
562.60	31594.89
562.77	31826.60
562.93	31833.63
563.10	32339.18
563.26	31814.90
563.42	31833.63
563.59	31742.35
563.75	31840.65
563.92	31791.50
564.08	31562.12
564.24	31924.91
564.41	31999.80
564.57	32142.58
564.74	32018.53
564.90	31845.33
565.07	32165.98
565.23	31821.92
565.39	31800.86
565.56	32205.77
565.72	31695.53
565.88	31962.36
566.05	31779.79
566.21	32238.54
566.38	31859.37
566.54	32311.10
566.70	32018.53
566.87	32053.64
567.03	31821.92
567.19	32526.42
567.36	31770.43
567.52	32030.23
567.68	31854.69
567.85	32219.81
568.01	31777.45
568.17	32266.63
568.34	31866.39
568.50	32079.38
568.66	31894.48
568.83	31985.76
568.99	31508.29
569.15	31901.50
569.32	31688.51
569.48	31782.13
569.64	32268.97
569.81	32180.03
569.97	31992.78
570.13	32425.78
570.30	32084.06
570.46	32290.03
570.62	32236.20
570.78	32339.18
570.95	31835.97
571.11	32353.23
571.27	31608.93
571.43	31655.75
571.60	32037.25
571.76	31709.58
571.92	32210.45
572.09	32165.98
572.25	32268.97
572.41	31976.40
572.57	32381.31
572.74	32180.03
572.90	31960.02
573.06	32428.12
573.22	31791.50
573.38	32067.68
573.55	32479.61
573.71	32451.53
573.87	32041.93
574.03	32067.68
574.20	32713.67
574.36	32299.39
574.52	32446.85
574.68	32156.62
574.84	31889.80
575.01	32261.94
575.17	32526.42
575.33	31824.26
575.49	32067.68
575.65	32247.90
575.82	32304.07
575.98	32009.17
576.14	32411.74
576.30	31992.78
576.46	32294.71
576.62	32308.76
576.79	32519.40
576.95	32203.43
577.11	32414.08
577.27	32629.41
577.43	32577.92
577.59	32507.70
577.75	31765.75
577.92	32095.77
578.08	32245.56
578.24	31988.10
578.40	32336.84
578.56	32549.83
578.72	32442.17
578.88	32634.09
579.04	32165.98
579.21	32275.99
579.37	32268.97
579.53	32252.58
579.69	32074.70
579.85	32416.42
580.01	32519.40
580.17	32531.11
580.33	32275.99
580.49	32290.03
580.65	32570.90
580.82	32460.89
580.98	32559.19
581.14	32559.19
581.30	33144.33
581.46	32451.53
581.62	32332.16
581.78	32142.58
581.94	32620.05
582.10	32107.47
582.26	32362.59
582.42	32535.79
582.58	32381.31
582.74	32201.09
582.90	32510.04
583.06	32027.89
583.22	32294.71
583.38	31945.97
583.54	32491.32
583.70	32563.87
583.86	32451.53
584.02	32285.35
584.18	32720.69
584.34	32643.45
584.50	32290.03
584.66	32914.95
584.82	32486.64
584.98	32414.08
585.14	32748.78
585.30	32236.20
585.46	32084.06
585.62	32744.09
585.78	32500.68
585.94	32421.10
586.10	32479.61
586.26	32659.84
586.42	32400.04
586.58	32496.00
586.74	32416.42
586.90	32486.64
587.06	32369.61
587.22	32496.00
587.38	32449.19
587.54	32673.88
587.70	32708.99
587.86	32400.04
588.02	32919.63
588.18	32556.85
588.34	32624.73
588.49	32535.79
588.65	32226.84
588.81	32116.83
588.97	32481.95
589.13	32229.18
589.29	32549.83
589.45	32631.75
589.61	32409.40
589.77	33134.96
589.93	32559.19
590.08	32655.15
590.24	32818.99
590.40	32758.14
590.56	32828.35
590.72	32690.26
590.88	32201.09
591.04	32116.83
591.20	32608.34
591.35	32378.97
591.51	32903.25
591.67	32680.90
