SpectraSuite Data File
++++++++++++++++++++++++++++++++++++
Date: Fri Oct 04 11:39:39 GMT-05:00 2013
User: price-jones
Dark Spectrum Present: No
Reference Spectrum Present: No
Number of Sampled Component Spectra: 1
Spectrometers: USB2+H05261
Integration Time (usec): 100000 (USB2+H05261)
Spectra Averaged: 1 (USB2+H05261)
Boxcar Smoothing: 0 (USB2+H05261)
Correct for Electrical Dark: No (USB2+H05261)
Strobe/Lamp Enabled: No (USB2+H05261)
Correct for Detector Non-linearity: No (USB2+H05261)
Correct for Stray Light: No (USB2+H05261)
Number of Pixels in Processed Spectrum: 2048
>>>>>Begin Processed Spectral Data<<<<<
365.73	56.17
365.92	56.17
366.12	56.17
366.32	0.00
366.52	0.00
366.72	0.00
366.91	0.00
367.11	0.00
367.31	37.45
367.51	0.00
367.70	0.00
367.90	4.68
368.10	0.00
368.30	0.00
368.49	0.00
368.69	0.00
368.89	0.00
369.09	0.00
369.28	0.00
369.48	0.00
369.68	0.00
369.87	28.09
370.07	0.00
370.27	46.81
370.47	142.77
370.66	259.80
370.86	306.61
371.06	346.40
371.25	351.08
371.45	334.70
371.65	395.55
371.84	308.95
372.04	332.36
372.24	428.32
372.44	407.25
372.63	407.25
372.83	440.02
373.03	433.00
373.22	383.85
373.42	456.40
373.62	451.72
373.81	435.34
374.01	463.43
374.21	449.38
374.40	475.13
374.60	430.66
374.79	409.59
374.99	458.74
375.19	486.83
375.38	477.47
375.58	505.56
375.78	479.81
375.97	486.83
376.17	489.17
376.37	507.90
376.56	472.79
376.76	465.77
376.95	493.85
377.15	479.81
377.35	568.75
377.54	587.47
377.74	447.04
377.93	491.51
378.13	603.86
378.33	589.82
378.52	510.24
378.72	491.51
378.91	573.43
379.11	557.05
379.31	409.59
379.50	479.81
379.70	538.32
379.89	610.88
380.09	564.07
380.28	547.69
380.48	543.00
380.68	535.98
380.87	664.71
381.07	500.87
381.26	561.73
381.46	550.03
381.65	662.37
381.85	685.78
382.04	622.58
382.24	561.73
382.43	620.24
382.63	573.43
382.83	596.84
383.02	578.11
383.22	629.60
383.41	660.03
383.61	643.65
383.80	678.76
384.00	617.90
384.19	641.31
384.39	704.50
384.58	657.69
384.78	695.14
384.97	678.76
385.17	615.56
385.36	720.88
385.56	674.07
385.75	650.67
385.95	671.73
386.14	634.29
386.34	699.82
386.53	664.71
386.72	690.46
386.92	741.95
387.11	683.44
387.31	755.99
387.50	692.80
387.70	723.23
387.89	695.14
388.09	709.18
388.28	683.44
388.48	706.84
388.67	788.76
388.86	800.46
389.06	793.44
389.25	814.51
389.45	851.96
389.64	772.38
389.84	835.57
390.03	791.10
390.22	788.76
390.42	744.29
390.61	814.51
390.81	898.77
391.00	847.27
391.19	812.17
391.39	807.48
391.58	837.91
391.78	805.14
391.97	889.40
392.16	877.70
392.36	1006.43
392.55	945.58
392.75	873.02
392.94	880.04
393.13	987.71
393.33	908.13
393.52	950.26
393.71	1004.09
393.91	990.05
394.10	950.26
394.29	1011.11
394.49	943.24
394.68	1067.28
394.88	1034.52
395.07	1020.47
395.26	1050.90
395.46	1053.24
395.65	994.73
395.84	971.32
396.04	1090.69
396.23	1121.12
396.42	1011.11
396.62	1132.82
396.81	1011.11
397.00	992.39
397.19	1107.07
397.39	990.05
397.58	1170.27
397.77	1109.41
397.97	1196.01
398.16	1071.97
398.35	1144.52
398.55	1104.73
398.74	1095.37
398.93	1287.29
399.12	1158.57
399.32	1219.42
399.51	1193.67
399.70	1196.01
399.90	1294.32
400.09	1336.45
400.28	1268.57
400.47	1275.59
400.67	1336.45
400.86	1263.89
401.05	1327.08
401.24	1331.76
401.44	1390.28
401.63	1329.42
401.82	1315.38
402.01	1394.96
402.21	1411.34
402.40	1404.32
402.59	1380.92
402.78	1383.26
402.97	1469.86
403.17	1416.02
403.36	1495.60
403.55	1528.37
403.74	1488.58
403.93	1558.80
404.13	1621.99
404.32	1490.92
404.51	1603.27
404.70	1575.18
404.89	1610.29
405.09	1654.76
405.28	1647.74
405.47	1661.78
405.66	1579.86
405.85	1579.86
406.05	1696.89
406.24	1703.91
406.43	1659.44
406.62	1764.76
406.81	1832.64
407.00	1652.42
407.20	1778.81
407.39	1732.00
407.58	1795.19
407.77	1834.98
407.96	1919.24
408.15	1774.13
408.34	1799.87
408.54	1888.81
408.73	1959.03
408.92	1895.83
409.11	1973.07
409.30	1996.48
409.49	2036.27
409.68	1987.11
409.87	2010.52
410.07	1944.99
410.26	1933.28
410.45	2047.97
410.64	2101.80
410.83	2062.01
411.02	2160.31
411.21	2260.96
411.40	2183.72
411.59	2349.90
411.78	2183.72
411.98	2136.91
412.17	2293.72
412.36	2249.25
412.55	2275.00
412.74	2438.84
412.93	2422.45
413.12	2382.67
413.31	2504.37
413.50	2450.54
413.69	2431.82
413.88	2619.06
414.07	2520.76
414.26	2523.10
414.45	2733.75
414.64	2623.74
414.83	2658.85
415.02	2736.09
415.22	2663.53
415.41	2745.45
415.60	2782.90
415.79	2754.81
415.98	2892.90
416.17	2909.29
416.36	2918.65
416.55	2883.54
416.74	2930.35
416.93	2974.82
417.12	2925.67
417.31	3068.44
417.50	3173.77
417.69	3229.94
417.88	3232.28
418.07	3180.79
418.26	3108.23
418.45	3208.87
418.64	3288.45
418.83	3192.49
419.02	3300.16
419.21	3328.24
419.39	3253.34
419.58	3290.79
419.77	3239.30
419.96	3379.73
420.15	3379.73
420.34	3412.50
420.53	3463.99
420.72	3541.23
420.91	3588.04
421.10	3435.91
421.29	3496.76
421.48	3496.76
421.67	3630.17
421.86	3604.42
422.05	3684.00
422.24	3522.51
422.43	3543.57
422.61	3637.19
422.80	3611.45
422.99	3721.45
423.18	3634.85
423.37	3574.00
423.56	3606.77
423.75	3705.07
423.94	3674.64
424.13	3466.33
424.32	3604.42
424.50	3758.90
424.69	3805.71
424.88	3829.12
425.07	3531.87
425.26	3574.00
425.45	3529.53
425.64	3693.37
425.83	3707.41
426.01	3758.90
426.20	3723.79
426.39	3667.62
426.58	3707.41
426.77	3782.31
426.96	3786.99
427.15	3777.62
427.33	3960.19
427.52	3833.80
427.71	3868.91
427.90	4023.38
428.09	3927.42
428.28	3992.95
428.46	4070.19
428.65	3927.42
428.84	4058.49
429.03	4112.32
429.22	4065.51
429.40	3960.19
429.59	4081.89
429.78	3967.21
429.97	4044.45
430.16	4018.70
430.34	4107.64
430.53	4201.26
430.72	4201.26
430.91	4074.87
431.10	4189.56
431.28	4227.01
431.47	4248.07
431.66	4325.31
431.85	4315.95
432.03	4423.61
432.22	4402.55
432.41	4360.42
432.60	4674.05
432.79	4521.92
432.97	4428.29
433.16	4550.00
433.35	4440.00
433.54	4557.02
433.72	4547.66
433.91	4468.08
434.10	4587.45
434.28	4692.77
434.47	4770.01
434.66	4606.17
434.85	4629.58
435.03	4748.95
435.22	5100.03
435.41	5165.56
435.59	5158.54
435.78	4980.66
435.97	4966.62
436.16	4898.74
436.34	4746.61
436.53	4809.80
436.72	4954.91
436.90	4842.57
437.09	4985.34
437.28	4795.76
437.46	5097.69
437.65	4975.98
437.84	5008.75
438.02	5153.86
438.21	5034.49
438.40	5015.77
438.58	5060.24
438.77	5280.25
438.96	5146.84
439.14	5301.31
439.33	5376.21
439.52	5425.36
439.70	5366.85
439.89	5577.50
440.08	5408.98
440.26	5502.60
440.45	5554.09
440.63	5788.14
440.82	5666.44
441.01	5654.73
441.19	5605.58
441.38	5809.21
441.57	5818.57
441.75	5867.72
441.94	5987.09
442.12	5921.56
442.31	5937.94
442.50	5959.00
442.68	5832.62
442.87	5975.39
443.05	6188.38
443.24	6052.63
443.43	5914.53
443.61	6160.29
443.80	6424.77
443.98	6033.90
444.17	6043.26
444.35	6256.25
444.54	6218.80
444.73	6195.40
444.91	6340.51
445.10	6221.14
445.28	6202.42
445.47	6085.39
445.65	6272.64
445.84	6150.93
446.02	6218.80
446.21	6282.00
446.39	6164.97
446.58	6445.84
446.77	6431.79
446.95	6300.72
447.14	6291.36
447.32	6289.02
447.51	6349.87
447.69	6413.07
447.88	6384.98
448.06	6289.02
448.25	6195.40
448.43	6469.24
448.62	6471.58
448.80	6286.68
448.99	6363.92
449.17	6516.05
449.36	6551.16
449.54	6586.27
449.73	6651.80
449.91	6494.99
450.10	6642.44
450.28	6663.51
450.46	6780.53
450.65	6640.10
450.83	6796.92
451.02	6733.72
451.20	6743.08
451.39	7002.88
451.57	6717.34
451.76	6822.66
451.94	6925.65
452.13	6867.13
452.31	6911.60
452.49	6789.89
452.68	6829.68
452.86	6986.50
453.05	6984.16
453.23	7023.95
453.42	6951.39
453.60	6927.99
453.78	7007.56
453.97	6876.49
454.15	6960.75
454.34	7164.38
454.52	7047.35
454.70	7136.29
454.89	7194.81
455.07	7176.08
455.26	7288.43
455.44	7295.45
455.62	7325.88
455.81	7288.43
455.99	7330.56
456.17	7470.99
456.36	7342.26
456.54	7627.81
456.73	7555.25
456.91	7742.49
457.09	7683.98
457.28	7676.96
457.46	7641.85
457.64	8039.74
457.83	7756.54
458.01	7573.97
458.19	7927.39
458.38	7730.79
458.56	7880.58
458.74	7915.69
458.93	7803.35
459.11	8002.29
459.29	7866.54
459.48	7983.57
459.66	8060.80
459.84	8135.70
460.03	8149.75
460.21	8053.78
460.39	8128.68
460.57	8107.62
460.76	8248.05
460.94	8351.03
461.12	8238.69
461.31	8203.58
461.49	8290.18
461.67	8292.52
461.85	8500.83
462.04	8390.82
462.22	8695.09
462.40	8418.91
462.59	8395.50
462.77	8353.37
462.95	8456.36
463.13	8524.23
463.32	8472.74
463.50	8465.72
463.68	8472.74
463.86	8674.03
464.05	8386.14
464.23	8601.47
464.41	8922.12
464.59	8411.89
464.78	8622.53
464.96	8706.79
465.14	8629.56
465.32	8760.63
465.50	8861.27
465.69	9111.71
465.87	8994.68
466.05	8816.80
466.23	8685.73
466.41	8933.82
466.60	9111.71
466.78	8990.00
466.96	8947.87
467.14	8816.80
467.32	9118.73
467.51	9289.59
467.69	8940.85
467.87	9172.56
468.05	9011.06
468.23	9233.41
468.41	8957.23
468.60	9137.45
468.78	9458.10
468.96	9231.07
469.14	9153.84
469.32	9350.44
469.50	9334.06
469.69	9376.19
469.87	9458.10
470.05	9486.19
470.23	9687.48
470.41	9596.20
470.59	9675.77
470.77	9673.43
470.95	9783.44
471.14	9626.62
471.32	9624.28
471.50	9844.29
471.68	9933.23
471.86	9877.06
472.04	9645.35
472.22	10171.97
472.40	9984.73
472.58	10122.82
472.77	10057.28
472.95	10204.74
473.13	10466.88
473.31	10246.87
473.49	10160.27
473.67	10272.61
473.85	10310.06
474.03	10427.09
474.21	10516.03
474.39	10778.17
474.57	10789.87
474.75	11056.69
474.93	11047.33
475.12	10724.33
475.30	10881.15
475.48	10710.29
475.66	11026.26
475.84	11014.56
476.02	11171.38
476.20	11087.12
476.38	11281.38
476.56	11646.51
476.74	11569.27
476.92	11377.34
477.10	11576.29
477.28	11751.83
477.46	11580.97
477.64	11747.15
477.82	11971.84
478.00	12336.96
478.18	12145.04
478.36	12149.72
478.54	12215.26
478.72	12620.17
478.90	12252.70
479.08	12510.16
479.26	12741.88
479.44	12919.76
479.62	12765.28
479.80	12894.01
479.98	12994.65
480.16	12980.61
480.34	13165.51
480.52	13376.16
480.70	13263.82
480.88	13312.97
481.06	13432.33
481.24	13420.63
481.41	13525.96
481.59	13895.76
481.77	14026.83
481.95	14083.00
482.13	14054.92
482.31	14106.41
482.49	14637.71
482.67	14511.32
482.85	14569.83
483.03	14897.51
483.21	15080.07
483.39	15023.90
483.57	15180.71
483.74	15117.52
483.92	15351.57
484.10	15288.38
484.28	15660.52
484.46	15894.58
484.64	16032.67
484.82	15992.88
485.00	15978.84
485.18	16119.27
485.35	16542.91
485.53	16627.17
485.71	16332.26
485.89	16821.43
486.07	16837.81
486.25	16903.35
486.43	16912.71
486.61	17326.99
486.78	17027.40
486.96	17303.58
487.14	17565.72
487.32	17755.30
487.50	17844.24
487.68	17942.55
487.85	18209.37
488.03	18293.63
488.21	18651.73
488.39	18696.20
488.57	18663.43
488.75	18597.90
488.92	19021.53
489.10	19197.07
489.28	19246.23
489.46	19648.80
489.64	19529.43
489.81	19847.74
489.99	19414.74
490.17	19740.08
490.35	20119.24
490.53	20098.18
490.70	20264.36
490.88	20105.20
491.06	20453.94
491.24	20744.17
491.41	20844.81
491.59	20945.45
491.77	20767.57
491.95	21034.39
492.13	21294.19
492.30	21357.39
492.48	21373.77
492.66	21476.76
492.84	21682.72
493.01	22115.72
493.19	21664.00
493.37	22218.71
493.54	22363.82
493.72	22480.85
493.90	22670.43
494.08	22607.23
494.25	22876.40
494.43	23175.98
494.61	22813.20
494.79	23164.28
494.96	22927.89
495.14	23260.24
495.32	23747.08
495.49	23543.45
495.67	23562.17
495.85	23807.93
496.02	24332.21
496.20	24219.86
496.38	24030.28
496.55	24161.35
496.73	25048.41
496.91	24992.24
497.09	24769.89
497.26	24884.58
497.44	25048.41
497.62	25172.46
497.79	25223.95
497.97	25717.81
498.14	25411.20
498.32	25771.64
498.50	25680.36
498.67	25900.37
498.85	25860.58
499.03	25935.48
499.20	26036.12
499.38	26050.16
499.56	26359.11
499.73	26405.92
499.91	26658.70
500.08	26937.23
500.26	26228.04
500.44	26579.12
500.61	26932.54
500.79	27091.70
500.97	27407.67
501.14	27608.96
501.32	27215.75
501.49	27332.78
501.67	27840.67
501.84	27599.60
502.02	27426.40
502.20	27981.10
502.37	27997.49
502.55	27924.93
502.72	28357.93
502.90	28123.88
503.07	28102.81
503.25	28112.17
503.43	28299.42
503.60	28664.54
503.78	28524.11
503.95	28706.67
504.13	28641.14
504.30	28800.29
504.48	28563.90
504.65	28774.55
504.83	29205.20
505.01	29551.60
505.18	29460.32
505.36	29340.96
505.53	29614.80
505.71	29685.01
505.88	29654.59
506.06	29275.42
506.23	29848.85
506.41	29848.85
506.58	29947.15
506.76	29954.18
506.93	30155.46
507.11	30195.25
507.28	30162.48
507.46	30394.20
507.63	30199.93
507.81	30752.30
507.98	30167.16
508.16	30696.13
508.33	30625.91
508.50	30902.09
508.68	30911.46
508.85	31552.76
509.03	30888.05
509.20	31281.26
509.38	31744.69
509.55	31477.86
509.73	31604.25
509.90	31665.11
510.08	31243.81
510.25	31461.48
510.42	31878.10
510.60	32121.51
510.77	32353.23
510.95	32479.61
511.12	31854.69
511.30	32147.26
511.47	32397.70
511.64	32610.68
511.82	32723.03
511.99	32645.79
512.17	32570.90
512.34	32549.83
512.51	33031.98
512.69	33163.05
512.86	33057.73
513.04	33467.32
513.21	33436.89
513.38	33535.20
513.56	33418.17
513.73	33357.32
513.90	33322.21
514.08	33081.13
514.25	33502.43
514.43	34036.07
514.60	34108.63
514.77	33640.52
514.95	34417.58
515.12	33961.17
515.29	34059.48
515.47	34356.72
515.64	34426.94
515.81	34501.84
515.99	34497.16
516.16	34724.19
516.33	34740.57
516.51	34883.34
516.68	34782.70
516.85	34675.04
517.03	35016.75
517.20	35365.49
517.37	35182.93
517.54	35185.27
517.72	35613.59
517.89	35431.03
518.06	34927.81
518.24	35353.79
518.41	35110.38
518.58	35814.88
518.75	35564.44
518.93	35627.63
519.10	35805.52
519.27	35805.52
519.45	35592.53
519.62	36126.17
519.79	36247.88
519.96	36442.14
520.14	36481.93
520.31	36191.70
520.48	36793.22
520.65	36582.57
520.83	36470.23
521.00	36229.15
521.17	36212.77
521.34	36627.04
521.52	36790.88
521.69	36715.98
521.86	37280.05
522.03	37188.77
522.20	37179.41
522.38	37036.64
522.55	37273.03
522.72	37163.03
522.89	37137.28
523.07	37738.80
523.24	37390.06
523.41	37827.74
523.58	37549.21
523.75	38110.94
523.92	37443.89
524.10	38258.40
524.27	38117.96
524.44	38075.84
524.61	38157.75
524.78	38363.72
524.96	38249.03
525.13	38000.94
525.30	38403.51
525.47	38174.14
525.64	38122.65
525.81	38562.67
525.98	38937.15
526.16	38672.67
526.33	39119.71
526.50	38951.20
526.67	38838.85
526.84	38836.51
527.01	38766.29
527.18	38988.64
527.36	39292.91
527.53	38946.51
527.70	39709.53
527.87	39234.40
528.04	39126.74
528.21	39433.35
528.38	39058.86
528.55	39805.49
528.72	39524.63
528.89	40084.01
529.07	39779.74
529.24	39292.91
529.41	40023.16
529.58	40002.10
529.75	39466.11
529.92	39416.96
530.09	39978.69
530.26	39971.67
530.43	40140.19
530.60	40006.78
530.77	40259.55
530.94	40582.55
531.11	39957.63
531.28	40374.24
531.46	40713.62
531.63	40397.65
531.80	40350.84
531.97	40697.24
532.14	40835.33
532.31	40708.94
532.48	40776.81
532.65	40882.14
532.82	40666.81
532.99	40884.48
533.16	40966.40
533.33	41043.63
533.50	41106.83
533.67	41254.28
533.84	41120.87
534.01	41109.17
534.18	40678.51
534.35	41455.57
534.52	41291.73
534.69	41546.85
534.86	41659.20
535.03	41478.97
535.20	41336.20
535.37	41495.36
535.54	41956.44
535.71	41221.52
535.88	41567.91
536.05	41911.97
536.22	41626.43
536.38	41879.21
536.55	42134.32
536.72	41851.12
536.89	41769.20
537.06	41799.63
537.23	42195.18
537.40	42007.94
537.57	42408.17
537.74	42256.03
537.91	42462.00
538.08	42803.72
538.25	42181.13
538.42	42815.42
538.59	42759.25
538.75	42213.90
538.92	42462.00
539.09	42583.71
539.26	42616.47
539.43	42848.19
539.60	43096.28
539.77	42810.74
539.94	42981.60
540.11	43129.05
540.28	43002.66
540.44	43035.43
540.61	43058.84
540.78	43079.90
540.95	43217.99
541.12	43428.64
541.29	43742.27
541.46	43335.02
541.62	43290.55
541.79	43473.11
541.96	43693.12
542.13	43468.43
542.30	43742.27
542.47	44048.88
542.63	44051.22
542.80	43990.37
542.97	44306.34
543.14	44196.34
543.31	44367.20
543.48	44163.57
543.64	44587.21
543.81	44421.03
543.98	44044.20
544.15	44547.42
544.32	44395.28
544.48	45038.93
544.65	44428.05
544.82	44428.05
544.99	44126.12
545.16	44781.47
545.32	44425.71
545.49	45081.06
545.66	45507.04
545.83	45584.27
546.00	45900.25
546.16	45415.76
546.33	44854.03
546.50	44301.66
546.67	44666.78
546.83	44238.47
547.00	44769.77
547.17	44617.63
547.34	44847.00
547.50	44741.68
547.67	45256.60
547.84	44854.03
548.00	45198.09
548.17	44863.39
548.34	44741.68
548.51	45153.62
548.67	45244.90
548.84	45462.57
549.01	45418.10
549.18	45537.46
549.34	45455.54
549.51	45420.44
549.68	45064.67
549.84	45235.53
550.01	45488.31
550.18	45434.48
550.34	45504.70
550.51	45280.00
550.68	45385.33
550.84	45125.53
551.01	45588.95
551.18	45326.81
551.34	44954.67
551.51	45394.69
551.68	45617.04
551.84	46333.24
552.01	45858.12
552.18	45808.96
552.34	45553.85
552.51	46176.43
552.68	45680.24
552.84	45694.28
553.01	45741.09
553.18	45984.51
553.34	46234.94
553.51	45911.95
553.67	46433.89
553.84	46344.95
554.01	46136.64
554.17	46073.45
554.34	46143.66
554.51	45750.45
554.67	46373.03
554.84	46064.08
555.00	46438.57
555.17	45965.78
555.33	46117.92
555.50	46487.72
555.67	46223.24
555.83	46148.34
556.00	46380.06
556.16	46761.56
556.33	46232.60
556.50	46469.00
556.66	46454.95
556.83	46284.09
556.99	46862.21
557.16	46855.18
557.32	46799.01
557.49	46616.45
557.65	46082.81
557.82	46314.52
557.98	46583.68
558.15	46403.46
558.32	47105.62
558.48	46609.43
558.65	47002.64
558.81	46799.01
558.98	46925.40
559.14	46698.37
559.31	46944.12
559.47	46930.08
559.64	46653.90
559.80	46920.72
559.97	46911.36
560.13	46391.76
560.30	46417.50
560.46	47157.11
560.63	46817.74
560.79	46787.31
560.96	47168.82
561.12	46693.69
561.29	47026.04
561.45	46930.08
561.61	46560.28
561.78	47306.91
561.94	47445.00
562.11	47285.84
562.27	47119.66
562.44	47103.28
562.60	46869.23
562.77	47192.22
562.93	46862.21
563.10	47435.64
563.26	46768.58
563.42	47161.79
563.59	47323.29
563.75	47012.00
563.92	47023.70
564.08	46845.82
564.24	47040.09
564.41	47552.66
564.57	47075.19
564.74	47065.83
564.90	47466.06
565.07	47171.16
565.23	46904.34
565.39	47283.50
565.56	47210.95
565.72	47213.29
565.88	47061.15
566.05	47325.63
566.21	47257.76
566.38	47105.62
566.54	47445.00
566.70	47620.54
566.87	47756.29
567.03	47262.44
567.19	47885.02
567.36	47168.82
567.52	47529.26
567.68	47222.65
567.85	46665.60
568.01	47037.75
568.17	47426.28
568.34	47241.37
568.50	47477.77
568.66	47625.22
568.83	47402.87
568.99	47138.39
569.15	47318.61
569.32	47461.38
569.48	47241.37
569.64	47430.96
569.81	47466.06
569.97	47723.52
570.13	47433.30
570.30	47445.00
570.46	47688.42
570.62	47299.89
570.78	47311.59
570.95	47239.03
571.11	47452.02
571.27	46946.47
571.43	47044.77
571.60	47227.33
571.76	47496.49
571.92	47594.79
572.09	47522.24
572.25	47597.13
572.41	47657.99
572.57	47480.11
572.74	47585.43
572.90	47491.81
573.06	47543.30
573.22	47594.79
573.38	47767.99
573.55	47618.20
573.71	48098.01
573.87	47840.55
574.03	47697.78
574.20	47459.04
574.36	47159.45
574.52	47742.25
574.68	47437.98
574.84	48041.84
575.01	47613.52
575.17	47828.85
575.33	47531.60
575.49	47290.52
575.65	47980.98
575.82	47859.27
575.98	47311.59
576.14	47735.23
576.30	47370.10
576.46	47505.85
576.62	47714.16
576.79	47508.19
576.95	47824.17
577.11	47704.80
577.27	47679.05
577.43	47999.71
577.59	47742.25
577.75	47622.88
577.92	47501.17
578.08	47224.99
578.24	47250.74
578.40	47395.85
578.56	47854.59
578.72	47725.86
578.88	48287.59
579.04	48109.71
579.21	47760.97
579.37	48044.18
579.53	47796.08
579.69	47648.63
579.85	47564.37
580.01	47721.18
580.17	47707.14
580.33	47955.24
580.49	47466.06
580.65	47693.10
580.82	48315.68
580.98	47777.36
581.14	47842.89
581.30	47838.21
581.46	47515.22
581.62	47311.59
581.78	47075.19
581.94	47566.71
582.10	47583.09
582.26	47711.82
582.42	47646.29
582.58	47650.97
582.74	47625.22
582.90	47817.14
583.06	47679.05
583.22	47861.61
583.38	47547.98
583.54	47702.46
583.70	47416.91
583.86	47962.26
584.02	47292.86
584.18	48130.78
584.34	48123.75
584.50	47555.00
584.66	47737.57
584.82	47882.68
584.98	47847.57
585.14	47992.68
585.30	47746.93
585.46	47742.25
585.62	47239.03
585.78	47866.30
585.94	47697.78
586.10	47629.90
586.26	47519.90
586.42	47665.01
586.58	47878.00
586.74	47906.08
586.90	47569.05
587.06	47243.71
587.22	48364.83
587.38	47749.27
587.54	47906.08
587.70	48275.89
587.86	47859.27
588.02	47969.28
588.18	48039.50
588.34	47636.92
588.49	47522.24
588.65	47334.99
588.81	47618.20
588.97	47590.11
589.13	47952.90
589.29	47681.39
589.45	47620.54
589.61	48287.59
589.77	48046.52
589.93	48399.94
590.08	48060.56
590.24	48140.14
590.40	47786.72
