SpectraSuite Data File
++++++++++++++++++++++++++++++++++++
Date: Fri Oct 04 11:40:04 GMT-05:00 2013
User: price-jones
Dark Spectrum Present: No
Reference Spectrum Present: No
Number of Sampled Component Spectra: 1
Spectrometers: USB2+H05261
Integration Time (usec): 100000 (USB2+H05261)
Spectra Averaged: 1 (USB2+H05261)
Boxcar Smoothing: 0 (USB2+H05261)
Correct for Electrical Dark: No (USB2+H05261)
Strobe/Lamp Enabled: No (USB2+H05261)
Correct for Detector Non-linearity: No (USB2+H05261)
Correct for Stray Light: No (USB2+H05261)
Number of Pixels in Processed Spectrum: 2048
>>>>>Begin Processed Spectral Data<<<<<
365.73	56.17
365.92	56.17
366.12	56.17
366.32	0.00
366.52	0.00
366.72	16.38
366.91	0.00
367.11	0.00
367.31	0.00
367.51	0.00
367.70	0.00
367.90	0.00
368.10	0.00
368.30	0.00
368.49	0.00
368.69	0.00
368.89	0.00
369.09	0.00
369.28	0.00
369.48	9.36
369.68	0.00
369.87	16.38
370.07	0.00
370.27	30.43
370.47	56.17
370.66	0.00
370.86	23.41
371.06	91.28
371.25	114.69
371.45	14.04
371.65	53.83
371.84	67.88
372.04	74.90
372.24	77.24
372.44	119.37
372.63	0.00
372.83	149.79
373.03	140.43
373.22	121.71
373.42	63.19
373.62	175.54
373.81	112.35
374.01	112.35
374.21	121.71
374.40	72.56
374.60	93.62
374.79	128.73
374.99	79.58
375.19	145.11
375.38	128.73
375.58	110.01
375.78	154.48
375.97	135.75
376.17	114.69
376.37	56.17
376.56	93.62
376.76	105.32
376.95	147.45
377.15	177.88
377.35	124.05
377.54	105.32
377.74	128.73
377.93	93.62
378.13	126.39
378.33	100.64
378.52	86.60
378.72	121.71
378.91	67.88
379.11	140.43
379.31	100.64
379.50	49.15
379.70	128.73
379.89	131.07
380.09	117.03
380.28	65.54
380.48	93.62
380.68	117.03
380.87	79.58
381.07	107.66
381.26	161.50
381.46	140.43
381.65	161.50
381.85	107.66
382.04	105.32
382.24	173.20
382.43	133.41
382.63	102.98
382.83	114.69
383.02	138.09
383.22	156.82
383.41	138.09
383.61	112.35
383.80	112.35
384.00	93.62
384.19	140.43
384.39	142.77
384.58	159.16
384.78	77.24
384.97	114.69
385.17	189.58
385.36	95.96
385.56	156.82
385.75	110.01
385.95	191.92
386.14	56.17
386.34	91.28
386.53	79.58
386.72	107.66
386.92	180.22
387.11	124.05
387.31	142.77
387.50	74.90
387.70	95.96
387.89	93.62
388.09	119.37
388.28	72.56
388.48	86.60
388.67	196.60
388.86	133.41
389.06	117.03
389.25	100.64
389.45	93.62
389.64	156.82
389.84	102.98
390.03	91.28
390.22	84.26
390.42	191.92
390.61	53.83
390.81	114.69
391.00	166.18
391.19	128.73
391.39	79.58
391.58	201.29
391.78	168.52
391.97	119.37
392.16	138.09
392.36	201.29
392.55	114.69
392.75	112.35
392.94	105.32
393.13	152.13
393.33	154.48
393.52	56.17
393.71	177.88
393.91	126.39
394.10	91.28
394.29	119.37
394.49	105.32
394.68	159.16
394.88	93.62
395.07	208.31
395.26	140.43
395.46	208.31
395.65	166.18
395.84	86.60
396.04	210.65
396.23	152.13
396.42	58.51
396.62	84.26
396.81	135.75
397.00	133.41
397.19	81.92
397.39	217.67
397.58	187.24
397.77	119.37
397.97	224.69
398.16	100.64
398.35	243.42
398.55	107.66
398.74	107.66
398.93	201.29
399.12	149.79
399.32	124.05
399.51	138.09
399.70	175.54
399.90	140.43
400.09	152.13
400.28	154.48
400.47	112.35
400.67	138.09
400.86	154.48
401.05	135.75
401.24	166.18
401.44	107.66
401.63	147.45
401.82	86.60
402.01	133.41
402.21	231.71
402.40	170.86
402.59	156.82
402.78	110.01
402.97	74.90
403.17	145.11
403.36	152.13
403.55	201.29
403.74	168.52
403.93	198.95
404.13	264.48
404.32	238.73
404.51	201.29
404.70	166.18
404.89	159.16
405.09	198.95
405.28	217.67
405.47	191.92
405.66	205.97
405.85	72.56
406.05	102.98
406.24	128.73
406.43	156.82
406.62	147.45
406.81	182.56
407.00	189.58
407.20	201.29
407.39	159.16
407.58	231.71
407.77	208.31
407.96	182.56
408.15	119.37
408.34	159.16
408.54	194.26
408.73	163.84
408.92	95.96
409.11	243.42
409.30	208.31
409.49	201.29
409.68	149.79
409.87	227.03
410.07	149.79
410.26	198.95
410.45	187.24
410.64	149.79
410.83	222.35
411.02	198.95
411.21	126.39
411.40	229.37
411.59	149.79
411.78	238.73
411.98	107.66
412.17	210.65
412.36	138.09
412.55	175.54
412.74	271.50
412.93	198.95
413.12	159.16
413.31	203.63
413.50	177.88
413.69	145.11
413.88	203.63
414.07	222.35
414.26	198.95
414.45	98.30
414.64	159.16
414.83	201.29
415.02	241.08
415.22	238.73
415.41	201.29
415.60	224.69
415.79	166.18
415.98	308.95
416.17	147.45
416.36	170.86
416.55	276.18
416.74	238.73
416.93	290.23
417.12	189.58
417.31	168.52
417.50	229.37
417.69	269.16
417.88	217.67
418.07	276.18
418.26	159.16
418.45	236.39
418.64	229.37
418.83	271.50
419.02	259.80
419.21	252.78
419.39	266.82
419.58	196.60
419.77	198.95
419.96	236.39
420.15	276.18
420.34	217.67
420.53	236.39
420.72	276.18
420.91	262.14
421.10	236.39
421.29	210.65
421.48	180.22
421.67	227.03
421.86	212.99
422.05	243.42
422.24	262.14
422.43	255.12
422.61	259.80
422.80	280.86
422.99	241.08
423.18	252.78
423.37	304.27
423.56	287.89
423.75	290.23
423.94	283.20
424.13	250.44
424.32	227.03
424.50	304.27
424.69	294.91
424.88	304.27
425.07	241.08
425.26	231.71
425.45	308.95
425.64	259.80
425.83	229.37
426.01	327.68
426.20	311.29
426.39	318.31
426.58	222.35
426.77	313.63
426.96	304.27
427.15	327.68
427.33	238.73
427.52	285.55
427.71	280.86
427.90	243.42
428.09	294.91
428.28	210.65
428.46	243.42
428.65	217.67
428.84	264.48
429.03	229.37
429.22	215.33
429.40	339.38
429.59	205.97
429.78	315.97
429.97	315.97
430.16	320.65
430.34	332.36
430.53	278.52
430.72	227.03
430.91	301.93
431.10	227.03
431.28	266.82
431.47	266.82
431.66	334.70
431.85	227.03
432.03	264.48
432.22	386.19
432.41	280.86
432.60	308.95
432.79	318.31
432.97	339.38
433.16	294.91
433.35	299.59
433.54	224.69
433.72	351.08
433.91	283.20
434.10	266.82
434.28	262.14
434.47	276.18
434.66	264.48
434.85	283.20
435.03	402.57
435.22	695.14
435.41	1179.63
435.59	1240.48
435.78	959.62
435.97	543.00
436.16	437.68
436.34	360.44
436.53	320.65
436.72	271.50
436.90	271.50
437.09	341.72
437.28	308.95
437.46	306.61
437.65	304.27
437.84	358.10
438.02	379.17
438.21	306.61
438.40	290.23
438.58	337.04
438.77	315.97
438.96	344.06
439.14	351.08
439.33	325.33
439.52	334.70
439.70	362.78
439.89	276.18
440.08	400.23
440.26	332.36
440.45	353.42
440.63	374.49
440.82	379.17
441.01	278.52
441.19	348.74
441.38	379.17
441.57	353.42
441.75	390.87
441.94	402.57
442.12	435.34
442.31	360.44
442.50	346.40
442.68	369.80
442.87	355.76
443.05	414.27
443.24	341.72
443.43	395.55
443.61	397.89
443.80	292.57
443.98	320.65
444.17	332.36
444.35	437.68
444.54	353.42
444.73	374.49
444.91	393.21
445.10	318.31
445.28	404.91
445.47	306.61
445.65	369.80
445.84	334.70
446.02	341.72
446.21	374.49
446.39	332.36
446.58	355.76
446.77	346.40
446.95	369.80
447.14	318.31
447.32	341.72
447.51	421.30
447.69	411.93
447.88	404.91
448.06	395.55
448.25	388.53
448.43	325.33
448.62	304.27
448.80	351.08
448.99	428.32
449.17	330.02
449.36	407.25
449.54	334.70
449.73	337.04
449.91	468.11
450.10	322.99
450.28	519.60
450.46	390.87
450.65	369.80
450.83	418.96
451.02	411.93
451.20	390.87
451.39	355.76
451.57	404.91
451.76	355.76
451.94	409.59
452.13	386.19
452.31	369.80
452.49	372.15
452.68	381.51
452.86	379.17
453.05	433.00
453.23	416.62
453.42	369.80
453.60	374.49
453.78	402.57
453.97	355.76
454.15	404.91
454.34	390.87
454.52	400.23
454.70	449.38
454.89	444.70
455.07	409.59
455.26	411.93
455.44	423.64
455.62	442.36
455.81	404.91
455.99	360.44
456.17	348.74
456.36	369.80
456.54	381.51
456.73	404.91
456.91	381.51
457.09	341.72
457.28	409.59
457.46	428.32
457.64	402.57
457.83	454.06
458.01	411.93
458.19	421.30
458.38	365.12
458.56	428.32
458.74	395.55
458.93	409.59
459.11	334.70
459.29	449.38
459.48	400.23
459.66	425.98
459.84	465.77
460.03	498.53
460.21	388.53
460.39	437.68
460.57	505.56
460.76	507.90
460.94	386.19
461.12	461.09
461.31	440.02
461.49	418.96
461.67	390.87
461.85	416.62
462.04	435.34
462.22	917.49
462.40	463.43
462.59	505.56
462.77	365.12
462.95	386.19
463.13	390.87
463.32	409.59
463.50	404.91
463.68	414.27
463.86	433.00
464.05	418.96
464.23	395.55
464.41	444.70
464.59	472.79
464.78	421.30
464.96	400.23
465.14	454.06
465.32	442.36
465.50	418.96
465.69	454.06
465.87	383.85
466.05	416.62
466.23	400.23
466.41	362.78
466.60	437.68
466.78	484.49
466.96	491.51
467.14	472.79
467.32	524.28
467.51	421.30
467.69	393.21
467.87	533.64
468.05	505.56
468.23	470.45
468.41	395.55
468.60	418.96
468.78	411.93
468.96	447.04
469.14	489.17
469.32	470.45
469.50	365.12
469.69	390.87
469.87	512.58
470.05	486.83
470.23	425.98
470.41	468.11
470.59	468.11
470.77	482.15
470.95	472.79
471.14	489.17
471.32	477.47
471.50	458.74
471.68	430.66
471.86	510.24
472.04	486.83
472.22	538.32
472.40	484.49
472.58	514.92
472.77	425.98
472.95	491.51
473.13	550.03
473.31	535.98
473.49	402.57
473.67	456.40
473.85	550.03
474.03	580.45
474.21	489.17
474.39	615.56
474.57	575.77
474.75	512.58
474.93	528.96
475.12	458.74
475.30	540.66
475.48	528.96
475.66	507.90
475.84	559.39
476.02	491.51
476.20	505.56
476.38	498.53
476.56	550.03
476.74	552.37
476.92	568.75
477.10	510.24
477.28	594.50
477.46	500.87
477.64	554.71
477.82	585.13
478.00	545.34
478.18	596.84
478.36	599.18
478.54	493.85
478.72	603.86
478.90	559.39
479.08	550.03
479.26	543.00
479.44	512.58
479.62	514.92
479.80	594.50
479.98	524.28
480.16	641.31
480.34	690.46
480.52	613.22
480.70	624.92
480.88	559.39
481.06	587.47
481.24	620.24
481.41	617.90
481.59	587.47
481.77	636.63
481.95	571.09
482.13	755.99
482.31	636.63
482.49	608.54
482.67	645.99
482.85	699.82
483.03	716.20
483.21	629.60
483.39	596.84
483.57	692.80
483.74	751.31
483.92	732.59
484.10	688.12
484.28	753.65
484.46	830.89
484.64	753.65
484.82	734.93
485.00	765.36
485.18	793.44
485.35	763.01
485.53	678.76
485.71	828.55
485.89	791.10
486.07	758.33
486.25	858.98
486.43	748.97
486.61	868.34
486.78	880.04
486.96	819.19
487.14	814.51
487.32	809.83
487.50	887.06
487.68	936.21
487.85	854.30
488.03	894.08
488.21	877.70
488.39	807.48
488.57	807.48
488.75	966.64
488.92	1142.18
489.10	873.02
489.28	938.55
489.46	758.33
489.64	882.38
489.81	765.36
489.99	891.74
490.17	924.51
490.35	898.77
490.53	943.24
490.70	954.94
490.88	870.68
491.06	931.53
491.24	854.30
491.41	891.74
491.59	936.21
491.77	894.08
491.95	992.39
492.13	905.79
492.30	903.45
492.48	903.45
492.66	959.62
492.84	968.98
493.01	924.51
493.19	940.90
493.37	1018.13
493.54	978.34
493.72	997.07
493.90	992.39
494.08	882.38
494.25	950.26
494.43	1027.50
494.61	940.90
494.79	901.11
494.96	917.49
495.14	901.11
495.32	931.53
495.49	1008.77
495.67	1043.88
495.85	1046.22
496.02	1032.18
496.20	987.71
496.38	938.55
496.55	957.28
496.73	971.32
496.91	971.32
497.09	1114.10
497.26	1064.94
497.44	1001.75
497.62	924.51
497.79	1001.75
497.97	1062.60
498.14	983.02
498.32	1041.54
498.50	973.66
498.67	976.00
498.85	957.28
499.03	985.37
499.20	1069.62
499.38	1027.50
499.56	1041.54
499.73	1097.71
499.91	1055.58
500.08	1034.52
500.26	1011.11
500.44	985.37
500.61	1081.33
500.79	957.28
500.97	1097.71
501.14	1029.84
501.32	1076.65
501.49	1076.65
501.67	1050.90
501.84	1100.05
502.02	1004.09
502.20	1022.81
502.37	1015.79
502.55	1083.67
502.72	961.96
502.90	1032.18
503.07	1043.88
503.25	1057.92
503.43	1022.81
503.60	1025.15
503.78	1006.43
503.95	1109.41
504.13	1100.05
504.30	1139.84
504.48	1043.88
504.65	1090.69
504.83	1184.31
505.01	1048.56
505.18	1074.31
505.36	1179.63
505.53	1102.39
505.71	1121.12
505.88	1116.44
506.06	1015.79
506.23	1057.92
506.41	1160.91
506.58	1160.91
506.76	1191.33
506.93	1062.60
507.11	1086.01
507.28	1158.57
507.46	1114.10
507.63	1156.22
507.81	1114.10
507.98	1132.82
508.16	1188.99
508.33	1184.31
508.50	1125.80
508.68	1205.38
508.85	1188.99
509.03	1121.12
509.20	1118.78
509.38	1224.10
509.55	1142.18
509.73	1191.33
509.90	1179.63
510.08	1151.54
510.25	1238.14
510.42	1252.19
510.60	1233.46
510.77	1170.27
510.95	1142.18
511.12	1203.04
511.30	1193.67
511.47	1130.48
511.64	1174.95
511.82	1158.57
511.99	1226.44
512.17	1207.72
512.34	1217.08
512.51	1177.29
512.69	1170.27
512.86	1329.42
513.04	1205.38
513.21	1249.85
513.38	1149.20
513.56	1247.51
513.73	1170.27
513.90	1270.91
514.08	1200.69
514.25	1275.59
514.43	1170.27
514.60	1245.16
514.77	1221.76
514.95	1275.59
515.12	1174.95
515.29	1226.44
515.47	1291.98
515.64	1289.64
515.81	1259.21
515.99	1270.91
516.16	1240.48
516.33	1329.42
516.51	1275.59
516.68	1263.89
516.85	1240.48
517.03	1355.17
517.20	1320.06
517.37	1191.33
517.54	1221.76
517.72	1221.76
517.89	1224.10
518.06	1228.78
518.24	1284.95
518.41	1313.04
518.58	1242.82
518.75	1238.14
518.93	1317.72
519.10	1240.48
519.27	1259.21
519.45	1369.21
519.62	1310.70
519.79	1310.70
519.96	1291.98
520.14	1313.04
520.31	1299.00
520.48	1313.04
520.65	1310.70
520.83	1313.04
521.00	1387.94
521.17	1359.85
521.34	1327.08
521.52	1303.68
521.69	1350.49
521.86	1380.92
522.03	1425.39
522.20	1345.81
522.38	1301.34
522.55	1315.38
522.72	1315.38
522.89	1425.39
523.07	1310.70
523.24	1352.83
523.41	1385.60
523.58	1315.38
523.75	1299.00
523.92	1359.85
524.10	1277.93
524.27	1296.66
524.44	1383.26
524.61	1357.51
524.78	1352.83
524.96	1413.68
525.13	1291.98
525.30	1411.34
525.47	1451.13
525.64	1420.71
525.81	1357.51
525.98	1387.94
526.16	1409.00
526.33	1399.64
526.50	1371.55
526.67	1352.83
526.84	1289.64
527.01	1427.73
527.18	1444.11
527.36	1448.79
527.53	1348.15
527.70	1502.62
527.87	1364.53
528.04	1369.21
528.21	1439.43
528.38	1455.81
528.55	1448.79
528.72	1502.62
528.89	1439.43
529.07	1409.00
529.24	1320.06
529.41	1437.09
529.58	1397.30
529.75	1406.66
529.92	1392.62
530.09	1488.58
530.26	1462.83
530.43	1413.68
530.60	1373.89
530.77	1465.18
530.94	1376.24
531.11	1493.26
531.28	1425.39
531.46	1327.08
531.63	1357.51
531.80	1364.53
531.97	1423.05
532.14	1373.89
532.31	1413.68
532.48	1430.07
532.65	1420.71
532.82	1390.28
532.99	1497.94
533.16	1479.22
533.33	1406.66
533.50	1418.36
533.67	1495.60
533.84	1549.43
534.01	1387.94
534.18	1437.09
534.35	1455.81
534.52	1427.73
534.69	1544.75
534.86	1519.01
535.03	1483.90
535.20	1444.11
535.37	1533.05
535.54	1469.86
535.71	1493.26
535.88	1633.69
536.05	1561.14
536.22	1460.49
536.38	1586.88
536.55	1486.24
536.72	1514.33
536.89	1572.84
537.06	1556.46
537.23	1589.22
537.40	1614.97
537.57	1638.38
537.74	1523.69
537.91	1673.48
538.08	1708.59
538.25	1558.80
538.42	1561.14
538.59	1727.32
538.75	1631.35
538.92	1652.42
539.09	1776.47
539.26	1755.40
539.43	1706.25
539.60	1727.32
539.77	1778.81
539.94	1776.47
540.11	1863.07
540.28	1881.79
540.44	1961.37
540.61	1994.14
540.78	1977.75
540.95	2125.21
541.12	2183.72
541.29	2279.68
541.46	2366.28
541.62	2457.56
541.79	2354.58
541.96	2462.24
542.13	2392.03
542.30	2335.85
542.47	2462.24
542.63	2263.30
542.80	2214.15
542.97	2396.71
543.14	2300.75
543.31	2258.62
543.48	2326.49
543.64	2335.85
543.81	2282.02
543.98	2389.69
544.15	2279.68
544.32	2392.03
544.48	2356.92
544.65	2239.89
544.82	2214.15
544.99	2267.98
545.16	2249.25
545.32	2237.55
545.49	2867.16
545.66	3522.51
545.83	3997.64
546.00	3770.60
546.16	2981.84
546.33	2633.10
546.50	2286.70
546.67	2246.91
546.83	2122.87
547.00	2033.93
547.17	1973.07
547.34	1970.73
547.50	1881.79
547.67	2012.86
547.84	1877.11
548.00	1952.01
548.17	1994.14
548.34	1900.52
548.51	1935.62
548.67	1987.11
548.84	1891.15
549.01	1975.41
549.18	1865.41
549.34	1909.88
549.51	1877.11
549.68	1823.28
549.84	1762.42
550.01	1806.89
550.18	1827.96
550.34	1902.86
550.51	1823.28
550.68	1856.04
550.84	1785.83
551.01	1781.15
551.18	1720.29
551.34	1743.70
551.51	1652.42
551.68	1659.44
551.84	1781.15
552.01	1703.91
552.18	1647.74
552.34	1722.63
552.51	1790.51
552.68	1680.50
552.84	1750.72
553.01	1692.21
553.18	1769.44
553.34	1715.61
553.51	1668.80
553.67	1650.08
553.84	1687.53
554.01	1750.72
554.17	1629.01
554.34	1753.06
554.51	1657.10
554.67	1678.16
554.84	1640.72
555.00	1640.72
555.17	1652.42
555.33	1661.78
555.50	1640.72
555.67	1673.48
555.83	1547.09
556.00	1708.59
556.16	1813.92
556.33	1516.67
556.50	1680.50
556.66	1565.82
556.83	1671.14
556.99	1521.35
557.16	1619.65
557.32	1643.06
557.49	1582.20
557.65	1589.22
557.82	1624.33
557.98	1530.71
558.15	1572.84
558.32	1547.09
558.48	1629.01
558.65	1521.35
558.81	1666.46
558.98	1647.74
559.14	1671.14
559.31	1579.86
559.47	1511.99
559.64	1631.35
559.80	1762.42
559.97	1647.74
560.13	1699.23
560.30	1563.48
560.46	1570.50
560.63	1575.18
560.79	1519.01
560.96	1607.95
561.12	1640.72
561.29	1474.54
561.45	1682.85
561.61	1671.14
561.78	1631.35
561.94	1654.76
562.11	1619.65
562.27	1666.46
562.44	1570.50
562.60	1572.84
562.77	1607.95
562.93	1678.16
563.10	1603.27
563.26	1535.39
563.42	1561.14
563.59	1535.39
563.75	1657.10
563.92	1598.59
564.08	1605.61
564.24	1659.44
564.41	1603.27
564.57	1582.20
564.74	1565.82
564.90	1565.82
565.07	1528.37
565.23	1523.69
565.39	1673.48
565.56	1617.31
565.72	1530.71
565.88	1626.67
566.05	1568.16
566.21	1586.88
566.38	1577.52
566.54	1535.39
566.70	1703.91
566.87	1530.71
567.03	1624.33
567.19	1678.16
567.36	1633.69
567.52	1577.52
567.68	1680.50
567.85	1664.12
568.01	1603.27
568.17	1514.33
568.34	1521.35
568.50	1593.90
568.66	1701.57
568.83	1584.54
568.99	1607.95
569.15	1671.14
569.32	1589.22
569.48	1563.48
569.64	1586.88
569.81	1556.46
569.97	1605.61
570.13	1614.97
570.30	1486.24
570.46	1600.93
570.62	1530.71
570.78	1460.49
570.95	1549.43
571.11	1652.42
571.27	1657.10
571.43	1577.52
571.60	1610.29
571.76	1621.99
571.92	1570.50
572.09	1568.16
572.25	1591.56
572.41	1603.27
572.57	1657.10
572.74	1736.68
572.90	1614.97
573.06	1626.67
573.22	1540.07
573.38	1631.35
573.55	1596.25
573.71	1584.54
573.87	1743.70
574.03	1631.35
574.20	1591.56
574.36	1554.12
574.52	1535.39
574.68	1661.78
574.84	1533.05
575.01	1614.97
575.17	1650.08
575.33	1481.56
575.49	1659.44
575.65	1666.46
575.82	1680.50
575.98	1668.80
576.14	1572.84
576.30	1680.50
576.46	1830.30
576.62	2008.18
576.79	2071.37
576.95	1935.62
577.11	1823.28
577.27	1790.51
577.43	1727.32
577.59	1640.72
577.75	1591.56
577.92	1472.20
578.08	1680.50
578.24	1600.93
578.40	1701.57
578.56	1884.13
578.72	2045.63
578.88	1954.35
579.04	1863.07
579.21	1820.94
579.37	1717.95
579.53	1799.87
579.69	1724.97
579.85	1811.57
580.01	1905.20
580.17	1842.00
580.33	1788.17
580.49	1753.06
580.65	1774.13
580.82	1636.03
580.98	1734.34
581.14	1643.06
581.30	1727.32
581.46	1720.29
581.62	1743.70
581.78	1771.79
581.94	1757.74
582.10	1708.59
582.26	1856.04
582.42	1776.47
582.58	1708.59
582.74	1717.95
582.90	1715.61
583.06	1764.76
583.22	1783.49
583.38	1764.76
583.54	1851.36
583.70	1823.28
583.86	1792.85
584.02	1762.42
584.18	1774.13
584.34	1692.21
584.50	1767.10
584.66	1844.34
584.82	1692.21
584.98	1743.70
585.14	1727.32
585.30	1781.15
585.46	1666.46
585.62	1650.08
585.78	1685.19
585.94	1696.89
586.10	1785.83
586.26	1727.32
586.42	1811.57
586.58	1846.68
586.74	1776.47
586.90	1844.34
587.06	1952.01
587.22	1937.96
587.38	1975.41
587.54	1802.21
587.70	1823.28
587.86	1689.87
588.02	1795.19
588.18	1741.36
588.34	1591.56
588.49	1624.33
588.65	1575.18
588.81	1633.69
588.97	1603.27
589.13	1755.40
589.29	1666.46
589.45	1643.06
589.61	1678.16
589.77	1659.44
589.93	1671.14
590.08	1682.85
590.24	1675.82
590.40	1675.82
590.56	1703.91
590.72	1607.95
590.88	1774.13
591.04	1650.08
591.20	1659.44
591.35	1746.04
591.51	1736.68
591.67	1598.59
591.83	1666.46
591.99	1750.72
592.15	1724.97
592.31	1825.62
592.46	1717.95
592.62	1764.76
592.78	1755.40
592.94	1764.76
593.10	1720.29
593.26	1806.89
593.41	1806.89
593.57	1746.04
593.73	1713.27
593.89	1732.00
594.05	1610.29
594.20	1661.78
594.36	1680.50
594.52	1757.74
594.68	1654.76
594.84	1614.97
594.99	1724.97
595.15	1701.57
595.31	1577.52
595.47	1666.46
595.62	1629.01
595.78	1596.25
595.94	1544.75
596.10	1689.87
596.25	1647.74
596.41	1631.35
596.57	1612.63
596.73	1600.93
596.88	1643.06
597.04	1593.90
597.20	1600.93
597.36	1689.87
597.51	1696.89
597.67	1629.01
597.83	1680.50
597.99	1643.06
598.14	1612.63
598.30	1708.59
598.46	1673.48
598.61	1699.23
598.77	1790.51
598.93	1764.76
599.09	1657.10
599.24	1689.87
599.40	1699.23
599.56	1755.40
599.71	1666.46
599.87	1734.34
600.03	1720.29
600.18	1675.82
600.34	1717.95
600.50	1629.01
600.65	1600.93
600.81	1666.46
600.97	1619.65
601.12	1694.55
601.28	1626.67
601.44	1645.40
601.59	1607.95
601.75	1614.97
601.91	1643.06
602.06	1540.07
602.22	1736.68
602.37	1526.03
602.53	1612.63
602.69	1666.46
602.84	1621.99
603.00	1636.03
603.16	1664.12
603.31	1472.20
603.47	1617.31
603.62	1575.18
603.78	1598.59
603.94	1589.22
604.09	1549.43
