SpectraSuite Data File
++++++++++++++++++++++++++++++++++++
Date: Fri Oct 04 11:39:16 GMT-05:00 2013
User: price-jones
Dark Spectrum Present: No
Reference Spectrum Present: No
Number of Sampled Component Spectra: 1
Spectrometers: USB2+H05261
Integration Time (usec): 100000 (USB2+H05261)
Spectra Averaged: 1 (USB2+H05261)
Boxcar Smoothing: 0 (USB2+H05261)
Correct for Electrical Dark: No (USB2+H05261)
Strobe/Lamp Enabled: No (USB2+H05261)
Correct for Detector Non-linearity: No (USB2+H05261)
Correct for Stray Light: No (USB2+H05261)
Number of Pixels in Processed Spectrum: 2048
>>>>>Begin Processed Spectral Data<<<<<
365.73	84.26
365.92	84.26
366.12	84.26
366.32	0.00
366.52	0.00
366.72	0.00
366.91	0.00
367.11	0.00
367.31	0.00
367.51	0.00
367.70	0.00
367.90	28.09
368.10	0.00
368.30	0.00
368.49	0.00
368.69	0.00
368.89	0.00
369.09	0.00
369.28	0.00
369.48	0.00
369.68	0.00
369.87	0.00
370.07	14.04
370.27	21.06
370.47	100.64
370.66	243.42
370.86	245.76
371.06	236.39
371.25	315.97
371.45	196.60
371.65	306.61
371.84	248.10
372.04	252.78
372.24	273.84
372.44	283.20
372.63	278.52
372.83	433.00
373.03	334.70
373.22	311.29
373.42	304.27
373.62	325.33
373.81	341.72
374.01	416.62
374.21	369.80
374.40	346.40
374.60	320.65
374.79	365.12
374.99	283.20
375.19	322.99
375.38	442.36
375.58	397.89
375.78	388.53
375.97	341.72
376.17	372.15
376.37	381.51
376.56	351.08
376.76	327.68
376.95	456.40
377.15	358.10
377.35	369.80
377.54	318.31
377.74	444.70
377.93	407.25
378.13	407.25
378.33	407.25
378.52	416.62
378.72	395.55
378.91	421.30
379.11	383.85
379.31	428.32
379.50	510.24
379.70	514.92
379.89	468.11
380.09	435.34
380.28	374.49
380.48	440.02
380.68	472.79
380.87	386.19
381.07	433.00
381.26	489.17
381.46	458.74
381.65	437.68
381.85	477.47
382.04	463.43
382.24	500.87
382.43	526.62
382.63	505.56
382.83	479.81
383.02	493.85
383.22	512.58
383.41	514.92
383.61	468.11
383.80	444.70
384.00	444.70
384.19	559.39
384.39	547.69
384.58	458.74
384.78	437.68
384.97	552.37
385.17	503.22
385.36	547.69
385.56	475.13
385.75	540.66
385.95	552.37
386.14	510.24
386.34	414.27
386.53	543.00
386.72	458.74
386.92	550.03
387.11	606.20
387.31	543.00
387.50	503.22
387.70	543.00
387.89	545.34
388.09	533.64
388.28	578.11
388.48	624.92
388.67	690.46
388.86	528.96
389.06	571.09
389.25	575.77
389.45	615.56
389.64	571.09
389.84	585.13
390.03	585.13
390.22	655.35
390.42	674.07
390.61	648.33
390.81	557.05
391.00	683.44
391.19	671.73
391.39	667.05
391.58	615.56
391.78	603.86
391.97	685.78
392.16	669.39
392.36	763.01
392.55	746.63
392.75	620.24
392.94	758.33
393.13	699.82
393.33	697.48
393.52	648.33
393.71	744.29
393.91	788.76
394.10	631.94
394.29	704.50
394.49	720.88
394.68	791.10
394.88	816.85
395.07	807.48
395.26	830.89
395.46	894.08
395.65	727.91
395.84	706.84
396.04	777.06
396.23	875.36
396.42	854.30
396.62	809.83
396.81	823.87
397.00	873.02
397.19	840.25
397.39	784.08
397.58	882.38
397.77	868.34
397.97	830.89
398.16	863.66
398.35	856.64
398.55	894.08
398.74	880.04
398.93	891.74
399.12	945.58
399.32	823.87
399.51	952.60
399.70	985.37
399.90	940.90
400.09	976.00
400.28	1053.24
400.47	933.87
400.67	1069.62
400.86	1046.22
401.05	1043.88
401.24	1067.28
401.44	1064.94
401.63	1090.69
401.82	1144.52
402.01	1029.84
402.21	1053.24
402.40	1118.78
402.59	1025.15
402.78	1121.12
402.97	1151.54
403.17	1146.86
403.36	1186.65
403.55	1118.78
403.74	1198.35
403.93	1132.82
404.13	1245.16
404.32	1299.00
404.51	1303.68
404.70	1191.33
404.89	1107.07
405.09	1277.93
405.28	1249.85
405.47	1259.21
405.66	1310.70
405.85	1268.57
406.05	1235.80
406.24	1235.80
406.43	1306.02
406.62	1432.41
406.81	1465.18
407.00	1420.71
407.20	1329.42
407.39	1397.30
407.58	1315.38
407.77	1563.48
407.96	1418.36
408.15	1488.58
408.34	1427.73
408.54	1439.43
408.73	1373.89
408.92	1409.00
409.11	1584.54
409.30	1500.28
409.49	1451.13
409.68	1556.46
409.87	1537.73
410.07	1640.72
410.26	1600.93
410.45	1551.78
410.64	1640.72
410.83	1708.59
411.02	1717.95
411.21	1687.53
411.40	1696.89
411.59	1727.32
411.78	1717.95
411.98	1769.44
412.17	1717.95
412.36	1750.72
412.55	1774.13
412.74	1825.62
412.93	1795.19
413.12	1832.64
413.31	1919.24
413.50	1879.45
413.69	1923.92
413.88	1980.09
414.07	1973.07
414.26	2001.16
414.45	2090.10
414.64	1977.75
414.83	2083.08
415.02	2179.04
415.22	2122.87
415.41	2157.97
415.60	2031.58
415.79	2143.93
415.98	2139.25
416.17	2300.75
416.36	2104.14
416.55	2202.44
416.74	2310.11
416.93	2366.28
417.12	2399.05
417.31	2366.28
417.50	2354.58
417.69	2450.54
417.88	2415.43
418.07	2417.77
418.26	2431.82
418.45	2408.41
418.64	2537.14
418.83	2541.82
419.02	2506.71
419.21	2532.46
419.39	2565.23
419.58	2569.91
419.77	2473.95
419.96	2633.10
420.15	2754.81
420.34	2609.70
420.53	2736.09
420.72	2654.17
420.91	2717.36
421.10	2808.64
421.29	2761.83
421.48	2731.41
421.67	2825.03
421.86	2759.49
422.05	2766.51
422.24	2731.41
422.43	2775.88
422.61	2710.34
422.80	2813.32
422.99	2829.71
423.18	2738.43
423.37	2909.29
423.56	2876.52
423.75	2906.95
423.94	2759.49
424.13	2668.21
424.32	2825.03
424.50	2925.67
424.69	2853.11
424.88	3000.57
425.07	2878.86
425.26	2818.00
425.45	2862.48
425.64	2874.18
425.83	2895.24
426.01	3094.19
426.20	2937.37
426.39	2928.01
426.58	3023.97
426.77	3019.29
426.96	2888.22
427.15	3002.91
427.33	3033.33
427.52	2960.78
427.71	3103.55
427.90	3028.65
428.09	3061.42
428.28	3026.31
428.46	3016.95
428.65	3096.53
428.84	3157.38
429.03	3243.98
429.22	3178.45
429.40	3222.92
429.59	3162.06
429.78	3103.55
429.97	2970.14
430.16	3222.92
430.34	3290.79
430.53	3370.37
430.72	3337.60
430.91	3342.28
431.10	3344.63
431.28	3440.59
431.47	3260.37
431.66	3492.08
431.85	3339.94
432.03	3368.03
432.22	3583.36
432.41	3482.72
432.60	3531.87
432.79	3405.48
432.97	3478.04
433.16	3503.78
433.35	3356.33
433.54	3548.25
433.72	3627.83
433.91	3445.27
434.10	3566.98
434.28	3543.57
434.47	3581.02
434.66	3655.92
434.85	3552.93
435.03	3740.18
435.22	3805.71
435.41	4138.07
435.59	4138.07
435.78	4042.11
435.97	3794.01
436.16	3763.58
436.34	3716.77
436.53	3838.48
436.72	4009.34
436.90	3810.39
437.09	3908.69
437.28	3812.73
437.46	3889.97
437.65	3918.06
437.84	3985.93
438.02	3929.76
438.21	3847.84
438.40	3908.69
438.58	3988.27
438.77	4170.83
438.96	4086.58
439.14	4051.47
439.33	4245.73
439.52	4180.20
439.70	4238.71
439.89	4369.78
440.08	4320.63
440.26	4278.50
440.45	4337.01
440.63	4383.82
440.82	4362.76
441.01	4409.57
441.19	4484.47
441.38	4554.68
441.57	4578.09
441.75	4601.49
441.94	4676.39
442.12	4629.58
442.31	4664.69
442.50	4599.15
442.68	4603.83
442.87	4760.65
443.05	4877.68
443.24	4844.91
443.43	4760.65
443.61	4837.89
443.80	5085.98
443.98	4795.76
444.17	4697.46
444.35	4772.35
444.54	4809.80
444.73	4835.55
444.91	4901.08
445.10	4861.29
445.28	4898.74
445.47	4755.97
445.65	4718.52
445.84	4784.06
446.02	4889.38
446.21	5015.77
446.39	4936.19
446.58	5036.83
446.77	4910.44
446.95	4894.06
447.14	4980.66
447.32	5034.49
447.51	5025.13
447.69	4997.04
447.88	5050.88
448.06	4924.49
448.25	5006.41
448.43	4891.72
448.62	5069.60
448.80	5020.45
448.99	5027.47
449.17	5139.82
449.36	5039.17
449.54	5184.29
449.73	5305.99
449.91	5310.68
450.10	5338.76
450.28	5186.63
450.46	5322.38
450.65	5472.17
450.83	5500.26
451.02	5238.12
451.20	5493.24
451.39	5401.96
451.57	5411.32
451.76	5406.64
451.94	5469.83
452.13	5558.77
452.31	5460.47
452.49	5205.35
452.68	5385.57
452.86	5387.91
453.05	5610.26
453.23	5586.86
453.42	5502.60
453.60	5446.43
453.78	5472.17
453.97	5465.15
454.15	5490.90
454.34	5516.64
454.52	5722.61
454.70	5476.85
454.89	5589.20
455.07	5650.05
455.26	5762.40
455.44	5781.12
455.62	5696.86
455.81	5727.29
455.99	5898.15
456.17	5888.79
456.36	5867.72
456.54	5956.66
456.73	6019.86
456.91	6026.88
457.09	6019.86
457.28	6120.50
457.46	6239.87
457.64	6230.51
457.83	6157.95
458.01	5959.00
458.19	6289.02
458.38	6064.33
458.56	6319.45
458.74	6218.80
458.93	6209.44
459.11	6174.33
459.29	6239.87
459.48	6270.30
459.66	6375.62
459.84	6450.52
460.03	6373.28
460.21	6300.72
460.39	6387.32
460.57	6443.49
460.76	6387.32
460.94	6604.99
461.12	6518.39
461.31	6689.25
461.49	6516.05
461.67	6445.84
461.85	6738.40
462.04	6684.57
462.22	7260.34
462.40	6717.34
462.59	6693.93
462.77	6579.25
462.95	6731.38
463.13	6867.13
463.32	6796.92
463.50	6778.19
463.68	6986.50
463.86	6927.99
464.05	6827.34
464.23	6867.13
464.41	6883.52
464.59	6719.68
464.78	6911.60
464.96	7068.42
465.14	6927.99
465.32	6998.20
465.50	7171.40
465.69	7197.15
465.87	7028.63
466.05	6918.62
466.23	7169.06
466.41	7152.68
466.60	7129.27
466.78	7103.53
466.96	7019.27
467.14	7108.21
467.32	7105.87
467.51	7129.27
467.69	7117.57
467.87	7494.40
468.05	7215.87
468.23	7377.37
468.41	7194.81
468.60	7393.75
468.78	7583.34
468.96	7499.08
469.14	7674.62
469.32	7475.67
469.50	7253.32
469.69	7480.35
469.87	7676.96
470.05	7616.10
470.23	7751.85
470.41	7627.81
470.59	7749.51
470.77	7611.42
470.95	7681.64
471.14	7866.54
471.32	7695.68
471.50	8088.89
471.68	7585.68
471.86	7824.41
472.04	8086.55
472.22	8018.68
472.40	8030.38
472.58	8145.06
472.77	8067.83
472.95	8170.81
473.13	8489.12
473.31	8109.96
473.49	8280.82
473.67	8264.43
473.85	8241.03
474.03	8542.96
474.21	8472.74
474.39	8631.90
474.57	8545.30
474.75	8507.85
474.93	8767.65
475.12	8568.70
475.30	8641.26
475.48	8758.28
475.66	8821.48
475.84	8863.61
476.02	9055.53
476.20	8798.07
476.38	9125.75
476.56	9249.80
476.74	9268.52
476.92	9095.32
477.10	9345.76
477.28	9385.55
477.46	9238.09
477.64	9397.25
477.82	9671.09
478.00	9589.17
478.18	9834.93
478.36	9834.93
478.54	9884.08
478.72	9916.85
478.90	9846.63
479.08	10164.95
479.26	10150.90
479.44	10359.21
479.62	10401.34
479.80	10115.80
479.98	10164.95
480.16	10569.86
480.34	10677.52
480.52	10693.91
480.70	10691.57
480.88	10635.39
481.06	10736.04
481.24	10881.15
481.41	11000.52
481.59	11257.98
481.77	11152.65
481.95	11302.45
482.13	11290.74
482.31	11386.71
482.49	11800.98
482.67	11829.07
482.85	11700.34
483.03	11847.79
483.21	12138.02
483.39	12109.93
483.57	11810.34
483.74	12112.27
483.92	12219.94
484.10	12140.36
484.28	12681.02
484.46	12734.85
484.64	13036.78
484.82	12674.00
485.00	12847.20
485.18	12802.73
485.35	13177.22
485.53	13097.64
485.71	13226.37
485.89	13638.30
486.07	13448.72
486.25	13743.63
486.43	13652.34
486.61	13839.59
486.78	13940.23
486.96	13989.38
487.14	14417.70
487.32	14132.15
487.50	14188.33
487.68	14394.29
487.85	14799.21
488.03	14703.25
488.21	15140.93
488.39	14750.06
488.57	15087.09
488.75	15185.40
488.92	15592.65
489.10	15534.14
489.28	15410.09
489.46	15826.70
489.64	15501.37
489.81	16030.33
489.99	15885.22
490.17	16098.20
490.35	16367.37
490.53	16493.76
490.70	16634.19
490.88	16486.73
491.06	16760.58
491.24	16423.54
491.41	16798.02
491.59	16732.49
491.77	16917.39
491.95	17235.70
492.13	17341.03
492.30	17317.62
492.48	17570.40
492.66	17453.37
492.84	17649.98
493.01	17743.60
493.19	17792.75
493.37	17965.95
493.54	18118.09
493.72	18326.39
493.90	18368.52
494.08	18644.71
494.25	18300.65
494.43	18548.75
494.61	18897.49
494.79	18684.50
494.96	18806.20
495.14	18869.40
495.32	19314.10
495.49	18906.85
495.67	19239.20
495.85	19381.98
496.02	19445.17
496.20	19522.41
496.38	19463.90
496.55	19580.92
496.73	20065.41
496.91	20006.90
497.09	20039.67
497.26	20063.07
497.44	20091.16
497.62	20149.67
497.79	20603.74
497.97	20343.94
498.14	20823.75
498.32	20725.44
498.50	21301.22
498.67	21088.23
498.85	20985.24
499.03	20999.29
499.20	21027.37
499.38	21425.26
499.56	21266.11
499.73	21572.72
499.91	21448.67
500.08	21776.34
500.26	21312.92
500.44	22068.91
500.61	22010.40
500.79	22164.87
500.97	22125.08
501.14	22068.91
501.32	22321.69
501.49	22307.65
501.67	22286.58
501.84	22373.18
502.02	22359.14
502.20	22553.40
502.37	22537.02
502.55	22977.04
502.72	23051.94
502.90	22838.95
503.07	22703.20
503.25	22923.21
503.43	23119.81
503.60	23253.22
503.78	23410.04
503.95	23398.34
504.13	23047.26
504.30	23449.83
504.48	23484.94
504.65	23541.11
504.83	23721.33
505.01	23917.93
505.18	24240.93
505.36	24161.35
505.53	23936.66
505.71	24194.12
505.88	24407.11
506.06	24041.98
506.23	24369.66
506.41	24467.96
506.58	24680.95
506.76	24599.03
506.93	24641.16
507.11	24606.05
507.28	24622.44
507.46	24720.74
507.63	25109.27
507.81	25099.90
507.98	24854.15
508.16	24992.24
508.33	25090.54
508.50	25010.96
508.68	25202.89
508.85	25479.07
509.03	25378.43
509.20	25525.88
509.38	25640.57
509.55	25804.41
509.73	26359.11
509.90	25963.56
510.08	26064.21
510.25	26242.09
510.42	26309.96
510.60	26878.71
510.77	26462.10
510.95	26555.72
511.12	26525.29
511.30	26441.03
511.47	26675.09
511.64	26544.02
511.82	26810.84
511.99	27056.59
512.17	27019.14
512.34	27166.60
512.51	27262.56
512.69	27115.11
512.86	27070.64
513.04	27763.43
513.21	27297.67
513.38	27983.44
513.56	27531.72
513.73	27981.10
513.90	27899.19
514.08	27950.68
514.25	28205.80
514.43	28135.58
514.60	27955.36
514.77	28400.06
514.95	28435.17
515.12	28259.63
515.29	27840.67
515.47	28240.90
515.64	28402.40
515.81	28182.39
515.99	28765.18
516.16	28732.42
516.33	28931.36
516.51	28634.11
516.68	28470.28
516.85	28542.83
517.03	28865.83
517.20	29097.54
517.37	29106.90
517.54	29266.06
517.72	29727.14
517.89	28938.38
518.06	29102.22
518.24	29441.60
518.41	29158.39
518.58	29376.06
518.75	29357.34
518.93	30115.67
519.10	29553.94
519.27	29792.68
519.45	29612.46
519.62	29408.83
519.79	29883.96
519.96	29752.89
520.14	30031.41
520.31	29567.99
520.48	30235.04
520.65	30199.93
520.83	30143.76
521.00	30520.59
521.17	30377.81
521.34	30504.20
521.52	30520.59
521.69	30300.58
521.86	30930.18
522.03	31054.23
522.20	31175.94
522.38	30850.60
522.55	30972.31
522.72	30742.94
522.89	30848.26
523.07	31335.09
523.24	31234.45
523.41	31234.45
523.58	31491.91
523.75	31604.25
523.92	31414.67
524.10	31608.93
524.27	31477.86
524.44	31943.63
524.61	31498.93
524.78	31899.16
524.96	31878.10
525.13	31842.99
525.30	32046.62
525.47	31908.52
525.64	32063.00
525.81	32374.29
525.98	32376.63
526.16	32290.03
526.33	32397.70
526.50	32575.58
526.67	32006.83
526.84	32371.95
527.01	32432.80
527.18	32753.46
527.36	32598.98
527.53	33076.45
527.70	32938.36
527.87	33123.26
528.04	32800.27
528.21	33401.79
528.38	32500.68
528.55	33095.18
528.72	33181.77
528.89	33156.03
529.07	33467.32
529.24	33158.37
529.41	33259.01
529.58	33436.89
529.75	33291.78
529.92	33109.22
530.09	33233.27
530.26	33677.97
530.43	33553.92
530.60	33261.35
530.77	33996.28
530.94	33883.94
531.11	33539.88
531.28	33750.52
531.46	33766.91
531.63	33778.61
531.80	34115.65
531.97	34375.45
532.14	34153.10
532.31	33970.54
532.48	34031.39
532.65	34417.58
532.82	34082.88
532.99	34286.51
533.16	34309.91
533.33	34389.49
533.50	34937.18
533.67	34682.06
533.84	34330.98
534.01	34455.03
534.18	34572.05
534.35	34925.47
534.52	34476.09
534.69	35288.26
534.86	35337.41
535.03	34675.04
535.20	35283.58
535.37	35325.71
535.54	35480.18
535.71	35262.51
535.88	35445.07
536.05	35363.15
536.22	35915.52
536.38	35608.91
536.55	35234.42
536.72	35889.77
536.89	35278.89
537.06	35716.58
537.23	35660.40
537.40	35604.23
537.57	35950.63
537.74	35857.01
537.91	35819.56
538.08	36292.35
538.25	35438.05
538.42	35775.09
538.59	35831.26
538.75	35543.38
538.92	36210.43
539.09	36327.45
539.26	36238.51
539.43	36079.36
539.60	36479.59
539.77	36517.04
539.94	36575.55
540.11	36362.56
540.28	36444.48
540.44	36297.03
540.61	36662.15
540.78	36407.03
540.95	36723.01
541.12	37167.71
541.29	37022.59
541.46	36943.02
541.62	36762.79
541.79	37357.29
541.96	36687.90
542.13	36975.78
542.30	37111.53
542.47	37518.79
542.63	37315.16
542.80	37270.69
542.97	37546.87
543.14	37516.45
543.31	37266.01
543.48	37237.92
543.64	38029.02
543.81	37902.64
543.98	38040.73
544.15	37757.52
544.32	38174.14
544.48	38354.36
544.65	37750.50
544.82	37661.56
544.99	37322.18
545.16	37986.89
545.32	37797.31
545.49	38548.62
545.66	38920.77
545.83	38918.43
546.00	39402.92
546.16	38272.44
546.33	38298.19
546.50	38363.72
546.67	38410.53
546.83	37970.51
547.00	38312.23
547.17	37872.21
547.34	38157.75
547.50	38717.14
547.67	38944.17
547.84	38377.76
548.00	38281.80
548.17	38801.40
548.34	38665.65
548.51	38712.46
548.67	39393.56
548.84	39086.95
549.01	39189.93
549.18	38827.15
549.34	38770.97
549.51	38845.87
549.68	39267.17
549.84	38738.21
550.01	38944.17
550.18	38995.67
550.34	38998.01
550.51	39037.80
550.68	39028.43
550.84	38185.84
551.01	39068.22
551.18	38955.88
551.34	38548.62
551.51	38880.98
551.68	39313.98
551.84	39269.51
552.01	38988.64
552.18	39526.97
552.34	39285.89
552.51	39210.99
552.68	39166.52
552.84	39489.52
553.01	39283.55
553.18	39693.15
553.34	39344.41
553.51	39384.19
553.67	39681.44
553.84	39775.06
554.01	39655.70
554.17	39714.21
554.34	39470.79
554.51	39503.56
554.67	40252.53
554.84	39908.47
555.00	39634.63
555.17	39627.61
555.33	39934.22
555.50	39807.83
555.67	40135.51
555.83	40046.57
556.00	40437.44
556.16	40177.64
556.33	40353.18
556.50	40119.12
556.66	39742.30
556.83	39962.31
556.99	40388.28
557.16	40849.37
557.32	40430.41
557.49	40428.07
557.65	39859.32
557.82	40268.92
557.98	40437.44
558.15	40444.46
558.32	40620.00
558.48	40257.21
558.65	40477.22
558.81	40711.28
558.98	40643.40
559.14	40690.21
559.31	40182.32
559.47	40175.30
559.64	40524.04
559.80	40830.65
559.97	40376.58
560.13	41118.53
560.30	40751.07
560.46	41069.38
560.63	40701.92
560.79	41097.47
560.96	40648.08
561.12	40105.08
561.29	40725.32
561.45	40495.95
561.61	40737.02
561.78	41099.81
561.94	40603.61
562.11	40718.30
562.27	41280.03
562.44	40921.93
562.60	40612.98
562.77	40870.43
562.93	40811.92
563.10	41130.23
563.26	40575.53
563.42	41099.81
563.59	41202.79
563.75	41495.36
563.92	41069.38
564.08	40891.50
564.24	41223.86
564.41	40957.03
564.57	41123.21
564.74	40870.43
564.90	41254.28
565.07	41273.01
565.23	41038.95
565.39	41380.67
565.56	40987.46
565.72	41076.40
565.88	41050.66
566.05	41013.21
566.21	41027.25
566.38	40940.65
566.54	41144.28
566.70	41352.58
566.87	41572.60
567.03	41502.38
567.19	41954.10
567.36	41338.54
567.52	40786.18
567.68	41743.45
567.85	41127.89
568.01	41532.81
568.17	41296.41
568.34	41635.79
568.50	41497.70
568.66	41600.68
568.83	41284.71
568.99	41682.60
569.15	41359.61
569.32	40847.03
569.48	41132.57
569.64	41375.99
569.81	41617.07
569.97	40975.76
570.13	41282.37
570.30	41268.33
570.46	41399.40
570.62	41275.35
570.78	41525.78
570.95	41221.52
571.11	41729.41
571.27	40989.80
571.43	41710.69
571.60	41251.94
571.76	41752.82
571.92	41797.29
572.09	42405.83
572.25	41965.81
572.41	41408.76
572.57	41408.76
572.74	41935.38
572.90	41151.30
573.06	41996.23
573.22	41546.85
573.38	41968.15
573.55	41750.48
573.71	42440.93
573.87	42153.05
574.03	41588.98
574.20	41837.08
574.36	41940.06
574.52	42019.64
574.68	41818.35
574.84	41916.65
575.01	41975.17
575.17	41794.95
575.33	41954.10
575.49	41495.36
575.65	42148.37
575.82	42162.41
575.98	42129.64
576.14	42256.03
576.30	41993.89
576.46	41972.83
576.62	41364.29
576.79	41881.55
576.95	41902.61
577.11	41862.82
577.27	41764.52
577.43	41736.43
577.59	42288.80
577.75	42305.18
577.92	41743.45
578.08	41956.44
578.24	41759.84
578.40	41926.02
578.56	41923.68
578.72	41930.70
578.88	42492.43
579.04	42560.30
579.21	42094.53
579.37	42139.00
579.53	42656.26
579.69	42024.32
579.85	41792.61
580.01	41984.53
580.17	41673.24
580.33	42071.13
580.49	42106.24
580.65	42953.51
580.82	42279.44
580.98	42043.04
581.14	42120.28
581.30	42288.80
581.46	41748.14
581.62	41996.23
581.78	41991.55
581.94	42670.31
582.10	42036.02
582.26	42396.46
582.42	42141.35
582.58	42298.16
582.74	42806.06
582.90	42195.18
583.06	42541.58
583.22	42356.67
583.38	42497.11
583.54	42541.58
583.70	42323.91
583.86	42195.18
584.02	42129.64
584.18	42859.89
584.34	42480.72
584.50	42330.93
584.66	42368.38
584.82	42117.94
584.98	42436.25
585.14	42298.16
585.30	41696.64
585.46	41914.31
585.62	42085.17
585.78	42171.77
585.94	42075.81
586.10	42155.39
586.26	42616.47
586.42	42618.81
586.58	42431.57
586.74	42756.91
586.90	42225.60
587.06	42192.84
587.22	42398.80
587.38	42354.33
587.54	42438.59
587.70	42667.97
587.86	42548.60
588.02	42426.89
588.18	42536.90
588.34	41979.85
588.49	43311.61
588.65	42220.92
588.81	42237.31
588.97	42721.80
589.13	42637.54
589.29	42810.74
589.45	42417.53
589.61	42759.25
589.77	42721.80
589.93	42703.07
590.08	43030.75
590.24	42602.43
590.40	43047.13
590.56	42752.23
590.72	42546.26
590.88	42344.97
591.04	42454.98
