SpectraSuite Data File
++++++++++++++++++++++++++++++++++++
Date: Fri Oct 04 11:39:35 GMT-05:00 2013
User: price-jones
Dark Spectrum Present: No
Reference Spectrum Present: No
Number of Sampled Component Spectra: 1
Spectrometers: USB2+H05261
Integration Time (usec): 100000 (USB2+H05261)
Spectra Averaged: 1 (USB2+H05261)
Boxcar Smoothing: 0 (USB2+H05261)
Correct for Electrical Dark: No (USB2+H05261)
Strobe/Lamp Enabled: No (USB2+H05261)
Correct for Detector Non-linearity: No (USB2+H05261)
Correct for Stray Light: No (USB2+H05261)
Number of Pixels in Processed Spectrum: 2048
>>>>>Begin Processed Spectral Data<<<<<
365.73	32.77
365.92	32.77
366.12	32.77
366.32	2.34
366.52	0.00
366.72	0.00
366.91	0.00
367.11	0.00
367.31	0.00
367.51	0.00
367.70	0.00
367.90	0.00
368.10	0.00
368.30	0.00
368.49	0.00
368.69	18.72
368.89	0.00
369.09	0.00
369.28	0.00
369.48	0.00
369.68	0.00
369.87	0.00
370.07	0.00
370.27	23.41
370.47	51.49
370.66	156.82
370.86	112.35
371.06	170.86
371.25	280.86
371.45	154.48
371.65	203.63
371.84	175.54
372.04	128.73
372.24	161.50
372.44	229.37
372.63	248.10
372.83	217.67
373.03	217.67
373.22	255.12
373.42	231.71
373.62	215.33
373.81	243.42
374.01	285.55
374.21	255.12
374.40	250.44
374.60	318.31
374.79	257.46
374.99	252.78
375.19	229.37
375.38	313.63
375.58	248.10
375.78	248.10
375.97	250.44
376.17	234.05
376.37	262.14
376.56	299.59
376.76	182.56
376.95	184.90
377.15	217.67
377.35	220.01
377.54	266.82
377.74	248.10
377.93	259.80
378.13	271.50
378.33	313.63
378.52	304.27
378.72	313.63
378.91	245.76
379.11	294.91
379.31	212.99
379.50	248.10
379.70	283.20
379.89	266.82
380.09	278.52
380.28	241.08
380.48	273.84
380.68	278.52
380.87	271.50
381.07	236.39
381.26	285.55
381.46	250.44
381.65	294.91
381.85	198.95
382.04	201.29
382.24	283.20
382.43	259.80
382.63	262.14
382.83	175.54
383.02	287.89
383.22	236.39
383.41	259.80
383.61	250.44
383.80	271.50
384.00	166.18
384.19	297.25
384.39	266.82
384.58	327.68
384.78	339.38
384.97	325.33
385.17	231.71
385.36	339.38
385.56	341.72
385.75	306.61
385.95	353.42
386.14	334.70
386.34	304.27
386.53	306.61
386.72	337.04
386.92	433.00
387.11	278.52
387.31	372.15
387.50	292.57
387.70	285.55
387.89	313.63
388.09	313.63
388.28	320.65
388.48	330.02
388.67	376.83
388.86	369.80
389.06	311.29
389.25	355.76
389.45	395.55
389.64	337.04
389.84	334.70
390.03	362.78
390.22	341.72
390.42	437.68
390.61	313.63
390.81	390.87
391.00	374.49
391.19	388.53
391.39	294.91
391.58	369.80
391.78	374.49
391.97	372.15
392.16	393.21
392.36	454.06
392.55	433.00
392.75	465.77
392.94	381.51
393.13	397.89
393.33	397.89
393.52	346.40
393.71	430.66
393.91	414.27
394.10	479.81
394.29	304.27
394.49	402.57
394.68	444.70
394.88	580.45
395.07	550.03
395.26	479.81
395.46	498.53
395.65	503.22
395.84	423.64
396.04	496.19
396.23	482.15
396.42	489.17
396.62	498.53
396.81	578.11
397.00	580.45
397.19	493.85
397.39	512.58
397.58	620.24
397.77	557.05
397.97	606.20
398.16	538.32
398.35	585.13
398.55	596.84
398.74	610.88
398.93	669.39
399.12	486.83
399.32	610.88
399.51	566.41
399.70	660.03
399.90	585.13
400.09	634.29
400.28	571.09
400.47	669.39
400.67	695.14
400.86	725.57
401.05	688.12
401.24	777.06
401.44	648.33
401.63	706.84
401.82	758.33
402.01	650.67
402.21	697.48
402.40	704.50
402.59	814.51
402.78	784.08
402.97	784.08
403.17	727.91
403.36	767.70
403.55	884.72
403.74	849.61
403.93	854.30
404.13	854.30
404.32	828.55
404.51	889.40
404.70	940.90
404.89	873.02
405.09	863.66
405.28	943.24
405.47	894.08
405.66	929.19
405.85	1029.84
406.05	1088.35
406.24	1011.11
406.43	1006.43
406.62	1039.20
406.81	1078.99
407.00	994.73
407.20	1062.60
407.39	1114.10
407.58	1004.09
407.77	1184.31
407.96	1123.46
408.15	1132.82
408.34	1210.06
408.54	1259.21
408.73	1174.95
408.92	1146.86
409.11	1268.57
409.30	1200.69
409.49	1193.67
409.68	1249.85
409.87	1263.89
410.07	1359.85
410.26	1277.93
410.45	1313.04
410.64	1439.43
410.83	1458.15
411.02	1322.40
411.21	1418.36
411.40	1444.11
411.59	1448.79
411.78	1437.09
411.98	1453.47
412.17	1570.50
412.36	1584.54
412.55	1570.50
412.74	1621.99
412.93	1647.74
413.12	1689.87
413.31	1715.61
413.50	1668.80
413.69	1755.40
413.88	1774.13
414.07	1760.08
414.26	1790.51
414.45	1612.63
414.64	1856.04
414.83	1874.77
415.02	1898.17
415.22	2059.67
415.41	1952.01
415.60	2010.52
415.79	1961.37
415.98	2101.80
416.17	1912.22
416.36	2066.69
416.55	2036.27
416.74	1991.80
416.93	2172.02
417.12	2143.93
417.31	2169.68
417.50	2153.29
417.69	2242.23
417.88	2331.17
418.07	2256.28
418.26	2237.55
418.45	2347.56
418.64	2525.44
418.83	2375.64
419.02	2415.43
419.21	2356.92
419.39	2441.18
419.58	2434.16
419.77	2342.88
419.96	2448.20
420.15	2438.84
420.34	2506.71
420.53	2413.09
420.72	2511.39
420.91	2637.78
421.10	2459.90
421.29	2553.52
421.48	2492.67
421.67	2675.23
421.86	2469.27
422.05	2642.46
422.24	2635.44
422.43	2623.74
422.61	2787.58
422.80	2675.23
422.99	2572.25
423.18	2761.83
423.37	2764.17
423.56	2775.88
423.75	2696.30
423.94	2626.08
424.13	2464.58
424.32	2642.46
424.50	2736.09
424.69	2895.24
424.88	2855.45
425.07	2731.41
425.26	2764.17
425.45	2766.51
425.64	2647.15
425.83	2801.62
426.01	2792.26
426.20	2719.70
426.39	2679.91
426.58	2825.03
426.77	2712.68
426.96	2902.26
427.15	2939.71
427.33	2836.73
427.52	2902.26
427.71	2832.05
427.90	2867.16
428.09	2979.50
428.28	3016.95
428.46	2967.80
428.65	3028.65
428.84	3131.64
429.03	3021.63
429.22	2972.48
429.40	3056.74
429.59	3101.21
429.78	2897.58
429.97	3045.04
430.16	2946.73
430.34	3173.77
430.53	3192.49
430.72	3227.60
430.91	3122.27
431.10	3234.62
431.28	3171.43
431.47	3328.24
431.66	3276.75
431.85	3236.96
432.03	3300.16
432.22	3391.44
432.41	3417.18
432.60	3393.78
432.79	3260.37
432.97	3393.78
433.16	3431.23
433.35	3400.80
433.54	3480.38
433.72	3471.01
433.91	3459.31
434.10	3421.86
434.28	3358.67
434.47	3421.86
434.66	3576.34
434.85	3695.71
435.03	3686.34
435.22	3824.44
435.41	4044.45
435.59	4145.09
435.78	3882.95
435.97	3679.32
436.16	3772.94
436.34	3641.87
436.53	3644.21
436.72	3747.20
436.90	3566.98
437.09	3728.47
437.28	3648.90
437.46	3723.79
437.65	3868.91
437.84	3967.21
438.02	3801.03
438.21	3737.84
438.40	3829.12
438.58	3920.40
438.77	3955.51
438.96	3981.25
439.14	3953.16
439.33	3992.95
439.52	4037.42
439.70	4088.92
439.89	4252.75
440.08	4255.09
440.26	4091.26
440.45	4098.28
440.63	4152.11
440.82	4383.82
441.01	4236.37
441.19	4337.01
441.38	4423.61
441.57	4332.33
441.75	4557.02
441.94	4491.49
442.12	4578.09
442.31	4641.28
442.50	4517.23
442.68	4606.17
442.87	4671.71
443.05	4587.45
443.24	4716.18
443.43	4517.23
443.61	4512.55
443.80	4868.31
443.98	4538.30
444.17	4547.66
444.35	4814.48
444.54	4734.90
444.73	4753.63
444.91	4812.14
445.10	4678.73
445.28	4767.67
445.47	4788.74
445.65	4734.90
445.84	4781.71
446.02	4683.41
446.21	4664.69
446.39	4849.59
446.58	4770.01
446.77	4725.54
446.95	4636.60
447.14	4660.01
447.32	4894.06
447.51	4805.12
447.69	4880.02
447.88	4856.61
448.06	4795.76
448.25	4791.08
448.43	4861.29
448.62	4723.20
448.80	4753.63
448.99	5046.20
449.17	4992.36
449.36	4959.60
449.54	5062.58
449.73	5123.43
449.91	5303.65
450.10	4992.36
450.28	5128.11
450.46	5032.15
450.65	5142.16
450.83	5259.18
451.02	5135.14
451.20	5151.52
451.39	5207.69
451.57	5181.95
451.76	5217.05
451.94	5132.79
452.13	5256.84
452.31	5336.42
452.49	5128.11
452.68	5399.62
452.86	5210.03
453.05	5455.79
453.23	5427.70
453.42	5432.38
453.60	5263.86
453.78	5348.12
453.97	5418.34
454.15	5268.55
454.34	5397.28
454.52	5624.31
454.70	5453.45
454.89	5547.07
455.07	5659.42
455.26	5593.88
455.44	5544.73
455.62	5533.03
455.81	5621.97
455.99	5584.52
456.17	5659.42
456.36	5540.05
456.54	5872.40
456.73	5853.68
456.91	5860.70
457.09	5750.70
457.28	6064.33
457.46	5825.59
457.64	6113.48
457.83	6113.48
458.01	5870.06
458.19	5968.37
458.38	5834.96
458.56	6057.31
458.74	5994.11
458.93	6136.88
459.11	6139.23
459.29	6179.01
459.48	6080.71
459.66	6087.73
459.84	6045.60
460.03	6272.64
460.21	6202.42
460.39	6244.55
460.57	6179.01
460.76	6244.55
460.94	6307.74
461.12	6289.02
461.31	6225.82
461.49	6267.95
461.67	6293.70
461.85	6420.09
462.04	6420.09
462.22	6424.77
462.40	6471.58
462.59	6286.68
462.77	6569.88
462.95	6534.78
463.13	6445.84
463.32	6532.44
463.50	6476.26
463.68	6604.99
463.86	6642.44
464.05	6595.63
464.23	6567.54
464.41	6724.36
464.59	6450.52
464.78	6906.92
464.96	6672.87
465.14	6630.74
465.32	6572.22
465.50	6782.87
465.69	6883.52
465.87	6846.07
466.05	6768.83
466.23	6848.41
466.41	6862.45
466.60	6970.12
466.78	6897.56
466.96	6759.47
467.14	6853.09
467.32	6890.54
467.51	7056.72
467.69	6705.63
467.87	6885.86
468.05	6930.33
468.23	7059.06
468.41	7019.27
468.60	7098.84
468.78	7129.27
468.96	6995.86
469.14	7208.85
469.32	7255.66
469.50	7138.63
469.69	7248.64
469.87	7258.00
470.05	7421.84
470.23	7133.95
470.41	7293.11
470.59	7412.48
470.77	7335.24
470.95	7463.97
471.14	7599.72
471.32	7463.97
471.50	7665.25
471.68	7817.39
471.86	7714.41
472.04	7569.29
472.22	7864.20
472.40	7768.24
472.58	7634.83
472.77	8046.76
472.95	7772.92
473.13	7997.61
473.31	7801.01
473.49	7672.28
473.67	7906.33
473.85	8198.90
474.03	8138.04
474.21	7976.55
474.39	8112.30
474.57	8297.20
474.75	8306.56
474.93	8446.99
475.12	8461.04
475.30	8327.63
475.48	8454.02
475.66	8561.68
475.84	8358.05
476.02	8727.86
476.20	8519.55
476.38	8643.60
476.56	8739.56
476.74	8748.92
476.92	8819.14
477.10	8814.46
477.28	8912.76
477.46	9069.58
477.64	9048.51
477.82	9144.47
478.00	9390.23
478.18	9376.19
478.36	9530.66
478.54	9488.53
478.72	9514.28
478.90	9682.80
479.08	9764.72
479.26	9762.37
479.44	9769.40
479.62	9820.89
479.80	9991.75
479.98	10094.73
480.16	10136.86
480.34	10134.52
480.52	10347.51
480.70	10422.41
480.88	10157.92
481.06	10363.89
481.24	10057.28
481.41	10485.60
481.59	10754.76
481.77	10623.69
481.95	10614.33
482.13	10743.06
482.31	10864.77
482.49	11077.76
482.67	10937.32
482.85	11262.66
483.03	11342.24
483.21	11419.47
483.39	11513.10
483.57	11527.14
483.74	11744.81
483.92	11719.06
484.10	11735.45
484.28	11744.81
484.46	12290.15
484.64	12540.59
484.82	12112.27
485.00	12498.46
485.18	12503.14
485.35	12648.26
485.53	12723.15
485.71	12826.14
485.89	12762.94
486.07	12739.54
486.25	12947.84
486.43	13071.89
486.61	12966.57
486.78	13350.42
486.96	13427.65
487.14	13490.85
487.32	13483.83
487.50	13729.58
487.68	13713.20
487.85	14059.60
488.03	14033.85
488.21	14281.95
488.39	14305.35
488.57	14443.45
488.75	14466.85
488.92	14637.71
489.10	14707.93
489.28	14541.75
489.46	14988.79
489.64	14829.63
489.81	15281.36
489.99	15229.87
490.17	15300.08
490.35	15447.54
490.53	15304.76
490.70	15824.36
490.88	15854.79
491.06	15786.91
491.24	15770.53
491.41	15709.68
491.59	16208.21
491.77	16046.71
491.95	16224.59
492.13	16290.13
492.30	16334.60
492.48	16428.22
492.66	16566.31
492.84	16706.74
493.01	16898.67
493.19	16713.77
493.37	16882.28
493.54	17184.21
493.72	17221.66
493.90	17317.62
494.08	17481.46
494.25	17411.25
494.43	17666.36
494.61	17809.14
494.79	17778.71
494.96	17762.33
495.14	17895.74
495.32	18232.77
495.49	18221.07
495.67	18153.20
495.85	18455.12
496.02	18696.20
496.20	18656.41
496.38	18679.82
496.55	18766.42
496.73	18883.44
496.91	18656.41
497.09	19040.26
497.26	19260.27
497.44	19016.85
497.62	19035.58
497.79	19159.63
497.97	19325.80
498.14	19772.85
498.32	20077.12
498.50	19749.44
498.67	20116.90
498.85	19641.78
499.03	19976.47
499.20	19885.19
499.38	20255.00
499.56	20240.95
499.73	20467.98
499.91	20514.80
500.08	20425.86
500.26	20318.19
500.44	20643.52
500.61	20884.60
500.79	20788.64
500.97	20769.91
501.14	21151.42
501.32	21144.40
501.49	21333.98
501.67	20879.92
501.84	21078.86
502.02	21355.05
502.20	21383.13
502.37	21458.03
502.55	21591.44
502.72	21532.93
502.90	21668.68
503.07	21504.84
503.25	21575.06
503.43	21729.53
503.60	21848.90
503.78	22052.53
503.95	21986.99
504.13	22188.28
504.30	22235.09
504.48	22197.64
504.65	22410.63
504.83	22588.51
505.01	22490.21
505.18	22562.76
505.36	22728.94
505.53	22806.18
505.71	22874.06
505.88	22948.95
506.06	22827.24
506.23	22721.92
506.41	23253.22
506.58	23194.71
506.76	23187.69
506.93	23208.75
507.11	23157.26
507.28	23351.52
507.46	23484.94
507.63	23892.19
507.81	23885.17
507.98	23470.89
508.16	23821.97
508.33	23667.50
508.50	23866.44
508.68	24098.16
508.85	24182.42
509.03	24046.66
509.20	24517.11
509.38	24465.62
509.55	24755.85
509.73	24294.76
509.90	24535.84
510.08	24734.78
510.25	24645.84
510.42	24758.19
510.60	24842.45
510.77	25123.31
510.95	24865.85
511.12	24709.04
511.30	24959.47
511.47	25153.74
511.64	25230.98
511.82	25514.18
511.99	25551.63
512.17	25348.00
512.34	25312.89
512.51	25666.31
512.69	25600.78
512.86	25619.50
513.04	26132.08
513.21	25942.50
513.38	26089.95
513.56	26068.89
513.73	26108.68
513.90	26012.71
514.08	26008.03
514.25	26022.08
514.43	26389.54
514.60	26157.83
514.77	26593.17
514.95	26836.58
515.12	26529.97
515.29	26377.84
515.47	26586.15
515.64	26656.36
515.81	26565.08
515.99	27150.21
516.16	27175.96
516.33	27377.25
516.51	27154.90
516.68	27037.87
516.85	27295.33
517.03	27534.06
517.20	27302.35
517.37	27501.29
517.54	27658.11
517.72	27742.37
517.89	27381.93
518.06	27346.82
518.24	27922.59
518.41	27145.53
518.58	27957.70
518.75	27985.79
518.93	28006.85
519.10	27962.38
519.27	27878.12
519.45	28367.29
519.62	28346.23
519.79	28390.70
519.96	28507.72
520.14	28163.67
520.31	28290.06
520.48	28379.00
520.65	28627.09
520.83	28723.05
521.00	28545.17
521.17	28222.18
521.34	28786.25
521.52	28797.95
521.69	28826.04
521.86	28882.21
522.03	29083.50
522.20	28936.04
522.38	28929.02
522.55	29123.29
522.72	29511.81
522.89	29163.08
523.07	29689.70
523.24	29432.24
523.41	29563.31
523.58	29214.57
523.75	29472.03
523.92	29565.65
524.10	29769.27
524.27	29862.90
524.44	29942.47
524.61	30305.26
524.78	30103.97
524.96	30192.91
525.13	30087.59
525.30	30347.39
525.47	30012.69
525.64	30244.40
525.81	30588.46
525.98	30267.81
526.16	30204.61
526.33	30323.98
526.50	30623.57
526.67	30487.82
526.84	30295.89
527.01	30377.81
527.18	30911.46
527.36	30742.94
527.53	30731.23
527.70	31084.65
527.87	31283.60
528.04	30780.39
528.21	30925.50
528.38	30937.20
528.55	30993.37
528.72	31325.73
528.89	31655.75
529.07	31042.53
529.24	31278.92
529.41	31613.62
529.58	31363.18
529.75	31260.20
529.92	31290.62
530.09	31541.06
530.26	31393.61
530.43	31117.42
530.60	31489.57
530.77	31721.28
530.94	31676.81
531.11	31491.91
531.28	31580.85
531.46	31789.16
531.63	31828.95
531.80	32072.36
531.97	31690.85
532.14	32147.26
532.31	32275.99
532.48	31952.99
532.65	32063.00
532.82	32006.83
532.99	32135.56
533.16	32194.07
533.33	32683.24
533.50	32889.21
533.67	32435.14
533.84	32273.65
534.01	32758.14
534.18	32250.24
534.35	32348.54
534.52	32357.91
534.69	32842.40
534.86	33141.99
535.03	32933.68
535.20	33031.98
535.37	33050.70
535.54	32851.76
535.71	32746.44
535.88	32840.06
536.05	32975.81
536.22	33188.80
536.38	33261.35
536.55	33448.60
536.72	33167.73
536.89	33486.04
537.06	33163.05
537.23	33319.87
537.40	33137.30
537.57	33390.08
537.74	33373.70
537.91	33682.65
538.08	33654.56
538.25	33509.45
538.42	33626.48
538.59	33317.53
538.75	33546.90
538.92	33605.41
539.09	33706.05
539.26	33500.09
539.43	33989.26
539.60	33731.80
539.77	34082.88
539.94	34223.31
540.11	34075.86
540.28	33921.38
540.44	34155.44
540.61	33933.09
540.78	33982.24
540.95	34616.52
541.12	34300.55
541.29	34621.20
541.46	34829.51
541.62	34771.00
541.79	35026.12
541.96	34813.13
542.13	34923.13
542.30	35302.30
542.47	34948.88
542.63	34878.66
542.80	35035.48
542.97	35182.93
543.14	35229.74
543.31	35131.44
543.48	35370.18
543.64	35424.01
543.81	35405.28
543.98	35622.95
544.15	35573.80
544.32	35599.55
544.48	35637.00
544.65	35454.44
544.82	35662.74
544.99	35531.67
545.16	35648.70
545.32	35201.66
545.49	36041.91
545.66	36825.99
545.83	36472.57
546.00	36360.22
546.16	36037.23
546.33	35629.98
546.50	35171.23
546.67	35578.48
546.83	35564.44
547.00	35428.69
547.17	36208.09
547.34	36044.25
547.50	36009.14
547.67	36081.70
547.84	35952.97
548.00	36109.78
548.17	36133.19
548.34	35840.62
548.51	36201.07
548.67	36271.28
548.84	36137.87
549.01	36107.44
549.18	35943.61
549.34	36320.43
549.51	36275.96
549.68	36175.32
549.84	35854.67
550.01	36121.49
550.18	36418.74
550.34	36100.42
550.51	36449.16
550.68	36875.14
550.84	36177.66
551.01	36048.93
551.18	36058.29
551.34	36058.29
551.51	36301.71
551.68	36311.07
551.84	36435.12
552.01	36285.33
552.18	36378.95
552.34	36648.11
552.51	36570.87
552.68	36275.96
552.84	36404.69
553.01	36184.68
553.18	36643.43
553.34	36608.32
553.51	36694.92
553.67	36526.40
553.84	37069.40
554.01	36879.82
554.17	36416.40
554.34	36692.58
554.51	36367.24
554.67	36886.84
554.84	36453.84
555.00	36830.67
555.17	37022.59
555.33	37390.06
555.50	37284.73
555.67	37153.66
555.83	36968.76
556.00	36683.22
556.16	37642.84
556.33	36739.39
556.50	37076.43
556.66	36947.70
556.83	37305.80
556.99	37474.32
557.16	37228.56
557.32	37497.72
557.49	37205.16
557.65	37151.32
557.82	37326.86
557.98	36809.61
558.15	36959.40
558.32	37415.80
558.48	36772.16
558.65	37373.67
558.81	37490.70
558.98	37057.70
559.14	37141.96
559.31	37132.60
559.47	37219.20
559.64	37184.09
559.80	37359.63
559.97	37280.05
560.13	37305.80
560.30	37116.22
560.46	37640.50
560.63	37530.49
560.79	37301.12
560.96	37574.96
561.12	37247.29
561.29	37134.94
561.45	37275.37
561.61	37841.78
561.78	37371.33
561.94	37654.54
562.11	37741.14
562.27	37319.84
562.44	36928.97
562.60	37436.87
562.77	37432.19
562.93	37794.97
563.10	38038.39
563.26	37333.89
563.42	37893.27
563.59	37560.92
563.75	37703.69
563.92	37832.42
564.08	37521.13
564.24	37762.20
564.41	37490.70
564.57	37219.20
564.74	37670.92
564.90	37553.90
565.07	37809.01
565.23	37855.82
565.39	37750.50
565.56	37687.31
565.72	37581.98
565.88	37481.34
566.05	37488.36
566.21	37879.23
566.38	37619.43
566.54	38007.96
566.70	37654.54
566.87	37731.78
567.03	37958.81
567.19	37841.78
567.36	38534.58
567.52	37691.99
567.68	37612.41
567.85	37865.19
568.01	37926.04
568.17	37385.38
568.34	38010.30
568.50	37926.04
568.66	37654.54
568.83	38150.73
568.99	37787.95
569.15	37565.60
569.32	37731.78
569.48	37968.17
569.64	37764.54
569.81	37972.85
569.97	38260.74
570.13	38337.98
570.30	38370.74
570.46	37986.89
570.62	37631.13
570.78	37640.50
570.95	37965.83
571.11	37769.22
571.27	37804.33
571.43	37493.04
571.60	38101.58
571.76	38218.61
571.92	37827.74
572.09	38452.66
572.25	38462.02
572.41	37717.73
572.57	37764.54
572.74	38124.99
572.90	37947.11
573.06	38136.69
573.22	37982.21
573.38	38103.92
573.55	38204.56
573.71	38305.21
573.87	38167.12
574.03	38078.18
574.20	37958.81
574.36	37663.90
574.52	38251.38
574.68	37930.72
574.84	38419.89
575.01	38354.36
575.17	38242.01
575.33	38012.64
575.49	38171.80
575.65	38333.29
575.82	38010.30
575.98	38110.94
576.14	37741.14
576.30	37949.45
576.46	38260.74
576.62	37551.56
576.79	37998.60
576.95	38227.97
577.11	37979.87
577.27	38234.99
577.43	38106.26
577.59	38192.86
577.75	37872.21
577.92	37659.22
578.08	38068.81
578.24	37420.48
578.40	38059.45
578.56	38202.22
578.72	37977.53
578.88	38132.01
579.04	38506.49
579.21	38000.94
579.37	38094.56
579.53	38632.88
579.69	37724.75
579.85	38054.77
580.01	38307.55
580.17	37900.29
580.33	37893.27
580.49	38410.53
580.65	38506.49
580.82	38394.15
580.98	37675.60
581.14	38401.17
581.30	38117.96
581.46	38038.39
581.62	38169.46
581.78	37755.18
581.94	38405.85
582.10	38099.24
582.26	37834.76
582.42	38295.85
582.58	38485.43
582.74	38377.76
582.90	37818.38
583.06	38478.41
583.22	38237.33
583.38	37928.38
583.54	38110.94
583.70	38359.04
583.86	38370.74
584.02	38396.49
584.18	38410.53
584.34	38405.85
584.50	38487.77
584.66	38347.34
584.82	38237.33
584.98	38431.60
585.14	38153.07
585.30	37820.72
585.46	38019.66
585.62	38124.99
585.78	38330.95
585.94	38031.36
586.10	38646.93
586.26	37996.26
586.42	38143.71
586.58	38569.69
586.74	38464.36
586.90	38328.61
587.06	38148.39
587.22	38689.06
587.38	38153.07
587.54	38162.43
587.70	38607.14
587.86	38476.07
588.02	38337.98
588.18	38766.29
588.34	38438.62
588.49	38330.95
588.65	38429.26
588.81	38103.92
588.97	38249.03
589.13	37919.02
589.29	38433.94
589.45	38286.48
589.61	38394.15
589.77	38703.10
589.93	38356.70
590.08	38824.81
590.24	38951.20
590.40	38637.56
590.56	38845.87
590.72	38263.08
590.88	38160.09
591.04	38452.66
591.20	38733.53
591.35	38754.59
