SpectraSuite Data File
++++++++++++++++++++++++++++++++++++
Date: Tue Oct 01 18:27:25 GMT-05:00 2013
User: stostad
Dark Spectrum Present: No
Reference Spectrum Present: No
Number of Sampled Component Spectra: 1
Spectrometers: USB2+H05261
Integration Time (usec): 100000 (USB2+H05261)
Spectra Averaged: 1 (USB2+H05261)
Boxcar Smoothing: 0 (USB2+H05261)
Correct for Electrical Dark: No (USB2+H05261)
Strobe/Lamp Enabled: No (USB2+H05261)
Correct for Detector Non-linearity: No (USB2+H05261)
Correct for Stray Light: No (USB2+H05261)
Number of Pixels in Processed Spectrum: 2048
>>>>>Begin Processed Spectral Data<<<<<
365.73	77.24
365.92	77.24
366.12	77.24
366.32	28.09
366.52	0.00
366.72	21.06
366.91	0.00
367.11	0.00
367.31	25.75
367.51	46.81
367.70	0.00
367.90	28.09
368.10	0.00
368.30	0.00
368.49	0.00
368.69	67.88
368.89	0.00
369.09	4.68
369.28	4.68
369.48	0.00
369.68	39.79
369.87	86.60
370.07	77.24
370.27	81.92
370.47	93.62
370.66	292.57
370.86	234.05
371.06	381.51
371.25	367.46
371.45	264.48
371.65	421.30
371.84	374.49
372.04	362.78
372.24	355.76
372.44	400.23
372.63	423.64
372.83	393.21
373.03	360.44
373.22	379.17
373.42	353.42
373.62	397.89
373.81	486.83
374.01	454.06
374.21	404.91
374.40	390.87
374.60	444.70
374.79	498.53
374.99	407.25
375.19	454.06
375.38	404.91
375.58	507.90
375.78	454.06
375.97	456.40
376.17	505.56
376.37	470.45
376.56	517.26
376.76	440.02
376.95	489.17
377.15	451.72
377.35	449.38
377.54	533.64
377.74	510.24
377.93	578.11
378.13	503.22
378.33	468.11
378.52	491.51
378.72	500.87
378.91	507.90
379.11	484.49
379.31	580.45
379.50	519.60
379.70	589.82
379.89	521.94
380.09	557.05
380.28	505.56
380.48	592.16
380.68	631.94
380.87	498.53
381.07	571.09
381.26	599.18
381.46	578.11
381.65	571.09
381.85	589.82
382.04	636.63
382.24	622.58
382.43	554.71
382.63	599.18
382.83	557.05
383.02	585.13
383.22	671.73
383.41	610.88
383.61	638.97
383.80	648.33
384.00	664.71
384.19	716.20
384.39	636.63
384.58	624.92
384.78	575.77
384.97	655.35
385.17	669.39
385.36	669.39
385.56	599.18
385.75	669.39
385.95	610.88
386.14	667.05
386.34	660.03
386.53	629.60
386.72	716.20
386.92	692.80
387.11	793.44
387.31	795.78
387.50	627.26
387.70	690.46
387.89	720.88
388.09	767.70
388.28	739.61
388.48	746.63
388.67	849.61
388.86	741.95
389.06	688.12
389.25	688.12
389.45	779.40
389.64	767.70
389.84	851.96
390.03	744.29
390.22	784.08
390.42	760.67
390.61	751.31
390.81	779.40
391.00	807.48
391.19	788.76
391.39	821.53
391.58	758.33
391.78	798.12
391.97	887.06
392.16	755.99
392.36	905.79
392.55	847.27
392.75	856.64
392.94	809.83
393.13	833.23
393.33	882.38
393.52	866.00
393.71	922.17
393.91	940.90
394.10	903.45
394.29	945.58
394.49	875.36
394.68	1001.75
394.88	926.85
395.07	954.94
395.26	1020.47
395.46	985.37
395.65	1029.84
395.84	976.00
396.04	1095.37
396.23	1088.35
396.42	992.39
396.62	1102.39
396.81	1076.65
397.00	1006.43
397.19	961.96
397.39	968.98
397.58	1135.16
397.77	1200.69
397.97	1221.76
398.16	1107.07
398.35	1196.01
398.55	1097.71
398.74	1104.73
398.93	1270.91
399.12	1179.63
399.32	1135.16
399.51	1160.91
399.70	1261.55
399.90	1156.22
400.09	1104.73
400.28	1191.33
400.47	1184.31
400.67	1249.85
400.86	1289.64
401.05	1259.21
401.24	1238.14
401.44	1203.04
401.63	1334.11
401.82	1334.11
402.01	1348.15
402.21	1352.83
402.40	1350.49
402.59	1406.66
402.78	1416.02
402.97	1434.75
403.17	1383.26
403.36	1472.20
403.55	1444.11
403.74	1479.22
403.93	1441.77
404.13	1547.09
404.32	1519.01
404.51	1514.33
404.70	1521.35
404.89	1570.50
405.09	1636.03
405.28	1521.35
405.47	1605.61
405.66	1682.85
405.85	1591.56
406.05	1734.34
406.24	1689.87
406.43	1713.27
406.62	1760.08
406.81	1806.89
407.00	1717.95
407.20	1764.76
407.39	1762.42
407.58	1811.57
407.77	1856.04
407.96	1963.71
408.15	1907.54
408.34	1762.42
408.54	1961.37
408.73	1856.04
408.92	1949.67
409.11	1851.36
409.30	2038.61
409.49	1853.70
409.68	2047.97
409.87	2029.24
410.07	2113.50
410.26	2134.57
410.45	2047.97
410.64	2092.44
410.83	2040.95
411.02	2097.12
411.21	2253.94
411.40	2232.87
411.59	2211.81
411.78	2186.06
411.98	2106.48
412.17	2282.02
412.36	2181.38
412.55	2319.47
412.74	2225.85
412.93	2387.35
413.12	2366.28
413.31	2466.92
413.50	2373.30
413.69	2396.71
413.88	2495.01
414.07	2511.39
414.26	2647.15
414.45	2595.65
414.64	2595.65
414.83	2628.42
415.02	2665.87
415.22	2661.19
415.41	2715.02
415.60	2771.19
415.79	2892.90
415.98	2818.00
416.17	2850.77
416.36	2778.22
416.55	2813.32
416.74	2890.56
416.93	2853.11
417.12	2979.50
417.31	3002.91
417.50	2981.84
417.69	3155.04
417.88	3016.95
418.07	2979.50
418.26	3068.44
418.45	3159.72
418.64	3241.64
418.83	3213.56
419.02	3035.67
419.21	3180.79
419.39	3101.21
419.58	3059.08
419.77	3138.66
419.96	3323.56
420.15	3304.84
420.34	3197.17
420.53	3452.29
420.72	3403.14
420.91	3438.25
421.10	3407.82
421.29	3620.81
421.48	3445.27
421.67	3419.52
421.86	3269.73
422.05	3405.48
422.24	3585.70
422.43	3548.25
422.61	3552.93
422.80	3550.59
422.99	3515.48
423.18	3566.98
423.37	3597.40
423.56	3583.36
423.75	3506.12
423.94	3368.03
424.13	3379.73
424.32	3463.99
424.50	3641.87
424.69	3613.79
424.88	3630.17
425.07	3503.78
425.26	3606.77
425.45	3705.07
425.64	3611.45
425.83	3552.93
426.01	3721.45
426.20	3620.81
426.39	3786.99
426.58	3625.49
426.77	3852.52
426.96	3733.15
427.15	3625.49
427.33	3742.52
427.52	3597.40
427.71	3805.71
427.90	3786.99
428.09	3857.20
428.28	3808.05
428.46	3854.86
428.65	3859.54
428.84	3922.74
429.03	4095.94
429.22	3695.71
429.40	4002.32
429.59	3939.12
429.78	3929.76
429.97	3941.46
430.16	3985.93
430.34	4093.60
430.53	4142.75
430.72	4107.64
430.91	4014.02
431.10	4124.02
431.28	4149.77
431.47	4159.13
431.66	4273.82
431.85	4280.84
432.03	4362.76
432.22	4449.36
432.41	4440.00
432.60	4280.84
432.79	4308.93
432.97	4451.70
433.16	4290.20
433.35	4234.03
433.54	4294.88
433.72	4652.98
433.91	4421.27
434.10	4437.66
434.28	4383.82
434.47	4603.83
434.66	4475.10
434.85	4657.67
435.03	4678.73
435.22	4528.94
435.41	4657.67
435.59	4566.39
435.78	4662.35
435.97	4606.17
436.16	4744.27
436.34	4648.30
436.53	4627.24
436.72	4830.87
436.90	4748.95
437.09	4823.84
437.28	4851.93
437.46	4983.00
437.65	4868.31
437.84	4940.87
438.02	5025.13
438.21	4938.53
438.40	4894.06
438.58	5060.24
438.77	5064.92
438.96	5050.88
439.14	5205.35
439.33	5249.82
439.52	5224.08
439.70	5369.19
439.89	5373.87
440.08	5570.48
440.26	5280.25
440.45	5245.14
440.63	5521.32
440.82	5460.47
441.01	5523.66
441.19	5661.76
441.38	5706.23
441.57	5774.10
441.75	5717.93
441.94	5724.95
442.12	5783.46
442.31	5863.04
442.50	5825.59
442.68	5860.70
442.87	5872.40
443.05	5916.87
443.24	6085.39
443.43	6127.52
443.61	5860.70
443.80	6171.99
443.98	5863.04
444.17	5820.91
444.35	6120.50
444.54	6174.33
444.73	6047.94
444.91	6022.20
445.10	6106.46
445.28	6066.67
445.47	6078.37
445.65	6043.26
445.84	6155.61
446.02	6155.61
446.21	6153.27
446.39	6005.81
446.58	6169.65
446.77	6094.76
446.95	6071.35
447.14	6085.39
447.32	6183.70
447.51	6263.27
447.69	6317.11
447.88	6265.61
448.06	6270.30
448.25	6342.85
448.43	6368.60
448.62	6305.40
448.80	6307.74
448.99	6466.90
449.17	6314.77
449.36	6354.55
449.54	6661.16
449.73	6604.99
449.91	6597.97
450.10	6670.53
450.28	6534.78
450.46	6738.40
450.65	6679.89
450.83	6581.59
451.02	6675.21
451.20	6675.21
451.39	6785.21
451.57	6633.08
451.76	6806.28
451.94	6616.69
452.13	6885.86
452.31	6759.47
452.49	6895.22
452.68	6707.98
452.86	7035.65
453.05	6974.80
453.23	6972.46
453.42	6808.62
453.60	7002.88
453.78	7082.46
453.97	7014.59
454.15	7030.97
454.34	6932.67
454.52	7236.94
454.70	7187.79
454.89	7314.17
455.07	7229.91
455.26	7183.10
455.44	7304.81
455.62	7316.51
455.81	7360.98
455.99	7459.29
456.17	7440.56
456.36	7396.09
456.54	7433.54
456.73	7545.89
456.91	7737.81
457.09	7695.68
457.28	7847.82
457.46	7496.74
457.64	7695.68
457.83	7695.68
458.01	7672.28
458.19	7754.19
458.38	7803.35
458.56	7815.05
458.74	7922.71
458.93	7932.08
459.11	7833.77
459.29	7892.29
459.48	7908.67
459.66	7936.76
459.84	7836.11
460.03	8222.30
460.21	8138.04
460.39	8004.63
460.57	7974.21
460.76	8271.45
460.94	8226.98
461.12	7948.46
461.31	8208.26
461.49	8346.35
461.67	8217.62
461.85	8360.39
462.04	8439.97
462.22	8898.72
462.40	8557.00
462.59	8444.65
462.77	8514.87
462.95	8542.96
463.13	8571.04
463.32	8573.38
463.50	8428.27
463.68	8624.87
463.86	8538.27
464.05	8793.39
464.23	8662.32
464.41	8645.94
464.59	8404.86
464.78	8751.26
464.96	8800.41
465.14	8762.97
465.32	8744.24
465.50	8915.10
465.69	8982.98
465.87	8933.82
466.05	9027.45
466.23	8971.27
466.41	9062.55
466.60	9048.51
466.78	8964.25
466.96	8898.72
467.14	8891.70
467.32	9142.13
467.51	9305.97
467.69	8985.32
467.87	8861.27
468.05	9207.67
468.23	9221.71
468.41	9135.11
468.60	9383.21
468.78	9598.54
468.96	9085.96
469.14	9369.16
469.32	9479.17
469.50	9210.01
469.69	9570.45
469.87	9607.90
470.05	9647.69
470.23	9619.60
470.41	9722.59
470.59	9764.72
470.77	9668.75
470.95	9804.50
471.14	9731.95
471.32	9748.33
471.50	9944.94
471.68	10204.74
471.86	10068.98
472.04	10298.36
472.22	10298.36
472.40	10127.50
472.58	10188.35
472.77	10267.93
472.95	10471.56
473.13	10768.80
473.31	10260.91
473.49	10389.64
473.67	10331.12
473.85	10504.32
474.03	10754.76
474.21	10607.31
474.39	10869.45
474.57	11061.37
474.75	11061.37
474.93	11234.57
475.12	11056.69
475.30	10979.45
475.48	11105.84
475.66	11332.87
475.84	10960.73
476.02	11236.91
476.20	11311.81
476.38	11281.38
476.56	11550.54
476.74	11698.00
476.92	11833.75
477.10	11625.44
477.28	11868.86
477.46	11674.59
477.64	12116.95
477.82	12168.45
478.00	12287.81
478.18	12463.35
478.36	12681.02
478.54	12395.48
478.72	12819.11
478.90	12725.49
479.08	13226.37
479.26	12999.34
479.44	12954.87
479.62	12975.93
479.80	13291.90
479.98	13530.64
480.16	13427.65
480.34	13614.90
480.52	13762.35
480.70	13851.29
480.88	13493.19
481.06	13879.38
481.24	13809.16
481.41	13848.95
481.59	14487.92
481.77	14295.99
481.95	14391.95
482.13	14607.28
482.31	14305.35
482.49	14682.18
482.67	14967.73
482.85	15028.58
483.03	15264.97
483.21	15264.97
483.39	15133.90
483.57	15283.70
483.74	15630.10
483.92	15887.56
484.10	15770.53
484.28	16212.89
484.46	16273.74
484.64	16531.20
484.82	15927.35
485.00	16421.20
485.18	16685.68
485.35	16936.12
485.53	17076.55
485.71	16744.19
485.89	17207.62
486.07	17263.79
486.25	17270.81
486.43	17713.17
486.61	17804.46
486.78	17916.80
486.96	17729.56
487.14	17830.20
487.32	18115.75
487.50	18427.04
487.68	18401.29
487.85	18412.99
488.03	18600.24
488.21	19122.18
488.39	19122.18
488.57	18925.57
488.75	19271.97
488.92	19697.95
489.10	19742.42
489.28	19733.06
489.46	20030.30
489.64	19665.18
489.81	20168.40
489.99	20465.64
490.17	20559.27
490.35	20957.16
490.53	20858.85
490.70	20751.19
490.88	20844.81
491.06	20821.41
491.24	21003.97
491.41	21446.33
491.59	21675.70
491.77	21874.65
491.95	21752.94
492.13	21970.61
492.30	21834.86
492.48	22174.24
492.66	22225.73
492.84	22099.34
493.01	22726.60
493.19	22712.56
493.37	22803.84
493.54	22698.52
493.72	23325.78
493.90	23356.21
494.08	23398.34
494.25	24027.94
494.43	23754.10
494.61	23920.28
494.79	24112.20
494.96	24142.63
495.14	24580.31
495.32	24556.90
495.49	24381.36
495.67	24603.71
495.85	24617.75
496.02	24975.86
496.20	24994.58
496.38	25275.45
496.55	25460.35
496.73	26040.80
496.91	25638.23
497.09	25432.26
497.26	25766.96
497.44	26047.82
497.62	25986.97
497.79	26298.26
497.97	26689.13
498.14	26867.01
498.32	26677.43
498.50	26572.10
498.67	26948.93
498.85	27014.46
499.03	27274.26
499.20	27220.43
499.38	27400.65
499.56	27438.10
499.73	27623.00
499.91	27576.19
500.08	27782.16
500.26	27777.48
500.44	28044.30
500.61	28093.45
500.79	28088.77
500.97	28620.07
501.14	28437.51
501.32	28264.31
501.49	28816.68
501.67	28531.13
501.84	28807.31
502.02	28985.19
502.20	28922.00
502.37	28950.09
502.55	29125.63
502.72	29132.65
502.90	29310.53
503.07	29331.59
503.25	29596.07
503.43	29614.80
503.60	29549.26
503.78	29773.95
503.95	29947.15
504.13	30267.81
504.30	30370.79
504.48	30319.30
504.65	30375.47
504.83	30328.66
505.01	30712.51
505.18	30541.65
505.36	30857.62
505.53	30780.39
505.71	30848.26
505.88	31264.88
506.06	31077.63
506.23	31335.09
506.41	31566.81
506.58	31541.06
506.76	31262.54
506.93	31665.11
507.11	31630.00
507.28	31835.97
507.46	31892.14
507.63	32194.07
507.81	32503.02
507.98	31817.24
508.16	31838.31
508.33	32460.89
508.50	32622.39
508.68	32837.72
508.85	32917.29
509.03	32704.31
509.20	32577.92
509.38	33081.13
509.55	33170.07
509.73	32978.15
509.90	33532.86
510.08	33626.48
510.25	33532.86
510.42	33514.13
510.60	33518.81
510.77	33670.95
510.95	34305.23
511.12	33675.63
511.30	33722.44
511.47	34270.12
511.64	34256.08
511.82	34438.64
511.99	34398.85
512.17	34375.45
512.34	34604.82
512.51	34768.66
512.69	35014.41
512.86	34909.09
513.04	35218.04
513.21	35014.41
513.38	35040.16
513.56	35103.35
513.73	34897.39
513.90	35189.95
514.08	35693.17
514.25	35456.78
514.43	35627.63
514.60	35917.86
514.77	35922.54
514.95	35903.82
515.12	35613.59
515.29	36002.12
515.47	36566.19
515.64	36411.71
515.81	36222.13
515.99	36669.17
516.16	36748.75
516.33	36531.08
516.51	37200.47
516.68	36858.76
516.85	36727.69
517.03	37053.02
517.20	36989.83
517.37	36870.46
517.54	37471.98
517.72	36870.46
517.89	37214.52
518.06	37345.59
518.24	37670.92
518.41	37359.63
518.58	37460.27
518.75	37502.40
518.93	37394.74
519.10	37291.76
519.27	37916.68
519.45	37942.42
519.62	38040.73
519.79	38452.66
519.96	38384.79
520.14	38127.33
520.31	37991.58
520.48	38646.93
520.65	38183.50
520.83	38979.28
521.00	38836.51
521.17	38644.59
521.34	39164.18
521.52	39339.72
521.69	39007.37
521.86	38827.15
522.03	39117.37
522.20	39477.82
522.38	39189.93
522.55	39594.84
522.72	39402.92
522.89	39974.01
523.07	40257.21
523.24	39477.82
523.41	39370.15
523.58	40065.29
523.75	40402.33
523.92	39950.60
524.10	40594.25
524.27	40708.94
524.44	40711.28
524.61	40722.98
524.78	40566.16
524.96	40570.85
525.13	40924.27
525.30	40500.63
525.47	41240.24
525.64	41275.35
525.81	41045.97
525.98	40891.50
526.16	41394.71
526.33	41525.78
526.50	41797.29
526.67	41247.26
526.84	41867.50
527.01	41343.22
527.18	41911.97
527.36	41778.56
527.53	41851.12
527.70	41823.03
527.87	42153.05
528.04	41886.23
528.21	42344.97
528.38	42300.50
528.55	42309.86
528.72	42300.50
528.89	42480.72
529.07	42401.14
529.24	42253.69
529.41	42000.91
529.58	42621.16
529.75	42476.04
529.92	42733.50
530.09	42731.16
530.26	43007.34
530.43	42981.60
530.60	42351.99
530.77	42717.12
530.94	42979.26
531.11	43196.93
531.28	42895.00
531.46	43136.07
531.63	43751.63
531.80	43133.73
531.97	43283.53
532.14	43800.79
532.31	43098.62
532.48	43606.52
532.65	43627.59
532.82	43313.95
532.99	43810.15
533.16	43721.21
533.33	43681.42
533.50	44252.51
533.67	43936.54
533.84	43629.93
534.01	43807.81
534.18	44004.41
534.35	44634.02
534.52	44219.74
534.69	44463.16
534.86	44767.43
535.03	44378.90
535.20	44432.73
535.37	43728.23
535.54	44397.62
535.71	44257.19
535.88	45029.57
536.05	44837.64
536.22	44987.44
536.38	45153.62
536.55	44737.00
536.72	44828.28
536.89	44729.98
537.06	44863.39
537.23	44774.45
537.40	44659.76
537.57	45406.39
537.74	45151.27
537.91	45059.99
538.08	45074.04
538.25	44996.80
538.42	45326.81
538.59	45556.19
538.75	45127.87
538.92	45757.47
539.09	45694.28
539.26	45879.18
539.43	45682.58
539.60	45624.06
539.77	45492.99
539.94	45933.01
540.11	46082.81
540.28	45848.75
540.44	46253.67
540.61	45930.67
540.78	45457.88
540.95	46115.58
541.12	46293.46
541.29	46337.93
541.46	46508.79
541.62	46429.21
541.79	46298.14
541.96	45855.78
542.13	46174.09
542.30	46679.64
542.47	46600.07
542.63	46464.32
542.80	46717.09
542.97	46843.48
543.14	47466.06
543.31	46738.16
543.48	46710.07
543.64	47751.61
543.81	47660.33
543.98	47150.09
544.15	47215.63
544.32	47428.62
544.48	47604.16
544.65	47440.32
544.82	47454.36
544.99	47194.56
545.16	47360.74
545.32	47646.29
545.49	47690.76
545.66	47798.42
545.83	47739.91
546.00	47772.67
546.16	48126.10
546.33	47363.08
546.50	47784.38
546.67	48154.18
546.83	47494.15
547.00	47889.70
547.17	48210.35
547.34	47688.42
547.50	48154.18
547.67	48261.85
547.84	48121.41
548.00	48060.56
548.17	48589.52
548.34	48701.87
548.51	48727.61
548.67	48432.71
548.84	48474.84
549.01	48254.82
549.18	48002.05
549.34	48250.14
549.51	48619.95
549.68	48549.73
549.84	48973.37
550.01	48762.72
550.18	48552.07
550.34	48540.37
550.51	48900.81
550.68	48891.45
550.84	48355.47
551.01	48854.00
551.18	48879.75
551.34	48846.98
551.51	48889.11
551.68	48839.96
551.84	49317.43
552.01	48633.99
552.18	48896.13
552.34	48374.19
552.51	49134.87
552.68	49038.90
552.84	48989.75
553.01	49392.33
553.18	49490.63
553.34	49169.97
553.51	49303.38
553.67	49251.89
553.84	49518.71
554.01	49368.92
554.17	49340.83
554.34	49715.32
554.51	49890.86
554.67	49982.14
554.84	49722.34
555.00	49724.68
555.17	49745.75
555.33	49762.13
555.50	49497.65
555.67	49474.24
555.83	49638.08
556.00	49783.19
556.16	50255.98
556.33	50103.85
556.50	50169.38
556.66	49940.01
556.83	49734.04
556.99	50506.42
557.16	49869.79
557.32	49677.87
557.49	50396.42
557.65	49862.77
557.82	50267.69
557.98	50419.82
558.15	50422.16
558.32	50637.49
558.48	50035.97
558.65	50232.58
558.81	50232.58
558.98	50518.12
559.14	50099.17
559.31	50445.57
559.47	50178.75
559.64	50698.34
559.80	50466.63
559.97	50365.99
560.13	50365.99
560.30	49975.12
560.46	50216.19
560.63	50232.58
560.79	50246.62
560.96	50560.25
561.12	50642.17
561.29	50607.06
561.45	50789.62
561.61	50560.25
561.78	50646.85
561.94	50012.57
562.11	50691.32
562.27	50506.42
562.44	50543.87
562.60	50728.77
562.77	50829.41
562.93	50827.07
563.10	51173.47
563.26	50827.07
563.42	50890.27
563.59	50768.56
563.75	50586.00
563.92	50703.03
564.08	50721.75
564.24	51014.32
564.41	51054.11
564.57	50731.11
564.74	50885.59
564.90	50717.07
565.07	50791.97
565.23	50686.64
565.39	50864.52
565.56	51000.27
565.72	50735.79
565.88	50981.55
566.05	50939.42
566.21	51264.75
566.38	50857.50
566.54	51164.11
566.70	51222.62
566.87	51519.87
567.03	50824.73
567.19	51117.30
567.36	51011.98
567.52	50990.91
567.68	51437.95
567.85	50993.25
568.01	51231.99
568.17	51110.28
568.34	51299.86
568.50	50866.86
568.66	50824.73
568.83	51281.14
568.99	50824.73
569.15	50988.57
569.32	51346.67
569.48	51068.15
569.64	51327.95
569.81	51255.39
569.97	51187.52
570.13	51175.81
570.30	51037.72
570.46	51075.17
570.62	51164.11
570.78	51075.17
570.95	51257.73
571.11	51564.34
571.27	51594.77
571.43	51538.60
571.60	51885.00
571.76	50993.25
571.92	51285.82
572.09	51323.27
572.25	51299.86
572.41	51341.99
572.57	51653.28
572.74	51660.30
572.90	51632.22
573.06	51657.96
573.22	51854.57
573.38	51524.55
573.55	51524.55
573.71	51810.10
573.87	51540.94
574.03	51117.30
574.20	51501.15
574.36	51377.10
574.52	51423.91
574.68	51267.09
574.84	51636.90
575.01	51910.74
575.17	51789.03
575.33	51437.95
575.49	51414.55
575.65	51847.55
575.82	51496.47
575.98	51126.66
576.14	51508.17
576.30	51702.43
576.46	51805.42
576.62	51423.91
576.79	51983.30
576.95	51751.59
577.11	51330.29
577.27	51320.93
577.43	51552.64
577.59	51482.42
577.75	51522.21
577.92	51559.66
578.08	51606.47
578.24	51938.83
578.40	51793.71
578.56	52107.35
578.72	51571.36
578.88	51800.74
579.04	51679.03
579.21	51414.55
579.37	51655.62
579.53	51812.44
579.69	51517.53
579.85	51639.24
580.01	51987.98
580.17	51601.79
580.33	52002.02
580.49	51580.73
580.65	51683.71
580.82	51730.52
580.98	51917.76
581.14	51533.92
581.30	52053.51
581.46	52006.70
581.62	52055.85
581.78	51948.19
581.94	52006.70
582.10	51655.62
582.26	51679.03
582.42	51669.67
582.58	51650.94
582.74	51742.22
582.90	52097.98
583.06	51838.18
583.22	52044.15
583.38	51997.34
583.54	51887.34
583.70	52172.88
583.86	52210.33
584.02	51859.25
584.18	51819.46
584.34	51622.86
584.50	52034.79
584.66	51700.09
584.82	51751.59
584.98	52013.73
585.14	52203.31
585.30	51641.58
585.46	52229.05
585.62	51880.31
585.78	51910.74
585.94	51702.43
586.10	51672.01
586.26	51693.07
586.42	51957.55
586.58	51739.88
586.74	51854.57
586.90	52072.24
587.06	51770.31
587.22	52123.73
587.38	52065.22
587.54	52013.73
587.70	51877.97
587.86	52589.50
588.02	51997.34
588.18	52303.95
588.34	51842.87
588.49	51917.76
588.65	51908.40
588.81	52196.29
588.97	52566.09
589.13	52402.25
589.29	52596.52
589.45	52685.46
589.61	52072.24
589.77	52339.06
589.93	52477.15
590.08	52189.27
590.24	52477.15
590.40	52367.15
