SpectraSuite Data File
++++++++++++++++++++++++++++++++++++
Date: Fri Oct 04 11:39:47 GMT-05:00 2013
User: price-jones
Dark Spectrum Present: No
Reference Spectrum Present: No
Number of Sampled Component Spectra: 1
Spectrometers: USB2+H05261
Integration Time (usec): 100000 (USB2+H05261)
Spectra Averaged: 1 (USB2+H05261)
Boxcar Smoothing: 0 (USB2+H05261)
Correct for Electrical Dark: No (USB2+H05261)
Strobe/Lamp Enabled: No (USB2+H05261)
Correct for Detector Non-linearity: No (USB2+H05261)
Correct for Stray Light: No (USB2+H05261)
Number of Pixels in Processed Spectrum: 2048
>>>>>Begin Processed Spectral Data<<<<<
365.73	65.54
365.92	65.54
366.12	65.54
366.32	14.04
366.52	0.00
366.72	9.36
366.91	0.00
367.11	0.00
367.31	0.00
367.51	0.00
367.70	0.00
367.90	7.02
368.10	16.38
368.30	0.00
368.49	0.00
368.69	0.00
368.89	0.00
369.09	21.06
369.28	0.00
369.48	23.41
369.68	0.00
369.87	0.00
370.07	35.11
370.27	56.17
370.47	180.22
370.66	463.43
370.86	550.03
371.06	613.22
371.25	592.16
371.45	580.45
371.65	667.05
371.84	601.52
372.04	557.05
372.24	678.76
372.44	683.44
372.63	608.54
372.83	718.54
373.03	643.65
373.22	624.92
373.42	695.14
373.62	685.78
373.81	763.01
374.01	683.44
374.21	734.93
374.40	723.23
374.60	730.25
374.79	744.29
374.99	807.48
375.19	734.93
375.38	720.88
375.58	800.46
375.78	809.83
375.97	833.23
376.17	734.93
376.37	809.83
376.56	791.10
376.76	807.48
376.95	910.47
377.15	823.87
377.35	873.02
377.54	837.91
377.74	929.19
377.93	854.30
378.13	800.46
378.33	945.58
378.52	940.90
378.72	866.00
378.91	905.79
379.11	919.83
379.31	966.64
379.50	1013.45
379.70	976.00
379.89	957.28
380.09	947.92
380.28	924.51
380.48	976.00
380.68	954.94
380.87	950.26
381.07	992.39
381.26	976.00
381.46	1015.79
381.65	1074.31
381.85	1046.22
382.04	1121.12
382.24	1104.73
382.43	1086.01
382.63	1064.94
382.83	1022.81
383.02	1116.44
383.22	1153.88
383.41	1097.71
383.61	1071.97
383.80	1088.35
384.00	1043.88
384.19	1109.41
384.39	1242.82
384.58	1226.44
384.78	1160.91
384.97	1163.25
385.17	1181.97
385.36	1160.91
385.56	1198.35
385.75	1254.53
385.95	1196.01
386.14	1219.42
386.34	1200.69
386.53	1172.61
386.72	1263.89
386.92	1240.48
387.11	1308.36
387.31	1306.02
387.50	1411.34
387.70	1261.55
387.89	1261.55
388.09	1336.45
388.28	1320.06
388.48	1348.15
388.67	1352.83
388.86	1308.36
389.06	1310.70
389.25	1420.71
389.45	1418.36
389.64	1390.28
389.84	1439.43
390.03	1385.60
390.22	1427.73
390.42	1423.05
390.61	1380.92
390.81	1488.58
391.00	1427.73
391.19	1551.78
391.39	1497.94
391.58	1556.46
391.78	1544.75
391.97	1607.95
392.16	1619.65
392.36	1659.44
392.55	1633.69
392.75	1696.89
392.94	1612.63
393.13	1657.10
393.33	1624.33
393.52	1685.19
393.71	1734.34
393.91	1788.17
394.10	1645.40
394.29	1671.14
394.49	1680.50
394.68	1834.98
394.88	1825.62
395.07	1736.68
395.26	1813.92
395.46	1839.66
395.65	1771.79
395.84	1949.67
396.04	1959.03
396.23	1879.45
396.42	1930.94
396.62	1921.58
396.81	1956.69
397.00	1907.54
397.19	1895.83
397.39	1949.67
397.58	1998.82
397.77	2066.69
397.97	2092.44
398.16	2052.65
398.35	2136.91
398.55	2104.14
398.74	2101.80
398.93	2237.55
399.12	2165.00
399.32	2066.69
399.51	2169.68
399.70	2272.66
399.90	2129.89
400.09	2195.42
400.28	2179.04
400.47	2190.74
400.67	2424.80
400.86	2272.66
401.05	2331.17
401.24	2476.29
401.44	2420.11
401.63	2338.20
401.82	2464.58
402.01	2356.92
402.21	2406.07
402.40	2445.86
402.59	2441.18
402.78	2593.31
402.97	2462.24
403.17	2516.08
403.36	2635.44
403.55	2569.91
403.74	2708.00
403.93	2644.81
404.13	2747.79
404.32	2789.92
404.51	2792.26
404.70	2719.70
404.89	2740.77
405.09	2822.69
405.28	2773.53
405.47	2775.88
405.66	2822.69
405.85	2864.82
406.05	2773.53
406.24	2888.22
406.43	2967.80
406.62	3049.72
406.81	3082.49
407.00	2902.26
407.20	2967.80
407.39	2949.08
407.58	2960.78
407.77	3169.09
407.96	3220.58
408.15	3194.83
408.34	3302.50
408.54	3206.53
408.73	3288.45
408.92	3283.77
409.11	3468.67
409.30	3192.49
409.49	3358.67
409.68	3344.63
409.87	3379.73
410.07	3454.63
410.26	3454.63
410.45	3445.27
410.64	3438.25
410.83	3623.15
411.02	3599.74
411.21	3655.92
411.40	3716.77
411.59	3740.18
411.78	3761.24
411.98	3815.07
412.17	3709.75
412.36	3744.86
412.55	3829.12
412.74	4009.34
412.93	3936.78
413.12	3911.04
413.31	4154.45
413.50	3939.12
413.69	3899.33
413.88	4236.37
414.07	4222.33
414.26	4227.01
414.45	4205.94
414.64	4234.03
414.83	4393.19
415.02	4304.25
415.22	4456.38
415.41	4524.26
415.60	4379.14
415.79	4489.15
415.98	4624.90
416.17	4571.07
416.36	4606.17
416.55	4674.05
416.74	4730.22
416.93	4676.39
417.12	4959.60
417.31	4910.44
417.50	4877.68
417.69	4985.34
417.88	5116.41
418.07	4903.42
418.26	4940.87
418.45	4999.38
418.64	5156.20
418.83	5235.78
419.02	5195.99
419.21	5275.57
419.39	5247.48
419.58	5191.31
419.77	5186.63
419.96	5399.62
420.15	5453.45
420.34	5458.13
420.53	5352.81
420.72	5568.13
420.91	5598.56
421.10	5607.92
421.29	5818.57
421.48	5685.16
421.67	5593.88
421.86	5570.48
422.05	5696.86
422.24	5603.24
422.43	5785.80
422.61	5806.87
422.80	5760.06
422.99	5764.74
423.18	5923.90
423.37	5778.78
423.56	5851.34
423.75	5970.71
423.94	5703.89
424.13	5408.98
424.32	5479.19
424.50	5764.74
424.69	6146.25
424.88	6043.26
425.07	5757.72
425.26	5982.41
425.45	6017.52
425.64	5973.05
425.83	5942.62
426.01	6054.97
426.20	5982.41
426.39	6076.03
426.58	5989.43
426.77	6153.27
426.96	6071.35
427.15	6134.54
427.33	6106.46
427.52	6127.52
427.71	6186.04
427.90	6260.93
428.09	6312.42
428.28	6118.16
428.46	6289.02
428.65	6225.82
428.84	6459.88
429.03	6492.65
429.22	6307.74
429.40	6551.16
429.59	6642.44
429.78	6272.64
429.97	6197.74
430.16	6305.40
430.34	6771.17
430.53	6895.22
430.72	6476.26
430.91	6614.35
431.10	6586.27
431.28	6787.55
431.47	6939.69
431.66	6949.05
431.85	6733.72
432.03	6963.09
432.22	7096.50
432.41	7033.31
432.60	7101.19
432.79	7077.78
432.97	7087.14
433.16	7190.13
433.35	7232.26
433.54	7236.94
433.72	7281.41
433.91	7185.44
434.10	7110.55
434.28	7375.03
434.47	7449.93
434.66	7527.16
434.85	7499.08
435.03	7662.91
435.22	7695.68
435.41	8208.26
435.59	8058.46
435.78	8018.68
435.97	7845.48
436.16	7789.30
436.34	7686.32
436.53	7889.95
436.72	7983.57
436.90	7810.37
437.09	7761.22
437.28	7686.32
437.46	7922.71
437.65	8046.76
437.84	8088.89
438.02	8098.25
438.21	8287.84
438.40	8128.68
438.58	8212.94
438.77	8287.84
438.96	8344.01
439.14	8369.76
439.33	8669.34
439.52	8732.54
439.70	8702.11
439.89	8751.26
440.08	8784.03
440.26	8851.91
440.45	8807.44
440.63	8952.55
440.82	9198.31
441.01	9078.94
441.19	9109.36
441.38	9430.02
441.57	9308.31
441.75	9305.97
441.94	9495.55
442.12	9556.41
442.31	9720.24
442.50	9724.93
442.68	9678.12
442.87	9549.39
443.05	9635.99
443.24	9867.70
443.43	10029.20
443.61	9872.38
443.80	10235.16
443.98	9900.47
444.17	9685.14
444.35	9980.04
444.54	10160.27
444.73	10031.54
444.91	9937.91
445.10	10104.09
445.28	10169.63
445.47	9944.94
445.65	10090.05
445.84	10167.29
446.02	10127.50
446.21	10097.07
446.39	10111.11
446.58	10499.64
446.77	10141.54
446.95	10061.96
447.14	10181.33
447.32	10134.52
447.51	10253.89
447.69	10068.98
447.88	10429.43
448.06	10590.92
448.25	10340.49
448.43	10267.93
448.62	10539.43
448.80	10225.80
448.99	10504.32
449.17	10581.56
449.36	10448.15
449.54	10656.46
449.73	10892.85
449.91	11021.58
450.10	11002.86
450.28	11021.58
450.46	10853.06
450.65	10698.59
450.83	11098.82
451.02	10820.30
451.20	11267.34
451.39	11262.66
451.57	10836.68
451.76	11117.54
451.94	11309.47
452.13	11414.79
452.31	11379.68
452.49	11162.01
452.68	11407.77
452.86	11332.87
453.05	11536.50
453.23	11449.90
453.42	11140.95
453.60	11396.07
453.78	11379.68
453.97	11609.06
454.15	11520.12
454.34	11630.12
454.52	11882.90
454.70	12095.89
454.89	11889.92
455.07	11705.02
455.26	11798.64
455.44	12311.22
455.62	11922.69
455.81	12215.26
455.99	12138.02
456.17	11978.86
456.36	12067.80
456.54	12358.03
456.73	12311.22
456.91	12613.15
457.09	12585.06
457.28	13011.04
457.46	12493.78
457.64	12856.56
457.83	12894.01
458.01	12545.27
458.19	12968.91
458.38	12666.98
458.56	13156.15
458.74	13102.32
458.93	12821.45
459.11	13130.41
459.29	13029.76
459.48	13280.20
459.66	13205.30
459.84	13198.28
460.03	13455.74
460.21	13425.31
460.39	13488.51
460.57	13317.65
460.76	13439.36
460.94	13715.54
461.12	13497.87
461.31	13659.37
461.49	13500.21
461.67	13760.01
461.85	13919.17
462.04	13811.50
462.22	14492.60
462.40	14244.50
462.59	14148.54
462.77	14204.71
462.95	14260.88
463.13	14157.90
463.32	14429.40
463.50	14277.27
463.68	14359.19
463.86	14272.59
464.05	14331.10
464.23	14288.97
464.41	14567.49
464.59	14244.50
464.78	14785.16
464.96	14373.23
465.14	14347.48
465.32	14707.93
465.50	14799.21
465.69	14642.39
465.87	14743.03
466.05	14691.54
466.23	14483.24
466.41	15119.86
466.60	15187.74
466.78	14867.08
466.96	14925.60
467.14	14815.59
467.32	15185.40
467.51	15372.64
467.69	14803.89
467.87	15389.02
468.05	15468.60
468.23	15297.74
468.41	15269.66
468.60	15222.84
468.78	15716.70
468.96	15084.75
469.14	15484.98
469.32	15807.98
469.50	15536.48
469.69	15880.53
469.87	15985.86
470.05	15992.88
470.23	15943.73
470.41	15997.56
470.59	16432.90
470.77	16327.58
470.95	16168.42
471.14	16489.07
471.32	16285.45
471.50	16734.83
471.68	16570.99
471.86	16748.87
472.04	16533.54
472.22	17090.59
472.40	16938.46
472.58	16917.39
472.77	17006.33
472.95	17474.44
473.13	17961.27
473.31	17177.19
473.49	17334.01
473.67	17455.72
473.85	17575.08
474.03	17743.60
474.21	17612.53
474.39	18073.62
474.57	18127.45
474.75	18429.38
474.93	18789.82
475.12	18209.37
475.30	18520.66
475.48	18412.99
475.66	18794.50
475.84	18665.77
476.02	18745.35
476.20	19227.50
476.38	19454.53
476.56	19737.74
476.74	19569.22
476.92	19426.45
477.10	19499.00
477.28	20025.62
477.46	19758.80
477.64	20013.92
477.82	20446.92
478.00	20610.76
478.18	20603.74
478.36	21055.46
478.54	21223.98
478.72	20966.52
478.90	21495.48
479.08	21432.29
479.26	21788.05
479.44	21745.92
479.62	22122.74
479.80	22094.66
479.98	22347.44
480.16	22668.09
480.34	22443.40
480.52	23171.30
480.70	22871.72
480.88	22845.97
481.06	23073.00
481.24	23044.91
481.41	23506.00
481.59	23747.08
481.77	24102.84
481.95	24011.56
482.13	24142.63
482.31	24435.19
482.49	24886.92
482.67	24842.45
482.85	24947.77
483.03	25493.12
483.21	25724.83
483.39	25788.02
483.57	25797.38
483.74	26401.24
483.92	26003.35
484.10	26426.99
484.28	27084.68
484.46	27243.84
484.64	27704.92
484.82	27037.87
485.00	27402.99
485.18	28187.07
485.35	28301.76
485.53	28341.55
485.71	28556.88
485.89	29109.24
486.07	28840.08
486.25	28938.38
486.43	29076.48
486.61	29488.41
486.78	29638.20
486.96	30356.75
487.14	30438.67
487.32	30555.69
487.50	30782.73
487.68	30925.50
487.85	31175.94
488.03	31550.42
488.21	32278.33
488.39	31824.26
488.57	32268.97
488.75	32610.68
488.92	32680.90
489.10	33069.43
489.28	33500.09
489.46	33666.27
489.64	33420.51
489.81	34101.61
489.99	34670.36
490.17	34171.82
490.35	34923.13
490.53	34794.40
490.70	35367.84
490.88	35002.71
491.06	35606.57
491.24	35913.18
491.41	35332.73
491.59	36322.77
491.77	36126.17
491.95	36556.83
492.13	37060.04
492.30	37181.75
492.48	37401.76
492.66	37228.56
492.84	37408.78
493.01	37895.61
493.19	38195.20
493.37	38366.06
493.54	38499.47
493.72	38560.33
493.90	38656.29
494.08	39431.01
494.25	39983.37
494.43	39693.15
494.61	39978.69
494.79	40264.24
494.96	40208.06
495.14	40481.91
495.32	40715.96
495.49	40760.43
495.67	41251.94
495.85	41532.81
496.02	41460.25
496.20	41869.84
496.38	41780.90
496.55	42038.36
496.73	42422.21
496.91	42689.03
497.09	42932.45
497.26	43159.48
497.44	42649.24
497.62	43290.55
497.79	43819.51
497.97	43391.19
498.14	44299.32
498.32	44575.50
498.50	44594.23
498.67	44919.56
498.85	44706.57
499.03	44430.39
499.20	45048.29
499.38	45467.25
499.56	45684.92
499.73	45717.68
499.91	46433.89
500.08	45944.72
500.26	45766.84
500.44	46195.15
500.61	46356.65
500.79	46127.28
500.97	46892.63
501.14	47002.64
501.32	47002.64
501.49	46927.74
501.67	47232.01
501.84	47276.48
502.02	47224.99
502.20	47859.27
502.37	47962.26
502.55	48051.20
502.72	47971.62
502.90	48268.87
503.07	47976.30
503.25	48566.12
503.43	48495.90
503.60	48655.06
503.78	48388.24
503.95	48910.17
504.13	48851.66
504.30	49282.32
504.48	49237.85
504.65	49408.71
504.83	49389.98
505.01	49928.31
505.18	49851.07
505.36	50078.10
505.53	49649.78
505.71	49921.29
505.88	50209.17
506.06	50024.27
506.23	50337.90
506.41	50415.14
506.58	50974.53
506.76	50864.52
506.93	50894.95
507.11	50618.77
507.28	50878.57
507.46	51009.64
507.63	51215.60
507.81	51533.92
507.98	51468.38
508.16	51672.01
508.33	51370.08
508.50	51524.55
508.68	51957.55
508.85	52074.58
509.03	52074.58
509.20	52254.80
509.38	52149.48
509.55	52741.63
509.73	52605.88
509.90	52662.05
510.08	52519.28
510.25	52793.12
510.42	52926.53
510.60	53137.18
510.77	53354.85
510.95	53303.36
511.12	52945.26
511.30	53443.79
511.47	53485.92
511.64	53394.64
511.82	53666.14
511.99	53806.58
512.17	53829.98
512.34	53670.82
512.51	53965.73
512.69	53890.83
512.86	54120.21
513.04	54431.50
513.21	54611.72
513.38	54805.98
513.56	54482.99
513.73	54270.00
513.90	54688.96
514.08	54323.83
514.25	54822.37
514.43	54962.80
514.60	54899.61
514.77	55016.63
514.95	55306.86
515.12	54962.80
515.29	54937.05
515.47	55344.31
515.64	55182.81
515.81	55351.33
515.99	55522.19
516.16	55693.05
516.33	55618.15
516.51	55681.34
516.68	55440.27
516.85	55353.67
517.03	55852.20
517.20	55938.80
517.37	55973.91
517.54	56051.15
517.72	56224.35
517.89	55709.43
518.06	56086.26
518.24	55948.17
518.41	56058.17
518.58	56229.03
518.75	56170.52
518.93	56666.71
519.10	56530.96
519.27	56914.81
519.45	56552.02
519.62	56779.06
519.79	56788.42
519.96	56865.66
520.14	56947.57
520.31	56713.52
520.48	57097.37
520.65	57052.90
520.83	57223.76
521.00	57415.68
521.17	57249.50
521.34	57228.44
521.52	57338.44
521.69	57361.85
521.86	57483.56
522.03	57619.31
522.20	57602.92
522.38	57769.10
522.55	57565.48
522.72	57743.36
522.89	57855.70
523.07	57970.39
523.24	57811.23
523.41	58089.76
523.58	57977.41
523.75	58342.53
523.92	58183.38
524.10	58251.25
524.27	58164.65
524.44	58300.40
524.61	58504.03
524.78	58686.59
524.96	58504.03
525.13	58649.14
525.30	58578.93
525.47	58756.81
525.64	58513.39
525.81	58635.10
525.98	59131.29
526.16	59009.59
526.33	58773.19
526.50	59206.19
526.67	58691.27
526.84	59091.51
527.01	59023.63
527.18	58972.14
527.36	59185.13
527.53	59236.62
527.70	59517.48
527.87	59449.61
528.04	59152.36
528.21	59451.95
528.38	59309.18
528.55	59650.89
528.72	59519.82
528.89	59517.48
529.07	59662.60
529.24	59667.28
529.41	59854.52
529.58	59657.91
529.75	59704.73
529.92	59812.39
530.09	59711.75
530.26	59805.37
530.43	60027.72
530.60	59896.65
530.77	60034.74
530.94	60058.15
531.11	59952.82
531.28	59903.67
531.46	60023.04
531.63	60360.08
531.80	60423.27
531.97	60168.15
532.14	60275.82
532.31	60453.70
532.48	60210.28
532.65	60427.95
532.82	60147.09
532.99	60577.75
533.16	60446.68
533.33	60633.92
533.50	60853.93
533.67	60582.43
533.84	60690.09
534.01	60816.48
534.18	60638.60
534.35	60872.65
534.52	60856.27
534.69	60952.23
534.86	61083.30
535.03	60896.06
535.20	60956.91
535.37	61296.29
535.54	61155.86
535.71	60952.23
535.88	61202.67
536.05	61113.73
536.22	61125.43
536.38	61233.10
536.55	61141.81
536.72	61319.70
536.89	61176.92
537.06	61265.86
537.23	61228.41
537.40	61385.23
537.57	61113.73
537.74	61434.38
537.91	61614.60
538.08	61630.99
538.25	61359.48
538.42	61623.96
538.59	61511.62
538.75	61469.49
538.92	61755.03
539.09	61574.81
539.26	61911.85
539.43	61602.90
539.60	61851.00
539.77	61869.72
539.94	61993.77
540.11	62012.49
540.28	62089.73
540.44	62136.54
540.61	61944.62
540.78	62017.17
540.95	62096.75
541.12	62176.33
541.29	62382.30
541.46	62389.32
541.62	62272.29
541.79	62412.73
541.96	62216.12
542.13	62183.35
542.30	62326.13
542.47	62546.14
542.63	62410.38
542.80	62588.27
542.97	62864.45
543.14	62937.01
543.31	62489.96
543.48	62583.58
543.64	63016.58
543.81	62876.15
543.98	62787.21
544.15	62972.11
544.32	63063.39
544.48	63023.61
544.65	62803.59
544.82	62871.47
544.99	62717.00
545.16	63047.01
545.32	62894.88
545.49	63346.60
545.66	63472.99
545.83	63468.31
546.00	63508.10
546.16	63393.41
546.33	63117.23
546.50	63047.01
546.67	63068.08
546.83	62740.40
547.00	63327.87
547.17	63318.51
547.34	63348.94
547.50	63620.44
547.67	63503.42
547.84	63444.90
548.00	63714.06
548.17	63564.27
548.34	63489.37
548.51	63735.13
548.67	63753.85
548.84	63571.29
549.01	63592.36
549.18	63538.52
549.34	63592.36
549.51	63735.13
549.68	63524.48
549.84	63606.40
550.01	63538.52
550.18	63688.32
550.34	63760.87
550.51	63931.73
550.68	63908.33
550.84	63662.57
551.01	63880.24
551.18	63845.13
551.34	63798.32
551.51	64039.40
551.68	63877.90
551.84	64081.53
552.01	63908.33
552.18	64161.11
552.34	64048.76
552.51	64081.53
552.68	63964.50
552.84	64039.40
553.01	64062.80
553.18	63999.61
553.34	64116.64
553.51	64243.02
553.67	64275.79
553.84	64404.52
554.01	64535.59
554.17	64470.06
554.34	64226.64
554.51	64406.86
554.67	64402.18
554.84	64383.46
555.00	64376.43
555.17	64327.28
555.33	64580.06
555.50	64392.82
555.67	64460.69
555.83	64502.82
556.00	64523.89
556.16	64596.45
556.33	64645.60
556.50	64481.76
556.66	64711.13
556.83	64456.01
556.99	64910.08
557.16	64661.98
557.32	64879.65
557.49	64610.49
557.65	64566.02
557.82	64828.16
557.98	64615.17
558.15	64734.54
558.32	64933.48
558.48	64832.84
558.65	64828.16
558.81	64673.68
558.98	64896.03
559.14	64912.42
559.31	64764.96
559.47	64802.41
559.64	65010.72
559.80	64877.31
559.97	65041.15
560.13	64853.90
560.30	65015.40
560.46	64954.55
560.63	64989.66
560.79	65003.70
560.96	65162.85
561.12	64952.21
561.29	64945.18
561.45	65223.71
561.61	65242.43
561.78	65055.19
561.94	65235.41
562.11	65219.03
562.27	65120.73
562.44	65083.28
562.60	65172.22
562.77	65228.39
562.93	65268.18
563.10	65483.51
563.26	65155.83
563.42	65535.00
563.59	65305.63
563.75	65244.77
563.92	65535.00
564.08	65179.24
564.24	65385.21
564.41	65364.14
564.57	65357.12
564.74	65455.42
564.90	65509.25
565.07	65354.78
565.23	65504.57
565.39	65457.76
565.56	65530.32
565.72	65511.59
565.88	65530.32
566.05	65420.31
566.21	65289.24
566.38	65481.17
566.54	65495.21
566.70	65535.00
566.87	65535.00
567.03	65446.06
567.19	65535.00
567.36	65535.00
567.52	65535.00
567.68	65406.27
567.85	65244.77
568.01	65535.00
568.17	65511.59
568.34	65535.00
568.50	65535.00
568.66	65535.00
568.83	65535.00
568.99	65535.00
569.15	65403.93
569.32	65535.00
569.48	65535.00
569.64	65535.00
569.81	65535.00
569.97	65535.00
570.13	65535.00
570.30	65535.00
570.46	65535.00
570.62	65527.98
570.78	65535.00
570.95	65535.00
571.11	65535.00
571.27	65504.57
571.43	65535.00
571.60	65535.00
571.76	65535.00
571.92	65535.00
572.09	65535.00
572.25	65535.00
572.41	65535.00
572.57	65535.00
572.74	65535.00
572.90	65535.00
573.06	65535.00
573.22	65535.00
573.38	65535.00
573.55	65535.00
573.71	65535.00
573.87	65535.00
574.03	65535.00
574.20	65535.00
574.36	65535.00
574.52	65535.00
574.68	65535.00
574.84	65535.00
575.01	65535.00
575.17	65535.00
575.33	65535.00
575.49	65535.00
575.65	65535.00
575.82	65535.00
575.98	65535.00
576.14	65535.00
576.30	65535.00
576.46	65535.00
576.62	65535.00
576.79	65535.00
576.95	65535.00
577.11	65535.00
577.27	65535.00
577.43	65535.00
577.59	65535.00
577.75	65535.00
577.92	65535.00
578.08	65535.00
578.24	65535.00
578.40	65535.00
578.56	65535.00
578.72	65535.00
578.88	65535.00
579.04	65535.00
579.21	65535.00
579.37	65535.00
579.53	65535.00
579.69	65535.00
579.85	65535.00
580.01	65535.00
580.17	65535.00
580.33	65535.00
580.49	65535.00
580.65	65535.00
580.82	65535.00
580.98	65535.00
581.14	65535.00
581.30	65535.00
581.46	65535.00
581.62	65535.00
581.78	65535.00
581.94	65535.00
582.10	65535.00
582.26	65535.00
582.42	65535.00
582.58	65535.00
582.74	65535.00
582.90	65535.00
583.06	65535.00
583.22	65535.00
583.38	65535.00
583.54	65535.00
583.70	65535.00
583.86	65535.00
584.02	65535.00
584.18	65535.00
584.34	65535.00
584.50	65535.00
584.66	65535.00
584.82	65535.00
584.98	65535.00
585.14	65535.00
585.30	65535.00
585.46	65535.00
585.62	65535.00
585.78	65535.00
585.94	65535.00
586.10	65535.00
586.26	65535.00
586.42	65535.00
586.58	65535.00
586.74	65535.00
586.90	65535.00
587.06	65535.00
587.22	65535.00
587.38	65535.00
587.54	65535.00
587.70	65535.00
587.86	65535.00
588.02	65535.00
588.18	65535.00
