SpectraSuite Data File
++++++++++++++++++++++++++++++++++++
Date: Fri Oct 04 11:39:30 GMT-05:00 2013
User: price-jones
Dark Spectrum Present: No
Reference Spectrum Present: No
Number of Sampled Component Spectra: 1
Spectrometers: USB2+H05261
Integration Time (usec): 100000 (USB2+H05261)
Spectra Averaged: 1 (USB2+H05261)
Boxcar Smoothing: 0 (USB2+H05261)
Correct for Electrical Dark: No (USB2+H05261)
Strobe/Lamp Enabled: No (USB2+H05261)
Correct for Detector Non-linearity: No (USB2+H05261)
Correct for Stray Light: No (USB2+H05261)
Number of Pixels in Processed Spectrum: 2048
>>>>>Begin Processed Spectral Data<<<<<
365.73	0.00
365.92	0.00
366.12	0.00
366.32	0.00
366.52	0.00
366.72	0.00
366.91	0.00
367.11	0.00
367.31	0.00
367.51	0.00
367.70	0.00
367.90	0.00
368.10	0.00
368.30	0.00
368.49	0.00
368.69	0.00
368.89	0.00
369.09	0.00
369.28	0.00
369.48	0.00
369.68	4.68
369.87	0.00
370.07	23.41
370.27	18.72
370.47	56.17
370.66	93.62
370.86	140.43
371.06	131.07
371.25	170.86
371.45	72.56
371.65	152.13
371.84	65.54
372.04	102.98
372.24	88.94
372.44	220.01
372.63	166.18
372.83	152.13
373.03	100.64
373.22	220.01
373.42	173.20
373.62	205.97
373.81	147.45
374.01	175.54
374.21	133.41
374.40	215.33
374.60	229.37
374.79	196.60
374.99	201.29
375.19	210.65
375.38	117.03
375.58	220.01
375.78	245.76
375.97	161.50
376.17	266.82
376.37	196.60
376.56	215.33
376.76	210.65
376.95	166.18
377.15	205.97
377.35	184.90
377.54	222.35
377.74	234.05
377.93	145.11
378.13	191.92
378.33	255.12
378.52	229.37
378.72	245.76
378.91	205.97
379.11	156.82
379.31	184.90
379.50	180.22
379.70	215.33
379.89	217.67
380.09	184.90
380.28	117.03
380.48	194.26
380.68	93.62
380.87	138.09
381.07	210.65
381.26	238.73
381.46	210.65
381.65	222.35
381.85	212.99
382.04	229.37
382.24	140.43
382.43	149.79
382.63	189.58
382.83	271.50
383.02	217.67
383.22	259.80
383.41	117.03
383.61	236.39
383.80	250.44
384.00	212.99
384.19	168.52
384.39	224.69
384.58	215.33
384.78	248.10
384.97	175.54
385.17	243.42
385.36	294.91
385.56	299.59
385.75	252.78
385.95	156.82
386.14	285.55
386.34	189.58
386.53	177.88
386.72	177.88
386.92	243.42
387.11	245.76
387.31	189.58
387.50	205.97
387.70	227.03
387.89	292.57
388.09	264.48
388.28	273.84
388.48	203.63
388.67	266.82
388.86	217.67
389.06	196.60
389.25	196.60
389.45	194.26
389.64	276.18
389.84	273.84
390.03	278.52
390.22	266.82
390.42	252.78
390.61	264.48
390.81	255.12
391.00	259.80
391.19	266.82
391.39	220.01
391.58	304.27
391.78	297.25
391.97	243.42
392.16	292.57
392.36	313.63
392.55	322.99
392.75	276.18
392.94	287.89
393.13	290.23
393.33	252.78
393.52	299.59
393.71	276.18
393.91	306.61
394.10	266.82
394.29	287.89
394.49	271.50
394.68	294.91
394.88	367.46
395.07	395.55
395.26	360.44
395.46	308.95
395.65	379.17
395.84	322.99
396.04	369.80
396.23	376.83
396.42	313.63
396.62	477.47
396.81	374.49
397.00	308.95
397.19	353.42
397.39	325.33
397.58	344.06
397.77	379.17
397.97	337.04
398.16	358.10
398.35	372.15
398.55	327.68
398.74	449.38
398.93	411.93
399.12	449.38
399.32	365.12
399.51	411.93
399.70	477.47
399.90	428.32
400.09	440.02
400.28	440.02
400.47	442.36
400.67	486.83
400.86	430.66
401.05	456.40
401.24	479.81
401.44	456.40
401.63	458.74
401.82	484.49
402.01	440.02
402.21	449.38
402.40	505.56
402.59	433.00
402.78	559.39
402.97	554.71
403.17	517.26
403.36	615.56
403.55	528.96
403.74	573.43
403.93	566.41
404.13	594.50
404.32	636.63
404.51	624.92
404.70	657.69
404.89	601.52
405.09	615.56
405.28	674.07
405.47	660.03
405.66	751.31
405.85	634.29
406.05	653.01
406.24	676.41
406.43	650.67
406.62	730.25
406.81	716.20
407.00	774.72
407.20	739.61
407.39	685.78
407.58	631.94
407.77	755.99
407.96	800.46
408.15	840.25
408.34	802.80
408.54	788.76
408.73	713.86
408.92	781.74
409.11	748.97
409.30	830.89
409.49	861.32
409.68	826.21
409.87	858.98
410.07	875.36
410.26	840.25
410.45	835.57
410.64	880.04
410.83	807.48
411.02	868.34
411.21	1006.43
411.40	940.90
411.59	976.00
411.78	1053.24
411.98	950.26
412.17	1011.11
412.36	1095.37
412.55	1062.60
412.74	1048.56
412.93	1090.69
413.12	1032.18
413.31	1128.14
413.50	1174.95
413.69	1034.52
413.88	1158.57
414.07	1186.65
414.26	1170.27
414.45	1160.91
414.64	1282.61
414.83	1261.55
415.02	1270.91
415.22	1273.25
415.41	1252.19
415.60	1249.85
415.79	1240.48
415.98	1336.45
416.17	1413.68
416.36	1366.87
416.55	1306.02
416.74	1376.24
416.93	1387.94
417.12	1371.55
417.31	1373.89
417.50	1432.41
417.69	1474.54
417.88	1409.00
418.07	1437.09
418.26	1411.34
418.45	1516.67
418.64	1593.90
418.83	1598.59
419.02	1575.18
419.21	1591.56
419.39	1535.39
419.58	1584.54
419.77	1584.54
419.96	1675.82
420.15	1661.78
420.34	1703.91
420.53	1650.08
420.72	1596.25
420.91	1682.85
421.10	1708.59
421.29	1724.97
421.48	1673.48
421.67	1717.95
421.86	1645.40
422.05	1776.47
422.24	1748.38
422.43	1629.01
422.61	1762.42
422.80	1652.42
422.99	1809.23
423.18	1781.15
423.37	1788.17
423.56	1785.83
423.75	1739.02
423.94	1795.19
424.13	1568.16
424.32	1703.91
424.50	1797.53
424.69	1865.41
424.88	1802.21
425.07	1806.89
425.26	1710.93
425.45	1757.74
425.64	1839.66
425.83	1755.40
426.01	1832.64
426.20	1853.70
426.39	1804.55
426.58	1813.92
426.77	1870.09
426.96	1867.75
427.15	1865.41
427.33	1781.15
427.52	1898.17
427.71	1872.43
427.90	1947.33
428.09	1968.39
428.28	1905.20
428.46	1919.24
428.65	1944.99
428.84	2010.52
429.03	2043.29
429.22	1888.81
429.40	1949.67
429.59	1893.49
429.78	2057.33
429.97	1919.24
430.16	1886.47
430.34	2054.99
430.53	2045.63
430.72	2040.95
430.91	2008.18
431.10	2036.27
431.28	2230.53
431.47	2083.08
431.66	2193.08
431.85	2186.06
432.03	2188.40
432.22	2132.23
432.41	2176.70
432.60	2307.77
432.79	2188.40
432.97	2239.89
433.16	2160.31
433.35	2183.72
433.54	2263.30
433.72	2237.55
433.91	2113.50
434.10	2340.54
434.28	2204.78
434.47	2186.06
434.66	2291.38
434.85	2284.36
435.03	2375.64
435.22	2485.65
435.41	2700.98
435.59	2726.72
435.78	2635.44
435.97	2485.65
436.16	2459.90
436.34	2417.77
436.53	2448.20
436.72	2520.76
436.90	2305.43
437.09	2399.05
437.28	2443.52
437.46	2420.11
437.65	2380.32
437.84	2499.69
438.02	2469.27
438.21	2401.39
438.40	2462.24
438.58	2616.72
438.77	2637.78
438.96	2555.86
439.14	2628.42
439.33	2605.02
439.52	2703.32
439.70	2738.43
439.89	2738.43
440.08	2693.96
440.26	2747.79
440.45	2792.26
440.63	2668.21
440.82	2691.62
441.01	2801.62
441.19	2829.71
441.38	2803.96
441.57	2998.23
441.75	2815.66
441.94	2986.52
442.12	2923.33
442.31	2981.84
442.50	3005.25
442.68	3016.95
442.87	2956.10
443.05	3042.70
443.24	2916.31
443.43	3075.46
443.61	3105.89
443.80	3246.32
443.98	2979.50
444.17	2998.23
444.35	3080.14
444.54	3173.77
444.73	3042.70
444.91	2965.46
445.10	3000.57
445.28	3075.46
445.47	3075.46
445.65	3030.99
445.84	3133.98
446.02	3124.62
446.21	3087.17
446.39	3049.72
446.58	3204.19
446.77	3180.79
446.95	3063.76
447.14	2970.14
447.32	3145.68
447.51	3082.49
447.69	2963.12
447.88	3070.78
448.06	3096.53
448.25	3052.06
448.43	3049.72
448.62	3035.67
448.80	3098.87
448.99	3239.30
449.17	3253.34
449.36	3178.45
449.54	3353.99
449.73	3316.54
449.91	3330.58
450.10	3236.96
450.28	3351.65
450.46	3328.24
450.65	3332.92
450.83	3384.41
451.02	3169.09
451.20	3265.05
451.39	3363.35
451.57	3445.27
451.76	3426.54
451.94	3323.56
452.13	3365.69
452.31	3494.42
452.49	3311.86
452.68	3370.37
452.86	3384.41
453.05	3482.72
453.23	3435.91
453.42	3482.72
453.60	3494.42
453.78	3538.89
453.97	3410.16
454.15	3428.88
454.34	3410.16
454.52	3478.04
454.70	3595.06
454.89	3581.02
455.07	3517.83
455.26	3571.66
455.44	3641.87
455.62	3480.38
455.81	3627.83
455.99	3705.07
456.17	3740.18
456.36	3660.60
456.54	3796.35
456.73	3632.51
456.91	3744.86
457.09	3831.46
457.28	3992.95
457.46	3882.95
457.64	3782.31
457.83	3915.72
458.01	3819.75
458.19	3861.88
458.38	3836.14
458.56	3915.72
458.74	3908.69
458.93	4009.34
459.11	3960.19
459.29	3847.84
459.48	3906.35
459.66	3948.48
459.84	3896.99
460.03	4039.76
460.21	4021.04
460.39	3955.51
460.57	4021.04
460.76	4051.47
460.94	4105.30
461.12	4004.66
461.31	4142.75
461.49	4074.87
461.67	4023.38
461.85	4224.67
462.04	4205.94
462.22	4353.40
462.40	4004.66
462.59	4140.41
462.77	4224.67
462.95	4152.11
463.13	4152.11
463.32	4271.48
463.50	4273.82
463.68	4325.31
463.86	4201.26
464.05	4177.86
464.23	4257.43
464.41	4273.82
464.59	4177.86
464.78	4423.61
464.96	4304.25
465.14	4372.12
465.32	4306.59
465.50	4259.78
465.69	4381.48
465.87	4444.68
466.05	4416.59
466.23	4369.78
466.41	4486.81
466.60	4643.62
466.78	4578.09
466.96	4465.74
467.14	4416.59
467.32	4451.70
467.51	4505.53
467.69	4402.55
467.87	4564.04
468.05	4468.08
468.23	4557.02
468.41	4512.55
468.60	4627.24
468.78	4695.11
468.96	4505.53
469.14	4685.75
469.32	4603.83
469.50	4622.56
469.69	4631.92
469.87	4657.67
470.05	4805.12
470.23	4587.45
470.41	4741.93
470.59	4617.88
470.77	4695.11
470.95	4858.95
471.14	5048.54
471.32	4828.53
471.50	4926.83
471.68	4917.47
471.86	4936.19
472.04	4952.57
472.22	4828.53
472.40	4865.97
472.58	5022.79
472.77	5071.94
472.95	5121.09
473.13	5041.51
473.31	5160.88
473.49	5029.81
473.67	5022.79
473.85	5289.61
474.03	5313.02
474.21	5128.11
474.39	5303.65
474.57	5331.74
474.75	5327.06
474.93	5528.35
475.12	5453.45
475.30	5308.34
475.48	5399.62
475.66	5537.71
475.84	5540.05
476.02	5570.48
476.20	5476.85
476.38	5579.84
476.56	5610.26
476.74	5607.92
476.92	5673.46
477.10	5746.02
477.28	5776.44
477.46	5729.63
477.64	5795.17
477.82	5762.40
478.00	5935.60
478.18	6012.84
478.36	6120.50
478.54	6057.31
478.72	6284.34
478.90	6298.38
479.08	6349.87
479.26	6272.64
479.44	6277.32
479.62	6272.64
479.80	6326.47
479.98	6434.13
480.16	6623.72
480.34	6445.84
480.52	6459.88
480.70	6672.87
480.88	6609.67
481.06	6764.15
481.24	6792.23
481.41	6806.28
481.59	6956.07
481.77	6768.83
481.95	6810.96
482.13	7045.01
482.31	6864.79
482.49	7283.75
482.67	7183.10
482.85	7215.87
483.03	7187.79
483.21	7573.97
483.39	7602.06
483.57	7473.33
483.74	7283.75
483.92	7606.74
484.10	7482.69
484.28	7756.54
484.46	7889.95
484.64	7866.54
484.82	7866.54
485.00	7789.30
485.18	7967.18
485.35	8067.83
485.53	8231.66
485.71	8252.73
485.89	8196.56
486.07	8229.32
486.25	8093.57
486.43	8402.52
486.61	8379.12
486.78	8566.36
486.96	8568.70
487.14	8741.90
487.32	8706.79
487.50	8985.32
487.68	8910.42
487.85	8840.20
488.03	8985.32
488.21	8994.68
488.39	9170.22
488.57	9165.54
488.75	9193.62
488.92	9565.77
489.10	9437.04
489.28	9621.94
489.46	9373.85
489.64	9687.48
489.81	9680.46
489.99	9771.74
490.17	9710.88
490.35	9987.07
490.53	9872.38
490.70	9891.10
490.88	10031.54
491.06	10040.90
491.24	9998.77
491.41	10122.82
491.59	10293.68
491.77	10195.37
491.95	10438.79
492.13	10354.53
492.30	10698.59
492.48	10368.57
492.66	10525.39
492.84	10649.44
493.01	10574.54
493.19	10794.55
493.37	10953.71
493.54	10963.07
493.72	10960.73
493.90	11124.57
494.08	11143.29
494.25	11033.29
494.43	11178.40
494.61	11396.07
494.79	11283.72
494.96	11339.90
495.14	11346.92
495.32	11243.93
495.49	11595.01
495.67	11510.75
495.85	11789.28
496.02	11578.63
496.20	11882.90
496.38	11957.80
496.55	11939.07
496.73	12255.04
496.91	11915.67
497.09	11988.22
497.26	12243.34
497.44	12149.72
497.62	12517.18
497.79	12435.27
497.97	12318.24
498.14	12542.93
498.32	12339.30
498.50	12664.64
498.67	12692.73
498.85	12697.41
499.03	12781.67
499.20	12697.41
499.38	12692.73
499.56	13050.83
499.73	12903.37
499.91	13156.15
500.08	13193.60
500.26	13055.51
500.44	13198.28
500.61	13411.27
500.79	12973.59
500.97	13179.56
501.14	13488.51
501.32	13451.06
501.49	13547.02
501.67	13507.23
501.84	13593.83
502.02	13488.51
502.20	13390.20
502.37	13652.34
502.55	13818.52
502.72	13827.88
502.90	13626.60
503.07	13696.82
503.25	13914.48
503.43	13886.40
503.60	13816.18
503.78	13912.14
503.95	13891.08
504.13	14127.47
504.30	14242.16
504.48	14197.69
504.65	13937.89
504.83	14408.34
505.01	14511.32
505.18	14494.94
505.36	14167.26
505.53	14319.40
505.71	14328.76
505.88	14562.81
506.06	14246.84
506.23	14988.79
506.41	14637.71
506.58	14862.40
506.76	14862.40
506.93	14736.01
507.11	14773.46
507.28	14869.42
507.46	14892.83
507.63	14815.59
507.81	15171.35
507.98	14860.06
508.16	15005.17
508.33	15061.35
508.50	15253.27
508.68	15447.54
508.85	15580.95
509.03	15225.18
509.20	15473.28
509.38	15704.99
509.55	15796.28
509.73	15220.50
509.90	15744.78
510.08	15866.49
510.25	15850.11
510.42	15815.00
510.60	15786.91
510.77	16013.95
510.95	15831.38
511.12	15943.73
511.30	16009.26
511.47	16217.57
511.64	16091.18
511.82	16210.55
511.99	16107.57
512.17	16329.92
512.34	16081.82
512.51	16414.18
512.69	16369.71
512.86	16807.39
513.04	16606.10
513.21	16641.21
513.38	16636.53
513.56	16575.67
513.73	16453.97
513.90	16727.81
514.08	16695.04
514.25	16886.97
514.43	16741.85
514.60	16776.96
514.77	16800.37
514.95	17139.74
515.12	16573.33
515.29	16767.60
515.47	16908.03
515.64	17095.27
515.81	17003.99
515.99	17427.63
516.16	17095.27
516.33	17032.08
516.51	17432.31
516.68	16851.86
516.85	17303.58
517.03	17348.05
517.20	17469.76
517.37	17692.11
517.54	17675.73
517.72	17673.39
517.89	17394.86
518.06	17509.55
518.24	17898.08
518.41	17685.09
518.58	17884.03
518.75	17694.45
518.93	17759.98
519.10	17659.34
519.27	17804.46
519.45	17919.14
519.62	17874.67
519.79	17893.40
519.96	18026.81
520.14	18054.89
520.31	17802.11
520.48	18064.25
520.65	18263.20
520.83	18300.65
521.00	18354.48
521.17	18424.70
521.34	18412.99
521.52	18281.92
521.69	18412.99
521.86	18525.34
522.03	18707.90
522.20	18438.74
522.38	18532.36
522.55	18455.12
522.72	18532.36
522.89	18441.08
523.07	18752.37
523.24	18775.78
523.41	18817.91
523.58	18691.52
523.75	18853.02
523.92	19040.26
524.10	19000.47
524.27	18995.79
524.44	19215.80
524.61	19227.50
524.78	19185.37
524.96	18888.12
525.13	19283.67
525.30	19482.62
525.47	19124.52
525.64	18991.11
525.81	19601.99
525.98	19227.50
526.16	19211.12
526.33	19318.78
526.50	19435.81
526.67	19222.82
526.84	19447.51
527.01	19344.53
527.18	19407.72
527.36	19770.51
527.53	19950.73
527.70	19850.08
527.87	19964.77
528.04	19550.49
528.21	19702.63
528.38	19681.56
528.55	19892.21
528.72	19871.15
528.89	19910.94
529.07	20077.12
529.24	20032.65
529.41	19941.36
529.58	20016.26
529.75	19981.15
529.92	19915.62
530.09	20032.65
530.26	20170.74
530.43	20283.08
530.60	20203.50
530.77	20156.69
530.94	20402.45
531.11	20053.71
531.28	20322.87
531.46	20320.53
531.63	20255.00
531.80	20425.86
531.97	20723.10
532.14	20411.81
532.31	20311.17
532.48	20517.14
532.65	20580.33
532.82	20524.16
532.99	20629.48
533.16	20222.23
533.33	20835.45
533.50	20926.73
533.67	20926.73
533.84	20439.90
534.01	20460.96
534.18	20563.95
534.35	20685.65
534.52	20718.42
534.69	21025.03
534.86	20863.54
535.03	21048.44
535.20	20966.52
535.37	21359.73
535.54	20992.26
535.71	21350.37
535.88	21015.67
536.05	21085.89
536.22	21029.71
536.38	21371.43
536.55	21369.09
536.72	21177.17
536.89	21083.55
537.06	21380.79
537.23	21263.77
537.40	21181.85
537.57	21621.87
537.74	21324.62
537.91	21752.94
538.08	21879.33
538.25	21479.10
538.42	21617.19
538.59	21500.16
538.75	21570.38
538.92	21333.98
539.09	21600.80
539.26	21905.07
539.43	21872.31
539.60	22085.30
539.77	21844.22
539.94	21731.87
540.11	21876.99
540.28	21717.83
540.44	22211.68
540.61	21928.48
540.78	21792.73
540.95	22129.77
541.12	22237.43
541.29	22331.05
541.46	22333.39
541.62	22274.88
541.79	22632.98
541.96	22148.49
542.13	22225.73
542.30	22431.69
542.47	22480.85
542.63	22593.19
542.80	22567.45
542.97	22670.43
543.14	22750.01
543.31	22724.26
543.48	22785.12
543.64	22768.73
543.81	22944.27
543.98	23070.66
544.15	22780.43
544.32	22946.61
544.48	22902.14
544.65	22911.50
544.82	23133.86
544.99	22672.77
545.16	23047.26
545.32	23206.41
545.49	23023.85
545.66	24137.94
545.83	24166.03
546.00	23828.99
546.16	23112.79
546.33	22785.12
546.50	22792.14
546.67	23012.15
546.83	22764.05
547.00	23222.80
547.17	22920.87
547.34	23246.20
547.50	22869.37
547.67	23255.56
547.84	23047.26
548.00	23520.04
548.17	23487.28
548.34	22981.72
548.51	23332.80
548.67	23227.48
548.84	23330.46
549.01	23267.27
549.18	23047.26
549.34	23571.54
549.51	23309.40
549.68	23328.12
549.84	23183.01
550.01	23239.18
550.18	23293.01
550.34	23393.65
550.51	23325.78
550.68	23171.30
550.84	22686.81
551.01	23056.62
551.18	23267.27
551.34	23264.92
551.51	23517.70
551.68	23185.35
551.84	23164.28
552.01	23608.98
552.18	23608.98
552.34	23321.10
552.51	23412.38
552.68	23438.12
552.84	23304.71
553.01	23346.84
553.18	23489.62
553.34	23480.25
553.51	23590.26
553.67	23871.12
553.84	23908.57
554.01	23920.28
554.17	23508.34
554.34	23435.78
554.51	23332.80
554.67	23669.84
554.84	23491.96
555.00	23398.34
555.17	23482.59
555.33	23864.10
555.50	23737.71
555.67	23686.22
555.83	23293.01
556.00	23339.82
556.16	23850.06
556.33	23749.42
556.50	23779.84
556.66	23304.71
556.83	23730.69
556.99	24194.12
557.16	23747.08
557.32	24016.24
557.49	24077.09
557.65	23740.05
557.82	23786.86
557.98	23552.81
558.15	23880.49
558.32	24086.45
558.48	23740.05
558.65	24002.19
558.81	23847.72
558.98	23924.96
559.14	24023.26
559.31	23723.67
559.47	23854.74
559.64	23901.55
559.80	23786.86
559.97	23754.10
560.13	23929.64
560.30	24032.62
560.46	24004.53
560.63	24151.99
560.79	24100.50
560.96	23852.40
561.12	24034.96
561.29	24233.91
561.45	24273.70
561.61	24030.28
561.78	24121.56
561.94	24362.64
562.11	24257.31
562.27	24091.13
562.44	23793.89
562.60	24109.86
562.77	23990.49
562.93	23950.70
563.10	24247.95
563.26	24011.56
563.42	24283.06
563.59	24437.53
563.75	23852.40
563.92	24582.65
564.08	24109.86
564.24	24119.22
564.41	24093.47
564.57	23960.06
564.74	24184.76
564.90	24374.34
565.07	24222.20
565.23	24446.90
565.39	24154.33
565.56	24350.93
565.72	23817.29
565.88	24184.76
566.05	24159.01
566.21	23906.23
566.38	24254.97
566.54	24322.85
566.70	24629.46
566.87	24554.56
567.03	24147.31
567.19	24617.75
567.36	24350.93
567.52	24556.90
567.68	24482.00
567.85	24325.19
568.01	24510.09
568.17	24041.98
568.34	24238.59
568.50	24580.31
568.66	24187.10
568.83	24702.01
568.99	24350.93
569.15	24360.30
569.32	24290.08
569.48	24308.80
569.64	24037.30
569.81	24444.56
569.97	24397.74
570.13	24460.94
570.30	24350.93
570.46	24512.43
570.62	24676.27
570.78	24428.17
570.95	24243.27
571.11	24395.40
571.27	24376.68
571.43	24587.33
571.60	24486.68
571.76	24245.61
571.92	24341.57
572.09	24292.42
572.25	24945.43
572.41	24439.87
572.57	24517.11
572.74	24285.40
572.90	24388.38
573.06	24713.72
573.22	24713.72
573.38	24823.72
573.55	24142.63
573.71	24706.70
573.87	24671.59
574.03	24479.66
574.20	24353.27
574.36	24596.69
574.52	24257.31
574.68	24491.37
574.84	24542.86
575.01	24645.84
575.17	24886.92
575.33	24395.40
575.49	24507.75
575.65	24702.01
575.82	24929.05
575.98	24479.66
576.14	24175.39
576.30	24587.33
576.46	24973.52
576.62	24559.24
576.79	24730.10
576.95	24549.88
577.11	24816.70
577.27	24772.23
577.43	24807.34
577.59	24151.99
577.75	24655.20
577.92	24414.13
578.08	24631.80
578.24	24390.72
578.40	24418.81
578.56	24940.75
578.72	24442.21
578.88	24737.12
579.04	25092.88
579.21	24748.82
579.37	24692.65
579.53	24692.65
579.69	24372.00
579.85	24538.18
580.01	24510.09
580.17	24477.32
580.33	24713.72
580.49	24833.08
580.65	24982.88
580.82	24467.96
580.98	24685.63
581.14	24999.26
581.30	24943.09
581.46	24460.94
581.62	24711.38
581.78	24418.81
581.94	24704.35
582.10	24655.20
582.26	24830.74
582.42	24727.76
582.58	24678.61
582.74	25268.42
582.90	24797.98
583.06	24687.97
583.22	24835.42
583.38	24842.45
583.54	24168.37
583.70	24638.82
583.86	24716.06
584.02	24297.10
584.18	24631.80
584.34	24449.24
584.50	24938.41
584.66	24985.22
584.82	24655.20
584.98	24723.08
585.14	24893.94
585.30	24622.44
585.46	24566.26
585.62	24753.51
585.78	24505.41
585.94	24374.34
586.10	24718.40
586.26	24613.07
586.42	24676.27
586.58	24776.91
586.74	24456.26
586.90	24521.79
587.06	24863.51
587.22	24865.85
587.38	24910.32
587.54	24589.67
587.70	24929.05
587.86	24809.68
588.02	24678.61
588.18	25032.03
588.34	24753.51
588.49	24807.34
588.65	24692.65
588.81	24704.35
588.97	25069.48
589.13	24893.94
589.29	24802.66
589.45	25170.12
589.61	24685.63
589.77	24744.14
589.93	24882.24
590.08	24814.36
590.24	24720.74
590.40	24985.22
590.56	24910.32
590.72	24683.29
590.88	24491.37
591.04	24989.90
591.20	25020.33
591.35	25064.80
591.51	24884.58
591.67	24999.26
591.83	25226.29
591.99	25025.01
592.15	24931.39
592.31	24666.91
592.46	24875.21
