SpectraSuite Data File
++++++++++++++++++++++++++++++++++++
Date: Fri Oct 04 11:39:53 GMT-05:00 2013
User: price-jones
Dark Spectrum Present: No
Reference Spectrum Present: No
Number of Sampled Component Spectra: 1
Spectrometers: USB2+H05261
Integration Time (usec): 100000 (USB2+H05261)
Spectra Averaged: 1 (USB2+H05261)
Boxcar Smoothing: 0 (USB2+H05261)
Correct for Electrical Dark: No (USB2+H05261)
Strobe/Lamp Enabled: No (USB2+H05261)
Correct for Detector Non-linearity: No (USB2+H05261)
Correct for Stray Light: No (USB2+H05261)
Number of Pixels in Processed Spectrum: 2048
>>>>>Begin Processed Spectral Data<<<<<
365.73	23.41
365.92	23.41
366.12	23.41
366.32	14.04
366.52	0.00
366.72	0.00
366.91	0.00
367.11	7.02
367.31	0.00
367.51	0.00
367.70	0.00
367.90	0.00
368.10	0.00
368.30	0.00
368.49	0.00
368.69	16.38
368.89	0.00
369.09	0.00
369.28	0.00
369.48	0.00
369.68	4.68
369.87	30.43
370.07	0.00
370.27	88.94
370.47	60.85
370.66	156.82
370.86	177.88
371.06	196.60
371.25	215.33
371.45	182.56
371.65	184.90
371.84	212.99
372.04	170.86
372.24	194.26
372.44	173.20
372.63	208.31
372.83	184.90
373.03	241.08
373.22	163.84
373.42	299.59
373.62	196.60
373.81	285.55
374.01	294.91
374.21	234.05
374.40	227.03
374.60	353.42
374.79	203.63
374.99	180.22
375.19	203.63
375.38	299.59
375.58	243.42
375.78	325.33
375.97	238.73
376.17	266.82
376.37	308.95
376.56	304.27
376.76	257.46
376.95	205.97
377.15	248.10
377.35	278.52
377.54	227.03
377.74	208.31
377.93	175.54
378.13	259.80
378.33	355.76
378.52	297.25
378.72	287.89
378.91	287.89
379.11	215.33
379.31	294.91
379.50	259.80
379.70	208.31
379.89	287.89
380.09	276.18
380.28	236.39
380.48	259.80
380.68	217.67
380.87	166.18
381.07	238.73
381.26	255.12
381.46	224.69
381.65	264.48
381.85	318.31
382.04	264.48
382.24	262.14
382.43	255.12
382.63	280.86
382.83	283.20
383.02	318.31
383.22	220.01
383.41	299.59
383.61	271.50
383.80	337.04
384.00	304.27
384.19	346.40
384.39	227.03
384.58	292.57
384.78	222.35
384.97	355.76
385.17	313.63
385.36	322.99
385.56	353.42
385.75	297.25
385.95	318.31
386.14	348.74
386.34	266.82
386.53	341.72
386.72	294.91
386.92	353.42
387.11	325.33
387.31	278.52
387.50	327.68
387.70	348.74
387.89	280.86
388.09	327.68
388.28	308.95
388.48	330.02
388.67	344.06
388.86	255.12
389.06	360.44
389.25	330.02
389.45	341.72
389.64	397.89
389.84	360.44
390.03	404.91
390.22	269.16
390.42	351.08
390.61	390.87
390.81	372.15
391.00	409.59
391.19	365.12
391.39	390.87
391.58	362.78
391.78	344.06
391.97	397.89
392.16	397.89
392.36	451.72
392.55	447.04
392.75	411.93
392.94	440.02
393.13	477.47
393.33	409.59
393.52	498.53
393.71	496.19
393.91	465.77
394.10	402.57
394.29	372.15
394.49	440.02
394.68	491.51
394.88	428.32
395.07	528.96
395.26	489.17
395.46	489.17
395.65	463.43
395.84	507.90
396.04	505.56
396.23	500.87
396.42	510.24
396.62	482.15
396.81	543.00
397.00	472.79
397.19	540.66
397.39	496.19
397.58	587.47
397.77	477.47
397.97	566.41
398.16	531.30
398.35	599.18
398.55	580.45
398.74	573.43
398.93	589.82
399.12	564.07
399.32	559.39
399.51	716.20
399.70	585.13
399.90	596.84
400.09	636.63
400.28	692.80
400.47	596.84
400.67	645.99
400.86	706.84
401.05	751.31
401.24	695.14
401.44	681.10
401.63	774.72
401.82	725.57
402.01	704.50
402.21	737.27
402.40	650.67
402.59	739.61
402.78	718.54
402.97	671.73
403.17	723.23
403.36	753.65
403.55	788.76
403.74	739.61
403.93	770.04
404.13	842.59
404.32	908.13
404.51	833.23
404.70	861.32
404.89	826.21
405.09	919.83
405.28	828.55
405.47	880.04
405.66	875.36
405.85	894.08
406.05	966.64
406.24	903.45
406.43	947.92
406.62	952.60
406.81	938.55
407.00	1006.43
407.20	922.17
407.39	891.74
407.58	1001.75
407.77	985.37
407.96	945.58
408.15	987.71
408.34	994.73
408.54	1071.97
408.73	1027.50
408.92	1078.99
409.11	1097.71
409.30	1107.07
409.49	1177.29
409.68	1165.59
409.87	1041.54
410.07	1137.50
410.26	1146.86
410.45	1179.63
410.64	1167.93
410.83	1184.31
411.02	1226.44
411.21	1270.91
411.40	1188.99
411.59	1289.64
411.78	1151.54
411.98	1341.13
412.17	1284.95
412.36	1249.85
412.55	1420.71
412.74	1392.62
412.93	1535.39
413.12	1334.11
413.31	1556.46
413.50	1488.58
413.69	1455.81
413.88	1551.78
414.07	1481.56
414.26	1570.50
414.45	1612.63
414.64	1521.35
414.83	1586.88
415.02	1666.46
415.22	1603.27
415.41	1722.63
415.60	1706.25
415.79	1682.85
415.98	1741.36
416.17	1699.23
416.36	1713.27
416.55	1790.51
416.74	1757.74
416.93	1762.42
417.12	1851.36
417.31	1811.57
417.50	1790.51
417.69	1832.64
417.88	1912.22
418.07	1827.96
418.26	1891.15
418.45	2043.29
418.64	1991.80
418.83	1923.92
419.02	1856.04
419.21	2071.37
419.39	1961.37
419.58	1973.07
419.77	2022.22
419.96	1998.82
420.15	2146.27
420.34	2087.76
420.53	2078.40
420.72	2132.23
420.91	2125.21
421.10	2132.23
421.29	2132.23
421.48	2101.80
421.67	2179.04
421.86	2146.27
422.05	2225.85
422.24	2193.08
422.43	2132.23
422.61	2296.07
422.80	2296.07
422.99	2200.10
423.18	2258.62
423.37	2258.62
423.56	2293.72
423.75	2277.34
423.94	2193.08
424.13	2153.29
424.32	2232.87
424.50	2246.91
424.69	2349.90
424.88	2354.58
425.07	2328.83
425.26	2197.76
425.45	2284.36
425.64	2314.79
425.83	2260.96
426.01	2303.09
426.20	2289.04
426.39	2237.55
426.58	2310.11
426.77	2328.83
426.96	2331.17
427.15	2340.54
427.33	2375.64
427.52	2314.79
427.71	2443.52
427.90	2373.30
428.09	2443.52
428.28	2483.31
428.46	2443.52
428.65	2560.55
428.84	2612.04
429.03	2567.57
429.22	2551.18
429.40	2567.57
429.59	2530.12
429.78	2537.14
429.97	2429.48
430.16	2518.42
430.34	2637.78
430.53	2607.36
430.72	2609.70
430.91	2469.27
431.10	2649.49
431.28	2487.99
431.47	2635.44
431.66	2693.96
431.85	2661.19
432.03	2757.15
432.22	2745.45
432.41	2717.36
432.60	2834.39
432.79	2808.64
432.97	2846.09
433.16	2686.94
433.35	2757.15
433.54	2771.19
433.72	2818.00
433.91	2827.37
434.10	2815.66
434.28	2860.13
434.47	2853.11
434.66	2949.08
434.85	2920.99
435.03	3005.25
435.22	3297.81
435.41	3353.99
435.59	3344.63
435.78	3286.11
435.97	3155.04
436.16	3033.33
436.34	3033.33
436.53	3150.36
436.72	3159.72
436.90	3159.72
437.09	3101.21
437.28	3021.63
437.46	3126.96
437.65	3166.74
437.84	3201.85
438.02	3190.15
438.21	3183.13
438.40	3077.80
438.58	3463.99
438.77	3328.24
438.96	3222.92
439.14	3234.62
439.33	3424.20
439.52	3314.20
439.70	3372.71
439.89	3468.67
440.08	3445.27
440.26	3386.76
440.45	3574.00
440.63	3566.98
440.82	3569.32
441.01	3508.46
441.19	3623.15
441.38	3611.45
441.57	3595.06
441.75	3702.73
441.94	3730.81
442.12	3684.00
442.31	3721.45
442.50	3782.31
442.68	3730.81
442.87	3700.39
443.05	3859.54
443.24	3882.95
443.43	4014.02
443.61	3756.56
443.80	3864.22
443.98	3812.73
444.17	3749.54
444.35	3896.99
444.54	3824.44
444.73	3887.63
444.91	4060.83
445.10	3824.44
445.28	3918.06
445.47	3920.40
445.65	3859.54
445.84	3936.78
446.02	3915.72
446.21	3829.12
446.39	3838.48
446.58	3960.19
446.77	3882.95
446.95	3899.33
447.14	3889.97
447.32	4009.34
447.51	3988.27
447.69	3976.57
447.88	4131.05
448.06	4107.64
448.25	3981.25
448.43	3971.89
448.62	4035.08
448.80	3995.29
448.99	4138.07
449.17	4032.74
449.36	4093.60
449.54	4266.80
449.73	4210.62
449.91	4372.12
450.10	4266.80
450.28	4294.88
450.46	4400.21
450.65	4105.30
450.83	4334.67
451.02	4236.37
451.20	4374.46
451.39	4248.07
451.57	4128.70
451.76	4360.42
451.94	4456.38
452.13	4435.32
452.31	4414.25
452.49	4287.86
452.68	4397.87
452.86	4440.00
453.05	4393.19
453.23	4395.53
453.42	4374.46
453.60	4482.13
453.78	4416.59
453.97	4393.19
454.15	4463.40
454.34	4500.85
454.52	4603.83
454.70	4610.86
454.89	4587.45
455.07	4489.15
455.26	4526.60
455.44	4706.82
455.62	4634.26
455.81	4641.28
455.99	4699.80
456.17	4690.43
456.36	4851.93
456.54	4777.03
456.73	4699.80
456.91	4975.98
457.09	4940.87
457.28	5041.51
457.46	4854.27
457.64	4990.02
457.83	4950.23
458.01	4912.78
458.19	4964.28
458.38	5151.52
458.56	4943.21
458.74	4912.78
458.93	4943.21
459.11	5027.47
459.29	5064.92
459.48	5046.20
459.66	5062.58
459.84	5151.52
460.03	5305.99
460.21	5179.61
460.39	5268.55
460.57	5214.71
460.76	5172.58
460.94	5212.37
461.12	5097.69
461.31	5097.69
461.49	5296.63
461.67	5313.02
461.85	5310.68
462.04	5167.90
462.22	5788.14
462.40	5322.38
462.59	5401.96
462.77	5406.64
462.95	5516.64
463.13	5364.51
463.32	5263.86
463.50	5523.66
463.68	5558.77
463.86	5504.94
464.05	5465.15
464.23	5408.98
464.41	5537.71
464.59	5551.75
464.78	5542.39
464.96	5455.79
465.14	5495.58
465.32	5582.18
465.50	5699.20
465.69	5778.78
465.87	5558.77
466.05	5645.37
466.23	5626.65
466.41	5806.87
466.60	5893.47
466.78	5802.19
466.96	5701.54
467.14	5764.74
467.32	5753.04
467.51	6071.35
467.69	5577.50
467.87	5769.42
468.05	5753.04
468.23	5764.74
468.41	5884.11
468.60	5905.17
468.78	6043.26
468.96	5851.34
469.14	5863.04
469.32	6080.71
469.50	5811.55
469.69	5984.75
469.87	6179.01
470.05	6228.17
470.23	5954.32
470.41	6101.78
470.59	5994.11
470.77	6132.20
470.95	6216.46
471.14	6384.98
471.32	6054.97
471.50	6431.79
471.68	6333.49
471.86	6415.41
472.04	6476.26
472.22	6483.28
472.40	6448.18
472.58	6359.24
472.77	6438.81
472.95	6677.55
473.13	6747.76
473.31	6464.56
473.49	6513.71
473.67	6560.52
473.85	6600.31
474.03	6801.60
474.21	6759.47
474.39	6766.49
474.57	6923.30
474.75	6904.58
474.93	6820.32
475.12	6927.99
475.30	6970.12
475.48	6977.14
475.66	6970.12
475.84	6972.46
476.02	7199.49
476.20	6972.46
476.38	7185.44
476.56	7342.26
476.74	7506.10
476.92	7440.56
477.10	7503.76
477.28	7449.93
477.46	7370.35
477.64	7578.65
477.82	7672.28
478.00	7772.92
478.18	7599.72
478.36	7896.97
478.54	7967.18
478.72	7819.73
478.90	8210.60
479.08	8011.65
479.26	7962.50
479.44	7950.80
479.62	8285.50
479.80	8510.19
479.98	8320.60
480.16	8404.86
480.34	8318.26
480.52	8526.57
480.70	8549.98
480.88	8510.19
481.06	8699.77
481.24	8479.76
481.41	8863.61
481.59	8999.36
481.77	9048.51
481.95	9046.17
482.13	9064.89
482.31	9280.22
482.49	9254.48
482.67	9214.69
482.85	9472.15
483.03	9497.89
483.21	9727.27
483.39	9708.54
483.57	9764.72
483.74	9621.94
483.92	9664.07
484.10	9626.62
484.28	9942.60
484.46	10068.98
484.64	10476.24
484.82	10115.80
485.00	10450.49
485.18	10391.98
485.35	10574.54
485.53	10544.11
485.71	10600.29
485.89	10918.60
486.07	10677.52
486.25	10925.62
486.43	10761.78
486.61	11009.88
486.78	10944.34
486.96	11243.93
487.14	11173.72
487.32	11246.27
487.50	11269.68
487.68	11503.73
487.85	11449.90
488.03	12053.76
488.21	11819.71
488.39	11997.59
488.57	11730.76
488.75	11946.09
488.92	12404.84
489.10	12166.10
489.28	12395.48
489.46	12601.44
489.64	12386.12
489.81	12407.18
489.99	12706.77
490.17	12772.30
490.35	12748.90
490.53	13055.51
490.70	12861.24
490.88	13139.77
491.06	13261.48
491.24	13231.05
491.41	13434.68
491.59	13383.18
491.77	13577.45
491.95	13692.13
492.13	13788.10
492.30	13752.99
492.48	13762.35
492.66	13778.73
492.84	13720.22
493.01	13799.80
493.19	14303.01
493.37	14239.82
493.54	14300.67
493.72	14494.94
493.90	14366.21
494.08	14429.40
494.25	14740.69
494.43	14672.82
494.61	14782.82
494.79	15044.96
494.96	14909.21
495.14	14998.15
495.32	15023.90
495.49	15056.67
495.67	15229.87
495.85	15517.75
496.02	15496.69
496.20	15438.17
496.38	15737.76
496.55	15597.33
496.73	15927.35
496.91	15775.21
497.09	15880.53
497.26	16102.89
497.44	16191.83
497.62	16168.42
497.79	16341.62
497.97	16145.02
498.14	16589.72
498.32	17092.93
498.50	16727.81
498.67	16786.32
498.85	16922.07
499.03	16760.58
499.20	16886.97
499.38	16730.15
499.56	17048.46
499.73	16978.25
499.91	17488.48
500.08	17413.59
500.26	17013.35
500.44	17312.94
500.61	17291.88
500.79	17219.32
500.97	17795.09
501.14	17694.45
501.32	17593.81
501.49	17832.54
501.67	17668.70
501.84	17809.14
502.02	17851.27
502.20	18246.82
502.37	18033.83
502.55	17937.87
502.72	18061.91
502.90	18090.00
503.07	18162.56
503.25	18286.61
503.43	18338.10
503.60	18485.55
503.78	18609.60
503.95	18462.15
504.13	18595.56
504.30	18677.48
504.48	19009.83
504.65	18614.28
504.83	18925.57
505.01	19115.16
505.18	19110.47
505.36	18862.38
505.53	19126.86
505.71	19044.94
505.88	19147.92
506.06	19126.86
506.23	19412.40
506.41	19166.65
506.58	19597.31
506.76	19496.66
506.93	19346.87
507.11	19590.28
507.28	19704.97
507.46	19456.87
507.63	19819.66
507.81	20091.16
507.98	20107.54
508.16	20081.80
508.33	20259.68
508.50	20060.73
508.68	20414.15
508.85	20219.89
509.03	20215.21
509.20	20655.23
509.38	20659.91
509.55	20695.02
509.73	20580.33
509.90	20360.32
510.08	20929.07
510.25	20849.49
510.42	20723.10
510.60	21242.70
510.77	21200.57
510.95	21074.18
511.12	21317.60
511.30	20893.96
511.47	21207.59
511.64	21390.16
511.82	21504.84
511.99	21542.29
512.17	21589.10
512.34	21586.76
512.51	21392.50
512.69	21544.63
512.86	21717.83
513.04	21956.57
513.21	21778.68
513.38	21809.11
513.56	21879.33
513.73	22010.40
513.90	22012.74
514.08	21766.98
514.25	22050.19
514.43	22160.19
514.60	22295.94
514.77	22401.27
514.95	22527.66
515.12	22321.69
515.29	22600.21
515.47	22525.32
515.64	22869.37
515.81	23042.57
515.99	22885.76
516.16	23016.83
516.33	23271.95
516.51	22850.65
516.68	22691.49
516.85	22759.37
517.03	22724.26
517.20	23061.30
517.37	22829.59
517.54	23199.39
517.72	23178.33
517.89	23232.16
518.06	23426.42
518.24	23555.15
518.41	23456.85
518.58	23426.42
518.75	23524.72
518.93	23730.69
519.10	23475.57
519.27	23964.75
519.45	23667.50
519.62	23674.52
519.79	23861.76
519.96	23749.42
520.14	24264.33
520.31	24100.50
520.48	24023.26
520.65	24175.39
520.83	24341.57
521.00	24435.19
521.17	24105.18
521.34	24259.65
521.52	24589.67
521.69	24432.85
521.86	24449.24
522.03	24685.63
522.20	24650.52
522.38	25053.09
522.55	24844.79
522.72	24968.84
522.89	24608.39
523.07	25280.13
523.24	25214.59
523.41	25165.44
523.58	25062.46
523.75	25127.99
523.92	24992.24
524.10	25263.74
524.27	25390.13
524.44	25577.37
524.61	25308.21
524.78	25532.90
524.96	25539.93
525.13	25450.99
525.30	25783.34
525.47	25453.33
525.64	25766.96
525.81	25359.70
525.98	26012.71
526.16	25593.76
526.33	25872.28
526.50	25872.28
526.67	25699.08
526.84	25703.76
527.01	25919.09
527.18	26401.24
527.36	26120.38
527.53	25869.94
527.70	26469.12
527.87	26476.14
528.04	26221.02
528.21	26115.70
528.38	26225.70
528.55	26324.01
528.72	26316.98
528.89	26417.63
529.07	26637.64
529.24	26651.68
529.41	26796.79
529.58	26511.25
529.75	26380.18
529.92	26962.97
530.09	26654.02
530.26	26972.33
530.43	26757.00
530.60	26780.41
530.77	26733.60
530.94	27019.14
531.11	26684.45
531.28	26785.09
531.46	27152.55
531.63	27072.98
531.80	27178.30
531.97	27307.03
532.14	27527.04
532.31	27550.45
532.48	27250.86
532.65	27129.15
532.82	27110.43
532.99	27234.47
533.16	27421.72
533.33	27477.89
533.50	27946.00
533.67	27318.73
533.84	27817.27
534.01	27718.96
534.18	27660.45
534.35	27749.39
534.52	27498.95
534.69	27995.15
534.86	28130.90
535.03	27803.22
535.20	28170.69
535.37	28039.62
535.54	28088.77
535.71	27679.18
535.88	27981.10
536.05	27779.82
536.22	28407.08
536.38	28554.54
536.55	28407.08
536.72	28599.01
536.89	28041.96
537.06	28474.96
537.23	28219.84
537.40	28287.71
537.57	28364.95
537.74	28299.42
537.91	28795.61
538.08	28751.14
538.25	28531.13
538.42	28552.20
538.59	28938.38
538.75	28877.53
538.92	28982.85
539.09	29191.16
539.26	28938.38
539.43	29071.79
539.60	29036.69
539.77	29216.91
539.94	29118.60
540.11	29291.80
540.28	29317.55
540.44	29336.27
540.61	29099.88
540.78	29146.69
540.95	29469.69
541.12	29481.39
541.29	29254.36
541.46	29497.77
541.62	29303.51
541.79	29612.46
541.96	29450.96
542.13	29743.53
542.30	30129.72
542.47	29853.53
542.63	30118.01
542.80	30092.27
542.97	29837.15
543.14	30305.26
543.31	29975.24
543.48	29937.79
543.64	30492.50
543.81	30335.68
543.98	30504.20
544.15	30604.84
544.32	30817.83
544.48	30532.29
544.65	30501.86
544.82	30265.47
544.99	29738.85
545.16	29975.24
545.32	30551.01
545.49	31082.31
545.66	31615.96
545.83	31730.64
546.00	31772.77
546.16	31023.80
546.33	30635.27
546.50	30223.34
546.67	30656.34
546.83	30522.93
547.00	30466.75
547.17	30801.45
547.34	30752.30
547.50	30611.87
547.67	30845.92
547.84	30773.36
548.00	30822.51
548.17	30883.37
548.34	30611.87
548.51	31084.65
548.67	31145.51
548.84	31290.62
549.01	30682.08
549.18	30625.91
549.34	31072.95
549.51	31082.31
549.68	30974.65
549.84	31049.55
550.01	31147.85
550.18	31075.29
550.34	31140.83
550.51	31103.38
550.68	31290.62
550.84	31349.14
551.01	31079.97
551.18	31185.30
551.34	30904.43
551.51	30946.56
551.68	30941.88
551.84	31433.39
552.01	31007.42
552.18	31501.27
552.34	31292.96
552.51	31278.92
552.68	31447.44
552.84	31452.12
553.01	31681.49
553.18	31164.23
553.34	31803.20
553.51	31960.02
553.67	31672.13
553.84	31967.04
554.01	31725.96
554.17	31491.91
554.34	31798.52
554.51	31608.93
554.67	32133.21
554.84	31707.24
555.00	31751.71
555.17	31489.57
555.33	31711.92
555.50	31452.12
555.67	31938.95
555.83	31571.49
556.00	31864.05
556.16	32105.13
556.33	31508.29
556.50	31496.59
556.66	32006.83
556.83	32004.49
556.99	31999.80
557.16	32032.57
557.32	31922.57
557.49	31931.93
557.65	32074.70
557.82	31967.04
557.98	32011.51
558.15	32037.25
558.32	32477.27
558.48	32231.52
558.65	32381.31
558.81	32219.81
558.98	32135.56
559.14	32065.34
559.31	32421.10
559.47	32151.94
559.64	32098.11
559.80	32170.66
559.97	32224.50
560.13	32268.97
560.30	32271.31
560.46	32421.10
560.63	32027.89
560.79	32336.84
560.96	32294.71
561.12	32290.03
561.29	32381.31
561.45	32292.37
561.61	32252.58
561.78	32708.99
561.94	32254.92
562.11	32818.99
562.27	32872.82
562.44	32690.26
562.60	32779.20
562.77	32821.33
562.93	32472.59
563.10	32615.37
563.26	32727.71
563.42	32814.31
563.59	32645.79
563.75	32830.69
563.92	32980.49
564.08	32212.79
564.24	32533.45
564.41	32460.89
564.57	32336.84
564.74	32517.06
564.90	33156.03
565.07	32900.91
565.23	33043.68
565.39	32664.52
565.56	32676.22
565.72	32535.79
565.88	32598.98
566.05	32769.84
566.21	32580.26
566.38	32760.48
566.54	32954.74
566.70	32849.42
566.87	33046.02
567.03	32545.15
567.19	33308.16
567.36	33097.52
567.52	32629.41
567.68	32863.46
567.85	32830.69
568.01	32535.79
568.17	32821.33
568.34	32968.79
568.50	32765.16
568.66	32723.03
568.83	32931.34
568.99	33097.52
569.15	32711.33
569.32	32718.35
569.48	32531.11
569.64	33020.28
569.81	32910.27
569.97	32720.69
570.13	33034.32
570.30	32929.00
570.46	33298.80
570.62	33027.30
570.78	33003.89
570.95	32498.34
571.11	33069.43
571.27	32973.47
571.43	32943.04
571.60	32900.91
571.76	33071.77
571.92	33055.39
572.09	33149.01
572.25	32706.65
572.41	32957.08
572.57	33303.48
572.74	33240.29
572.90	32753.46
573.06	33039.00
573.22	33106.88
573.38	32961.76
573.55	33427.53
573.71	33324.55
573.87	33586.69
574.03	32891.55
574.20	33177.09
574.36	32811.97
574.52	33022.62
574.68	32781.54
574.84	33221.56
575.01	33216.88
575.17	33195.82
575.33	33422.85
575.49	33006.23
575.65	33324.55
575.82	33432.21
575.98	33376.04
576.14	33464.98
576.30	33336.25
576.46	33434.55
576.62	33156.03
576.79	33078.79
576.95	33413.49
577.11	33010.92
577.27	33130.28
577.43	33326.89
577.59	33092.83
577.75	33010.92
577.92	33036.66
578.08	32989.85
578.24	33099.86
578.40	33359.66
578.56	33301.14
578.72	33530.51
578.88	33820.74
579.04	33436.89
579.21	33425.19
579.37	33359.66
579.53	33401.79
579.69	33134.96
579.85	33031.98
580.01	33296.46
580.17	32877.51
580.33	33308.16
580.49	33354.97
580.65	33628.82
580.82	33497.75
580.98	33406.47
581.14	33156.03
581.30	33195.82
581.46	33495.41
581.62	33301.14
581.78	33329.23
581.94	33694.35
582.10	33347.95
582.26	33378.38
582.42	33310.50
582.58	33401.79
582.74	33589.03
582.90	33741.16
583.06	33525.83
583.22	33638.18
583.38	33488.38
583.54	33404.13
583.70	33144.33
583.86	33380.72
584.02	33390.08
584.18	33481.36
584.34	33488.38
584.50	33551.58
584.66	33699.03
584.82	33254.33
584.98	33610.09
585.14	33528.17
585.30	33067.09
585.46	33818.40
585.62	33188.80
585.78	33785.63
585.94	33448.60
586.10	33574.98
586.26	33542.22
586.42	33577.33
586.58	33905.00
586.74	33570.30
586.90	33518.81
587.06	33551.58
587.22	33326.89
587.38	33565.62
587.54	33668.61
587.70	34005.64
587.86	33706.05
588.02	33495.41
588.18	33886.28
588.34	33692.01
588.49	33654.56
588.65	33226.24
588.81	33528.17
588.97	33809.04
589.13	33668.61
589.29	33818.40
589.45	33546.90
589.61	33617.11
589.77	34047.77
589.93	33734.14
590.08	33867.55
590.24	33923.72
590.40	33897.98
590.56	34256.08
590.72	33834.78
590.88	33635.84
591.04	33504.77
591.20	34015.01
591.35	33919.04
591.51	34218.63
591.67	34043.09
