SpectraSuite Data File
++++++++++++++++++++++++++++++++++++
Date: Fri Oct 04 11:39:36 GMT-05:00 2013
User: price-jones
Dark Spectrum Present: No
Reference Spectrum Present: No
Number of Sampled Component Spectra: 1
Spectrometers: USB2+H05261
Integration Time (usec): 100000 (USB2+H05261)
Spectra Averaged: 1 (USB2+H05261)
Boxcar Smoothing: 0 (USB2+H05261)
Correct for Electrical Dark: No (USB2+H05261)
Strobe/Lamp Enabled: No (USB2+H05261)
Correct for Detector Non-linearity: No (USB2+H05261)
Correct for Stray Light: No (USB2+H05261)
Number of Pixels in Processed Spectrum: 2048
>>>>>Begin Processed Spectral Data<<<<<
365.73	95.96
365.92	95.96
366.12	95.96
366.32	0.00
366.52	0.00
366.72	14.04
366.91	0.00
367.11	14.04
367.31	0.00
367.51	0.00
367.70	0.00
367.90	0.00
368.10	7.02
368.30	0.00
368.49	0.00
368.69	0.00
368.89	0.00
369.09	0.00
369.28	0.00
369.48	30.43
369.68	18.72
369.87	0.00
370.07	0.00
370.27	49.15
370.47	79.58
370.66	271.50
370.86	339.38
371.06	255.12
371.25	330.02
371.45	330.02
371.65	325.33
371.84	271.50
372.04	397.89
372.24	444.70
372.44	346.40
372.63	383.85
372.83	334.70
373.03	449.38
373.22	416.62
373.42	393.21
373.62	404.91
373.81	449.38
374.01	402.57
374.21	435.34
374.40	421.30
374.60	484.49
374.79	440.02
374.99	444.70
375.19	477.47
375.38	472.79
375.58	470.45
375.78	465.77
375.97	461.09
376.17	533.64
376.37	440.02
376.56	510.24
376.76	360.44
376.95	428.32
377.15	442.36
377.35	493.85
377.54	491.51
377.74	440.02
377.93	447.04
378.13	503.22
378.33	428.32
378.52	505.56
378.72	486.83
378.91	442.36
379.11	559.39
379.31	454.06
379.50	531.30
379.70	512.58
379.89	603.86
380.09	477.47
380.28	533.64
380.48	580.45
380.68	585.13
380.87	519.60
381.07	561.73
381.26	580.45
381.46	545.34
381.65	638.97
381.85	594.50
382.04	526.62
382.24	587.47
382.43	557.05
382.63	510.24
382.83	589.82
383.02	580.45
383.22	613.22
383.41	533.64
383.61	622.58
383.80	601.52
384.00	526.62
384.19	653.01
384.39	627.26
384.58	580.45
384.78	643.65
384.97	653.01
385.17	685.78
385.36	615.56
385.56	711.52
385.75	674.07
385.95	653.01
386.14	678.76
386.34	662.37
386.53	622.58
386.72	601.52
386.92	664.71
387.11	641.31
387.31	730.25
387.50	699.82
387.70	718.54
387.89	739.61
388.09	685.78
388.28	763.01
388.48	718.54
388.67	695.14
388.86	744.29
389.06	777.06
389.25	767.70
389.45	809.83
389.64	779.40
389.84	849.61
390.03	772.38
390.22	828.55
390.42	802.80
390.61	779.40
390.81	755.99
391.00	798.12
391.19	814.51
391.39	746.63
391.58	788.76
391.78	837.91
391.97	837.91
392.16	772.38
392.36	898.77
392.55	905.79
392.75	924.51
392.94	868.34
393.13	828.55
393.33	931.53
393.52	903.45
393.71	943.24
393.91	936.21
394.10	959.62
394.29	954.94
394.49	966.64
394.68	943.24
394.88	910.47
395.07	1043.88
395.26	1001.75
395.46	938.55
395.65	1076.65
395.84	1020.47
396.04	1088.35
396.23	983.02
396.42	1050.90
396.62	1053.24
396.81	1043.88
397.00	1053.24
397.19	1076.65
397.39	1172.61
397.58	1069.62
397.77	1146.86
397.97	1107.07
398.16	1057.92
398.35	1219.42
398.55	1078.99
398.74	1144.52
398.93	1193.67
399.12	1100.05
399.32	1242.82
399.51	1191.33
399.70	1193.67
399.90	1196.01
400.09	1221.76
400.28	1205.38
400.47	1231.12
400.67	1366.87
400.86	1322.40
401.05	1306.02
401.24	1376.24
401.44	1336.45
401.63	1401.98
401.82	1369.21
402.01	1308.36
402.21	1434.75
402.40	1371.55
402.59	1364.53
402.78	1423.05
402.97	1343.47
403.17	1416.02
403.36	1547.09
403.55	1432.41
403.74	1462.83
403.93	1540.07
404.13	1612.63
404.32	1486.24
404.51	1486.24
404.70	1584.54
404.89	1561.14
405.09	1631.35
405.28	1488.58
405.47	1547.09
405.66	1633.69
405.85	1664.12
406.05	1647.74
406.24	1631.35
406.43	1708.59
406.62	1746.04
406.81	1806.89
407.00	1600.93
407.20	1603.27
407.39	1767.10
407.58	1743.70
407.77	1872.43
407.96	1863.07
408.15	1781.15
408.34	1746.04
408.54	1776.47
408.73	1785.83
408.92	1804.55
409.11	1919.24
409.30	1902.86
409.49	1865.41
409.68	1928.60
409.87	1914.56
410.07	2024.56
410.26	1980.09
410.45	2059.67
410.64	2029.24
410.83	2214.15
411.02	1991.80
411.21	2174.36
411.40	2092.44
411.59	2221.17
411.78	2172.02
411.98	2038.61
412.17	2237.55
412.36	2174.36
412.55	2239.89
412.74	2338.20
412.93	2305.43
413.12	2275.00
413.31	2523.10
413.50	2251.60
413.69	2527.78
413.88	2394.37
414.07	2490.33
414.26	2551.18
414.45	2462.24
414.64	2530.12
414.83	2581.61
415.02	2640.12
415.22	2780.56
415.41	2724.38
415.60	2717.36
415.79	2775.88
415.98	2864.82
416.17	2747.79
416.36	2757.15
416.55	2885.88
416.74	2724.38
416.93	2920.99
417.12	3019.29
417.31	3000.57
417.50	2827.37
417.69	3030.99
417.88	3014.61
418.07	3040.36
418.26	3110.57
418.45	3054.40
418.64	3185.47
418.83	3288.45
419.02	3131.64
419.21	3295.47
419.39	3194.83
419.58	3225.26
419.77	3178.45
419.96	3318.88
420.15	3213.56
420.34	3269.73
420.53	3368.03
420.72	3307.18
420.91	3456.97
421.10	3520.17
421.29	3412.50
421.48	3361.01
421.67	3522.51
421.86	3487.40
422.05	3517.83
422.24	3522.51
422.43	3555.27
422.61	3503.78
422.80	3562.30
422.99	3473.36
423.18	3672.30
423.37	3599.74
423.56	3524.85
423.75	3604.42
423.94	3520.17
424.13	3323.56
424.32	3508.46
424.50	3609.11
424.69	3665.28
424.88	3658.26
425.07	3562.30
425.26	3524.85
425.45	3644.21
425.64	3606.77
425.83	3665.28
426.01	3688.68
426.20	3721.45
426.39	3655.92
426.58	3604.42
426.77	3688.68
426.96	3641.87
427.15	3817.41
427.33	3772.94
427.52	3791.67
427.71	3850.18
427.90	3808.05
428.09	3875.93
428.28	3859.54
428.46	3880.61
428.65	3840.82
428.84	3995.29
429.03	3957.85
429.22	3915.72
429.40	4011.68
429.59	3964.87
429.78	3875.93
429.97	3810.39
430.16	3967.21
430.34	4046.79
430.53	4117.00
430.72	4093.60
430.91	4145.09
431.10	4138.07
431.28	4114.66
431.47	4245.73
431.66	4205.94
431.85	4227.01
432.03	4341.69
432.22	4360.42
432.41	4365.10
432.60	4381.48
432.79	4442.34
432.97	4264.46
433.16	4301.90
433.35	4407.23
433.54	4435.32
433.72	4432.97
433.91	4334.67
434.10	4269.14
434.28	4437.66
434.47	4458.72
434.66	4594.47
434.85	4554.68
435.03	4596.81
435.22	4856.61
435.41	4910.44
435.59	5018.11
435.78	5053.22
435.97	4786.40
436.16	4685.75
436.34	4812.14
436.53	4587.45
436.72	4849.59
436.90	4730.22
437.09	4835.55
437.28	4788.74
437.46	4877.68
437.65	4947.89
437.84	4882.36
438.02	4903.42
438.21	4922.15
438.40	4877.68
438.58	5078.96
438.77	5057.90
438.96	5107.05
439.14	5111.73
439.33	5078.96
439.52	5247.48
439.70	5139.82
439.89	5376.21
440.08	5280.25
440.26	5373.87
440.45	5345.78
440.63	5607.92
440.82	5401.96
441.01	5383.23
441.19	5638.35
441.38	5561.11
441.57	5678.14
441.75	5675.80
441.94	5551.75
442.12	5734.31
442.31	5996.45
442.50	5884.11
442.68	5891.13
442.87	5877.09
443.05	5902.83
443.24	5933.26
443.43	6026.88
443.61	5909.85
443.80	6286.68
443.98	6024.54
444.17	5731.97
444.35	5891.13
444.54	6265.61
444.73	5980.07
444.91	6125.18
445.10	6104.12
445.28	6064.33
445.47	5905.17
445.65	6129.86
445.84	6209.44
446.02	6202.42
446.21	5947.30
446.39	6012.84
446.58	6193.06
446.77	6296.04
446.95	6040.92
447.14	6155.61
447.32	6136.88
447.51	6076.03
447.69	6202.42
447.88	6120.50
448.06	6101.78
448.25	6331.15
448.43	6282.00
448.62	6193.06
448.80	6204.76
448.99	6155.61
449.17	6429.45
449.36	6263.27
449.54	6384.98
449.73	6415.41
449.91	6476.26
450.10	6509.03
450.28	6590.95
450.46	6509.03
450.65	6490.31
450.83	6410.73
451.02	6546.48
451.20	6853.09
451.39	6656.48
451.57	6590.95
451.76	6619.04
451.94	6715.00
452.13	6682.23
452.31	6576.91
452.49	6614.35
452.68	6780.53
452.86	6752.45
453.05	6885.86
453.23	6913.94
453.42	6796.92
453.60	6663.51
453.78	7052.03
453.97	6684.57
454.15	6867.13
454.34	6792.23
454.52	7002.88
454.70	6876.49
454.89	7105.87
455.07	7045.01
455.26	7232.26
455.44	7260.34
455.62	6956.07
455.81	7236.94
455.99	7272.04
456.17	7131.61
456.36	7274.38
456.54	7262.68
456.73	7321.20
456.91	7508.44
457.09	7676.96
457.28	7644.19
457.46	7384.39
457.64	7810.37
457.83	7435.88
458.01	7426.52
458.19	7609.08
458.38	7492.05
458.56	7763.56
458.74	7822.07
458.93	7478.01
459.11	7686.32
459.29	7784.62
459.48	7798.66
459.66	7712.07
459.84	7613.76
460.03	8004.63
460.21	7735.47
460.39	7868.88
460.57	8009.31
460.76	8035.06
460.94	8205.92
461.12	8006.97
461.31	7988.25
461.49	8152.09
461.67	7896.97
461.85	8138.04
462.04	8234.00
462.22	8311.24
462.40	8205.92
462.59	8252.73
462.77	8182.51
462.95	8685.73
463.13	8301.88
463.32	8376.78
463.50	8372.10
463.68	8397.84
463.86	8524.23
464.05	8306.56
464.23	8175.49
464.41	8601.47
464.59	8432.95
464.78	8671.68
464.96	8603.81
465.14	8400.18
465.32	8627.21
465.50	8676.37
465.69	8659.98
465.87	8421.25
466.05	8599.13
466.23	8638.92
466.41	8676.37
466.60	8877.65
466.78	8769.99
466.96	8636.58
467.14	8688.07
467.32	8870.63
467.51	9027.45
467.69	8727.86
467.87	8875.31
468.05	8879.99
468.23	8987.66
468.41	8987.66
468.60	8901.06
468.78	8992.34
468.96	8964.25
469.14	9151.49
469.32	9219.37
469.50	8854.25
469.69	9160.86
469.87	9355.12
470.05	9329.38
470.23	9233.41
470.41	9350.44
470.59	9411.29
470.77	9092.98
470.95	9577.47
471.14	9528.32
471.32	9247.46
471.50	9682.80
471.68	9607.90
471.86	9575.13
472.04	9717.90
472.22	9940.26
472.40	9703.86
472.58	9792.80
472.77	9745.99
472.95	9853.66
473.13	10401.34
473.31	10171.97
473.49	9933.23
473.67	10036.22
473.85	10068.98
474.03	10429.43
474.21	10148.56
474.39	10228.14
474.57	10516.03
474.75	10527.73
474.93	10684.55
475.12	10707.95
475.30	10637.73
475.48	10619.01
475.66	10574.54
475.84	10754.76
476.02	10913.92
476.20	10773.49
476.38	11318.83
476.56	11304.79
476.74	11234.57
476.92	11215.85
477.10	11211.17
477.28	11360.96
477.46	11342.24
477.64	11676.93
477.82	11822.05
478.00	11784.60
478.18	11845.45
478.36	11941.41
478.54	11971.84
478.72	12056.10
478.90	12173.13
479.08	12332.28
479.26	12231.64
479.44	12383.77
479.62	12561.66
479.80	12617.83
479.98	12863.58
480.16	12748.90
480.34	12786.35
480.52	13039.12
480.70	13102.32
480.88	12856.56
481.06	13207.64
481.24	13195.94
481.41	13472.12
481.59	13418.29
481.77	13776.39
481.95	13837.25
482.13	13767.03
482.31	13776.39
482.49	14274.93
482.67	14321.74
482.85	14415.36
483.03	14354.51
483.21	14862.40
483.39	14799.21
483.57	14712.61
483.74	14946.66
483.92	15005.17
484.10	15129.22
484.28	15297.74
484.46	15480.30
484.64	15459.24
484.82	15325.83
485.00	15721.38
485.18	15737.76
485.35	16215.23
485.53	15910.96
485.71	16079.48
485.89	16533.54
486.07	16589.72
486.25	16329.92
486.43	16465.67
486.61	16507.80
486.78	16964.20
486.96	16847.18
487.14	17465.08
487.32	17301.24
487.50	17542.32
487.68	17668.70
487.85	17774.03
488.03	17994.04
488.21	17937.87
488.39	17895.74
488.57	18225.75
488.75	18483.21
488.92	18750.03
489.10	18712.58
489.28	18642.37
489.46	19056.64
489.64	19033.24
489.81	19536.45
489.99	19321.12
490.17	19274.31
490.35	19604.33
490.53	19789.23
490.70	20030.30
490.88	20140.31
491.06	19726.04
491.24	20170.74
491.41	20161.37
491.59	20355.64
491.77	20346.28
491.95	20767.57
492.13	20772.25
492.30	20847.15
492.48	21034.39
492.66	21053.12
492.84	21085.89
493.01	21341.00
493.19	21495.48
493.37	21759.96
493.54	21755.28
493.72	22054.87
493.90	21986.99
494.08	22080.61
494.25	22485.53
494.43	22218.71
494.61	22485.53
494.79	22644.68
494.96	22572.13
495.14	22979.38
495.32	23124.49
495.49	23007.47
495.67	23098.75
495.85	23410.04
496.02	23592.60
496.20	23494.30
496.38	23620.69
496.55	23981.13
496.73	24259.65
496.91	23971.77
497.09	23852.40
497.26	24304.12
497.44	24402.43
497.62	24421.15
497.79	24957.13
497.97	24549.88
498.14	25097.56
498.32	25266.08
498.50	25205.23
498.67	25415.88
498.85	25247.36
499.03	25523.54
499.20	25881.64
499.38	25713.13
499.56	26001.01
499.73	25923.77
499.91	26061.87
500.08	25799.73
500.26	25951.86
500.44	25846.54
500.61	26356.77
500.79	26209.32
500.97	26469.12
501.14	26499.55
501.32	26623.59
501.49	26586.15
501.67	26731.26
501.84	26984.04
502.02	26813.18
502.20	27122.13
502.37	27206.39
502.55	27447.46
502.72	27527.04
502.90	27119.79
503.07	27087.02
503.25	27786.84
503.43	27569.17
503.60	27981.10
503.78	28053.66
503.95	28009.19
504.13	27761.09
504.30	28416.44
504.48	28168.35
504.65	28196.43
504.83	28517.09
505.01	28734.76
505.18	28582.62
505.36	28716.03
505.53	28283.03
505.71	28826.04
505.88	29034.35
506.06	28851.78
506.23	29219.25
506.41	29046.05
506.58	29270.74
506.76	29230.95
506.93	29429.90
507.11	29254.36
507.28	29383.09
507.46	29462.66
507.63	30132.06
507.81	30022.05
507.98	29813.74
508.16	29479.05
508.33	29816.08
508.50	30155.46
508.68	30361.43
508.85	30836.56
509.03	30518.25
509.20	30506.54
509.38	30920.82
509.55	31218.07
509.73	31108.06
509.90	30740.60
510.08	31026.14
510.25	31175.94
510.42	31194.66
510.60	31133.81
510.77	31651.06
510.95	31534.04
511.12	31365.52
511.30	31297.64
511.47	31566.81
511.64	31796.18
511.82	31601.91
511.99	32149.60
512.17	32093.43
512.34	31861.71
512.51	32320.46
512.69	32177.68
512.86	32589.62
513.04	32423.44
513.21	32898.57
513.38	32910.27
513.56	32673.88
513.73	32250.24
513.90	32708.99
514.08	32896.23
514.25	33165.39
514.43	33156.03
514.60	32856.44
514.77	33474.34
514.95	33652.22
515.12	33266.03
515.29	32868.14
515.47	33326.89
515.64	33876.91
515.81	33560.94
515.99	33750.52
516.16	34036.07
516.33	34122.67
516.51	34026.71
516.68	33991.60
516.85	34003.30
517.03	34450.35
517.20	34590.78
517.37	34078.20
517.54	34532.26
517.72	34293.53
517.89	34202.25
518.06	34586.10
518.24	34132.03
518.41	34763.98
518.58	34581.42
518.75	35047.18
518.93	35204.00
519.10	34735.89
519.27	35484.86
519.45	35248.47
519.62	34941.86
519.79	34955.90
519.96	35267.19
520.14	34991.01
520.31	35620.61
520.48	35505.93
520.65	35428.69
520.83	35744.66
521.00	36222.13
521.17	35917.86
521.34	36243.20
521.52	35995.10
521.69	36016.16
521.86	36446.82
522.03	36432.78
522.20	36739.39
522.38	36208.09
522.55	36641.09
522.72	36388.31
522.89	36774.50
523.07	37036.64
523.24	36947.70
523.41	36856.42
523.58	36645.77
523.75	37141.96
523.92	36758.11
524.10	36980.46
524.27	37141.96
524.44	37287.07
524.61	37352.61
524.78	37530.49
524.96	37319.84
525.13	37675.60
525.30	37581.98
525.47	37724.75
525.64	37614.75
525.81	37888.59
525.98	37916.68
526.16	37916.68
526.33	38129.67
526.50	37921.36
526.67	37855.82
526.84	37600.71
527.01	37841.78
527.18	38417.55
527.36	38710.12
527.53	38752.25
527.70	38775.66
527.87	38693.74
528.04	38265.42
528.21	38345.00
528.38	38501.81
528.55	38621.18
528.72	38602.46
528.89	38724.16
529.07	38979.28
529.24	38871.62
529.41	39136.10
529.58	38696.08
529.75	38433.94
529.92	39335.04
530.09	39215.68
530.26	39356.11
530.43	39260.15
530.60	39016.73
530.77	39220.36
530.94	39613.57
531.11	39416.96
531.28	39068.22
531.46	39641.65
531.63	39351.43
531.80	40030.18
531.97	39899.11
532.14	40081.67
532.31	40084.01
532.48	40215.08
532.65	39859.32
532.82	39985.71
532.99	39899.11
533.16	39936.56
533.33	40378.92
533.50	40514.67
533.67	40435.10
533.84	40081.67
534.01	40247.85
534.18	40179.98
534.35	40877.46
534.52	40650.42
534.69	40612.98
534.86	40617.66
535.03	40509.99
535.20	40725.32
535.37	40961.72
535.54	41296.41
535.71	40739.36
535.88	40840.01
536.05	40870.43
536.22	40751.07
536.38	41586.64
536.55	40842.35
536.72	40858.73
536.89	40856.39
537.06	40781.49
537.23	41488.34
537.40	40919.59
537.57	41317.48
537.74	41361.95
537.91	41521.10
538.08	41237.90
538.25	41235.56
538.42	41591.32
538.59	41918.99
538.75	41310.46
538.92	41483.66
539.09	41617.07
539.26	41895.59
539.43	41944.74
539.60	42284.12
539.77	41984.53
539.94	42089.85
540.11	41848.78
540.28	42394.12
540.44	42099.22
540.61	42237.31
540.78	42614.13
540.95	42450.30
541.12	42682.01
541.29	42494.77
541.46	42873.93
541.62	42567.32
541.79	42691.37
541.96	42536.90
542.13	42534.56
542.30	42829.46
542.47	42904.36
542.63	43468.43
542.80	43353.74
542.97	43255.44
543.14	43580.78
543.31	43019.05
543.48	43267.14
543.64	43503.54
543.81	43903.77
543.98	43311.61
544.15	43737.59
544.32	43672.06
544.48	43482.47
544.65	43255.44
544.82	43540.99
544.99	43192.25
545.16	43973.98
545.32	43487.15
545.49	44580.18
545.66	44942.97
545.83	45064.67
546.00	45401.71
546.16	44044.20
546.33	43948.24
546.50	44046.54
546.67	43882.70
546.83	43075.22
547.00	44123.78
547.17	43938.88
547.34	44250.17
547.50	44105.06
547.67	44467.84
547.84	44179.95
548.00	44399.96
548.17	44519.33
548.34	44456.14
548.51	44315.70
548.67	44839.98
548.84	44804.88
549.01	44711.25
549.18	44540.39
549.34	44540.39
549.51	44367.20
549.68	44243.15
549.84	44268.89
550.01	44645.72
550.18	44919.56
550.34	44584.86
550.51	44615.29
550.68	44751.04
550.84	44392.94
551.01	44617.63
551.18	44311.02
551.34	44133.14
551.51	44524.01
551.68	44720.62
551.84	44975.73
552.01	44952.33
552.18	45319.79
552.34	44575.50
552.51	45258.94
552.68	45074.04
552.84	44809.56
553.01	45162.98
553.18	45048.29
553.34	45507.04
553.51	44933.60
553.67	44964.03
553.84	45567.89
554.01	45446.18
554.17	45268.30
554.34	45507.04
554.51	45071.70
554.67	45511.72
554.84	45373.63
555.00	45619.38
555.17	45099.78
555.33	45680.24
555.50	45492.99
555.67	45268.30
555.83	45249.58
556.00	45497.67
556.16	45771.52
556.33	45333.84
556.50	45434.48
556.66	45785.56
556.83	45298.73
556.99	46162.39
557.16	46169.41
557.32	45808.96
557.49	46007.91
557.65	45626.40
557.82	45310.43
557.98	45226.17
558.15	45869.82
558.32	46216.22
558.48	45502.35
558.65	46246.65
558.81	45324.47
558.98	46120.26
559.14	45720.02
559.31	45673.21
559.47	45537.46
559.64	45701.30
559.80	46199.83
559.97	46099.19
560.13	45872.16
560.30	46122.60
560.46	46167.07
560.63	46403.46
560.79	45837.05
560.96	46050.04
561.12	45844.07
561.29	45801.94
561.45	46476.02
561.61	46003.23
561.78	46377.72
561.94	46267.71
562.11	46415.16
562.27	45647.47
562.44	46494.74
562.60	46127.28
562.77	46281.75
562.93	46036.00
563.10	46637.51
563.26	45993.87
563.42	46536.87
563.59	46522.83
563.75	46340.27
563.92	46197.49
564.08	46642.20
564.24	46237.28
564.41	46361.33
564.57	46181.11
564.74	46174.09
564.90	46387.08
565.07	46445.59
565.23	46817.74
565.39	46672.62
565.56	46712.41
565.72	46438.57
565.88	46525.17
566.05	46312.18
566.21	46574.32
566.38	46157.70
566.54	46513.47
566.70	46417.50
566.87	46487.72
567.03	46445.59
567.19	46831.78
567.36	46939.44
567.52	46553.26
567.68	46693.69
567.85	46618.79
568.01	46450.27
568.17	46923.06
568.34	46864.55
568.50	46791.99
568.66	46567.30
568.83	46738.16
568.99	46628.15
569.15	46532.19
569.32	46642.20
569.48	46394.10
569.64	46412.82
569.81	46564.96
569.97	46733.48
570.13	46974.55
570.30	46583.68
570.46	46803.69
570.62	46717.09
570.78	46543.89
570.95	46426.87
571.11	46658.58
571.27	46567.30
571.43	46784.97
571.60	46719.43
571.76	47232.01
571.92	46897.31
572.09	46824.76
572.25	46447.93
572.41	46653.90
572.57	46663.26
572.74	46890.29
572.90	46436.23
573.06	47035.41
573.22	46632.83
573.38	46906.68
573.55	46749.86
573.71	47133.71
573.87	46930.08
574.03	46443.25
574.20	47075.19
574.36	46305.16
574.52	46862.21
574.68	46628.15
574.84	46803.69
575.01	46614.11
575.17	46927.74
575.33	47009.66
575.49	46930.08
575.65	47281.16
575.82	46696.03
575.98	46513.47
576.14	46939.44
576.30	46473.68
576.46	46681.98
576.62	46913.70
576.79	46663.26
576.95	46899.65
577.11	46724.11
577.27	46766.24
577.43	46937.10
577.59	46625.81
577.75	47063.49
577.92	46752.20
578.08	46801.35
578.24	46588.36
578.40	46873.91
578.56	46932.42
578.72	47185.20
578.88	47058.81
579.04	47105.62
579.21	47330.31
579.37	47093.92
579.53	47091.58
579.69	46305.16
579.85	46918.38
580.01	47173.50
580.17	46986.25
580.33	46894.97
580.49	47030.72
580.65	46997.96
580.82	46775.61
580.98	47122.01
581.14	47278.82
581.30	47075.19
581.46	46490.06
581.62	46845.82
581.78	46539.21
581.94	46981.57
582.10	46997.96
582.26	46986.25
582.42	47342.02
582.58	47089.24
582.74	46665.60
582.90	47028.38
583.06	47075.19
583.22	46693.69
583.38	46782.63
583.54	46937.10
583.70	46965.19
583.86	46983.91
584.02	46878.59
584.18	47227.33
584.34	47056.47
584.50	47042.43
584.66	47112.64
584.82	46597.73
584.98	46433.89
585.14	47044.77
585.30	47065.83
585.46	46876.25
585.62	46768.58
585.78	46897.31
585.94	46787.31
586.10	47189.88
586.26	47021.36
586.42	47009.66
586.58	47180.52
586.74	46958.17
586.90	47021.36
587.06	46747.52
587.22	47412.23
587.38	46777.95
587.54	46946.47
587.70	47290.52
587.86	47058.81
588.02	46710.07
588.18	46808.37
588.34	47456.70
588.49	47152.43
588.65	46913.70
588.81	47009.66
588.97	47220.31
589.13	47065.83
589.29	46932.42
589.45	46967.53
589.61	47494.15
589.77	47344.36
589.93	47367.76
590.08	47356.06
590.24	47070.51
590.40	47564.37
