SpectraSuite Data File
++++++++++++++++++++++++++++++++++++
Date: Fri Oct 04 11:39:56 GMT-05:00 2013
User: price-jones
Dark Spectrum Present: No
Reference Spectrum Present: No
Number of Sampled Component Spectra: 1
Spectrometers: USB2+H05261
Integration Time (usec): 100000 (USB2+H05261)
Spectra Averaged: 1 (USB2+H05261)
Boxcar Smoothing: 0 (USB2+H05261)
Correct for Electrical Dark: No (USB2+H05261)
Strobe/Lamp Enabled: No (USB2+H05261)
Correct for Detector Non-linearity: No (USB2+H05261)
Correct for Stray Light: No (USB2+H05261)
Number of Pixels in Processed Spectrum: 2048
>>>>>Begin Processed Spectral Data<<<<<
365.73	32.77
365.92	32.77
366.12	32.77
366.32	0.00
366.52	0.00
366.72	0.00
366.91	0.00
367.11	0.00
367.31	0.00
367.51	0.00
367.70	0.00
367.90	0.00
368.10	0.00
368.30	0.00
368.49	0.00
368.69	0.00
368.89	51.49
369.09	0.00
369.28	0.00
369.48	0.00
369.68	0.00
369.87	0.00
370.07	0.00
370.27	60.85
370.47	7.02
370.66	112.35
370.86	128.73
371.06	95.96
371.25	135.75
371.45	142.77
371.65	126.39
371.84	93.62
372.04	131.07
372.24	152.13
372.44	110.01
372.63	154.48
372.83	217.67
373.03	163.84
373.22	126.39
373.42	168.52
373.62	187.24
373.81	175.54
374.01	287.89
374.21	135.75
374.40	86.60
374.60	182.56
374.79	135.75
374.99	161.50
375.19	154.48
375.38	180.22
375.58	177.88
375.78	227.03
375.97	88.94
376.17	241.08
376.37	180.22
376.56	121.71
376.76	154.48
376.95	194.26
377.15	170.86
377.35	243.42
377.54	196.60
377.74	147.45
377.93	210.65
378.13	248.10
378.33	222.35
378.52	147.45
378.72	182.56
378.91	114.69
379.11	222.35
379.31	100.64
379.50	166.18
379.70	163.84
379.89	283.20
380.09	163.84
380.28	166.18
380.48	205.97
380.68	177.88
380.87	126.39
381.07	196.60
381.26	231.71
381.46	227.03
381.65	276.18
381.85	252.78
382.04	126.39
382.24	198.95
382.43	236.39
382.63	168.52
382.83	152.13
383.02	177.88
383.22	205.97
383.41	203.63
383.61	173.20
383.80	175.54
384.00	156.82
384.19	196.60
384.39	161.50
384.58	112.35
384.78	227.03
384.97	110.01
385.17	168.52
385.36	161.50
385.56	138.09
385.75	184.90
385.95	210.65
386.14	173.20
386.34	217.67
386.53	173.20
386.72	182.56
386.92	205.97
387.11	227.03
387.31	180.22
387.50	227.03
387.70	224.69
387.89	252.78
388.09	182.56
388.28	126.39
388.48	196.60
388.67	224.69
388.86	299.59
389.06	248.10
389.25	212.99
389.45	229.37
389.64	187.24
389.84	252.78
390.03	290.23
390.22	180.22
390.42	222.35
390.61	245.76
390.81	292.57
391.00	255.12
391.19	259.80
391.39	180.22
391.58	290.23
391.78	315.97
391.97	278.52
392.16	220.01
392.36	278.52
392.55	315.97
392.75	238.73
392.94	234.05
393.13	290.23
393.33	273.84
393.52	259.80
393.71	292.57
393.91	297.25
394.10	201.29
394.29	283.20
394.49	243.42
394.68	287.89
394.88	351.08
395.07	255.12
395.26	327.68
395.46	318.31
395.65	315.97
395.84	313.63
396.04	339.38
396.23	292.57
396.42	332.36
396.62	337.04
396.81	351.08
397.00	393.21
397.19	299.59
397.39	388.53
397.58	334.70
397.77	283.20
397.97	315.97
398.16	376.83
398.35	330.02
398.55	383.85
398.74	372.15
398.93	311.29
399.12	395.55
399.32	470.45
399.51	351.08
399.70	442.36
399.90	346.40
400.09	367.46
400.28	463.43
400.47	416.62
400.67	416.62
400.86	468.11
401.05	451.72
401.24	496.19
401.44	430.66
401.63	440.02
401.82	428.32
402.01	390.87
402.21	458.74
402.40	454.06
402.59	451.72
402.78	489.17
402.97	510.24
403.17	486.83
403.36	456.40
403.55	517.26
403.74	472.79
403.93	493.85
404.13	641.31
404.32	505.56
404.51	526.62
404.70	589.82
404.89	517.26
405.09	667.05
405.28	566.41
405.47	571.09
405.66	610.88
405.85	653.01
406.05	676.41
406.24	685.78
406.43	660.03
406.62	610.88
406.81	704.50
407.00	667.05
407.20	664.71
407.39	667.05
407.58	748.97
407.77	657.69
407.96	716.20
408.15	739.61
408.34	723.23
408.54	699.82
408.73	793.44
408.92	814.51
409.11	767.70
409.30	807.48
409.49	805.14
409.68	791.10
409.87	828.55
410.07	866.00
410.26	835.57
410.45	849.61
410.64	786.42
410.83	875.36
411.02	847.27
411.21	894.08
411.40	915.15
411.59	894.08
411.78	940.90
411.98	896.43
412.17	950.26
412.36	901.11
412.55	861.32
412.74	1020.47
412.93	1046.22
413.12	1001.75
413.31	1071.97
413.50	1109.41
413.69	1043.88
413.88	1083.67
414.07	1022.81
414.26	1081.33
414.45	1029.84
414.64	1057.92
414.83	1057.92
415.02	1093.03
415.22	1174.95
415.41	1139.84
415.60	1196.01
415.79	1137.50
415.98	1214.74
416.17	1149.20
416.36	1247.51
416.55	1282.61
416.74	1256.87
416.93	1231.12
417.12	1266.23
417.31	1263.89
417.50	1315.38
417.69	1430.07
417.88	1291.98
418.07	1343.47
418.26	1369.21
418.45	1401.98
418.64	1460.49
418.83	1343.47
419.02	1409.00
419.21	1504.96
419.39	1434.75
419.58	1418.36
419.77	1385.60
419.96	1453.47
420.15	1472.20
420.34	1371.55
420.53	1404.32
420.72	1526.03
420.91	1556.46
421.10	1455.81
421.29	1544.75
421.48	1530.71
421.67	1547.09
421.86	1565.82
422.05	1596.25
422.24	1621.99
422.43	1565.82
422.61	1673.48
422.80	1554.12
422.99	1584.54
423.18	1673.48
423.37	1764.76
423.56	1584.54
423.75	1636.03
423.94	1610.29
424.13	1476.88
424.32	1549.43
424.50	1703.91
424.69	1741.36
424.88	1657.10
425.07	1561.14
425.26	1617.31
425.45	1614.97
425.64	1596.25
425.83	1626.67
426.01	1638.38
426.20	1673.48
426.39	1692.21
426.58	1614.97
426.77	1659.44
426.96	1694.55
427.15	1687.53
427.33	1682.85
427.52	1832.64
427.71	1706.25
427.90	1870.09
428.09	1743.70
428.28	1666.46
428.46	1736.68
428.65	1858.39
428.84	1825.62
429.03	1818.60
429.22	1750.72
429.40	1809.23
429.59	1811.57
429.78	1755.40
429.97	1769.44
430.16	1813.92
430.34	1886.47
430.53	1893.49
430.72	1818.60
430.91	1884.13
431.10	1860.73
431.28	1930.94
431.47	1935.62
431.66	2024.56
431.85	1977.75
432.03	1975.41
432.22	2057.33
432.41	1970.73
432.60	2033.93
432.79	1872.43
432.97	1898.17
433.16	2003.50
433.35	1926.26
433.54	1940.30
433.72	2043.29
433.91	2064.35
434.10	1968.39
434.28	2033.93
434.47	2036.27
434.66	2113.50
434.85	2059.67
435.03	2232.87
435.22	2345.22
435.41	2642.46
435.59	2504.37
435.78	2499.69
435.97	2282.02
436.16	2165.00
436.34	2080.74
436.53	2188.40
436.72	2183.72
436.90	2211.81
437.09	2270.32
437.28	2148.61
437.46	2097.12
437.65	2188.40
437.84	2099.46
438.02	2277.34
438.21	2242.23
438.40	2169.68
438.58	2312.45
438.77	2253.94
438.96	2225.85
439.14	2382.67
439.33	2434.16
439.52	2389.69
439.70	2352.24
439.89	2347.56
440.08	2476.29
440.26	2492.67
440.45	2448.20
440.63	2495.01
440.82	2495.01
441.01	2661.19
441.19	2602.68
441.38	2619.06
441.57	2602.68
441.75	2495.01
441.94	2546.50
442.12	2530.12
442.31	2736.09
442.50	2539.48
442.68	2597.99
442.87	2628.42
443.05	2605.02
443.24	2719.70
443.43	2829.71
443.61	2576.93
443.80	2729.06
443.98	2628.42
444.17	2565.23
444.35	2670.55
444.54	2722.04
444.73	2700.98
444.91	2623.74
445.10	2668.21
445.28	2710.34
445.47	2640.12
445.65	2726.72
445.84	2794.60
446.02	2689.28
446.21	2665.87
446.39	2754.81
446.58	2752.47
446.77	2672.89
446.95	2792.26
447.14	2829.71
447.32	2803.96
447.51	2801.62
447.69	2916.31
447.88	2920.99
448.06	2918.65
448.25	2738.43
448.43	2813.32
448.62	2754.81
448.80	3000.57
448.99	2906.95
449.17	2841.41
449.36	2841.41
449.54	2911.63
449.73	2897.58
449.91	2993.55
450.10	3035.67
450.28	2986.52
450.46	2984.18
450.65	2977.16
450.83	3096.53
451.02	2960.78
451.20	3035.67
451.39	3016.95
451.57	2885.88
451.76	2808.64
451.94	2974.82
452.13	3023.97
452.31	2974.82
452.49	2984.18
452.68	2998.23
452.86	3021.63
453.05	3091.85
453.23	3047.38
453.42	3077.80
453.60	3162.06
453.78	3136.32
453.97	3131.64
454.15	3215.90
454.34	3052.06
454.52	3187.81
454.70	3133.98
454.89	3262.71
455.07	3213.56
455.26	3234.62
455.44	3157.38
455.62	3173.77
455.81	3379.73
455.99	3283.77
456.17	3335.26
456.36	3424.20
456.54	3225.26
456.73	3206.53
456.91	3398.46
457.09	3431.23
457.28	3529.53
457.46	3279.09
457.64	3445.27
457.83	3379.73
458.01	3297.81
458.19	3510.80
458.38	3332.92
458.56	3485.06
458.74	3417.18
458.93	3468.67
459.11	3485.06
459.29	3503.78
459.48	3515.48
459.66	3538.89
459.84	3669.96
460.03	3693.37
460.21	3524.85
460.39	3592.72
460.57	3578.68
460.76	3662.94
460.94	3630.17
461.12	3609.11
461.31	3658.26
461.49	3604.42
461.67	3784.65
461.85	3801.03
462.04	3693.37
462.22	4191.90
462.40	3691.02
462.59	3691.02
462.77	3754.22
462.95	3791.67
463.13	3705.07
463.32	3817.41
463.50	3812.73
463.68	3810.39
463.86	3782.31
464.05	3845.50
464.23	3737.84
464.41	3904.01
464.59	3824.44
464.78	3929.76
464.96	3824.44
465.14	3676.98
465.32	4002.32
465.50	3901.67
465.69	4046.79
465.87	3880.61
466.05	3812.73
466.23	3784.65
466.41	3934.44
466.60	4046.79
466.78	3932.10
466.96	3892.31
467.14	3871.25
467.32	4025.72
467.51	4114.66
467.69	4067.85
467.87	4070.19
468.05	4030.40
468.23	4088.92
468.41	4016.36
468.60	3992.95
468.78	4098.28
468.96	4102.96
469.14	4058.49
469.32	3997.64
469.50	4042.11
469.69	4065.51
469.87	4119.34
470.05	4308.93
470.23	4180.20
470.41	4217.65
470.59	4250.41
470.77	4325.31
470.95	4227.01
471.14	4306.59
471.32	4133.39
471.50	4348.72
471.68	4320.63
471.86	4353.40
472.04	4372.12
472.22	4447.02
472.40	4425.95
472.58	4229.35
472.77	4432.97
472.95	4613.20
473.13	4669.37
473.31	4465.74
473.49	4397.87
473.67	4627.24
473.85	4552.34
474.03	4760.65
474.21	4664.69
474.39	4781.71
474.57	4561.70
474.75	4746.61
474.93	4842.57
475.12	4851.93
475.30	4847.25
475.48	4889.38
475.66	4877.68
475.84	4873.00
476.02	4844.91
476.20	4903.42
476.38	5020.45
476.56	5135.14
476.74	4929.17
476.92	4924.49
477.10	4983.00
477.28	5064.92
477.46	5060.24
477.64	5184.29
477.82	5226.42
478.00	5329.40
478.18	5313.02
478.36	5444.09
478.54	5455.79
478.72	5486.22
478.90	5406.64
479.08	5518.98
479.26	5521.32
479.44	5645.37
479.62	5467.49
479.80	5678.14
479.98	5680.48
480.16	5657.07
480.34	5788.14
480.52	5870.06
480.70	5891.13
480.88	5724.95
481.06	5937.94
481.24	5879.43
481.41	6015.18
481.59	6153.27
481.77	6209.44
481.95	6211.78
482.13	6188.38
482.31	6200.08
482.49	6326.47
482.67	6436.47
482.85	6335.83
483.03	6558.18
483.21	6635.42
483.39	6607.33
483.57	6693.93
483.74	6684.57
483.92	6651.80
484.10	6644.78
484.28	6899.90
484.46	6960.75
484.64	6883.52
484.82	6935.01
485.00	6932.67
485.18	7105.87
485.35	7112.89
485.53	7136.29
485.71	7293.11
485.89	7405.46
486.07	7197.15
486.25	7353.96
486.43	7424.18
486.61	7456.95
486.78	7585.68
486.96	7452.27
487.14	7648.87
487.32	7728.45
487.50	7606.74
487.68	7960.16
487.85	7896.97
488.03	7847.82
488.21	8074.85
488.39	8081.87
488.57	8084.21
488.75	8116.98
488.92	8411.89
489.10	8280.82
489.28	8430.61
489.46	8683.39
489.64	8374.44
489.81	8603.81
489.99	8634.24
490.17	8685.73
490.35	8737.22
490.53	8781.69
490.70	8936.17
490.88	8730.20
491.06	8978.30
491.24	8898.72
491.41	9090.64
491.59	9036.81
491.77	9004.04
491.95	9298.95
492.13	9170.22
492.30	9296.61
492.48	9071.92
492.66	9547.05
492.84	9348.10
493.01	9249.80
493.19	9483.85
493.37	9612.58
493.54	9572.79
493.72	9558.75
493.90	9596.20
494.08	9710.88
494.25	9860.68
494.43	10083.03
494.61	10073.67
494.79	10008.13
494.96	10134.52
495.14	9977.70
495.32	10413.04
495.49	10305.38
495.67	10310.06
495.85	10345.17
496.02	10452.83
496.20	10506.66
496.38	10523.05
496.55	10595.61
496.73	10579.22
496.91	10597.95
497.09	10698.59
497.26	10867.11
497.44	10965.41
497.62	10878.81
497.79	10946.69
497.97	10977.11
498.14	11276.70
498.32	10890.51
498.50	11236.91
498.67	11110.52
498.85	11119.89
499.03	11192.44
499.20	11265.00
499.38	11091.80
499.56	11477.99
499.73	11449.90
499.91	11339.90
500.08	11290.74
500.26	11428.84
500.44	11758.85
500.61	11597.35
500.79	11674.59
500.97	11632.46
501.14	11686.29
501.32	11754.17
501.49	11962.48
501.67	11653.53
501.84	12170.79
502.02	11974.18
502.20	12065.46
502.37	12063.12
502.55	12004.61
502.72	12011.63
502.90	12173.13
503.07	12170.79
503.25	12276.11
503.43	12161.42
503.60	12161.42
503.78	12149.72
503.95	12241.00
504.13	12208.23
504.30	12299.52
504.48	12355.69
504.65	12580.38
504.83	12510.16
505.01	12526.55
505.18	12690.38
505.36	12652.94
505.53	12674.00
505.71	12479.74
505.88	12718.47
506.06	12610.81
506.23	12830.82
506.41	12929.12
506.58	12922.10
506.76	12957.21
506.93	13121.04
507.11	13273.18
507.28	13128.06
507.46	12922.10
507.63	13172.54
507.81	13186.58
507.98	13081.25
508.16	13205.30
508.33	13355.10
508.50	13319.99
508.68	13341.05
508.85	13675.75
509.03	13523.62
509.20	13483.83
509.38	13668.73
509.55	13778.73
509.73	13891.08
509.90	13617.24
510.08	13731.92
510.25	13745.97
510.42	13792.78
510.60	14288.97
510.77	14024.49
510.95	13933.21
511.12	14073.64
511.30	13874.70
511.47	14157.90
511.64	14473.87
511.82	14223.44
511.99	14384.93
512.17	14242.16
512.34	14436.42
512.51	14431.74
512.69	14420.04
512.86	14324.08
513.04	14464.51
513.21	14377.91
513.38	14750.06
513.56	14485.58
513.73	14614.30
513.90	14628.35
514.08	14314.72
514.25	14796.87
514.43	15101.14
514.60	14857.72
514.77	14799.21
514.95	14705.59
515.12	14759.42
515.29	14780.48
515.47	14937.30
515.64	15084.75
515.81	14916.23
515.99	15126.88
516.16	14885.81
516.33	15342.21
516.51	14911.55
516.68	14874.10
516.85	15215.82
517.03	15236.89
517.20	15103.48
517.37	15360.94
517.54	15218.16
517.72	15424.13
517.89	15573.92
518.06	15377.32
518.24	15580.95
518.41	15342.21
518.58	15417.11
518.75	15508.39
518.93	15573.92
519.10	15592.65
519.27	15929.69
519.45	15737.76
519.62	15704.99
519.79	15770.53
519.96	15983.52
520.14	15882.88
520.31	16027.99
520.48	15861.81
520.65	15850.11
520.83	16056.08
521.00	15917.98
521.17	15941.39
521.34	15932.03
521.52	16379.07
521.69	16198.85
521.86	16468.01
522.03	16255.02
522.20	16210.55
522.38	16301.83
522.55	16339.28
522.72	16339.28
522.89	16409.50
523.07	16477.37
523.24	16720.79
523.41	16606.10
523.58	16390.77
523.75	16875.26
523.92	16460.99
524.10	16540.57
524.27	16844.84
524.44	16933.78
524.61	16947.82
524.78	16807.39
524.96	16886.97
525.13	16734.83
525.30	17001.65
525.47	16702.06
525.64	17085.91
525.81	17104.64
525.98	17034.42
526.16	17163.15
526.33	17064.85
526.50	16870.58
526.67	17116.34
526.84	16788.66
527.01	17177.19
527.18	17238.05
527.36	17621.89
527.53	16872.92
527.70	17462.74
527.87	17411.25
528.04	17406.56
528.21	17357.41
528.38	17334.01
528.55	17497.84
528.72	17493.16
528.89	17453.37
529.07	17266.13
529.24	17415.93
529.41	17338.69
529.58	17420.61
529.75	17558.70
529.92	17640.62
530.09	17537.63
530.26	17343.37
530.43	17666.36
530.60	17270.81
530.77	17432.31
530.94	17724.88
531.11	17788.07
531.28	17837.22
531.46	17832.54
531.63	17905.10
531.80	17987.02
531.97	18108.72
532.14	17893.40
532.31	17909.78
532.48	17862.97
532.65	18085.32
532.82	17774.03
532.99	18221.07
533.16	17900.42
533.33	18129.79
533.50	18204.69
533.67	18167.24
533.84	18359.16
534.01	18298.31
534.18	18101.70
534.35	18375.55
534.52	18001.06
534.69	18651.73
534.86	18387.25
535.03	18221.07
535.20	18630.66
535.37	18574.49
535.54	18251.50
535.71	18195.32
535.88	18576.83
536.05	18511.30
536.22	18272.56
536.38	18712.58
536.55	18228.09
536.72	18696.20
536.89	18537.04
537.06	18534.70
537.23	18410.65
537.40	18733.65
537.57	18544.06
537.74	18796.84
537.91	19190.05
538.08	18778.12
538.25	19028.56
538.42	19033.24
538.59	18974.72
538.75	18995.79
538.92	19243.88
539.09	18876.42
539.26	18920.89
539.43	19328.14
539.60	19225.16
539.77	19030.90
539.94	19248.57
540.11	19337.51
540.28	19192.39
540.44	19154.94
540.61	19220.48
540.78	19419.42
540.95	19407.72
541.12	19789.23
541.29	19662.84
541.46	19506.02
541.62	19662.84
541.79	19466.24
541.96	19468.58
542.13	19515.39
542.30	19749.44
542.47	19843.06
542.63	19480.28
542.80	19604.33
542.97	20016.26
543.14	20130.95
543.31	19967.11
543.48	19913.28
543.64	20070.09
543.81	20095.84
543.98	19847.74
544.15	20194.14
544.32	20072.43
544.48	20156.69
544.65	20004.56
544.82	19822.00
544.99	19969.45
545.16	19995.20
545.32	19957.75
545.49	20751.19
545.66	21277.81
545.83	21436.97
546.00	21057.80
546.16	20456.28
546.33	20484.37
546.50	19807.95
546.67	20568.63
546.83	19817.32
547.00	19962.43
547.17	20072.43
547.34	20198.82
547.50	20421.17
547.67	20084.14
547.84	20144.99
548.00	20020.94
548.17	20519.48
548.34	20322.87
548.51	20369.68
548.67	20231.59
548.84	20573.31
549.01	20510.11
549.18	20154.35
549.34	20332.23
549.51	20402.45
549.68	19955.41
549.84	19960.09
550.01	20355.64
550.18	19899.23
550.34	20624.80
550.51	20500.75
550.68	20631.82
550.84	20271.38
551.01	20283.08
551.18	20343.94
551.34	20423.51
551.51	20383.73
551.68	20496.07
551.84	20512.46
552.01	20402.45
552.18	20624.80
552.34	20259.68
552.51	20353.30
552.68	20376.70
552.84	20367.34
553.01	20732.47
553.18	20868.22
553.34	20453.94
553.51	20613.10
553.67	20678.63
553.84	20769.91
554.01	20643.52
554.17	20732.47
554.34	20812.04
554.51	20535.86
554.67	20723.10
554.84	20526.50
555.00	20753.53
555.17	20821.41
555.33	20872.90
555.50	20659.91
555.67	20720.76
555.83	20680.97
556.00	20900.98
556.16	20961.84
556.33	20751.19
556.50	20573.31
556.66	20854.17
556.83	20690.34
556.99	21104.61
557.16	20812.04
557.32	21006.31
557.49	20758.21
557.65	20676.29
557.82	20879.92
557.98	20489.05
558.15	20774.60
558.32	20666.93
558.48	21041.42
558.65	20816.72
558.81	20706.72
558.98	20929.07
559.14	20854.17
559.31	20737.15
559.47	20830.77
559.64	20964.18
559.80	20608.42
559.97	20891.62
560.13	20847.15
560.30	21020.35
560.46	21036.74
560.63	20931.41
560.79	21020.35
560.96	20957.16
561.12	20919.71
561.29	21195.89
561.45	20903.32
561.61	20945.45
561.78	21301.22
561.94	20922.05
562.11	21139.72
562.27	20746.51
562.44	20968.86
562.60	21097.59
562.77	20748.85
562.93	20938.43
563.10	21111.63
563.26	21083.55
563.42	21104.61
563.59	21083.55
563.75	20975.88
563.92	21078.86
564.08	21006.31
564.24	21022.69
564.41	21266.11
564.57	20723.10
564.74	21039.08
564.90	20882.26
565.07	21170.15
565.23	20753.53
565.39	20823.75
565.56	21081.21
565.72	20982.90
565.88	20877.58
566.05	21193.55
566.21	20847.15
566.38	20989.92
566.54	21252.06
566.70	21385.47
566.87	21135.04
567.03	20987.58
567.19	21233.34
567.36	21216.96
567.52	21020.35
567.68	21341.00
567.85	21088.23
568.01	20917.37
568.17	21102.27
568.34	21102.27
568.50	21181.85
568.66	21233.34
568.83	21160.78
568.99	21055.46
569.15	21238.02
569.32	21036.74
569.48	21202.91
569.64	21109.29
569.81	21352.71
569.97	21092.91
570.13	21060.14
570.30	21067.16
570.46	21231.00
570.62	21362.07
570.78	20828.43
570.95	21088.23
571.11	21050.78
571.27	21060.14
571.43	21146.74
571.60	21348.03
571.76	21209.93
571.92	21104.61
572.09	20823.75
572.25	21214.62
572.41	21380.79
572.57	20968.86
572.74	21544.63
572.90	21048.44
573.06	21135.04
573.22	21401.86
573.38	21453.35
573.55	20966.52
573.71	21331.64
573.87	21413.56
574.03	21329.30
574.20	21350.37
574.36	20798.00
574.52	21130.36
574.68	21324.62
574.84	21443.99
575.01	21188.87
575.17	21298.88
575.33	21167.80
575.49	21067.16
575.65	21280.15
575.82	21355.05
575.98	21097.59
576.14	21261.43
576.30	21142.06
576.46	21624.21
576.62	21310.58
576.79	21465.05
576.95	21376.11
577.11	21518.89
577.27	21577.40
577.43	21195.89
577.59	21298.88
577.75	21263.77
577.92	21001.63
578.08	21088.23
578.24	21198.23
578.40	21420.58
578.56	21549.31
578.72	21598.46
578.88	21645.27
579.04	21385.47
579.21	21518.89
579.37	21418.24
579.53	21378.45
579.69	21111.63
579.85	21434.63
580.01	21542.29
580.17	21106.95
580.33	21216.96
580.49	21376.11
580.65	21062.48
580.82	21397.18
580.98	21209.93
581.14	21315.26
581.30	21561.02
581.46	21137.38
581.62	21436.97
581.78	21116.31
581.94	21090.57
582.10	21160.78
582.26	21383.13
582.42	21242.70
582.58	21425.26
582.74	21495.48
582.90	21277.81
583.06	21493.14
583.22	21273.13
583.38	21343.35
583.54	21331.64
583.70	21568.04
583.86	21380.79
584.02	21256.75
584.18	21619.53
584.34	21263.77
584.50	21383.13
584.66	21525.91
584.82	21226.32
584.98	21245.04
585.14	21408.88
585.30	21338.66
585.46	20929.07
585.62	21397.18
585.78	21310.58
585.94	21458.03
586.10	21214.62
586.26	21474.42
586.42	21605.49
586.58	21223.98
586.74	21238.02
586.90	21132.70
587.06	21376.11
587.22	21628.89
587.38	21451.01
587.54	21701.45
587.70	21687.40
587.86	21420.58
588.02	21462.71
588.18	21727.19
588.34	21184.19
588.49	21413.56
588.65	21120.99
588.81	21139.72
588.97	21422.92
589.13	20994.61
589.29	21362.07
589.45	21343.35
589.61	21610.17
589.77	21598.46
589.93	21462.71
590.08	21809.11
590.24	21422.92
590.40	21652.30
590.56	21678.04
590.72	21474.42
590.88	21092.91
591.04	21371.43
591.20	21425.26
591.35	21546.97
591.51	21802.09
591.67	21624.21
591.83	22047.85
591.99	21546.97
592.15	21565.70
592.31	21575.06
592.46	21645.27
592.62	21408.88
