SpectraSuite Data File
++++++++++++++++++++++++++++++++++++
Date: Fri Oct 04 11:39:45 GMT-05:00 2013
User: price-jones
Dark Spectrum Present: No
Reference Spectrum Present: No
Number of Sampled Component Spectra: 1
Spectrometers: USB2+H05261
Integration Time (usec): 100000 (USB2+H05261)
Spectra Averaged: 1 (USB2+H05261)
Boxcar Smoothing: 0 (USB2+H05261)
Correct for Electrical Dark: No (USB2+H05261)
Strobe/Lamp Enabled: No (USB2+H05261)
Correct for Detector Non-linearity: No (USB2+H05261)
Correct for Stray Light: No (USB2+H05261)
Number of Pixels in Processed Spectrum: 2048
>>>>>Begin Processed Spectral Data<<<<<
365.73	30.43
365.92	30.43
366.12	30.43
366.32	0.00
366.52	0.00
366.72	0.00
366.91	0.00
367.11	37.45
367.31	11.70
367.51	0.00
367.70	0.00
367.90	0.00
368.10	0.00
368.30	0.00
368.49	0.00
368.69	28.09
368.89	35.11
369.09	0.00
369.28	60.85
369.48	0.00
369.68	0.00
369.87	32.77
370.07	0.00
370.27	0.00
370.47	166.18
370.66	421.30
370.86	535.98
371.06	463.43
371.25	533.64
371.45	444.70
371.65	587.47
371.84	514.92
372.04	592.16
372.24	514.92
372.44	676.41
372.63	613.22
372.83	627.26
373.03	578.11
373.22	655.35
373.42	676.41
373.62	596.84
373.81	709.18
374.01	610.88
374.21	713.86
374.40	645.99
374.60	695.14
374.79	662.37
374.99	660.03
375.19	734.93
375.38	732.59
375.58	697.48
375.78	809.83
375.97	734.93
376.17	760.67
376.37	720.88
376.56	777.06
376.76	779.40
376.95	730.25
377.15	727.91
377.35	713.86
377.54	795.78
377.74	791.10
377.93	814.51
378.13	788.76
378.33	812.17
378.52	748.97
378.72	861.32
378.91	807.48
379.11	777.06
379.31	856.64
379.50	924.51
379.70	903.45
379.89	889.40
380.09	915.15
380.28	912.81
380.48	844.93
380.68	898.77
380.87	887.06
381.07	889.40
381.26	959.62
381.46	950.26
381.65	936.21
381.85	912.81
382.04	1001.75
382.24	891.74
382.43	1006.43
382.63	1053.24
382.83	924.51
383.02	1020.47
383.22	1018.13
383.41	1006.43
383.61	1109.41
383.80	968.98
384.00	1088.35
384.19	1020.47
384.39	1128.14
384.58	1102.39
384.78	1163.25
384.97	1043.88
385.17	1095.37
385.36	1076.65
385.56	1149.20
385.75	1104.73
385.95	1071.97
386.14	1123.46
386.34	1177.29
386.53	1217.08
386.72	1114.10
386.92	1172.61
387.11	1261.55
387.31	1158.57
387.50	1252.19
387.70	1186.65
387.89	1217.08
388.09	1146.86
388.28	1151.54
388.48	1200.69
388.67	1331.76
388.86	1282.61
389.06	1240.48
389.25	1299.00
389.45	1324.74
389.64	1263.89
389.84	1282.61
390.03	1310.70
390.22	1394.96
390.42	1294.32
390.61	1320.06
390.81	1486.24
391.00	1423.05
391.19	1418.36
391.39	1387.94
391.58	1336.45
391.78	1465.18
391.97	1409.00
392.16	1383.26
392.36	1610.29
392.55	1472.20
392.75	1549.43
392.94	1511.99
393.13	1460.49
393.33	1533.05
393.52	1556.46
393.71	1563.48
393.91	1474.54
394.10	1540.07
394.29	1561.14
394.49	1596.25
394.68	1673.48
394.88	1647.74
395.07	1732.00
395.26	1699.23
395.46	1717.95
395.65	1753.06
395.84	1701.57
396.04	1790.51
396.23	1724.97
396.42	1692.21
396.62	1764.76
396.81	1792.85
397.00	1657.10
397.19	1771.79
397.39	1802.21
397.58	1879.45
397.77	1750.72
397.97	1785.83
398.16	1895.83
398.35	1895.83
398.55	1870.09
398.74	1989.46
398.93	2043.29
399.12	1984.77
399.32	1949.67
399.51	1961.37
399.70	2015.20
399.90	1977.75
400.09	2045.63
400.28	2183.72
400.47	2073.71
400.67	2216.49
400.86	2104.14
401.05	2052.65
401.24	2057.33
401.44	2204.78
401.63	2139.25
401.82	2127.55
402.01	2160.31
402.21	2326.49
402.40	2314.79
402.59	2139.25
402.78	2349.90
402.97	2363.94
403.17	2385.01
403.36	2307.77
403.55	2394.37
403.74	2448.20
403.93	2441.18
404.13	2532.46
404.32	2485.65
404.51	2455.22
404.70	2602.68
404.89	2459.90
405.09	2562.89
405.28	2504.37
405.47	2612.04
405.66	2686.94
405.85	2679.91
406.05	2633.10
406.24	2649.49
406.43	2658.85
406.62	2747.79
406.81	2815.66
407.00	2715.02
407.20	2750.13
407.39	2747.79
407.58	2946.73
407.77	2871.84
407.96	2836.73
408.15	2853.11
408.34	2647.15
408.54	2911.63
408.73	2913.97
408.92	3052.06
409.11	3023.97
409.30	3047.38
409.49	3096.53
409.68	3070.78
409.87	3035.67
410.07	3129.30
410.26	3251.00
410.45	3068.44
410.64	3159.72
410.83	3176.11
411.02	3335.26
411.21	3407.82
411.40	3342.28
411.59	3405.48
411.78	3410.16
411.98	3433.57
412.17	3524.85
412.36	3382.07
412.55	3543.57
412.74	3571.66
412.93	3583.36
413.12	3578.68
413.31	3763.58
413.50	3784.65
413.69	3798.69
413.88	3772.94
414.07	3658.26
414.26	3906.35
414.45	3904.01
414.64	4025.72
414.83	3981.25
415.02	4063.17
415.22	4037.42
415.41	4329.99
415.60	4105.30
415.79	4205.94
415.98	4294.88
416.17	4044.45
416.36	4102.96
416.55	4259.78
416.74	4383.82
416.93	4514.89
417.12	4486.81
417.31	4505.53
417.50	4564.04
417.69	4627.24
417.88	4713.84
418.07	4533.62
418.26	4678.73
418.45	4526.60
418.64	4821.50
418.83	4884.70
419.02	4690.43
419.21	4896.40
419.39	4901.08
419.58	4861.29
419.77	4695.11
419.96	4990.02
420.15	5078.96
420.34	5067.26
420.53	4999.38
420.72	5181.95
420.91	5135.14
421.10	5111.73
421.29	5214.71
421.48	5121.09
421.67	5214.71
421.86	5217.05
422.05	5298.97
422.24	5210.03
422.43	5135.14
422.61	5331.74
422.80	5401.96
422.99	5397.28
423.18	5441.75
423.37	5397.28
423.56	5336.42
423.75	5352.81
423.94	5392.59
424.13	5069.60
424.32	5163.22
424.50	5495.58
424.69	5518.98
424.88	5547.07
425.07	5444.09
425.26	5394.93
425.45	5373.87
425.64	5383.23
425.83	5631.33
426.01	5565.79
426.20	5401.96
426.39	5446.43
426.58	5465.15
426.77	5598.56
426.96	5715.59
427.15	5460.47
427.33	5666.44
427.52	5776.44
427.71	5631.33
427.90	5832.62
428.09	5706.23
428.28	5657.07
428.46	6008.16
428.65	5947.30
428.84	5893.47
429.03	6120.50
429.22	5799.85
429.40	6010.50
429.59	5949.64
429.78	5884.11
429.97	5769.42
430.16	6047.94
430.34	6005.81
430.53	6197.74
430.72	6244.55
430.91	6141.57
431.10	6221.14
431.28	6207.10
431.47	6370.94
431.66	6387.32
431.85	6382.64
432.03	6420.09
432.22	6637.76
432.41	6513.71
432.60	6644.78
432.79	6640.10
432.97	6658.82
433.16	6614.35
433.35	6588.61
433.54	6682.23
433.72	6839.05
433.91	6654.14
434.10	6951.39
434.28	6759.47
434.47	6906.92
434.66	6963.09
434.85	6984.16
435.03	6986.50
435.22	6981.82
435.41	7595.04
435.59	7449.93
435.78	7311.83
435.97	7080.12
436.16	7199.49
436.34	7236.94
436.53	7119.91
436.72	7459.29
436.90	7262.68
437.09	7300.13
437.28	7288.43
437.46	7243.96
437.65	7358.64
437.84	7555.25
438.02	7370.35
438.21	7456.95
438.40	7552.91
438.58	7782.28
438.77	7702.70
438.96	7822.07
439.14	8044.42
439.33	7838.45
439.52	8044.42
439.70	8234.00
439.89	8067.83
440.08	7920.37
440.26	8327.63
440.45	8325.29
440.63	8444.65
440.82	8301.88
441.01	8458.70
441.19	8627.21
441.38	8767.65
441.57	8505.51
441.75	8837.86
441.94	8634.24
442.12	8711.47
442.31	8917.44
442.50	8992.34
442.68	8917.44
442.87	9202.99
443.05	8875.31
443.24	9247.46
443.43	9174.90
443.61	9064.89
443.80	9399.59
443.98	9130.43
444.17	8828.50
444.35	9369.16
444.54	9404.27
444.73	9357.46
444.91	9373.85
445.10	9291.93
445.28	9488.53
445.47	9130.43
445.65	9221.71
445.84	9540.02
446.02	9577.47
446.21	9242.78
446.39	9329.38
446.58	9404.27
446.77	9736.63
446.95	9366.82
447.14	9474.49
447.32	9434.70
447.51	9430.02
447.69	9458.10
447.88	9465.13
448.06	9682.80
448.25	9525.98
448.43	9799.82
448.62	9626.62
448.80	9406.61
448.99	9848.97
449.17	9816.21
449.36	9547.05
449.54	9870.04
449.73	9956.64
449.91	10033.88
450.10	9928.55
450.28	10097.07
450.46	10003.45
450.65	10078.35
450.83	10197.71
451.02	10242.18
451.20	10471.56
451.39	10377.94
451.57	10256.23
451.76	10190.69
451.94	10380.28
452.13	10714.97
452.31	10382.62
452.49	10338.15
452.68	10422.41
452.86	10319.42
453.05	10803.91
453.23	10836.68
453.42	10541.77
453.60	10457.51
453.78	10656.46
453.97	10406.02
454.15	10619.01
454.34	10640.08
454.52	11056.69
454.70	10834.34
454.89	10810.93
455.07	11014.56
455.26	11131.59
455.44	11091.80
455.62	11012.22
455.81	11234.57
455.99	11061.37
456.17	11073.07
456.36	11255.64
456.54	11328.19
456.73	11637.14
456.91	11501.39
457.09	11712.04
457.28	11847.79
457.46	11620.76
457.64	12002.27
457.83	11922.69
458.01	11609.06
458.19	11850.13
458.38	11796.30
458.56	12030.35
458.74	12086.53
458.93	11967.16
459.11	12210.57
459.29	11974.18
459.48	12105.25
459.66	12210.57
459.84	12301.86
460.03	12547.61
460.21	12196.53
460.39	12573.36
460.57	12315.90
460.76	12666.98
460.94	12496.12
461.12	12369.73
461.31	12643.57
461.49	12531.23
461.67	12477.40
461.85	13401.91
462.04	12842.52
462.22	13303.60
462.40	13069.55
462.59	12945.50
462.77	12762.94
462.95	12952.52
463.13	12954.87
463.32	13275.52
463.50	13310.63
463.68	13195.94
463.86	13350.42
464.05	13231.05
464.23	13305.95
464.41	13408.93
464.59	12938.48
464.78	13769.37
464.96	13406.59
465.14	13217.01
465.32	13411.27
465.50	13624.26
465.69	13540.00
465.87	13607.87
466.05	13434.68
466.23	13657.03
466.41	13961.30
466.60	14295.99
466.78	13614.90
466.96	13671.07
467.14	13710.86
467.32	13928.53
467.51	13905.12
467.69	13495.53
467.87	13724.90
468.05	14291.31
468.23	14258.54
468.41	14092.37
468.60	14052.58
468.78	14370.89
468.96	14211.73
469.14	14487.92
469.32	14600.26
469.50	13982.36
469.69	14499.62
469.87	14885.81
470.05	14850.70
470.23	14986.45
470.41	14626.01
470.59	14986.45
470.77	14899.85
470.95	15047.30
471.14	15417.11
471.32	14834.32
471.50	15604.35
471.68	15316.47
471.86	15419.45
472.04	15475.62
472.22	15962.45
472.40	15389.02
472.58	15325.83
472.77	15758.83
472.95	15800.96
473.13	16255.02
473.31	16142.67
473.49	16072.46
473.67	16262.04
473.85	16196.51
474.03	16456.31
474.21	16308.85
474.39	16533.54
474.57	16517.16
474.75	16730.15
474.93	17149.11
475.12	17099.95
475.30	17043.78
475.48	17092.93
475.66	17334.01
475.84	17619.55
476.02	17563.38
476.20	17528.27
476.38	18012.76
476.56	18450.44
476.74	17767.01
476.92	17736.58
477.10	18366.18
477.28	18422.36
477.46	18054.89
477.64	18616.62
477.82	18773.44
478.00	19356.23
478.18	18991.11
478.36	19070.68
478.54	19173.67
478.72	19690.93
478.90	19435.81
479.08	19686.25
479.26	19726.04
479.44	20074.77
479.62	20404.79
479.80	20315.85
479.98	20360.32
480.16	20788.64
480.34	20798.00
480.52	21015.67
480.70	21158.44
480.88	21048.44
481.06	21359.73
481.24	21493.14
481.41	21853.58
481.59	21486.12
481.77	22160.19
481.95	22286.58
482.13	22452.76
482.31	22183.60
482.49	22934.91
482.67	23056.62
482.85	23311.74
483.03	23206.41
483.21	23566.85
483.39	24063.05
483.57	23971.77
483.74	24018.58
483.92	24376.68
484.10	24299.44
484.28	24868.19
484.46	25090.54
484.64	25638.23
484.82	25193.53
485.00	25123.31
485.18	25722.49
485.35	26260.81
485.53	25989.31
485.71	26270.17
485.89	26829.56
486.07	26675.09
486.25	26511.25
486.43	26934.88
486.61	27180.64
486.78	27662.79
486.96	27520.02
487.14	28404.74
487.32	28320.48
487.50	27871.10
487.68	28144.94
487.85	28713.69
488.03	29457.98
488.21	29474.37
488.39	29420.53
488.57	29837.15
488.75	29834.81
488.92	30115.67
489.10	30026.73
489.28	30534.63
489.46	31112.74
489.64	31019.12
489.81	31522.34
489.99	31686.17
490.17	31702.56
490.35	32077.04
490.53	32210.45
490.70	32355.57
490.88	32510.04
491.06	32657.49
491.24	32479.61
491.41	33003.89
491.59	33181.77
491.77	33556.26
491.95	33752.87
492.13	33787.97
492.30	34125.01
492.48	34143.74
492.66	34450.35
492.84	34707.80
493.01	34763.98
493.19	34689.08
493.37	35519.97
493.54	35536.35
493.72	35866.37
493.90	35784.45
494.08	35730.62
494.25	36610.66
494.43	36825.99
494.61	36875.14
494.79	37127.92
494.96	37017.91
495.14	37542.19
495.32	37567.94
495.49	37500.06
495.67	38071.15
495.85	38349.68
496.02	38974.60
496.20	38770.97
496.38	38745.23
496.55	38899.70
496.73	39276.53
496.91	39117.37
497.09	39515.26
497.26	40179.98
497.44	39805.49
497.62	40060.61
497.79	40048.91
497.97	39974.01
498.14	40851.71
498.32	41287.05
498.50	41270.67
498.67	41553.87
498.85	41471.95
499.03	41553.87
499.20	42094.53
499.38	41565.57
499.56	42314.55
499.73	42256.03
499.91	42590.73
500.08	42784.99
500.26	42525.19
500.44	42780.31
500.61	42885.64
500.79	42513.49
500.97	43421.62
501.14	43833.55
501.32	43761.00
501.49	43669.72
501.67	43908.45
501.84	44116.76
502.02	43782.06
502.20	44418.69
502.37	44769.77
502.55	44711.25
502.72	44502.95
502.90	44760.40
503.07	44727.64
503.25	44973.39
503.43	45076.38
503.60	45448.52
503.78	45366.60
503.95	45408.73
504.13	45565.55
504.30	45918.97
504.48	45886.20
504.65	46232.60
504.83	46260.69
505.01	46628.15
505.18	46492.40
505.36	46632.83
505.53	46380.06
505.71	46923.06
505.88	47276.48
506.06	46714.75
506.23	47349.04
506.41	46902.00
506.58	47803.10
506.76	47995.03
506.93	47594.79
507.11	47257.76
507.28	47543.30
507.46	48236.10
507.63	48133.12
507.81	48437.39
507.98	48451.43
508.16	48523.99
508.33	48542.71
508.50	48336.74
508.68	48720.59
508.85	49446.16
509.03	48999.12
509.20	49652.12
509.38	49661.49
509.55	49645.10
509.73	49144.23
509.90	49532.76
510.08	49556.16
510.25	49581.91
510.42	49736.38
510.60	50281.73
510.77	50265.34
510.95	50284.07
511.12	49930.65
511.30	50134.28
511.47	50279.39
511.64	50663.24
511.82	51182.84
511.99	50820.05
512.17	51035.38
512.34	51112.62
512.51	51248.37
512.69	51042.40
512.86	51185.18
513.04	51920.10
513.21	51704.77
513.38	51896.70
513.56	51714.14
513.73	51503.49
513.90	51807.76
514.08	51877.97
514.25	52079.26
514.43	52334.38
514.60	52343.74
514.77	52224.37
514.95	52612.90
515.12	52165.86
515.29	52474.81
515.47	52561.41
515.64	52563.75
515.81	52938.24
515.99	53090.37
516.16	53095.05
516.33	52971.00
516.51	53319.74
516.68	53104.41
516.85	53219.10
517.03	53258.89
517.20	53488.26
517.37	53565.50
517.54	53579.54
517.72	53504.65
517.89	53570.18
518.06	53787.85
518.24	53490.60
518.41	53523.37
518.58	53727.00
518.75	53712.95
518.93	54162.34
519.10	54080.42
519.27	54487.67
519.45	54234.89
519.62	54190.42
519.79	54295.75
519.96	54401.07
520.14	54754.49
520.31	54482.99
520.48	54607.04
520.65	54791.94
520.83	54557.89
521.00	54941.74
521.17	54862.16
521.34	55016.63
521.52	54857.48
521.69	55042.38
521.86	55107.91
522.03	55351.33
522.20	55449.63
522.38	55538.57
522.55	55372.39
522.72	55182.81
522.89	55597.09
523.07	55763.26
523.24	55707.09
523.41	55835.82
523.58	55618.15
523.75	55985.61
523.92	55657.94
524.10	55798.37
524.27	56046.47
524.44	55894.33
524.61	56535.64
524.78	56355.42
524.96	56081.58
525.13	56343.72
525.30	56327.33
525.47	56376.48
525.64	56395.21
525.81	56547.34
525.98	56797.78
526.16	56774.37
526.33	56708.84
526.50	56907.79
526.67	56549.68
526.84	56804.80
527.01	56678.41
527.18	56889.06
527.36	56879.70
527.53	57073.96
527.70	57223.76
527.87	57162.90
528.04	56985.02
528.21	56982.68
528.38	57226.10
528.55	57256.53
528.72	57244.82
528.89	57305.68
529.07	57317.38
529.24	57158.22
529.41	57535.05
529.58	57478.88
529.75	57436.75
529.92	57656.76
530.09	57549.09
530.26	57741.02
530.43	57790.17
530.60	57645.05
530.77	57844.00
530.94	57946.98
531.11	57741.02
531.28	57757.40
531.46	57738.68
531.63	58061.67
531.80	58080.39
531.97	57946.98
532.14	58227.85
532.31	58141.25
532.48	58206.78
532.65	58557.86
532.82	58012.52
532.99	58358.92
533.16	58464.24
533.33	58410.41
533.50	58695.95
533.67	58347.21
533.84	58370.62
534.01	58595.31
534.18	58585.95
534.35	58604.67
534.52	58468.92
534.69	58787.24
534.86	58925.33
535.03	58688.93
535.20	58885.54
535.37	59023.63
535.54	58990.86
535.71	58974.48
535.88	58997.88
536.05	58960.44
536.22	59121.93
536.38	59391.09
536.55	59084.48
536.72	59234.28
536.89	59220.23
537.06	59011.93
537.23	59346.62
537.40	59182.79
537.57	59229.60
537.74	59178.10
537.91	59653.23
538.08	59554.93
538.25	59143.00
538.42	59498.76
538.59	59578.34
538.75	59182.79
538.92	59576.00
539.09	59686.00
539.26	59674.30
539.43	59737.49
539.60	60100.28
539.77	59709.41
539.94	60149.43
540.11	59793.67
540.28	59831.11
540.44	59898.99
540.61	60072.19
540.78	59861.54
540.95	60182.19
541.12	60109.64
541.29	60102.62
541.46	60123.68
541.62	59931.76
541.79	60238.37
541.96	60079.21
542.13	60119.00
542.30	60126.02
542.47	60456.04
542.63	60650.30
542.80	60750.94
542.97	60748.60
543.14	60821.16
543.31	60647.96
543.48	60432.63
543.64	60743.92
543.81	60633.92
543.98	60921.80
544.15	61233.10
544.32	60956.91
544.48	61066.92
544.65	60907.76
544.82	60935.85
544.99	60715.84
545.16	61031.81
545.32	61034.15
545.49	61471.83
545.66	61422.68
545.83	61528.00
546.00	61474.17
546.16	61298.63
546.33	60973.30
546.50	60963.93
546.67	61200.33
546.83	60844.57
547.00	61223.73
547.17	61401.61
547.34	61375.87
547.50	61549.07
547.67	61530.34
547.84	61272.88
548.00	61443.74
548.17	61401.61
548.34	61434.38
548.51	61467.15
548.67	61755.03
548.84	61392.25
549.01	61467.15
549.18	61542.05
549.34	61593.54
549.51	61506.94
549.68	61467.15
549.84	61427.36
550.01	61490.55
550.18	61717.59
550.34	61694.18
550.51	61846.32
550.68	61956.32
550.84	61565.45
551.01	61762.06
551.18	61797.16
551.34	61701.20
551.51	61839.29
551.68	61914.19
551.84	61942.28
552.01	61759.72
552.18	61907.17
552.34	61804.19
552.51	62120.16
552.68	62021.86
552.84	62101.43
553.01	62162.29
553.18	62141.22
553.34	62255.91
553.51	62246.55
553.67	62176.33
553.84	62492.30
554.01	62534.43
554.17	62286.34
554.34	62298.04
554.51	62164.63
554.67	62363.57
554.84	62494.64
555.00	62152.93
555.17	62405.70
555.33	62450.17
555.50	62316.76
555.67	62410.38
555.83	62548.48
556.00	62321.44
556.16	62459.54
556.33	62340.17
556.50	62504.01
556.66	62658.48
556.83	62417.41
556.99	62974.45
557.16	62822.32
557.32	62532.09
557.49	62426.77
557.65	62471.24
557.82	62611.67
557.98	62480.60
558.15	62784.87
558.32	62780.19
558.48	62740.40
558.65	62876.15
558.81	62859.77
558.98	62754.44
559.14	62702.95
559.31	62745.08
559.47	62838.70
559.64	62995.52
559.80	62850.41
559.97	62819.98
560.13	62695.93
560.30	62958.07
560.46	62883.17
560.63	63007.22
560.79	62988.50
560.96	63192.12
561.12	62939.35
561.29	62972.11
561.45	63011.90
561.61	62880.83
561.78	63185.10
561.94	63000.20
562.11	63051.69
562.27	63119.57
562.44	63206.17
562.60	63110.20
562.77	63152.33
562.93	63056.37
563.10	63318.51
563.26	63147.65
563.42	63325.53
563.59	63171.06
563.75	63274.04
563.92	63262.34
564.08	63206.17
564.24	63210.85
564.41	63154.68
564.57	63269.36
564.74	63299.79
564.90	63264.68
565.07	63468.31
565.23	63360.64
565.39	63601.72
565.56	63475.33
565.72	63290.43
565.88	63295.11
566.05	63398.09
566.21	63402.77
566.38	63220.21
566.54	63449.58
566.70	63508.10
566.87	63611.08
567.03	63763.21
567.19	63725.77
567.36	63643.85
567.52	63327.87
567.68	63625.12
567.85	63245.96
568.01	63412.13
568.17	63384.05
568.34	63461.29
568.50	63536.18
568.66	63627.46
568.83	63732.79
568.99	63618.10
569.15	63674.27
569.32	63463.63
569.48	63463.63
569.64	63723.43
569.81	63571.29
569.97	63627.46
570.13	63695.34
570.30	63632.14
570.46	63739.81
570.62	63641.51
570.78	63561.93
570.95	63611.08
571.11	63676.61
571.27	63348.94
571.43	63531.50
571.60	63697.68
571.76	63854.50
571.92	63814.71
572.09	63838.11
572.25	63683.64
572.41	63695.34
572.57	63795.98
572.74	63732.79
572.90	63793.64
573.06	63735.13
573.22	63812.37
573.38	63987.91
573.55	63756.19
573.71	64058.12
573.87	63990.25
574.03	63763.21
574.20	63763.21
574.36	63842.79
574.52	63758.53
574.68	63674.27
574.84	64044.08
575.01	63821.73
575.17	63962.16
575.33	63852.15
575.49	63854.50
575.65	63922.37
575.82	64072.17
575.98	63966.84
576.14	64219.62
576.30	63950.46
576.46	63917.69
576.62	63840.45
576.79	63976.20
576.95	63753.85
577.11	64032.38
577.27	64219.62
577.43	64062.80
577.59	64008.97
577.75	63931.73
577.92	63723.43
578.08	63648.53
578.24	63924.71
578.40	63852.15
578.56	64018.33
578.72	63950.46
578.88	64238.34
579.04	64062.80
579.21	64126.00
579.37	64088.55
579.53	64217.28
579.69	63856.84
579.85	63889.60
580.01	64158.76
580.17	64001.95
580.33	63898.97
580.49	64046.42
580.65	64008.97
580.82	64158.76
580.98	64027.70
581.14	63997.27
581.30	64247.71
581.46	63898.97
581.62	63973.86
581.78	63856.84
581.94	64118.98
582.10	64004.29
582.26	64261.75
582.42	64165.79
582.58	64228.98
582.74	64285.15
582.90	64133.02
583.06	64067.48
583.22	63997.27
583.38	64006.63
583.54	64264.09
583.70	63957.48
583.86	64114.29
584.02	64046.42
584.18	64100.25
584.34	64224.30
584.50	64203.24
584.66	64020.67
584.82	63938.75
584.98	64261.75
585.14	64231.32
585.30	63966.84
585.46	64104.93
585.62	64140.04
585.78	64198.55
585.94	64151.74
586.10	64086.21
586.26	64287.49
586.42	64313.24
586.58	64259.41
586.74	64247.71
586.90	64221.96
587.06	64114.29
587.22	64250.05
587.38	64076.85
587.54	64320.26
587.70	64320.26
587.86	64378.78
588.02	64395.16
588.18	64636.23
588.34	64158.76
588.49	64268.77
