SpectraSuite Data File
++++++++++++++++++++++++++++++++++++
Date: Fri Oct 04 11:39:27 GMT-05:00 2013
User: price-jones
Dark Spectrum Present: No
Reference Spectrum Present: No
Number of Sampled Component Spectra: 1
Spectrometers: USB2+H05261
Integration Time (usec): 100000 (USB2+H05261)
Spectra Averaged: 1 (USB2+H05261)
Boxcar Smoothing: 0 (USB2+H05261)
Correct for Electrical Dark: No (USB2+H05261)
Strobe/Lamp Enabled: No (USB2+H05261)
Correct for Detector Non-linearity: No (USB2+H05261)
Correct for Stray Light: No (USB2+H05261)
Number of Pixels in Processed Spectrum: 2048
>>>>>Begin Processed Spectral Data<<<<<
365.73	133.41
365.92	133.41
366.12	133.41
366.32	0.00
366.52	0.00
366.72	0.00
366.91	0.00
367.11	0.00
367.31	0.00
367.51	0.00
367.70	0.00
367.90	0.00
368.10	0.00
368.30	0.00
368.49	0.00
368.69	28.09
368.89	0.00
369.09	0.00
369.28	0.00
369.48	0.00
369.68	0.00
369.87	23.41
370.07	0.00
370.27	0.00
370.47	107.66
370.66	121.71
370.86	152.13
371.06	121.71
371.25	201.29
371.45	189.58
371.65	236.39
371.84	128.73
372.04	241.08
372.24	201.29
372.44	217.67
372.63	215.33
372.83	259.80
373.03	227.03
373.22	231.71
373.42	210.65
373.62	220.01
373.81	191.92
374.01	250.44
374.21	227.03
374.40	177.88
374.60	262.14
374.79	290.23
374.99	248.10
375.19	259.80
375.38	266.82
375.58	266.82
375.78	290.23
375.97	166.18
376.17	299.59
376.37	212.99
376.56	252.78
376.76	259.80
376.95	294.91
377.15	262.14
377.35	215.33
377.54	210.65
377.74	215.33
377.93	220.01
378.13	250.44
378.33	318.31
378.52	285.55
378.72	341.72
378.91	280.86
379.11	299.59
379.31	278.52
379.50	255.12
379.70	266.82
379.89	227.03
380.09	255.12
380.28	276.18
380.48	231.71
380.68	227.03
380.87	196.60
381.07	266.82
381.26	322.99
381.46	259.80
381.65	269.16
381.85	255.12
382.04	304.27
382.24	283.20
382.43	248.10
382.63	346.40
382.83	315.97
383.02	306.61
383.22	337.04
383.41	259.80
383.61	320.65
383.80	327.68
384.00	320.65
384.19	292.57
384.39	327.68
384.58	297.25
384.78	332.36
384.97	334.70
385.17	372.15
385.36	372.15
385.56	327.68
385.75	341.72
385.95	367.46
386.14	390.87
386.34	409.59
386.53	379.17
386.72	304.27
386.92	442.36
387.11	311.29
387.31	337.04
387.50	320.65
387.70	337.04
387.89	297.25
388.09	285.55
388.28	372.15
388.48	322.99
388.67	367.46
388.86	379.17
389.06	339.38
389.25	315.97
389.45	400.23
389.64	433.00
389.84	365.12
390.03	367.46
390.22	243.42
390.42	337.04
390.61	339.38
390.81	346.40
391.00	334.70
391.19	423.64
391.39	442.36
391.58	381.51
391.78	372.15
391.97	383.85
392.16	386.19
392.36	482.15
392.55	430.66
392.75	425.98
392.94	442.36
393.13	393.21
393.33	435.34
393.52	440.02
393.71	449.38
393.91	468.11
394.10	461.09
394.29	386.19
394.49	477.47
394.68	435.34
394.88	503.22
395.07	454.06
395.26	451.72
395.46	505.56
395.65	465.77
395.84	461.09
396.04	524.28
396.23	512.58
396.42	554.71
396.62	543.00
396.81	528.96
397.00	540.66
397.19	503.22
397.39	608.54
397.58	592.16
397.77	571.09
397.97	512.58
398.16	465.77
398.35	650.67
398.55	554.71
398.74	571.09
398.93	622.58
399.12	580.45
399.32	423.64
399.51	564.07
399.70	674.07
399.90	685.78
400.09	585.13
400.28	683.44
400.47	582.79
400.67	734.93
400.86	657.69
401.05	655.35
401.24	566.41
401.44	674.07
401.63	697.48
401.82	664.71
402.01	636.63
402.21	664.71
402.40	655.35
402.59	795.78
402.78	786.42
402.97	711.52
403.17	774.72
403.36	814.51
403.55	763.01
403.74	854.30
403.93	887.06
404.13	814.51
404.32	847.27
404.51	795.78
404.70	891.74
404.89	807.48
405.09	830.89
405.28	802.80
405.47	873.02
405.66	891.74
405.85	959.62
406.05	968.98
406.24	884.72
406.43	915.15
406.62	924.51
406.81	1034.52
407.00	990.05
407.20	1062.60
407.39	1060.26
407.58	1048.56
407.77	1020.47
407.96	940.90
408.15	983.02
408.34	1043.88
408.54	1027.50
408.73	1125.80
408.92	1027.50
409.11	1071.97
409.30	1100.05
409.49	1071.97
409.68	1256.87
409.87	1111.75
410.07	1125.80
410.26	1167.93
410.45	1149.20
410.64	1217.08
410.83	1247.51
411.02	1205.38
411.21	1310.70
411.40	1291.98
411.59	1273.25
411.78	1343.47
411.98	1369.21
412.17	1284.95
412.36	1334.11
412.55	1444.11
412.74	1509.65
412.93	1474.54
413.12	1355.17
413.31	1411.34
413.50	1430.07
413.69	1441.77
413.88	1563.48
414.07	1551.78
414.26	1565.82
414.45	1659.44
414.64	1519.01
414.83	1699.23
415.02	1617.31
415.22	1586.88
415.41	1717.95
415.60	1715.61
415.79	1572.84
415.98	1694.55
416.17	1760.08
416.36	1710.93
416.55	1746.04
416.74	1703.91
416.93	1900.52
417.12	1886.47
417.31	1839.66
417.50	1909.88
417.69	1825.62
417.88	1909.88
418.07	1954.35
418.26	1940.30
418.45	1834.98
418.64	2026.90
418.83	1940.30
419.02	1996.48
419.21	2066.69
419.39	2033.93
419.58	2029.24
419.77	1980.09
419.96	2108.82
420.15	2125.21
420.34	2019.88
420.53	2101.80
420.72	2195.42
420.91	1989.46
421.10	2153.29
421.29	2235.21
421.48	2211.81
421.67	2237.55
421.86	2190.74
422.05	2169.68
422.24	2150.95
422.43	2246.91
422.61	2232.87
422.80	2338.20
422.99	2256.28
423.18	2242.23
423.37	2321.81
423.56	2244.57
423.75	2146.27
423.94	2260.96
424.13	2150.95
424.32	2265.64
424.50	2349.90
424.69	2417.77
424.88	2319.47
425.07	2319.47
425.26	2338.20
425.45	2335.85
425.64	2244.57
425.83	2251.60
426.01	2382.67
426.20	2485.65
426.39	2277.34
426.58	2244.57
426.77	2321.81
426.96	2375.64
427.15	2438.84
427.33	2420.11
427.52	2490.33
427.71	2359.26
427.90	2457.56
428.09	2413.09
428.28	2497.35
428.46	2548.84
428.65	2457.56
428.84	2609.70
429.03	2729.06
429.22	2469.27
429.40	2534.80
429.59	2516.08
429.78	2490.33
429.97	2516.08
430.16	2466.92
430.34	2630.76
430.53	2602.68
430.72	2583.95
430.91	2590.97
431.10	2616.72
431.28	2689.28
431.47	2715.02
431.66	2726.72
431.85	2675.23
432.03	2724.38
432.22	2806.30
432.41	2754.81
432.60	2935.03
432.79	2771.19
432.97	2874.18
433.16	2785.24
433.35	2953.76
433.54	2906.95
433.72	2810.98
433.91	2801.62
434.10	2853.11
434.28	2932.69
434.47	2944.39
434.66	3014.61
434.85	2916.31
435.03	2946.73
435.22	3173.77
435.41	3325.90
435.59	3332.92
435.78	3211.22
435.97	3211.22
436.16	3164.40
436.34	3108.23
436.53	3166.74
436.72	3117.59
436.90	3033.33
437.09	3155.04
437.28	3112.91
437.46	3178.45
437.65	3206.53
437.84	3157.38
438.02	3159.72
438.21	3185.47
438.40	3105.89
438.58	3213.56
438.77	3311.86
438.96	3225.26
439.14	3199.51
439.33	3461.65
439.52	3431.23
439.70	3480.38
439.89	3288.45
440.08	3428.88
440.26	3487.40
440.45	3571.66
440.63	3485.06
440.82	3524.85
441.01	3655.92
441.19	3604.42
441.38	3733.15
441.57	3653.58
441.75	3688.68
441.94	3754.22
442.12	3653.58
442.31	3714.43
442.50	3754.22
442.68	3786.99
442.87	3672.30
443.05	3812.73
443.24	3861.88
443.43	3740.18
443.61	3826.78
443.80	3971.89
443.98	3798.69
444.17	3726.13
444.35	3983.59
444.54	3901.67
444.73	3864.22
444.91	3922.74
445.10	3899.33
445.28	4037.42
445.47	3847.84
445.65	4009.34
445.84	4030.40
446.02	4011.68
446.21	3967.21
446.39	3873.59
446.58	4053.81
446.77	3920.40
446.95	3974.23
447.14	3957.85
447.32	4102.96
447.51	4042.11
447.69	4161.47
447.88	4049.13
448.06	4063.17
448.25	3929.76
448.43	3990.61
448.62	4131.05
448.80	3880.61
448.99	4142.75
449.17	4236.37
449.36	3995.29
449.54	4191.90
449.73	4248.07
449.91	4276.16
450.10	4365.10
450.28	4362.76
450.46	4278.50
450.65	4381.48
450.83	4358.08
451.02	4222.33
451.20	4168.49
451.39	4283.18
451.57	4327.65
451.76	4334.67
451.94	4327.65
452.13	4456.38
452.31	4348.72
452.49	4353.40
452.68	4348.72
452.86	4418.93
453.05	4624.90
453.23	4418.93
453.42	4306.59
453.60	4369.78
453.78	4545.32
453.97	4411.91
454.15	4454.04
454.34	4451.70
454.52	4638.94
454.70	4599.15
454.89	4542.98
455.07	4608.51
455.26	4699.80
455.44	4545.32
455.62	4627.24
455.81	4711.50
455.99	4620.22
456.17	4898.74
456.36	4713.84
456.54	4765.33
456.73	4868.31
456.91	4985.34
457.09	4868.31
457.28	5085.98
457.46	4816.82
457.64	4873.00
457.83	4868.31
458.01	4833.21
458.19	4929.17
458.38	4950.23
458.56	5090.67
458.74	5097.69
458.93	4917.47
459.11	4945.55
459.29	4833.21
459.48	5249.82
459.66	5055.56
459.84	5090.67
460.03	4999.38
460.21	5102.37
460.39	5085.98
460.57	5048.54
460.76	5095.35
460.94	5163.22
461.12	5158.54
461.31	5200.67
461.49	5221.74
461.67	5170.24
461.85	5217.05
462.04	5149.18
462.22	5458.13
462.40	5338.76
462.59	5303.65
462.77	5362.17
462.95	5411.32
463.13	5350.46
463.32	5350.46
463.50	5455.79
463.68	5364.51
463.86	5430.04
464.05	5345.78
464.23	5416.00
464.41	5488.56
464.59	5448.77
464.78	5703.89
464.96	5486.22
465.14	5383.23
465.32	5621.97
465.50	5743.67
465.69	5619.63
465.87	5504.94
466.05	5516.64
466.23	5774.10
466.41	5738.99
466.60	5991.77
466.78	5624.31
466.96	5851.34
467.14	5748.36
467.32	5802.19
467.51	5942.62
467.69	5568.13
467.87	5682.82
468.05	5666.44
468.23	5762.40
468.41	5774.10
468.60	5769.42
468.78	5937.94
468.96	5898.15
469.14	5804.53
469.32	5961.34
469.50	5844.32
469.69	6108.80
469.87	6076.03
470.05	6225.82
470.23	6111.14
470.41	6232.85
470.59	6223.48
470.77	6064.33
470.95	6216.46
471.14	6282.00
471.32	6143.91
471.50	6438.81
471.68	6232.85
471.86	6403.71
472.04	6354.55
472.22	6513.71
472.40	6363.92
472.58	6263.27
472.77	6523.07
472.95	6686.91
473.13	6649.46
473.31	6342.85
473.49	6569.88
473.67	6658.82
473.85	6626.06
474.03	6757.13
474.21	6612.01
474.39	6691.59
474.57	6747.76
474.75	6911.60
474.93	6871.81
475.12	6920.96
475.30	6724.36
475.48	6848.41
475.66	6939.69
475.84	7000.54
476.02	7159.70
476.20	7229.91
476.38	7253.32
476.56	7290.77
476.74	7108.21
476.92	7253.32
477.10	7213.53
477.28	7517.80
477.46	7407.80
477.64	7658.23
477.82	7534.18
478.00	7606.74
478.18	7679.30
478.36	7749.51
478.54	7730.79
478.72	7880.58
478.90	7915.69
479.08	8065.49
479.26	8318.26
479.44	8112.30
479.62	8088.89
479.80	8229.32
479.98	8208.26
480.16	8196.56
480.34	8519.55
480.52	8484.44
480.70	8526.57
480.88	8503.17
481.06	8643.60
481.24	8428.27
481.41	8549.98
481.59	8641.26
481.77	8865.95
481.95	9074.26
482.13	8889.35
482.31	8919.78
482.49	9212.35
482.67	9413.63
482.85	9348.10
483.03	9188.94
483.21	9425.34
483.39	9661.73
483.57	9399.59
483.74	9467.47
483.92	9795.14
484.10	9661.73
484.28	9811.53
484.46	9888.76
484.64	10375.59
484.82	9851.31
485.00	9846.63
485.18	10038.56
485.35	10314.74
485.53	10443.47
485.71	10466.88
485.89	10897.53
486.07	10553.48
486.25	10729.02
486.43	10494.96
486.61	10785.19
486.78	11007.54
486.96	11257.98
487.14	11300.11
487.32	11262.66
487.50	11145.63
487.68	11101.16
487.85	11389.05
488.03	11501.39
488.21	11681.61
488.39	11632.46
488.57	11941.41
488.75	11793.96
488.92	12032.69
489.10	11992.90
489.28	12020.99
489.46	12329.94
489.64	12215.26
489.81	12514.84
489.99	12465.69
490.17	12636.55
490.35	12683.36
490.53	12840.18
490.70	12929.12
490.88	12835.50
491.06	12781.67
491.24	13041.46
491.41	13036.78
491.59	13336.37
491.77	13238.07
491.95	13558.72
492.13	13434.68
492.30	13666.39
492.48	13561.06
492.66	13621.92
492.84	13633.62
493.01	13839.59
493.19	13692.13
493.37	14104.07
493.54	13837.25
493.72	14127.47
493.90	14267.91
494.08	14284.29
494.25	14354.51
494.43	14476.21
494.61	14682.18
494.79	14661.12
494.96	14672.82
495.14	14689.20
495.32	14518.34
495.49	14850.70
495.67	15192.42
495.85	15112.84
496.02	15103.48
496.20	15176.03
496.38	15115.18
496.55	15276.68
496.73	15646.48
496.91	15590.31
497.09	15620.74
497.26	15969.48
497.44	15683.93
497.62	15763.51
497.79	15915.64
497.97	15697.97
498.14	16161.40
498.32	16173.10
498.50	16248.00
498.67	16458.65
498.85	16299.49
499.03	16659.93
499.20	16388.43
499.38	16627.17
499.56	16688.02
499.73	16744.19
499.91	16678.66
500.08	17069.53
500.26	16585.04
500.44	16952.50
500.61	16734.83
500.79	16943.14
500.97	17247.41
501.14	17252.09
501.32	17465.08
501.49	17380.82
501.67	17731.90
501.84	17612.53
502.02	17439.33
502.20	17532.95
502.37	17444.01
502.55	17504.87
502.72	17649.98
502.90	17734.24
503.07	17565.72
503.25	18078.30
503.43	17600.83
503.60	17916.80
503.78	18181.28
503.95	18059.57
504.13	18258.52
504.30	18202.35
504.48	18160.22
504.65	18256.18
504.83	18448.10
505.01	18712.58
505.18	18607.26
505.36	18654.07
505.53	18436.40
505.71	18651.73
505.88	18633.00
506.06	18684.50
506.23	19005.15
506.41	19077.71
506.58	19021.53
506.76	19262.61
506.93	18965.36
507.11	19192.39
507.28	18979.40
507.46	19274.31
507.63	19218.14
507.81	19726.04
507.98	19026.21
508.16	19484.96
508.33	19297.72
508.50	19854.76
508.68	19632.41
508.85	19889.87
509.03	19704.97
509.20	19962.43
509.38	19988.18
509.55	20074.77
509.73	19962.43
509.90	19735.40
510.08	20004.56
510.25	19995.20
510.42	20346.28
510.60	20446.92
510.77	20470.33
510.95	20634.16
511.12	20463.30
511.30	20343.94
511.47	20318.19
511.64	20751.19
511.82	20711.40
511.99	20566.29
512.17	20856.51
512.34	20697.36
512.51	20924.39
512.69	20762.89
512.86	20924.39
513.04	21165.46
513.21	21085.89
513.38	21184.19
513.56	21268.45
513.73	21029.71
513.90	21053.12
514.08	21132.70
514.25	21493.14
514.43	21689.74
514.60	21652.30
514.77	21790.39
514.95	21914.44
515.12	21832.52
515.29	21551.65
515.47	21762.30
515.64	21764.64
515.81	21977.63
515.99	22401.27
516.16	22115.72
516.33	22366.16
516.51	22632.98
516.68	22064.23
516.85	22256.15
517.03	22113.38
517.20	22401.27
517.37	22370.84
517.54	22518.29
517.72	22434.03
517.89	22328.71
518.06	22480.85
518.24	22848.31
518.41	22508.93
518.58	22869.37
518.75	23105.77
518.93	22860.01
519.10	22595.53
519.27	23091.73
519.45	23042.57
519.62	22649.36
519.79	23002.78
519.96	23206.41
520.14	23295.35
520.31	22955.97
520.48	23213.43
520.65	23260.24
520.83	23396.00
521.00	23482.59
521.17	23398.34
521.34	23449.83
521.52	23618.35
521.69	23213.43
521.86	24247.95
522.03	23819.63
522.20	23840.70
522.38	23726.01
522.55	23697.92
522.72	23927.30
522.89	23929.64
523.07	24393.06
523.24	24161.35
523.41	23836.02
523.58	24032.62
523.75	24566.26
523.92	24432.85
524.10	24166.03
524.27	24203.48
524.44	24339.23
524.61	24456.26
524.78	24694.99
524.96	24409.45
525.13	24568.60
525.30	24702.01
525.47	24837.76
525.64	24919.68
525.81	24498.39
525.98	24919.68
526.16	24849.47
526.33	24767.55
526.50	24898.62
526.67	24568.60
526.84	25017.99
527.01	24907.98
527.18	24907.98
527.36	25345.66
527.53	25104.59
527.70	25619.50
527.87	25216.93
528.04	25090.54
528.21	25525.88
528.38	25301.19
528.55	25425.24
528.72	25205.23
528.89	25303.53
529.07	25322.26
529.24	25605.46
529.41	25617.16
529.58	25130.33
529.75	25429.92
529.92	25771.64
530.09	25626.53
530.26	25638.23
530.43	25839.51
530.60	25977.61
530.77	25699.08
530.94	25708.44
531.11	25591.42
531.28	25710.78
531.46	25830.15
531.63	26024.42
531.80	26316.98
531.97	26422.31
532.14	26181.23
532.31	26298.26
532.48	26005.69
532.65	26211.66
532.82	25813.77
532.99	26389.54
533.16	26518.27
533.33	26904.46
533.50	26918.50
533.67	26398.90
533.84	26630.62
534.01	26536.99
534.18	26637.64
534.35	26661.04
534.52	26553.38
534.69	26864.67
534.86	26955.95
535.03	26909.14
535.20	26916.16
535.37	26895.10
535.54	27171.28
535.71	26581.46
535.88	27192.34
536.05	26991.06
536.22	27300.01
536.38	27124.47
536.55	26923.18
536.72	27517.68
536.89	27115.11
537.06	26972.33
537.23	27412.35
537.40	27599.60
537.57	27402.99
537.74	27498.95
537.91	27314.05
538.08	27381.93
538.25	27562.15
538.42	27793.86
538.59	27578.53
538.75	27218.09
538.92	27363.20
539.09	27779.82
539.26	27707.26
539.43	28039.62
539.60	27782.16
539.77	27974.08
539.94	27988.13
540.11	28182.39
540.28	27943.66
540.44	27934.29
540.61	27681.52
540.78	27917.91
540.95	27981.10
541.12	28746.46
541.29	28409.42
541.46	28264.31
541.62	28276.01
541.79	28276.01
541.96	28304.10
542.13	28240.90
542.30	28709.01
542.47	28758.16
542.63	28606.03
542.80	28622.41
542.97	28428.15
543.14	28938.38
543.31	28631.77
543.48	28753.48
543.64	29268.40
543.81	29223.93
543.98	28931.36
544.15	28999.24
544.32	29329.25
544.48	29338.62
544.65	29146.69
544.82	29158.39
544.99	28912.64
545.16	29113.92
545.32	29228.61
545.49	29755.23
545.66	30270.15
545.83	30347.39
546.00	30424.62
546.16	29626.50
546.33	29706.08
546.50	29027.32
546.67	29345.64
546.83	29020.30
547.00	29247.33
547.17	29268.40
547.34	29357.34
547.50	29457.98
547.67	30026.73
547.84	29504.79
548.00	29298.83
548.17	29441.60
548.34	29656.93
548.51	30068.86
548.67	29905.02
548.84	29762.25
549.01	29591.39
549.18	29364.36
549.34	29544.58
549.51	29317.55
549.68	29607.78
549.84	29640.54
550.01	29291.80
550.18	29724.80
550.34	29685.01
550.51	29738.85
550.68	30108.65
550.84	29638.20
551.01	29633.52
551.18	29296.49
551.34	29617.14
551.51	29614.80
551.68	29617.14
551.84	29827.79
552.01	29729.48
552.18	30323.98
552.34	29612.46
552.51	29696.72
552.68	29694.38
552.84	29853.53
553.01	30068.86
553.18	29996.31
553.34	29914.39
553.51	29869.92
553.67	30431.65
553.84	30204.61
554.01	29961.20
554.17	30195.25
554.34	30284.19
554.51	30012.69
554.67	30071.20
554.84	30197.59
555.00	30089.93
555.17	30291.21
555.33	30471.43
555.50	29944.81
555.67	30197.59
555.83	30209.29
556.00	30038.44
556.16	30733.57
556.33	30197.59
556.50	30457.39
556.66	30075.88
556.83	30192.91
556.99	30335.68
557.16	30251.42
557.32	30377.81
557.49	30656.34
557.65	30677.40
557.82	30235.04
557.98	30614.21
558.15	30319.30
558.32	30579.10
558.48	30443.35
558.65	30209.29
558.81	30426.96
558.98	30504.20
559.14	30429.30
559.31	30274.83
559.47	30656.34
559.64	30686.76
559.80	30742.94
559.97	30466.75
560.13	30574.42
560.30	30422.28
560.46	30529.95
560.63	30618.89
560.79	30548.67
560.96	30686.76
561.12	30288.87
561.29	30927.84
561.45	30775.70
561.61	30874.01
561.78	30347.39
561.94	30866.98
562.11	30864.64
562.27	30850.60
562.44	30976.99
562.60	30693.79
562.77	30749.96
562.93	30579.10
563.10	30946.56
563.26	30813.15
563.42	30944.22
563.59	31007.42
563.75	30845.92
563.92	30909.11
564.08	30888.05
564.24	30822.51
564.41	30621.23
564.57	30731.23
564.74	30789.75
564.90	30761.66
565.07	31171.25
565.23	31035.50
565.39	30913.80
565.56	31051.89
565.72	30583.78
565.88	31171.25
566.05	30672.72
566.21	31129.12
566.38	30558.03
566.54	30710.17
566.70	31538.72
566.87	31091.68
567.03	30955.93
567.19	31358.50
567.36	30981.67
567.52	30742.94
567.68	31152.53
567.85	30602.50
568.01	31012.10
568.17	31168.91
568.34	31307.01
568.50	31082.31
568.66	31239.13
568.83	31405.31
568.99	31435.74
569.15	30684.42
569.32	30988.69
569.48	30733.57
569.64	30941.88
569.81	31189.98
569.97	30937.20
570.13	31424.03
570.30	30808.47
570.46	31206.36
570.62	31028.48
570.78	31094.02
570.95	30939.54
571.11	30925.50
571.27	30721.87
571.43	30782.73
571.60	30869.33
571.76	31012.10
571.92	31346.79
572.09	31117.42
572.25	31367.86
572.41	31314.03
572.57	31274.24
572.74	30920.82
572.90	30958.27
573.06	30742.94
573.22	31007.42
573.38	31110.40
573.55	31108.06
573.71	31381.90
573.87	31449.78
574.03	31164.23
574.20	31101.04
574.36	31035.50
574.52	30920.82
574.68	30955.93
574.84	30878.69
575.01	31243.81
575.17	30991.03
575.33	31417.01
575.49	31108.06
575.65	31571.49
575.82	31204.02
575.98	31119.76
576.14	31227.43
576.30	30864.64
576.46	31445.10
576.62	31468.50
576.79	31583.19
576.95	31367.86
577.11	31391.26
577.27	31573.83
577.43	30925.50
577.59	31330.41
577.75	31215.72
577.92	31194.66
578.08	31208.70
578.24	30925.50
578.40	31372.54
578.56	31117.42
578.72	31248.49
578.88	31716.60
579.04	31744.69
579.21	31220.41
579.37	31424.03
579.53	31655.75
579.69	31119.76
579.85	31370.20
580.01	31358.50
580.17	31346.79
580.33	31122.10
580.49	31681.49
580.65	31325.73
580.82	31594.89
580.98	31388.92
581.14	31447.44
581.30	31452.12
581.46	30953.58
581.62	31000.40
581.78	31248.49
581.94	31445.10
582.10	31119.76
582.26	31372.54
582.42	31274.24
582.58	31620.64
582.74	31409.99
582.90	31194.66
583.06	31885.12
583.22	31140.83
583.38	30972.31
583.54	31271.90
583.70	31405.31
583.86	31187.64
584.02	31534.04
584.18	31496.59
584.34	31344.45
584.50	31290.62
584.66	31522.34
584.82	31222.75
584.98	31299.98
585.14	31044.87
585.30	31035.50
585.46	31330.41
585.62	31243.81
585.78	31388.92
585.94	31538.72
586.10	31569.15
586.26	31292.96
586.42	31606.59
586.58	31803.20
586.74	31585.53
586.90	31332.75
587.06	31489.57
587.22	31288.28
587.38	31150.19
587.54	31618.30
587.70	31555.10
587.86	32046.62
588.02	31608.93
588.18	32088.74
588.34	31288.28
588.49	31433.39
588.65	31386.58
588.81	31442.76
588.97	31105.72
589.13	31470.84
589.29	31496.59
589.45	31419.35
589.61	31793.84
589.77	31772.77
589.93	31644.04
590.08	31775.11
590.24	31662.77
590.40	31854.69
590.56	32011.51
590.72	31531.70
590.88	31253.17
591.04	31637.02
591.20	31442.76
591.35	31765.75
591.51	32133.21
591.67	31950.65
