SpectraSuite Data File
++++++++++++++++++++++++++++++++++++
Date: Fri Oct 04 11:39:49 GMT-05:00 2013
User: price-jones
Dark Spectrum Present: No
Reference Spectrum Present: No
Number of Sampled Component Spectra: 1
Spectrometers: USB2+H05261
Integration Time (usec): 100000 (USB2+H05261)
Spectra Averaged: 1 (USB2+H05261)
Boxcar Smoothing: 0 (USB2+H05261)
Correct for Electrical Dark: No (USB2+H05261)
Strobe/Lamp Enabled: No (USB2+H05261)
Correct for Detector Non-linearity: No (USB2+H05261)
Correct for Stray Light: No (USB2+H05261)
Number of Pixels in Processed Spectrum: 2048
>>>>>Begin Processed Spectral Data<<<<<
365.73	152.13
365.92	152.13
366.12	152.13
366.32	16.38
366.52	2.34
366.72	21.06
366.91	0.00
367.11	0.00
367.31	0.00
367.51	0.00
367.70	0.00
367.90	0.00
368.10	0.00
368.30	0.00
368.49	0.00
368.69	0.00
368.89	0.00
369.09	0.00
369.28	0.00
369.48	0.00
369.68	9.36
369.87	0.00
370.07	0.00
370.27	112.35
370.47	46.81
370.66	65.54
370.86	63.19
371.06	102.98
371.25	112.35
371.45	37.45
371.65	58.51
371.84	182.56
372.04	156.82
372.24	79.58
372.44	128.73
372.63	110.01
372.83	180.22
373.03	163.84
373.22	212.99
373.42	142.77
373.62	154.48
373.81	88.94
374.01	168.52
374.21	154.48
374.40	145.11
374.60	187.24
374.79	187.24
374.99	208.31
375.19	149.79
375.38	161.50
375.58	147.45
375.78	245.76
375.97	212.99
376.17	215.33
376.37	53.83
376.56	124.05
376.76	114.69
376.95	102.98
377.15	121.71
377.35	159.16
377.54	149.79
377.74	145.11
377.93	142.77
378.13	173.20
378.33	210.65
378.52	201.29
378.72	182.56
378.91	220.01
379.11	177.88
379.31	175.54
379.50	152.13
379.70	231.71
379.89	131.07
380.09	128.73
380.28	107.66
380.48	159.16
380.68	163.84
380.87	154.48
381.07	149.79
381.26	245.76
381.46	259.80
381.65	194.26
381.85	173.20
382.04	114.69
382.24	133.41
382.43	149.79
382.63	142.77
382.83	121.71
383.02	175.54
383.22	278.52
383.41	180.22
383.61	243.42
383.80	163.84
384.00	166.18
384.19	224.69
384.39	149.79
384.58	205.97
384.78	161.50
384.97	159.16
385.17	147.45
385.36	180.22
385.56	154.48
385.75	105.32
385.95	201.29
386.14	194.26
386.34	161.50
386.53	180.22
386.72	215.33
386.92	203.63
387.11	131.07
387.31	119.37
387.50	91.28
387.70	170.86
387.89	187.24
388.09	138.09
388.28	140.43
388.48	173.20
388.67	175.54
388.86	117.03
389.06	142.77
389.25	184.90
389.45	210.65
389.64	210.65
389.84	257.46
390.03	147.45
390.22	180.22
390.42	100.64
390.61	173.20
390.81	180.22
391.00	210.65
391.19	147.45
391.39	142.77
391.58	196.60
391.78	241.08
391.97	175.54
392.16	182.56
392.36	238.73
392.55	154.48
392.75	149.79
392.94	208.31
393.13	241.08
393.33	238.73
393.52	231.71
393.71	234.05
393.91	154.48
394.10	210.65
394.29	276.18
394.49	189.58
394.68	259.80
394.88	255.12
395.07	255.12
395.26	215.33
395.46	280.86
395.65	212.99
395.84	180.22
396.04	271.50
396.23	208.31
396.42	234.05
396.62	168.52
396.81	259.80
397.00	205.97
397.19	259.80
397.39	222.35
397.58	227.03
397.77	212.99
397.97	222.35
398.16	210.65
398.35	264.48
398.55	170.86
398.74	308.95
398.93	276.18
399.12	227.03
399.32	231.71
399.51	245.76
399.70	205.97
399.90	266.82
400.09	224.69
400.28	250.44
400.47	203.63
400.67	238.73
400.86	285.55
401.05	273.84
401.24	269.16
401.44	327.68
401.63	262.14
401.82	360.44
402.01	257.46
402.21	304.27
402.40	271.50
402.59	262.14
402.78	255.12
402.97	318.31
403.17	269.16
403.36	257.46
403.55	304.27
403.74	259.80
403.93	301.93
404.13	346.40
404.32	381.51
404.51	292.57
404.70	306.61
404.89	367.46
405.09	388.53
405.28	358.10
405.47	341.72
405.66	318.31
405.85	369.80
406.05	372.15
406.24	311.29
406.43	330.02
406.62	367.46
406.81	327.68
407.00	322.99
407.20	388.53
407.39	341.72
407.58	404.91
407.77	341.72
407.96	458.74
408.15	292.57
408.34	360.44
408.54	386.19
408.73	388.53
408.92	440.02
409.11	411.93
409.30	414.27
409.49	292.57
409.68	414.27
409.87	435.34
410.07	407.25
410.26	376.83
410.45	341.72
410.64	411.93
410.83	386.19
411.02	369.80
411.21	463.43
411.40	458.74
411.59	503.22
411.78	390.87
411.98	470.45
412.17	402.57
412.36	463.43
412.55	425.98
412.74	507.90
412.93	543.00
413.12	402.57
413.31	458.74
413.50	465.77
413.69	390.87
413.88	594.50
414.07	519.60
414.26	519.60
414.45	477.47
414.64	538.32
414.83	458.74
415.02	503.22
415.22	564.07
415.41	503.22
415.60	468.11
415.79	510.24
415.98	552.37
416.17	535.98
416.36	571.09
416.55	648.33
416.74	503.22
416.93	512.58
417.12	592.16
417.31	681.10
417.50	528.96
417.69	566.41
417.88	552.37
418.07	629.60
418.26	610.88
418.45	566.41
418.64	671.73
418.83	620.24
419.02	594.50
419.21	589.82
419.39	662.37
419.58	615.56
419.77	519.60
419.96	711.52
420.15	660.03
420.34	645.99
420.53	617.90
420.72	617.90
420.91	664.71
421.10	585.13
421.29	725.57
421.48	613.22
421.67	634.29
421.86	571.09
422.05	678.76
422.24	662.37
422.43	503.22
422.61	634.29
422.80	688.12
422.99	641.31
423.18	636.63
423.37	674.07
423.56	617.90
423.75	636.63
423.94	662.37
424.13	608.54
424.32	627.26
424.50	629.60
424.69	629.60
424.88	809.83
425.07	777.06
425.26	676.41
425.45	645.99
425.64	795.78
425.83	657.69
426.01	681.10
426.20	594.50
426.39	627.26
426.58	697.48
426.77	629.60
426.96	676.41
427.15	674.07
427.33	683.44
427.52	667.05
427.71	727.91
427.90	741.95
428.09	664.71
428.28	664.71
428.46	624.92
428.65	709.18
428.84	786.42
429.03	760.67
429.22	739.61
429.40	697.48
429.59	681.10
429.78	732.59
429.97	641.31
430.16	699.82
430.34	744.29
430.53	730.25
430.72	755.99
430.91	748.97
431.10	779.40
431.28	788.76
431.47	765.36
431.66	830.89
431.85	784.08
432.03	819.19
432.22	819.19
432.41	793.44
432.60	833.23
432.79	807.48
432.97	786.42
433.16	837.91
433.35	805.14
433.54	744.29
433.72	784.08
433.91	844.93
434.10	861.32
434.28	781.74
434.47	828.55
434.66	840.25
434.85	849.61
435.03	903.45
435.22	1015.79
435.41	1245.16
435.59	1224.10
435.78	1181.97
435.97	999.41
436.16	870.68
436.34	889.40
436.53	784.08
436.72	945.58
436.90	821.53
437.09	833.23
437.28	866.00
437.46	870.68
437.65	901.11
437.84	966.64
438.02	821.53
438.21	905.79
438.40	961.96
438.58	896.43
438.77	917.49
438.96	919.83
439.14	943.24
439.33	980.68
439.52	945.58
439.70	898.77
439.89	961.96
440.08	952.60
440.26	957.28
440.45	1013.45
440.63	924.51
440.82	929.19
441.01	940.90
441.19	931.53
441.38	1022.81
441.57	983.02
441.75	1022.81
441.94	999.41
442.12	990.05
442.31	954.94
442.50	999.41
442.68	1062.60
442.87	1034.52
443.05	954.94
443.24	940.90
443.43	1039.20
443.61	1015.79
443.80	1053.24
443.98	1060.26
444.17	987.71
444.35	1069.62
444.54	990.05
444.73	999.41
444.91	1050.90
445.10	1062.60
445.28	1048.56
445.47	1041.54
445.65	985.37
445.84	1020.47
446.02	1074.31
446.21	1062.60
446.39	1062.60
446.58	1088.35
446.77	1008.77
446.95	1104.73
447.14	1027.50
447.32	1090.69
447.51	1029.84
447.69	1050.90
447.88	1093.03
448.06	1090.69
448.25	1116.44
448.43	1121.12
448.62	1116.44
448.80	1121.12
448.99	1086.01
449.17	1083.67
449.36	1076.65
449.54	1062.60
449.73	1118.78
449.91	1086.01
450.10	1086.01
450.28	1142.18
450.46	1186.65
450.65	1174.95
450.83	1203.04
451.02	1135.16
451.20	1107.07
451.39	1128.14
451.57	1196.01
451.76	1090.69
451.94	1174.95
452.13	1217.08
452.31	1128.14
452.49	1172.61
452.68	1128.14
452.86	1160.91
453.05	1231.12
453.23	1158.57
453.42	1109.41
453.60	1205.38
453.78	1228.78
453.97	1083.67
454.15	1284.95
454.34	1219.42
454.52	1203.04
454.70	1240.48
454.89	1170.27
455.07	1172.61
455.26	1299.00
455.44	1142.18
455.62	1231.12
455.81	1263.89
455.99	1219.42
456.17	1270.91
456.36	1235.80
456.54	1174.95
456.73	1235.80
456.91	1179.63
457.09	1315.38
457.28	1245.16
457.46	1247.51
457.64	1341.13
457.83	1336.45
458.01	1289.64
458.19	1301.34
458.38	1315.38
458.56	1385.60
458.74	1214.74
458.93	1324.74
459.11	1437.09
459.29	1289.64
459.48	1369.21
459.66	1357.51
459.84	1411.34
460.03	1451.13
460.21	1364.53
460.39	1308.36
460.57	1336.45
460.76	1373.89
460.94	1357.51
461.12	1371.55
461.31	1315.38
461.49	1413.68
461.67	1427.73
461.85	1427.73
462.04	1446.45
462.22	1753.06
462.40	1462.83
462.59	1383.26
462.77	1322.40
462.95	1474.54
463.13	1439.43
463.32	1507.30
463.50	1392.62
463.68	1481.56
463.86	1385.60
464.05	1359.85
464.23	1409.00
464.41	1483.90
464.59	1378.58
464.78	1448.79
464.96	1507.30
465.14	1369.21
465.32	1376.24
465.50	1511.99
465.69	1380.92
465.87	1373.89
466.05	1373.89
466.23	1411.34
466.41	1423.05
466.60	1479.22
466.78	1394.96
466.96	1467.52
467.14	1502.62
467.32	1561.14
467.51	1357.51
467.69	1409.00
467.87	1493.26
468.05	1502.62
468.23	1533.05
468.41	1551.78
468.60	1523.69
468.78	1528.37
468.96	1476.88
469.14	1519.01
469.32	1507.30
469.50	1437.09
469.69	1411.34
469.87	1511.99
470.05	1540.07
470.23	1530.71
470.41	1425.39
470.59	1605.61
470.77	1565.82
470.95	1444.11
471.14	1530.71
471.32	1603.27
471.50	1647.74
471.68	1537.73
471.86	1689.87
472.04	1621.99
472.22	1694.55
472.40	1558.80
472.58	1593.90
472.77	1671.14
472.95	1720.29
473.13	1689.87
473.31	1640.72
473.49	1549.43
473.67	1603.27
473.85	1797.53
474.03	1638.38
474.21	1540.07
474.39	1790.51
474.57	1811.57
474.75	1739.02
474.93	1827.96
475.12	1659.44
475.30	1753.06
475.48	1621.99
475.66	1645.40
475.84	1706.25
476.02	1900.52
476.20	1755.40
476.38	1888.81
476.56	1858.39
476.74	1816.26
476.92	1762.42
477.10	1879.45
477.28	1872.43
477.46	1818.60
477.64	1881.79
477.82	1767.10
478.00	1912.22
478.18	1952.01
478.36	1863.07
478.54	1919.24
478.72	1944.99
478.90	1982.43
479.08	2062.01
479.26	1893.49
479.44	1879.45
479.62	2101.80
479.80	2031.58
479.98	2017.54
480.16	2111.16
480.34	2225.85
480.52	2024.56
480.70	2005.84
480.88	2064.35
481.06	2190.74
481.24	2260.96
481.41	2113.50
481.59	2047.97
481.77	2195.42
481.95	2253.94
482.13	2263.30
482.31	2256.28
482.49	2186.06
482.67	2284.36
482.85	2361.60
483.03	2314.79
483.21	2326.49
483.39	2326.49
483.57	2361.60
483.74	2387.35
483.92	2342.88
484.10	2340.54
484.28	2291.38
484.46	2506.71
484.64	2326.49
484.82	2445.86
485.00	2406.07
485.18	2635.44
485.35	2502.03
485.53	2544.16
485.71	2569.91
485.89	2567.57
486.07	2495.01
486.25	2717.36
486.43	2637.78
486.61	2602.68
486.78	2773.53
486.96	2637.78
487.14	2715.02
487.32	2705.66
487.50	2785.24
487.68	2682.25
487.85	2822.69
488.03	2808.64
488.21	2981.84
488.39	2904.60
488.57	2883.54
488.75	2888.22
488.92	3082.49
489.10	2946.73
489.28	2956.10
489.46	2925.67
489.64	2956.10
489.81	2930.35
489.99	3000.57
490.17	2953.76
490.35	3122.27
490.53	3098.87
490.70	3054.40
490.88	3056.74
491.06	3091.85
491.24	3173.77
491.41	3148.02
491.59	3150.36
491.77	3229.94
491.95	3187.81
492.13	3353.99
492.30	3133.98
492.48	3211.22
492.66	3330.58
492.84	3248.66
493.01	3246.32
493.19	3222.92
493.37	3311.86
493.54	3405.48
493.72	3365.69
493.90	3449.95
494.08	3349.31
494.25	3548.25
494.43	3442.93
494.61	3599.74
494.79	3447.61
494.96	3433.57
495.14	3566.98
495.32	3513.14
495.49	3501.44
495.67	3538.89
495.85	3557.61
496.02	3494.42
496.20	3691.02
496.38	3634.85
496.55	3758.90
496.73	3726.13
496.91	3616.13
497.09	3667.62
497.26	3676.98
497.44	3639.53
497.62	3779.97
497.79	3866.56
497.97	3744.86
498.14	3798.69
498.32	3733.15
498.50	3702.73
498.67	3784.65
498.85	3768.26
499.03	3845.50
499.20	3796.35
499.38	3899.33
499.56	3854.86
499.73	3918.06
499.91	3904.01
500.08	3901.67
500.26	3927.42
500.44	3850.18
500.61	3974.23
500.79	4004.66
500.97	4002.32
501.14	4173.18
501.32	4056.15
501.49	4039.76
501.67	3925.08
501.84	3999.98
502.02	3955.51
502.20	4222.33
502.37	4016.36
502.55	4180.20
502.72	4259.78
502.90	4131.05
503.07	4156.79
503.25	4002.32
503.43	3997.64
503.60	4248.07
503.78	4327.65
503.95	4173.18
504.13	4112.32
504.30	4255.09
504.48	4182.54
504.65	4285.52
504.83	4255.09
505.01	4222.33
505.18	4269.14
505.36	4278.50
505.53	4234.03
505.71	4334.67
505.88	4243.39
506.06	4227.01
506.23	4308.93
506.41	4311.27
506.58	4280.84
506.76	4447.02
506.93	4475.10
507.11	4299.56
507.28	4329.99
507.46	4252.75
507.63	4449.36
507.81	4463.40
507.98	4355.74
508.16	4411.91
508.33	4451.70
508.50	4479.79
508.68	4519.57
508.85	4599.15
509.03	4402.55
509.20	4765.33
509.38	4578.09
509.55	4713.84
509.73	4559.36
509.90	4589.79
510.08	4692.77
510.25	4702.14
510.42	4592.13
510.60	4692.77
510.77	4713.84
510.95	4624.90
511.12	4699.80
511.30	4669.37
511.47	4751.29
511.64	4758.31
511.82	4901.08
511.99	4671.71
512.17	4716.18
512.34	4718.52
512.51	4861.29
512.69	4968.96
512.86	4868.31
513.04	4720.86
513.21	4770.01
513.38	4835.55
513.56	4748.95
513.73	4830.87
513.90	5041.51
514.08	4802.78
514.25	4849.59
514.43	4840.23
514.60	4905.76
514.77	4844.91
514.95	4929.17
515.12	4978.32
515.29	5022.79
515.47	4896.40
515.64	5097.69
515.81	5020.45
515.99	5050.88
516.16	4983.00
516.33	5057.90
516.51	5027.47
516.68	5022.79
516.85	5048.54
517.03	5210.03
517.20	5025.13
517.37	4980.66
517.54	5172.58
517.72	5069.60
517.89	5205.35
518.06	5158.54
518.24	5064.92
518.41	5167.90
518.58	5167.90
518.75	5135.14
518.93	5029.81
519.10	5212.37
519.27	5107.05
519.45	5144.50
519.62	5069.60
519.79	5195.99
519.96	5212.37
520.14	5294.29
520.31	5334.08
520.48	5135.14
520.65	5256.84
520.83	5212.37
521.00	5413.66
521.17	5479.19
521.34	5315.36
521.52	5371.53
521.69	5329.40
521.86	5317.70
522.03	5298.97
522.20	5453.45
522.38	5516.64
522.55	5327.06
522.72	5488.56
522.89	5579.84
523.07	5507.28
523.24	5549.41
523.41	5355.15
523.58	5343.44
523.75	5516.64
523.92	5383.23
524.10	5518.98
524.27	5495.58
524.44	5584.52
524.61	5682.82
524.78	5628.99
524.96	5631.33
525.13	5696.86
525.30	5462.81
525.47	5722.61
525.64	5504.94
525.81	5511.96
525.98	5472.17
526.16	5624.31
526.33	5427.70
526.50	5652.39
526.67	5514.30
526.84	5603.24
527.01	5570.48
527.18	5659.42
527.36	5664.10
527.53	5816.23
527.70	5776.44
527.87	5771.76
528.04	5610.26
528.21	5750.70
528.38	5713.25
528.55	5788.14
528.72	5654.73
528.89	5909.85
529.07	5561.11
529.24	5643.03
529.41	5715.59
529.58	5540.05
529.75	5699.20
529.92	5823.25
530.09	5680.48
530.26	5834.96
530.43	5661.76
530.60	5827.93
530.77	5886.45
530.94	5975.39
531.11	5858.36
531.28	5886.45
531.46	5846.66
531.63	5844.32
531.80	5874.74
531.97	6033.90
532.14	5900.49
532.31	6003.47
532.48	6090.07
532.65	5879.43
532.82	5905.17
532.99	5909.85
533.16	5863.04
533.33	5907.51
533.50	6057.31
533.67	6001.13
533.84	5895.81
534.01	5991.77
534.18	5891.13
534.35	5975.39
534.52	5898.15
534.69	5954.32
534.86	6085.39
535.03	5923.90
535.20	6120.50
535.37	6045.60
535.54	6090.07
535.71	6003.47
535.88	6066.67
536.05	6127.52
536.22	5989.43
536.38	6181.35
536.55	6071.35
536.72	6031.56
536.89	5959.00
537.06	6097.10
537.23	6171.99
537.40	6061.99
537.57	6167.31
537.74	6230.51
537.91	6190.72
538.08	6214.12
538.25	5935.60
538.42	6120.50
538.59	6204.76
538.75	6204.76
538.92	6296.04
539.09	6406.05
539.26	6303.06
539.43	6282.00
539.60	6319.45
539.77	6235.19
539.94	6230.51
540.11	6345.19
540.28	6345.19
540.44	6485.62
540.61	6413.07
540.78	6354.55
540.95	6403.71
541.12	6506.69
541.29	6427.11
541.46	6506.69
541.62	6527.75
541.79	6553.50
541.96	6588.61
542.13	6513.71
542.30	6569.88
542.47	6478.60
542.63	6794.58
542.80	6518.39
542.97	6614.35
543.14	6637.76
543.31	6609.67
543.48	6593.29
543.64	6717.34
543.81	6726.70
543.98	6668.19
544.15	6827.34
544.32	6705.63
544.48	6778.19
544.65	6740.74
544.82	6661.16
544.99	6569.88
545.16	6722.02
545.32	6801.60
545.49	6925.65
545.66	7178.42
545.83	7515.46
546.00	7375.03
546.16	7112.89
546.33	6904.58
546.50	6626.06
546.67	6693.93
546.83	6576.91
547.00	6792.23
547.17	6588.61
547.34	6593.29
547.50	6626.06
547.67	6677.55
547.84	6670.53
548.00	6448.18
548.17	6583.93
548.34	6736.06
548.51	6663.51
548.67	6843.73
548.84	6574.56
549.01	6539.46
549.18	6628.40
549.34	6438.81
549.51	6616.69
549.68	6525.41
549.84	6553.50
550.01	6607.33
550.18	6712.66
550.34	6677.55
550.51	6677.55
550.68	6621.38
550.84	6518.39
551.01	6574.56
551.18	6516.05
551.34	6558.18
551.51	6487.96
551.68	6548.82
551.84	6717.34
552.01	6494.99
552.18	6609.67
552.34	6689.25
552.51	6815.64
552.68	6558.18
552.84	6583.93
553.01	6675.21
553.18	6609.67
553.34	6651.80
553.51	6588.61
553.67	6490.31
553.84	6619.04
554.01	6715.00
554.17	6633.08
554.34	6551.16
554.51	6675.21
554.67	6574.56
554.84	6675.21
555.00	6679.89
555.17	6672.87
555.33	6686.91
555.50	6520.73
555.67	6548.82
555.83	6661.16
556.00	6647.12
556.16	6794.58
556.33	6710.32
556.50	6616.69
556.66	6532.44
556.83	6539.46
556.99	6693.93
557.16	6649.46
557.32	6747.76
557.49	6780.53
557.65	6497.33
557.82	6682.23
557.98	6532.44
558.15	6621.38
558.32	6761.81
558.48	6743.08
558.65	6619.04
558.81	6890.54
558.98	6672.87
559.14	6834.36
559.31	6764.15
559.47	6743.08
559.64	6743.08
559.80	6766.49
559.97	6796.92
560.13	6707.98
560.30	6661.16
560.46	6782.87
560.63	6619.04
560.79	6787.55
560.96	6792.23
561.12	6661.16
561.29	6586.27
561.45	6825.00
561.61	6789.89
561.78	6857.77
561.94	6810.96
562.11	6806.28
562.27	6682.23
562.44	6576.91
562.60	6644.78
562.77	6672.87
562.93	6719.68
563.10	6939.69
563.26	6899.90
563.42	6654.14
563.59	6635.42
563.75	6862.45
563.92	6808.62
564.08	6703.29
564.24	6820.32
564.41	6841.39
564.57	6850.75
564.74	6633.08
564.90	6792.23
565.07	6789.89
565.23	6665.85
565.39	6551.16
565.56	6815.64
565.72	6502.01
565.88	6595.63
566.05	6743.08
566.21	6621.38
566.38	6871.81
566.54	6752.45
566.70	6766.49
566.87	6850.75
567.03	6738.40
567.19	6808.62
567.36	6808.62
567.52	6661.16
567.68	6771.17
567.85	6754.79
568.01	6593.29
568.17	6665.85
568.34	6670.53
568.50	6832.02
568.66	6806.28
568.83	6707.98
568.99	6773.51
569.15	6806.28
569.32	6651.80
569.48	6574.56
569.64	6600.31
569.81	6703.29
569.97	6698.61
570.13	6670.53
570.30	6682.23
570.46	6700.95
570.62	6813.30
570.78	6871.81
570.95	6707.98
571.11	6750.10
571.27	6778.19
571.43	6630.74
571.60	6670.53
571.76	6743.08
571.92	6693.93
572.09	6808.62
572.25	6843.73
572.41	6616.69
572.57	6918.62
572.74	6792.23
572.90	6759.47
573.06	6700.95
573.22	6759.47
573.38	6825.00
573.55	6864.79
573.71	6820.32
573.87	6689.25
574.03	6670.53
574.20	6698.61
574.36	6782.87
574.52	6731.38
574.68	6764.15
574.84	6785.21
575.01	6944.37
575.17	6932.67
575.33	6949.05
575.49	6548.82
575.65	6883.52
575.82	6799.26
575.98	6841.39
576.14	6918.62
576.30	6836.70
576.46	6693.93
576.62	6949.05
576.79	6773.51
576.95	6792.23
577.11	6822.66
577.27	6663.51
577.43	6888.20
577.59	6932.67
577.75	6937.35
577.92	6899.90
578.08	6705.63
578.24	6665.85
578.40	6794.58
578.56	6942.03
578.72	6916.28
578.88	6916.28
579.04	7052.03
579.21	6927.99
579.37	6778.19
579.53	6757.13
579.69	6850.75
579.85	6754.79
580.01	6946.71
580.17	6761.81
580.33	6607.33
580.49	6827.34
580.65	6881.18
580.82	6988.84
580.98	6862.45
581.14	6698.61
581.30	6869.47
581.46	6689.25
581.62	6754.79
581.78	6722.02
581.94	6878.83
582.10	6686.91
582.26	6752.45
582.42	6895.22
582.58	7007.56
582.74	6759.47
582.90	6810.96
583.06	6857.77
583.22	6817.98
583.38	6787.55
583.54	6806.28
583.70	6979.48
583.86	6815.64
584.02	6787.55
584.18	6869.47
584.34	6682.23
584.50	6867.13
584.66	6703.29
584.82	6703.29
584.98	6724.36
585.14	6752.45
585.30	7007.56
585.46	6820.32
585.62	6583.93
585.78	6972.46
585.94	6925.65
586.10	6810.96
586.26	6745.42
586.42	6874.15
586.58	6810.96
586.74	6906.92
586.90	6855.43
587.06	6796.92
587.22	6932.67
587.38	7077.78
587.54	6874.15
587.70	6956.07
587.86	6993.52
588.02	6890.54
588.18	6600.31
588.34	6782.87
588.49	6686.91
588.65	6658.82
588.81	6733.72
588.97	6527.75
589.13	6703.29
589.29	6810.96
589.45	6853.09
589.61	6764.15
589.77	6960.75
589.93	6892.88
590.08	6649.46
590.24	6768.83
590.40	6841.39
590.56	6986.50
590.72	6642.44
590.88	6801.60
591.04	6766.49
591.20	6867.13
591.35	6743.08
591.51	6827.34
591.67	6497.33
591.83	6857.77
591.99	6874.15
592.15	6904.58
592.31	6846.07
592.46	6906.92
592.62	6864.79
592.78	7042.67
592.94	6857.77
593.10	6817.98
593.26	6927.99
593.41	7045.01
593.57	6862.45
593.73	6923.30
593.89	6836.70
594.05	6876.49
594.20	6644.78
594.36	6839.05
594.52	6923.30
594.68	6778.19
594.84	6775.85
594.99	6850.75
595.15	6792.23
595.31	6904.58
595.47	6827.34
595.62	6902.24
595.78	6785.21
595.94	6787.55
596.10	6707.98
596.25	6817.98
596.41	6834.36
596.57	6785.21
596.73	6792.23
596.88	6689.25
597.04	6857.77
597.20	6754.79
597.36	6717.34
597.51	6843.73
597.67	6710.32
597.83	6729.04
597.99	6860.11
598.14	6869.47
598.30	6813.30
598.46	6743.08
598.61	6789.89
598.77	6654.14
598.93	7037.99
599.09	6801.60
599.24	6855.43
599.40	6743.08
599.56	6899.90
599.71	6820.32
599.87	6799.26
600.03	6918.62
600.18	6829.68
600.34	6789.89
