SpectraSuite Data File
++++++++++++++++++++++++++++++++++++
Date: Tue Oct 01 18:27:27 GMT-05:00 2013
User: stostad
Dark Spectrum Present: No
Reference Spectrum Present: No
Number of Sampled Component Spectra: 1
Spectrometers: USB2+H05261
Integration Time (usec): 100000 (USB2+H05261)
Spectra Averaged: 1 (USB2+H05261)
Boxcar Smoothing: 0 (USB2+H05261)
Correct for Electrical Dark: No (USB2+H05261)
Strobe/Lamp Enabled: No (USB2+H05261)
Correct for Detector Non-linearity: No (USB2+H05261)
Correct for Stray Light: No (USB2+H05261)
Number of Pixels in Processed Spectrum: 2048
>>>>>Begin Processed Spectral Data<<<<<
365.73	95.96
365.92	95.96
366.12	95.96
366.32	0.00
366.52	0.00
366.72	49.15
366.91	0.00
367.11	0.00
367.31	0.00
367.51	18.72
367.70	0.00
367.90	0.00
368.10	0.00
368.30	0.00
368.49	0.00
368.69	14.04
368.89	0.00
369.09	0.00
369.28	42.13
369.48	0.00
369.68	2.34
369.87	11.70
370.07	0.00
370.27	63.19
370.47	98.30
370.66	341.72
370.86	283.20
371.06	273.84
371.25	351.08
371.45	294.91
371.65	362.78
371.84	304.27
372.04	407.25
372.24	346.40
372.44	367.46
372.63	341.72
372.83	404.91
373.03	407.25
373.22	402.57
373.42	430.66
373.62	404.91
373.81	374.49
374.01	491.51
374.21	454.06
374.40	447.04
374.60	505.56
374.79	458.74
374.99	416.62
375.19	409.59
375.38	479.81
375.58	479.81
375.78	440.02
375.97	477.47
376.17	535.98
376.37	538.32
376.56	388.53
376.76	444.70
376.95	421.30
377.15	449.38
377.35	416.62
377.54	512.58
377.74	491.51
377.93	498.53
378.13	458.74
378.33	582.79
378.52	489.17
378.72	479.81
378.91	573.43
379.11	552.37
379.31	561.73
379.50	454.06
379.70	587.47
379.89	594.50
380.09	519.60
380.28	500.87
380.48	528.96
380.68	585.13
380.87	463.43
381.07	500.87
381.26	568.75
381.46	643.65
381.65	470.45
381.85	566.41
382.04	585.13
382.24	550.03
382.43	517.26
382.63	524.28
382.83	540.66
383.02	596.84
383.22	500.87
383.41	561.73
383.61	685.78
383.80	685.78
384.00	585.13
384.19	568.75
384.39	620.24
384.58	599.18
384.78	634.29
384.97	662.37
385.17	683.44
385.36	587.47
385.56	662.37
385.75	580.45
385.95	641.31
386.14	606.20
386.34	711.52
386.53	582.79
386.72	638.97
386.92	725.57
387.11	683.44
387.31	667.05
387.50	648.33
387.70	667.05
387.89	674.07
388.09	610.88
388.28	622.58
388.48	697.48
388.67	767.70
388.86	737.27
389.06	770.04
389.25	725.57
389.45	830.89
389.64	751.31
389.84	786.42
390.03	821.53
390.22	791.10
390.42	688.12
390.61	858.98
390.81	788.76
391.00	823.87
391.19	791.10
391.39	748.97
391.58	858.98
391.78	854.30
391.97	821.53
392.16	854.30
392.36	931.53
392.55	809.83
392.75	889.40
392.94	950.26
393.13	812.17
393.33	922.17
393.52	915.15
393.71	961.96
393.91	889.40
394.10	943.24
394.29	947.92
394.49	933.87
394.68	961.96
394.88	931.53
395.07	929.19
395.26	994.73
395.46	880.04
395.65	1011.11
395.84	1036.86
396.04	1060.26
396.23	997.07
396.42	978.34
396.62	1062.60
396.81	1067.28
397.00	1057.92
397.19	1043.88
397.39	1088.35
397.58	1055.58
397.77	950.26
397.97	1088.35
398.16	1043.88
398.35	1114.10
398.55	1151.54
398.74	1034.52
398.93	1139.84
399.12	1139.84
399.32	1116.44
399.51	1123.46
399.70	1193.67
399.90	1207.72
400.09	1193.67
400.28	1196.01
400.47	1235.80
400.67	1303.68
400.86	1252.19
401.05	1214.74
401.24	1303.68
401.44	1308.36
401.63	1380.92
401.82	1345.81
402.01	1343.47
402.21	1369.21
402.40	1362.19
402.59	1348.15
402.78	1371.55
402.97	1299.00
403.17	1479.22
403.36	1497.94
403.55	1434.75
403.74	1411.34
403.93	1577.52
404.13	1530.71
404.32	1565.82
404.51	1453.47
404.70	1584.54
404.89	1476.88
405.09	1568.16
405.28	1547.09
405.47	1575.18
405.66	1626.67
405.85	1652.42
406.05	1638.38
406.24	1638.38
406.43	1659.44
406.62	1764.76
406.81	1764.76
407.00	1736.68
407.20	1652.42
407.39	1823.28
407.58	1846.68
407.77	1813.92
407.96	1914.56
408.15	1966.05
408.34	1909.88
408.54	1790.51
408.73	1860.73
408.92	1891.15
409.11	1954.35
409.30	1935.62
409.49	1970.73
409.68	1952.01
409.87	1923.92
410.07	2076.06
410.26	2054.99
410.45	2064.35
410.64	1989.46
410.83	2054.99
411.02	2064.35
411.21	2162.66
411.40	2244.57
411.59	2211.81
411.78	2181.38
411.98	2253.94
412.17	2165.00
412.36	2237.55
412.55	2289.04
412.74	2249.25
412.93	2377.98
413.12	2314.79
413.31	2490.33
413.50	2370.96
413.69	2445.86
413.88	2502.03
414.07	2551.18
414.26	2530.12
414.45	2628.42
414.64	2574.59
414.83	2581.61
415.02	2595.65
415.22	2712.68
415.41	2691.62
415.60	2658.85
415.79	2630.76
415.98	2787.58
416.17	2778.22
416.36	2628.42
416.55	2736.09
416.74	2911.63
416.93	2913.97
417.12	2878.86
417.31	2913.97
417.50	2892.90
417.69	2981.84
417.88	3082.49
418.07	3000.57
418.26	3063.76
418.45	3087.17
418.64	3131.64
418.83	3061.42
419.02	3204.19
419.21	3234.62
419.39	3248.66
419.58	3227.60
419.77	3164.40
419.96	3215.90
420.15	3344.63
420.34	3236.96
420.53	3269.73
420.72	3325.90
420.91	3356.33
421.10	3445.27
421.29	3405.48
421.48	3370.37
421.67	3375.05
421.86	3405.48
422.05	3370.37
422.24	3384.41
422.43	3365.69
422.61	3421.86
422.80	3609.11
422.99	3566.98
423.18	3676.98
423.37	3625.49
423.56	3585.70
423.75	3583.36
423.94	3435.91
424.13	3248.66
424.32	3386.76
424.50	3566.98
424.69	3634.85
424.88	3613.79
425.07	3419.52
425.26	3492.08
425.45	3653.58
425.64	3627.83
425.83	3634.85
426.01	3552.93
426.20	3737.84
426.39	3651.24
426.58	3609.11
426.77	3679.32
426.96	3705.07
427.15	3728.47
427.33	3611.45
427.52	3676.98
427.71	3782.31
427.90	3747.20
428.09	3836.14
428.28	3789.33
428.46	3885.29
428.65	3955.51
428.84	4016.36
429.03	4112.32
429.22	3866.56
429.40	4060.83
429.59	3995.29
429.78	3742.52
429.97	3878.27
430.16	3882.95
430.34	4112.32
430.53	4138.07
430.72	4173.18
430.91	4131.05
431.10	4161.47
431.28	4196.58
431.47	4053.81
431.66	4161.47
431.85	4119.34
432.03	4269.14
432.22	4222.33
432.41	4212.96
432.60	4290.20
432.79	4215.30
432.97	4285.52
433.16	4266.80
433.35	4360.42
433.54	4535.96
433.72	4390.84
433.91	4470.42
434.10	4386.16
434.28	4372.12
434.47	4587.45
434.66	4470.42
434.85	4458.72
435.03	4552.34
435.22	4608.51
435.41	4746.61
435.59	4737.24
435.78	4657.67
435.97	4664.69
436.16	4683.41
436.34	4777.03
436.53	4620.22
436.72	4917.47
436.90	4751.29
437.09	4798.10
437.28	4660.01
437.46	4772.35
437.65	4861.29
437.84	5060.24
438.02	4999.38
438.21	4990.02
438.40	4826.18
438.58	5036.83
438.77	5029.81
438.96	5085.98
439.14	5151.52
439.33	5224.08
439.52	5249.82
439.70	5252.16
439.89	5341.10
440.08	5483.88
440.26	5352.81
440.45	5486.22
440.63	5425.36
440.82	5432.38
441.01	5493.24
441.19	5493.24
441.38	5593.88
441.57	5589.20
441.75	5706.23
441.94	5753.04
442.12	5767.08
442.31	5886.45
442.50	5977.73
442.68	5722.61
442.87	5774.10
443.05	5966.03
443.24	5949.64
443.43	5954.32
443.61	5912.19
443.80	6066.67
443.98	5926.24
444.17	5717.93
444.35	6057.31
444.54	6031.56
444.73	6125.18
444.91	6033.90
445.10	6094.76
445.28	6099.44
445.47	5907.51
445.65	5937.94
445.84	6251.57
446.02	6186.04
446.21	6150.93
446.39	6031.56
446.58	6171.99
446.77	6242.21
446.95	5984.75
447.14	6169.65
447.32	6347.53
447.51	6134.54
447.69	6204.76
447.88	6204.76
448.06	6228.17
448.25	6162.63
448.43	6417.75
448.62	6253.91
448.80	6289.02
448.99	6265.61
449.17	6211.78
449.36	6274.98
449.54	6340.51
449.73	6476.26
449.91	6445.84
450.10	6452.86
450.28	6590.95
450.46	6682.23
450.65	6480.94
450.83	6855.43
451.02	6698.61
451.20	6789.89
451.39	6857.77
451.57	6649.46
451.76	6504.35
451.94	6707.98
452.13	6841.39
452.31	6841.39
452.49	6719.68
452.68	6808.62
452.86	6806.28
453.05	6935.01
453.23	6890.54
453.42	6696.27
453.60	6995.86
453.78	6960.75
453.97	6682.23
454.15	7014.59
454.34	7007.56
454.52	7145.66
454.70	6960.75
454.89	7112.89
455.07	7056.72
455.26	7199.49
455.44	7255.66
455.62	7302.47
455.81	7213.53
455.99	7389.07
456.17	7152.68
456.36	7356.30
456.54	7492.05
456.73	7403.11
456.91	7461.63
457.09	7391.41
457.28	7693.34
457.46	7492.05
457.64	7599.72
457.83	7630.15
458.01	7536.52
458.19	7763.56
458.38	7613.76
458.56	7840.79
458.74	7723.77
458.93	7597.38
459.11	7929.74
459.29	7789.30
459.48	8025.70
459.66	8091.23
459.84	7929.74
460.03	8107.62
460.21	8023.36
460.39	7971.86
460.57	8128.68
460.76	8049.10
460.94	8175.49
461.12	8226.98
461.31	8126.34
461.49	8226.98
461.67	7974.21
461.85	8407.20
462.04	8276.13
462.22	8767.65
462.40	8325.29
462.59	8404.86
462.77	8538.27
462.95	8535.93
463.13	8458.70
463.32	8596.79
463.50	8519.55
463.68	8791.05
463.86	8552.32
464.05	8613.17
464.23	8711.47
464.41	8732.54
464.59	8552.32
464.78	8821.48
464.96	8753.60
465.14	8692.75
465.32	9046.17
465.50	8744.24
465.69	8912.76
465.87	8840.20
466.05	8908.08
466.23	8784.03
466.41	9036.81
466.60	9114.05
466.78	8875.31
466.96	8992.34
467.14	8725.52
467.32	9308.31
467.51	9329.38
467.69	9034.47
467.87	8973.61
468.05	9071.92
468.23	8821.48
468.41	9029.79
468.60	9114.05
468.78	9327.03
468.96	9238.09
469.14	9535.34
469.32	9474.49
469.50	8997.02
469.69	9247.46
469.87	9638.33
470.05	9530.66
470.23	9659.39
470.41	9540.02
470.59	9783.44
470.77	9820.89
470.95	9748.33
471.14	9856.00
471.32	9666.41
471.50	10038.56
471.68	10010.47
471.86	10204.74
472.04	10146.22
472.22	10239.84
472.40	9909.83
472.58	10059.62
472.77	10242.18
472.95	10258.57
473.13	10555.82
473.31	10218.78
473.49	10148.56
473.67	10352.19
473.85	10438.79
474.03	10485.60
474.21	10712.63
474.39	10839.02
474.57	10726.68
474.75	10754.76
474.93	10881.15
475.12	10829.66
475.30	11248.61
475.48	10960.73
475.66	11246.27
475.84	11070.73
476.02	11447.56
476.20	11323.51
476.38	11330.53
476.56	11641.82
476.74	11602.04
476.92	11651.19
477.10	11719.06
477.28	12042.06
477.46	11833.75
477.64	11789.28
477.82	12035.03
478.00	12486.76
478.18	12414.20
478.36	12531.23
478.54	12484.42
478.72	12699.75
478.90	12688.04
479.08	12898.69
479.26	12772.30
479.44	13008.70
479.62	13319.99
479.80	12961.89
479.98	13188.92
480.16	13366.80
480.34	13390.20
480.52	13427.65
480.70	13652.34
480.88	13537.66
481.06	13556.38
481.24	13860.65
481.41	13912.14
481.59	14342.80
481.77	14354.51
481.95	14258.54
482.13	14249.18
482.31	14345.14
482.49	14476.21
482.67	14698.56
482.85	15054.33
483.03	15206.46
483.21	15059.01
483.39	15510.73
483.57	15119.86
483.74	15370.30
483.92	15522.43
484.10	15634.78
484.28	15751.81
484.46	16194.17
484.64	16306.51
484.82	16035.01
485.00	16386.09
485.18	16386.09
485.35	16720.79
485.53	16662.27
485.71	16882.28
485.89	17247.41
486.07	16964.20
486.25	17495.50
486.43	17401.88
486.61	17385.50
486.78	17593.81
486.96	17860.63
487.14	17886.37
487.32	18188.30
487.50	18064.25
487.68	18450.44
487.85	18757.05
488.03	18562.79
488.21	18829.61
488.39	18906.85
488.57	19143.24
488.75	19154.94
488.92	19679.22
489.10	19646.46
489.28	19461.55
489.46	19829.02
489.64	19929.66
489.81	20325.21
489.99	20479.69
490.17	20315.85
490.35	20416.49
490.53	20486.71
490.70	20802.68
490.88	20559.27
491.06	21165.46
491.24	21029.71
491.41	21186.53
491.59	21813.79
491.77	21137.38
491.95	21603.14
492.13	21668.68
492.30	22050.19
492.48	21785.71
492.66	22136.79
492.84	22389.56
493.01	22522.98
493.19	22361.48
493.37	22890.44
493.54	22595.53
493.72	22965.34
493.90	23498.98
494.08	23733.03
494.25	23482.59
494.43	23290.67
494.61	24107.52
494.79	24041.98
494.96	23711.97
495.14	24184.76
495.32	24098.16
495.49	24603.71
495.67	24357.96
495.85	24498.39
496.02	24898.62
496.20	25132.67
496.38	25172.46
496.55	25245.02
496.73	25216.93
496.91	25312.89
497.09	25619.50
497.26	25713.13
497.44	25486.09
497.62	25900.37
497.79	25923.77
497.97	26380.18
498.14	26501.89
498.32	26487.84
498.50	26525.29
498.67	26843.60
498.85	26782.75
499.03	26897.44
499.20	27096.38
499.38	26930.20
499.56	26859.99
499.73	27384.27
499.91	27812.59
500.08	27597.26
500.26	27653.43
500.44	27941.32
500.61	27777.48
500.79	27697.90
500.97	28591.98
501.14	28390.70
501.32	28348.57
501.49	28381.34
501.67	28517.09
501.84	28917.32
502.02	28716.03
502.20	28783.91
502.37	29083.50
502.55	28980.51
502.72	29036.69
502.90	29055.41
503.07	29244.99
503.25	29359.68
503.43	29301.17
503.60	29736.51
503.78	29729.48
503.95	29525.86
504.13	29741.19
504.30	30064.18
504.48	30141.42
504.65	30033.75
504.83	30354.41
505.01	30590.80
505.18	30551.01
505.36	30469.09
505.53	30352.07
505.71	30824.86
505.88	31047.21
506.06	30892.73
506.23	31325.73
506.41	31218.07
506.58	31150.19
506.76	31105.72
506.93	31211.04
507.11	31302.32
507.28	31484.89
507.46	31744.69
507.63	31690.85
507.81	31838.31
507.98	31728.30
508.16	31995.12
508.33	32081.72
508.50	32423.44
508.68	32774.52
508.85	32507.70
509.03	32540.47
509.20	32371.95
509.38	32552.17
509.55	33020.28
509.73	33221.56
509.90	32826.01
510.08	32945.38
510.25	33216.88
510.42	33034.32
510.60	33336.25
510.77	33549.24
510.95	33832.44
511.12	33455.62
511.30	34075.86
511.47	34085.22
511.64	33841.81
511.82	33755.21
511.99	33813.72
512.17	34239.70
512.34	34209.27
512.51	34359.06
512.69	34665.67
512.86	34543.97
513.04	34696.10
513.21	34773.34
513.38	34672.70
513.56	35005.05
513.73	34866.96
513.90	34796.74
514.08	35281.24
514.25	35285.92
514.43	35290.60
514.60	35660.40
514.77	35529.33
514.95	35545.72
515.12	35281.24
515.29	35531.67
515.47	36203.41
515.64	36215.11
515.81	36191.70
515.99	36177.66
516.16	36694.92
516.33	36170.64
516.51	36809.61
516.68	36715.98
516.85	36938.33
517.03	37010.89
517.20	36669.17
517.37	36648.11
517.54	36701.94
517.72	37158.34
517.89	36950.04
518.06	36926.63
518.24	37312.82
518.41	36975.78
518.58	37160.69
518.75	37596.03
518.93	37642.84
519.10	37212.18
519.27	37764.54
519.45	37504.74
519.62	37663.90
519.79	38080.52
519.96	38211.59
520.14	38464.36
520.31	37591.34
520.48	38412.87
520.65	38066.47
520.83	38218.61
521.00	38459.68
521.17	38602.46
521.34	38497.13
521.52	38988.64
521.69	38951.20
521.86	38625.86
522.03	39318.66
522.20	38974.60
522.38	38990.98
522.55	39421.64
522.72	39440.37
522.89	39363.13
523.07	39533.99
523.24	39152.48
523.41	39384.19
523.58	39388.88
523.75	39852.30
523.92	39709.53
524.10	39894.43
524.27	39962.31
524.44	40149.55
524.61	40407.01
524.78	40107.42
524.96	40126.14
525.13	40725.32
525.30	41067.04
525.47	40568.51
525.64	40444.46
525.81	40699.58
525.98	40790.86
526.16	40762.77
526.33	40809.58
526.50	41532.81
526.67	40975.76
526.84	41507.06
527.01	40512.33
527.18	41474.29
527.36	41446.21
527.53	41198.11
527.70	41181.73
527.87	41193.43
528.04	41453.23
528.21	41535.15
528.38	41553.87
528.55	42045.38
528.72	41823.03
528.89	41783.24
529.07	41684.94
529.24	41808.99
529.41	42288.80
529.58	41797.29
529.75	42045.38
529.92	42312.20
530.09	42192.84
530.26	42398.80
530.43	42543.92
530.60	42298.16
530.77	42642.22
530.94	42934.79
531.11	42564.98
531.28	42946.49
531.46	42920.74
531.63	42609.45
531.80	42918.40
531.97	43012.02
532.14	43093.94
532.31	43234.38
532.48	43456.73
532.65	43208.63
532.82	43189.91
532.99	43564.39
533.16	43292.89
533.33	43681.42
533.50	43597.16
533.67	43604.18
533.84	43384.17
534.01	43409.92
534.18	43634.61
534.35	43634.61
534.52	43622.90
534.69	44165.91
534.86	43641.63
535.03	43564.39
535.20	43503.54
535.37	44294.64
535.54	44395.28
535.71	44076.97
535.88	44149.53
536.05	44271.23
536.22	44727.64
536.38	44306.34
536.55	44524.01
536.72	44163.57
536.89	43899.09
537.06	44704.23
537.23	44839.98
537.40	44732.32
537.57	44409.32
537.74	44891.48
537.91	45017.86
538.08	45055.31
538.25	44563.80
538.42	44706.57
538.59	45359.58
538.75	44783.81
538.92	45071.70
539.09	45558.53
539.26	45558.53
539.43	45542.14
539.60	45535.12
539.77	45429.80
539.94	45495.33
540.11	45659.17
540.28	45511.72
540.44	45865.14
540.61	45687.26
540.78	45764.49
540.95	46080.47
541.12	45883.86
541.29	46265.37
541.46	45509.38
541.62	45776.20
541.79	45982.16
541.96	45471.93
542.13	46227.92
542.30	46347.29
542.47	46422.19
542.63	46171.75
542.80	46305.16
542.97	46590.70
543.14	46920.72
543.31	46782.63
543.48	46782.63
543.64	47222.65
543.81	47306.91
543.98	47079.88
544.15	47023.70
544.32	46834.12
544.48	47239.03
544.65	47086.90
544.82	47393.51
544.99	46614.11
545.16	47538.62
545.32	47437.98
545.49	47679.05
545.66	47660.33
545.83	47246.05
546.00	47538.62
546.16	47365.42
546.33	47601.82
546.50	47021.36
546.67	47686.07
546.83	47283.50
547.00	47566.71
547.17	47728.20
547.34	47859.27
547.50	47704.80
547.67	47608.84
547.84	47826.51
548.00	48212.70
548.17	48161.20
548.34	48301.64
548.51	48608.25
548.67	47686.07
548.84	47906.08
549.01	47835.87
549.18	48353.13
549.34	48137.80
549.51	48053.54
549.68	48343.77
549.84	48147.16
550.01	48587.18
550.18	47964.60
550.34	48121.41
550.51	48430.36
550.68	48465.47
550.84	48289.93
551.01	48315.68
551.18	48488.88
551.34	48580.16
551.51	48540.37
551.68	48832.94
551.84	48966.35
552.01	48498.24
552.18	48648.03
552.34	48959.33
552.51	49104.44
552.68	48868.05
552.84	48573.14
553.01	49347.86
553.18	49137.21
553.34	49247.21
553.51	48694.85
553.67	49071.67
553.84	48987.41
554.01	49216.78
554.17	49123.16
554.34	49514.03
554.51	49287.00
554.67	49544.46
554.84	49413.39
555.00	49324.45
555.17	49366.58
555.33	49301.04
555.50	48868.05
555.67	49254.23
555.83	49762.13
556.00	49631.06
556.16	50073.42
556.33	49776.17
556.50	49773.83
556.66	49895.54
556.83	49588.93
556.99	49874.48
557.16	49530.42
557.32	49851.07
557.49	50010.23
557.65	49715.32
557.82	50057.04
557.98	49986.82
558.15	50134.28
558.32	49961.08
558.48	50153.00
558.65	49822.98
558.81	49675.53
558.98	49537.44
559.14	50024.27
559.31	49656.81
559.47	50047.68
559.64	50389.39
559.80	50110.87
559.97	50138.96
560.13	50148.32
560.30	50178.75
560.46	50145.98
560.63	50326.20
560.79	50326.20
560.96	50223.22
561.12	50284.07
561.29	50365.99
561.45	50094.49
561.61	50508.76
561.78	50260.66
561.94	50021.93
562.11	50312.16
562.27	50174.06
562.44	50120.23
562.60	50281.73
562.77	50422.16
562.93	50653.87
563.10	50859.84
563.26	50637.49
563.42	50761.54
563.59	50342.58
563.75	50361.31
563.92	50820.05
564.08	50475.99
564.24	50621.11
564.41	50782.60
564.57	50754.52
564.74	50618.77
564.90	50735.79
565.07	50213.85
565.23	50663.24
565.39	50504.08
565.56	50246.62
565.72	50827.07
565.88	50487.70
566.05	50777.92
566.21	50988.57
566.38	50850.48
566.54	50908.99
566.70	51105.60
566.87	50845.80
567.03	50625.79
567.19	50930.06
567.36	50721.75
567.52	51042.40
567.68	51269.43
567.85	50911.33
568.01	51016.66
568.17	50892.61
568.34	51054.11
568.50	50822.39
568.66	50728.77
568.83	51283.48
568.99	50674.94
569.15	50679.62
569.32	51054.11
569.48	50923.04
569.64	51150.07
569.81	51089.21
569.97	50965.17
570.13	51213.26
570.30	50883.25
570.46	50852.82
570.62	51199.22
570.78	51037.72
570.95	50644.51
571.11	50990.91
571.27	50766.22
571.43	51220.28
571.60	51529.23
571.76	51016.66
571.92	50995.59
572.09	50672.60
572.25	51428.59
572.41	51187.52
572.57	51084.53
572.74	51742.22
572.90	51306.88
573.06	51061.13
573.22	51154.75
573.38	51192.20
573.55	51367.74
573.71	51208.58
573.87	51229.65
574.03	51180.49
574.20	51082.19
574.36	50965.17
574.52	51000.27
574.68	51239.01
574.84	51639.24
575.01	51185.18
575.17	51360.72
575.33	51072.83
575.49	50988.57
575.65	51409.87
575.82	51639.24
575.98	51276.46
576.14	51716.48
576.30	51763.29
576.46	51599.45
576.62	51447.32
576.79	51447.32
576.95	51070.49
577.11	51435.61
577.27	51569.02
577.43	51519.87
577.59	51264.75
577.75	51365.40
577.92	51112.62
578.08	51278.80
578.24	51407.53
578.40	51463.70
578.56	51194.54
578.72	51632.22
578.88	51480.08
579.04	51538.60
579.21	51185.18
579.37	51388.80
579.53	51503.49
579.69	51309.22
579.85	51782.01
580.01	51718.82
580.17	51510.51
580.33	51667.33
580.49	51622.86
580.65	51634.56
580.82	51180.49
580.98	51341.99
581.14	51302.20
581.30	51178.15
581.46	51657.96
581.62	51512.85
581.78	51573.70
581.94	51674.35
582.10	51454.34
582.26	51470.72
582.42	51416.89
582.58	51569.02
582.74	51234.33
582.90	51629.88
583.06	51459.02
583.22	51208.58
583.38	51789.03
583.54	51669.67
583.70	51880.31
583.86	51784.35
584.02	51597.11
584.18	51833.50
584.34	51384.12
584.50	51763.29
584.66	51657.96
584.82	51573.70
584.98	51592.43
585.14	51833.50
585.30	51456.68
585.46	51725.84
585.62	51833.50
585.78	51840.53
585.94	51327.95
586.10	51297.52
586.26	51466.04
586.42	51503.49
586.58	51517.53
586.74	51444.98
586.90	51604.13
587.06	51697.75
587.22	52069.90
587.38	51835.84
587.54	52053.51
587.70	51957.55
587.86	51887.34
588.02	52009.04
588.18	51866.27
588.34	51723.50
588.49	51819.46
588.65	51683.71
588.81	51938.83
588.97	51877.97
589.13	51784.35
589.29	52095.64
589.45	51952.87
589.61	51906.06
589.77	52147.14
589.93	51737.54
590.08	52006.70
590.24	51882.66
590.40	51924.78
