SpectraSuite Data File
++++++++++++++++++++++++++++++++++++
Date: Fri Oct 04 11:39:41 GMT-05:00 2013
User: price-jones
Dark Spectrum Present: No
Reference Spectrum Present: No
Number of Sampled Component Spectra: 1
Spectrometers: USB2+H05261
Integration Time (usec): 100000 (USB2+H05261)
Spectra Averaged: 1 (USB2+H05261)
Boxcar Smoothing: 0 (USB2+H05261)
Correct for Electrical Dark: No (USB2+H05261)
Strobe/Lamp Enabled: No (USB2+H05261)
Correct for Detector Non-linearity: No (USB2+H05261)
Correct for Stray Light: No (USB2+H05261)
Number of Pixels in Processed Spectrum: 2048
>>>>>Begin Processed Spectral Data<<<<<
365.73	74.90
365.92	74.90
366.12	74.90
366.32	0.00
366.52	0.00
366.72	58.51
366.91	25.75
367.11	0.00
367.31	0.00
367.51	0.00
367.70	0.00
367.90	23.41
368.10	0.00
368.30	0.00
368.49	0.00
368.69	0.00
368.89	0.00
369.09	0.00
369.28	0.00
369.48	0.00
369.68	0.00
369.87	18.72
370.07	0.00
370.27	117.03
370.47	35.11
370.66	161.50
370.86	320.65
371.06	344.06
371.25	238.73
371.45	311.29
371.65	196.60
371.84	222.35
372.04	217.67
372.24	372.15
372.44	248.10
372.63	299.59
372.83	360.44
373.03	299.59
373.22	322.99
373.42	297.25
373.62	306.61
373.81	374.49
374.01	388.53
374.21	325.33
374.40	372.15
374.60	358.10
374.79	393.21
374.99	351.08
375.19	404.91
375.38	339.38
375.58	351.08
375.78	397.89
375.97	458.74
376.17	351.08
376.37	390.87
376.56	411.93
376.76	430.66
376.95	341.72
377.15	358.10
377.35	346.40
377.54	379.17
377.74	353.42
377.93	411.93
378.13	423.64
378.33	351.08
378.52	365.12
378.72	414.27
378.91	454.06
379.11	397.89
379.31	386.19
379.50	369.80
379.70	402.57
379.89	444.70
380.09	489.17
380.28	388.53
380.48	395.55
380.68	308.95
380.87	433.00
381.07	435.34
381.26	486.83
381.46	514.92
381.65	447.04
381.85	444.70
382.04	498.53
382.24	505.56
382.43	442.36
382.63	463.43
382.83	383.85
383.02	493.85
383.22	461.09
383.41	435.34
383.61	428.32
383.80	517.26
384.00	512.58
384.19	402.57
384.39	496.19
384.58	477.47
384.78	524.28
384.97	592.16
385.17	430.66
385.36	461.09
385.56	496.19
385.75	379.17
385.95	491.51
386.14	507.90
386.34	559.39
386.53	486.83
386.72	496.19
386.92	601.52
387.11	550.03
387.31	631.94
387.50	486.83
387.70	491.51
387.89	543.00
388.09	507.90
388.28	589.82
388.48	521.94
388.67	559.39
388.86	606.20
389.06	561.73
389.25	550.03
389.45	709.18
389.64	580.45
389.84	688.12
390.03	662.37
390.22	716.20
390.42	589.82
390.61	524.28
390.81	606.20
391.00	624.92
391.19	603.86
391.39	613.22
391.58	606.20
391.78	704.50
391.97	676.41
392.16	624.92
392.36	737.27
392.55	706.84
392.75	774.72
392.94	674.07
393.13	739.61
393.33	709.18
393.52	777.06
393.71	720.88
393.91	823.87
394.10	772.38
394.29	767.70
394.49	777.06
394.68	835.57
394.88	823.87
395.07	758.33
395.26	760.67
395.46	730.25
395.65	760.67
395.84	840.25
396.04	837.91
396.23	858.98
396.42	814.51
396.62	856.64
396.81	957.28
397.00	819.19
397.19	844.93
397.39	877.70
397.58	849.61
397.77	830.89
397.97	814.51
398.16	875.36
398.35	945.58
398.55	873.02
398.74	884.72
398.93	999.41
399.12	1011.11
399.32	950.26
399.51	992.39
399.70	964.30
399.90	1020.47
400.09	973.66
400.28	1053.24
400.47	1060.26
400.67	1069.62
400.86	1067.28
401.05	1057.92
401.24	1027.50
401.44	1039.20
401.63	1149.20
401.82	1233.46
402.01	1137.50
402.21	1130.48
402.40	1156.22
402.59	1160.91
402.78	1111.75
402.97	1212.40
403.17	1179.63
403.36	1210.06
403.55	1165.59
403.74	1158.57
403.93	1313.04
404.13	1423.05
404.32	1313.04
404.51	1254.53
404.70	1329.42
404.89	1282.61
405.09	1268.57
405.28	1289.64
405.47	1383.26
405.66	1350.49
405.85	1371.55
406.05	1467.52
406.24	1369.21
406.43	1462.83
406.62	1502.62
406.81	1617.31
407.00	1493.26
407.20	1500.28
407.39	1516.67
407.58	1596.25
407.77	1544.75
407.96	1610.29
408.15	1607.95
408.34	1575.18
408.54	1572.84
408.73	1696.89
408.92	1645.40
409.11	1610.29
409.30	1790.51
409.49	1785.83
409.68	1631.35
409.87	1717.95
410.07	1832.64
410.26	1783.49
410.45	1823.28
410.64	1842.00
410.83	1795.19
411.02	1846.68
411.21	1933.28
411.40	1806.89
411.59	1973.07
411.78	2022.22
411.98	1928.60
412.17	1991.80
412.36	2057.33
412.55	2097.12
412.74	2176.70
412.93	2157.97
413.12	2174.36
413.31	2209.47
413.50	2338.20
413.69	2216.49
413.88	2321.81
414.07	2284.36
414.26	2239.89
414.45	2389.69
414.64	2406.07
414.83	2312.45
415.02	2354.58
415.22	2359.26
415.41	2569.91
415.60	2499.69
415.79	2537.14
415.98	2520.76
416.17	2544.16
416.36	2567.57
416.55	2619.06
416.74	2642.46
416.93	2712.68
417.12	2733.75
417.31	2750.13
417.50	2799.28
417.69	2825.03
417.88	2834.39
418.07	2860.13
418.26	2981.84
418.45	2850.77
418.64	2867.16
418.83	2998.23
419.02	2965.46
419.21	2935.03
419.39	2911.63
419.58	2953.76
419.77	2979.50
419.96	2981.84
420.15	3089.51
420.34	3047.38
420.53	3119.93
420.72	3220.58
420.91	3148.02
421.10	3166.74
421.29	3197.17
421.48	3145.68
421.67	3218.24
421.86	3269.73
422.05	3428.88
422.24	3297.81
422.43	3243.98
422.61	3243.98
422.80	3300.16
422.99	3370.37
423.18	3325.90
423.37	3494.42
423.56	3445.27
423.75	3473.36
423.94	3412.50
424.13	3145.68
424.32	3353.99
424.50	3407.82
424.69	3475.70
424.88	3487.40
425.07	3456.97
425.26	3499.10
425.45	3314.20
425.64	3400.80
425.83	3398.46
426.01	3492.08
426.20	3485.06
426.39	3541.23
426.58	3506.12
426.77	3463.99
426.96	3515.48
427.15	3555.27
427.33	3684.00
427.52	3566.98
427.71	3478.04
427.90	3625.49
428.09	3555.27
428.28	3522.51
428.46	3676.98
428.65	3749.54
428.84	3805.71
429.03	3864.22
429.22	3765.92
429.40	3744.86
429.59	3805.71
429.78	3705.07
429.97	3655.92
430.16	3702.73
430.34	3868.91
430.53	3873.59
430.72	3946.14
430.91	4002.32
431.10	3868.91
431.28	4035.08
431.47	4065.51
431.66	4053.81
431.85	3950.82
432.03	4011.68
432.22	4262.12
432.41	4131.05
432.60	4095.94
432.79	4142.75
432.97	4236.37
433.16	4161.47
433.35	4191.90
433.54	4212.96
433.72	4264.46
433.91	4168.49
434.10	4287.86
434.28	4212.96
434.47	4191.90
434.66	4365.10
434.85	4355.74
435.03	4458.72
435.22	4514.89
435.41	4905.76
435.59	4865.97
435.78	4622.56
435.97	4578.09
436.16	4638.94
436.34	4353.40
436.53	4512.55
436.72	4699.80
436.90	4477.44
437.09	4685.75
437.28	4587.45
437.46	4526.60
437.65	4660.01
437.84	4655.33
438.02	4674.05
438.21	4760.65
438.40	4711.50
438.58	4692.77
438.77	4837.89
438.96	4784.06
439.14	4912.78
439.33	5132.79
439.52	5055.56
439.70	5018.11
439.89	5034.49
440.08	5247.48
440.26	5093.01
440.45	5203.01
440.63	5210.03
440.82	5280.25
441.01	5224.08
441.19	5289.61
441.38	5476.85
441.57	5469.83
441.75	5401.96
441.94	5385.57
442.12	5589.20
442.31	5554.09
442.50	5762.40
442.68	5451.11
442.87	5610.26
443.05	5572.82
443.24	5746.02
443.43	5734.31
443.61	5757.72
443.80	5837.30
443.98	5544.73
444.17	5530.69
444.35	5654.73
444.54	5909.85
444.73	5806.87
444.91	5748.36
445.10	5753.04
445.28	5879.43
445.47	5633.67
445.65	5701.54
445.84	5715.59
446.02	5928.58
446.21	5863.04
446.39	5802.19
446.58	5757.72
446.77	5944.96
446.95	5701.54
447.14	5823.25
447.32	5987.09
447.51	5764.74
447.69	5893.47
447.88	5980.07
448.06	5956.66
448.25	5837.30
448.43	6008.16
448.62	5994.11
448.80	6047.94
448.99	5944.96
449.17	6003.47
449.36	5937.94
449.54	6258.59
449.73	6094.76
449.91	6050.28
450.10	6183.70
450.28	6300.72
450.46	6244.55
450.65	6366.26
450.83	6352.21
451.02	6129.86
451.20	6406.05
451.39	6270.30
451.57	6113.48
451.76	6279.66
451.94	6469.24
452.13	6593.29
452.31	6363.92
452.49	6434.13
452.68	6530.09
452.86	6523.07
453.05	6422.43
453.23	6604.99
453.42	6462.22
453.60	6487.96
453.78	6546.48
453.97	6368.60
454.15	6541.80
454.34	6520.73
454.52	6799.26
454.70	6602.65
454.89	6686.91
455.07	6892.88
455.26	6825.00
455.44	6689.25
455.62	6857.77
455.81	6808.62
455.99	7045.01
456.17	6878.83
456.36	6993.52
456.54	7117.57
456.73	7014.59
456.91	7370.35
457.09	7138.63
457.28	7325.88
457.46	7211.19
457.64	7199.49
457.83	7178.42
458.01	7101.19
458.19	7375.03
458.38	7180.76
458.56	7260.34
458.74	7272.04
458.93	7286.09
459.11	7337.58
459.29	7527.16
459.48	7461.63
459.66	7487.37
459.84	7494.40
460.03	7559.93
460.21	7482.69
460.39	7702.70
460.57	7634.83
460.76	7698.02
460.94	7653.55
461.12	7793.98
461.31	7712.07
461.49	7669.94
461.67	7730.79
461.85	7950.80
462.04	7756.54
462.22	8173.15
462.40	7779.94
462.59	8077.19
462.77	7824.41
462.95	7969.52
463.13	7981.23
463.32	7946.12
463.50	8035.06
463.68	8002.29
463.86	8072.51
464.05	7915.69
464.23	8072.51
464.41	8070.17
464.59	7857.18
464.78	8264.43
464.96	8170.81
465.14	8013.99
465.32	8280.82
465.50	8318.26
465.69	8212.94
465.87	8194.22
466.05	8273.79
466.23	8278.47
466.41	8489.12
466.60	8683.39
466.78	8358.05
466.96	8365.07
467.14	8409.54
467.32	8496.14
467.51	8510.19
467.69	8170.81
467.87	8608.49
468.05	8498.49
468.23	8542.96
468.41	8341.67
468.60	8517.21
468.78	8561.68
468.96	8683.39
469.14	8739.56
469.32	8774.67
469.50	8571.04
469.69	8868.29
469.87	8844.88
470.05	8957.23
470.23	8854.25
470.41	8987.66
470.59	9050.85
470.77	9053.19
470.95	9128.09
471.14	9200.65
471.32	8985.32
471.50	9132.77
471.68	9261.50
471.86	9266.18
472.04	9408.95
472.22	9500.23
472.40	9308.31
472.58	9378.53
472.77	9348.10
472.95	9535.34
473.13	9781.10
473.31	9514.28
473.49	9600.88
473.67	9708.54
473.85	9586.83
474.03	9755.35
474.21	9884.08
474.39	9898.13
474.57	9879.40
474.75	10010.47
474.93	10113.45
475.12	10209.42
475.30	10195.37
475.48	10249.21
475.66	10200.05
475.84	10200.05
476.02	10281.97
476.20	10352.19
476.38	10569.86
476.56	10665.82
476.74	10647.10
476.92	10602.63
477.10	10876.47
477.28	11007.54
477.46	10977.11
477.64	11007.54
477.82	11061.37
478.00	11255.64
478.18	11513.10
478.36	11356.28
478.54	11690.98
478.72	11651.19
478.90	11651.19
479.08	11990.56
479.26	11852.47
479.44	11908.65
479.62	12208.23
479.80	11939.07
479.98	12107.59
480.16	12273.77
480.34	11988.22
480.52	12652.94
480.70	12695.07
480.88	12453.99
481.06	12500.80
481.24	12453.99
481.41	12713.79
481.59	12973.59
481.77	12980.61
481.95	13355.10
482.13	13341.05
482.31	13170.19
482.49	13554.04
482.67	13469.78
482.85	13633.62
483.03	13947.25
483.21	14122.79
483.39	14188.33
483.57	13965.98
483.74	14295.99
483.92	14143.86
484.10	14319.40
484.28	14417.70
484.46	14848.36
484.64	15023.90
484.82	14768.78
485.00	14860.06
485.18	14951.34
485.35	15412.43
485.53	15084.75
485.71	15482.64
485.89	15550.52
486.07	15644.14
486.25	15777.55
486.43	15875.85
486.61	15950.75
486.78	15927.35
486.96	16215.23
487.14	16692.70
487.32	16538.23
487.50	16671.64
487.68	16697.38
487.85	16659.93
488.03	16947.82
488.21	17294.22
488.39	17118.68
488.57	17642.96
488.75	17657.00
488.92	17961.27
489.10	17818.50
489.28	17994.04
489.46	17790.41
489.64	18195.32
489.81	18515.98
489.99	18574.49
490.17	18466.83
490.35	18780.46
490.53	18850.67
490.70	18761.73
490.88	18972.38
491.06	19337.51
491.24	18899.83
491.41	19386.66
491.59	19623.05
491.77	19840.72
491.95	19941.36
492.13	19798.59
492.30	19763.48
492.48	20009.24
492.66	20056.05
492.84	19962.43
493.01	20500.75
493.19	20355.64
493.37	20851.83
493.54	20648.21
493.72	21275.47
493.90	20819.07
494.08	21167.80
494.25	21298.88
494.43	21486.12
494.61	21647.61
494.79	21661.66
494.96	21619.53
495.14	21778.68
495.32	22001.04
495.49	21991.67
495.67	22192.96
495.85	22274.88
496.02	22391.91
496.20	22434.03
496.38	22679.79
496.55	22841.29
496.73	23073.00
496.91	22874.06
497.09	23159.60
497.26	23381.95
497.44	23009.81
497.62	23566.85
497.79	23503.66
497.97	23700.26
498.14	23836.02
498.32	23971.77
498.50	24105.18
498.67	24542.86
498.85	24084.11
499.03	24201.14
499.20	24631.80
499.38	24428.17
499.56	24926.71
499.73	24685.63
499.91	24912.66
500.08	25081.18
500.26	24718.40
500.44	25153.74
500.61	25111.61
500.79	25338.64
500.97	25284.81
501.14	25701.42
501.32	25671.00
501.49	25439.28
501.67	25518.86
501.84	25598.44
502.02	25509.50
502.20	25778.66
502.37	25958.88
502.55	26106.34
502.72	26040.80
502.90	26436.35
503.07	26075.91
503.25	26546.36
503.43	26045.48
503.60	26775.73
503.78	26436.35
503.95	26436.35
504.13	26494.86
504.30	26845.94
504.48	26794.45
504.65	27168.94
504.83	27267.24
505.01	27442.78
505.18	27372.57
505.36	27697.90
505.53	27318.73
505.71	27545.76
505.88	27838.33
506.06	27520.02
506.23	28013.87
506.41	27927.27
506.58	28247.93
506.76	28219.84
506.93	28018.55
507.11	28133.24
507.28	28023.23
507.46	28542.83
507.63	28336.87
507.81	28793.27
507.98	28467.94
508.16	28816.68
508.33	28739.44
508.50	28648.16
508.68	28914.98
508.85	29179.46
509.03	29050.73
509.20	29544.58
509.38	29722.46
509.55	29799.70
509.73	29626.50
509.90	29521.18
510.08	29607.78
510.25	29788.00
510.42	30075.88
510.60	29947.15
510.77	30040.78
510.95	30464.41
511.12	29790.34
511.30	29883.96
511.47	30171.85
511.64	30160.14
511.82	30693.79
511.99	30675.06
512.17	30976.99
512.34	30700.81
512.51	31112.74
512.69	30855.28
512.86	30909.11
513.04	31197.00
513.21	31391.26
513.38	31187.64
513.56	31730.64
513.73	31131.47
513.90	31407.65
514.08	31487.23
514.25	31555.10
514.43	31737.66
514.60	31735.32
514.77	32297.05
514.95	32224.50
515.12	31695.53
515.29	31494.25
515.47	32231.52
515.64	32673.88
515.81	32032.57
515.99	32135.56
516.16	33116.24
516.33	32402.38
516.51	32891.55
516.68	32617.71
516.85	32367.27
517.03	32713.67
517.20	32676.22
517.37	32793.25
517.54	32917.29
517.72	33099.86
517.89	32982.83
518.06	32919.63
518.24	33413.49
518.41	32966.45
518.58	33434.55
518.75	33326.89
518.93	33553.92
519.10	33467.32
519.27	33841.81
519.45	34050.11
519.62	33631.16
519.79	33961.17
519.96	33977.56
520.14	33912.02
520.31	33670.95
520.48	34117.99
520.65	34216.29
520.83	34328.64
521.00	34375.45
521.17	34101.61
521.34	34171.82
521.52	34511.20
521.69	34824.83
521.86	34808.45
522.03	35044.84
522.20	34756.96
522.38	34869.30
522.55	34759.30
522.72	35168.89
522.89	35082.29
523.07	35632.32
523.24	35323.36
523.41	35531.67
523.58	35519.97
523.75	35379.54
523.92	35887.43
524.10	35651.04
524.27	35962.33
524.44	35892.12
524.61	36367.24
524.78	36512.36
524.96	35969.35
525.13	36191.70
525.30	35819.56
525.47	36107.44
525.64	36180.00
525.81	36631.72
525.98	36266.60
526.16	36425.76
526.33	36304.05
526.50	36563.85
526.67	36062.97
526.84	36392.99
527.01	36657.47
527.18	36732.37
527.36	37022.59
527.53	37053.02
527.70	37120.90
527.87	36938.33
528.04	36987.49
528.21	36821.31
528.38	36788.54
528.55	37191.11
528.72	37617.09
528.89	37656.88
529.07	37258.99
529.24	37457.93
529.41	37516.45
529.58	37411.12
529.75	37406.44
529.92	37333.89
530.09	37357.29
530.26	37439.21
530.43	37816.04
530.60	37624.11
530.77	37771.57
530.94	38349.68
531.11	37750.50
531.28	37930.72
531.46	37790.29
531.63	38225.63
531.80	37900.29
531.97	38419.89
532.14	38588.41
532.31	37904.98
532.48	38370.74
532.65	38703.10
532.82	38569.69
532.99	38703.10
533.16	38639.90
533.33	39164.18
533.50	38541.60
533.67	38515.86
533.84	38614.16
534.01	39042.48
534.18	38572.03
534.35	39079.92
534.52	38972.26
534.69	38930.13
534.86	38934.81
535.03	38976.94
535.20	39033.11
535.37	39461.43
535.54	39569.10
535.71	39026.09
535.88	39213.34
536.05	39578.46
536.22	39498.88
536.38	39400.58
536.55	39934.22
536.72	39676.76
536.89	39707.19
537.06	39648.68
537.23	40020.82
537.40	39559.73
537.57	39522.29
537.74	39732.93
537.91	40456.16
538.08	39770.38
538.25	39351.43
538.42	39807.83
538.59	40294.66
538.75	40079.33
538.92	40105.08
539.09	40598.93
539.26	40308.71
539.43	40093.38
539.60	40362.54
539.77	40673.83
539.94	40921.93
540.11	40875.12
540.28	40414.03
540.44	40671.49
540.61	40900.86
540.78	40821.28
540.95	41179.39
541.12	40957.03
541.29	41055.34
541.46	40891.50
541.62	41539.83
541.79	40905.54
541.96	41109.17
542.13	41448.55
542.30	41434.50
542.47	41462.59
542.63	41401.74
542.80	41432.16
542.97	41509.40
543.14	41483.66
543.31	41500.04
543.48	41460.25
543.64	42141.35
543.81	41949.42
543.98	42506.47
544.15	42260.71
544.32	42059.43
544.48	42178.79
544.65	41993.89
544.82	41951.76
544.99	41649.83
545.16	41729.41
545.32	42256.03
545.49	42726.48
545.66	43012.02
545.83	43157.14
546.00	43037.77
546.16	42686.69
546.33	42003.25
546.50	42073.47
546.67	42417.53
546.83	41926.02
547.00	42359.02
547.17	42836.48
547.34	42520.51
547.50	42876.27
547.67	42953.51
547.84	42756.91
548.00	42520.51
548.17	42700.73
548.34	42974.58
548.51	42480.72
548.67	42646.90
548.84	42536.90
549.01	42815.42
549.18	42373.06
549.34	42904.36
549.51	42962.87
549.68	42611.79
549.84	42553.28
550.01	42810.74
550.18	43040.11
550.34	42742.86
550.51	42834.14
550.68	42986.28
550.84	42653.92
551.01	42972.24
551.18	42649.24
551.34	42962.87
551.51	43117.35
551.68	43049.47
551.84	43533.96
552.01	42724.14
552.18	43662.69
552.34	43555.03
552.51	43606.52
552.68	43391.19
552.84	43215.65
553.01	43365.45
553.18	43456.73
553.34	43370.13
553.51	43267.14
553.67	43636.95
553.84	43908.45
554.01	43807.81
554.17	43484.81
554.34	43721.21
554.51	43650.99
554.67	43592.48
554.84	43468.43
555.00	43281.19
555.17	43887.39
555.33	43826.53
555.50	43889.73
555.67	43777.38
555.83	43302.25
556.00	43882.70
556.16	44135.48
556.33	43737.59
556.50	43557.37
556.66	44318.04
556.83	44020.80
556.99	44016.11
557.16	44395.28
557.32	44367.20
557.49	44119.10
557.65	43861.64
557.82	43831.21
557.98	44018.46
558.15	44083.99
558.32	43887.39
558.48	44219.74
558.65	44158.89
558.81	44121.44
558.98	44378.90
559.14	44524.01
559.31	44074.63
559.47	44287.62
559.64	44198.68
559.80	44570.82
559.97	44273.57
560.13	44411.67
560.30	44098.03
560.46	44509.97
560.63	44404.64
560.79	44643.38
560.96	44568.48
561.12	44416.35
561.29	44219.74
561.45	44381.24
561.61	44299.32
561.78	44924.24
561.94	44973.39
562.11	44442.09
562.27	44247.83
562.44	44769.77
562.60	44423.37
562.77	44568.48
562.93	44767.43
563.10	44772.11
563.26	44322.72
563.42	44928.92
563.59	44570.82
563.75	44940.63
563.92	44725.30
564.08	44348.47
564.24	44402.30
564.41	44423.37
564.57	44512.31
564.74	44491.24
564.90	45179.36
565.07	44502.95
565.23	44879.77
565.39	44662.10
565.56	45097.44
565.72	44769.77
565.88	44751.04
566.05	44615.29
566.21	44334.43
566.38	44545.08
566.54	44491.24
566.70	44921.90
566.87	45088.08
567.03	44767.43
567.19	45048.29
567.36	44753.38
567.52	44877.43
567.68	45317.45
567.85	44261.87
568.01	44802.53
568.17	44741.68
568.34	44467.84
568.50	44973.39
568.66	44783.81
568.83	45067.02
568.99	44442.09
569.15	44561.46
569.32	44954.67
569.48	44706.57
569.64	45202.77
569.81	44446.77
569.97	44947.65
570.13	44615.29
570.30	44903.18
570.46	44896.16
570.62	44818.92
570.78	44996.80
570.95	44992.12
571.11	44783.81
571.27	44531.03
571.43	44608.27
571.60	45247.24
571.76	44355.49
571.92	45179.36
572.09	45116.17
572.25	45385.33
572.41	45186.38
572.57	45130.21
572.74	45205.11
572.90	44910.20
573.06	45071.70
573.22	44839.98
573.38	45052.97
573.55	44830.62
573.71	44917.22
573.87	45485.97
574.03	44816.58
574.20	45113.83
574.36	44966.37
574.52	45085.74
574.68	45045.95
574.84	44856.37
575.01	44765.09
575.17	44935.95
575.33	44917.22
575.49	44935.95
575.65	45359.58
575.82	45326.81
575.98	45345.54
576.14	45223.83
576.30	45453.20
576.46	45240.21
576.62	44914.88
576.79	45511.72
576.95	44863.39
577.11	45263.62
577.27	45146.59
577.43	45181.70
577.59	44680.83
577.75	45109.14
577.92	45118.51
578.08	45006.16
578.24	45043.61
578.40	45034.25
578.56	44935.95
578.72	45640.45
578.88	45277.66
579.04	45511.72
579.21	45141.91
579.37	45303.41
579.53	45284.68
579.69	44851.69
579.85	44594.23
580.01	45158.30
580.17	44713.59
580.33	45020.20
580.49	44975.73
580.65	45375.97
580.82	45504.70
580.98	45099.78
581.14	45074.04
581.30	45411.07
581.46	44978.07
581.62	45050.63
581.78	44877.43
581.94	45289.37
582.10	45067.02
582.26	44940.63
582.42	45322.13
582.58	45017.86
582.74	45392.35
582.90	45525.76
583.06	45265.96
583.22	44680.83
583.38	44987.44
583.54	45272.98
583.70	44737.00
583.86	44971.05
584.02	44940.63
584.18	45413.41
584.34	45556.19
584.50	45151.27
584.66	45090.42
584.82	45467.25
584.98	45500.01
585.14	45111.49
585.30	45310.43
585.46	45048.29
585.62	45055.31
585.78	44807.22
585.94	44788.49
586.10	45308.09
586.26	44790.83
586.42	45551.51
586.58	45352.56
586.74	44919.56
586.90	45017.86
587.06	44842.32
587.22	45301.07
587.38	45059.99
587.54	45457.88
587.70	45673.21
587.86	45530.44
588.02	45216.81
588.18	45542.14
588.34	45474.27
588.49	45085.74
588.65	45144.25
588.81	45020.20
588.97	45329.16
589.13	45125.53
589.29	45277.66
589.45	45659.17
589.61	45359.58
589.77	45357.24
589.93	45741.09
590.08	45476.61
590.24	45436.82
590.40	45808.96
590.56	45219.15
590.72	45179.36
