SpectraSuite Data File
++++++++++++++++++++++++++++++++++++
Date: Fri Oct 04 11:39:14 GMT-05:00 2013
User: price-jones
Dark Spectrum Present: No
Reference Spectrum Present: No
Number of Sampled Component Spectra: 1
Spectrometers: USB2+H05261
Integration Time (usec): 100000 (USB2+H05261)
Spectra Averaged: 1 (USB2+H05261)
Boxcar Smoothing: 0 (USB2+H05261)
Correct for Electrical Dark: No (USB2+H05261)
Strobe/Lamp Enabled: No (USB2+H05261)
Correct for Detector Non-linearity: No (USB2+H05261)
Correct for Stray Light: No (USB2+H05261)
Number of Pixels in Processed Spectrum: 2048
>>>>>Begin Processed Spectral Data<<<<<
365.73	25.75
365.92	25.75
366.12	25.75
366.32	4.68
366.52	0.00
366.72	0.00
366.91	0.00
367.11	0.00
367.31	0.00
367.51	0.00
367.70	0.00
367.90	23.41
368.10	0.00
368.30	0.00
368.49	0.00
368.69	0.00
368.89	0.00
369.09	0.00
369.28	0.00
369.48	0.00
369.68	0.00
369.87	0.00
370.07	0.00
370.27	0.00
370.47	11.70
370.66	117.03
370.86	119.37
371.06	245.76
371.25	245.76
371.45	250.44
371.65	236.39
371.84	220.01
372.04	198.95
372.24	264.48
372.44	283.20
372.63	238.73
372.83	325.33
373.03	161.50
373.22	198.95
373.42	231.71
373.62	229.37
373.81	294.91
374.01	292.57
374.21	273.84
374.40	327.68
374.60	381.51
374.79	278.52
374.99	266.82
375.19	257.46
375.38	390.87
375.58	248.10
375.78	290.23
375.97	301.93
376.17	360.44
376.37	292.57
376.56	299.59
376.76	252.78
376.95	276.18
377.15	266.82
377.35	257.46
377.54	358.10
377.74	299.59
377.93	276.18
378.13	278.52
378.33	351.08
378.52	217.67
378.72	278.52
378.91	255.12
379.11	325.33
379.31	229.37
379.50	262.14
379.70	250.44
379.89	297.25
380.09	344.06
380.28	227.03
380.48	278.52
380.68	285.55
380.87	315.97
381.07	224.69
381.26	290.23
381.46	330.02
381.65	287.89
381.85	330.02
382.04	330.02
382.24	348.74
382.43	271.50
382.63	330.02
382.83	339.38
383.02	341.72
383.22	388.53
383.41	327.68
383.61	388.53
383.80	297.25
384.00	346.40
384.19	283.20
384.39	344.06
384.58	337.04
384.78	411.93
384.97	315.97
385.17	390.87
385.36	325.33
385.56	386.19
385.75	344.06
385.95	372.15
386.14	365.12
386.34	402.57
386.53	360.44
386.72	320.65
386.92	433.00
387.11	313.63
387.31	397.89
387.50	365.12
387.70	339.38
387.89	365.12
388.09	404.91
388.28	381.51
388.48	322.99
388.67	435.34
388.86	353.42
389.06	425.98
389.25	367.46
389.45	414.27
389.64	461.09
389.84	449.38
390.03	430.66
390.22	437.68
390.42	442.36
390.61	383.85
390.81	346.40
391.00	454.06
391.19	433.00
391.39	372.15
391.58	360.44
391.78	418.96
391.97	463.43
392.16	454.06
392.36	425.98
392.55	491.51
392.75	458.74
392.94	383.85
393.13	498.53
393.33	470.45
393.52	451.72
393.71	458.74
393.91	503.22
394.10	543.00
394.29	402.57
394.49	461.09
394.68	475.13
394.88	547.69
395.07	416.62
395.26	491.51
395.46	475.13
395.65	528.96
395.84	566.41
396.04	613.22
396.23	592.16
396.42	543.00
396.62	533.64
396.81	521.94
397.00	571.09
397.19	575.77
397.39	573.43
397.58	554.71
397.77	545.34
397.97	594.50
398.16	554.71
398.35	660.03
398.55	550.03
398.74	552.37
398.93	568.75
399.12	540.66
399.32	589.82
399.51	573.43
399.70	662.37
399.90	606.20
400.09	617.90
400.28	706.84
400.47	596.84
400.67	575.77
400.86	648.33
401.05	638.97
401.24	617.90
401.44	699.82
401.63	615.56
401.82	660.03
402.01	617.90
402.21	674.07
402.40	674.07
402.59	709.18
402.78	697.48
402.97	685.78
403.17	730.25
403.36	725.57
403.55	727.91
403.74	648.33
403.93	732.59
404.13	772.38
404.32	830.89
404.51	734.93
404.70	826.21
404.89	812.17
405.09	772.38
405.28	851.96
405.47	784.08
405.66	903.45
405.85	842.59
406.05	959.62
406.24	739.61
406.43	849.61
406.62	866.00
406.81	866.00
407.00	858.98
407.20	844.93
407.39	952.60
407.58	809.83
407.77	840.25
407.96	898.77
408.15	929.19
408.34	889.40
408.54	858.98
408.73	992.39
408.92	966.64
409.11	903.45
409.30	922.17
409.49	903.45
409.68	961.96
409.87	971.32
410.07	940.90
410.26	1015.79
410.45	945.58
410.64	966.64
410.83	1015.79
411.02	1013.45
411.21	985.37
411.40	1097.71
411.59	1118.78
411.78	1177.29
411.98	1064.94
412.17	1053.24
412.36	1118.78
412.55	1067.28
412.74	1146.86
412.93	1116.44
413.12	1156.22
413.31	1207.72
413.50	1109.41
413.69	1245.16
413.88	1196.01
414.07	1233.46
414.26	1254.53
414.45	1228.78
414.64	1217.08
414.83	1268.57
415.02	1334.11
415.22	1254.53
415.41	1313.04
415.60	1240.48
415.79	1151.54
415.98	1336.45
416.17	1341.13
416.36	1287.29
416.55	1308.36
416.74	1364.53
416.93	1448.79
417.12	1455.81
417.31	1371.55
417.50	1357.51
417.69	1446.45
417.88	1533.05
418.07	1373.89
418.26	1416.02
418.45	1401.98
418.64	1481.56
418.83	1483.90
419.02	1526.03
419.21	1528.37
419.39	1448.79
419.58	1444.11
419.77	1387.94
419.96	1544.75
420.15	1657.10
420.34	1514.33
420.53	1589.22
420.72	1661.78
420.91	1624.33
421.10	1519.01
421.29	1621.99
421.48	1638.38
421.67	1722.63
421.86	1577.52
422.05	1666.46
422.24	1643.06
422.43	1507.30
422.61	1629.01
422.80	1687.53
422.99	1769.44
423.18	1675.82
423.37	1636.03
423.56	1673.48
423.75	1727.32
423.94	1682.85
424.13	1671.14
424.32	1675.82
424.50	1708.59
424.69	1743.70
424.88	1715.61
425.07	1598.59
425.26	1671.14
425.45	1652.42
425.64	1708.59
425.83	1687.53
426.01	1837.32
426.20	1727.32
426.39	1750.72
426.58	1680.50
426.77	1668.80
426.96	1778.81
427.15	1703.91
427.33	1839.66
427.52	1666.46
427.71	1785.83
427.90	1781.15
428.09	1827.96
428.28	1760.08
428.46	1736.68
428.65	1797.53
428.84	1834.98
429.03	1954.35
429.22	1792.85
429.40	1820.94
429.59	1837.32
429.78	1785.83
429.97	1769.44
430.16	1858.39
430.34	1849.02
430.53	1877.11
430.72	1954.35
430.91	1839.66
431.10	1914.56
431.28	1923.92
431.47	1923.92
431.66	2019.88
431.85	1916.90
432.03	1952.01
432.22	2064.35
432.41	1968.39
432.60	2062.01
432.79	1966.05
432.97	2008.18
433.16	2087.76
433.35	1949.67
433.54	1954.35
433.72	2195.42
433.91	2008.18
434.10	2005.84
434.28	2045.63
434.47	2146.27
434.66	2197.76
434.85	2022.22
435.03	2162.66
435.22	2394.37
435.41	2548.84
435.59	2495.01
435.78	2450.54
435.97	2298.41
436.16	2324.15
436.34	2165.00
436.53	2267.98
436.72	2263.30
436.90	2118.18
437.09	2225.85
437.28	2193.08
437.46	2251.60
437.65	2265.64
437.84	2349.90
438.02	2272.66
438.21	2317.13
438.40	2340.54
438.58	2338.20
438.77	2462.24
438.96	2305.43
439.14	2366.28
439.33	2282.02
439.52	2410.75
439.70	2443.52
439.89	2567.57
440.08	2448.20
440.26	2504.37
440.45	2429.48
440.63	2495.01
440.82	2644.81
441.01	2569.91
441.19	2553.52
441.38	2693.96
441.57	2630.76
441.75	2607.36
441.94	2649.49
442.12	2605.02
442.31	2775.88
442.50	2729.06
442.68	2661.19
442.87	2789.92
443.05	2710.34
443.24	2775.88
443.43	2754.81
443.61	2799.28
443.80	2799.28
443.98	2775.88
444.17	2663.53
444.35	2813.32
444.54	2785.24
444.73	2820.35
444.91	2780.56
445.10	2801.62
445.28	2796.94
445.47	2799.28
445.65	2771.19
445.84	2876.52
446.02	2897.58
446.21	2796.94
446.39	2888.22
446.58	2801.62
446.77	2932.69
446.95	2810.98
447.14	2841.41
447.32	2829.71
447.51	2832.05
447.69	2885.88
447.88	2960.78
448.06	2841.41
448.25	2841.41
448.43	2867.16
448.62	2956.10
448.80	2850.77
448.99	2953.76
449.17	2902.26
449.36	2869.50
449.54	2988.86
449.73	2918.65
449.91	2972.48
450.10	2953.76
450.28	3052.06
450.46	3030.99
450.65	3068.44
450.83	3148.02
451.02	3082.49
451.20	2960.78
451.39	3066.10
451.57	3002.91
451.76	3052.06
451.94	2986.52
452.13	3162.06
452.31	3194.83
452.49	3133.98
452.68	3129.30
452.86	3077.80
453.05	3267.39
453.23	3201.85
453.42	3204.19
453.60	3145.68
453.78	3180.79
453.97	3183.13
454.15	3164.40
454.34	3164.40
454.52	3300.16
454.70	3346.97
454.89	3229.94
455.07	3213.56
455.26	3180.79
455.44	3283.77
455.62	3297.81
455.81	3318.88
455.99	3332.92
456.17	3410.16
456.36	3398.46
456.54	3288.45
456.73	3456.97
456.91	3375.05
457.09	3407.82
457.28	3597.40
457.46	3449.95
457.64	3562.30
457.83	3449.95
458.01	3515.48
458.19	3482.72
458.38	3555.27
458.56	3595.06
458.74	3468.67
458.93	3557.61
459.11	3590.38
459.29	3637.19
459.48	3604.42
459.66	3679.32
459.84	3719.11
460.03	3691.02
460.21	3700.39
460.39	3784.65
460.57	3637.19
460.76	3529.53
460.94	3763.58
461.12	3662.94
461.31	3686.34
461.49	3716.77
461.67	3742.52
461.85	3847.84
462.04	3819.75
462.22	3915.72
462.40	3840.82
462.59	3885.29
462.77	3705.07
462.95	3925.08
463.13	3794.01
463.32	3857.20
463.50	3920.40
463.68	3772.94
463.86	3833.80
464.05	3779.97
464.23	3880.61
464.41	3918.06
464.59	3826.78
464.78	3843.16
464.96	3838.48
465.14	3932.10
465.32	3878.27
465.50	4023.38
465.69	4032.74
465.87	3955.51
466.05	3953.16
466.23	4009.34
466.41	3953.16
466.60	4095.94
466.78	3946.14
466.96	4124.02
467.14	4028.06
467.32	4131.05
467.51	4147.43
467.69	4114.66
467.87	4065.51
468.05	4091.26
468.23	4161.47
468.41	4170.83
468.60	4088.92
468.78	4084.23
468.96	4091.26
469.14	4121.68
469.32	4229.35
469.50	4042.11
469.69	4117.00
469.87	4327.65
470.05	4294.88
470.23	4313.61
470.41	4315.95
470.59	4425.95
470.77	4255.09
470.95	4458.72
471.14	4540.64
471.32	4465.74
471.50	4561.70
471.68	4470.42
471.86	4561.70
472.04	4519.57
472.22	4559.36
472.40	4411.91
472.58	4671.71
472.77	4664.69
472.95	4664.69
473.13	4847.25
473.31	4624.90
473.49	4592.13
473.67	4631.92
473.85	4793.42
474.03	4896.40
474.21	4753.63
474.39	4784.06
474.57	4807.46
474.75	4877.68
474.93	4964.28
475.12	4755.97
475.30	4826.18
475.48	4793.42
475.66	4997.04
475.84	4908.10
476.02	4983.00
476.20	5041.51
476.38	5053.22
476.56	5107.05
476.74	5195.99
476.92	5186.63
477.10	5210.03
477.28	5385.57
477.46	5163.22
477.64	5497.92
477.82	5336.42
478.00	5366.85
478.18	5526.00
478.36	5432.38
478.54	5682.82
478.72	5764.74
478.90	5738.99
479.08	5760.06
479.26	5975.39
479.44	5797.51
479.62	6043.26
479.80	5783.46
479.98	5748.36
480.16	6017.52
480.34	5860.70
480.52	5975.39
480.70	6024.54
480.88	6094.76
481.06	6071.35
481.24	6033.90
481.41	5923.90
481.59	6204.76
481.77	6122.84
481.95	6314.77
482.13	6352.21
482.31	6387.32
482.49	6574.56
482.67	6441.15
482.85	6544.14
483.03	6616.69
483.21	6672.87
483.39	6661.16
483.57	6747.76
483.74	6743.08
483.92	6909.26
484.10	7145.66
484.28	6956.07
484.46	7122.25
484.64	7410.14
484.82	7070.76
485.00	7269.70
485.18	7307.15
485.35	7489.71
485.53	7466.31
485.71	7421.84
485.89	7559.93
486.07	7499.08
486.25	7538.87
486.43	7527.16
486.61	7616.10
486.78	7754.19
486.96	7815.05
487.14	7985.91
487.32	7758.88
487.50	7887.61
487.68	7997.61
487.85	8135.70
488.03	8231.66
488.21	8262.09
488.39	8414.23
488.57	8449.33
488.75	8496.14
488.92	8638.92
489.10	8468.06
489.28	8477.42
489.46	8828.50
489.64	8552.32
489.81	8730.20
489.99	8683.39
490.17	8975.95
490.35	9104.68
490.53	8961.91
490.70	8952.55
490.88	8917.44
491.06	8964.25
491.24	9191.28
491.41	9226.39
491.59	9371.50
491.77	9191.28
491.95	9439.38
492.13	9413.63
492.30	9394.91
492.48	9472.15
492.66	9736.63
492.84	9657.05
493.01	9722.59
493.19	9839.61
493.37	10122.82
493.54	10038.56
493.72	9951.96
493.90	10029.20
494.08	10071.33
494.25	10106.43
494.43	10249.21
494.61	10260.91
494.79	10436.45
494.96	10244.52
495.14	10682.20
495.32	10675.18
495.49	10413.04
495.67	10616.67
495.85	10696.25
496.02	10586.24
496.20	10621.35
496.38	10703.27
496.55	10647.10
496.73	11087.12
496.91	11030.94
497.09	11112.86
497.26	11255.64
497.44	11108.18
497.62	11323.51
497.79	11267.34
497.97	11145.63
498.14	11520.12
498.32	11784.60
498.50	11466.28
498.67	11473.31
498.85	11438.20
499.03	11637.14
499.20	11468.62
499.38	11618.42
499.56	11873.54
499.73	11826.73
499.91	11831.41
500.08	11824.39
500.26	11847.79
500.44	11887.58
500.61	11873.54
500.79	11943.75
500.97	12037.38
501.14	12121.63
501.32	12147.38
501.49	12395.48
501.67	12128.66
501.84	12250.36
502.02	12376.75
502.20	12453.99
502.37	12732.51
502.55	12470.37
502.72	12439.95
502.90	12322.92
503.07	12477.40
503.25	12505.48
503.43	12666.98
503.60	12903.37
503.78	12912.74
503.95	12552.29
504.13	12657.62
504.30	12791.03
504.48	13006.36
504.65	13069.55
504.83	13032.10
505.01	13001.68
505.18	13217.01
505.36	13123.38
505.53	13055.51
505.71	12992.31
505.88	13078.91
506.06	13144.45
506.23	13303.60
506.41	13408.93
506.58	13296.58
506.76	13252.11
506.93	13446.38
507.11	13532.98
507.28	13802.14
507.46	13607.87
507.63	13525.96
507.81	13743.63
507.98	13820.86
508.16	13968.32
508.33	13848.95
508.50	13823.20
508.68	13846.61
508.85	14113.43
509.03	14001.08
509.20	13867.67
509.38	14155.56
509.55	14132.15
509.73	14288.97
509.90	14073.64
510.08	14132.15
510.25	14401.32
510.42	14256.20
510.60	14354.51
510.77	14476.21
510.95	14698.56
511.12	14321.74
511.30	14464.51
511.47	14787.50
511.64	14794.53
511.82	14789.85
511.99	14773.46
512.17	14925.60
512.34	14714.95
512.51	14995.81
512.69	14941.98
512.86	14864.74
513.04	15098.80
513.21	14810.91
513.38	15087.09
513.56	15126.88
513.73	15040.28
513.90	15169.01
514.08	14916.23
514.25	15185.40
514.43	15178.37
514.60	15197.10
514.77	15293.06
514.95	15267.31
515.12	15110.50
515.29	15391.36
515.47	15330.51
515.64	15573.92
515.81	15503.71
515.99	15452.22
516.16	15838.41
516.33	15534.14
516.51	15763.51
516.68	15667.55
516.85	15679.25
517.03	15690.95
517.20	15772.87
517.37	15901.60
517.54	15857.13
517.72	15913.30
517.89	15791.59
518.06	15953.09
518.24	15957.77
518.41	15882.88
518.58	16006.92
518.75	15812.66
518.93	16311.19
519.10	16379.07
519.27	16259.70
519.45	16114.59
519.62	16011.60
519.79	15969.48
519.96	16280.77
520.14	16297.15
520.31	16442.26
520.48	16592.06
520.65	16526.52
520.83	16580.36
521.00	16844.84
521.17	16685.68
521.34	16196.51
521.52	16587.38
521.69	16641.21
521.86	16704.40
522.03	16465.67
522.20	16952.50
522.38	16795.68
522.55	16856.54
522.72	16896.33
522.89	17092.93
523.07	16954.84
523.24	16884.62
523.41	17268.47
523.58	16957.18
523.75	17046.12
523.92	17312.94
524.10	17481.46
524.27	17043.78
524.44	17277.83
524.61	17511.89
524.78	17586.79
524.96	17074.21
525.13	17266.13
525.30	17369.12
525.47	17507.21
525.64	17575.08
525.81	17589.13
525.98	17539.97
526.16	17334.01
526.33	17420.61
526.50	17898.08
526.67	17589.13
526.84	17902.76
527.01	17729.56
527.18	17752.96
527.36	17771.69
527.53	18031.49
527.70	18176.60
527.87	17963.61
528.04	17961.27
528.21	18059.57
528.38	17994.04
528.55	18129.79
528.72	18026.81
528.89	17987.02
529.07	17877.01
529.24	18111.07
529.41	18200.01
529.58	18136.81
529.75	18047.87
529.92	18181.28
530.09	18099.36
530.26	18647.05
530.43	18085.32
530.60	18129.79
530.77	18349.80
530.94	18696.20
531.11	18347.46
531.28	18277.24
531.46	18291.29
531.63	18546.40
531.80	18420.02
531.97	18642.37
532.14	18523.00
532.31	18647.05
532.48	18452.78
532.65	18707.90
532.82	18530.02
532.99	18796.84
533.16	18682.16
533.33	18904.51
533.50	18934.93
533.67	18836.63
533.84	18738.33
534.01	18614.28
534.18	19082.39
534.35	19073.03
534.52	19180.69
534.69	19192.39
534.86	19026.21
535.03	18890.46
535.20	19117.50
535.37	18946.64
535.54	19187.71
535.71	19194.73
535.88	19122.18
536.05	19089.41
536.22	19379.64
536.38	19344.53
536.55	19538.79
536.72	19101.11
536.89	19019.19
537.06	19496.66
537.23	19601.99
537.40	19229.84
537.57	19288.35
537.74	19496.66
537.91	19665.18
538.08	19534.11
538.25	19384.32
538.42	19726.04
538.59	19601.99
538.75	19363.25
538.92	19501.34
539.09	19721.35
539.26	19756.46
539.43	19971.79
539.60	19976.47
539.77	19861.79
539.94	20105.20
540.11	19894.55
540.28	19786.89
540.44	19967.11
540.61	19676.88
540.78	19939.02
540.95	20123.93
541.12	20280.74
541.29	20142.65
541.46	19829.02
541.62	20238.61
541.79	20376.70
541.96	20077.12
542.13	20159.03
542.30	20423.51
542.47	20671.61
542.63	20376.70
542.80	20823.75
542.97	20664.59
543.14	20844.81
543.31	20372.02
543.48	20776.94
543.64	20903.32
543.81	20788.64
543.98	20964.18
544.15	20683.31
544.32	20629.48
544.48	20943.11
544.65	20891.62
544.82	20783.96
544.99	20505.43
545.16	20912.69
545.32	20802.68
545.49	21242.70
545.66	21984.65
545.83	21986.99
546.00	21942.52
546.16	21549.31
546.33	21226.32
546.50	20819.07
546.67	20940.77
546.83	20603.74
547.00	20737.15
547.17	20994.61
547.34	20985.24
547.50	20936.09
547.67	21090.57
547.84	20896.30
548.00	21242.70
548.17	21104.61
548.34	21130.36
548.51	21242.70
548.67	21191.21
548.84	20940.77
549.01	21308.24
549.18	20889.28
549.34	21099.93
549.51	21008.65
549.68	21120.99
549.84	20896.30
550.01	21177.17
550.18	21216.96
550.34	21053.12
550.51	21563.36
550.68	21259.09
550.84	21095.25
551.01	21577.40
551.18	21600.80
551.34	21193.55
551.51	21411.22
551.68	21315.26
551.84	21682.72
552.01	21542.29
552.18	21303.56
552.34	21378.45
552.51	21467.39
552.68	21135.04
552.84	21151.42
553.01	21593.78
553.18	21715.49
553.34	21509.52
553.51	21336.32
553.67	21605.49
553.84	21668.68
554.01	21617.19
554.17	21479.10
554.34	21649.96
554.51	21443.99
554.67	21549.31
554.84	22043.17
555.00	21713.15
555.17	21647.61
555.33	21671.02
555.50	21642.93
555.67	21582.08
555.83	21680.38
556.00	21516.54
556.16	21933.16
556.33	21563.36
556.50	21956.57
556.66	21881.67
556.83	21546.97
556.99	22005.72
557.16	21820.81
557.32	21837.20
557.49	21813.79
557.65	21642.93
557.82	21771.66
557.98	21619.53
558.15	21486.12
558.32	21949.54
558.48	21584.42
558.65	21757.62
558.81	21907.41
558.98	21951.88
559.14	22017.42
559.31	22111.04
559.47	21986.99
559.64	21968.27
559.80	22167.21
559.97	21893.37
560.13	22207.00
560.30	22019.76
560.46	22052.53
560.63	21759.96
560.79	22267.86
560.96	22270.20
561.12	22012.74
561.29	22267.86
561.45	21968.27
561.61	22324.03
561.78	22333.39
561.94	22207.00
562.11	22464.46
562.27	22405.95
562.44	22146.15
562.60	22017.42
562.77	21806.77
562.93	22431.69
563.10	22328.71
563.26	21933.16
563.42	22302.96
563.59	22551.06
563.75	22333.39
563.92	22408.29
564.08	22225.73
564.24	22459.78
564.41	22319.35
564.57	22253.81
564.74	22157.85
564.90	22359.14
565.07	22581.49
565.23	22396.59
565.39	22328.71
565.56	22188.28
565.72	22345.09
565.88	22387.22
566.05	22356.80
566.21	22384.88
566.38	22403.61
566.54	22267.86
566.70	22579.15
566.87	22544.04
567.03	22251.47
567.19	22553.40
567.36	22422.33
567.52	22251.47
567.68	22293.60
567.85	22314.67
568.01	22548.72
568.17	22286.58
568.34	22836.61
568.50	22492.55
568.66	22576.81
568.83	22838.95
568.99	22270.20
569.15	22513.61
569.32	22719.58
569.48	22218.71
569.64	22565.10
569.81	22597.87
569.97	22499.57
570.13	22719.58
570.30	22396.59
570.46	22817.88
570.62	22625.96
570.78	22757.03
570.95	22707.88
571.11	22368.50
571.27	22146.15
571.43	22466.80
571.60	22787.46
571.76	22588.51
571.92	22665.75
572.09	22707.88
572.25	22618.94
572.41	22464.46
572.57	22679.79
572.74	22860.01
572.90	22267.86
573.06	22569.79
573.22	22548.72
573.38	22642.34
573.55	22686.81
573.71	23103.43
573.87	22869.37
574.03	22810.86
574.20	22820.22
574.36	22691.49
574.52	22675.11
574.68	22836.61
574.84	22930.23
575.01	22874.06
575.17	22817.88
575.33	22920.87
575.49	22478.50
575.65	22551.06
575.82	22963.00
575.98	22527.66
576.14	22745.33
576.30	22724.26
576.46	22806.18
576.62	22850.65
576.79	22852.99
576.95	23042.57
577.11	23019.17
577.27	22890.44
577.43	23117.47
577.59	22728.94
577.75	22963.00
577.92	23124.49
578.08	22766.39
578.24	22670.43
578.40	23016.83
578.56	22932.57
578.72	22813.20
578.88	22862.35
579.04	23119.81
579.21	22794.48
579.37	23044.91
579.53	22831.93
579.69	22735.96
579.85	22768.73
580.01	23014.49
580.17	22740.64
580.33	22497.23
580.49	22869.37
580.65	22958.31
580.82	23080.02
580.98	23058.96
581.14	22988.74
581.30	22993.42
581.46	22932.57
581.62	22843.63
581.78	22941.93
581.94	22768.73
582.10	22600.21
582.26	23028.53
582.42	23026.19
582.58	22967.68
582.74	23122.15
582.90	22953.63
583.06	23190.03
583.22	22864.69
583.38	23014.49
583.54	23035.55
583.70	22796.82
583.86	23164.28
584.02	23122.15
584.18	23178.33
584.34	22988.74
584.50	23197.05
584.66	23339.82
584.82	22689.15
584.98	22771.07
585.14	22876.40
585.30	22988.74
585.46	23166.62
585.62	22787.46
585.78	22864.69
585.94	22604.89
586.10	23243.86
586.26	22927.89
586.42	22955.97
586.58	23337.48
586.74	22883.42
586.90	23201.73
587.06	23049.60
587.22	23023.85
587.38	23187.69
587.54	22888.10
587.70	23417.06
587.86	23187.69
588.02	23335.14
588.18	23419.40
588.34	23220.45
588.49	23278.97
588.65	23168.96
588.81	23023.85
588.97	23318.76
589.13	23241.52
589.29	22852.99
589.45	23178.33
589.61	23396.00
589.77	23555.15
589.93	23077.68
590.08	23407.70
590.24	22904.48
590.40	22941.93
590.56	23424.08
590.72	22881.08
590.88	23281.31
591.04	23000.44
591.20	23243.86
591.35	23255.56
591.51	23744.73
591.67	23438.12
591.83	23484.94
591.99	23274.29
592.15	23297.69
592.31	23269.61
592.46	23143.22
