SpectraSuite Data File
++++++++++++++++++++++++++++++++++++
Date: Fri Oct 04 11:39:46 GMT-05:00 2013
User: price-jones
Dark Spectrum Present: No
Reference Spectrum Present: No
Number of Sampled Component Spectra: 1
Spectrometers: USB2+H05261
Integration Time (usec): 100000 (USB2+H05261)
Spectra Averaged: 1 (USB2+H05261)
Boxcar Smoothing: 0 (USB2+H05261)
Correct for Electrical Dark: No (USB2+H05261)
Strobe/Lamp Enabled: No (USB2+H05261)
Correct for Detector Non-linearity: No (USB2+H05261)
Correct for Stray Light: No (USB2+H05261)
Number of Pixels in Processed Spectrum: 2048
>>>>>Begin Processed Spectral Data<<<<<
365.73	86.60
365.92	86.60
366.12	86.60
366.32	11.70
366.52	0.00
366.72	30.43
366.91	0.00
367.11	0.00
367.31	0.00
367.51	0.00
367.70	0.00
367.90	0.00
368.10	0.00
368.30	0.00
368.49	0.00
368.69	9.36
368.89	0.00
369.09	0.00
369.28	0.00
369.48	0.00
369.68	0.00
369.87	7.02
370.07	0.00
370.27	9.36
370.47	156.82
370.66	444.70
370.86	526.62
371.06	566.41
371.25	552.37
371.45	496.19
371.65	571.09
371.84	571.09
372.04	512.58
372.24	573.43
372.44	603.86
372.63	568.75
372.83	657.69
373.03	681.10
373.22	718.54
373.42	667.05
373.62	550.03
373.81	720.88
374.01	784.08
374.21	765.36
374.40	685.78
374.60	704.50
374.79	662.37
374.99	774.72
375.19	676.41
375.38	779.40
375.58	683.44
375.78	793.44
375.97	723.23
376.17	844.93
376.37	760.67
376.56	870.68
376.76	737.27
376.95	737.27
377.15	784.08
377.35	800.46
377.54	753.65
377.74	849.61
377.93	828.55
378.13	851.96
378.33	821.53
378.52	819.19
378.72	779.40
378.91	884.72
379.11	819.19
379.31	877.70
379.50	800.46
379.70	943.24
379.89	952.60
380.09	917.49
380.28	919.83
380.48	924.51
380.68	882.38
380.87	985.37
381.07	933.87
381.26	959.62
381.46	919.83
381.65	1008.77
381.85	1027.50
382.04	978.34
382.24	987.71
382.43	954.94
382.63	943.24
382.83	1011.11
383.02	1048.56
383.22	1095.37
383.41	1055.58
383.61	1053.24
383.80	985.37
384.00	1043.88
384.19	1095.37
384.39	1107.07
384.58	1074.31
384.78	1074.31
384.97	1116.44
385.17	1015.79
385.36	1053.24
385.56	1128.14
385.75	1093.03
385.95	1132.82
386.14	1130.48
386.34	1081.33
386.53	1193.67
386.72	1165.59
386.92	1191.33
387.11	1146.86
387.31	1146.86
387.50	1177.29
387.70	1242.82
387.89	1221.76
388.09	1275.59
388.28	1310.70
388.48	1240.48
388.67	1282.61
388.86	1322.40
389.06	1303.68
389.25	1315.38
389.45	1336.45
389.64	1399.64
389.84	1331.76
390.03	1320.06
390.22	1387.94
390.42	1373.89
390.61	1322.40
390.81	1327.08
391.00	1439.43
391.19	1458.15
391.39	1528.37
391.58	1455.81
391.78	1409.00
391.97	1439.43
392.16	1441.77
392.36	1549.43
392.55	1521.35
392.75	1554.12
392.94	1523.69
393.13	1568.16
393.33	1523.69
393.52	1589.22
393.71	1570.50
393.91	1584.54
394.10	1610.29
394.29	1640.72
394.49	1575.18
394.68	1626.67
394.88	1671.14
395.07	1736.68
395.26	1640.72
395.46	1624.33
395.65	1753.06
395.84	1760.08
396.04	1853.70
396.23	1872.43
396.42	1729.66
396.62	1790.51
396.81	1804.55
397.00	1767.10
397.19	1806.89
397.39	1799.87
397.58	1834.98
397.77	1816.26
397.97	1891.15
398.16	1921.58
398.35	1963.71
398.55	1898.17
398.74	2010.52
398.93	1959.03
399.12	1982.43
399.32	2090.10
399.51	1968.39
399.70	1984.77
399.90	2106.48
400.09	2223.51
400.28	2162.66
400.47	2132.23
400.67	2221.17
400.86	2150.95
401.05	2232.87
401.24	2132.23
401.44	2197.76
401.63	2333.51
401.82	2263.30
402.01	2218.83
402.21	2296.07
402.40	2289.04
402.59	2307.77
402.78	2303.09
402.97	2307.77
403.17	2385.01
403.36	2326.49
403.55	2434.16
403.74	2581.61
403.93	2504.37
404.13	2593.31
404.32	2609.70
404.51	2614.38
404.70	2586.29
404.89	2532.46
405.09	2630.76
405.28	2569.91
405.47	2649.49
405.66	2738.43
405.85	2691.62
406.05	2677.57
406.24	2661.19
406.43	2808.64
406.62	2752.47
406.81	2876.52
407.00	2829.71
407.20	2752.47
407.39	2761.83
407.58	2949.08
407.77	2972.48
407.96	2888.22
408.15	2974.82
408.34	2977.16
408.54	2876.52
408.73	2913.97
408.92	3108.23
409.11	3077.80
409.30	3084.83
409.49	2979.50
409.68	3089.51
409.87	3143.34
410.07	3290.79
410.26	3251.00
410.45	3368.03
410.64	3342.28
410.83	3269.73
411.02	3281.43
411.21	3379.73
411.40	3361.01
411.59	3384.41
411.78	3520.17
411.98	3412.50
412.17	3492.08
412.36	3410.16
412.55	3611.45
412.74	3754.22
412.93	3613.79
413.12	3667.62
413.31	3791.67
413.50	3716.77
413.69	3887.63
413.88	3978.91
414.07	3936.78
414.26	4039.76
414.45	3946.14
414.64	4133.39
414.83	4030.40
415.02	4105.30
415.22	4224.67
415.41	4313.61
415.60	4196.58
415.79	4177.86
415.98	4241.05
416.17	4306.59
416.36	4365.10
416.55	4404.89
416.74	4454.04
416.93	4449.36
417.12	4662.35
417.31	4552.34
417.50	4557.02
417.69	4713.84
417.88	4652.98
418.07	4737.24
418.26	4601.49
418.45	4723.20
418.64	4842.57
418.83	4861.29
419.02	4842.57
419.21	4992.36
419.39	4959.60
419.58	4877.68
419.77	4884.70
419.96	5011.09
420.15	5078.96
420.34	5116.41
420.53	5109.39
420.72	5308.34
420.91	5137.48
421.10	5327.06
421.29	5416.00
421.48	5308.34
421.67	5371.53
421.86	5266.21
422.05	5345.78
422.24	5441.75
422.43	5378.55
422.61	5514.30
422.80	5392.59
422.99	5338.76
423.18	5530.69
423.37	5610.26
423.56	5605.58
423.75	5448.77
423.94	5434.72
424.13	5130.45
424.32	5170.24
424.50	5542.39
424.69	5701.54
424.88	5671.12
425.07	5434.72
425.26	5430.04
425.45	5432.38
425.64	5497.92
425.83	5668.78
426.01	5558.77
426.20	5497.92
426.39	5535.37
426.58	5500.26
426.77	5760.06
426.96	5769.42
427.15	5748.36
427.33	5916.87
427.52	5830.27
427.71	5886.45
427.90	5867.72
428.09	6129.86
428.28	5832.62
428.46	5968.37
428.65	5870.06
428.84	6125.18
429.03	6211.78
429.22	6101.78
429.40	6111.14
429.59	6413.07
429.78	5987.09
429.97	5928.58
430.16	6064.33
430.34	6237.53
430.53	6349.87
430.72	6333.49
430.91	6195.40
431.10	6361.58
431.28	6462.22
431.47	6544.14
431.66	6637.76
431.85	6579.25
432.03	6553.50
432.22	6782.87
432.41	6560.52
432.60	6600.31
432.79	6548.82
432.97	6810.96
433.16	6722.02
433.35	6899.90
433.54	6857.77
433.72	6705.63
433.91	6651.80
434.10	6895.22
434.28	6808.62
434.47	6956.07
434.66	7014.59
434.85	7143.32
435.03	7335.24
435.22	7328.22
435.41	7592.70
435.59	7412.48
435.78	7293.11
435.97	7386.73
436.16	7466.31
436.34	7199.49
436.53	7311.83
436.72	7503.76
436.90	7258.00
437.09	7513.12
437.28	7379.71
437.46	7646.53
437.65	7440.56
437.84	7538.87
438.02	7548.23
438.21	7641.85
438.40	7791.64
438.58	7843.14
438.77	7868.88
438.96	7831.43
439.14	8161.45
439.33	8081.87
439.52	8217.62
439.70	8168.47
439.89	8351.03
440.08	8259.75
440.26	8358.05
440.45	8219.96
440.63	8451.67
440.82	8629.56
441.01	8484.44
441.19	8554.66
441.38	8734.88
441.57	8786.37
441.75	8805.10
441.94	8926.80
442.12	8919.78
442.31	9076.60
442.50	9067.24
442.68	9034.47
442.87	9111.71
443.05	9228.73
443.24	9383.21
443.43	9348.10
443.61	9362.14
443.80	9476.83
443.98	9142.13
444.17	9032.13
444.35	9275.54
444.54	9355.12
444.73	9399.59
444.91	9638.33
445.10	9638.33
445.28	9441.72
445.47	9305.97
445.65	9486.19
445.84	9647.69
446.02	9568.11
446.21	9462.79
446.39	9315.33
446.58	9694.50
446.77	9633.64
446.95	9504.92
447.14	9610.24
447.32	9706.20
447.51	9635.99
447.69	9738.97
447.88	9783.44
448.06	9628.96
448.25	9675.77
448.43	9724.93
448.62	9596.20
448.80	9851.31
448.99	10008.13
449.17	9942.60
449.36	9820.89
449.54	10120.48
449.73	10370.91
449.91	10197.71
450.10	10157.92
450.28	10197.71
450.46	10321.76
450.65	10401.34
450.83	10422.41
451.02	10319.42
451.20	10420.06
451.39	10427.09
451.57	10455.17
451.76	10413.04
451.94	10497.30
452.13	10864.77
452.31	10686.89
452.49	10506.66
452.68	10588.58
452.86	10408.36
453.05	10815.62
453.23	10619.01
453.42	10647.10
453.60	10895.19
453.78	10689.23
453.97	10906.90
454.15	10619.01
454.34	10822.64
454.52	11042.65
454.70	11016.90
454.89	11222.87
455.07	11300.11
455.26	11211.17
455.44	11281.38
455.62	11370.32
455.81	11288.40
455.99	11335.21
456.17	11681.61
456.36	11515.44
456.54	11590.33
456.73	11683.95
456.91	11978.86
457.09	11885.24
457.28	11929.71
457.46	11800.98
457.64	11932.05
457.83	11892.26
458.01	11829.07
458.19	12105.25
458.38	11927.37
458.56	12266.75
458.74	11985.88
458.93	12259.73
459.11	12266.75
459.29	12229.30
459.48	12334.62
459.66	12355.69
459.84	12552.29
460.03	12564.00
460.21	12559.31
460.39	12751.24
460.57	12575.70
460.76	12645.91
460.94	12784.01
461.12	13001.68
461.31	12636.55
461.49	12767.62
461.67	12636.55
461.85	13298.92
462.04	13207.64
462.22	13586.81
462.40	13008.70
462.59	13167.85
462.77	13090.62
462.95	13282.54
463.13	13174.88
463.32	13397.23
463.50	13387.86
463.68	13305.95
463.86	13406.59
464.05	13348.08
464.23	13500.21
464.41	13570.43
464.59	13256.79
464.78	13797.46
464.96	13408.93
465.14	13612.56
465.32	13792.78
465.50	13928.53
465.69	14153.22
465.87	13862.99
466.05	14003.43
466.23	13930.87
466.41	14127.47
466.60	14380.25
466.78	13907.46
466.96	14031.51
467.14	14026.83
467.32	14218.75
467.51	14317.06
467.69	13937.89
467.87	14312.38
468.05	14312.38
468.23	14204.71
468.41	14345.14
468.60	14485.58
468.78	14824.95
468.96	14373.23
469.14	14792.19
469.32	14602.60
469.50	14572.18
469.69	15023.90
469.87	15028.58
470.05	14916.23
470.23	14874.10
470.41	14953.68
470.59	15372.64
470.77	14960.70
470.95	15190.08
471.14	15445.20
471.32	15169.01
471.50	15583.29
471.68	15515.41
471.86	15995.22
472.04	15690.95
472.22	15885.22
472.40	15594.99
472.58	16219.91
472.77	16243.32
472.95	16168.42
473.13	16582.70
473.31	16137.99
473.49	16273.74
473.67	16442.26
473.85	16372.05
474.03	16807.39
474.21	16556.95
474.39	16816.75
474.57	16798.02
474.75	17156.13
474.93	17205.28
475.12	17062.51
475.30	17280.18
475.48	17111.66
475.66	17425.29
475.84	17497.84
476.02	17881.69
476.20	17591.47
476.38	18345.12
476.56	18412.99
476.74	18143.83
476.92	18043.19
477.10	18321.71
477.28	18862.38
477.46	18539.38
477.64	18948.98
477.82	19061.32
478.00	19751.78
478.18	19496.66
478.36	19674.54
478.54	19632.41
478.72	20037.33
478.90	20009.24
479.08	20285.42
479.26	20479.69
479.44	20402.45
479.62	20655.23
479.80	20680.97
479.98	20985.24
480.16	21219.30
480.34	21062.48
480.52	21252.06
480.70	21245.04
480.88	21500.16
481.06	21441.65
481.24	21795.07
481.41	22291.26
481.59	22176.58
481.77	22506.59
481.95	22534.68
482.13	22738.30
482.31	22721.92
482.49	23269.61
482.67	23274.29
482.85	23498.98
483.03	23999.85
483.21	23899.21
483.39	24657.54
483.57	24430.51
483.74	24283.06
483.92	24823.72
484.10	24760.53
484.28	25184.16
484.46	25586.74
484.64	26066.55
484.82	25570.35
485.00	25776.32
485.18	26064.21
485.35	26441.03
485.53	26223.36
485.71	26572.10
485.89	27159.58
486.07	27241.50
486.25	27229.79
486.43	27150.21
486.61	27606.62
486.78	28350.91
486.96	28226.86
487.14	28542.83
487.32	28339.21
487.50	28510.07
487.68	28870.51
487.85	29017.96
488.03	29722.46
488.21	29830.13
488.39	29876.94
488.57	30368.45
488.75	30485.48
488.92	31129.12
489.10	31122.10
489.28	31213.38
489.46	31379.56
489.64	31136.15
489.81	32364.93
489.99	32116.83
490.17	32025.55
490.35	32870.48
490.53	32407.06
490.70	33102.20
490.88	33179.43
491.06	33263.69
491.24	33170.07
491.41	33567.96
491.59	33809.04
491.77	33635.84
491.95	34543.97
492.13	34663.33
492.30	34436.30
492.48	34953.56
492.66	34892.71
492.84	34969.94
493.01	35639.34
493.19	35503.59
493.37	36135.53
493.54	35702.53
493.72	36308.73
493.90	36369.58
494.08	36856.42
494.25	37242.60
494.43	37490.70
494.61	37806.67
494.79	37883.91
494.96	37975.19
495.14	37656.88
495.32	38597.77
495.49	38195.20
495.67	38546.28
495.85	38684.37
496.02	39278.87
496.20	38789.70
496.38	39351.43
496.55	39335.04
496.73	40488.93
496.91	39948.26
497.09	40301.68
497.26	40533.40
497.44	40451.48
497.62	40521.69
497.79	41523.44
497.97	41090.44
498.14	41670.90
498.32	41790.27
498.50	41591.32
498.67	42171.77
498.85	42131.98
499.03	42122.62
499.20	42246.67
499.38	42871.59
499.56	42792.01
499.73	43040.11
499.91	43325.66
500.08	43278.85
500.26	43227.35
500.44	43407.58
500.61	43697.80
500.79	43449.70
500.97	44062.93
501.14	45081.06
501.32	44643.38
501.49	44542.74
501.67	44411.67
501.84	44399.96
502.02	44772.11
502.20	44940.63
502.37	45029.57
502.55	45373.63
502.72	45415.76
502.90	45455.54
503.07	45305.75
503.25	45851.09
503.43	45460.23
503.60	46169.41
503.78	46059.40
503.95	46333.24
504.13	46440.91
504.30	46546.23
504.48	46429.21
504.65	46904.34
504.83	46717.09
505.01	47239.03
505.18	46937.10
505.36	47445.00
505.53	47533.94
505.71	47707.14
505.88	48046.52
506.06	47564.37
506.23	48130.78
506.41	47971.62
506.58	48231.42
506.76	48135.46
506.93	48355.47
507.11	48039.50
507.28	48488.88
507.46	48914.86
507.63	48767.40
507.81	49404.03
507.98	48989.75
508.16	49088.06
508.33	48886.77
508.50	49214.44
508.68	49570.21
508.85	49305.73
509.03	49551.48
509.20	49958.73
509.38	49991.50
509.55	50085.12
509.73	50564.93
509.90	50417.48
510.08	50035.97
510.25	50398.76
510.42	50906.65
510.60	50911.33
510.77	50972.19
510.95	51159.43
511.12	50539.19
511.30	50595.36
511.47	51093.89
511.64	50960.48
511.82	51466.04
511.99	51531.57
512.17	51664.99
512.34	51852.23
512.51	51927.13
512.69	51686.05
512.86	51650.94
513.04	52048.83
513.21	52236.08
513.38	52640.99
513.56	52268.84
513.73	52009.04
513.90	52458.43
514.08	52493.54
514.25	52542.69
514.43	52655.03
514.60	52912.49
514.77	52807.17
514.95	53329.11
515.12	52823.55
515.29	52952.28
515.47	52842.27
515.64	53504.65
515.81	53172.29
515.99	53567.84
516.16	53719.98
516.33	53544.44
516.51	53719.98
516.68	53752.74
516.85	53631.04
517.03	53752.74
517.20	54134.25
517.37	54115.53
517.54	54075.74
517.72	54014.88
517.89	54110.85
518.06	54237.23
518.24	54003.18
518.41	54370.64
518.58	54616.40
518.75	54548.53
518.93	54763.85
519.10	54513.42
519.27	54501.71
519.45	54820.03
519.62	54862.16
519.79	54740.45
519.96	54780.24
520.14	55168.77
520.31	55056.42
520.48	55168.77
520.65	54911.31
520.83	55346.65
521.00	55590.06
521.17	55358.35
521.34	55143.02
521.52	55664.96
521.69	55620.49
521.86	55655.60
522.03	55763.26
522.20	55838.16
522.38	55929.44
522.55	55686.03
522.72	55894.33
522.89	55828.80
523.07	55877.95
523.24	56247.75
523.41	56385.85
523.58	55861.57
523.75	56371.80
523.92	56287.54
524.10	56432.66
524.27	56472.45
524.44	56324.99
524.61	56891.40
524.78	56765.01
524.96	56631.60
525.13	56594.15
525.30	56945.23
525.47	56879.70
525.64	56809.48
525.81	57050.56
525.98	57153.54
526.16	57223.76
526.33	57291.63
526.50	57371.21
526.67	57050.56
526.84	57190.99
527.01	57102.05
527.18	57434.41
527.36	57357.17
527.53	57626.33
527.70	57729.31
527.87	57696.55
528.04	57408.66
528.21	57563.14
528.38	57553.77
528.55	57607.61
528.72	57771.44
528.89	57717.61
529.07	57888.47
529.24	57813.57
529.41	57968.05
529.58	57708.25
529.75	58094.44
529.92	57762.08
530.09	57949.32
530.26	58045.29
530.43	58391.68
530.60	58197.42
530.77	58190.40
530.94	58457.22
531.11	58262.96
531.28	58459.56
531.46	58195.08
531.63	58363.60
531.80	58550.84
531.97	58745.11
532.14	58803.62
532.31	58564.88
532.48	58677.23
532.65	58740.42
532.82	58677.23
532.99	58843.41
533.16	58529.78
533.33	58698.30
533.50	59238.96
533.67	58988.52
533.84	58988.52
534.01	58908.94
534.18	58862.13
534.35	59274.07
534.52	59253.00
534.69	59257.68
534.86	59276.41
535.03	59049.38
535.20	59449.61
535.37	59414.50
535.54	59437.90
535.71	59049.38
535.88	59236.62
536.05	59435.56
536.22	59444.93
536.38	59552.59
536.55	59711.75
536.72	59714.09
536.89	59643.87
537.06	59604.08
537.23	59737.49
537.40	59524.50
537.57	59671.96
537.74	59723.45
537.91	60011.34
538.08	59964.52
538.25	59948.14
538.42	59873.24
538.59	59943.46
538.75	59721.11
538.92	60048.78
539.09	60044.10
539.26	60189.22
539.43	60069.85
539.60	60177.51
539.77	60441.99
539.94	60500.51
540.11	60179.85
540.28	60196.24
540.44	60575.40
540.61	60196.24
540.78	60470.08
540.95	60526.25
541.12	60626.90
541.29	60736.90
541.46	60561.36
541.62	60568.38
541.79	60638.60
541.96	60439.65
542.13	60683.07
542.30	60636.26
542.47	60919.46
542.63	60956.91
542.80	61155.86
542.97	61212.03
543.14	61209.69
543.31	60985.00
543.48	61123.09
543.64	61141.81
543.81	61207.35
543.98	61396.93
544.15	61345.44
544.32	61450.77
544.48	61478.85
544.65	61300.97
544.82	61310.33
544.99	61071.60
545.16	61460.13
545.32	61502.26
545.49	61731.63
545.66	61766.74
545.83	62056.96
546.00	62017.17
546.16	61750.35
546.33	61528.00
546.50	61235.44
546.67	61670.78
546.83	61389.91
547.00	61628.65
547.17	61595.88
547.34	61914.19
547.50	61724.61
547.67	61895.47
547.84	61862.70
548.00	61843.98
548.17	61853.34
548.34	61862.70
548.51	62157.61
548.67	61951.64
548.84	61886.10
549.01	62134.20
549.18	61975.05
549.34	62047.60
549.51	61909.51
549.68	61961.00
549.84	61876.74
550.01	62129.52
550.18	61970.36
550.34	62082.71
550.51	62309.74
550.68	62349.53
550.84	62195.06
551.01	62302.72
551.18	62298.04
551.34	62047.60
551.51	62466.56
551.68	62358.89
551.84	62143.56
552.01	62199.74
552.18	62480.60
552.34	62595.29
552.51	62639.76
552.68	62195.06
552.84	62361.23
553.01	62536.77
553.18	62454.86
553.34	62569.54
553.51	62553.16
553.67	62705.29
553.84	62920.62
554.01	62836.36
554.17	62747.42
554.34	62667.84
554.51	62618.69
554.67	62773.17
554.84	62728.70
555.00	63021.26
555.17	62773.17
555.33	62819.98
555.50	62871.47
555.67	62967.43
555.83	62922.96
556.00	62574.22
556.16	62841.04
556.33	62850.41
556.50	62965.09
556.66	63173.40
556.83	63049.35
556.99	63175.74
557.16	63149.99
557.32	62871.47
557.49	63210.85
557.65	63079.78
557.82	63166.38
557.98	63124.25
558.15	62990.84
558.32	63124.25
558.48	63182.76
558.65	63269.36
558.81	63105.52
558.98	63276.38
559.14	63353.62
559.31	63381.71
559.47	63241.28
559.64	63180.42
559.80	63260.00
559.97	63407.45
560.13	63248.30
560.30	63355.96
560.46	63437.88
560.63	63400.43
560.79	63437.88
560.96	63470.65
561.12	63241.28
561.29	63402.77
561.45	63683.64
561.61	63444.90
561.78	63559.59
561.94	63758.53
562.11	63690.66
562.27	63671.93
562.44	63538.52
562.60	63388.73
562.77	63503.42
562.93	63449.58
563.10	63627.46
563.26	63552.57
563.42	63833.43
563.59	63725.77
563.75	63646.19
563.92	63737.47
564.08	63634.48
564.24	63524.48
564.41	63477.67
564.57	63707.04
564.74	63753.85
564.90	63730.45
565.07	64058.12
565.23	63753.85
565.39	63753.85
565.56	63774.92
565.72	63849.81
565.88	63718.74
566.05	63800.66
566.21	63714.06
566.38	63678.96
566.54	63690.66
566.70	64147.06
566.87	63994.93
567.03	63793.64
567.19	64013.65
567.36	63882.58
567.52	63700.02
567.68	64020.67
567.85	63709.38
568.01	63842.79
568.17	63742.15
568.34	64027.70
568.50	63917.69
568.66	64130.68
568.83	64210.26
568.99	63934.07
569.15	63884.92
569.32	64030.04
569.48	63966.84
569.64	64008.97
569.81	63908.33
569.97	63969.18
570.13	64079.19
570.30	63957.48
570.46	64257.07
570.62	63983.22
570.78	63980.88
570.95	63840.45
571.11	64118.98
571.27	63985.57
571.43	64118.98
571.60	63971.52
571.76	64081.53
571.92	64259.41
572.09	64177.49
572.25	64168.13
572.41	64074.51
572.57	64273.45
572.74	64236.00
572.90	64266.43
573.06	64268.77
573.22	64355.37
573.38	64385.80
573.55	64109.61
573.71	64587.08
573.87	64409.20
574.03	64118.98
574.20	64413.88
574.36	63971.52
574.52	64151.74
574.68	64144.72
574.84	64282.81
575.01	64341.33
575.17	64346.01
575.33	64177.49
575.49	64247.71
575.65	64420.90
575.82	64491.12
575.98	64250.05
576.14	64346.01
576.30	64261.75
576.46	64189.19
576.62	64409.20
576.79	64484.10
576.95	64109.61
577.11	64425.59
577.27	64472.40
577.43	64306.22
577.59	64404.52
577.75	64406.86
577.92	64140.04
578.08	64282.81
578.24	64432.61
578.40	64448.99
578.56	64315.58
578.72	64299.20
578.88	64846.88
579.04	64718.15
579.21	64467.72
579.37	64605.81
579.53	64598.79
579.69	64350.69
579.85	64369.41
580.01	64364.73
580.17	64346.01
580.33	64448.99
580.49	64526.23
580.65	64718.15
580.82	64610.49
580.98	64554.32
581.14	64587.08
581.30	64666.66
581.46	64481.76
581.62	64207.92
581.78	64217.28
581.94	64441.97
582.10	64521.55
582.26	64484.10
582.42	64722.83
582.58	64575.38
582.74	64615.17
582.90	64664.32
583.06	64636.23
583.22	64327.28
583.38	64750.92
583.54	64495.80
583.70	64456.01
583.86	64617.51
584.02	64374.09
584.18	64732.20
584.34	64697.09
584.50	64629.21
584.66	64530.91
584.82	64605.81
584.98	64521.55
585.14	64498.14
585.30	64404.52
585.46	64423.25
585.62	64418.56
585.78	64657.30
585.94	64350.69
586.10	64633.89
586.26	64659.64
586.42	64924.12
586.58	64814.12
586.74	64589.42
586.90	64659.64
587.06	64568.36
587.22	64711.13
587.38	64399.84
587.54	64837.52
587.70	64762.62
587.86	64713.47
588.02	64725.17
588.18	64966.25
588.34	64781.35
588.49	64851.56
