SpectraSuite Data File
++++++++++++++++++++++++++++++++++++
Date: Fri Oct 04 11:39:25 GMT-05:00 2013
User: price-jones
Dark Spectrum Present: No
Reference Spectrum Present: No
Number of Sampled Component Spectra: 1
Spectrometers: USB2+H05261
Integration Time (usec): 100000 (USB2+H05261)
Spectra Averaged: 1 (USB2+H05261)
Boxcar Smoothing: 0 (USB2+H05261)
Correct for Electrical Dark: No (USB2+H05261)
Strobe/Lamp Enabled: No (USB2+H05261)
Correct for Detector Non-linearity: No (USB2+H05261)
Correct for Stray Light: No (USB2+H05261)
Number of Pixels in Processed Spectrum: 2048
>>>>>Begin Processed Spectral Data<<<<<
365.73	112.35
365.92	112.35
366.12	112.35
366.32	0.00
366.52	0.00
366.72	0.00
366.91	0.00
367.11	0.00
367.31	0.00
367.51	0.00
367.70	0.00
367.90	0.00
368.10	0.00
368.30	0.00
368.49	0.00
368.69	0.00
368.89	18.72
369.09	0.00
369.28	0.00
369.48	0.00
369.68	0.00
369.87	0.00
370.07	42.13
370.27	70.22
370.47	124.05
370.66	194.26
370.86	205.97
371.06	250.44
371.25	325.33
371.45	248.10
371.65	313.63
371.84	234.05
372.04	184.90
372.24	322.99
372.44	332.36
372.63	250.44
372.83	362.78
373.03	325.33
373.22	322.99
373.42	264.48
373.62	262.14
373.81	346.40
374.01	313.63
374.21	362.78
374.40	374.49
374.60	358.10
374.79	297.25
374.99	315.97
375.19	292.57
375.38	351.08
375.58	320.65
375.78	423.64
375.97	353.42
376.17	365.12
376.37	351.08
376.56	304.27
376.76	404.91
376.95	334.70
377.15	442.36
377.35	416.62
377.54	379.17
377.74	369.80
377.93	348.74
378.13	421.30
378.33	397.89
378.52	372.15
378.72	402.57
378.91	390.87
379.11	313.63
379.31	351.08
379.50	332.36
379.70	421.30
379.89	355.76
380.09	339.38
380.28	327.68
380.48	360.44
380.68	341.72
380.87	390.87
381.07	451.72
381.26	428.32
381.46	433.00
381.65	444.70
381.85	355.76
382.04	423.64
382.24	451.72
382.43	418.96
382.63	325.33
382.83	430.66
383.02	433.00
383.22	528.96
383.41	353.42
383.61	463.43
383.80	376.83
384.00	411.93
384.19	475.13
384.39	435.34
384.58	468.11
384.78	538.32
384.97	482.15
385.17	360.44
385.36	449.38
385.56	421.30
385.75	425.98
385.95	442.36
386.14	535.98
386.34	500.87
386.53	564.07
386.72	409.59
386.92	514.92
387.11	484.49
387.31	507.90
387.50	451.72
387.70	447.04
387.89	390.87
388.09	533.64
388.28	545.34
388.48	512.58
388.67	559.39
388.86	510.24
389.06	491.51
389.25	552.37
389.45	491.51
389.64	564.07
389.84	514.92
390.03	526.62
390.22	535.98
390.42	510.24
390.61	533.64
390.81	535.98
391.00	554.71
391.19	580.45
391.39	561.73
391.58	554.71
391.78	543.00
391.97	678.76
392.16	620.24
392.36	624.92
392.55	564.07
392.75	622.58
392.94	596.84
393.13	566.41
393.33	528.96
393.52	685.78
393.71	681.10
393.91	631.94
394.10	617.90
394.29	688.12
394.49	615.56
394.68	758.33
394.88	669.39
395.07	716.20
395.26	692.80
395.46	643.65
395.65	713.86
395.84	655.35
396.04	720.88
396.23	760.67
396.42	704.50
396.62	779.40
396.81	753.65
397.00	695.14
397.19	763.01
397.39	704.50
397.58	784.08
397.77	793.44
397.97	734.93
398.16	851.96
398.35	755.99
398.55	896.43
398.74	861.32
398.93	807.48
399.12	910.47
399.32	849.61
399.51	819.19
399.70	952.60
399.90	882.38
400.09	950.26
400.28	997.07
400.47	880.04
400.67	884.72
400.86	898.77
401.05	903.45
401.24	938.55
401.44	891.74
401.63	1064.94
401.82	926.85
402.01	954.94
402.21	976.00
402.40	966.64
402.59	1034.52
402.78	1025.15
402.97	1043.88
403.17	1093.03
403.36	1107.07
403.55	1146.86
403.74	1174.95
403.93	1025.15
404.13	1123.46
404.32	1137.50
404.51	1111.75
404.70	1125.80
404.89	1046.22
405.09	1090.69
405.28	1139.84
405.47	1069.62
405.66	1132.82
405.85	1160.91
406.05	1212.40
406.24	1256.87
406.43	1268.57
406.62	1226.44
406.81	1425.39
407.00	1287.29
407.20	1247.51
407.39	1320.06
407.58	1313.04
407.77	1345.81
407.96	1387.94
408.15	1348.15
408.34	1277.93
408.54	1420.71
408.73	1378.58
408.92	1413.68
409.11	1437.09
409.30	1458.15
409.49	1500.28
409.68	1479.22
409.87	1474.54
410.07	1465.18
410.26	1589.22
410.45	1514.33
410.64	1643.06
410.83	1479.22
411.02	1554.12
411.21	1598.59
411.40	1624.33
411.59	1645.40
411.78	1701.57
411.98	1727.32
412.17	1703.91
412.36	1909.88
412.55	1652.42
412.74	1846.68
412.93	1870.09
413.12	1783.49
413.31	1952.01
413.50	1891.15
413.69	2045.63
413.88	2003.50
414.07	1863.07
414.26	1956.69
414.45	1970.73
414.64	2022.22
414.83	1980.09
415.02	2040.95
415.22	2162.66
415.41	2155.63
415.60	2040.95
415.79	2200.10
415.98	2237.55
416.17	2218.83
416.36	2225.85
416.55	2228.19
416.74	2223.51
416.93	2321.81
417.12	2422.45
417.31	2363.94
417.50	2370.96
417.69	2422.45
417.88	2443.52
418.07	2459.90
418.26	2377.98
418.45	2459.90
418.64	2523.10
418.83	2581.61
419.02	2656.51
419.21	2485.65
419.39	2480.97
419.58	2597.99
419.77	2527.78
419.96	2600.34
420.15	2605.02
420.34	2724.38
420.53	2555.86
420.72	2605.02
420.91	2750.13
421.10	2717.36
421.29	2736.09
421.48	2745.45
421.67	2890.56
421.86	2796.94
422.05	2855.45
422.24	2794.60
422.43	2813.32
422.61	2848.43
422.80	2853.11
422.99	2813.32
423.18	2759.49
423.37	2923.33
423.56	2937.37
423.75	2949.08
423.94	2766.51
424.13	2731.41
424.32	2752.47
424.50	2892.90
424.69	2913.97
424.88	3002.91
425.07	2918.65
425.26	2913.97
425.45	2935.03
425.64	2920.99
425.83	2878.86
426.01	3035.67
426.20	2995.89
426.39	2937.37
426.58	2902.26
426.77	2998.23
426.96	3063.76
427.15	3066.10
427.33	3023.97
427.52	2967.80
427.71	3077.80
427.90	3162.06
428.09	3108.23
428.28	3087.17
428.46	3286.11
428.65	3101.21
428.84	3234.62
429.03	3269.73
429.22	3232.28
429.40	3300.16
429.59	3253.34
429.78	3155.04
429.97	3138.66
430.16	3248.66
430.34	3239.30
430.53	3197.17
430.72	3229.94
430.91	3272.07
431.10	3407.82
431.28	3328.24
431.47	3468.67
431.66	3398.46
431.85	3482.72
432.03	3618.47
432.22	3527.19
432.41	3501.44
432.60	3517.83
432.79	3604.42
432.97	3515.48
433.16	3510.80
433.35	3510.80
433.54	3527.19
433.72	3653.58
433.91	3623.15
434.10	3686.34
434.28	3606.77
434.47	3786.99
434.66	3688.68
434.85	3726.13
435.03	3826.78
435.22	3918.06
435.41	4222.33
435.59	4161.47
435.78	3850.18
435.97	3983.59
436.16	3978.91
436.34	3866.56
436.53	3906.35
436.72	3906.35
436.90	3810.39
437.09	3829.12
437.28	3850.18
437.46	3988.27
437.65	3948.48
437.84	3875.93
438.02	3892.31
438.21	4042.11
438.40	3894.65
438.58	4142.75
438.77	4156.79
438.96	4088.92
439.14	4287.86
439.33	4236.37
439.52	4154.45
439.70	4318.29
439.89	4308.93
440.08	4496.17
440.26	4313.61
440.45	4418.93
440.63	4409.57
440.82	4479.79
441.01	4538.30
441.19	4442.34
441.38	4631.92
441.57	4594.47
441.75	4753.63
441.94	4833.21
442.12	4657.67
442.31	4662.35
442.50	4800.44
442.68	4683.41
442.87	4737.24
443.05	4791.08
443.24	5008.75
443.43	4840.23
443.61	4975.98
443.80	5001.72
443.98	4779.37
444.17	4634.26
444.35	4910.44
444.54	4828.53
444.73	4936.19
444.91	4868.31
445.10	4821.50
445.28	4959.60
445.47	4765.33
445.65	4945.55
445.84	4887.04
446.02	4945.55
446.21	4973.64
446.39	4943.21
446.58	4868.31
446.77	4980.66
446.95	5069.60
447.14	4952.57
447.32	5067.26
447.51	5121.09
447.69	4882.36
447.88	5069.60
448.06	4987.68
448.25	4947.89
448.43	5238.12
448.62	5071.94
448.80	5085.98
448.99	5217.05
449.17	5317.70
449.36	5085.98
449.54	5315.36
449.73	5221.74
449.91	5446.43
450.10	5270.89
450.28	5364.51
450.46	5238.12
450.65	5359.83
450.83	5378.55
451.02	5317.70
451.20	5430.04
451.39	5465.15
451.57	5408.98
451.76	5284.93
451.94	5350.46
452.13	5516.64
452.31	5373.87
452.49	5500.26
452.68	5502.60
452.86	5502.60
453.05	5628.99
453.23	5647.71
453.42	5509.62
453.60	5563.45
453.78	5699.20
453.97	5605.58
454.15	5441.75
454.34	5547.07
454.52	5699.20
454.70	5652.39
454.89	5582.18
455.07	5551.75
455.26	5853.68
455.44	5879.43
455.62	5813.89
455.81	5858.36
455.99	5867.72
456.17	5860.70
456.36	5973.05
456.54	5980.07
456.73	6071.35
456.91	6202.42
457.09	6146.25
457.28	6244.55
457.46	6061.99
457.64	6263.27
457.83	6066.67
458.01	6164.97
458.19	6141.57
458.38	6150.93
458.56	6345.19
458.74	6459.88
458.93	6319.45
459.11	6174.33
459.29	6502.01
459.48	6476.26
459.66	6509.03
459.84	6401.37
460.03	6523.07
460.21	6614.35
460.39	6623.72
460.57	6464.56
460.76	6487.96
460.94	6579.25
461.12	6487.96
461.31	6642.44
461.49	6490.31
461.67	6583.93
461.85	6757.13
462.04	6675.21
462.22	6958.41
462.40	6759.47
462.59	6693.93
462.77	6717.34
462.95	6902.24
463.13	6918.62
463.32	6700.95
463.50	7042.67
463.68	6939.69
463.86	6876.49
464.05	6787.55
464.23	6836.70
464.41	7042.67
464.59	6972.46
464.78	6988.84
464.96	7075.44
465.14	6995.86
465.32	7019.27
465.50	7089.48
465.69	7185.44
465.87	7101.19
466.05	7262.68
466.23	7201.83
466.41	7286.09
466.60	7248.64
466.78	7258.00
466.96	7187.79
467.14	7227.57
467.32	7414.82
467.51	7473.33
467.69	7077.78
467.87	7389.07
468.05	7363.33
468.23	7351.62
468.41	7286.09
468.60	7309.49
468.78	7372.69
468.96	7405.46
469.14	7440.56
469.32	7609.08
469.50	7365.67
469.69	7524.82
469.87	7590.36
470.05	7665.25
470.23	7742.49
470.41	7723.77
470.59	7496.74
470.77	7707.38
470.95	7927.39
471.14	7775.26
471.32	7908.67
471.50	7929.74
471.68	7901.65
471.86	7967.18
472.04	7990.59
472.22	8121.66
472.40	8140.38
472.58	8081.87
472.77	8154.43
472.95	8212.94
473.13	8444.65
473.31	7894.63
473.49	8201.24
473.67	8140.38
473.85	8491.46
474.03	8526.57
474.21	8486.78
474.39	8603.81
474.57	8746.58
474.75	8727.86
474.93	8725.52
475.12	8718.50
475.30	8716.16
475.48	8746.58
475.66	8802.75
475.84	9046.17
476.02	9008.72
476.20	8971.27
476.38	9242.78
476.56	9404.27
476.74	9158.52
476.92	9399.59
477.10	9263.84
477.28	9502.58
477.46	9275.54
477.64	9460.45
477.82	9528.32
478.00	9755.35
478.18	9902.81
478.36	9757.69
478.54	10031.54
478.72	9975.36
478.90	10190.69
479.08	10076.01
479.26	10139.20
479.44	10139.20
479.62	10256.23
479.80	10492.62
479.98	10576.88
480.16	10796.89
480.34	10630.71
480.52	10778.17
480.70	10621.35
480.88	10698.59
481.06	10939.66
481.24	10752.42
481.41	10925.62
481.59	10892.85
481.77	11382.03
481.95	11236.91
482.13	11501.39
482.31	11377.34
482.49	11492.03
482.67	11889.92
482.85	11695.66
483.03	12002.27
483.21	12217.60
483.39	11988.22
483.57	11761.19
483.74	12194.19
483.92	12138.02
484.10	12545.27
484.28	12727.83
484.46	12788.69
484.64	12978.27
484.82	12732.51
485.00	12774.64
485.18	13142.11
485.35	13081.25
485.53	13153.81
485.71	13327.01
485.89	13666.39
486.07	13586.81
486.25	13523.62
486.43	13664.05
486.61	13874.70
486.78	14003.43
486.96	13951.93
487.14	14153.22
487.32	14317.06
487.50	14324.08
487.68	14387.27
487.85	14616.65
488.03	14801.55
488.21	14904.53
488.39	14668.14
488.57	15016.88
488.75	14998.15
488.92	15393.70
489.10	15463.92
489.28	15445.20
489.46	15721.38
489.64	15302.42
489.81	15941.39
489.99	15784.57
490.17	15955.43
490.35	15999.90
490.53	16116.93
490.70	16482.05
490.88	16325.24
491.06	16475.03
491.24	16547.59
491.41	16659.93
491.59	16662.27
491.77	16856.54
491.95	17326.99
492.13	17362.09
492.30	17343.37
492.48	17355.07
492.66	17165.49
492.84	17528.27
493.01	17860.63
493.19	17762.33
493.37	18029.15
493.54	17778.71
493.72	17923.82
493.90	18274.90
494.08	18473.85
494.25	18534.70
494.43	18532.36
494.61	18431.72
494.79	18710.24
494.96	18635.35
495.14	18838.97
495.32	19271.97
495.49	19082.39
495.67	19150.26
495.85	19573.90
496.02	19517.73
496.20	19665.18
496.38	19779.87
496.55	19391.34
496.73	20044.35
496.91	20063.07
497.09	20123.93
497.26	20037.33
497.44	20039.67
497.62	20215.21
497.79	20320.53
497.97	20002.22
498.14	20711.40
498.32	20863.54
498.50	20435.22
498.67	21120.99
498.85	20718.42
499.03	20868.22
499.20	21085.89
499.38	20973.54
499.56	21493.14
499.73	21465.05
499.91	21865.28
500.08	21394.84
500.26	21296.53
500.44	21575.06
500.61	21975.29
500.79	21898.05
500.97	22139.13
501.14	22270.20
501.32	22286.58
501.49	22008.06
501.67	22080.61
501.84	22031.46
502.02	22345.09
502.20	22417.65
502.37	22644.68
502.55	22530.00
502.72	22752.35
502.90	22696.17
503.07	22647.02
503.25	22904.48
503.43	22651.70
503.60	23040.23
503.78	22892.78
503.95	23058.96
504.13	22970.02
504.30	23248.54
504.48	23323.44
504.65	23480.25
504.83	23503.66
505.01	23552.81
505.18	23765.80
505.36	24254.97
505.53	23775.16
505.71	23838.36
505.88	23906.23
506.06	23683.88
506.23	24259.65
506.41	24271.36
506.58	24151.99
506.76	24360.30
506.93	24470.30
507.11	24088.79
507.28	23976.45
507.46	24547.54
507.63	24989.90
507.81	25102.25
507.98	24641.16
508.16	24994.58
508.33	24931.39
508.50	25102.25
508.68	25221.61
508.85	25420.56
509.03	25336.30
509.20	25469.71
509.38	25741.21
509.55	25544.61
509.73	26001.01
509.90	25759.94
510.08	25914.41
510.25	25804.41
510.42	25958.88
510.60	26176.55
510.77	26120.38
510.95	26202.30
511.12	26015.05
511.30	26426.99
511.47	26831.90
511.64	26426.99
511.82	26506.57
511.99	26499.55
512.17	26890.41
512.34	26906.80
512.51	27154.90
512.69	27056.59
512.86	27035.53
513.04	27185.32
513.21	27229.79
513.38	27140.85
513.56	27314.05
513.73	27428.74
513.90	27501.29
514.08	27194.68
514.25	27559.81
514.43	27625.34
514.60	27758.75
514.77	27871.10
514.95	28149.62
515.12	27601.94
515.29	27796.20
515.47	27716.62
515.64	28561.56
515.81	28219.84
515.99	28130.90
516.16	28481.98
516.33	28154.30
516.51	28617.73
516.68	28271.33
516.85	28524.11
517.03	28379.00
517.20	28835.40
517.37	28896.25
517.54	28790.93
517.72	29158.39
517.89	28648.16
518.06	28753.48
518.24	28978.17
518.41	29111.58
518.58	29085.84
518.75	28840.08
518.93	29268.40
519.10	29315.21
519.27	29420.53
519.45	29434.58
519.62	29174.78
519.79	29481.39
519.96	29472.03
520.14	29762.25
520.31	29310.53
520.48	29689.70
520.65	29675.65
520.83	30356.75
521.00	29823.11
521.17	30050.14
521.34	30148.44
521.52	30300.58
521.69	30480.80
521.86	30565.06
522.03	30539.31
522.20	30794.43
522.38	30338.02
522.55	30288.87
522.72	30433.99
522.89	30829.54
523.07	30740.60
523.24	30775.70
523.41	31152.53
523.58	30712.51
523.75	30967.63
523.92	31365.52
524.10	30988.69
524.27	31218.07
524.44	31388.92
524.61	31679.15
524.78	31246.15
524.96	31512.97
525.13	31374.88
525.30	31440.42
525.47	31903.84
525.64	31534.04
525.81	31501.27
525.98	32044.27
526.16	31908.52
526.33	31601.91
526.50	32348.54
526.67	31756.39
526.84	31957.67
527.01	32100.45
527.18	32175.34
527.36	32285.35
527.53	32077.04
527.70	32318.12
527.87	32622.39
528.04	32187.05
528.21	32362.59
528.38	32507.70
528.55	32474.93
528.72	32381.31
528.89	32933.68
529.07	32767.50
529.24	32481.95
529.41	33078.79
529.58	32460.89
529.75	32676.22
529.92	32692.60
530.09	32875.16
530.26	33106.88
530.43	33071.77
530.60	32760.48
530.77	33324.55
530.94	33017.94
531.11	33109.22
531.28	32975.81
531.46	33291.78
531.63	33390.08
531.80	33631.16
531.97	33577.33
532.14	33778.61
532.31	33495.41
532.48	33802.02
532.65	33668.61
532.82	33338.59
532.99	33605.41
533.16	33713.08
533.33	34019.69
533.50	34448.00
533.67	34052.45
533.84	33802.02
534.01	33874.57
534.18	33642.86
534.35	34230.33
534.52	34387.15
534.69	34574.39
534.86	34497.16
535.03	34321.62
535.20	34307.57
535.37	34426.94
535.54	34270.12
535.71	34614.18
535.88	34567.37
536.05	34731.21
536.22	34878.66
536.38	34873.98
536.55	34426.94
536.72	34801.43
536.89	34370.77
537.06	34965.26
537.23	35171.23
537.40	35161.87
537.57	35016.75
537.74	35089.31
537.91	35192.30
538.08	35426.35
538.25	35204.00
538.42	34911.43
538.59	34951.22
538.75	35175.91
538.92	35166.55
539.09	35697.85
539.26	35115.06
539.43	35800.83
539.60	35571.46
539.77	35583.16
539.94	35824.24
540.11	36002.12
540.28	35917.86
540.44	35812.54
540.61	35793.81
540.78	35927.22
540.95	36041.91
541.12	36006.80
541.29	36266.60
541.46	36147.23
541.62	36327.45
541.79	36505.34
541.96	35763.39
542.13	36290.01
542.30	36697.26
542.47	37053.02
542.63	36603.64
542.80	36835.35
542.97	36409.37
543.14	36877.48
543.31	37130.26
543.48	36825.99
543.64	37240.26
543.81	37457.93
543.98	37085.79
544.15	37092.81
544.32	37181.75
544.48	37621.77
544.65	37076.43
544.82	36879.82
544.99	36591.94
545.16	37104.51
545.32	36737.05
545.49	38071.15
545.66	38197.54
545.83	38300.53
546.00	38483.09
546.16	38234.99
546.33	37282.39
546.50	37200.47
546.67	37668.58
546.83	37177.07
547.00	37694.33
547.17	37338.57
547.34	37755.18
547.50	37511.77
547.67	37521.13
547.84	37738.80
548.00	37633.47
548.17	37633.47
548.34	37621.77
548.51	37757.52
548.67	37846.46
548.84	38141.37
549.01	38024.34
549.18	38010.30
549.34	37942.42
549.51	37797.31
549.68	37708.37
549.84	37914.34
550.01	38623.52
550.18	37610.07
550.34	37872.21
550.51	38457.34
550.68	38169.46
550.84	37759.86
551.01	38335.63
551.18	37844.12
551.34	37787.95
551.51	37909.66
551.68	38284.14
551.84	38356.70
552.01	38136.69
552.18	38270.10
552.34	38031.36
552.51	38274.78
552.68	38497.13
552.84	38532.24
553.01	38403.51
553.18	38649.27
553.34	38511.17
553.51	38361.38
553.67	38424.57
553.84	39026.09
554.01	38934.81
554.17	38595.43
554.34	38733.53
554.51	38623.52
554.67	38876.30
554.84	38878.64
555.00	38665.65
555.17	38363.72
555.33	38649.27
555.50	38731.18
555.67	38742.89
555.83	38747.57
556.00	39016.73
556.16	39014.39
556.33	38375.42
556.50	39079.92
556.66	38656.29
556.83	38878.64
556.99	39421.64
557.16	39414.62
557.32	38955.88
557.49	39541.01
557.65	39311.64
557.82	39084.61
557.98	39384.19
558.15	38586.07
558.32	39693.15
558.48	39028.43
558.65	39505.90
558.81	39243.76
558.98	39344.41
559.14	39253.12
559.31	38918.43
559.47	39388.88
559.64	39281.21
559.80	39468.45
559.97	39765.70
560.13	39461.43
560.30	39903.79
560.46	39730.59
560.63	39793.79
560.79	39810.17
560.96	39667.40
561.12	39606.55
561.29	39924.86
561.45	39526.97
561.61	39585.48
561.78	39927.20
561.94	39737.62
562.11	39831.24
562.27	39594.84
562.44	39737.62
562.60	39559.73
562.77	39447.39
562.93	39234.40
563.10	39772.72
563.26	39627.61
563.42	40137.85
563.59	39948.26
563.75	39784.43
563.92	40076.99
564.08	39730.59
564.24	39964.65
564.41	39475.48
564.57	39531.65
564.74	39908.47
564.90	39861.66
565.07	39667.40
565.23	40217.43
565.39	39936.56
565.56	39744.64
565.72	39651.02
565.88	39672.08
566.05	39452.07
566.21	39648.68
566.38	39835.92
566.54	39985.71
566.70	40006.78
566.87	39934.22
567.03	40084.01
567.19	40519.35
567.36	40088.70
567.52	39974.01
567.68	40112.10
567.85	39875.71
568.01	40058.27
568.17	40069.97
568.34	39899.11
568.50	39814.85
568.66	40201.04
568.83	40041.88
568.99	39962.31
569.15	39903.79
569.32	40081.67
569.48	39981.03
569.64	40023.16
569.81	40067.63
569.97	39658.04
570.13	40407.01
570.30	40210.40
570.46	39976.35
570.62	40224.45
570.78	39805.49
570.95	39969.33
571.11	39917.84
571.27	39756.34
571.43	39821.87
571.60	40184.66
571.76	40226.79
571.92	40105.08
572.09	40711.28
572.25	40685.53
572.41	40505.31
572.57	39833.58
572.74	40643.40
572.90	40084.01
573.06	40034.86
573.22	40170.61
573.38	40196.36
573.55	40236.15
573.71	40205.72
573.87	40512.33
574.03	40201.04
574.20	40407.01
574.36	40037.20
574.52	40299.34
574.68	40128.48
574.84	40638.72
575.01	40486.59
575.17	40381.26
575.33	40346.15
575.49	40318.07
575.65	40442.12
575.82	40617.66
575.98	40493.61
576.14	40187.00
576.30	40460.84
576.46	40313.39
576.62	40315.73
576.79	40666.81
576.95	40257.21
577.11	40486.59
577.27	40561.48
577.43	40493.61
577.59	40428.07
577.75	40521.69
577.92	40257.21
578.08	40540.42
578.24	40474.88
578.40	40456.16
578.56	40472.54
578.72	40397.65
578.88	40940.65
579.04	40783.83
579.21	40381.26
579.37	40350.84
579.53	40641.06
579.69	40339.13
579.85	40189.34
580.01	40395.31
580.17	40399.99
580.33	40472.54
580.49	40236.15
580.65	40591.91
580.82	40608.29
580.98	40634.04
581.14	40325.09
581.30	40863.41
581.46	40348.50
581.62	40470.20
581.78	40027.84
581.94	40741.71
582.10	40292.32
582.26	40570.85
582.42	40369.56
582.58	40477.22
582.74	40353.18
582.90	40694.89
583.06	40526.38
583.22	40751.07
583.38	40542.76
583.54	40179.98
583.70	40297.00
583.86	40367.22
584.02	40477.22
584.18	40933.63
584.34	40730.00
584.50	40701.92
584.66	40821.28
584.82	40126.14
584.98	40320.41
585.14	40280.62
585.30	40285.30
585.46	40498.29
585.62	40526.38
585.78	40715.96
585.94	40154.23
586.10	40605.95
586.26	40388.28
586.42	40491.27
586.58	40680.85
586.74	40580.21
586.90	40491.27
587.06	40734.68
587.22	40641.06
587.38	40659.79
587.54	40629.36
587.70	40896.18
587.86	40615.32
588.02	40924.27
588.18	40942.99
588.34	40463.18
588.49	40662.13
588.65	40577.87
588.81	40250.19
588.97	40552.12
589.13	40399.99
589.29	40177.64
589.45	40996.82
589.61	40713.62
589.77	41221.52
589.93	41034.27
590.08	40928.95
590.24	41060.02
590.40	41076.40
590.56	41034.27
590.72	41090.44
590.88	40411.69
591.04	40823.62
