SpectraSuite Data File
++++++++++++++++++++++++++++++++++++
Date: Fri Oct 04 11:40:05 GMT-05:00 2013
User: price-jones
Dark Spectrum Present: No
Reference Spectrum Present: No
Number of Sampled Component Spectra: 1
Spectrometers: USB2+H05261
Integration Time (usec): 100000 (USB2+H05261)
Spectra Averaged: 1 (USB2+H05261)
Boxcar Smoothing: 0 (USB2+H05261)
Correct for Electrical Dark: No (USB2+H05261)
Strobe/Lamp Enabled: No (USB2+H05261)
Correct for Detector Non-linearity: No (USB2+H05261)
Correct for Stray Light: No (USB2+H05261)
Number of Pixels in Processed Spectrum: 2048
>>>>>Begin Processed Spectral Data<<<<<
365.73	46.81
365.92	46.81
366.12	46.81
366.32	0.00
366.52	0.00
366.72	0.00
366.91	0.00
367.11	0.00
367.31	0.00
367.51	0.00
367.70	0.00
367.90	2.34
368.10	0.00
368.30	0.00
368.49	0.00
368.69	0.00
368.89	0.00
369.09	0.00
369.28	32.77
369.48	0.00
369.68	0.00
369.87	9.36
370.07	0.00
370.27	51.49
370.47	0.00
370.66	46.81
370.86	79.58
371.06	74.90
371.25	112.35
371.45	77.24
371.65	126.39
371.84	91.28
372.04	67.88
372.24	46.81
372.44	110.01
372.63	121.71
372.83	88.94
373.03	67.88
373.22	65.54
373.42	133.41
373.62	72.56
373.81	119.37
374.01	100.64
374.21	135.75
374.40	79.58
374.60	140.43
374.79	163.84
374.99	147.45
375.19	93.62
375.38	147.45
375.58	138.09
375.78	121.71
375.97	124.05
376.17	166.18
376.37	194.26
376.56	173.20
376.76	4.68
376.95	67.88
377.15	140.43
377.35	159.16
377.54	145.11
377.74	154.48
377.93	156.82
378.13	159.16
378.33	126.39
378.52	91.28
378.72	60.85
378.91	105.32
379.11	86.60
379.31	142.77
379.50	91.28
379.70	173.20
379.89	138.09
380.09	177.88
380.28	142.77
380.48	63.19
380.68	74.90
380.87	110.01
381.07	112.35
381.26	168.52
381.46	100.64
381.65	102.98
381.85	93.62
382.04	112.35
382.24	131.07
382.43	121.71
382.63	70.22
382.83	72.56
383.02	102.98
383.22	149.79
383.41	74.90
383.61	112.35
383.80	84.26
384.00	105.32
384.19	117.03
384.39	100.64
384.58	102.98
384.78	107.66
384.97	110.01
385.17	102.98
385.36	149.79
385.56	72.56
385.75	86.60
385.95	56.17
386.14	110.01
386.34	131.07
386.53	175.54
386.72	156.82
386.92	119.37
387.11	154.48
387.31	44.47
387.50	161.50
387.70	107.66
387.89	81.92
388.09	58.51
388.28	133.41
388.48	170.86
388.67	65.54
388.86	166.18
389.06	133.41
389.25	65.54
389.45	124.05
389.64	119.37
389.84	170.86
390.03	163.84
390.22	166.18
390.42	114.69
390.61	98.30
390.81	84.26
391.00	42.13
391.19	114.69
391.39	88.94
391.58	177.88
391.78	105.32
391.97	168.52
392.16	37.45
392.36	100.64
392.55	72.56
392.75	98.30
392.94	110.01
393.13	124.05
393.33	126.39
393.52	53.83
393.71	131.07
393.91	98.30
394.10	98.30
394.29	102.98
394.49	58.51
394.68	131.07
394.88	152.13
395.07	93.62
395.26	170.86
395.46	102.98
395.65	180.22
395.84	128.73
396.04	154.48
396.23	93.62
396.42	88.94
396.62	215.33
396.81	128.73
397.00	114.69
397.19	105.32
397.39	196.60
397.58	149.79
397.77	102.98
397.97	121.71
398.16	154.48
398.35	58.51
398.55	100.64
398.74	121.71
398.93	138.09
399.12	159.16
399.32	124.05
399.51	88.94
399.70	112.35
399.90	133.41
400.09	138.09
400.28	124.05
400.47	142.77
400.67	133.41
400.86	88.94
401.05	149.79
401.24	135.75
401.44	124.05
401.63	145.11
401.82	142.77
402.01	154.48
402.21	145.11
402.40	117.03
402.59	140.43
402.78	114.69
402.97	112.35
403.17	95.96
403.36	163.84
403.55	100.64
403.74	147.45
403.93	227.03
404.13	217.67
404.32	241.08
404.51	369.80
404.70	215.33
404.89	131.07
405.09	175.54
405.28	163.84
405.47	131.07
405.66	114.69
405.85	51.49
406.05	30.43
406.24	133.41
406.43	100.64
406.62	175.54
406.81	133.41
407.00	119.37
407.20	170.86
407.39	102.98
407.58	135.75
407.77	156.82
407.96	161.50
408.15	126.39
408.34	119.37
408.54	102.98
408.73	126.39
408.92	124.05
409.11	138.09
409.30	147.45
409.49	110.01
409.68	152.13
409.87	163.84
410.07	81.92
410.26	131.07
410.45	49.15
410.64	133.41
410.83	100.64
411.02	128.73
411.21	149.79
411.40	154.48
411.59	95.96
411.78	121.71
411.98	114.69
412.17	114.69
412.36	124.05
412.55	46.81
412.74	102.98
412.93	166.18
413.12	133.41
413.31	184.90
413.50	142.77
413.69	159.16
413.88	173.20
414.07	180.22
414.26	138.09
414.45	145.11
414.64	175.54
414.83	110.01
415.02	147.45
415.22	159.16
415.41	166.18
415.60	74.90
415.79	95.96
415.98	194.26
416.17	131.07
416.36	149.79
416.55	128.73
416.74	133.41
416.93	212.99
417.12	93.62
417.31	140.43
417.50	156.82
417.69	205.97
417.88	154.48
418.07	84.26
418.26	154.48
418.45	95.96
418.64	142.77
418.83	156.82
419.02	145.11
419.21	121.71
419.39	88.94
419.58	91.28
419.77	147.45
419.96	170.86
420.15	173.20
420.34	168.52
420.53	229.37
420.72	128.73
420.91	154.48
421.10	163.84
421.29	184.90
421.48	168.52
421.67	114.69
421.86	95.96
422.05	131.07
422.24	159.16
422.43	126.39
422.61	184.90
422.80	161.50
422.99	98.30
423.18	170.86
423.37	203.63
423.56	177.88
423.75	245.76
423.94	152.13
424.13	140.43
424.32	110.01
424.50	142.77
424.69	74.90
424.88	187.24
425.07	152.13
425.26	177.88
425.45	117.03
425.64	128.73
425.83	182.56
426.01	215.33
426.20	86.60
426.39	159.16
426.58	203.63
426.77	147.45
426.96	126.39
427.15	93.62
427.33	79.58
427.52	124.05
427.71	100.64
427.90	107.66
428.09	159.16
428.28	84.26
428.46	163.84
428.65	156.82
428.84	142.77
429.03	182.56
429.22	114.69
429.40	173.20
429.59	140.43
429.78	220.01
429.97	217.67
430.16	147.45
430.34	191.92
430.53	114.69
430.72	163.84
430.91	194.26
431.10	175.54
431.28	175.54
431.47	205.97
431.66	229.37
431.85	112.35
432.03	194.26
432.22	208.31
432.41	140.43
432.60	170.86
432.79	159.16
432.97	124.05
433.16	210.65
433.35	100.64
433.54	88.94
433.72	217.67
433.91	177.88
434.10	161.50
434.28	177.88
434.47	149.79
434.66	194.26
434.85	126.39
435.03	241.08
435.22	699.82
435.41	1320.06
435.59	1387.94
435.78	1050.90
435.97	540.66
436.16	297.25
436.34	154.48
436.53	112.35
436.72	156.82
436.90	243.42
437.09	161.50
437.28	138.09
437.46	131.07
437.65	182.56
437.84	135.75
438.02	121.71
438.21	124.05
438.40	147.45
438.58	135.75
438.77	229.37
438.96	163.84
439.14	212.99
439.33	156.82
439.52	210.65
439.70	196.60
439.89	196.60
440.08	161.50
440.26	273.84
440.45	227.03
440.63	222.35
440.82	198.95
441.01	241.08
441.19	229.37
441.38	163.84
441.57	168.52
441.75	196.60
441.94	191.92
442.12	93.62
442.31	126.39
442.50	107.66
442.68	159.16
442.87	145.11
443.05	173.20
443.24	95.96
443.43	196.60
443.61	175.54
443.80	175.54
443.98	163.84
444.17	175.54
444.35	177.88
444.54	170.86
444.73	203.63
444.91	175.54
445.10	175.54
445.28	147.45
445.47	168.52
445.65	184.90
445.84	161.50
446.02	133.41
446.21	194.26
446.39	208.31
446.58	163.84
446.77	166.18
446.95	166.18
447.14	166.18
447.32	184.90
447.51	163.84
447.69	173.20
447.88	208.31
448.06	222.35
448.25	166.18
448.43	159.16
448.62	177.88
448.80	266.82
448.99	224.69
449.17	149.79
449.36	124.05
449.54	180.22
449.73	166.18
449.91	154.48
450.10	142.77
450.28	196.60
450.46	166.18
450.65	149.79
450.83	128.73
451.02	229.37
451.20	142.77
451.39	222.35
451.57	182.56
451.76	250.44
451.94	201.29
452.13	182.56
452.31	189.58
452.49	220.01
452.68	147.45
452.86	210.65
453.05	276.18
453.23	175.54
453.42	142.77
453.60	212.99
453.78	241.08
453.97	180.22
454.15	124.05
454.34	149.79
454.52	170.86
454.70	212.99
454.89	201.29
455.07	177.88
455.26	234.05
455.44	156.82
455.62	60.85
455.81	117.03
455.99	205.97
456.17	238.73
456.36	241.08
456.54	168.52
456.73	161.50
456.91	245.76
457.09	227.03
457.28	245.76
457.46	152.13
457.64	290.23
457.83	105.32
458.01	203.63
458.19	222.35
458.38	212.99
458.56	201.29
458.74	156.82
458.93	201.29
459.11	182.56
459.29	205.97
459.48	210.65
459.66	175.54
459.84	210.65
460.03	341.72
460.21	182.56
460.39	229.37
460.57	189.58
460.76	124.05
460.94	266.82
461.12	227.03
461.31	238.73
461.49	170.86
461.67	177.88
461.85	145.11
462.04	145.11
462.22	538.32
462.40	227.03
462.59	184.90
462.77	191.92
462.95	194.26
463.13	145.11
463.32	175.54
463.50	124.05
463.68	168.52
463.86	180.22
464.05	215.33
464.23	215.33
464.41	156.82
464.59	156.82
464.78	191.92
464.96	154.48
465.14	210.65
465.32	189.58
465.50	245.76
465.69	220.01
465.87	231.71
466.05	255.12
466.23	140.43
466.41	163.84
466.60	222.35
466.78	163.84
466.96	191.92
467.14	217.67
467.32	135.75
467.51	182.56
467.69	215.33
467.87	241.08
468.05	243.42
468.23	222.35
468.41	220.01
468.60	177.88
468.78	140.43
468.96	212.99
469.14	189.58
469.32	194.26
469.50	168.52
469.69	287.89
469.87	203.63
470.05	117.03
470.23	182.56
470.41	168.52
470.59	236.39
470.77	210.65
470.95	145.11
471.14	220.01
471.32	152.13
471.50	177.88
471.68	250.44
471.86	159.16
472.04	191.92
472.22	248.10
472.40	161.50
472.58	161.50
472.77	166.18
472.95	180.22
473.13	224.69
473.31	276.18
473.49	159.16
473.67	166.18
473.85	205.97
474.03	283.20
474.21	191.92
474.39	271.50
474.57	250.44
474.75	191.92
474.93	142.77
475.12	173.20
475.30	248.10
475.48	145.11
475.66	250.44
475.84	210.65
476.02	255.12
476.20	264.48
476.38	191.92
476.56	252.78
476.74	152.13
476.92	168.52
477.10	182.56
477.28	215.33
477.46	138.09
477.64	250.44
477.82	189.58
478.00	236.39
478.18	255.12
478.36	236.39
478.54	173.20
478.72	191.92
478.90	222.35
479.08	271.50
479.26	236.39
479.44	168.52
479.62	217.67
479.80	250.44
479.98	159.16
480.16	168.52
480.34	248.10
480.52	208.31
480.70	196.60
480.88	212.99
481.06	212.99
481.24	163.84
481.41	170.86
481.59	259.80
481.77	287.89
481.95	189.58
482.13	273.84
482.31	210.65
482.49	248.10
482.67	248.10
482.85	248.10
483.03	273.84
483.21	241.08
483.39	229.37
483.57	255.12
483.74	341.72
483.92	201.29
484.10	203.63
484.28	311.29
484.46	351.08
484.64	238.73
484.82	325.33
485.00	337.04
485.18	348.74
485.35	320.65
485.53	292.57
485.71	360.44
485.89	341.72
486.07	339.38
486.25	306.61
486.43	390.87
486.61	348.74
486.78	269.16
486.96	353.42
487.14	327.68
487.32	360.44
487.50	362.78
487.68	374.49
487.85	334.70
488.03	465.77
488.21	315.97
488.39	315.97
488.57	386.19
488.75	259.80
488.92	596.84
489.10	344.06
489.28	379.17
489.46	411.93
489.64	259.80
489.81	306.61
489.99	259.80
490.17	320.65
490.35	339.38
490.53	301.93
490.70	292.57
490.88	315.97
491.06	344.06
491.24	299.59
491.41	421.30
491.59	269.16
491.77	311.29
491.95	292.57
492.13	341.72
492.30	341.72
492.48	311.29
492.66	262.14
492.84	315.97
493.01	308.95
493.19	297.25
493.37	344.06
493.54	322.99
493.72	353.42
493.90	313.63
494.08	409.59
494.25	381.51
494.43	322.99
494.61	318.31
494.79	318.31
494.96	294.91
495.14	318.31
495.32	304.27
495.49	376.83
495.67	294.91
495.85	285.55
496.02	252.78
496.20	264.48
496.38	304.27
496.55	245.76
496.73	376.83
496.91	365.12
497.09	393.21
497.26	318.31
497.44	276.18
497.62	306.61
497.79	351.08
497.97	264.48
498.14	339.38
498.32	332.36
498.50	278.52
498.67	280.86
498.85	301.93
499.03	257.46
499.20	294.91
499.38	285.55
499.56	327.68
499.73	292.57
499.91	276.18
500.08	259.80
500.26	203.63
500.44	273.84
500.61	271.50
500.79	271.50
500.97	252.78
501.14	205.97
501.32	327.68
501.49	276.18
501.67	257.46
501.84	292.57
502.02	257.46
502.20	227.03
502.37	276.18
502.55	280.86
502.72	231.71
502.90	273.84
503.07	215.33
503.25	273.84
503.43	299.59
503.60	285.55
503.78	308.95
503.95	315.97
504.13	276.18
504.30	222.35
504.48	315.97
504.65	273.84
504.83	285.55
505.01	191.92
505.18	327.68
505.36	257.46
505.53	248.10
505.71	229.37
505.88	215.33
506.06	318.31
506.23	332.36
506.41	224.69
506.58	273.84
506.76	262.14
506.93	299.59
507.11	259.80
507.28	250.44
507.46	266.82
507.63	334.70
507.81	264.48
507.98	269.16
508.16	320.65
508.33	278.52
508.50	210.65
508.68	266.82
508.85	264.48
509.03	236.39
509.20	287.89
509.38	334.70
509.55	344.06
509.73	308.95
509.90	280.86
510.08	271.50
510.25	257.46
510.42	248.10
510.60	304.27
510.77	266.82
510.95	327.68
511.12	311.29
511.30	271.50
511.47	306.61
511.64	386.19
511.82	166.18
511.99	227.03
512.17	212.99
512.34	292.57
512.51	269.16
512.69	344.06
512.86	273.84
513.04	234.05
513.21	257.46
513.38	212.99
513.56	224.69
513.73	220.01
513.90	248.10
514.08	220.01
514.25	276.18
514.43	297.25
514.60	248.10
514.77	264.48
514.95	306.61
515.12	252.78
515.29	292.57
515.47	278.52
515.64	322.99
515.81	304.27
515.99	306.61
516.16	278.52
516.33	320.65
516.51	273.84
516.68	269.16
516.85	297.25
517.03	311.29
517.20	287.89
517.37	250.44
517.54	259.80
517.72	257.46
517.89	234.05
518.06	287.89
518.24	250.44
518.41	332.36
518.58	339.38
518.75	299.59
518.93	250.44
519.10	276.18
519.27	257.46
519.45	294.91
519.62	243.42
519.79	341.72
519.96	283.20
520.14	259.80
520.31	283.20
520.48	297.25
520.65	339.38
520.83	299.59
521.00	283.20
521.17	294.91
521.34	287.89
521.52	341.72
521.69	346.40
521.86	299.59
522.03	264.48
522.20	318.31
522.38	301.93
522.55	294.91
522.72	224.69
522.89	283.20
523.07	306.61
523.24	285.55
523.41	294.91
523.58	341.72
523.75	299.59
523.92	313.63
524.10	301.93
524.27	243.42
524.44	220.01
524.61	304.27
524.78	259.80
524.96	278.52
525.13	325.33
525.30	355.76
525.47	320.65
525.64	320.65
525.81	280.86
525.98	227.03
526.16	205.97
526.33	259.80
526.50	308.95
526.67	306.61
526.84	304.27
527.01	290.23
527.18	278.52
527.36	315.97
527.53	334.70
527.70	381.51
527.87	224.69
528.04	339.38
528.21	339.38
528.38	337.04
528.55	297.25
528.72	369.80
528.89	346.40
529.07	353.42
529.24	306.61
529.41	287.89
529.58	322.99
529.75	264.48
529.92	337.04
530.09	313.63
530.26	304.27
530.43	367.46
530.60	325.33
530.77	299.59
530.94	276.18
531.11	287.89
531.28	327.68
531.46	262.14
531.63	304.27
531.80	355.76
531.97	285.55
532.14	276.18
532.31	322.99
532.48	320.65
532.65	294.91
532.82	278.52
532.99	346.40
533.16	294.91
533.33	301.93
533.50	360.44
533.67	341.72
533.84	353.42
534.01	344.06
534.18	362.78
534.35	353.42
534.52	299.59
534.69	353.42
534.86	339.38
535.03	425.98
535.20	339.38
535.37	322.99
535.54	327.68
535.71	325.33
535.88	367.46
536.05	400.23
536.22	365.12
536.38	330.02
536.55	374.49
536.72	372.15
536.89	437.68
537.06	381.51
537.23	395.55
537.40	470.45
537.57	442.36
537.74	500.87
537.91	390.87
538.08	484.49
538.25	496.19
538.42	496.19
538.59	580.45
538.75	528.96
538.92	447.04
539.09	540.66
539.26	575.77
539.43	636.63
539.60	629.60
539.77	727.91
539.94	767.70
540.11	746.63
540.28	877.70
540.44	891.74
540.61	912.81
540.78	968.98
540.95	1118.78
541.12	1371.55
541.29	1444.11
541.46	1551.78
541.62	1399.64
541.79	1572.84
541.96	1444.11
542.13	1523.69
542.30	1465.18
542.47	1528.37
542.63	1385.60
542.80	1341.13
542.97	1411.34
543.14	1296.66
543.31	1306.02
543.48	1350.49
543.64	1378.58
543.81	1341.13
543.98	1338.79
544.15	1324.74
544.32	1345.81
544.48	1294.32
544.65	1268.57
544.82	1280.27
544.99	1179.63
545.16	1273.25
545.32	1322.40
545.49	1926.26
545.66	3007.59
545.83	3805.71
546.00	3239.30
546.16	2265.64
546.33	1621.99
546.50	1329.42
546.67	1123.46
546.83	990.05
547.00	985.37
547.17	910.47
547.34	861.32
547.50	936.21
547.67	868.34
547.84	873.02
548.00	868.34
548.17	826.21
548.34	795.78
548.51	875.36
548.67	828.55
548.84	821.53
549.01	805.14
549.18	744.29
549.34	636.63
549.51	706.84
549.68	774.72
549.84	676.41
550.01	662.37
550.18	709.18
550.34	723.23
550.51	585.13
550.68	631.94
550.84	582.79
551.01	596.84
551.18	564.07
551.34	552.37
551.51	507.90
551.68	557.05
551.84	620.24
552.01	512.58
552.18	472.79
552.34	573.43
552.51	423.64
552.68	416.62
552.84	367.46
553.01	510.24
553.18	402.57
553.34	451.72
553.51	449.38
553.67	381.51
553.84	486.83
554.01	449.38
554.17	411.93
554.34	514.92
554.51	386.19
554.67	454.06
554.84	435.34
555.00	390.87
555.17	442.36
555.33	351.08
555.50	435.34
555.67	355.76
555.83	315.97
556.00	292.57
556.16	510.24
556.33	325.33
556.50	322.99
556.66	322.99
556.83	388.53
556.99	320.65
557.16	339.38
557.32	367.46
557.49	397.89
557.65	290.23
557.82	292.57
557.98	304.27
558.15	351.08
558.32	299.59
558.48	287.89
558.65	238.73
558.81	259.80
558.98	262.14
559.14	351.08
559.31	318.31
559.47	290.23
559.64	313.63
559.80	402.57
559.97	198.95
560.13	365.12
560.30	304.27
560.46	313.63
560.63	306.61
560.79	245.76
560.96	325.33
561.12	299.59
561.29	344.06
561.45	355.76
561.61	355.76
561.78	322.99
561.94	250.44
562.11	339.38
562.27	257.46
562.44	250.44
562.60	313.63
562.77	285.55
562.93	322.99
563.10	257.46
563.26	290.23
563.42	259.80
563.59	304.27
563.75	339.38
563.92	325.33
564.08	308.95
564.24	360.44
564.41	285.55
564.57	280.86
564.74	334.70
564.90	332.36
565.07	332.36
565.23	177.88
565.39	294.91
565.56	330.02
565.72	283.20
565.88	313.63
566.05	280.86
566.21	278.52
566.38	308.95
566.54	297.25
566.70	390.87
566.87	353.42
567.03	271.50
567.19	315.97
567.36	346.40
567.52	297.25
567.68	269.16
567.85	320.65
568.01	308.95
568.17	332.36
568.34	325.33
568.50	355.76
568.66	320.65
568.83	358.10
568.99	325.33
569.15	280.86
569.32	292.57
569.48	271.50
569.64	322.99
569.81	292.57
569.97	311.29
570.13	353.42
570.30	271.50
570.46	278.52
570.62	311.29
570.78	297.25
570.95	320.65
571.11	369.80
571.27	388.53
571.43	276.18
571.60	229.37
571.76	290.23
571.92	315.97
572.09	294.91
572.25	299.59
572.41	287.89
572.57	325.33
572.74	325.33
572.90	337.04
573.06	379.17
573.22	322.99
573.38	400.23
573.55	351.08
573.71	271.50
573.87	297.25
574.03	250.44
574.20	297.25
574.36	402.57
574.52	334.70
574.68	287.89
574.84	334.70
575.01	271.50
575.17	344.06
575.33	355.76
575.49	325.33
575.65	430.66
575.82	341.72
575.98	390.87
576.14	369.80
576.30	344.06
576.46	580.45
576.62	821.53
576.79	844.93
576.95	746.63
577.11	613.22
577.27	442.36
577.43	411.93
577.59	339.38
577.75	348.74
577.92	327.68
578.08	294.91
578.24	379.17
578.40	470.45
578.56	589.82
578.72	847.27
578.88	915.15
579.04	643.65
579.21	528.96
579.37	514.92
579.53	454.06
579.69	505.56
579.85	482.15
580.01	514.92
580.17	531.30
580.33	454.06
580.49	458.74
580.65	418.96
580.82	414.27
580.98	456.40
581.14	339.38
581.30	433.00
581.46	472.79
581.62	454.06
581.78	458.74
581.94	554.71
582.10	465.77
582.26	510.24
582.42	475.13
582.58	531.30
582.74	547.69
582.90	493.85
583.06	634.29
583.22	521.94
583.38	512.58
583.54	547.69
583.70	512.58
583.86	674.07
584.02	561.73
584.18	624.92
584.34	615.56
584.50	503.22
584.66	393.21
584.82	470.45
584.98	535.98
585.14	458.74
585.30	526.62
585.46	482.15
585.62	440.02
585.78	454.06
585.94	472.79
586.10	510.24
586.26	512.58
586.42	573.43
586.58	613.22
586.74	641.31
586.90	678.76
587.06	751.31
587.22	781.74
587.38	681.10
587.54	608.54
587.70	617.90
587.86	617.90
588.02	440.02
588.18	477.47
588.34	503.22
588.49	475.13
588.65	475.13
588.81	440.02
588.97	402.57
589.13	386.19
589.29	470.45
589.45	440.02
589.61	393.21
589.77	418.96
589.93	454.06
590.08	376.83
590.24	402.57
590.40	402.57
590.56	362.78
590.72	489.17
590.88	421.30
591.04	449.38
591.20	402.57
591.35	442.36
591.51	517.26
591.67	393.21
591.83	444.70
591.99	407.25
592.15	486.83
592.31	517.26
592.46	479.81
592.62	580.45
592.78	547.69
592.94	564.07
593.10	599.18
593.26	557.05
593.41	531.30
593.57	465.77
593.73	423.64
593.89	454.06
594.05	423.64
594.20	348.74
594.36	430.66
594.52	393.21
594.68	416.62
594.84	367.46
594.99	409.59
595.15	318.31
595.31	376.83
595.47	393.21
595.62	351.08
595.78	397.89
595.94	367.46
596.10	470.45
596.25	351.08
596.41	411.93
596.57	299.59
596.73	344.06
596.88	353.42
597.04	318.31
597.20	339.38
597.36	346.40
597.51	353.42
597.67	248.10
597.83	341.72
597.99	533.64
598.14	428.32
598.30	369.80
598.46	390.87
598.61	489.17
598.77	449.38
598.93	507.90
599.09	397.89
599.24	423.64
599.40	479.81
599.56	470.45
599.71	512.58
599.87	379.17
600.03	369.80
600.18	423.64
600.34	463.43
600.50	395.55
600.65	339.38
600.81	388.53
600.97	362.78
601.12	372.15
601.28	393.21
601.44	360.44
601.59	280.86
601.75	372.15
601.91	313.63
602.06	325.33
602.22	400.23
602.37	369.80
602.53	294.91
602.69	358.10
602.84	278.52
603.00	297.25
603.16	337.04
603.31	369.80
603.47	372.15
603.62	320.65
603.78	341.72
603.94	315.97
604.09	355.76
604.25	404.91
604.40	322.99
604.56	407.25
604.71	362.78
604.87	395.55
605.03	337.04
605.18	379.17
605.34	360.44
605.49	299.59
605.65	299.59
605.80	325.33
605.96	411.93
606.12	379.17
606.27	362.78
606.43	390.87
606.58	411.93
606.74	362.78
606.89	355.76
607.05	393.21
607.20	444.70
607.36	451.72
607.51	449.38
607.67	433.00
607.82	437.68
607.98	543.00
608.13	496.19
608.29	479.81
608.44	580.45
608.60	470.45
608.75	554.71
608.91	599.18
609.06	657.69
609.22	620.24
609.37	784.08
609.53	786.42
609.68	891.74
609.84	880.04
609.99	999.41
610.15	1149.20
610.30	1357.51
610.46	1582.20
610.61	2017.54
610.76	2497.35
610.92	3023.97
