SpectraSuite Data File
++++++++++++++++++++++++++++++++++++
Date: Fri Oct 04 11:39:33 GMT-05:00 2013
User: price-jones
Dark Spectrum Present: No
Reference Spectrum Present: No
Number of Sampled Component Spectra: 1
Spectrometers: USB2+H05261
Integration Time (usec): 100000 (USB2+H05261)
Spectra Averaged: 1 (USB2+H05261)
Boxcar Smoothing: 0 (USB2+H05261)
Correct for Electrical Dark: No (USB2+H05261)
Strobe/Lamp Enabled: No (USB2+H05261)
Correct for Detector Non-linearity: No (USB2+H05261)
Correct for Stray Light: No (USB2+H05261)
Number of Pixels in Processed Spectrum: 2048
>>>>>Begin Processed Spectral Data<<<<<
365.73	0.00
365.92	0.00
366.12	0.00
366.32	11.70
366.52	0.00
366.72	0.00
366.91	0.00
367.11	0.00
367.31	0.00
367.51	0.00
367.70	0.00
367.90	0.00
368.10	0.00
368.30	0.00
368.49	0.00
368.69	0.00
368.89	0.00
369.09	28.09
369.28	0.00
369.48	0.00
369.68	0.00
369.87	0.00
370.07	0.00
370.27	9.36
370.47	72.56
370.66	142.77
370.86	119.37
371.06	180.22
371.25	250.44
371.45	147.45
371.65	177.88
371.84	227.03
372.04	182.56
372.24	145.11
372.44	238.73
372.63	252.78
372.83	222.35
373.03	257.46
373.22	173.20
373.42	238.73
373.62	248.10
373.81	269.16
374.01	234.05
374.21	255.12
374.40	259.80
374.60	241.08
374.79	212.99
374.99	229.37
375.19	194.26
375.38	245.76
375.58	266.82
375.78	257.46
375.97	234.05
376.17	252.78
376.37	173.20
376.56	283.20
376.76	234.05
376.95	222.35
377.15	327.68
377.35	271.50
377.54	191.92
377.74	198.95
377.93	248.10
378.13	257.46
378.33	325.33
378.52	203.63
378.72	227.03
378.91	224.69
379.11	334.70
379.31	262.14
379.50	220.01
379.70	266.82
379.89	266.82
380.09	210.65
380.28	180.22
380.48	280.86
380.68	304.27
380.87	191.92
381.07	285.55
381.26	266.82
381.46	292.57
381.65	280.86
381.85	220.01
382.04	348.74
382.24	222.35
382.43	311.29
382.63	229.37
382.83	294.91
383.02	266.82
383.22	311.29
383.41	306.61
383.61	341.72
383.80	252.78
384.00	266.82
384.19	327.68
384.39	285.55
384.58	313.63
384.78	290.23
384.97	292.57
385.17	299.59
385.36	248.10
385.56	280.86
385.75	285.55
385.95	266.82
386.14	334.70
386.34	283.20
386.53	313.63
386.72	262.14
386.92	337.04
387.11	346.40
387.31	379.17
387.50	344.06
387.70	294.91
387.89	297.25
388.09	395.55
388.28	362.78
388.48	306.61
388.67	358.10
388.86	236.39
389.06	266.82
389.25	407.25
389.45	294.91
389.64	337.04
389.84	339.38
390.03	365.12
390.22	430.66
390.42	360.44
390.61	278.52
390.81	369.80
391.00	334.70
391.19	397.89
391.39	421.30
391.58	407.25
391.78	388.53
391.97	308.95
392.16	393.21
392.36	468.11
392.55	348.74
392.75	397.89
392.94	430.66
393.13	472.79
393.33	374.49
393.52	468.11
393.71	477.47
393.91	411.93
394.10	365.12
394.29	442.36
394.49	465.77
394.68	500.87
394.88	449.38
395.07	383.85
395.26	468.11
395.46	470.45
395.65	437.68
395.84	411.93
396.04	540.66
396.23	477.47
396.42	433.00
396.62	510.24
396.81	489.17
397.00	517.26
397.19	552.37
397.39	500.87
397.58	631.94
397.77	517.26
397.97	547.69
398.16	564.07
398.35	613.22
398.55	514.92
398.74	674.07
398.93	627.26
399.12	566.41
399.32	617.90
399.51	613.22
399.70	643.65
399.90	634.29
400.09	599.18
400.28	624.92
400.47	634.29
400.67	648.33
400.86	580.45
401.05	683.44
401.24	725.57
401.44	699.82
401.63	748.97
401.82	774.72
402.01	692.80
402.21	760.67
402.40	643.65
402.59	655.35
402.78	739.61
402.97	692.80
403.17	777.06
403.36	751.31
403.55	755.99
403.74	842.59
403.93	828.55
404.13	837.91
404.32	833.23
404.51	917.49
404.70	978.34
404.89	863.66
405.09	964.30
405.28	952.60
405.47	947.92
405.66	987.71
405.85	992.39
406.05	950.26
406.24	964.30
406.43	1001.75
406.62	999.41
406.81	1064.94
407.00	1053.24
407.20	1071.97
407.39	1004.09
407.58	1020.47
407.77	1039.20
407.96	1177.29
408.15	1114.10
408.34	1111.75
408.54	1076.65
408.73	1149.20
408.92	1153.88
409.11	1165.59
409.30	1191.33
409.49	1125.80
409.68	1217.08
409.87	1299.00
410.07	1284.95
410.26	1296.66
410.45	1348.15
410.64	1315.38
410.83	1369.21
411.02	1296.66
411.21	1364.53
411.40	1401.98
411.59	1385.60
411.78	1401.98
411.98	1472.20
412.17	1481.56
412.36	1413.68
412.55	1423.05
412.74	1507.30
412.93	1591.56
413.12	1511.99
413.31	1621.99
413.50	1614.97
413.69	1603.27
413.88	1717.95
414.07	1746.04
414.26	1727.32
414.45	1701.57
414.64	1715.61
414.83	1823.28
415.02	1872.43
415.22	1895.83
415.41	1877.11
415.60	1898.17
415.79	1970.73
415.98	2019.88
416.17	1919.24
416.36	1874.77
416.55	2001.16
416.74	2026.90
416.93	2047.97
417.12	2062.01
417.31	2106.48
417.50	2029.24
417.69	2230.53
417.88	2169.68
418.07	2062.01
418.26	2165.00
418.45	2207.13
418.64	2277.34
418.83	2211.81
419.02	2368.62
419.21	2284.36
419.39	2272.66
419.58	2354.58
419.77	2317.13
419.96	2399.05
420.15	2490.33
420.34	2427.14
420.53	2349.90
420.72	2380.32
420.91	2513.74
421.10	2413.09
421.29	2459.90
421.48	2406.07
421.67	2450.54
421.86	2497.35
422.05	2567.57
422.24	2506.71
422.43	2497.35
422.61	2569.91
422.80	2511.39
422.99	2616.72
423.18	2509.05
423.37	2593.31
423.56	2719.70
423.75	2530.12
423.94	2600.34
424.13	2513.74
424.32	2520.76
424.50	2672.89
424.69	2686.94
424.88	2656.51
425.07	2654.17
425.26	2623.74
425.45	2668.21
425.64	2668.21
425.83	2654.17
426.01	2677.57
426.20	2464.58
426.39	2698.64
426.58	2581.61
426.77	2712.68
426.96	2764.17
427.15	2794.60
427.33	2780.56
427.52	2822.69
427.71	2789.92
427.90	2813.32
428.09	2878.86
428.28	2843.75
428.46	2932.69
428.65	2913.97
428.84	2923.33
429.03	3073.12
429.22	2792.26
429.40	2839.07
429.59	2944.39
429.78	2768.85
429.97	2719.70
430.16	2935.03
430.34	3009.93
430.53	3012.27
430.72	3005.25
430.91	2930.35
431.10	3030.99
431.28	3145.68
431.47	2988.86
431.66	3220.58
431.85	3119.93
432.03	3190.15
432.22	3262.71
432.41	3185.47
432.60	3225.26
432.79	3286.11
432.97	3232.28
433.16	3192.49
433.35	3239.30
433.54	3253.34
433.72	3269.73
433.91	3152.70
434.10	3363.35
434.28	3431.23
434.47	3365.69
434.66	3307.18
434.85	3412.50
435.03	3482.72
435.22	3538.89
435.41	3847.84
435.59	3756.56
435.78	3705.07
435.97	3613.79
436.16	3531.87
436.34	3517.83
436.53	3445.27
436.72	3634.85
436.90	3620.81
437.09	3562.30
437.28	3431.23
437.46	3588.04
437.65	3538.89
437.84	3751.88
438.02	3662.94
438.21	3667.62
438.40	3639.53
438.58	3681.66
438.77	3765.92
438.96	3695.71
439.14	3831.46
439.33	3887.63
439.52	3882.95
439.70	3871.25
439.89	4093.60
440.08	3974.23
440.26	3908.69
440.45	4039.76
440.63	3990.61
440.82	4121.68
441.01	4070.19
441.19	4105.30
441.38	4187.22
441.57	4145.09
441.75	4252.75
441.94	4290.20
442.12	4208.28
442.31	4402.55
442.50	4332.33
442.68	4320.63
442.87	4327.65
443.05	4358.08
443.24	4379.14
443.43	4414.25
443.61	4645.96
443.80	4739.58
443.98	4301.90
444.17	4234.03
444.35	4564.04
444.54	4533.62
444.73	4411.91
444.91	4564.04
445.10	4374.46
445.28	4484.47
445.47	4472.76
445.65	4592.13
445.84	4510.21
446.02	4580.43
446.21	4531.28
446.39	4547.66
446.58	4695.11
446.77	4641.28
446.95	4447.02
447.14	4645.96
447.32	4643.62
447.51	4582.77
447.69	4744.27
447.88	4641.28
448.06	4587.45
448.25	4575.75
448.43	4671.71
448.62	4645.96
448.80	4592.13
448.99	4643.62
449.17	4685.75
449.36	4755.97
449.54	4812.14
449.73	4802.78
449.91	4940.87
450.10	4828.53
450.28	4938.53
450.46	4830.87
450.65	4973.64
450.83	5001.72
451.02	4858.95
451.20	4964.28
451.39	5032.15
451.57	4882.36
451.76	5006.41
451.94	4994.70
452.13	4990.02
452.31	5055.56
452.49	5130.45
452.68	4968.96
452.86	4957.25
453.05	5224.08
453.23	5076.62
453.42	5048.54
453.60	5090.67
453.78	5123.43
453.97	5057.90
454.15	5032.15
454.34	5226.42
454.52	5303.65
454.70	5249.82
454.89	5184.29
455.07	5198.33
455.26	5320.04
455.44	5404.30
455.62	5249.82
455.81	5240.46
455.99	5453.45
456.17	5458.13
456.36	5425.36
456.54	5504.94
456.73	5495.58
456.91	5577.50
457.09	5610.26
457.28	5570.48
457.46	5593.88
457.64	5867.72
457.83	5778.78
458.01	5600.90
458.19	5863.04
458.38	5659.42
458.56	5762.40
458.74	5844.32
458.93	5638.35
459.11	5734.31
459.29	5785.80
459.48	5888.79
459.66	5738.99
459.84	5921.56
460.03	5942.62
460.21	6005.81
460.39	5968.37
460.57	6040.92
460.76	5951.98
460.94	6101.78
461.12	6008.16
461.31	6078.37
461.49	6139.23
461.67	6008.16
461.85	6052.63
462.04	6155.61
462.22	6345.19
462.40	6160.29
462.59	6104.12
462.77	6200.08
462.95	6251.57
463.13	6143.91
463.32	6218.80
463.50	6342.85
463.68	6422.43
463.86	6230.51
464.05	6204.76
464.23	6279.66
464.41	6356.90
464.59	6087.73
464.78	6417.75
464.96	6253.91
465.14	6340.51
465.32	6387.32
465.50	6600.31
465.69	6583.93
465.87	6335.83
466.05	6544.14
466.23	6375.62
466.41	6574.56
466.60	6672.87
466.78	6424.77
466.96	6555.84
467.14	6640.10
467.32	6518.39
467.51	6707.98
467.69	6333.49
467.87	6726.70
468.05	6609.67
468.23	6661.16
468.41	6663.51
468.60	6647.12
468.78	6796.92
468.96	6789.89
469.14	6689.25
469.32	6836.70
469.50	6574.56
469.69	6970.12
469.87	6876.49
470.05	7265.02
470.23	6923.30
470.41	6888.20
470.59	7133.95
470.77	7040.33
470.95	7077.78
471.14	7126.93
471.32	7176.08
471.50	7288.43
471.68	7243.96
471.86	7218.21
472.04	7190.13
472.22	7410.14
472.40	7485.03
472.58	7384.39
472.77	7412.48
472.95	7571.63
473.13	7726.11
473.31	7459.29
473.49	7386.73
473.67	7618.44
473.85	7583.34
474.03	7618.44
474.21	7712.07
474.39	7918.03
474.57	7784.62
474.75	7864.20
474.93	7976.55
475.12	7854.84
475.30	8091.23
475.48	7892.29
475.66	8107.62
475.84	8056.12
476.02	8079.53
476.20	8222.30
476.38	8484.44
476.56	8517.21
476.74	8353.37
476.92	8226.98
477.10	8276.13
477.28	8458.70
477.46	8573.38
477.64	8702.11
477.82	8788.71
478.00	9018.08
478.18	8954.89
478.36	8898.72
478.54	9125.75
478.72	8999.36
478.90	9231.07
479.08	9132.77
479.26	9296.61
479.44	9261.50
479.62	9469.81
479.80	9612.58
479.98	9612.58
480.16	9790.46
480.34	9619.60
480.52	9511.94
480.70	9834.93
480.88	9703.86
481.06	9970.68
481.24	9940.26
481.41	10150.90
481.59	10204.74
481.77	10394.32
481.95	10293.68
482.13	10169.63
482.31	10228.14
482.49	10590.92
482.67	10303.04
482.85	10705.61
483.03	10958.39
483.21	11129.25
483.39	10923.28
483.57	11208.83
483.74	11180.74
483.92	11056.69
484.10	11187.76
484.28	11506.07
484.46	11545.86
484.64	11793.96
484.82	11812.68
485.00	11665.23
485.18	11948.43
485.35	12116.95
485.53	11960.14
485.71	12241.00
485.89	12320.58
486.07	12189.51
486.25	12248.02
486.43	12194.19
486.61	12423.56
486.78	12732.51
486.96	12666.98
487.14	12861.24
487.32	12849.54
487.50	12919.76
487.68	13036.78
487.85	13165.51
488.03	13420.63
488.21	13455.74
488.39	13422.97
488.57	13675.75
488.75	13797.46
488.92	14235.14
489.10	13844.27
489.28	14001.08
489.46	14092.37
489.64	14115.77
489.81	14583.88
489.99	14642.39
490.17	14347.48
490.35	14548.77
490.53	14408.34
490.70	14911.55
490.88	14857.72
491.06	14890.49
491.24	15087.09
491.41	15194.76
491.59	15213.48
491.77	15487.32
491.95	15531.80
492.13	15477.96
492.30	15566.90
492.48	15676.91
492.66	15775.21
492.84	15793.94
493.01	15819.68
493.19	15988.20
493.37	16121.61
493.54	16245.66
493.72	16482.05
493.90	16308.85
494.08	16381.41
494.25	16524.18
494.43	16936.12
494.61	16793.34
494.79	17102.29
494.96	17235.70
495.14	16924.41
495.32	17385.50
495.49	17099.95
495.67	17359.75
495.85	17493.16
496.02	17493.16
496.20	17692.11
496.38	17563.38
496.55	17748.28
496.73	18064.25
496.91	18045.53
497.09	18286.61
497.26	18125.11
497.44	17980.00
497.62	18040.85
497.79	18324.05
497.97	18743.01
498.14	18527.68
498.32	18897.49
498.50	18700.88
498.67	18923.23
498.85	18951.32
499.03	18991.11
499.20	19307.08
499.38	19330.48
499.56	19103.45
499.73	19098.77
499.91	19225.16
500.08	19522.41
500.26	19222.82
500.44	19529.43
500.61	19681.56
500.79	19742.42
500.97	19796.25
501.14	20166.06
501.32	20056.05
501.49	19981.15
501.67	20065.41
501.84	20121.59
502.02	20196.48
502.20	20615.44
502.37	20437.56
502.55	20489.05
502.72	20592.03
502.90	20369.68
503.07	20325.21
503.25	20482.03
503.43	20402.45
503.60	21034.39
503.78	20666.93
503.95	21039.08
504.13	21057.80
504.30	21331.64
504.48	21109.29
504.65	21163.12
504.83	21151.42
505.01	21666.34
505.18	21266.11
505.36	21900.39
505.53	21523.57
505.71	21256.75
505.88	22122.74
506.06	21324.62
506.23	21720.17
506.41	21776.34
506.58	21785.71
506.76	21972.95
506.93	21977.63
507.11	21940.18
507.28	22242.11
507.46	22251.47
507.63	22338.07
507.81	23058.96
507.98	22574.47
508.16	22696.17
508.33	22677.45
508.50	22604.89
508.68	22679.79
508.85	22974.70
509.03	22965.34
509.20	23063.64
509.38	23183.01
509.55	23349.18
509.73	22993.42
509.90	23337.48
510.08	23351.52
510.25	23454.51
510.42	23372.59
510.60	23536.43
510.77	23864.10
510.95	23885.17
511.12	23342.16
511.30	23784.52
511.47	24123.90
511.64	23733.03
511.82	24044.32
511.99	24201.14
512.17	24423.49
512.34	24137.94
512.51	24339.23
512.69	24470.30
512.86	24203.48
513.04	24425.83
513.21	24599.03
513.38	24886.92
513.56	24903.30
513.73	24858.83
513.90	24797.98
514.08	24833.08
514.25	25202.89
514.43	24893.94
514.60	25230.98
514.77	25259.06
514.95	25729.51
515.12	24821.38
515.29	24889.26
515.47	25427.58
515.64	25518.86
515.81	25493.12
515.99	25799.73
516.16	25579.71
516.33	25891.01
516.51	25867.60
516.68	25453.33
516.85	25881.64
517.03	25891.01
517.20	25848.88
517.37	26185.91
517.54	26352.09
517.72	26216.34
517.89	26494.86
518.06	26188.25
518.24	26061.87
518.41	26127.40
518.58	26197.62
518.75	26366.13
518.93	26679.77
519.10	26717.22
519.27	26455.08
519.45	26522.95
519.62	26656.36
519.79	26693.81
519.96	26754.66
520.14	27082.34
520.31	26881.05
520.48	26958.29
520.65	27342.14
520.83	27889.82
521.00	27599.60
521.17	27122.13
521.34	27112.77
521.52	27323.41
521.69	27594.92
521.86	27917.91
522.03	27618.32
522.20	27630.02
522.38	27770.46
522.55	27857.06
522.72	27672.15
522.89	27655.77
523.07	28182.39
523.24	28100.47
523.41	28201.11
523.58	27906.21
523.75	27990.47
523.92	28203.46
524.10	28261.97
524.27	28533.47
524.44	28484.32
524.61	28954.77
524.78	28540.49
524.96	28683.27
525.13	28336.87
525.30	28650.50
525.47	28959.45
525.64	28423.47
525.81	28699.65
525.98	28884.55
526.16	28842.42
526.33	29099.88
526.50	29039.03
526.67	28706.67
526.84	29200.52
527.01	28636.45
527.18	29188.82
527.36	29364.36
527.53	29373.72
527.70	29193.50
527.87	29195.84
528.04	29156.05
528.21	29642.88
528.38	29216.91
528.55	29633.52
528.72	29509.47
528.89	29443.94
529.07	29769.27
529.24	29420.53
529.41	29921.41
529.58	29331.59
529.75	29443.94
529.92	29780.98
530.09	29766.93
530.26	29832.47
530.43	30113.33
530.60	29778.64
530.77	30087.59
530.94	30197.59
531.11	29809.06
531.28	30108.65
531.46	30080.56
531.63	30153.12
531.80	30314.62
531.97	30567.40
532.14	30555.69
532.31	30480.80
532.48	30171.85
532.65	30551.01
532.82	30363.77
532.99	30827.20
533.16	30382.49
533.33	31278.92
533.50	30984.01
533.67	30834.22
533.84	30815.49
534.01	30738.26
534.18	30920.82
534.35	31044.87
534.52	31082.31
534.69	31426.37
534.86	31421.69
535.03	30979.33
535.20	31276.58
535.37	31669.79
535.54	31569.15
535.71	31185.30
535.88	31557.44
536.05	31426.37
536.22	31723.62
536.38	31489.57
536.55	31552.76
536.72	31796.18
536.89	31321.05
537.06	31548.08
537.23	31908.52
537.40	31543.40
537.57	31999.80
537.74	31981.08
537.91	32224.50
538.08	32215.13
538.25	32011.51
538.42	32004.49
538.59	32154.28
538.75	31791.50
538.92	31842.99
539.09	31969.38
539.26	32041.93
539.43	32453.87
539.60	32236.20
539.77	32210.45
539.94	32301.73
540.11	32542.81
540.28	32231.52
540.44	32390.67
540.61	32446.85
540.78	32217.47
540.95	32741.75
541.12	32620.05
541.29	32992.19
541.46	32765.16
541.62	32779.20
541.79	32945.38
541.96	32968.79
542.13	32772.18
542.30	32886.87
542.47	32849.42
542.63	33289.44
542.80	33436.89
542.97	33329.23
543.14	33191.14
543.31	33319.87
543.48	33436.89
543.64	33469.66
543.81	33621.80
543.98	33472.00
544.15	34038.41
544.32	34073.52
544.48	33752.87
544.65	33462.64
544.82	33804.36
544.99	33710.74
545.16	33745.84
545.32	33523.49
545.49	34127.35
545.66	34939.52
545.83	34937.18
546.00	34600.14
546.16	34497.16
546.33	33919.04
546.50	33291.78
546.67	34206.93
546.83	33771.59
547.00	33574.98
547.17	33996.28
547.34	34237.36
547.50	34274.80
547.67	34845.90
547.84	33727.12
548.00	34211.61
548.17	34459.71
548.34	34178.84
548.51	34417.58
548.67	34043.09
548.84	34639.93
549.01	34099.26
549.18	34242.04
549.34	34529.92
549.51	34595.46
549.68	34391.83
549.84	34349.70
550.01	34150.76
550.18	34345.02
550.34	34433.96
550.51	34565.03
550.68	34834.19
550.84	34291.19
551.01	34256.08
551.18	34066.50
551.34	34476.09
551.51	34806.11
551.68	34508.86
551.84	34660.99
552.01	34782.70
552.18	34785.04
552.34	34754.61
552.51	34871.64
552.68	34754.61
552.84	34260.76
553.01	34525.24
553.18	34581.42
553.34	34761.64
553.51	34972.28
553.67	35084.63
553.84	35204.00
554.01	35035.48
554.17	35110.38
554.34	35136.12
554.51	34904.41
554.67	35447.41
554.84	35056.54
555.00	34827.17
555.17	34998.03
555.33	35431.03
555.50	34913.77
555.67	34768.66
555.83	34855.26
556.00	35295.28
556.16	35068.25
556.33	34761.64
556.50	35082.29
556.66	35639.34
556.83	34796.74
556.99	35463.80
557.16	35262.51
557.32	35274.21
557.49	35351.45
557.65	35363.15
557.82	35192.30
557.98	35021.44
558.15	35082.29
558.32	35391.24
558.48	35306.98
558.65	35360.81
558.81	35498.91
558.98	35948.29
559.14	35384.22
559.31	35330.39
559.47	35421.67
559.64	35037.82
559.80	35562.10
559.97	35754.02
560.13	35353.79
560.30	35634.66
560.46	35655.72
560.63	35707.21
560.79	35845.30
560.96	35910.84
561.12	36023.19
561.29	35674.45
561.45	35749.34
561.61	35871.05
561.78	35805.52
561.94	35667.42
562.11	35859.35
562.27	35732.96
562.44	35665.08
562.60	35608.91
562.77	35859.35
562.93	35529.33
563.10	36081.70
563.26	35714.23
563.42	36016.16
563.59	35674.45
563.75	35714.23
563.92	36067.66
564.08	35896.80
564.24	35405.28
564.41	35651.04
564.57	35791.47
564.74	35346.77
564.90	36187.02
565.07	36144.89
565.23	36201.07
565.39	35793.81
565.56	35606.57
565.72	35945.95
565.88	35796.15
566.05	35700.19
566.21	35629.98
566.38	35674.45
566.54	36053.61
566.70	35948.29
566.87	36601.30
567.03	36067.66
567.19	36432.78
567.36	35742.32
567.52	35995.10
567.68	35938.93
567.85	35817.22
568.01	36086.38
568.17	35852.33
568.34	35681.47
568.50	35962.33
568.66	35861.69
568.83	36147.23
568.99	35929.56
569.15	35957.65
569.32	36219.79
569.48	35880.41
569.64	35756.36
569.81	35754.02
569.97	36247.88
570.13	35955.31
570.30	35908.50
570.46	36364.90
570.62	36004.46
570.78	36041.91
570.95	36055.95
571.11	36013.82
571.27	36121.49
571.43	35967.01
571.60	36112.13
571.76	35985.74
571.92	35967.01
572.09	36404.69
572.25	36229.15
572.41	36170.64
572.57	36074.68
572.74	36297.03
572.90	36055.95
573.06	35892.12
573.22	36079.36
573.38	36720.66
573.55	36580.23
573.71	36631.72
573.87	36435.12
574.03	36495.97
574.20	36535.76
574.36	35861.69
574.52	36231.49
574.68	36119.15
574.84	36215.11
575.01	36460.87
575.17	36114.47
575.33	36210.43
575.49	36109.78
575.65	36165.96
575.82	36341.50
575.98	36402.35
576.14	36418.74
576.30	36217.45
576.46	35929.56
576.62	36175.32
576.79	36669.17
576.95	36217.45
577.11	36142.55
577.27	36217.45
577.43	36112.13
577.59	36098.08
577.75	36182.34
577.92	35864.03
578.08	36170.64
578.24	36020.84
578.40	36308.73
578.56	36671.51
578.72	36355.54
578.88	36610.66
579.04	37113.87
579.21	36542.78
579.37	36582.57
579.53	36182.34
579.69	35943.61
579.85	36299.37
580.01	36130.85
580.17	36175.32
580.33	36165.96
580.49	36561.51
580.65	36266.60
580.82	36809.61
580.98	36201.07
581.14	36332.14
581.30	36397.67
581.46	36147.23
581.62	36233.83
581.78	36245.54
581.94	36460.87
582.10	36280.64
582.26	36285.33
582.42	36783.86
582.58	36404.69
582.74	36325.11
582.90	36521.72
583.06	36488.95
583.22	36002.12
583.38	36378.95
583.54	36500.65
583.70	36634.06
583.86	36727.69
584.02	36383.63
584.18	36409.37
584.34	36470.23
584.50	36584.91
584.66	36400.01
584.82	36041.91
584.98	36329.80
585.14	36055.95
585.30	36219.79
585.46	35548.06
585.62	36657.47
585.78	36598.96
585.94	36114.47
586.10	36786.20
586.26	36247.88
586.42	36172.98
586.58	36774.50
586.74	36201.07
586.90	35992.76
587.06	36175.32
587.22	36627.04
587.38	36058.29
587.54	36863.44
587.70	36533.42
587.86	36634.06
588.02	36437.46
588.18	36683.22
588.34	36570.87
588.49	36854.08
588.65	36423.42
588.81	36437.46
588.97	36341.50
589.13	36456.18
589.29	36137.87
589.45	36437.46
589.61	37034.30
589.77	36933.65
589.93	36589.59
590.08	36327.45
590.24	37228.56
590.40	36896.20
590.56	36701.94
590.72	36629.38
590.88	36144.89
591.04	36430.44
591.20	36882.16
591.35	36980.46
591.51	36978.12
