SpectraSuite Data File
++++++++++++++++++++++++++++++++++++
Date: Fri Oct 04 11:40:03 GMT-05:00 2013
User: price-jones
Dark Spectrum Present: No
Reference Spectrum Present: No
Number of Sampled Component Spectra: 1
Spectrometers: USB2+H05261
Integration Time (usec): 100000 (USB2+H05261)
Spectra Averaged: 1 (USB2+H05261)
Boxcar Smoothing: 0 (USB2+H05261)
Correct for Electrical Dark: No (USB2+H05261)
Strobe/Lamp Enabled: No (USB2+H05261)
Correct for Detector Non-linearity: No (USB2+H05261)
Correct for Stray Light: No (USB2+H05261)
Number of Pixels in Processed Spectrum: 2048
>>>>>Begin Processed Spectral Data<<<<<
365.73	51.49
365.92	51.49
366.12	51.49
366.32	30.43
366.52	0.00
366.72	0.00
366.91	0.00
367.11	0.00
367.31	0.00
367.51	0.00
367.70	0.00
367.90	0.00
368.10	0.00
368.30	0.00
368.49	0.00
368.69	0.00
368.89	0.00
369.09	0.00
369.28	37.45
369.48	0.00
369.68	0.00
369.87	14.04
370.07	0.00
370.27	46.81
370.47	58.51
370.66	0.00
370.86	23.41
371.06	117.03
371.25	107.66
371.45	100.64
371.65	117.03
371.84	147.45
372.04	63.19
372.24	124.05
372.44	84.26
372.63	100.64
372.83	135.75
373.03	142.77
373.22	140.43
373.42	121.71
373.62	98.30
373.81	166.18
374.01	159.16
374.21	154.48
374.40	107.66
374.60	173.20
374.79	86.60
374.99	112.35
375.19	70.22
375.38	208.31
375.58	51.49
375.78	117.03
375.97	119.37
376.17	163.84
376.37	117.03
376.56	124.05
376.76	28.09
376.95	161.50
377.15	138.09
377.35	212.99
377.54	173.20
377.74	37.45
377.93	84.26
378.13	180.22
378.33	177.88
378.52	145.11
378.72	149.79
378.91	220.01
379.11	77.24
379.31	91.28
379.50	175.54
379.70	156.82
379.89	163.84
380.09	79.58
380.28	81.92
380.48	105.32
380.68	72.56
380.87	156.82
381.07	154.48
381.26	107.66
381.46	203.63
381.65	156.82
381.85	159.16
382.04	149.79
382.24	175.54
382.43	110.01
382.63	23.41
382.83	86.60
383.02	198.95
383.22	102.98
383.41	35.11
383.61	98.30
383.80	161.50
384.00	170.86
384.19	102.98
384.39	84.26
384.58	98.30
384.78	135.75
384.97	215.33
385.17	124.05
385.36	175.54
385.56	152.13
385.75	124.05
385.95	170.86
386.14	88.94
386.34	145.11
386.53	126.39
386.72	81.92
386.92	196.60
387.11	175.54
387.31	194.26
387.50	234.05
387.70	117.03
387.89	135.75
388.09	138.09
388.28	138.09
388.48	107.66
388.67	138.09
388.86	189.58
389.06	194.26
389.25	147.45
389.45	161.50
389.64	156.82
389.84	135.75
390.03	177.88
390.22	117.03
390.42	210.65
390.61	107.66
390.81	138.09
391.00	84.26
391.19	184.90
391.39	159.16
391.58	222.35
391.78	217.67
391.97	95.96
392.16	128.73
392.36	187.24
392.55	217.67
392.75	110.01
392.94	156.82
393.13	187.24
393.33	196.60
393.52	110.01
393.71	128.73
393.91	121.71
394.10	112.35
394.29	114.69
394.49	156.82
394.68	138.09
394.88	168.52
395.07	191.92
395.26	154.48
395.46	98.30
395.65	203.63
395.84	203.63
396.04	227.03
396.23	119.37
396.42	161.50
396.62	149.79
396.81	128.73
397.00	187.24
397.19	187.24
397.39	152.13
397.58	234.05
397.77	163.84
397.97	222.35
398.16	159.16
398.35	182.56
398.55	159.16
398.74	175.54
398.93	201.29
399.12	149.79
399.32	159.16
399.51	189.58
399.70	196.60
399.90	142.77
400.09	173.20
400.28	266.82
400.47	173.20
400.67	163.84
400.86	173.20
401.05	168.52
401.24	220.01
401.44	212.99
401.63	227.03
401.82	203.63
402.01	154.48
402.21	159.16
402.40	163.84
402.59	222.35
402.78	175.54
402.97	241.08
403.17	203.63
403.36	177.88
403.55	154.48
403.74	198.95
403.93	273.84
404.13	252.78
404.32	266.82
404.51	259.80
404.70	390.87
404.89	238.73
405.09	215.33
405.28	173.20
405.47	161.50
405.66	273.84
405.85	297.25
406.05	245.76
406.24	198.95
406.43	248.10
406.62	180.22
406.81	365.12
407.00	322.99
407.20	231.71
407.39	229.37
407.58	276.18
407.77	313.63
407.96	355.76
408.15	320.65
408.34	308.95
408.54	266.82
408.73	287.89
408.92	273.84
409.11	241.08
409.30	231.71
409.49	196.60
409.68	285.55
409.87	278.52
410.07	283.20
410.26	322.99
410.45	299.59
410.64	229.37
410.83	299.59
411.02	294.91
411.21	315.97
411.40	306.61
411.59	210.65
411.78	224.69
411.98	325.33
412.17	383.85
412.36	245.76
412.55	320.65
412.74	301.93
412.93	454.06
413.12	339.38
413.31	325.33
413.50	334.70
413.69	402.57
413.88	379.17
414.07	287.89
414.26	395.55
414.45	360.44
414.64	379.17
414.83	318.31
415.02	416.62
415.22	390.87
415.41	461.09
415.60	379.17
415.79	365.12
415.98	409.59
416.17	318.31
416.36	433.00
416.55	404.91
416.74	442.36
416.93	411.93
417.12	318.31
417.31	369.80
417.50	362.78
417.69	411.93
417.88	428.32
418.07	332.36
418.26	400.23
418.45	479.81
418.64	543.00
418.83	400.23
419.02	411.93
419.21	369.80
419.39	428.32
419.58	416.62
419.77	416.62
419.96	369.80
420.15	489.17
420.34	538.32
420.53	374.49
420.72	454.06
420.91	444.70
421.10	463.43
421.29	421.30
421.48	442.36
421.67	475.13
421.86	470.45
422.05	498.53
422.24	447.04
422.43	463.43
422.61	416.62
422.80	456.40
422.99	461.09
423.18	440.02
423.37	517.26
423.56	493.85
423.75	498.53
423.94	475.13
424.13	503.22
424.32	437.68
424.50	463.43
424.69	505.56
424.88	458.74
425.07	517.26
425.26	512.58
425.45	589.82
425.64	454.06
425.83	535.98
426.01	505.56
426.20	482.15
426.39	376.83
426.58	430.66
426.77	505.56
426.96	493.85
427.15	425.98
427.33	440.02
427.52	540.66
427.71	561.73
427.90	484.49
428.09	526.62
428.28	512.58
428.46	561.73
428.65	524.28
428.84	510.24
429.03	580.45
429.22	552.37
429.40	465.77
429.59	517.26
429.78	538.32
429.97	505.56
430.16	568.75
430.34	519.60
430.53	517.26
430.72	533.64
430.91	564.07
431.10	533.64
431.28	477.47
431.47	566.41
431.66	638.97
431.85	610.88
432.03	517.26
432.22	601.52
432.41	617.90
432.60	507.90
432.79	636.63
432.97	620.24
433.16	575.77
433.35	561.73
433.54	582.79
433.72	601.52
433.91	561.73
434.10	662.37
434.28	615.56
434.47	657.69
434.66	596.84
434.85	657.69
435.03	772.38
435.22	1104.73
435.41	1362.19
435.59	1437.09
435.78	1078.99
435.97	800.46
436.16	737.27
436.34	594.50
436.53	631.94
436.72	669.39
436.90	770.04
437.09	690.46
437.28	592.16
437.46	571.09
437.65	594.50
437.84	655.35
438.02	622.58
438.21	634.29
438.40	599.18
438.58	655.35
438.77	634.29
438.96	763.01
439.14	709.18
439.33	667.05
439.52	662.37
439.70	781.74
439.89	683.44
440.08	601.52
440.26	702.16
440.45	697.48
440.63	723.23
440.82	678.76
441.01	816.85
441.19	671.73
441.38	730.25
441.57	695.14
441.75	727.91
441.94	835.57
442.12	720.88
442.31	765.36
442.50	678.76
442.68	727.91
442.87	807.48
443.05	662.37
443.24	690.46
443.43	741.95
443.61	744.29
443.80	800.46
443.98	805.14
444.17	755.99
444.35	788.76
444.54	795.78
444.73	720.88
444.91	851.96
445.10	725.57
445.28	653.01
445.47	669.39
445.65	734.93
445.84	786.42
446.02	795.78
446.21	751.31
446.39	723.23
446.58	833.23
446.77	781.74
446.95	856.64
447.14	866.00
447.32	793.44
447.51	716.20
447.69	856.64
447.88	858.98
448.06	781.74
448.25	828.55
448.43	674.07
448.62	873.02
448.80	734.93
448.99	809.83
449.17	683.44
449.36	744.29
449.54	744.29
449.73	868.34
449.91	791.10
450.10	877.70
450.28	915.15
450.46	774.72
450.65	868.34
450.83	800.46
451.02	861.32
451.20	819.19
451.39	819.19
451.57	912.81
451.76	873.02
451.94	863.66
452.13	826.21
452.31	915.15
452.49	781.74
452.68	816.85
452.86	863.66
453.05	889.40
453.23	940.90
453.42	819.19
453.60	821.53
453.78	833.23
453.97	784.08
454.15	840.25
454.34	866.00
454.52	786.42
454.70	861.32
454.89	910.47
455.07	866.00
455.26	1025.15
455.44	971.32
455.62	830.89
455.81	828.55
455.99	851.96
456.17	1011.11
456.36	880.04
456.54	866.00
456.73	880.04
456.91	952.60
457.09	882.38
457.28	987.71
457.46	926.85
457.64	938.55
457.83	924.51
458.01	837.91
458.19	1004.09
458.38	887.06
458.56	905.79
458.74	875.36
458.93	973.66
459.11	959.62
459.29	905.79
459.48	938.55
459.66	957.28
459.84	968.98
460.03	1050.90
460.21	903.45
460.39	887.06
460.57	1036.86
460.76	980.68
460.94	931.53
461.12	1060.26
461.31	917.49
461.49	936.21
461.67	912.81
461.85	1004.09
462.04	985.37
462.22	1448.79
462.40	1074.31
462.59	987.71
462.77	985.37
462.95	1029.84
463.13	1011.11
463.32	1034.52
463.50	1111.75
463.68	1053.24
463.86	983.02
464.05	973.66
464.23	964.30
464.41	978.34
464.59	1039.20
464.78	978.34
464.96	1032.18
465.14	1050.90
465.32	1034.52
465.50	1088.35
465.69	1001.75
465.87	912.81
466.05	1015.79
466.23	1060.26
466.41	1097.71
466.60	1149.20
466.78	1057.92
466.96	1025.15
467.14	1083.67
467.32	1090.69
467.51	1118.78
467.69	1032.18
467.87	1128.14
468.05	1128.14
468.23	1067.28
468.41	1111.75
468.60	1046.22
468.78	1046.22
468.96	1032.18
469.14	1107.07
469.32	1001.75
469.50	1158.57
469.69	1095.37
469.87	1102.39
470.05	1090.69
470.23	1090.69
470.41	1067.28
470.59	1109.41
470.77	1050.90
470.95	1158.57
471.14	1151.54
471.32	1055.58
471.50	1074.31
471.68	1125.80
471.86	1151.54
472.04	1191.33
472.22	1210.06
472.40	1149.20
472.58	1149.20
472.77	1203.04
472.95	1184.31
473.13	1188.99
473.31	1219.42
473.49	1146.86
473.67	1104.73
473.85	1193.67
474.03	1153.88
474.21	1235.80
474.39	1228.78
474.57	1268.57
474.75	1193.67
474.93	1179.63
475.12	1214.74
475.30	1282.61
475.48	1235.80
475.66	1256.87
475.84	1313.04
476.02	1235.80
476.20	1214.74
476.38	1329.42
476.56	1284.95
476.74	1336.45
476.92	1270.91
477.10	1371.55
477.28	1355.17
477.46	1273.25
477.64	1383.26
477.82	1369.21
478.00	1397.30
478.18	1411.34
478.36	1352.83
478.54	1331.76
478.72	1514.33
478.90	1420.71
479.08	1437.09
479.26	1385.60
479.44	1451.13
479.62	1476.88
479.80	1533.05
479.98	1453.47
480.16	1434.75
480.34	1476.88
480.52	1462.83
480.70	1526.03
480.88	1357.51
481.06	1472.20
481.24	1486.24
481.41	1488.58
481.59	1514.33
481.77	1502.62
481.95	1600.93
482.13	1657.10
482.31	1638.38
482.49	1605.61
482.67	1565.82
482.85	1673.48
483.03	1556.46
483.21	1668.80
483.39	1708.59
483.57	1692.21
483.74	1661.78
483.92	1680.50
484.10	1661.78
484.28	1830.30
484.46	1823.28
484.64	1795.19
484.82	1809.23
485.00	1762.42
485.18	1750.72
485.35	1827.96
485.53	1771.79
485.71	1863.07
485.89	2031.58
486.07	1930.94
486.25	1980.09
486.43	1996.48
486.61	1989.46
486.78	1975.41
486.96	1907.54
487.14	2010.52
487.32	1998.82
487.50	2064.35
487.68	2066.69
487.85	2078.40
488.03	2169.68
488.21	2143.93
488.39	2153.29
488.57	2150.95
488.75	2139.25
488.92	2286.70
489.10	2146.27
489.28	2120.53
489.46	2190.74
489.64	2253.94
489.81	2209.47
489.99	2150.95
490.17	2172.02
490.35	2253.94
490.53	2242.23
490.70	2235.21
490.88	2305.43
491.06	2246.91
491.24	2218.83
491.41	2450.54
491.59	2305.43
491.77	2298.41
491.95	2319.47
492.13	2169.68
492.30	2359.26
492.48	2286.70
492.66	2275.00
492.84	2399.05
493.01	2375.64
493.19	2352.24
493.37	2499.69
493.54	2485.65
493.72	2380.32
493.90	2469.27
494.08	2476.29
494.25	2471.61
494.43	2438.84
494.61	2551.18
494.79	2555.86
494.96	2399.05
495.14	2525.44
495.32	2553.52
495.49	2539.48
495.67	2560.55
495.85	2623.74
496.02	2546.50
496.20	2572.25
496.38	2715.02
496.55	2569.91
496.73	2684.59
496.91	2506.71
497.09	2656.51
497.26	2614.38
497.44	2710.34
497.62	2644.81
497.79	2698.64
497.97	2600.34
498.14	2761.83
498.32	2761.83
498.50	2766.51
498.67	2925.67
498.85	2693.96
499.03	2789.92
499.20	2712.68
499.38	2855.45
499.56	2679.91
499.73	2848.43
499.91	2839.07
500.08	2899.92
500.26	2839.07
500.44	2813.32
500.61	2892.90
500.79	2871.84
500.97	2801.62
501.14	2808.64
501.32	2916.31
501.49	2822.69
501.67	2871.84
501.84	2787.58
502.02	2813.32
502.20	2892.90
502.37	3033.33
502.55	2967.80
502.72	2834.39
502.90	2988.86
503.07	2855.45
503.25	2967.80
503.43	2946.73
503.60	2956.10
503.78	2920.99
503.95	2960.78
504.13	3056.74
504.30	3063.76
504.48	3019.29
504.65	3150.36
504.83	3089.51
505.01	2979.50
505.18	3155.04
505.36	3084.83
505.53	3119.93
505.71	3040.36
505.88	3145.68
506.06	3066.10
506.23	3192.49
506.41	3133.98
506.58	3126.96
506.76	3169.09
506.93	3159.72
507.11	3112.91
507.28	3155.04
507.46	3152.70
507.63	3229.94
507.81	3246.32
507.98	3211.22
508.16	3206.53
508.33	3251.00
508.50	3234.62
508.68	3204.19
508.85	3194.83
509.03	3213.56
509.20	3389.10
509.38	3241.64
509.55	3288.45
509.73	3286.11
509.90	3389.10
510.08	3384.41
510.25	3323.56
510.42	3403.14
510.60	3316.54
510.77	3412.50
510.95	3396.12
511.12	3368.03
511.30	3314.20
511.47	3449.95
511.64	3478.04
511.82	3400.80
511.99	3482.72
512.17	3220.58
512.34	3426.54
512.51	3403.14
512.69	3471.01
512.86	3562.30
513.04	3447.61
513.21	3389.10
513.38	3499.10
513.56	3459.31
513.73	3471.01
513.90	3571.66
514.08	3524.85
514.25	3536.55
514.43	3555.27
514.60	3489.74
514.77	3426.54
514.95	3515.48
515.12	3471.01
515.29	3489.74
515.47	3641.87
515.64	3353.99
515.81	3543.57
515.99	3623.15
516.16	3653.58
516.33	3691.02
516.51	3653.58
516.68	3644.21
516.85	3597.40
517.03	3595.06
517.20	3550.59
517.37	3698.05
517.54	3726.13
517.72	3709.75
517.89	3625.49
518.06	3562.30
518.24	3693.37
518.41	3702.73
518.58	3655.92
518.75	3695.71
518.93	3763.58
519.10	3730.81
519.27	3824.44
519.45	3627.83
519.62	3648.90
519.79	3824.44
519.96	3775.28
520.14	3714.43
520.31	3838.48
520.48	3943.80
520.65	3779.97
520.83	3824.44
521.00	3840.82
521.17	3740.18
521.34	3861.88
521.52	3768.26
521.69	3992.95
521.86	4007.00
522.03	3868.91
522.20	3941.46
522.38	3852.52
522.55	3761.24
522.72	3875.93
522.89	4014.02
523.07	3840.82
523.24	3852.52
523.41	3866.56
523.58	3915.72
523.75	3918.06
523.92	3915.72
524.10	4093.60
524.27	4051.47
524.44	3962.53
524.61	3992.95
524.78	3983.59
524.96	3955.51
525.13	4021.04
525.30	4035.08
525.47	4049.13
525.64	4030.40
525.81	3927.42
525.98	4074.87
526.16	4074.87
526.33	4007.00
526.50	4072.53
526.67	4032.74
526.84	3978.91
527.01	4063.17
527.18	4102.96
527.36	4147.43
527.53	4039.76
527.70	4159.13
527.87	4081.89
528.04	3971.89
528.21	4142.75
528.38	3999.98
528.55	4166.15
528.72	4121.68
528.89	4173.18
529.07	4152.11
529.24	4070.19
529.41	4222.33
529.58	4245.73
529.75	4231.69
529.92	4140.41
530.09	4285.52
530.26	4285.52
530.43	4231.69
530.60	4241.05
530.77	4180.20
530.94	4367.44
531.11	4208.28
531.28	4109.98
531.46	4063.17
531.63	4287.86
531.80	4210.62
531.97	4215.30
532.14	4269.14
532.31	4271.48
532.48	4203.60
532.65	4264.46
532.82	4346.37
532.99	4243.39
533.16	4402.55
533.33	4257.43
533.50	4393.19
533.67	4374.46
533.84	4229.35
534.01	4227.01
534.18	4344.03
534.35	4292.54
534.52	4257.43
534.69	4479.79
534.86	4418.93
535.03	4463.40
535.20	4337.01
535.37	4329.99
535.54	4440.00
535.71	4472.76
535.88	4456.38
536.05	4397.87
536.22	4447.02
536.38	4442.34
536.55	4484.47
536.72	4421.27
536.89	4425.95
537.06	4435.32
537.23	4465.74
537.40	4514.89
537.57	4615.54
537.74	4655.33
537.91	4454.04
538.08	4760.65
538.25	4655.33
538.42	4547.66
538.59	4475.10
538.75	4482.13
538.92	4571.07
539.09	4505.53
539.26	4648.30
539.43	4730.22
539.60	4753.63
539.77	4744.27
539.94	4674.05
540.11	4877.68
540.28	4889.38
540.44	4959.60
540.61	4837.89
540.78	4910.44
540.95	5123.43
541.12	5273.23
541.29	5282.59
541.46	5289.61
541.62	5331.74
541.79	5406.64
541.96	5362.17
542.13	5259.18
542.30	5362.17
542.47	5123.43
542.63	5327.06
542.80	5418.34
542.97	5364.51
543.14	5282.59
543.31	5130.45
543.48	5298.97
543.64	5376.21
543.81	5378.55
543.98	5390.25
544.15	5214.71
544.32	5195.99
544.48	5284.93
544.65	5310.68
544.82	5247.48
544.99	5100.03
545.16	5270.89
545.32	5181.95
545.49	5874.74
545.66	6539.46
545.83	7173.74
546.00	6759.47
546.16	5959.00
546.33	5504.94
546.50	5350.46
546.67	5242.80
546.83	5284.93
547.00	5025.13
547.17	5048.54
547.34	5081.30
547.50	5057.90
547.67	4987.68
547.84	4961.94
548.00	5118.75
548.17	5022.79
548.34	5041.51
548.51	4983.00
548.67	5018.11
548.84	5032.15
549.01	5053.22
549.18	5186.63
549.34	4947.89
549.51	5032.15
549.68	5088.32
549.84	4947.89
550.01	4919.81
550.18	4968.96
550.34	4849.59
550.51	5055.56
550.68	4980.66
550.84	4933.85
551.01	4905.76
551.18	4940.87
551.34	4833.21
551.51	4823.84
551.68	4844.91
551.84	4952.57
552.01	4957.25
552.18	4894.06
552.34	4830.87
552.51	4903.42
552.68	5013.43
552.84	5022.79
553.01	4938.53
553.18	4865.97
553.34	4917.47
553.51	4947.89
553.67	4990.02
553.84	4919.81
554.01	4812.14
554.17	4732.56
554.34	4844.91
554.51	4915.12
554.67	4781.71
554.84	4744.27
555.00	4887.04
555.17	4772.35
555.33	4648.30
555.50	4835.55
555.67	4854.27
555.83	4828.53
556.00	4704.48
556.16	4961.94
556.33	4697.46
556.50	4805.12
556.66	4821.50
556.83	4873.00
556.99	4891.72
557.16	4947.89
557.32	4898.74
557.49	4781.71
557.65	4762.99
557.82	4746.61
557.98	4999.38
558.15	4971.30
558.32	4676.39
558.48	4718.52
558.65	4901.08
558.81	4863.63
558.98	4889.38
559.14	4889.38
559.31	4744.27
559.47	4849.59
559.64	4849.59
559.80	4856.61
559.97	4994.70
560.13	4828.53
560.30	4802.78
560.46	4748.95
560.63	5015.77
560.79	4968.96
560.96	4858.95
561.12	4997.04
561.29	4800.44
561.45	4821.50
561.61	4861.29
561.78	5013.43
561.94	4980.66
562.11	4856.61
562.27	4795.76
562.44	4915.12
562.60	4828.53
562.77	4711.50
562.93	4844.91
563.10	4877.68
563.26	4870.65
563.42	4847.25
563.59	4973.64
563.75	4997.04
563.92	4961.94
564.08	4884.70
564.24	4887.04
564.41	4922.15
564.57	4889.38
564.74	4997.04
564.90	4861.29
565.07	4964.28
565.23	4905.76
565.39	5022.79
565.56	4924.49
565.72	5076.62
565.88	4985.34
566.05	4816.82
566.21	4805.12
566.38	4842.57
566.54	4840.23
566.70	4940.87
566.87	5011.09
567.03	4898.74
567.19	4966.62
567.36	4830.87
567.52	4774.69
567.68	4887.04
567.85	4964.28
568.01	4959.60
568.17	4887.04
568.34	4858.95
568.50	5060.24
568.66	4910.44
568.83	5090.67
568.99	4912.78
569.15	4931.51
569.32	4966.62
569.48	4800.44
569.64	4922.15
569.81	4842.57
569.97	4873.00
570.13	4842.57
570.30	5006.41
570.46	4877.68
570.62	4889.38
570.78	4788.74
570.95	4770.01
571.11	4917.47
571.27	4926.83
571.43	4896.40
571.60	4837.89
571.76	4873.00
571.92	4915.12
572.09	4910.44
572.25	4940.87
572.41	4938.53
572.57	4800.44
572.74	4947.89
572.90	4905.76
573.06	4858.95
573.22	4959.60
573.38	4891.72
573.55	5121.09
573.71	4987.68
573.87	5090.67
574.03	4994.70
574.20	4952.57
574.36	4887.04
574.52	4896.40
574.68	4945.55
574.84	4947.89
575.01	4966.62
575.17	4936.19
575.33	4931.51
575.49	4954.91
575.65	4966.62
575.82	4908.10
575.98	4929.17
576.14	4929.17
576.30	5022.79
576.46	5163.22
576.62	5397.28
576.79	5413.66
576.95	5240.46
577.11	5015.77
577.27	5011.09
577.43	5093.01
577.59	5018.11
577.75	4901.08
577.92	4999.38
578.08	4887.04
578.24	4961.94
578.40	5029.81
578.56	5221.74
578.72	5308.34
578.88	5399.62
579.04	5146.84
579.21	5149.18
579.37	5095.35
579.53	5013.43
579.69	5132.79
579.85	5015.77
580.01	5095.35
580.17	5069.60
580.33	4983.00
580.49	5184.29
580.65	5062.58
580.82	5060.24
580.98	5043.85
581.14	5001.72
581.30	5158.54
581.46	5015.77
581.62	4896.40
581.78	5022.79
581.94	5020.45
582.10	5004.07
582.26	4924.49
582.42	5029.81
582.58	5137.48
582.74	5055.56
582.90	4959.60
583.06	4940.87
583.22	5093.01
583.38	5069.60
583.54	5048.54
583.70	5174.92
583.86	4896.40
584.02	5135.14
584.18	5104.71
584.34	5153.86
584.50	5135.14
584.66	5139.82
584.82	5097.69
584.98	5029.81
585.14	5090.67
585.30	5004.07
585.46	5160.88
585.62	4957.25
585.78	5069.60
585.94	4882.36
586.10	4968.96
586.26	5146.84
586.42	5163.22
586.58	5102.37
586.74	5153.86
586.90	5177.26
587.06	5231.10
587.22	5298.97
587.38	5195.99
587.54	5128.11
587.70	5203.01
587.86	5195.99
588.02	5071.94
588.18	4983.00
588.34	4990.02
588.49	4940.87
588.65	5015.77
588.81	5018.11
588.97	4929.17
589.13	5048.54
589.29	5069.60
589.45	5013.43
589.61	5022.79
589.77	5071.94
589.93	5048.54
590.08	4947.89
590.24	5170.24
590.40	4931.51
590.56	5109.39
590.72	5130.45
590.88	4933.85
591.04	4999.38
591.20	4966.62
591.35	5121.09
591.51	5123.43
591.67	5121.09
591.83	5146.84
591.99	5029.81
592.15	5167.90
592.31	5170.24
592.46	5125.77
592.62	5224.08
592.78	5046.20
592.94	5088.32
593.10	5149.18
593.26	5160.88
593.41	5018.11
593.57	5121.09
593.73	5076.62
593.89	5261.52
594.05	4954.91
594.20	4938.53
594.36	5090.67
594.52	4945.55
594.68	4975.98
594.84	5078.96
594.99	4924.49
595.15	5203.01
595.31	4884.70
595.47	5130.45
595.62	4917.47
595.78	5039.17
595.94	5050.88
596.10	5228.76
596.25	5193.65
596.41	4954.91
596.57	4915.12
596.73	5018.11
596.88	5020.45
597.04	4975.98
597.20	5043.85
597.36	4985.34
597.51	4992.36
597.67	5041.51
597.83	4945.55
597.99	5015.77
598.14	5074.28
598.30	5022.79
598.46	4971.30
598.61	5172.58
598.77	5067.26
598.93	5146.84
599.09	5252.16
599.24	5263.86
599.40	5074.28
599.56	5032.15
599.71	4861.29
599.87	5004.07
600.03	5245.14
600.18	5095.35
600.34	5001.72
600.50	5210.03
600.65	5025.13
600.81	4992.36
600.97	4933.85
601.12	4992.36
601.28	4990.02
601.44	5060.24
601.59	4964.28
601.75	4844.91
