SpectraSuite Data File
++++++++++++++++++++++++++++++++++++
Date: Fri Oct 04 11:39:27 GMT-05:00 2013
User: price-jones
Dark Spectrum Present: No
Reference Spectrum Present: No
Number of Sampled Component Spectra: 1
Spectrometers: USB2+H05261
Integration Time (usec): 100000 (USB2+H05261)
Spectra Averaged: 1 (USB2+H05261)
Boxcar Smoothing: 0 (USB2+H05261)
Correct for Electrical Dark: No (USB2+H05261)
Strobe/Lamp Enabled: No (USB2+H05261)
Correct for Detector Non-linearity: No (USB2+H05261)
Correct for Stray Light: No (USB2+H05261)
Number of Pixels in Processed Spectrum: 2048
>>>>>Begin Processed Spectral Data<<<<<
365.73	53.83
365.92	53.83
366.12	53.83
366.32	23.41
366.52	4.68
366.72	0.00
366.91	0.00
367.11	0.00
367.31	0.00
367.51	0.00
367.70	0.00
367.90	0.00
368.10	0.00
368.30	0.00
368.49	0.00
368.69	0.00
368.89	0.00
369.09	0.00
369.28	0.00
369.48	0.00
369.68	0.00
369.87	0.00
370.07	0.00
370.27	0.00
370.47	124.05
370.66	175.54
370.86	121.71
371.06	191.92
371.25	276.18
371.45	184.90
371.65	299.59
371.84	182.56
372.04	180.22
372.24	238.73
372.44	215.33
372.63	241.08
372.83	334.70
373.03	255.12
373.22	301.93
373.42	250.44
373.62	210.65
373.81	285.55
374.01	262.14
374.21	231.71
374.40	271.50
374.60	224.69
374.79	271.50
374.99	222.35
375.19	311.29
375.38	266.82
375.58	269.16
375.78	299.59
375.97	280.86
376.17	280.86
376.37	287.89
376.56	304.27
376.76	196.60
376.95	353.42
377.15	252.78
377.35	339.38
377.54	255.12
377.74	208.31
377.93	255.12
378.13	262.14
378.33	334.70
378.52	294.91
378.72	292.57
378.91	386.19
379.11	320.65
379.31	381.51
379.50	365.12
379.70	271.50
379.89	315.97
380.09	313.63
380.28	318.31
380.48	203.63
380.68	273.84
380.87	358.10
381.07	330.02
381.26	372.15
381.46	348.74
381.65	332.36
381.85	360.44
382.04	322.99
382.24	358.10
382.43	308.95
382.63	348.74
382.83	341.72
383.02	355.76
383.22	381.51
383.41	341.72
383.61	376.83
383.80	362.78
384.00	327.68
384.19	353.42
384.39	285.55
384.58	332.36
384.78	308.95
384.97	388.53
385.17	386.19
385.36	339.38
385.56	397.89
385.75	339.38
385.95	367.46
386.14	393.21
386.34	360.44
386.53	418.96
386.72	304.27
386.92	444.70
387.11	362.78
387.31	372.15
387.50	365.12
387.70	362.78
387.89	456.40
388.09	407.25
388.28	353.42
388.48	388.53
388.67	430.66
388.86	374.49
389.06	390.87
389.25	367.46
389.45	388.53
389.64	411.93
389.84	463.43
390.03	468.11
390.22	395.55
390.42	383.85
390.61	428.32
390.81	477.47
391.00	409.59
391.19	465.77
391.39	379.17
391.58	442.36
391.78	388.53
391.97	524.28
392.16	421.30
392.36	517.26
392.55	456.40
392.75	458.74
392.94	524.28
393.13	447.04
393.33	437.68
393.52	489.17
393.71	589.82
393.91	496.19
394.10	519.60
394.29	444.70
394.49	561.73
394.68	531.30
394.88	512.58
395.07	592.16
395.26	596.84
395.46	561.73
395.65	543.00
395.84	578.11
396.04	631.94
396.23	566.41
396.42	554.71
396.62	622.58
396.81	557.05
397.00	620.24
397.19	573.43
397.39	615.56
397.58	622.58
397.77	624.92
397.97	589.82
398.16	596.84
398.35	629.60
398.55	622.58
398.74	543.00
398.93	653.01
399.12	638.97
399.32	704.50
399.51	706.84
399.70	660.03
399.90	685.78
400.09	730.25
400.28	753.65
400.47	678.76
400.67	779.40
400.86	741.95
401.05	683.44
401.24	716.20
401.44	765.36
401.63	767.70
401.82	709.18
402.01	725.57
402.21	809.83
402.40	807.48
402.59	828.55
402.78	847.27
402.97	802.80
403.17	842.59
403.36	844.93
403.55	844.93
403.74	924.51
403.93	926.85
404.13	950.26
404.32	1055.58
404.51	931.53
404.70	915.15
404.89	978.34
405.09	973.66
405.28	983.02
405.47	922.17
405.66	919.83
405.85	940.90
406.05	1025.15
406.24	990.05
406.43	978.34
406.62	1036.86
406.81	1086.01
407.00	1043.88
407.20	1076.65
407.39	1102.39
407.58	1050.90
407.77	1149.20
407.96	1121.12
408.15	1132.82
408.34	1158.57
408.54	1128.14
408.73	1207.72
408.92	1235.80
409.11	1252.19
409.30	1287.29
409.49	1181.97
409.68	1338.79
409.87	1315.38
410.07	1327.08
410.26	1303.68
410.45	1291.98
410.64	1373.89
410.83	1338.79
411.02	1308.36
411.21	1425.39
411.40	1397.30
411.59	1434.75
411.78	1338.79
411.98	1467.52
412.17	1383.26
412.36	1479.22
412.55	1401.98
412.74	1598.59
412.93	1617.31
413.12	1507.30
413.31	1664.12
413.50	1502.62
413.69	1614.97
413.88	1703.91
414.07	1668.80
414.26	1689.87
414.45	1685.19
414.64	1687.53
414.83	1769.44
415.02	1783.49
415.22	1914.56
415.41	1877.11
415.60	1849.02
415.79	1783.49
415.98	1952.01
416.17	1865.41
416.36	1856.04
416.55	1980.09
416.74	1935.62
416.93	2047.97
417.12	2019.88
417.31	2045.63
417.50	2017.54
417.69	2169.68
417.88	2111.16
418.07	2052.65
418.26	2073.71
418.45	2263.30
418.64	2176.70
418.83	2275.00
419.02	2228.19
419.21	2326.49
419.39	2108.82
419.58	2146.27
419.77	2228.19
419.96	2291.38
420.15	2286.70
420.34	2235.21
420.53	2317.13
420.72	2256.28
420.91	2331.17
421.10	2326.49
421.29	2340.54
421.48	2361.60
421.67	2349.90
421.86	2218.83
422.05	2513.74
422.24	2375.64
422.43	2438.84
422.61	2434.16
422.80	2534.80
422.99	2310.11
423.18	2473.95
423.37	2487.99
423.56	2342.88
423.75	2480.97
423.94	2377.98
424.13	2204.78
424.32	2420.11
424.50	2579.27
424.69	2562.89
424.88	2516.08
425.07	2429.48
425.26	2506.71
425.45	2555.86
425.64	2506.71
425.83	2455.22
426.01	2588.63
426.20	2509.05
426.39	2569.91
426.58	2513.74
426.77	2539.48
426.96	2616.72
427.15	2551.18
427.33	2719.70
427.52	2705.66
427.71	2593.31
427.90	2731.41
428.09	2691.62
428.28	2686.94
428.46	2705.66
428.65	2808.64
428.84	2843.75
429.03	2878.86
429.22	2740.77
429.40	2836.73
429.59	2832.05
429.78	2698.64
429.97	2630.76
430.16	2771.19
430.34	2829.71
430.53	2986.52
430.72	2932.69
430.91	2869.50
431.10	2827.37
431.28	2827.37
431.47	3000.57
431.66	2998.23
431.85	2874.18
432.03	3073.12
432.22	3040.36
432.41	2967.80
432.60	3047.38
432.79	3012.27
432.97	3007.59
433.16	3042.70
433.35	3068.44
433.54	3155.04
433.72	3176.11
433.91	3281.43
434.10	3197.17
434.28	3258.03
434.47	3117.59
434.66	3178.45
434.85	3279.09
435.03	3260.37
435.22	3445.27
435.41	3709.75
435.59	3655.92
435.78	3496.76
435.97	3566.98
436.16	3356.33
436.34	3295.47
436.53	3368.03
436.72	3342.28
436.90	3438.25
437.09	3552.93
437.28	3372.71
437.46	3403.14
437.65	3503.78
437.84	3473.36
438.02	3527.19
438.21	3527.19
438.40	3433.57
438.58	3506.12
438.77	3672.30
438.96	3468.67
439.14	3627.83
439.33	3623.15
439.52	3700.39
439.70	3592.72
439.89	3723.79
440.08	3719.11
440.26	3749.54
440.45	3810.39
440.63	3751.88
440.82	3939.12
441.01	3887.63
441.19	3964.87
441.38	4014.02
441.57	3941.46
441.75	3896.99
441.94	4217.65
442.12	4065.51
442.31	3971.89
442.50	4095.94
442.68	3964.87
442.87	4187.22
443.05	4168.49
443.24	4208.28
443.43	4156.79
443.61	4264.46
443.80	4297.22
443.98	4081.89
444.17	4081.89
444.35	4201.26
444.54	4388.50
444.73	4337.01
444.91	4299.56
445.10	4248.07
445.28	4264.46
445.47	4191.90
445.65	4219.99
445.84	4264.46
446.02	4219.99
446.21	4372.12
446.39	4257.43
446.58	4100.62
446.77	4224.67
446.95	4121.68
447.14	4337.01
447.32	4400.21
447.51	4458.72
447.69	4276.16
447.88	4252.75
448.06	4528.94
448.25	4252.75
448.43	4191.90
448.62	4383.82
448.80	4470.42
448.99	4437.66
449.17	4400.21
449.36	4435.32
449.54	4638.94
449.73	4634.26
449.91	4505.53
450.10	4545.32
450.28	4702.14
450.46	4629.58
450.65	4629.58
450.83	4638.94
451.02	4585.11
451.20	4638.94
451.39	4760.65
451.57	4514.89
451.76	4554.68
451.94	4725.54
452.13	4807.46
452.31	4755.97
452.49	4774.69
452.68	4615.54
452.86	4645.96
453.05	4807.46
453.23	4842.57
453.42	4634.26
453.60	4805.12
453.78	4924.49
453.97	4940.87
454.15	4748.95
454.34	4854.27
454.52	4889.38
454.70	4847.25
454.89	5076.62
455.07	4830.87
455.26	4971.30
455.44	4992.36
455.62	4987.68
455.81	4961.94
455.99	5104.71
456.17	5184.29
456.36	5135.14
456.54	5242.80
456.73	5203.01
456.91	5291.95
457.09	5376.21
457.28	5497.92
457.46	5296.63
457.64	5371.53
457.83	5387.91
458.01	5207.69
458.19	5462.81
458.38	5390.25
458.56	5472.17
458.74	5298.97
458.93	5371.53
459.11	5458.13
459.29	5488.56
459.48	5596.22
459.66	5390.25
459.84	5516.64
460.03	5621.97
460.21	5666.44
460.39	5610.26
460.57	5547.07
460.76	5804.53
460.94	5694.52
461.12	5706.23
461.31	5614.95
461.49	5514.30
461.67	5650.05
461.85	5720.27
462.04	5970.71
462.22	5956.66
462.40	5771.76
462.59	5781.12
462.77	5680.48
462.95	5872.40
463.13	5818.57
463.32	5923.90
463.50	5837.30
463.68	5912.19
463.86	5874.74
464.05	5816.23
464.23	5973.05
464.41	6097.10
464.59	5966.03
464.78	6097.10
464.96	6076.03
465.14	5984.75
465.32	6120.50
465.50	6045.60
465.69	6232.85
465.87	5870.06
466.05	6061.99
466.23	5966.03
466.41	6047.94
466.60	6331.15
466.78	6207.10
466.96	6167.31
467.14	6349.87
467.32	6289.02
467.51	6310.08
467.69	6090.07
467.87	6401.37
468.05	6359.24
468.23	6335.83
468.41	6356.90
468.60	6338.17
468.78	6525.41
468.96	6293.70
469.14	6406.05
469.32	6471.58
469.50	6141.57
469.69	6761.81
469.87	6558.18
470.05	6663.51
470.23	6677.55
470.41	6619.04
470.59	6539.46
470.77	6530.09
470.95	6607.33
471.14	6836.70
471.32	6593.29
471.50	7061.40
471.68	6710.32
471.86	6799.26
472.04	6806.28
472.22	7012.24
472.40	6935.01
472.58	7016.93
472.77	7108.21
472.95	7112.89
473.13	7262.68
473.31	7152.68
473.49	7091.82
473.67	7297.79
473.85	7243.96
474.03	7260.34
474.21	7136.29
474.39	7496.74
474.57	7279.07
474.75	7494.40
474.93	7501.42
475.12	7625.47
475.30	7419.50
475.48	7669.94
475.66	7623.12
475.84	7492.05
476.02	7632.49
476.20	7793.98
476.38	7990.59
476.56	8065.49
476.74	7801.01
476.92	7733.13
477.10	7906.33
477.28	8196.56
477.46	7939.10
477.64	8086.55
477.82	8278.47
478.00	8388.48
478.18	8454.02
478.36	8264.43
478.54	8381.46
478.72	8486.78
478.90	8723.18
479.08	8589.77
479.26	8762.97
479.44	8889.35
479.62	8990.00
479.80	8823.82
479.98	8954.89
480.16	9121.07
480.34	9029.79
480.52	9256.82
480.70	9280.22
480.88	9146.81
481.06	9221.71
481.24	9341.08
481.41	9212.35
481.59	9479.17
481.77	9518.96
481.95	9556.41
482.13	9785.78
482.31	10017.49
482.49	9895.78
482.67	10061.96
482.85	10043.24
483.03	10338.15
483.21	10368.57
483.39	10326.44
483.57	10193.03
483.74	10541.77
483.92	10553.48
484.10	10630.71
484.28	10686.89
484.46	10942.00
484.64	10967.75
484.82	10956.05
485.00	10824.98
485.18	11239.25
485.35	11300.11
485.53	11190.10
485.71	11407.77
485.89	11754.17
486.07	11206.48
486.25	11550.54
486.43	11854.81
486.61	11754.17
486.78	11899.28
486.96	12065.46
487.14	12004.61
487.32	12191.85
487.50	12133.34
487.68	12156.74
487.85	12149.72
488.03	12528.89
488.21	12706.77
488.39	12561.66
488.57	13071.89
488.75	12875.29
488.92	13181.90
489.10	13083.59
489.28	13184.24
489.46	13479.15
489.64	13338.71
489.81	13561.06
489.99	13502.55
490.17	13675.75
490.35	13912.14
490.53	13827.88
490.70	14195.35
490.88	13973.00
491.06	14216.41
491.24	14101.73
491.41	14281.95
491.59	14164.92
491.77	14375.57
491.95	14291.31
492.13	14417.70
492.30	14747.72
492.48	14642.39
492.66	14766.44
492.84	14747.72
493.01	15089.43
493.19	15075.39
493.37	15112.84
493.54	15178.37
493.72	15499.03
493.90	15204.12
494.08	15655.84
494.25	15627.76
494.43	15829.04
494.61	15721.38
494.79	15843.09
494.96	16079.48
495.14	15889.90
495.32	16219.91
495.49	16238.64
495.67	16177.78
495.85	16276.09
496.02	16472.69
496.20	16699.72
496.38	16533.54
496.55	16589.72
496.73	16798.02
496.91	16734.83
497.09	17032.08
497.26	17057.82
497.44	16791.00
497.62	17209.96
497.79	17458.06
497.97	17216.98
498.14	17123.36
498.32	17689.77
498.50	17678.07
498.67	17635.94
498.85	17813.82
499.03	17984.68
499.20	17898.08
499.38	18052.55
499.56	18314.69
499.73	18092.34
499.91	18249.16
500.08	18328.74
500.26	18312.35
500.44	18560.45
500.61	18717.26
500.79	18532.36
500.97	18497.25
501.14	18700.88
501.32	18888.12
501.49	18988.77
501.67	18698.54
501.84	18937.27
502.02	18874.08
502.20	18841.31
502.37	19489.64
502.55	19033.24
502.72	19206.44
502.90	19367.93
503.07	19260.27
503.25	19257.93
503.43	19037.92
503.60	19522.41
503.78	19761.14
503.95	19611.35
504.13	19836.04
504.30	19964.77
504.48	19901.58
504.65	20203.50
504.83	20276.06
505.01	20091.16
505.18	19882.85
505.36	20264.36
505.53	20060.73
505.71	20194.14
505.88	20559.27
506.06	20175.42
506.23	20416.49
506.41	20767.57
506.58	20545.22
506.76	20903.32
506.93	20463.30
507.11	20491.39
507.28	20716.08
507.46	20940.77
507.63	21336.32
507.81	21043.76
507.98	20849.49
508.16	21142.06
508.33	21088.23
508.50	21369.09
508.68	21029.71
508.85	21113.97
509.03	21170.15
509.20	21612.51
509.38	21902.73
509.55	21977.63
509.73	21539.95
509.90	21977.63
510.08	21558.67
510.25	21685.06
510.42	22141.47
510.60	22459.78
510.77	22590.85
510.95	22211.68
511.12	22148.49
511.30	22239.77
511.47	22731.28
511.64	22476.16
511.82	22483.19
511.99	22696.17
512.17	22963.00
512.34	22445.74
512.51	22590.85
512.69	22862.35
512.86	22897.46
513.04	23070.66
513.21	23112.79
513.38	23101.09
513.56	23084.70
513.73	23241.52
513.90	23325.78
514.08	23126.83
514.25	23702.61
514.43	23639.41
514.60	23936.66
514.77	23328.12
514.95	23850.06
515.12	23489.62
515.29	23751.76
515.47	24149.65
515.64	24016.24
515.81	23620.69
515.99	23765.80
516.16	24126.24
516.33	24245.61
516.51	24254.97
516.68	23927.30
516.85	23971.77
517.03	24355.61
517.20	24311.14
517.37	24264.33
517.54	24842.45
517.72	24463.28
517.89	24285.40
518.06	24645.84
518.24	24374.34
518.41	24463.28
518.58	24903.30
518.75	24900.96
518.93	24954.79
519.10	24580.31
519.27	24898.62
519.45	25273.10
519.62	25008.62
519.79	24627.12
519.96	25015.65
520.14	25160.76
520.31	25188.85
520.48	25153.74
520.65	25453.33
520.83	25275.45
521.00	25589.08
521.17	25188.85
521.34	25539.93
521.52	25394.81
521.69	25720.15
521.86	26139.10
522.03	26176.55
522.20	25539.93
522.38	25764.62
522.55	25736.53
522.72	25720.15
522.89	26270.17
523.07	26328.69
523.24	26164.85
523.41	26375.50
523.58	26005.69
523.75	26450.39
523.92	26174.21
524.10	26593.17
524.27	26445.71
524.44	26647.00
524.61	26654.02
524.78	26581.46
524.96	26834.24
525.13	26614.23
525.30	26689.13
525.47	26728.92
525.64	26396.56
525.81	27009.78
525.98	27063.61
526.16	26920.84
526.33	27047.23
526.50	27623.00
526.67	27187.66
526.84	27012.12
527.01	27096.38
527.18	27374.91
527.36	27384.27
527.53	27402.99
527.70	27054.25
527.87	27386.61
528.04	27896.85
528.21	27505.98
528.38	27438.10
528.55	27538.74
528.72	27309.37
528.89	27618.32
529.07	28126.22
529.24	27513.00
529.41	27667.47
529.58	27433.42
529.75	27749.39
529.92	27990.47
530.09	27941.32
530.26	27969.40
530.43	28231.54
530.60	28048.98
530.77	27992.81
530.94	28510.07
531.11	27992.81
531.28	28371.97
531.46	27901.53
531.63	28341.55
531.80	28524.11
531.97	28421.13
532.14	28730.08
532.31	28362.61
532.48	28599.01
532.65	28914.98
532.82	28196.43
532.99	28320.48
533.16	28692.63
533.33	28584.96
533.50	29097.54
533.67	29076.48
533.84	28694.97
534.01	28318.14
534.18	28634.11
534.35	28999.24
534.52	28755.82
534.69	29350.32
534.86	29219.25
535.03	28821.36
535.20	29118.60
535.37	29511.81
535.54	29539.90
535.71	29099.88
535.88	29310.53
536.05	28898.59
536.22	29432.24
536.38	29259.04
536.55	29624.16
536.72	29532.88
536.89	29001.58
537.06	29465.00
537.23	29785.66
537.40	29577.35
537.57	29741.19
537.74	29776.30
537.91	29914.39
538.08	29928.43
538.25	29516.50
538.42	29977.58
538.59	29921.41
538.75	29907.37
538.92	29633.52
539.09	30174.19
539.26	29883.96
539.43	30347.39
539.60	30221.00
539.77	30178.87
539.94	30462.07
540.11	30036.09
540.28	30356.75
540.44	30756.98
540.61	31208.70
540.78	31054.23
540.95	30710.17
541.12	30948.90
541.29	30785.07
541.46	30829.54
541.62	30712.51
541.79	31103.38
541.96	30579.10
542.13	30838.90
542.30	30993.37
542.47	31269.56
542.63	31042.53
542.80	31325.73
542.97	31859.37
543.14	31367.86
543.31	31342.11
543.48	31292.96
543.64	31557.44
543.81	31814.90
543.98	31653.40
544.15	31346.79
544.32	31775.11
544.48	31171.25
544.65	31505.95
544.82	31896.82
544.99	31182.96
545.16	31810.22
545.32	31819.58
545.49	32353.23
545.66	33099.86
545.83	32961.76
546.00	32694.94
546.16	32116.83
546.33	31637.02
546.50	31632.34
546.67	31840.65
546.83	31211.04
547.00	31948.31
547.17	31880.44
547.34	31775.11
547.50	32613.02
547.67	32165.98
547.84	32098.11
548.00	31812.56
548.17	31997.46
548.34	31627.66
548.51	32123.85
548.67	32435.14
548.84	32084.06
549.01	32088.74
549.18	32098.11
549.34	32058.32
549.51	32191.73
549.68	31995.12
549.84	31960.02
550.01	32077.04
550.18	32304.07
550.34	32385.99
550.51	32421.10
550.68	32496.00
550.84	31931.93
551.01	32802.61
551.18	32121.51
551.34	32280.67
551.51	32521.74
551.68	32224.50
551.84	32378.97
552.01	32065.34
552.18	32716.01
552.34	32484.30
552.51	32505.36
552.68	32194.07
552.84	32465.57
553.01	32680.90
553.18	32481.95
553.34	32606.00
553.51	32905.59
553.67	32540.47
553.84	32903.25
554.01	32423.44
554.17	32617.71
554.34	32568.55
554.51	32891.55
554.67	33099.86
554.84	32598.98
555.00	32488.98
555.17	32643.45
555.33	32907.93
555.50	32861.12
555.67	32521.74
555.83	32535.79
556.00	32343.86
556.16	33263.69
556.33	33053.05
556.50	32847.08
556.66	33055.39
556.83	32795.59
556.99	33310.50
557.16	33184.12
557.32	33031.98
557.49	32978.15
557.65	33179.43
557.82	33090.49
557.98	33193.48
558.15	33326.89
558.32	33074.11
558.48	33259.01
558.65	33563.28
558.81	32811.97
558.98	33048.36
559.14	33303.48
559.31	32893.89
559.47	32863.46
559.64	32847.08
559.80	33223.90
559.97	33263.69
560.13	32994.53
560.30	33029.64
560.46	33284.76
560.63	33319.87
560.79	33312.84
560.96	33397.10
561.12	33191.14
561.29	33118.58
561.45	33401.79
561.61	33291.78
561.78	33565.62
561.94	33191.14
562.11	33605.41
562.27	33214.54
562.44	33362.00
562.60	33198.16
562.77	33474.34
562.93	33427.53
563.10	33631.16
563.26	33530.51
563.42	34040.75
563.59	34024.37
563.75	33703.71
563.92	33558.60
564.08	33369.02
564.24	33947.13
564.41	33481.36
564.57	33336.25
564.74	33259.01
564.90	33521.15
565.07	33614.77
565.23	33516.47
565.39	33649.88
565.56	33354.97
565.72	33689.67
565.88	33654.56
566.05	33528.17
566.21	33394.76
566.38	33589.03
566.54	33200.50
566.70	33956.49
566.87	33677.97
567.03	33804.36
567.19	33851.17
567.36	33673.29
567.52	33556.26
567.68	33750.52
567.85	33790.31
568.01	33890.96
568.17	33710.74
568.34	33668.61
568.50	33780.95
568.66	33771.59
568.83	34043.09
568.99	33652.22
569.15	33689.67
569.32	33682.65
569.48	33441.57
569.64	33333.91
569.81	33741.16
569.97	33811.38
570.13	33998.62
570.30	33633.50
570.46	34019.69
570.62	33401.79
570.78	33823.08
570.95	33769.25
571.11	33769.25
571.27	33565.62
571.43	33965.85
571.60	33013.26
571.76	33591.37
571.92	33832.44
572.09	33818.40
572.25	34284.17
572.41	34235.02
572.57	33820.74
572.74	33940.11
572.90	33741.16
573.06	33755.21
573.22	33923.72
573.38	34338.00
573.55	33900.32
573.71	34279.49
573.87	34139.05
574.03	33490.73
574.20	33818.40
574.36	33853.51
574.52	34426.94
574.68	34038.41
574.84	33897.98
575.01	34134.37
575.17	33708.40
575.33	33876.91
575.49	33689.67
575.65	33820.74
575.82	33947.13
575.98	33848.83
576.14	33909.68
576.30	33795.00
576.46	33706.05
576.62	34066.50
576.79	33757.55
576.95	34031.39
577.11	34316.93
577.27	34272.46
577.43	33972.88
577.59	33811.38
577.75	33710.74
577.92	33809.04
578.08	33582.01
578.24	33874.57
578.40	33921.38
578.56	34066.50
578.72	33919.04
578.88	34274.80
579.04	34504.18
579.21	34003.30
579.37	33951.81
579.53	34141.39
579.69	33965.85
579.85	33970.54
580.01	34019.69
580.17	34153.10
580.33	33825.42
580.49	34476.09
580.65	34220.97
580.82	34232.68
580.98	33912.02
581.14	33954.15
581.30	33982.24
581.46	33472.00
581.62	34181.18
581.78	33603.07
581.94	34110.97
582.10	33783.29
582.26	34164.80
582.42	34515.88
582.58	34419.92
582.74	34291.19
582.90	34132.03
583.06	33703.71
583.22	34061.82
583.38	34384.81
583.54	34321.62
583.70	33923.72
583.86	34117.99
584.02	33642.86
584.18	34253.74
584.34	34361.40
584.50	34316.93
584.66	33949.47
584.82	33954.15
584.98	34373.11
585.14	34022.03
585.30	34202.25
585.46	33975.22
585.62	34188.21
585.78	34115.65
585.94	33996.28
586.10	34029.05
586.26	34089.90
586.42	34553.33
586.58	34665.67
586.74	34122.67
586.90	34036.07
587.06	33809.04
587.22	34239.70
587.38	34050.11
587.54	34391.83
587.70	34316.93
587.86	34019.69
588.02	34426.94
588.18	34223.31
588.34	33998.62
588.49	34015.01
588.65	33940.11
588.81	34211.61
588.97	34335.66
589.13	34190.55
589.29	34150.76
589.45	34022.03
589.61	34263.10
589.77	34242.04
589.93	34094.58
590.08	34330.98
590.24	34106.29
590.40	34459.71
590.56	34256.08
590.72	34277.15
590.88	34199.91
591.04	34000.96
591.20	34330.98
591.35	34787.38
591.51	34993.35
