SpectraSuite Data File
++++++++++++++++++++++++++++++++++++
Date: Fri Oct 04 11:39:38 GMT-05:00 2013
User: price-jones
Dark Spectrum Present: No
Reference Spectrum Present: No
Number of Sampled Component Spectra: 1
Spectrometers: USB2+H05261
Integration Time (usec): 100000 (USB2+H05261)
Spectra Averaged: 1 (USB2+H05261)
Boxcar Smoothing: 0 (USB2+H05261)
Correct for Electrical Dark: No (USB2+H05261)
Strobe/Lamp Enabled: No (USB2+H05261)
Correct for Detector Non-linearity: No (USB2+H05261)
Correct for Stray Light: No (USB2+H05261)
Number of Pixels in Processed Spectrum: 2048
>>>>>Begin Processed Spectral Data<<<<<
365.73	88.94
365.92	88.94
366.12	88.94
366.32	0.00
366.52	0.00
366.72	0.00
366.91	0.00
367.11	0.00
367.31	18.72
367.51	0.00
367.70	0.00
367.90	0.00
368.10	0.00
368.30	0.00
368.49	0.00
368.69	0.00
368.89	0.00
369.09	0.00
369.28	0.00
369.48	9.36
369.68	0.00
369.87	37.45
370.07	0.00
370.27	72.56
370.47	86.60
370.66	280.86
370.86	278.52
371.06	341.72
371.25	402.57
371.45	344.06
371.65	444.70
371.84	411.93
372.04	402.57
372.24	414.27
372.44	360.44
372.63	470.45
372.83	454.06
373.03	428.32
373.22	496.19
373.42	451.72
373.62	496.19
373.81	475.13
374.01	580.45
374.21	543.00
374.40	461.09
374.60	526.62
374.79	451.72
374.99	477.47
375.19	479.81
375.38	547.69
375.58	519.60
375.78	521.94
375.97	603.86
376.17	613.22
376.37	543.00
376.56	564.07
376.76	528.96
376.95	596.84
377.15	540.66
377.35	578.11
377.54	613.22
377.74	489.17
377.93	524.28
378.13	585.13
378.33	566.41
378.52	610.88
378.72	557.05
378.91	685.78
379.11	540.66
379.31	622.58
379.50	610.88
379.70	578.11
379.89	655.35
380.09	725.57
380.28	606.20
380.48	690.46
380.68	557.05
380.87	631.94
381.07	676.41
381.26	704.50
381.46	671.73
381.65	655.35
381.85	727.91
382.04	568.75
382.24	692.80
382.43	683.44
382.63	674.07
382.83	697.48
383.02	772.38
383.22	678.76
383.41	699.82
383.61	788.76
383.80	720.88
384.00	706.84
384.19	704.50
384.39	753.65
384.58	755.99
384.78	755.99
384.97	662.37
385.17	821.53
385.36	821.53
385.56	784.08
385.75	716.20
385.95	807.48
386.14	844.93
386.34	758.33
386.53	767.70
386.72	763.01
386.92	777.06
387.11	772.38
387.31	823.87
387.50	880.04
387.70	873.02
387.89	856.64
388.09	777.06
388.28	821.53
388.48	744.29
388.67	882.38
388.86	896.43
389.06	901.11
389.25	894.08
389.45	884.72
389.64	922.17
389.84	924.51
390.03	866.00
390.22	884.72
390.42	992.39
390.61	936.21
390.81	1006.43
391.00	908.13
391.19	947.92
391.39	976.00
391.58	1001.75
391.78	903.45
391.97	1022.81
392.16	983.02
392.36	1076.65
392.55	1034.52
392.75	1137.50
392.94	1022.81
393.13	992.39
393.33	978.34
393.52	1036.86
393.71	1125.80
393.91	980.68
394.10	1041.54
394.29	1029.84
394.49	1163.25
394.68	1172.61
394.88	1104.73
395.07	1107.07
395.26	1130.48
395.46	1210.06
395.65	1144.52
395.84	1240.48
396.04	1280.27
396.23	1242.82
396.42	1226.44
396.62	1371.55
396.81	1284.95
397.00	1219.42
397.19	1266.23
397.39	1254.53
397.58	1301.34
397.77	1191.33
397.97	1214.74
398.16	1416.02
398.35	1366.87
398.55	1448.79
398.74	1350.49
398.93	1378.58
399.12	1411.34
399.32	1409.00
399.51	1254.53
399.70	1359.85
399.90	1359.85
400.09	1350.49
400.28	1521.35
400.47	1458.15
400.67	1610.29
400.86	1465.18
401.05	1523.69
401.24	1441.77
401.44	1556.46
401.63	1439.43
401.82	1572.84
402.01	1535.39
402.21	1483.90
402.40	1493.26
402.59	1579.86
402.78	1638.38
402.97	1678.16
403.17	1645.40
403.36	1561.14
403.55	1584.54
403.74	1720.29
403.93	1748.38
404.13	1830.30
404.32	1727.32
404.51	1706.25
404.70	1952.01
404.89	1790.51
405.09	1741.36
405.28	1732.00
405.47	1757.74
405.66	1827.96
405.85	1905.20
406.05	1820.94
406.24	1966.05
406.43	1881.79
406.62	1940.30
406.81	1905.20
407.00	2040.95
407.20	1774.13
407.39	1806.89
407.58	2099.46
407.77	2076.06
407.96	2031.58
408.15	2052.65
408.34	2003.50
408.54	2120.53
408.73	1963.71
408.92	2008.18
409.11	2120.53
409.30	2106.48
409.49	2092.44
409.68	2186.06
409.87	2162.66
410.07	2179.04
410.26	2284.36
410.45	2218.83
410.64	2155.63
410.83	2328.83
411.02	2279.68
411.21	2382.67
411.40	2326.49
411.59	2345.22
411.78	2401.39
411.98	2424.80
412.17	2438.84
412.36	2574.59
412.55	2553.52
412.74	2462.24
412.93	2509.05
413.12	2499.69
413.31	2672.89
413.50	2684.59
413.69	2731.41
413.88	2726.72
414.07	2679.91
414.26	2832.05
414.45	2740.77
414.64	2747.79
414.83	2853.11
415.02	2892.90
415.22	2869.50
415.41	2935.03
415.60	2832.05
415.79	3007.59
415.98	2949.08
416.17	3103.55
416.36	3052.06
416.55	3063.76
416.74	3094.19
416.93	3047.38
417.12	3080.14
417.31	3162.06
417.50	3122.27
417.69	3328.24
417.88	3328.24
418.07	3248.66
418.26	3375.05
418.45	3262.71
418.64	3438.25
418.83	3370.37
419.02	3356.33
419.21	3412.50
419.39	3368.03
419.58	3438.25
419.77	3463.99
419.96	3564.64
420.15	3496.76
420.34	3520.17
420.53	3566.98
420.72	3669.96
420.91	3634.85
421.10	3641.87
421.29	3744.86
421.48	3644.21
421.67	3772.94
421.86	3721.45
422.05	3840.82
422.24	3625.49
422.43	3676.98
422.61	3749.54
422.80	3822.09
422.99	3744.86
423.18	3836.14
423.37	3735.50
423.56	3751.88
423.75	3861.88
423.94	3775.28
424.13	3576.34
424.32	3700.39
424.50	3901.67
424.69	3946.14
424.88	3875.93
425.07	3826.78
425.26	3702.73
425.45	3695.71
425.64	3854.86
425.83	3866.56
426.01	3911.04
426.20	3904.01
426.39	4030.40
426.58	3997.64
426.77	3962.53
426.96	3915.72
427.15	4060.83
427.33	3925.08
427.52	3941.46
427.71	3981.25
427.90	3971.89
428.09	3943.80
428.28	4004.66
428.46	4065.51
428.65	4266.80
428.84	4290.20
429.03	4238.71
429.22	4114.66
429.40	4210.62
429.59	4231.69
429.78	4039.76
429.97	4145.09
430.16	4196.58
430.34	4322.97
430.53	4372.12
430.72	4374.46
430.91	4337.01
431.10	4294.88
431.28	4290.20
431.47	4395.53
431.66	4447.02
431.85	4329.99
432.03	4393.19
432.22	4589.79
432.41	4435.32
432.60	4669.37
432.79	4557.02
432.97	4578.09
433.16	4667.03
433.35	4629.58
433.54	4753.63
433.72	4753.63
433.91	4713.84
434.10	4770.01
434.28	4688.09
434.47	4760.65
434.66	4802.78
434.85	4880.02
435.03	4777.03
435.22	4940.87
435.41	5191.31
435.59	5266.21
435.78	5179.61
435.97	5109.39
436.16	5062.58
436.34	5064.92
436.53	5020.45
436.72	5235.78
436.90	4994.70
437.09	5177.26
437.28	4863.63
437.46	5015.77
437.65	5109.39
437.84	5249.82
438.02	5212.37
438.21	5294.29
438.40	5188.97
438.58	5270.89
438.77	5507.28
438.96	5334.08
439.14	5474.51
439.33	5563.45
439.52	5607.92
439.70	5315.36
439.89	5554.09
440.08	5540.05
440.26	5750.70
440.45	5575.16
440.63	5731.97
440.82	5760.06
441.01	5741.33
441.19	5935.60
441.38	5956.66
441.57	6047.94
441.75	5984.75
441.94	6216.46
442.12	5989.43
442.31	6169.65
442.50	6017.52
442.68	6188.38
442.87	6272.64
443.05	6303.06
443.24	6384.98
443.43	6352.21
443.61	6347.53
443.80	6436.47
443.98	6076.03
444.17	6015.18
444.35	6256.25
444.54	6399.02
444.73	6352.21
444.91	6377.96
445.10	6387.32
445.28	6436.47
445.47	6310.08
445.65	6497.33
445.84	6389.66
446.02	6349.87
446.21	6256.25
446.39	6338.17
446.58	6539.46
446.77	6441.15
446.95	6296.04
447.14	6502.01
447.32	6509.03
447.51	6555.84
447.69	6443.49
447.88	6438.81
448.06	6527.75
448.25	6483.28
448.43	6504.35
448.62	6438.81
448.80	6691.59
448.99	6581.59
449.17	6602.65
449.36	6455.20
449.54	6794.58
449.73	6679.89
449.91	6773.51
450.10	6902.24
450.28	7005.22
450.46	6909.26
450.65	7056.72
450.83	6920.96
451.02	6717.34
451.20	6972.46
451.39	7026.29
451.57	6822.66
451.76	6892.88
451.94	6974.80
452.13	7328.22
452.31	7002.88
452.49	7122.25
452.68	7218.21
452.86	7283.75
453.05	7339.92
453.23	7372.69
453.42	7265.02
453.60	7269.70
453.78	7248.64
453.97	7155.02
454.15	7274.38
454.34	7241.62
454.52	7365.67
454.70	7349.28
454.89	7480.35
455.07	7260.34
455.26	7344.60
455.44	7569.29
455.62	7478.01
455.81	7482.69
455.99	7606.74
456.17	7803.35
456.36	7660.57
456.54	7709.72
456.73	7868.88
456.91	7911.01
457.09	7702.70
457.28	8011.65
457.46	7815.05
457.64	8023.36
457.83	8145.06
458.01	7829.09
458.19	7929.74
458.38	7950.80
458.56	8327.63
458.74	8243.37
458.93	8173.15
459.11	8292.52
459.29	8138.04
459.48	8386.14
459.66	8224.64
459.84	8285.50
460.03	8365.07
460.21	8404.86
460.39	8397.84
460.57	8294.86
460.76	8393.16
460.94	8526.57
461.12	8269.11
461.31	8454.02
461.49	8407.20
461.67	8409.54
461.85	8720.84
462.04	8519.55
462.22	8671.68
462.40	8725.52
462.59	8524.23
462.77	8631.90
462.95	8774.67
463.13	8830.84
463.32	8828.50
463.50	8739.56
463.68	8931.48
463.86	8844.88
464.05	8807.44
464.23	8882.33
464.41	9085.96
464.59	8985.32
464.78	9242.78
464.96	9001.70
465.14	8875.31
465.32	9130.43
465.50	9217.03
465.69	9165.54
465.87	9097.66
466.05	9011.06
466.23	9095.32
466.41	9329.38
466.60	9401.93
466.78	9191.28
466.96	9081.28
467.14	9210.01
467.32	9490.87
467.51	9301.29
467.69	9205.33
467.87	9334.06
468.05	9497.89
468.23	9226.39
468.41	9380.87
468.60	9514.28
468.78	9523.64
468.96	9205.33
469.14	9621.94
469.32	9802.16
469.50	9542.36
469.69	9942.60
469.87	9877.06
470.05	9802.16
470.23	9797.48
470.41	9741.31
470.59	9884.08
470.77	9907.49
470.95	10040.90
471.14	10242.18
471.32	9851.31
471.50	10413.04
471.68	10286.65
471.86	10387.30
472.04	10312.40
472.22	10413.04
472.40	10272.61
472.58	10335.81
472.77	10457.51
472.95	10593.26
473.13	11098.82
473.31	10815.62
473.49	10469.22
473.67	10675.18
473.85	10710.29
474.03	10846.04
474.21	10993.50
474.39	10972.43
474.57	10951.37
474.75	11075.42
474.93	11103.50
475.12	11002.86
475.30	11173.72
475.48	11040.31
475.66	11513.10
475.84	11375.00
476.02	11438.20
476.20	11690.98
476.38	11763.53
476.56	11946.09
476.74	11934.39
476.92	11896.94
477.10	11805.66
477.28	12243.34
477.46	12049.08
477.64	12224.62
477.82	12449.31
478.00	12418.88
478.18	12592.08
478.36	12564.00
478.54	12702.09
478.72	12650.60
478.90	12957.21
479.08	12992.31
479.26	12940.82
479.44	13277.86
479.62	13212.32
479.80	13317.65
479.98	13390.20
480.16	13528.30
480.34	13682.77
480.52	13811.50
480.70	14008.11
480.88	13724.90
481.06	13982.36
481.24	13692.13
481.41	14139.18
481.59	14403.66
481.77	14469.19
481.95	14780.48
482.13	14869.42
482.31	14771.12
482.49	14937.30
482.67	14911.55
482.85	15089.43
483.03	15403.07
483.21	15791.59
483.39	15620.74
483.57	15648.82
483.74	16046.71
483.92	15899.26
484.10	15812.66
484.28	16081.82
484.46	16360.34
484.64	16528.86
484.82	16238.64
485.00	16510.14
485.18	16802.71
485.35	17069.53
485.53	17057.82
485.71	17378.48
485.89	17355.07
486.07	17303.58
486.25	17631.26
486.43	17654.66
486.61	17745.94
486.78	17523.59
486.96	17921.48
487.14	18223.41
487.32	18471.51
487.50	18593.22
487.68	18604.92
487.85	19061.32
488.03	19054.30
488.21	19143.24
488.39	19276.65
488.57	19381.98
488.75	19620.71
488.92	19737.74
489.10	19805.61
489.28	19667.52
489.46	20140.31
489.64	20306.49
489.81	20294.79
489.99	20765.23
490.17	20561.61
490.35	20596.71
490.53	20601.40
490.70	21076.52
490.88	21135.04
491.06	21207.59
491.24	21441.65
491.41	21710.81
491.59	21626.55
491.77	21628.89
491.95	21848.90
492.13	21937.84
492.30	22214.02
492.48	22085.30
492.66	22174.24
492.84	22366.16
493.01	22672.77
493.19	22881.08
493.37	23002.78
493.54	22927.89
493.72	23126.83
493.90	23248.54
494.08	23183.01
494.25	23662.82
494.43	23922.62
494.61	23777.50
494.79	24346.25
494.96	23906.23
495.14	24442.21
495.32	24608.39
495.49	24414.13
495.67	24826.06
495.85	24882.24
496.02	24854.15
496.20	25053.09
496.38	25207.57
496.55	25261.40
496.73	25408.86
496.91	25458.01
497.09	25710.78
497.26	25989.31
497.44	26066.55
497.62	26284.22
497.79	26263.15
497.97	25898.03
498.14	26398.90
498.32	26539.33
498.50	27016.80
498.67	26988.72
498.85	26916.16
499.03	26955.95
499.20	27213.41
499.38	27211.07
499.56	27363.20
499.73	27604.28
499.91	27410.01
500.08	27978.76
500.26	27456.82
500.44	27854.72
500.61	27505.98
500.79	27728.33
500.97	28161.33
501.14	28271.33
501.32	28554.54
501.49	28554.54
501.67	28198.77
501.84	28577.94
502.02	28624.75
502.20	28545.17
502.37	28828.38
502.55	28929.02
502.72	29165.42
502.90	28819.02
503.07	28748.80
503.25	29357.34
503.43	29397.13
503.60	29603.10
503.78	29422.87
503.95	29481.39
504.13	29811.40
504.30	29940.13
504.48	29947.15
504.65	29855.87
504.83	29972.90
505.01	30281.85
505.18	30054.82
505.36	30410.58
505.53	30305.26
505.71	30663.36
505.88	30658.68
506.06	30731.23
506.23	30543.99
506.41	31255.51
506.58	31215.72
506.76	30984.01
506.93	31096.36
507.11	31199.34
507.28	31424.03
507.46	31683.83
507.63	31489.57
507.81	31740.00
507.98	31587.87
508.16	31824.26
508.33	31864.05
508.50	31967.04
508.68	31894.48
508.85	32608.34
509.03	32039.59
509.20	32535.79
509.38	32500.68
509.55	32587.28
509.73	32795.59
509.90	32680.90
510.08	32769.84
510.25	32950.06
510.42	33027.30
510.60	33010.92
510.77	33263.69
510.95	33193.48
511.12	33081.13
511.30	33539.88
511.47	33439.23
511.64	33530.51
511.82	33773.93
511.99	34106.29
512.17	33923.72
512.34	34150.76
512.51	33762.23
512.69	34448.00
512.86	33961.17
513.04	34611.84
513.21	34597.80
513.38	34487.79
513.56	34850.58
513.73	34117.99
513.90	34862.28
514.08	34658.65
514.25	34721.85
514.43	34778.02
514.60	35208.68
514.77	35091.65
514.95	35178.25
515.12	35058.88
515.29	35056.54
515.47	35182.93
515.64	35756.36
515.81	35302.30
515.99	35885.09
516.16	36334.48
516.33	36243.20
516.51	36126.17
516.68	35950.63
516.85	35828.92
517.03	36074.68
517.20	36156.60
517.37	36554.49
517.54	36615.34
517.72	36528.74
517.89	36715.98
518.06	36493.63
518.24	36914.93
518.41	36556.83
518.58	36910.25
518.75	36568.53
518.93	36858.76
519.10	37408.78
519.27	36950.04
519.45	37223.88
519.62	37336.23
519.79	37163.03
519.96	37404.10
520.14	37675.60
520.31	37661.56
520.48	37563.26
520.65	37603.05
520.83	37680.28
521.00	37970.51
521.17	38113.28
521.34	37787.95
521.52	37766.88
521.69	38043.07
521.86	38433.94
522.03	38511.17
522.20	38628.20
522.38	38307.55
522.55	38529.90
522.72	38445.64
522.89	38754.59
523.07	39103.33
523.24	38876.30
523.41	39040.14
523.58	39115.03
523.75	39393.56
523.92	39054.18
524.10	39110.35
524.27	39559.73
524.44	39683.78
524.61	39775.06
524.78	39592.50
524.96	39618.25
525.13	39482.50
525.30	39526.97
525.47	40011.46
525.64	39365.47
525.81	39735.27
525.98	39913.16
526.16	40168.27
526.33	40079.33
526.50	40390.62
526.67	39826.56
526.84	40308.71
527.01	40407.01
527.18	40481.91
527.36	40488.93
527.53	40877.46
527.70	40783.83
527.87	40800.22
528.04	40821.28
528.21	41097.47
528.38	40636.38
528.55	41010.87
528.72	40926.61
528.89	41060.02
529.07	40924.27
529.24	40966.40
529.41	41497.70
529.58	41329.18
529.75	40919.59
529.92	41055.34
530.09	41202.79
530.26	41532.81
530.43	41549.19
530.60	41151.30
530.77	41682.60
530.94	41808.99
531.11	41481.31
531.28	41387.69
531.46	41816.01
531.63	42195.18
531.80	41811.33
531.97	42326.25
532.14	41993.89
532.31	42078.15
532.48	41961.12
532.65	42068.79
532.82	42213.90
532.99	42148.37
533.16	42272.42
533.33	42459.66
533.50	42714.78
533.67	42862.23
533.84	42314.55
534.01	42742.86
534.18	42241.99
534.35	43145.44
534.52	42726.48
534.69	43232.04
534.86	43133.73
535.03	42827.12
535.20	43213.31
535.37	43271.82
535.54	43260.12
535.71	42876.27
535.88	42986.28
536.05	43353.74
536.22	43281.19
536.38	43777.38
536.55	43250.76
536.72	43620.56
536.89	43147.78
537.06	42990.96
537.23	43365.45
537.40	43288.21
537.57	43426.30
537.74	43409.92
537.91	44107.40
538.08	44156.55
538.25	43721.21
538.42	43959.94
538.59	44025.48
538.75	43880.36
538.92	43697.80
539.09	44154.21
539.26	43917.81
539.43	43812.49
539.60	44308.68
539.77	44481.88
539.94	44631.68
540.11	44645.72
540.28	44802.53
540.44	44715.93
540.61	44474.86
540.78	44538.05
540.95	44828.28
541.12	44858.71
541.29	44779.13
541.46	45155.96
541.62	44818.92
541.79	45050.63
541.96	44715.93
542.13	44619.97
542.30	45038.93
542.47	45265.96
542.63	45495.33
542.80	45722.37
542.97	45485.97
543.14	45991.53
543.31	45797.26
543.48	45607.68
543.64	45888.54
543.81	45832.37
543.98	45804.28
544.15	45797.26
544.32	46178.77
544.48	45876.84
544.65	45963.44
544.82	45853.44
544.99	45528.10
545.16	45895.56
545.32	45818.33
545.49	46705.39
545.66	47061.15
545.83	47187.54
546.00	47004.98
546.16	46827.10
546.33	46216.22
546.50	45930.67
546.67	46665.60
546.83	45694.28
547.00	46307.50
547.17	46176.43
547.34	46326.22
547.50	46604.75
547.67	46569.64
547.84	46618.79
548.00	46932.42
548.17	46712.41
548.34	46625.81
548.51	47035.41
548.67	46642.20
548.84	46588.36
549.01	46883.27
549.18	46742.84
549.34	46656.24
549.51	46759.22
549.68	47192.22
549.84	46609.43
550.01	47323.29
550.18	46705.39
550.34	47304.57
550.51	47026.04
550.68	47360.74
550.84	46773.27
551.01	47002.64
551.18	46794.33
551.34	46721.77
551.51	46934.76
551.68	47222.65
551.84	47241.37
552.01	47370.10
552.18	47346.70
552.34	47215.63
552.51	47697.78
552.68	47112.64
552.84	47178.18
553.01	47569.05
553.18	47459.04
553.34	47327.97
553.51	47739.91
553.67	47594.79
553.84	47995.03
554.01	47632.24
554.17	47845.23
554.34	47571.39
554.51	47426.28
554.67	47861.61
554.84	47746.93
555.00	47819.49
555.17	47927.15
555.33	47709.48
555.50	47821.83
555.67	47611.18
555.83	47398.19
556.00	47239.03
556.16	48062.90
556.33	47681.39
556.50	47880.34
556.66	48381.21
556.83	47662.67
556.99	48428.02
557.16	47653.31
557.32	48039.50
557.49	48112.05
557.65	47580.75
557.82	47489.47
557.98	47770.33
558.15	48168.22
558.32	47971.62
558.48	47873.32
558.65	48395.26
558.81	48341.42
558.98	48142.48
559.14	48020.77
559.31	48423.34
559.47	48376.53
559.64	48406.96
559.80	48114.39
559.97	48643.35
560.13	48186.95
560.30	48488.88
560.46	48587.18
560.63	48727.61
560.79	48413.98
560.96	48123.75
561.12	48821.23
561.29	48083.97
561.45	48313.34
561.61	48708.89
561.78	48624.63
561.94	48563.78
562.11	48645.69
562.27	48512.28
562.44	48570.80
562.60	48538.03
562.77	48605.91
562.93	48498.24
563.10	48744.00
563.26	48608.25
563.42	49294.02
563.59	48837.62
563.75	48741.66
563.92	48774.42
564.08	48762.72
564.24	48531.01
564.41	48519.31
564.57	48996.77
564.74	48549.73
564.90	48739.32
565.07	48687.82
565.23	48872.73
565.39	48617.61
565.56	48996.77
565.72	48659.74
565.88	48760.38
566.05	48755.70
566.21	48851.66
566.38	48968.69
566.54	48804.85
566.70	49169.97
566.87	49172.31
567.03	48879.75
567.19	49198.06
567.36	48793.15
567.52	48844.64
567.68	48886.77
567.85	48889.11
568.01	48907.83
568.17	48849.32
568.34	48942.94
568.50	48676.12
568.66	48966.35
568.83	49045.93
568.99	48760.38
569.15	48814.21
569.32	48729.95
569.48	48472.49
569.64	48919.54
569.81	49081.03
569.97	48479.52
570.13	49092.74
570.30	49254.23
570.46	49174.66
570.62	48760.38
570.78	49095.08
570.95	49099.76
571.11	49162.95
571.27	48952.30
571.43	49162.95
571.60	49265.94
571.76	49088.06
571.92	49074.01
572.09	49263.60
572.25	48956.99
572.41	48863.36
572.57	48996.77
572.74	49254.23
572.90	49198.06
573.06	48882.09
573.22	49008.48
573.38	49202.74
573.55	49291.68
573.71	49425.09
573.87	49279.98
574.03	48992.09
574.20	49605.31
574.36	49205.08
574.52	49188.70
574.68	49216.78
574.84	49251.89
575.01	49406.37
575.17	48952.30
575.33	48772.08
575.49	48968.69
575.65	49303.38
575.82	49338.49
575.98	49251.89
576.14	49109.12
576.30	49382.96
576.46	49085.72
576.62	49371.26
576.79	49441.48
576.95	48566.12
577.11	48849.32
577.27	49530.42
577.43	49254.23
577.59	49027.20
577.75	49041.24
577.92	49090.40
578.08	49467.22
578.24	49076.35
578.40	49251.89
578.56	49364.24
578.72	49476.58
578.88	49661.49
579.04	49631.06
579.21	49317.43
579.37	49574.89
579.53	49558.50
579.69	49460.20
579.85	49340.83
580.01	49134.87
580.17	49034.22
580.33	49380.62
580.49	48949.96
580.65	49467.22
580.82	49574.89
580.98	49102.10
581.14	49825.32
581.30	49443.82
581.46	49467.22
581.62	48954.64
581.78	48914.86
581.94	49111.46
582.10	49153.59
582.26	49212.10
582.42	49441.48
582.58	49633.40
582.74	49106.78
582.90	48844.64
583.06	49411.05
583.22	49151.25
583.38	49418.07
583.54	48917.20
583.70	49202.74
583.86	49268.28
584.02	49013.16
584.18	49397.01
584.34	49366.58
584.50	49734.04
584.66	49329.13
584.82	49317.43
584.98	49675.53
585.14	49338.49
585.30	48987.41
585.46	49120.82
585.62	49146.57
585.78	49478.92
585.94	49319.77
586.10	49525.74
586.26	49324.45
586.42	49532.76
586.58	49631.06
586.74	49436.80
586.90	49118.48
587.06	48992.09
587.22	49507.01
587.38	48942.94
587.54	49331.47
587.70	49319.77
587.86	49425.09
588.02	49460.20
588.18	49858.09
588.34	49635.74
588.49	49375.94
588.65	49361.90
588.81	49315.09
588.97	49282.32
589.13	49167.63
589.29	49240.19
589.45	49593.61
589.61	49560.84
589.77	49860.43
589.93	49680.21
590.08	49668.51
590.24	49668.51
