SpectraSuite Data File
++++++++++++++++++++++++++++++++++++
Date: Tue Oct 01 18:27:28 GMT-05:00 2013
User: stostad
Dark Spectrum Present: No
Reference Spectrum Present: No
Number of Sampled Component Spectra: 1
Spectrometers: USB2+H05261
Integration Time (usec): 100000 (USB2+H05261)
Spectra Averaged: 1 (USB2+H05261)
Boxcar Smoothing: 0 (USB2+H05261)
Correct for Electrical Dark: No (USB2+H05261)
Strobe/Lamp Enabled: No (USB2+H05261)
Correct for Detector Non-linearity: No (USB2+H05261)
Correct for Stray Light: No (USB2+H05261)
Number of Pixels in Processed Spectrum: 2048
>>>>>Begin Processed Spectral Data<<<<<
365.73	16.38
365.92	16.38
366.12	16.38
366.32	0.00
366.52	46.81
366.72	0.00
366.91	4.68
367.11	0.00
367.31	0.00
367.51	0.00
367.70	0.00
367.90	32.77
368.10	0.00
368.30	0.00
368.49	0.00
368.69	0.00
368.89	2.34
369.09	2.34
369.28	18.72
369.48	18.72
369.68	11.70
369.87	0.00
370.07	0.00
370.27	58.51
370.47	100.64
370.66	271.50
370.86	280.86
371.06	297.25
371.25	390.87
371.45	292.57
371.65	339.38
371.84	325.33
372.04	320.65
372.24	418.96
372.44	287.89
372.63	369.80
372.83	386.19
373.03	374.49
373.22	402.57
373.42	400.23
373.62	407.25
373.81	428.32
374.01	447.04
374.21	390.87
374.40	421.30
374.60	472.79
374.79	454.06
374.99	397.89
375.19	440.02
375.38	472.79
375.58	433.00
375.78	510.24
375.97	456.40
376.17	578.11
376.37	451.72
376.56	528.96
376.76	456.40
376.95	379.17
377.15	465.77
377.35	461.09
377.54	482.15
377.74	477.47
377.93	470.45
378.13	550.03
378.33	496.19
378.52	507.90
378.72	559.39
378.91	552.37
379.11	517.26
379.31	482.15
379.50	470.45
379.70	479.81
379.89	554.71
380.09	550.03
380.28	514.92
380.48	603.86
380.68	561.73
380.87	470.45
381.07	507.90
381.26	482.15
381.46	514.92
381.65	486.83
381.85	550.03
382.04	468.11
382.24	568.75
382.43	550.03
382.63	634.29
382.83	552.37
383.02	606.20
383.22	552.37
383.41	603.86
383.61	627.26
383.80	624.92
384.00	624.92
384.19	587.47
384.39	608.54
384.58	524.28
384.78	601.52
384.97	636.63
385.17	557.05
385.36	566.41
385.56	587.47
385.75	594.50
385.95	507.90
386.14	681.10
386.34	599.18
386.53	723.23
386.72	550.03
386.92	681.10
387.11	660.03
387.31	564.07
387.50	653.01
387.70	657.69
387.89	685.78
388.09	596.84
388.28	748.97
388.48	709.18
388.67	660.03
388.86	702.16
389.06	671.73
389.25	732.59
389.45	741.95
389.64	690.46
389.84	805.14
390.03	720.88
390.22	763.01
390.42	702.16
390.61	788.76
390.81	657.69
391.00	767.70
391.19	784.08
391.39	793.44
391.58	713.86
391.78	772.38
391.97	889.40
392.16	751.31
392.36	830.89
392.55	760.67
392.75	732.59
392.94	819.19
393.13	856.64
393.33	830.89
393.52	807.48
393.71	926.85
393.91	844.93
394.10	816.85
394.29	856.64
394.49	858.98
394.68	891.74
394.88	936.21
395.07	931.53
395.26	866.00
395.46	903.45
395.65	957.28
395.84	931.53
396.04	1041.54
396.23	1006.43
396.42	880.04
396.62	1011.11
396.81	1055.58
397.00	976.00
397.19	950.26
397.39	964.30
397.58	1034.52
397.77	1022.81
397.97	1064.94
398.16	1128.14
398.35	1020.47
398.55	1139.84
398.74	1071.97
398.93	1142.18
399.12	1125.80
399.32	1125.80
399.51	1135.16
399.70	1198.35
399.90	1107.07
400.09	1207.72
400.28	1181.97
400.47	1160.91
400.67	1186.65
400.86	1210.06
401.05	1219.42
401.24	1233.46
401.44	1252.19
401.63	1242.82
401.82	1254.53
402.01	1179.63
402.21	1266.23
402.40	1273.25
402.59	1254.53
402.78	1291.98
402.97	1322.40
403.17	1254.53
403.36	1376.24
403.55	1451.13
403.74	1394.96
403.93	1460.49
404.13	1331.76
404.32	1446.45
404.51	1359.85
404.70	1467.52
404.89	1406.66
405.09	1540.07
405.28	1472.20
405.47	1474.54
405.66	1619.65
405.85	1570.50
406.05	1591.56
406.24	1521.35
406.43	1551.78
406.62	1600.93
406.81	1694.55
407.00	1659.44
407.20	1631.35
407.39	1657.10
407.58	1753.06
407.77	1799.87
407.96	1767.10
408.15	1818.60
408.34	1870.09
408.54	1809.23
408.73	1923.92
408.92	1837.32
409.11	1921.58
409.30	1837.32
409.49	1849.02
409.68	1844.34
409.87	1863.07
410.07	1987.11
410.26	1977.75
410.45	1900.52
410.64	1973.07
410.83	2010.52
411.02	2043.29
411.21	2172.02
411.40	2108.82
411.59	2111.16
411.78	2174.36
411.98	2101.80
412.17	2134.57
412.36	2169.68
412.55	2228.19
412.74	2340.54
412.93	2366.28
413.12	2307.77
413.31	2452.88
413.50	2321.81
413.69	2373.30
413.88	2370.96
414.07	2466.92
414.26	2450.54
414.45	2415.43
414.64	2579.27
414.83	2530.12
415.02	2450.54
415.22	2583.95
415.41	2745.45
415.60	2633.10
415.79	2724.38
415.98	2654.17
416.17	2722.04
416.36	2731.41
416.55	2825.03
416.74	2747.79
416.93	2787.58
417.12	2965.46
417.31	2843.75
417.50	2895.24
417.69	2974.82
417.88	2843.75
418.07	2869.50
418.26	3047.38
418.45	3016.95
418.64	3038.02
418.83	3012.27
419.02	3040.36
419.21	3084.83
419.39	3094.19
419.58	3082.49
419.77	3080.14
419.96	3194.83
420.15	3290.79
420.34	3063.76
420.53	3269.73
420.72	3335.26
420.91	3225.26
421.10	3286.11
421.29	3353.99
421.48	3304.84
421.67	3346.97
421.86	3337.60
422.05	3405.48
422.24	3454.63
422.43	3435.91
422.61	3300.16
422.80	3438.25
422.99	3475.70
423.18	3325.90
423.37	3431.23
423.56	3524.85
423.75	3433.57
423.94	3393.78
424.13	3194.83
424.32	3246.32
424.50	3557.61
424.69	3508.46
424.88	3417.18
425.07	3478.04
425.26	3494.42
425.45	3445.27
425.64	3449.95
425.83	3417.18
426.01	3597.40
426.20	3499.10
426.39	3618.47
426.58	3557.61
426.77	3536.55
426.96	3496.76
427.15	3522.51
427.33	3702.73
427.52	3583.36
427.71	3634.85
427.90	3794.01
428.09	3669.96
428.28	3644.21
428.46	3721.45
428.65	3737.84
428.84	3971.89
429.03	3981.25
429.22	3737.84
429.40	3829.12
429.59	3808.05
429.78	3728.47
429.97	3707.41
430.16	3843.16
430.34	3908.69
430.53	3957.85
430.72	4004.66
430.91	3943.80
431.10	3861.88
431.28	3985.93
431.47	4035.08
431.66	4135.73
431.85	3925.08
432.03	4121.68
432.22	4292.54
432.41	4109.98
432.60	4187.22
432.79	4145.09
432.97	4180.20
433.16	4166.15
433.35	4219.99
433.54	4337.01
433.72	4236.37
433.91	4269.14
434.10	4337.01
434.28	4245.73
434.47	4372.12
434.66	4367.44
434.85	4475.10
435.03	4435.32
435.22	4432.97
435.41	4451.70
435.59	4393.19
435.78	4397.87
435.97	4699.80
436.16	4442.34
436.34	4475.10
436.53	4660.01
436.72	4802.78
436.90	4613.20
437.09	4765.33
437.28	4587.45
437.46	4592.13
437.65	4690.43
437.84	4755.97
438.02	4685.75
438.21	4786.40
438.40	4671.71
438.58	4901.08
438.77	5090.67
438.96	4835.55
439.14	4933.85
439.33	5006.41
439.52	5121.09
439.70	4994.70
439.89	5132.79
440.08	5240.46
440.26	5167.90
440.45	5163.22
440.63	5240.46
440.82	5378.55
441.01	5266.21
441.19	5439.40
441.38	5497.92
441.57	5605.58
441.75	5359.83
441.94	5547.07
442.12	5355.15
442.31	5626.65
442.50	5624.31
442.68	5526.00
442.87	5647.71
443.05	5526.00
443.24	5954.32
443.43	5743.67
443.61	5717.93
443.80	5870.06
443.98	5813.89
444.17	5586.86
444.35	5776.44
444.54	5872.40
444.73	5851.34
444.91	5872.40
445.10	5891.13
445.28	5717.93
445.47	5771.76
445.65	5834.96
445.84	5865.38
446.02	5905.17
446.21	5863.04
446.39	5860.70
446.58	5912.19
446.77	6073.69
446.95	5802.19
447.14	5998.79
447.32	5928.58
447.51	6129.86
447.69	6155.61
447.88	5886.45
448.06	5959.00
448.25	5860.70
448.43	5954.32
448.62	6085.39
448.80	6209.44
448.99	6155.61
449.17	6150.93
449.36	6099.44
449.54	6279.66
449.73	6368.60
449.91	6368.60
450.10	6356.90
450.28	6356.90
450.46	6420.09
450.65	6389.66
450.83	6384.98
451.02	6406.05
451.20	6480.94
451.39	6506.69
451.57	6604.99
451.76	6541.80
451.94	6476.26
452.13	6668.19
452.31	6581.59
452.49	6427.11
452.68	6679.89
452.86	6604.99
453.05	6686.91
453.23	6612.01
453.42	6516.05
453.60	6569.88
453.78	6801.60
453.97	6665.85
454.15	6743.08
454.34	6677.55
454.52	6703.29
454.70	6846.07
454.89	6888.20
455.07	6927.99
455.26	6949.05
455.44	7101.19
455.62	6885.86
455.81	7002.88
455.99	7023.95
456.17	7077.78
456.36	7103.53
456.54	7190.13
456.73	7218.21
456.91	7365.67
457.09	7337.58
457.28	7618.44
457.46	7180.76
457.64	7524.82
457.83	7356.30
458.01	7328.22
458.19	7578.65
458.38	7585.68
458.56	7630.15
458.74	7648.87
458.93	7613.76
459.11	7651.21
459.29	7475.67
459.48	7744.83
459.66	7812.71
459.84	7581.00
460.03	7829.09
460.21	7740.15
460.39	7786.96
460.57	7637.17
460.76	7985.91
460.94	7861.86
461.12	8042.08
461.31	7903.99
461.49	7969.52
461.67	7894.63
461.85	8072.51
462.04	7889.95
462.22	8643.60
462.40	8215.28
462.59	8248.05
462.77	8205.92
462.95	8285.50
463.13	8294.86
463.32	8271.45
463.50	8231.66
463.68	8168.47
463.86	8379.12
464.05	8163.79
464.23	8339.33
464.41	8493.80
464.59	8226.98
464.78	8505.51
464.96	8322.94
465.14	8243.37
465.32	8393.16
465.50	8390.82
465.69	8496.14
465.87	8131.02
466.05	8617.85
466.23	8477.42
466.41	8549.98
466.60	8652.96
466.78	8549.98
466.96	8571.04
467.14	8610.83
467.32	8851.91
467.51	8844.88
467.69	8477.42
467.87	8840.20
468.05	8861.27
468.23	8793.39
468.41	8765.31
468.60	8940.85
468.78	8915.10
468.96	9008.72
469.14	9142.13
469.32	9011.06
469.50	8762.97
469.69	9137.45
469.87	9085.96
470.05	9240.44
470.23	9205.33
470.41	9315.33
470.59	9341.08
470.77	9261.50
470.95	9479.17
471.14	9514.28
471.32	9270.86
471.50	9650.03
471.68	9633.64
471.86	9533.00
472.04	9521.30
472.22	9942.60
472.40	9556.41
472.58	9689.82
472.77	9799.82
472.95	9919.19
473.13	10260.91
473.31	10038.56
473.49	9834.93
473.67	10036.22
473.85	9942.60
474.03	10003.45
474.21	10434.11
474.39	10300.70
474.57	10368.57
474.75	10733.70
474.93	10637.73
475.12	10476.24
475.30	10670.50
475.48	10597.95
475.66	10803.91
475.84	10382.62
476.02	10843.70
476.20	10736.04
476.38	10913.92
476.56	11157.33
476.74	11309.47
476.92	11372.66
477.10	11480.33
477.28	11393.73
477.46	11194.78
477.64	11555.22
477.82	11503.73
478.00	11962.48
478.18	11971.84
478.36	11749.49
478.54	12262.07
478.72	11983.54
478.90	12402.50
479.08	12311.22
479.26	12475.06
479.44	12423.56
479.62	12549.95
479.80	12568.68
479.98	12648.26
480.16	12865.92
480.34	13116.36
480.52	13085.94
480.70	13092.96
480.88	12760.60
481.06	13165.51
481.24	13074.23
481.41	13593.83
481.59	13572.77
481.77	13830.23
481.95	13720.22
482.13	13855.97
482.31	13996.40
482.49	14064.28
482.67	14183.65
482.85	14338.12
483.03	14665.80
483.21	14654.09
483.39	14693.88
483.57	14780.48
483.74	14803.89
483.92	14768.78
484.10	15140.93
484.28	15583.29
484.46	15641.80
484.64	15662.86
484.82	15501.37
485.00	15728.40
485.18	16180.12
485.35	16299.49
485.53	16161.40
485.71	16095.86
485.89	16374.39
486.07	16311.19
486.25	16613.12
486.43	16606.10
486.61	16791.00
486.78	16788.66
486.96	17109.32
487.14	17282.52
487.32	17577.42
487.50	17678.07
487.68	17792.75
487.85	17809.14
488.03	17898.08
488.21	18443.42
488.39	18195.32
488.57	18333.42
488.75	18513.64
488.92	18558.11
489.10	18948.98
489.28	18724.29
489.46	19239.20
489.64	18890.46
489.81	19424.11
489.99	19534.11
490.17	19646.46
490.35	19960.09
490.53	19913.28
490.70	20006.90
490.88	19936.68
491.06	20215.21
491.24	20231.59
491.41	20505.43
491.59	20704.38
491.77	20503.09
491.95	20912.69
492.13	21270.79
492.30	20945.45
492.48	21373.77
492.66	21125.68
492.84	21404.20
493.01	21968.27
493.19	21500.16
493.37	22104.02
493.54	21926.14
493.72	21979.97
493.90	22176.58
494.08	22478.50
494.25	22525.32
494.43	22759.37
494.61	22759.37
494.79	22731.28
494.96	22862.35
495.14	23063.64
495.32	23435.78
495.49	23112.79
495.67	23491.96
495.85	23463.87
496.02	23885.17
496.20	24074.75
496.38	24119.22
496.55	24273.70
496.73	24477.32
496.91	24341.57
497.09	24790.95
497.26	24706.70
497.44	24702.01
497.62	25074.16
497.79	25205.23
497.97	25181.82
498.14	25420.56
498.32	25755.26
498.50	25596.10
498.67	25975.27
498.85	25364.39
499.03	26008.03
499.20	26267.83
499.38	26033.78
499.56	26363.79
499.73	26148.46
499.91	26422.31
500.08	26464.44
500.26	26232.72
500.44	26773.39
500.61	26923.18
500.79	26834.24
500.97	27119.79
501.14	27566.83
501.32	27197.02
501.49	27487.25
501.67	27475.55
501.84	27597.26
502.02	27594.92
502.20	27866.42
502.37	28018.55
502.55	27672.15
502.72	27931.95
502.90	28294.74
503.07	28271.33
503.25	28292.40
503.43	28477.30
503.60	28364.95
503.78	28582.62
503.95	28587.30
504.13	28940.72
504.30	29188.82
504.48	28762.84
504.65	29322.23
504.83	29626.50
505.01	29277.76
505.18	29186.48
505.36	29500.11
505.53	29495.43
505.71	29558.63
505.88	29713.10
506.06	29546.92
506.23	29907.37
506.41	29855.87
506.58	30061.84
506.76	30223.34
506.93	30185.89
507.11	30328.66
507.28	30417.60
507.46	30501.86
507.63	30684.42
507.81	30588.46
507.98	30698.47
508.16	30506.54
508.33	30878.69
508.50	31262.54
508.68	31084.65
508.85	31367.86
509.03	30974.65
509.20	31550.42
509.38	31482.55
509.55	31630.00
509.73	31503.61
509.90	32371.95
510.08	32182.37
510.25	32175.34
510.42	31653.40
510.60	32156.62
510.77	32245.56
510.95	32444.51
511.12	32215.13
511.30	32442.17
511.47	32921.98
511.64	32402.38
511.82	33090.49
511.99	32741.75
512.17	33127.94
512.34	33266.03
512.51	33141.99
512.69	33228.59
512.86	33305.82
513.04	33961.17
513.21	33518.81
513.38	33745.84
513.56	33425.19
513.73	33425.19
513.90	33565.62
514.08	33956.49
514.25	34066.50
514.43	34314.59
514.60	34176.50
514.77	34143.74
514.95	34342.68
515.12	34670.36
515.29	34352.04
515.47	34747.59
515.64	34993.35
515.81	35122.08
515.99	34738.23
516.16	35124.42
516.33	35192.30
516.51	35735.30
516.68	35332.73
516.85	35194.64
517.03	35672.10
517.20	36074.68
517.37	35536.35
517.54	35646.36
517.72	35646.36
517.89	35637.00
518.06	35772.75
518.24	35765.73
518.41	35857.01
518.58	35646.36
518.75	35995.10
518.93	35922.54
519.10	36165.96
519.27	36182.34
519.45	36573.21
519.62	36465.55
519.79	37092.81
519.96	36479.59
520.14	36924.29
520.31	36278.30
520.48	36711.30
520.65	37120.90
520.83	36935.99
521.00	37380.70
521.17	37141.96
521.34	37399.42
521.52	37303.46
521.69	37195.79
521.86	37628.79
522.03	37628.79
522.20	37490.70
522.38	37998.60
522.55	37764.54
522.72	37357.29
522.89	38153.07
523.07	38178.82
523.24	37563.26
523.41	38272.44
523.58	38007.96
523.75	38291.16
523.92	38361.38
524.10	38588.41
524.27	38719.48
524.44	38778.00
524.61	38995.67
524.78	38857.57
524.96	38569.69
525.13	38857.57
525.30	39222.70
525.47	39461.43
525.64	39503.56
525.81	39260.15
525.98	39295.25
526.16	39271.85
526.33	38848.21
526.50	39431.01
526.67	39124.40
526.84	39758.68
527.01	39749.32
527.18	39934.22
527.36	40081.67
527.53	39866.34
527.70	39999.76
527.87	39896.77
528.04	40013.80
528.21	40250.19
528.38	39966.99
528.55	40421.05
528.72	40575.53
528.89	40524.04
529.07	40456.16
529.24	40055.93
529.41	40498.29
529.58	40547.44
529.75	40882.14
529.92	40751.07
530.09	40872.78
530.26	41240.24
530.43	40989.80
530.60	40011.46
530.77	40900.86
530.94	41317.48
531.11	40746.39
531.28	41457.91
531.46	41460.25
531.63	41619.41
531.80	41420.46
531.97	41422.80
532.14	41642.81
532.31	41392.37
532.48	41860.48
532.65	42124.96
532.82	41546.85
532.99	42017.30
533.16	41914.31
533.33	41668.56
533.50	42026.66
533.67	42054.75
533.84	41848.78
534.01	42305.18
534.18	42389.44
534.35	42614.13
534.52	42241.99
534.69	42700.73
534.86	42848.19
535.03	42085.17
535.20	42183.48
535.37	42389.44
535.54	42768.61
535.71	42635.20
535.88	42728.82
536.05	42660.94
536.22	42923.08
536.38	42773.29
536.55	43042.45
536.72	42738.18
536.89	42738.18
537.06	43056.50
537.23	43257.78
537.40	43615.88
537.57	43445.02
537.74	43063.52
537.91	43555.03
538.08	43391.19
538.25	42916.06
538.42	43442.68
538.59	43938.88
538.75	43440.34
538.92	44051.22
539.09	43636.95
539.26	43847.60
539.43	43997.39
539.60	43929.51
539.77	43779.72
539.94	43753.97
540.11	44196.34
540.28	44369.54
540.44	43835.89
540.61	44421.03
540.78	44076.97
540.95	44645.72
541.12	44512.31
541.29	44275.91
541.46	44360.17
541.62	44083.99
541.79	44371.88
541.96	44112.08
542.13	44376.56
542.30	44994.46
542.47	44416.35
542.63	44811.90
542.80	44652.74
542.97	45130.21
543.14	45198.09
543.31	45289.37
543.48	45261.28
543.64	45291.71
543.81	45558.53
543.98	45624.06
544.15	45457.88
544.32	45537.46
544.48	45418.10
544.65	45558.53
544.82	45544.48
544.99	45588.95
545.16	45539.80
545.32	45694.28
545.49	46066.42
545.66	46241.96
545.83	45457.88
546.00	46129.62
546.16	45984.51
546.33	45766.84
546.50	45645.13
546.67	46052.38
546.83	45361.92
547.00	45914.29
547.17	45876.84
547.34	46010.25
547.50	46033.66
547.67	46286.43
547.84	46054.72
548.00	46579.00
548.17	46707.73
548.34	46773.27
548.51	46604.75
548.67	46408.14
548.84	46747.52
549.01	46305.16
549.18	46440.91
549.34	46625.81
549.51	46817.74
549.68	46925.40
549.84	46717.09
550.01	47079.88
550.18	46827.10
550.34	46696.03
550.51	46632.83
550.68	46885.61
550.84	46518.15
551.01	46925.40
551.18	46953.49
551.34	46897.31
551.51	47346.70
551.68	47164.14
551.84	47648.63
552.01	46869.23
552.18	47157.11
552.34	46850.50
552.51	47224.99
552.68	47353.72
552.84	47770.33
553.01	47449.68
553.18	47604.16
553.34	47311.59
553.51	47051.79
553.67	47093.92
553.84	47618.20
554.01	47681.39
554.17	47749.27
554.34	47646.29
554.51	47721.18
554.67	48161.20
554.84	47665.01
555.00	47892.04
555.17	48114.39
555.33	47393.51
555.50	47365.42
555.67	47445.00
555.83	47770.33
556.00	47508.19
556.16	48229.08
556.33	48128.44
556.50	48231.42
556.66	48287.59
556.83	48135.46
556.99	48465.47
557.16	47973.96
557.32	48158.86
557.49	48390.58
557.65	48364.83
557.82	48320.36
557.98	48385.89
558.15	48624.63
558.32	48926.56
558.48	48311.00
558.65	48303.98
558.81	48474.84
558.98	48329.72
559.14	48477.18
559.31	48561.44
559.47	48631.65
559.64	48732.29
559.80	48348.45
559.97	48781.45
560.13	48533.35
560.30	48495.90
560.46	48722.93
560.63	48828.26
560.79	48907.83
560.96	49008.48
561.12	48900.81
561.29	48952.30
561.45	48832.94
561.61	48559.09
561.78	48641.01
561.94	48746.34
562.11	48575.48
562.27	48666.76
562.44	48971.03
562.60	48596.54
562.77	48931.24
562.93	48828.26
563.10	49212.10
563.26	48875.07
563.42	49617.02
563.59	48645.69
563.75	49263.60
563.92	48985.07
564.08	48921.88
564.24	48889.11
564.41	49420.41
564.57	49237.85
564.74	49261.26
564.90	49258.91
565.07	49088.06
565.23	49471.90
565.39	48968.69
565.56	49324.45
565.72	48940.60
565.88	49340.83
566.05	49172.31
566.21	48910.17
566.38	49364.24
566.54	49406.37
566.70	49223.81
566.87	49378.28
567.03	49272.96
567.19	49146.57
567.36	49453.18
567.52	49055.29
567.68	49624.04
567.85	49499.99
568.01	49822.98
568.17	49521.05
568.34	49478.92
568.50	49469.56
568.66	49333.81
568.83	49401.69
568.99	49001.46
569.15	49432.11
569.32	49762.13
569.48	49095.08
569.64	49769.15
569.81	49792.56
569.97	49198.06
570.13	49570.21
570.30	49687.23
570.46	49401.69
570.62	49504.67
570.78	49469.56
570.95	49490.63
571.11	49727.02
571.27	49588.93
571.43	50150.66
571.60	49893.20
571.76	49556.16
571.92	49305.73
572.09	49649.78
572.25	49848.73
572.41	49724.68
572.57	49691.91
572.74	50035.97
572.90	49776.17
573.06	49684.89
573.22	50223.22
573.38	49897.88
573.55	49619.36
573.71	49572.55
573.87	49794.90
574.03	49687.23
574.20	49787.88
574.36	49963.42
574.52	49914.26
574.68	49610.00
574.84	49996.18
575.01	50181.09
575.17	50234.92
575.33	50082.78
575.49	49935.33
575.65	49895.54
575.82	49778.51
575.98	49932.99
576.14	50253.64
576.30	49951.71
576.46	50288.75
576.62	50174.06
576.79	49897.88
576.95	49801.92
577.11	49872.14
577.27	49647.44
577.43	50206.83
577.59	49858.09
577.75	49928.31
577.92	49748.09
578.08	50000.86
578.24	50059.38
578.40	50431.52
578.56	49998.52
578.72	50223.22
578.88	50281.73
579.04	50160.02
579.21	49815.96
579.37	50237.26
579.53	49825.32
579.69	50216.19
579.85	50237.26
580.01	50124.91
580.17	50246.62
580.33	50468.97
580.49	50223.22
580.65	49904.90
580.82	50061.72
580.98	49668.51
581.14	49579.57
581.30	50190.45
581.46	49977.46
581.62	50078.10
581.78	49764.47
581.94	50328.54
582.10	49956.39
582.26	50174.06
582.42	49907.24
582.58	49970.44
582.74	50223.22
582.90	49879.16
583.06	50120.23
583.22	50286.41
583.38	49963.42
583.54	50375.35
583.70	50316.84
583.86	50202.15
584.02	50270.03
584.18	50330.88
584.34	50314.50
584.50	50150.66
584.66	50253.64
584.82	49846.39
584.98	50134.28
585.14	50323.86
585.30	50134.28
585.46	50246.62
585.62	50108.53
585.78	50218.53
585.94	50045.33
586.10	50042.99
586.26	49935.33
586.42	50134.28
586.58	50356.63
586.74	49525.74
586.90	49975.12
587.06	50344.92
587.22	50745.15
587.38	50300.45
587.54	50590.68
587.70	50426.84
587.86	50382.37
588.02	50679.62
588.18	50398.76
588.34	50220.87
588.49	50438.54
588.65	50255.98
588.81	50064.06
588.97	50824.73
589.13	50773.24
589.29	50759.20
589.45	51009.64
589.61	50337.90
589.77	50735.79
589.93	50541.53
590.08	50335.56
590.24	50658.56
590.40	51042.40
590.56	50721.75
