SpectraSuite Data File
++++++++++++++++++++++++++++++++++++
Date: Fri Oct 04 11:39:13 GMT-05:00 2013
User: price-jones
Dark Spectrum Present: No
Reference Spectrum Present: No
Number of Sampled Component Spectra: 1
Spectrometers: USB2+H05261
Integration Time (usec): 100000 (USB2+H05261)
Spectra Averaged: 1 (USB2+H05261)
Boxcar Smoothing: 0 (USB2+H05261)
Correct for Electrical Dark: No (USB2+H05261)
Strobe/Lamp Enabled: No (USB2+H05261)
Correct for Detector Non-linearity: No (USB2+H05261)
Correct for Stray Light: No (USB2+H05261)
Number of Pixels in Processed Spectrum: 2048
>>>>>Begin Processed Spectral Data<<<<<
365.73	51.49
365.92	51.49
366.12	51.49
366.32	0.00
366.52	0.00
366.72	0.00
366.91	0.00
367.11	0.00
367.31	0.00
367.51	0.00
367.70	0.00
367.90	0.00
368.10	0.00
368.30	0.00
368.49	0.00
368.69	0.00
368.89	0.00
369.09	0.00
369.28	0.00
369.48	0.00
369.68	21.06
369.87	0.00
370.07	0.00
370.27	56.17
370.47	60.85
370.66	124.05
370.86	119.37
371.06	264.48
371.25	194.26
371.45	140.43
371.65	257.46
371.84	170.86
372.04	145.11
372.24	184.90
372.44	180.22
372.63	159.16
372.83	245.76
373.03	250.44
373.22	180.22
373.42	248.10
373.62	187.24
373.81	241.08
374.01	301.93
374.21	243.42
374.40	159.16
374.60	311.29
374.79	313.63
374.99	308.95
375.19	231.71
375.38	346.40
375.58	276.18
375.78	248.10
375.97	238.73
376.17	334.70
376.37	243.42
376.56	393.21
376.76	287.89
376.95	194.26
377.15	285.55
377.35	245.76
377.54	208.31
377.74	198.95
377.93	255.12
378.13	278.52
378.33	290.23
378.52	273.84
378.72	255.12
378.91	259.80
379.11	241.08
379.31	306.61
379.50	241.08
379.70	297.25
379.89	266.82
380.09	262.14
380.28	264.48
380.48	278.52
380.68	278.52
380.87	255.12
381.07	299.59
381.26	327.68
381.46	404.91
381.65	332.36
381.85	278.52
382.04	266.82
382.24	376.83
382.43	280.86
382.63	290.23
382.83	271.50
383.02	411.93
383.22	327.68
383.41	290.23
383.61	252.78
383.80	379.17
384.00	409.59
384.19	400.23
384.39	409.59
384.58	315.97
384.78	320.65
384.97	362.78
385.17	362.78
385.36	299.59
385.56	278.52
385.75	353.42
385.95	301.93
386.14	386.19
386.34	304.27
386.53	351.08
386.72	283.20
386.92	351.08
387.11	383.85
387.31	365.12
387.50	393.21
387.70	358.10
387.89	283.20
388.09	362.78
388.28	388.53
388.48	332.36
388.67	348.74
388.86	395.55
389.06	339.38
389.25	454.06
389.45	308.95
389.64	376.83
389.84	379.17
390.03	346.40
390.22	393.21
390.42	379.17
390.61	458.74
390.81	404.91
391.00	435.34
391.19	404.91
391.39	362.78
391.58	425.98
391.78	479.81
391.97	383.85
392.16	435.34
392.36	465.77
392.55	430.66
392.75	425.98
392.94	425.98
393.13	379.17
393.33	393.21
393.52	421.30
393.71	526.62
393.91	407.25
394.10	318.31
394.29	409.59
394.49	440.02
394.68	510.24
394.88	449.38
395.07	482.15
395.26	491.51
395.46	454.06
395.65	510.24
395.84	484.49
396.04	472.79
396.23	470.45
396.42	484.49
396.62	435.34
396.81	475.13
397.00	451.72
397.19	489.17
397.39	533.64
397.58	582.79
397.77	479.81
397.97	606.20
398.16	543.00
398.35	470.45
398.55	514.92
398.74	507.90
398.93	503.22
399.12	519.60
399.32	454.06
399.51	538.32
399.70	571.09
399.90	603.86
400.09	582.79
400.28	489.17
400.47	589.82
400.67	582.79
400.86	512.58
401.05	540.66
401.24	566.41
401.44	559.39
401.63	592.16
401.82	650.67
402.01	559.39
402.21	692.80
402.40	685.78
402.59	585.13
402.78	564.07
402.97	643.65
403.17	653.01
403.36	662.37
403.55	660.03
403.74	718.54
403.93	678.76
404.13	713.86
404.32	648.33
404.51	718.54
404.70	774.72
404.89	678.76
405.09	711.52
405.28	702.16
405.47	699.82
405.66	833.23
405.85	744.29
406.05	725.57
406.24	725.57
406.43	793.44
406.62	887.06
406.81	858.98
407.00	807.48
407.20	744.29
407.39	741.95
407.58	770.04
407.77	763.01
407.96	854.30
408.15	772.38
408.34	758.33
408.54	823.87
408.73	910.47
408.92	798.12
409.11	809.83
409.30	791.10
409.49	840.25
409.68	807.48
409.87	905.79
410.07	915.15
410.26	926.85
410.45	898.77
410.64	919.83
410.83	873.02
411.02	889.40
411.21	926.85
411.40	1062.60
411.59	947.92
411.78	966.64
411.98	1013.45
412.17	915.15
412.36	978.34
412.55	1048.56
412.74	959.62
412.93	1109.41
413.12	1013.45
413.31	1048.56
413.50	1006.43
413.69	1076.65
413.88	1137.50
414.07	1121.12
414.26	1111.75
414.45	1048.56
414.64	1137.50
414.83	1177.29
415.02	1172.61
415.22	1172.61
415.41	1207.72
415.60	1107.07
415.79	1186.65
415.98	1135.16
416.17	1231.12
416.36	1270.91
416.55	1273.25
416.74	1256.87
416.93	1205.38
417.12	1291.98
417.31	1270.91
417.50	1301.34
417.69	1254.53
417.88	1320.06
418.07	1324.74
418.26	1254.53
418.45	1207.72
418.64	1392.62
418.83	1341.13
419.02	1397.30
419.21	1413.68
419.39	1409.00
419.58	1338.79
419.77	1366.87
419.96	1315.38
420.15	1406.66
420.34	1380.92
420.53	1336.45
420.72	1528.37
420.91	1364.53
421.10	1390.28
421.29	1432.41
421.48	1523.69
421.67	1540.07
421.86	1462.83
422.05	1607.95
422.24	1364.53
422.43	1549.43
422.61	1476.88
422.80	1497.94
422.99	1554.12
423.18	1500.28
423.37	1537.73
423.56	1444.11
423.75	1521.35
423.94	1530.71
424.13	1430.07
424.32	1406.66
424.50	1530.71
424.69	1591.56
424.88	1624.33
425.07	1486.24
425.26	1537.73
425.45	1528.37
425.64	1547.09
425.83	1551.78
426.01	1519.01
426.20	1584.54
426.39	1561.14
426.58	1486.24
426.77	1528.37
426.96	1589.22
427.15	1549.43
427.33	1598.59
427.52	1540.07
427.71	1572.84
427.90	1568.16
428.09	1671.14
428.28	1603.27
428.46	1666.46
428.65	1685.19
428.84	1713.27
429.03	1694.55
429.22	1617.31
429.40	1605.61
429.59	1687.53
429.78	1666.46
429.97	1643.06
430.16	1554.12
430.34	1659.44
430.53	1727.32
430.72	1739.02
430.91	1701.57
431.10	1746.04
431.28	1806.89
431.47	1797.53
431.66	1746.04
431.85	1722.63
432.03	1769.44
432.22	1760.08
432.41	1710.93
432.60	1874.77
432.79	1792.85
432.97	1881.79
433.16	1739.02
433.35	1799.87
433.54	1820.94
433.72	1870.09
433.91	1863.07
434.10	1900.52
434.28	1839.66
434.47	1844.34
434.66	1959.03
434.85	1877.11
435.03	2104.14
435.22	2141.59
435.41	2333.51
435.59	2366.28
435.78	2282.02
435.97	2078.40
436.16	2026.90
436.34	1970.73
436.53	2099.46
436.72	2176.70
436.90	2057.33
437.09	1963.71
437.28	2050.31
437.46	1994.14
437.65	2111.16
437.84	2101.80
438.02	2064.35
438.21	2054.99
438.40	1926.26
438.58	2113.50
438.77	2160.31
438.96	2165.00
439.14	2076.06
439.33	2139.25
439.52	2232.87
439.70	2204.78
439.89	2202.44
440.08	2232.87
440.26	2228.19
440.45	2230.53
440.63	2284.36
440.82	2275.00
441.01	2300.75
441.19	2188.40
441.38	2293.72
441.57	2389.69
441.75	2307.77
441.94	2392.03
442.12	2480.97
442.31	2366.28
442.50	2438.84
442.68	2462.24
442.87	2476.29
443.05	2438.84
443.24	2555.86
443.43	2462.24
443.61	2396.71
443.80	2619.06
443.98	2370.96
444.17	2438.84
444.35	2544.16
444.54	2495.01
444.73	2569.91
444.91	2499.69
445.10	2459.90
445.28	2516.08
445.47	2537.14
445.65	2539.48
445.84	2619.06
446.02	2530.12
446.21	2520.76
446.39	2602.68
446.58	2583.95
446.77	2546.50
446.95	2644.81
447.14	2581.61
447.32	2684.59
447.51	2612.04
447.69	2555.86
447.88	2555.86
448.06	2567.57
448.25	2581.61
448.43	2546.50
448.62	2640.12
448.80	2651.83
448.99	2499.69
449.17	2649.49
449.36	2445.86
449.54	2661.19
449.73	2686.94
449.91	2682.25
450.10	2750.13
450.28	2792.26
450.46	2733.75
450.65	2754.81
450.83	2766.51
451.02	2621.40
451.20	2771.19
451.39	2736.09
451.57	2789.92
451.76	2832.05
451.94	2773.53
452.13	2848.43
452.31	2913.97
452.49	2832.05
452.68	2853.11
452.86	2846.09
453.05	2867.16
453.23	2757.15
453.42	2846.09
453.60	2682.25
453.78	2874.18
453.97	2923.33
454.15	2808.64
454.34	2778.22
454.52	2874.18
454.70	2836.73
454.89	2897.58
455.07	2892.90
455.26	2920.99
455.44	3038.02
455.62	3002.91
455.81	3009.93
455.99	2991.20
456.17	3087.17
456.36	2979.50
456.54	3009.93
456.73	2939.71
456.91	3143.34
457.09	3150.36
457.28	3192.49
457.46	3143.34
457.64	3199.51
457.83	3089.51
458.01	3084.83
458.19	3162.06
458.38	3206.53
458.56	3215.90
458.74	3171.43
458.93	3082.49
459.11	3133.98
459.29	3178.45
459.48	3096.53
459.66	3286.11
459.84	3361.01
460.03	3382.07
460.21	3295.47
460.39	3304.84
460.57	3218.24
460.76	3281.43
460.94	3405.48
461.12	3176.11
461.31	3475.70
461.49	3361.01
461.67	3328.24
461.85	3318.88
462.04	3440.59
462.22	3616.13
462.40	3377.39
462.59	3332.92
462.77	3300.16
462.95	3468.67
463.13	3393.78
463.32	3393.78
463.50	3487.40
463.68	3356.33
463.86	3506.12
464.05	3382.07
464.23	3529.53
464.41	3576.34
464.59	3428.88
464.78	3576.34
464.96	3393.78
465.14	3501.44
465.32	3574.00
465.50	3634.85
465.69	3581.02
465.87	3531.87
466.05	3492.08
466.23	3543.57
466.41	3534.21
466.60	3744.86
466.78	3564.64
466.96	3597.40
467.14	3660.60
467.32	3564.64
467.51	3597.40
467.69	3566.98
467.87	3740.18
468.05	3695.71
468.23	3637.19
468.41	3658.26
468.60	3590.38
468.78	3686.34
468.96	3758.90
469.14	3775.28
469.32	3798.69
469.50	3737.84
469.69	3756.56
469.87	3801.03
470.05	3868.91
470.23	3875.93
470.41	3796.35
470.59	3791.67
470.77	3831.46
470.95	3836.14
471.14	3908.69
471.32	4112.32
471.50	4035.08
471.68	3824.44
471.86	3894.65
472.04	3918.06
472.22	4215.30
472.40	4084.23
472.58	4042.11
472.77	4016.36
472.95	4049.13
473.13	4308.93
473.31	4107.64
473.49	4102.96
473.67	4191.90
473.85	4142.75
474.03	4294.88
474.21	4329.99
474.39	4393.19
474.57	4294.88
474.75	4320.63
474.93	4280.84
475.12	4271.48
475.30	4337.01
475.48	4337.01
475.66	4346.37
475.84	4238.71
476.02	4479.79
476.20	4353.40
476.38	4615.54
476.56	4704.48
476.74	4585.11
476.92	4594.47
477.10	4622.56
477.28	4851.93
477.46	4622.56
477.64	4779.37
477.82	4805.12
478.00	4938.53
478.18	5006.41
478.36	4999.38
478.54	4868.31
478.72	5041.51
478.90	5027.47
479.08	5107.05
479.26	5207.69
479.44	5034.49
479.62	5013.43
479.80	5036.83
479.98	5203.01
480.16	5179.61
480.34	5291.95
480.52	5430.04
480.70	5401.96
480.88	5249.82
481.06	5329.40
481.24	5493.24
481.41	5540.05
481.59	5394.93
481.77	5647.71
481.95	5650.05
482.13	5657.07
482.31	5528.35
482.49	5949.64
482.67	5853.68
482.85	5881.77
483.03	6071.35
483.21	5940.28
483.39	5982.41
483.57	6038.58
483.74	6083.05
483.92	6132.20
484.10	6052.63
484.28	6274.98
484.46	6317.11
484.64	6431.79
484.82	6354.55
485.00	6466.90
485.18	6406.05
485.35	6516.05
485.53	6621.38
485.71	6569.88
485.89	6822.66
486.07	6600.31
486.25	6602.65
486.43	6761.81
486.61	6834.36
486.78	6895.22
486.96	6754.79
487.14	6906.92
487.32	6956.07
487.50	6995.86
487.68	7267.36
487.85	7133.95
488.03	7349.28
488.21	7459.29
488.39	7543.55
488.57	7454.61
488.75	7485.03
488.92	7740.15
489.10	7688.66
489.28	7536.52
489.46	7707.38
489.64	7707.38
489.81	7815.05
489.99	7779.94
490.17	7939.10
490.35	8170.81
490.53	8313.58
490.70	8196.56
490.88	7999.95
491.06	8236.35
491.24	7936.76
491.41	8241.03
491.59	8381.46
491.77	8271.45
491.95	8329.97
492.13	8332.31
492.30	8390.82
492.48	8416.57
492.66	8788.71
492.84	8423.59
493.01	8844.88
493.19	8725.52
493.37	8835.52
493.54	8945.53
493.72	8915.10
493.90	8697.43
494.08	8912.76
494.25	9020.42
494.43	9102.34
494.61	9160.86
494.79	9210.01
494.96	9298.95
495.14	9261.50
495.32	9121.07
495.49	9355.12
495.67	9544.70
495.85	9493.21
496.02	9568.11
496.20	9570.45
496.38	9364.48
496.55	9610.24
496.73	9806.84
496.91	9813.87
497.09	9832.59
497.26	9884.08
497.44	9682.80
497.62	9907.49
497.79	9947.28
497.97	9928.55
498.14	10115.80
498.32	10178.99
498.50	10223.46
498.67	10209.42
498.85	10134.52
499.03	10312.40
499.20	10345.17
499.38	10413.04
499.56	10239.84
499.73	10317.08
499.91	10459.85
500.08	10600.29
500.26	10487.94
500.44	10586.24
500.61	10684.55
500.79	10855.40
500.97	10729.02
501.14	10640.08
501.32	10871.79
501.49	10707.95
501.67	10817.96
501.84	10846.04
502.02	10857.75
502.20	11164.36
502.37	11178.40
502.55	11037.97
502.72	11126.91
502.90	11204.14
503.07	11101.16
503.25	11140.95
503.43	11220.53
503.60	11171.38
503.78	11250.96
503.95	11398.41
504.13	11337.56
504.30	11372.66
504.48	11321.17
504.65	11517.78
504.83	11648.85
505.01	11627.78
505.18	11538.84
505.36	11550.54
505.53	11562.25
505.71	11784.60
505.88	11749.49
506.06	11698.00
506.23	11805.66
506.41	11824.39
506.58	11857.15
506.76	11749.49
506.93	11925.03
507.11	11889.92
507.28	11978.86
507.46	11941.41
507.63	12114.61
507.81	12072.48
507.98	12248.02
508.16	12308.88
508.33	12238.66
508.50	12201.21
508.68	11967.16
508.85	12556.97
509.03	12074.82
509.20	12559.31
509.38	12390.80
509.55	12650.60
509.73	12500.80
509.90	12545.27
510.08	12397.82
510.25	12603.78
510.42	12688.04
510.60	12765.28
510.77	12713.79
510.95	12896.35
511.12	12879.97
511.30	13046.15
511.47	13032.10
511.64	12737.20
511.82	12812.09
511.99	13102.32
512.17	13235.73
512.34	13238.07
512.51	13043.81
512.69	13025.08
512.86	13193.60
513.04	13195.94
513.21	13439.36
513.38	13343.39
513.56	13380.84
513.73	13259.13
513.90	13352.76
514.08	13685.11
514.25	13390.20
514.43	13399.57
514.60	13614.90
514.77	13476.80
514.95	13661.71
515.12	13650.00
515.29	13598.51
515.47	13650.00
515.64	13675.75
515.81	13668.73
515.99	13727.24
516.16	14019.81
516.33	13846.61
516.51	13919.17
516.68	13561.06
516.85	13998.74
517.03	13752.99
517.20	13940.23
517.37	14148.54
517.54	14026.83
517.72	14036.19
517.89	13954.27
518.06	14071.30
518.24	14178.97
518.41	14038.53
518.58	14265.57
518.75	14146.20
518.93	14263.22
519.10	14260.88
519.27	14291.31
519.45	14167.26
519.62	14181.31
519.79	14438.76
519.96	14455.15
520.14	14565.15
520.31	14415.36
520.48	14565.15
520.65	14626.01
520.83	14516.00
521.00	14567.49
521.17	14471.53
521.34	14750.06
521.52	14668.14
521.69	15082.41
521.86	14733.67
522.03	14869.42
522.20	15204.12
522.38	15316.47
522.55	14934.96
522.72	14724.31
522.89	15056.67
523.07	15211.14
523.24	15164.33
523.41	15302.42
523.58	15225.18
523.75	14995.81
523.92	15136.24
524.10	15323.49
524.27	15248.59
524.44	15180.71
524.61	15400.72
524.78	15281.36
524.96	15227.53
525.13	15105.82
525.30	15201.78
525.47	15358.60
525.64	15386.68
525.81	15524.77
525.98	15644.14
526.16	15552.86
526.33	15192.42
526.50	15662.86
526.67	15667.55
526.84	15880.53
527.01	15700.31
527.18	15646.48
527.36	15630.10
527.53	15957.77
527.70	16240.98
527.87	16060.76
528.04	15850.11
528.21	15899.26
528.38	15726.06
528.55	16194.17
528.72	16018.63
528.89	16156.72
529.07	15676.91
529.24	15885.22
529.41	16205.87
529.58	16009.26
529.75	16004.58
529.92	16233.96
530.09	16137.99
530.26	16128.63
530.43	16219.91
530.60	16205.87
530.77	15985.86
530.94	16542.91
531.11	16358.00
531.28	15960.11
531.46	16301.83
531.63	16299.49
531.80	16311.19
531.97	16769.94
532.14	16264.38
532.31	16402.47
532.48	16456.31
532.65	16416.52
532.82	16269.06
532.99	16737.17
533.16	16369.71
533.33	16634.19
533.50	16699.72
533.67	16730.15
533.84	16521.84
534.01	16409.50
534.18	16592.06
534.35	16760.58
534.52	16657.59
534.69	16802.71
534.86	16760.58
535.03	16996.97
535.20	16847.18
535.37	16938.46
535.54	17003.99
535.71	17074.21
535.88	16868.24
536.05	17209.96
536.22	17116.34
536.38	17303.58
536.55	17158.47
536.72	17102.29
536.89	17048.46
537.06	17114.00
537.23	17317.62
537.40	16992.29
537.57	17104.64
537.74	16779.30
537.91	17174.85
538.08	17231.02
538.25	17209.96
538.42	17284.86
538.59	17694.45
538.75	17219.32
538.92	17436.99
539.09	17654.66
539.26	17266.13
539.43	17270.81
539.60	17362.09
539.77	17474.44
539.94	17701.47
540.11	17565.72
540.28	17369.12
540.44	17439.33
540.61	17532.95
540.78	17476.78
540.95	17654.66
541.12	17912.12
541.29	17839.56
541.46	17942.55
541.62	18115.75
541.79	17942.55
541.96	17806.80
542.13	18045.53
542.30	17891.06
542.47	18249.16
542.63	18092.34
542.80	18082.98
542.97	18143.83
543.14	18530.02
543.31	18352.14
543.48	18342.78
543.64	18525.34
543.81	18211.71
543.98	18347.46
544.15	18361.50
544.32	18377.89
544.48	18625.98
544.65	17970.63
544.82	18368.52
544.99	18064.25
545.16	18464.49
545.32	18384.91
545.49	18838.97
545.66	19183.03
545.83	19454.53
546.00	19131.54
546.16	18853.02
546.33	18569.81
546.50	18043.19
546.67	18242.14
546.83	18328.74
547.00	18405.97
547.17	18431.72
547.34	18239.79
547.50	18429.38
547.67	18745.35
547.84	18541.72
548.00	18640.03
548.17	18623.64
548.34	18684.50
548.51	18853.02
548.67	18679.82
548.84	19040.26
549.01	18911.53
549.18	18427.04
549.34	18380.23
549.51	18408.31
549.68	18637.69
549.84	18913.87
550.01	18644.71
550.18	18654.07
550.34	18555.77
550.51	18679.82
550.68	19033.24
550.84	18588.53
551.01	18834.29
551.18	18644.71
551.34	18850.67
551.51	18923.23
551.68	19000.47
551.84	19190.05
552.01	18874.08
552.18	18745.35
552.34	18782.80
552.51	18728.97
552.68	18916.21
552.84	19030.90
553.01	18965.36
553.18	19119.84
553.34	18820.25
553.51	19152.60
553.67	19271.97
553.84	19227.50
554.01	19307.08
554.17	19159.63
554.34	19037.92
554.51	19033.24
554.67	19213.46
554.84	19157.28
555.00	19370.27
555.17	18904.51
555.33	19503.68
555.50	19215.80
555.67	19208.78
555.83	18932.59
556.00	19300.06
556.16	19484.96
556.33	19304.74
556.50	19211.12
556.66	19393.68
556.83	19068.34
556.99	19377.30
557.16	19611.35
557.32	19496.66
557.49	19510.71
557.65	19150.26
557.82	19428.79
557.98	19075.37
558.15	19061.32
558.32	19456.87
558.48	19314.10
558.65	19328.14
558.81	19541.13
558.98	19360.91
559.14	19426.45
559.31	19349.21
559.47	19468.58
559.64	19370.27
559.80	19709.65
559.97	19398.36
560.13	19435.81
560.30	19531.77
560.46	19489.64
560.63	19587.94
560.79	19236.86
560.96	19302.40
561.12	19634.75
561.29	19627.73
561.45	19639.44
561.61	19721.35
561.78	19681.56
561.94	19693.27
562.11	19700.29
562.27	19868.81
562.44	19316.44
562.60	19606.67
562.77	19536.45
562.93	19468.58
563.10	19861.79
563.26	19613.69
563.42	19885.19
563.59	19690.93
563.75	19887.53
563.92	20109.88
564.08	19714.33
564.24	19702.63
564.41	19882.85
564.57	19688.59
564.74	19616.03
564.90	19873.49
565.07	19686.25
565.23	19655.82
565.39	19922.64
565.56	19807.95
565.72	19431.13
565.88	19613.69
566.05	19489.64
566.21	20009.24
566.38	19381.98
566.54	19744.76
566.70	19857.10
566.87	19843.06
567.03	19632.41
567.19	20060.73
567.36	19775.19
567.52	19290.70
567.68	19875.83
567.85	19587.94
568.01	19803.27
568.17	19716.67
568.34	19847.74
568.50	20051.37
568.66	20161.37
568.83	19789.23
568.99	19908.60
569.15	19859.45
569.32	19833.70
569.48	19960.09
569.64	19962.43
569.81	19861.79
569.97	19960.09
570.13	20311.17
570.30	19824.34
570.46	20259.68
570.62	20009.24
570.78	19967.11
570.95	19672.20
571.11	20039.67
571.27	19742.42
571.43	19840.72
571.60	19861.79
571.76	19920.30
571.92	19943.70
572.09	19939.02
572.25	19744.76
572.41	19927.32
572.57	20194.14
572.74	20297.13
572.90	19901.58
573.06	19843.06
573.22	20121.59
573.38	20056.05
573.55	20332.23
573.71	20435.22
573.87	20086.48
574.03	19997.54
574.20	20109.88
574.36	19819.66
574.52	20189.46
574.68	20182.44
574.84	20194.14
575.01	20109.88
575.17	20421.17
575.33	20198.82
575.49	19934.34
575.65	20329.89
575.82	20100.52
575.98	20170.74
576.14	20135.63
576.30	19960.09
576.46	20086.48
576.62	20086.48
576.79	19826.68
576.95	19920.30
577.11	19924.98
577.27	20049.03
577.43	20348.62
577.59	19957.75
577.75	19917.96
577.92	20229.25
578.08	19917.96
578.24	20142.65
578.40	20341.60
578.56	20112.22
578.72	20327.55
578.88	20460.96
579.04	20360.32
579.21	19943.70
579.37	20430.54
579.53	20067.75
579.69	20215.21
579.85	20107.54
580.01	20126.27
580.17	20269.04
580.33	19875.83
580.49	20329.89
580.65	20400.11
580.82	20671.61
580.98	20233.93
581.14	20465.64
581.30	20250.32
581.46	20114.56
581.62	20058.39
581.78	20299.47
581.94	20177.76
582.10	19901.58
582.26	20231.59
582.42	20257.34
582.58	20482.03
582.74	20294.79
582.90	20224.57
583.06	20680.97
583.22	20159.03
583.38	20243.29
583.54	20343.94
583.70	20357.98
583.86	20255.00
584.02	19786.89
584.18	20540.54
584.34	20224.57
584.50	20493.73
584.66	20201.16
584.82	20166.06
584.98	20226.91
585.14	20294.79
585.30	20245.63
585.46	20100.52
585.62	20119.24
585.78	20517.14
585.94	20346.28
586.10	20397.77
586.26	20194.14
586.42	20496.07
586.58	20402.45
586.74	20395.43
586.90	20198.82
587.06	20489.05
587.22	20582.67
587.38	20032.65
587.54	20577.99
587.70	20163.72
587.86	20437.56
588.02	20383.73
588.18	20615.44
588.34	20526.50
588.49	20379.04
588.65	20451.60
588.81	20163.72
588.97	20442.24
589.13	20407.13
589.29	20126.27
589.45	20388.41
589.61	20367.34
589.77	20762.89
589.93	20259.68
590.08	20507.77
590.24	20430.54
590.40	20365.00
590.56	20575.65
590.72	20379.04
590.88	20531.18
591.04	20568.63
591.20	20587.35
591.35	20835.45
591.51	20547.56
591.67	20781.62
591.83	20751.19
591.99	20676.29
592.15	20566.29
592.31	20737.15
592.46	20255.00
592.62	20393.09
592.78	20161.37
