SpectraSuite Data File
++++++++++++++++++++++++++++++++++++
Date: Fri Oct 04 11:39:48 GMT-05:00 2013
User: price-jones
Dark Spectrum Present: No
Reference Spectrum Present: No
Number of Sampled Component Spectra: 1
Spectrometers: USB2+H05261
Integration Time (usec): 100000 (USB2+H05261)
Spectra Averaged: 1 (USB2+H05261)
Boxcar Smoothing: 0 (USB2+H05261)
Correct for Electrical Dark: No (USB2+H05261)
Strobe/Lamp Enabled: No (USB2+H05261)
Correct for Detector Non-linearity: No (USB2+H05261)
Correct for Stray Light: No (USB2+H05261)
Number of Pixels in Processed Spectrum: 2048
>>>>>Begin Processed Spectral Data<<<<<
365.73	100.64
365.92	100.64
366.12	100.64
366.32	0.00
366.52	0.00
366.72	0.00
366.91	0.00
367.11	7.02
367.31	0.00
367.51	0.00
367.70	0.00
367.90	0.00
368.10	0.00
368.30	0.00
368.49	0.00
368.69	0.00
368.89	0.00
369.09	0.00
369.28	0.00
369.48	0.00
369.68	0.00
369.87	60.85
370.07	0.00
370.27	42.13
370.47	60.85
370.66	205.97
370.86	84.26
371.06	271.50
371.25	318.31
371.45	170.86
371.65	299.59
371.84	294.91
372.04	252.78
372.24	299.59
372.44	341.72
372.63	322.99
372.83	325.33
373.03	262.14
373.22	299.59
373.42	283.20
373.62	334.70
373.81	346.40
374.01	257.46
374.21	330.02
374.40	362.78
374.60	287.89
374.79	411.93
374.99	407.25
375.19	381.51
375.38	344.06
375.58	369.80
375.78	386.19
375.97	381.51
376.17	423.64
376.37	416.62
376.56	360.44
376.76	341.72
376.95	299.59
377.15	388.53
377.35	489.17
377.54	346.40
377.74	341.72
377.93	330.02
378.13	407.25
378.33	425.98
378.52	409.59
378.72	360.44
378.91	482.15
379.11	367.46
379.31	440.02
379.50	330.02
379.70	400.23
379.89	447.04
380.09	390.87
380.28	360.44
380.48	430.66
380.68	355.76
380.87	400.23
381.07	315.97
381.26	482.15
381.46	475.13
381.65	456.40
381.85	519.60
382.04	421.30
382.24	479.81
382.43	383.85
382.63	372.15
382.83	393.21
383.02	393.21
383.22	514.92
383.41	479.81
383.61	489.17
383.80	402.57
384.00	465.77
384.19	486.83
384.39	444.70
384.58	461.09
384.78	505.56
384.97	535.98
385.17	482.15
385.36	468.11
385.56	465.77
385.75	486.83
385.95	507.90
386.14	514.92
386.34	477.47
386.53	503.22
386.72	535.98
386.92	496.19
387.11	578.11
387.31	585.13
387.50	500.87
387.70	514.92
387.89	559.39
388.09	514.92
388.28	531.30
388.48	545.34
388.67	610.88
388.86	594.50
389.06	514.92
389.25	606.20
389.45	552.37
389.64	592.16
389.84	641.31
390.03	695.14
390.22	636.63
390.42	521.94
390.61	615.56
390.81	547.69
391.00	622.58
391.19	599.18
391.39	620.24
391.58	617.90
391.78	653.01
391.97	655.35
392.16	645.99
392.36	650.67
392.55	669.39
392.75	631.94
392.94	631.94
393.13	631.94
393.33	557.05
393.52	573.43
393.71	678.76
393.91	688.12
394.10	664.71
394.29	699.82
394.49	718.54
394.68	685.78
394.88	702.16
395.07	723.23
395.26	655.35
395.46	723.23
395.65	741.95
395.84	697.48
396.04	774.72
396.23	748.97
396.42	725.57
396.62	821.53
396.81	730.25
397.00	720.88
397.19	741.95
397.39	711.52
397.58	861.32
397.77	784.08
397.97	748.97
398.16	781.74
398.35	849.61
398.55	851.96
398.74	837.91
398.93	870.68
399.12	854.30
399.32	861.32
399.51	894.08
399.70	915.15
399.90	819.19
400.09	828.55
400.28	858.98
400.47	894.08
400.67	905.79
400.86	947.92
401.05	929.19
401.24	870.68
401.44	943.24
401.63	926.85
401.82	1015.79
402.01	978.34
402.21	933.87
402.40	894.08
402.59	987.71
402.78	1015.79
402.97	1046.22
403.17	1029.84
403.36	938.55
403.55	931.53
403.74	1034.52
403.93	966.64
404.13	1090.69
404.32	1064.94
404.51	1036.86
404.70	1109.41
404.89	1102.39
405.09	1135.16
405.28	1074.31
405.47	1165.59
405.66	1149.20
405.85	1135.16
406.05	1174.95
406.24	1153.88
406.43	1111.75
406.62	1233.46
406.81	1231.12
407.00	1172.61
407.20	1240.48
407.39	1261.55
407.58	1280.27
407.77	1327.08
407.96	1289.64
408.15	1203.04
408.34	1252.19
408.54	1313.04
408.73	1252.19
408.92	1284.95
409.11	1437.09
409.30	1359.85
409.49	1352.83
409.68	1226.44
409.87	1390.28
410.07	1385.60
410.26	1355.17
410.45	1394.96
410.64	1364.53
410.83	1416.02
411.02	1469.86
411.21	1504.96
411.40	1612.63
411.59	1533.05
411.78	1617.31
411.98	1493.26
412.17	1584.54
412.36	1589.22
412.55	1582.20
412.74	1657.10
412.93	1717.95
413.12	1607.95
413.31	1696.89
413.50	1671.14
413.69	1724.97
413.88	1790.51
414.07	1689.87
414.26	1757.74
414.45	1755.40
414.64	1870.09
414.83	1799.87
415.02	1724.97
415.22	1947.33
415.41	1891.15
415.60	1909.88
415.79	1809.23
415.98	1973.07
416.17	1877.11
416.36	1905.20
416.55	1956.69
416.74	1987.11
416.93	1989.46
417.12	2029.24
417.31	2090.10
417.50	1933.28
417.69	2174.36
417.88	2052.65
418.07	2115.84
418.26	2040.95
418.45	2129.89
418.64	2176.70
418.83	2270.32
419.02	2270.32
419.21	2111.16
419.39	2162.66
419.58	2209.47
419.77	2284.36
419.96	2286.70
420.15	2277.34
420.34	2277.34
420.53	2246.91
420.72	2303.09
420.91	2300.75
421.10	2385.01
421.29	2413.09
421.48	2408.41
421.67	2380.32
421.86	2368.62
422.05	2415.43
422.24	2462.24
422.43	2420.11
422.61	2385.01
422.80	2284.36
422.99	2588.63
423.18	2457.56
423.37	2506.71
423.56	2410.75
423.75	2443.52
423.94	2511.39
424.13	2260.96
424.32	2413.09
424.50	2492.67
424.69	2480.97
424.88	2532.46
425.07	2408.41
425.26	2471.61
425.45	2434.16
425.64	2420.11
425.83	2473.95
426.01	2541.82
426.20	2473.95
426.39	2534.80
426.58	2410.75
426.77	2665.87
426.96	2656.51
427.15	2710.34
427.33	2663.53
427.52	2537.14
427.71	2590.97
427.90	2731.41
428.09	2649.49
428.28	2616.72
428.46	2768.85
428.65	2787.58
428.84	2717.36
429.03	2761.83
429.22	2733.75
429.40	2874.18
429.59	2785.24
429.78	2684.59
429.97	2677.57
430.16	2576.93
430.34	2778.22
430.53	2822.69
430.72	2715.02
430.91	2773.53
431.10	2897.58
431.28	2787.58
431.47	2874.18
431.66	2963.12
431.85	2913.97
432.03	2986.52
432.22	3075.46
432.41	2944.39
432.60	3056.74
432.79	2995.89
432.97	3028.65
433.16	3005.25
433.35	2977.16
433.54	3077.80
433.72	2993.55
433.91	3038.02
434.10	3007.59
434.28	3077.80
434.47	3012.27
434.66	3101.21
434.85	3059.08
435.03	3148.02
435.22	3503.78
435.41	3611.45
435.59	3421.86
435.78	3435.91
435.97	3234.62
436.16	3330.58
436.34	3309.52
436.53	3251.00
436.72	3382.07
436.90	3225.26
437.09	3428.88
437.28	3323.56
437.46	3288.45
437.65	3267.39
437.84	3295.47
438.02	3318.88
438.21	3419.52
438.40	3304.84
438.58	3452.29
438.77	3358.67
438.96	3428.88
439.14	3517.83
439.33	3627.83
439.52	3522.51
439.70	3487.40
439.89	3709.75
440.08	3606.77
440.26	3669.96
440.45	3712.09
440.63	3740.18
440.82	3747.20
441.01	3756.56
441.19	3861.88
441.38	3859.54
441.57	3918.06
441.75	3913.38
441.94	3960.19
442.12	4025.72
442.31	4105.30
442.50	3964.87
442.68	4004.66
442.87	3936.78
443.05	3918.06
443.24	3974.23
443.43	4187.22
443.61	4184.88
443.80	4182.54
443.98	3981.25
444.17	3960.19
444.35	4222.33
444.54	4217.65
444.73	4140.41
444.91	4117.00
445.10	4166.15
445.28	4163.81
445.47	4018.70
445.65	4245.73
445.84	4217.65
446.02	4049.13
446.21	4105.30
446.39	4177.86
446.58	4166.15
446.77	4229.35
446.95	4119.34
447.14	4318.29
447.32	4255.09
447.51	4318.29
447.69	4156.79
447.88	4231.69
448.06	4362.76
448.25	4252.75
448.43	4287.86
448.62	4278.50
448.80	4355.74
448.99	4271.48
449.17	4297.22
449.36	4290.20
449.54	4489.15
449.73	4573.41
449.91	4489.15
450.10	4372.12
450.28	4608.51
450.46	4477.44
450.65	4369.78
450.83	4615.54
451.02	4437.66
451.20	4526.60
451.39	4524.26
451.57	4381.48
451.76	4573.41
451.94	4671.71
452.13	4744.27
452.31	4627.24
452.49	4608.51
452.68	4615.54
452.86	4662.35
453.05	4685.75
453.23	4638.94
453.42	4690.43
453.60	4692.77
453.78	4812.14
453.97	4662.35
454.15	4739.58
454.34	4830.87
454.52	4795.76
454.70	4844.91
454.89	4851.93
455.07	4697.46
455.26	5055.56
455.44	4873.00
455.62	4882.36
455.81	4856.61
455.99	5055.56
456.17	5135.14
456.36	5107.05
456.54	5036.83
456.73	4959.60
456.91	5226.42
457.09	5041.51
457.28	5514.30
457.46	5053.22
457.64	5170.24
457.83	5135.14
458.01	5057.90
458.19	5308.34
458.38	5254.50
458.56	5387.91
458.74	5280.25
458.93	5273.23
459.11	5170.24
459.29	5289.61
459.48	5476.85
459.66	5404.30
459.84	5528.35
460.03	5533.03
460.21	5607.92
460.39	5387.91
460.57	5453.45
460.76	5650.05
460.94	5523.66
461.12	5437.06
461.31	5561.11
461.49	5626.65
461.67	5570.48
461.85	5710.91
462.04	5659.42
462.22	6176.67
462.40	5582.18
462.59	5542.39
462.77	5720.27
462.95	5664.10
463.13	5839.64
463.32	5785.80
463.50	5738.99
463.68	5788.14
463.86	5891.13
464.05	5696.86
464.23	5837.30
464.41	5860.70
464.59	5731.97
464.78	5921.56
464.96	6003.47
465.14	5792.83
465.32	5921.56
465.50	5968.37
465.69	6087.73
465.87	5902.83
466.05	5863.04
466.23	5893.47
466.41	5994.11
466.60	6164.97
466.78	6008.16
466.96	6008.16
467.14	6106.46
467.32	6043.26
467.51	5987.09
467.69	5994.11
467.87	6076.03
468.05	6059.65
468.23	6106.46
468.41	6019.86
468.60	6059.65
468.78	6118.16
468.96	6237.53
469.14	6221.14
469.32	6321.79
469.50	6183.70
469.69	6207.10
469.87	6312.42
470.05	6392.00
470.23	6480.94
470.41	6523.07
470.59	6399.02
470.77	6544.14
470.95	6579.25
471.14	6773.51
471.32	6551.16
471.50	6698.61
471.68	6509.03
471.86	6656.48
472.04	6719.68
472.22	6874.15
472.40	6590.95
472.58	6675.21
472.77	6860.11
472.95	6960.75
473.13	6977.14
473.31	6789.89
473.49	6920.96
473.67	7150.34
473.85	7108.21
474.03	7337.58
474.21	7075.44
474.39	7206.51
474.57	7309.49
474.75	7236.94
474.93	7197.15
475.12	7302.47
475.30	7302.47
475.48	7342.26
475.66	7524.82
475.84	7475.67
476.02	7454.61
476.20	7447.58
476.38	7569.29
476.56	7761.22
476.74	7779.94
476.92	7730.79
477.10	7810.37
477.28	7730.79
477.46	7864.20
477.64	7894.63
477.82	7983.57
478.00	8107.62
478.18	8173.15
478.36	8442.31
478.54	8238.69
478.72	8475.08
478.90	8400.18
479.08	8601.47
479.26	8648.28
479.44	8622.53
479.62	8641.26
479.80	8652.96
479.98	8755.94
480.16	8940.85
480.34	8882.33
480.52	9039.15
480.70	9018.08
480.88	8882.33
481.06	9018.08
481.24	8844.88
481.41	9036.81
481.59	9210.01
481.77	9488.53
481.95	9523.64
482.13	9521.30
482.31	9582.15
482.49	9884.08
482.67	9699.18
482.85	9898.13
483.03	10092.39
483.21	9996.43
483.39	10071.33
483.57	10092.39
483.74	9987.07
483.92	10312.40
484.10	10277.29
484.28	10567.52
484.46	10560.50
484.64	11145.63
484.82	10546.45
485.00	10787.53
485.18	11052.01
485.35	10796.89
485.53	10946.69
485.71	11117.54
485.89	11101.16
486.07	11122.23
486.25	11267.34
486.43	11272.02
486.61	11592.67
486.78	11501.39
486.96	11723.74
487.14	11786.94
487.32	11705.02
487.50	11868.86
487.68	12112.27
487.85	12292.49
488.03	12451.65
488.21	12664.64
488.39	12430.59
488.57	12547.61
488.75	12788.69
488.92	13142.11
489.10	13036.78
489.28	12891.67
489.46	13191.26
489.64	13067.21
489.81	12999.34
489.99	13387.86
490.17	13324.67
490.35	13525.96
490.53	13341.05
490.70	13738.94
490.88	13474.46
491.06	13771.71
491.24	13806.82
491.41	13771.71
491.59	13987.04
491.77	13898.10
491.95	14207.05
492.13	14223.44
492.30	14244.50
492.48	14483.24
492.66	14607.28
492.84	14373.23
493.01	14689.20
493.19	14682.18
493.37	14686.86
493.54	14911.55
493.72	15133.90
493.90	15091.77
494.08	15019.22
494.25	15386.68
494.43	15522.43
494.61	15548.18
494.79	15723.72
494.96	15646.48
495.14	15709.68
495.32	16053.73
495.49	15665.21
495.67	16027.99
495.85	16044.37
496.02	16271.40
496.20	16177.78
496.38	16402.47
496.55	16376.73
496.73	16732.49
496.91	16339.28
497.09	16823.77
497.26	16741.85
497.44	16723.13
497.62	16844.84
497.79	17102.29
497.97	16950.16
498.14	17202.94
498.32	17338.69
498.50	17490.82
498.67	17184.21
498.85	17357.41
499.03	17488.48
499.20	17607.85
499.38	17680.41
499.56	17715.51
499.73	17846.58
499.91	18075.96
500.08	17900.42
500.26	17874.67
500.44	17886.37
500.61	18228.09
500.79	17881.69
500.97	18478.53
501.14	18256.18
501.32	18590.88
501.49	18782.80
501.67	18244.48
501.84	18867.06
502.02	18305.33
502.20	18956.00
502.37	18986.43
502.55	18677.48
502.72	18726.63
502.90	18988.77
503.07	18806.20
503.25	18918.55
503.43	18815.57
503.60	19220.48
503.78	19257.93
503.95	19236.86
504.13	19435.81
504.30	19770.51
504.48	19550.49
504.65	19740.08
504.83	19660.50
505.01	19793.91
505.18	19693.27
505.36	19950.73
505.53	19932.00
505.71	19838.38
505.88	19875.83
506.06	19681.56
506.23	20060.73
506.41	20166.06
506.58	20044.35
506.76	20346.28
506.93	20297.13
507.11	20226.91
507.28	20519.48
507.46	20613.10
507.63	20746.51
507.81	20669.27
507.98	20484.37
508.16	20624.80
508.33	20905.66
508.50	20755.87
508.68	20861.19
508.85	21001.63
509.03	21174.83
509.20	21296.53
509.38	21296.53
509.55	21656.98
509.73	21390.16
509.90	21362.07
510.08	21336.32
510.25	21675.70
510.42	21675.70
510.60	21806.77
510.77	21930.82
510.95	22040.82
511.12	21933.16
511.30	21813.79
511.47	22089.98
511.64	21963.59
511.82	22047.85
511.99	22150.83
512.17	22340.41
512.34	22258.49
512.51	22579.15
512.69	22632.98
512.86	22274.88
513.04	22492.55
513.21	22803.84
513.38	22794.48
513.56	22609.58
513.73	22780.43
513.90	22684.47
514.08	22824.90
514.25	22932.57
514.43	22789.80
514.60	23311.74
514.77	23304.71
514.95	22972.36
515.12	23002.78
515.29	23005.13
515.47	23391.31
515.64	23433.44
515.81	23274.29
515.99	23821.97
516.16	23543.45
516.33	23592.60
516.51	23887.51
516.68	23304.71
516.85	23772.82
517.03	23735.37
517.20	23861.76
517.37	23644.09
517.54	23747.08
517.72	24166.03
517.89	23943.68
518.06	24168.37
518.24	24039.64
518.41	23955.38
518.58	24163.69
518.75	24322.85
518.93	24671.59
519.10	24273.70
519.27	24418.81
519.45	24067.73
519.62	24411.79
519.79	24423.49
519.96	24479.66
520.14	24795.64
520.31	24613.07
520.48	24671.59
520.65	24931.39
520.83	25163.10
521.00	24865.85
521.17	24645.84
521.34	25081.18
521.52	25207.57
521.69	24957.13
521.86	25376.09
522.03	25458.01
522.20	25916.75
522.38	25355.02
522.55	25521.20
522.72	25252.04
522.89	25626.53
523.07	25886.32
523.24	25628.87
523.41	25823.13
523.58	25434.60
523.75	26040.80
523.92	25895.69
524.10	26078.25
524.27	26033.78
524.44	25993.99
524.61	26412.95
524.78	25993.99
524.96	26483.16
525.13	26429.33
525.30	26298.26
525.47	26265.49
525.64	26316.98
525.81	26452.73
525.98	26436.35
526.16	26525.29
526.33	26799.13
526.50	26670.40
526.67	26583.80
526.84	26946.59
527.01	26529.97
527.18	26703.17
527.36	27044.89
527.53	27014.46
527.70	26965.31
527.87	27309.37
528.04	26827.22
528.21	26838.92
528.38	26998.08
528.55	26923.18
528.72	27047.23
528.89	27007.44
529.07	27166.60
529.24	26937.23
529.41	27592.58
529.58	26787.43
529.75	27243.84
529.92	27360.86
530.09	27330.44
530.26	27637.05
530.43	27569.17
530.60	27438.10
530.77	27779.82
530.94	27597.26
531.11	27740.03
531.28	27676.83
531.46	28006.85
531.63	28180.05
531.80	27910.89
531.97	27938.97
532.14	28079.41
532.31	27571.51
532.48	28137.92
532.65	28093.45
532.82	28210.48
532.99	28215.16
533.16	28074.73
533.33	28093.45
533.50	28437.51
533.67	28594.32
533.84	28166.01
534.01	27981.10
534.18	28119.20
534.35	28418.78
534.52	28547.51
534.69	28610.71
534.86	28671.56
535.03	28926.68
535.20	28760.50
535.37	28940.72
535.54	28828.38
535.71	28535.81
535.88	29048.39
536.05	28961.79
536.22	28924.34
536.38	29092.86
536.55	29050.73
536.72	29303.51
536.89	28809.65
537.06	28936.04
537.23	29116.26
537.40	29172.44
537.57	28830.72
537.74	29289.46
537.91	29624.16
538.08	29668.63
538.25	29195.84
538.42	29289.46
538.59	29450.96
538.75	29111.58
538.92	29067.11
539.09	29635.86
539.26	29837.15
539.43	29926.09
539.60	30031.41
539.77	29535.22
539.94	29785.66
540.11	29729.48
540.28	29914.39
540.44	30059.50
540.61	29956.52
540.78	29982.26
540.95	30127.38
541.12	30281.85
541.29	30352.07
541.46	30480.80
541.62	30441.01
541.79	30239.72
541.96	30057.16
542.13	30174.19
542.30	30543.99
542.47	30515.90
542.63	30623.57
542.80	30665.70
542.97	30747.62
543.14	30691.44
543.31	30658.68
543.48	30981.67
543.64	31248.49
543.81	31049.55
543.98	31185.30
544.15	31021.46
544.32	31094.02
544.48	31262.54
544.65	30895.07
544.82	31068.27
544.99	30600.16
545.16	31440.42
545.32	31283.60
545.49	31620.64
545.66	31896.82
545.83	32315.78
546.00	32149.60
546.16	31578.51
546.33	31290.62
546.50	31150.19
546.67	31332.75
546.83	31307.01
547.00	31185.30
547.17	31222.75
547.34	31021.46
547.50	31377.22
547.67	31559.78
547.84	31449.78
548.00	31400.63
548.17	31550.42
548.34	31585.53
548.51	31517.65
548.67	31812.56
548.84	31723.62
549.01	31728.30
549.18	31683.83
549.34	31512.97
549.51	31732.98
549.68	31747.03
549.84	31503.61
550.01	31770.43
550.18	31709.58
550.34	31967.04
550.51	32357.91
550.68	32006.83
550.84	31562.12
551.01	31880.44
551.18	31831.29
551.34	31744.69
551.51	32102.79
551.68	32027.89
551.84	32119.17
552.01	31974.06
552.18	32332.16
552.34	32226.84
552.51	32355.57
552.68	31910.86
552.84	32123.85
553.01	32678.56
553.18	32493.66
553.34	32074.70
553.51	32430.46
553.67	32390.67
553.84	32699.62
554.01	32140.24
554.17	32229.18
554.34	32706.65
554.51	32327.48
554.67	32493.66
554.84	32371.95
555.00	32563.87
555.17	32362.59
555.33	32662.18
555.50	32500.68
555.67	32835.38
555.83	32243.22
556.00	32065.34
556.16	32416.42
556.33	32226.84
556.50	32287.69
556.66	32746.44
556.83	32648.13
556.99	32886.87
557.16	32818.99
557.32	32968.79
557.49	33017.94
557.65	32662.18
557.82	32634.09
557.98	32610.68
558.15	32933.68
558.32	32666.86
558.48	32772.18
558.65	32849.42
558.81	33205.18
558.98	33090.49
559.14	33064.75
559.31	33039.00
559.47	32753.46
559.64	33369.02
559.80	32940.70
559.97	33235.61
560.13	33156.03
560.30	32921.98
560.46	33322.21
560.63	32914.95
560.79	33682.65
560.96	33113.90
561.12	32877.51
561.29	32966.45
561.45	33132.62
561.61	33163.05
561.78	33113.90
561.94	33640.52
562.11	33202.84
562.27	33139.65
562.44	32931.34
562.60	33015.60
562.77	33099.86
562.93	33521.15
563.10	33362.00
563.26	33186.46
563.42	33902.66
563.59	33464.98
563.75	33275.40
563.92	33589.03
564.08	33067.09
564.24	33462.64
564.41	33188.80
564.57	33160.71
564.74	33329.23
564.90	33621.80
565.07	33773.93
565.23	33806.70
565.39	33556.26
565.56	33605.41
565.72	33762.23
565.88	33654.56
566.05	33369.02
566.21	33043.68
566.38	33195.82
566.54	33338.59
566.70	33748.18
566.87	33947.13
567.03	33858.19
567.19	34178.84
567.36	33631.16
567.52	33537.54
567.68	33736.48
567.85	33336.25
568.01	33687.33
568.17	33701.37
568.34	33640.52
568.50	33865.21
568.66	33446.26
568.83	34036.07
568.99	33813.72
569.15	33635.84
569.32	33727.12
569.48	33322.21
569.64	33600.73
569.81	33947.13
569.97	33649.88
570.13	33762.23
570.30	33996.28
570.46	33729.46
570.62	33858.19
570.78	33713.08
570.95	33668.61
571.11	33804.36
571.27	33677.97
571.43	33326.89
571.60	33809.04
571.76	33621.80
571.92	33930.75
572.09	34197.57
572.25	33989.26
572.41	34050.11
572.57	34139.05
572.74	34218.63
572.90	33565.62
573.06	33518.81
573.22	33865.21
573.38	33780.95
573.55	34078.20
573.71	34061.82
573.87	34181.18
574.03	34015.01
574.20	34024.37
574.36	33799.68
574.52	33727.12
574.68	34110.97
574.84	34370.77
575.01	34068.84
575.17	34026.71
575.33	34167.14
575.49	34347.36
575.65	34106.29
575.82	34087.56
575.98	34429.28
576.14	34216.29
576.30	34033.73
576.46	34019.69
576.62	34010.32
576.79	34157.78
576.95	33717.76
577.11	33956.49
577.27	34190.55
577.43	33710.74
577.59	33867.55
577.75	33998.62
577.92	33745.84
578.08	33787.97
578.24	33422.85
578.40	34043.09
578.56	34380.13
578.72	34206.93
578.88	34789.72
579.04	34171.82
579.21	34335.66
579.37	34146.08
579.53	34059.48
579.69	34359.06
579.85	34043.09
580.01	34284.17
580.17	33610.09
580.33	34099.26
580.49	34068.84
580.65	34359.06
580.82	34342.68
580.98	34270.12
581.14	33991.60
581.30	34249.06
581.46	34139.05
581.62	34279.49
581.78	33797.34
581.94	33975.22
582.10	33621.80
582.26	34052.45
582.42	34038.41
582.58	34309.91
582.74	33879.25
582.90	34185.86
583.06	34094.58
583.22	34176.50
583.38	33780.95
583.54	33792.65
583.70	34504.18
583.86	34253.74
584.02	33940.11
584.18	34553.33
584.34	34073.52
584.50	34263.10
584.66	33977.56
584.82	34052.45
584.98	34040.75
585.14	34202.25
585.30	34052.45
585.46	33825.42
585.62	33902.66
585.78	34279.49
585.94	33715.42
586.10	34232.68
586.26	34223.31
586.42	34560.35
586.58	34459.71
586.74	33785.63
586.90	34265.44
587.06	33670.95
587.22	34361.40
587.38	34101.61
587.54	34391.83
587.70	34707.80
587.86	34623.54
588.02	34546.31
588.18	34373.11
588.34	34518.22
588.49	34033.73
588.65	34363.75
588.81	34139.05
588.97	34202.25
589.13	34199.91
589.29	33991.60
589.45	34558.01
589.61	34415.24
589.77	34728.87
589.93	34567.37
590.08	34726.53
590.24	34651.63
590.40	34651.63
590.56	34649.29
590.72	34450.35
590.88	34410.56
591.04	34338.00
591.20	34576.73
591.35	34754.61
