SpectraSuite Data File
++++++++++++++++++++++++++++++++++++
Date: Fri Oct 04 11:39:15 GMT-05:00 2013
User: price-jones
Dark Spectrum Present: No
Reference Spectrum Present: No
Number of Sampled Component Spectra: 1
Spectrometers: USB2+H05261
Integration Time (usec): 100000 (USB2+H05261)
Spectra Averaged: 1 (USB2+H05261)
Boxcar Smoothing: 0 (USB2+H05261)
Correct for Electrical Dark: No (USB2+H05261)
Strobe/Lamp Enabled: No (USB2+H05261)
Correct for Detector Non-linearity: No (USB2+H05261)
Correct for Stray Light: No (USB2+H05261)
Number of Pixels in Processed Spectrum: 2048
>>>>>Begin Processed Spectral Data<<<<<
365.73	65.54
365.92	65.54
366.12	65.54
366.32	0.00
366.52	0.00
366.72	0.00
366.91	0.00
367.11	0.00
367.31	0.00
367.51	0.00
367.70	0.00
367.90	0.00
368.10	0.00
368.30	0.00
368.49	0.00
368.69	0.00
368.89	0.00
369.09	0.00
369.28	0.00
369.48	0.00
369.68	0.00
369.87	30.43
370.07	35.11
370.27	28.09
370.47	44.47
370.66	133.41
370.86	124.05
371.06	299.59
371.25	259.80
371.45	208.31
371.65	264.48
371.84	276.18
372.04	208.31
372.24	227.03
372.44	236.39
372.63	255.12
372.83	264.48
373.03	278.52
373.22	301.93
373.42	241.08
373.62	245.76
373.81	224.69
374.01	283.20
374.21	287.89
374.40	318.31
374.60	360.44
374.79	294.91
374.99	224.69
375.19	367.46
375.38	297.25
375.58	311.29
375.78	348.74
375.97	365.12
376.17	407.25
376.37	327.68
376.56	372.15
376.76	395.55
376.95	339.38
377.15	313.63
377.35	407.25
377.54	374.49
377.74	360.44
377.93	351.08
378.13	353.42
378.33	360.44
378.52	381.51
378.72	428.32
378.91	306.61
379.11	322.99
379.31	297.25
379.50	411.93
379.70	311.29
379.89	388.53
380.09	353.42
380.28	367.46
380.48	411.93
380.68	367.46
380.87	287.89
381.07	367.46
381.26	421.30
381.46	327.68
381.65	400.23
381.85	365.12
382.04	407.25
382.24	475.13
382.43	402.57
382.63	381.51
382.83	388.53
383.02	383.85
383.22	421.30
383.41	414.27
383.61	447.04
383.80	433.00
384.00	444.70
384.19	442.36
384.39	437.68
384.58	444.70
384.78	496.19
384.97	339.38
385.17	444.70
385.36	407.25
385.56	442.36
385.75	367.46
385.95	440.02
386.14	425.98
386.34	411.93
386.53	458.74
386.72	503.22
386.92	435.34
387.11	440.02
387.31	456.40
387.50	505.56
387.70	477.47
387.89	416.62
388.09	454.06
388.28	447.04
388.48	451.72
388.67	510.24
388.86	505.56
389.06	559.39
389.25	552.37
389.45	435.34
389.64	472.79
389.84	503.22
390.03	571.09
390.22	535.98
390.42	458.74
390.61	517.26
390.81	489.17
391.00	498.53
391.19	543.00
391.39	528.96
391.58	631.94
391.78	564.07
391.97	524.28
392.16	617.90
392.36	585.13
392.55	578.11
392.75	552.37
392.94	608.54
393.13	638.97
393.33	561.73
393.52	468.11
393.71	636.63
393.91	578.11
394.10	582.79
394.29	582.79
394.49	561.73
394.68	559.39
394.88	610.88
395.07	575.77
395.26	552.37
395.46	617.90
395.65	620.24
395.84	653.01
396.04	753.65
396.23	645.99
396.42	657.69
396.62	617.90
396.81	697.48
397.00	711.52
397.19	650.67
397.39	741.95
397.58	793.44
397.77	809.83
397.97	720.88
398.16	795.78
398.35	791.10
398.55	765.36
398.74	753.65
398.93	774.72
399.12	812.17
399.32	758.33
399.51	688.12
399.70	767.70
399.90	718.54
400.09	741.95
400.28	889.40
400.47	812.17
400.67	772.38
400.86	695.14
401.05	823.87
401.24	847.27
401.44	866.00
401.63	870.68
401.82	966.64
402.01	844.93
402.21	915.15
402.40	898.77
402.59	833.23
402.78	926.85
402.97	882.38
403.17	875.36
403.36	922.17
403.55	1050.90
403.74	938.55
403.93	968.98
404.13	1069.62
404.32	992.39
404.51	992.39
404.70	1062.60
404.89	947.92
405.09	1025.15
405.28	929.19
405.47	992.39
405.66	1032.18
405.85	1071.97
406.05	1036.86
406.24	1139.84
406.43	1071.97
406.62	1090.69
406.81	1177.29
407.00	1109.41
407.20	1081.33
407.39	1149.20
407.58	1121.12
407.77	1125.80
407.96	1212.40
408.15	1235.80
408.34	1158.57
408.54	1268.57
408.73	1137.50
408.92	1191.33
409.11	1249.85
409.30	1165.59
409.49	1373.89
409.68	1228.78
409.87	1254.53
410.07	1299.00
410.26	1350.49
410.45	1350.49
410.64	1373.89
410.83	1376.24
411.02	1371.55
411.21	1334.11
411.40	1369.21
411.59	1394.96
411.78	1336.45
411.98	1399.64
412.17	1439.43
412.36	1511.99
412.55	1509.65
412.74	1509.65
412.93	1434.75
413.12	1451.13
413.31	1610.29
413.50	1563.48
413.69	1612.63
413.88	1706.25
414.07	1610.29
414.26	1593.90
414.45	1633.69
414.64	1643.06
414.83	1689.87
415.02	1717.95
415.22	1654.76
415.41	1706.25
415.60	1643.06
415.79	1746.04
415.98	1764.76
416.17	1764.76
416.36	1736.68
416.55	1799.87
416.74	1900.52
416.93	1834.98
417.12	1732.00
417.31	1802.21
417.50	1776.47
417.69	1937.96
417.88	1989.46
418.07	1902.86
418.26	1937.96
418.45	2106.48
418.64	2099.46
418.83	2071.37
419.02	2003.50
419.21	2026.90
419.39	2069.03
419.58	1982.43
419.77	2010.52
419.96	2155.63
420.15	2155.63
420.34	2118.18
420.53	2085.42
420.72	2204.78
420.91	2211.81
421.10	2216.49
421.29	2307.77
421.48	2066.69
421.67	2172.02
421.86	2167.34
422.05	2174.36
422.24	2165.00
422.43	2162.66
422.61	2209.47
422.80	2202.44
422.99	2272.66
423.18	2193.08
423.37	2263.30
423.56	2303.09
423.75	2162.66
423.94	2265.64
424.13	2150.95
424.32	2174.36
424.50	2385.01
424.69	2427.14
424.88	2356.92
425.07	2326.49
425.26	2176.70
425.45	2244.57
425.64	2319.47
425.83	2239.89
426.01	2340.54
426.20	2260.96
426.39	2188.40
426.58	2366.28
426.77	2349.90
426.96	2340.54
427.15	2333.51
427.33	2406.07
427.52	2394.37
427.71	2429.48
427.90	2469.27
428.09	2356.92
428.28	2410.75
428.46	2443.52
428.65	2429.48
428.84	2499.69
429.03	2485.65
429.22	2492.67
429.40	2469.27
429.59	2525.44
429.78	2420.11
429.97	2450.54
430.16	2574.59
430.34	2516.08
430.53	2597.99
430.72	2579.27
430.91	2532.46
431.10	2551.18
431.28	2656.51
431.47	2829.71
431.66	2759.49
431.85	2579.27
432.03	2679.91
432.22	2773.53
432.41	2736.09
432.60	2640.12
432.79	2656.51
432.97	2729.06
433.16	2633.10
433.35	2825.03
433.54	2778.22
433.72	2820.35
433.91	2712.68
434.10	2850.77
434.28	2752.47
434.47	2944.39
434.66	2867.16
434.85	2883.54
435.03	3033.33
435.22	3082.49
435.41	3335.26
435.59	3375.05
435.78	3169.09
435.97	3087.17
436.16	3000.57
436.34	3030.99
436.53	2967.80
436.72	3023.97
436.90	2953.76
437.09	3021.63
437.28	2935.03
437.46	3009.93
437.65	3061.42
437.84	2995.89
438.02	3066.10
438.21	3047.38
438.40	3159.72
438.58	3204.19
438.77	3192.49
438.96	3286.11
439.14	3293.13
439.33	3361.01
439.52	3234.62
439.70	3248.66
439.89	3435.91
440.08	3459.31
440.26	3466.33
440.45	3379.73
440.63	3548.25
440.82	3545.91
441.01	3456.97
441.19	3412.50
441.38	3557.61
441.57	3662.94
441.75	3583.36
441.94	3740.18
442.12	3698.05
442.31	3676.98
442.50	3747.20
442.68	3691.02
442.87	3686.34
443.05	3719.11
443.24	3728.47
443.43	3824.44
443.61	3918.06
443.80	3819.75
443.98	3665.28
444.17	3662.94
444.35	3850.18
444.54	3831.46
444.73	3801.03
444.91	3740.18
445.10	3817.41
445.28	3838.48
445.47	3847.84
445.65	3730.81
445.84	3939.12
446.02	3967.21
446.21	3824.44
446.39	3922.74
446.58	3894.65
446.77	3796.35
446.95	3838.48
447.14	3948.48
447.32	3808.05
447.51	3871.25
447.69	4088.92
447.88	3894.65
448.06	3871.25
448.25	3836.14
448.43	3838.48
448.62	3899.33
448.80	3896.99
448.99	3964.87
449.17	3974.23
449.36	4095.94
449.54	4147.43
449.73	4198.92
449.91	4191.90
450.10	4131.05
450.28	4166.15
450.46	4131.05
450.65	4278.50
450.83	4175.52
451.02	4081.89
451.20	4025.72
451.39	4241.05
451.57	4035.08
451.76	4079.55
451.94	4194.24
452.13	4283.18
452.31	4308.93
452.49	4241.05
452.68	4264.46
452.86	4376.80
453.05	4294.88
453.23	4388.50
453.42	4234.03
453.60	4241.05
453.78	4404.89
453.97	4308.93
454.15	4332.33
454.34	4353.40
454.52	4552.34
454.70	4440.00
454.89	4414.25
455.07	4484.47
455.26	4484.47
455.44	4601.49
455.62	4606.17
455.81	4496.17
455.99	4507.87
456.17	4699.80
456.36	4601.49
456.54	4669.37
456.73	4615.54
456.91	4765.33
457.09	4610.86
457.28	4840.23
457.46	4751.29
457.64	4681.07
457.83	4821.50
458.01	4692.77
458.19	4905.76
458.38	4830.87
458.56	4954.91
458.74	4833.21
458.93	4980.66
459.11	5039.17
459.29	4739.58
459.48	4961.94
459.66	4968.96
459.84	5050.88
460.03	5174.92
460.21	4947.89
460.39	4975.98
460.57	4971.30
460.76	5102.37
460.94	5174.92
461.12	5064.92
461.31	5083.64
461.49	5053.22
461.67	5069.60
461.85	5364.51
462.04	5123.43
462.22	5240.46
462.40	5167.90
462.59	5188.97
462.77	5252.16
462.95	5352.81
463.13	5214.71
463.32	5298.97
463.50	5282.59
463.68	5350.46
463.86	5277.91
464.05	5221.74
464.23	5313.02
464.41	5444.09
464.59	5301.31
464.78	5458.13
464.96	5437.06
465.14	5322.38
465.32	5467.49
465.50	5526.00
465.69	5462.81
465.87	5521.32
466.05	5518.98
466.23	5479.19
466.41	5523.66
466.60	5650.05
466.78	5575.16
466.96	5579.84
467.14	5600.90
467.32	5696.86
467.51	5640.69
467.69	5668.78
467.87	5720.27
468.05	5549.41
468.23	5851.34
468.41	5568.13
468.60	5792.83
468.78	5834.96
468.96	5673.46
469.14	5834.96
469.32	5858.36
469.50	5607.92
469.69	5949.64
469.87	5987.09
470.05	6015.18
470.23	6108.80
470.41	5919.21
470.59	6057.31
470.77	6008.16
470.95	6012.84
471.14	6214.12
471.32	5928.58
471.50	6279.66
471.68	6249.23
471.86	6218.80
472.04	6094.76
472.22	6523.07
472.40	6204.76
472.58	6342.85
472.77	6392.00
472.95	6375.62
473.13	6595.63
473.31	6448.18
473.49	6448.18
473.67	6445.84
473.85	6328.81
474.03	6614.35
474.21	6621.38
474.39	6464.56
474.57	6602.65
474.75	6825.00
474.93	6785.21
475.12	6752.45
475.30	6740.74
475.48	6661.16
475.66	6930.33
475.84	6920.96
476.02	7014.59
476.20	6920.96
476.38	7059.06
476.56	7180.76
476.74	7218.21
476.92	7169.06
477.10	7276.73
477.28	7096.50
477.46	7351.62
477.64	7363.33
477.82	7454.61
478.00	7693.34
478.18	7583.34
478.36	7599.72
478.54	7887.61
478.72	7613.76
478.90	7988.25
479.08	7985.91
479.26	8116.98
479.44	7918.03
479.62	8053.78
479.80	8187.19
479.98	8243.37
480.16	8226.98
480.34	8084.21
480.52	8355.71
480.70	8519.55
480.88	8341.67
481.06	8486.78
481.24	8512.53
481.41	8575.72
481.59	8774.67
481.77	8847.22
481.95	8891.70
482.13	8868.29
482.31	8720.84
482.49	9006.38
482.67	9006.38
482.85	9064.89
483.03	9181.92
483.21	9441.72
483.39	9296.61
483.57	9142.13
483.74	9483.85
483.92	9441.72
484.10	9544.70
484.28	9633.64
484.46	9900.47
484.64	10249.21
484.82	9947.28
485.00	10239.84
485.18	10118.14
485.35	10286.65
485.53	10153.24
485.71	10345.17
485.89	10455.17
486.07	10410.70
486.25	10523.05
486.43	10628.37
486.61	10626.03
486.78	10740.72
486.96	10766.46
487.14	10824.98
487.32	11190.10
487.50	10956.05
487.68	10888.17
487.85	11239.25
488.03	11468.62
488.21	11414.79
488.39	11428.84
488.57	11730.76
488.75	11641.82
488.92	12100.57
489.10	11957.80
489.28	12032.69
489.46	12201.21
489.64	12210.57
489.81	12383.77
489.99	12285.47
490.17	12449.31
490.35	12638.89
490.53	12645.91
490.70	12816.77
490.88	12655.28
491.06	13050.83
491.24	12891.67
491.41	12732.51
491.59	13053.17
491.77	13132.75
491.95	13362.12
492.13	13380.84
492.30	13186.58
492.48	13142.11
492.66	13502.55
492.84	13359.78
493.01	13729.58
493.19	13743.63
493.37	13888.74
493.54	13963.64
493.72	14047.90
493.90	13956.61
494.08	14185.99
494.25	14298.33
494.43	14270.25
494.61	14450.47
494.79	14384.93
494.96	14534.73
495.14	14586.22
495.32	14817.93
495.49	14834.32
495.67	15194.76
495.85	14839.00
496.02	15007.52
496.20	15288.38
496.38	15213.48
496.55	15318.81
496.73	15831.38
496.91	15463.92
497.09	15735.42
497.26	15597.33
497.44	15658.18
497.62	15515.41
497.79	15683.93
497.97	15793.94
498.14	15941.39
498.32	16161.40
498.50	16189.49
498.67	16159.06
498.85	16046.71
499.03	16170.76
499.20	16222.25
499.38	16465.67
499.56	16353.32
499.73	16741.85
499.91	16879.94
500.08	16332.26
500.26	16840.15
500.44	16931.44
500.61	16814.41
500.79	16875.26
500.97	16945.48
501.14	17214.64
501.32	17132.72
501.49	17216.98
501.67	17338.69
501.84	17282.52
502.02	17231.02
502.20	17324.65
502.37	17645.30
502.55	17392.52
502.72	17668.70
502.90	17554.02
503.07	17493.16
503.25	17689.77
503.43	17570.40
503.60	17944.89
503.78	17837.22
503.95	17879.35
504.13	18012.76
504.30	18239.79
504.48	18286.61
504.65	18445.76
504.83	18389.59
505.01	18581.51
505.18	18544.06
505.36	18602.58
505.53	18553.43
505.71	18925.57
505.88	18731.31
506.06	18703.22
506.23	18740.67
506.41	18733.65
506.58	19321.12
506.76	19087.07
506.93	19009.83
507.11	18902.17
507.28	19391.34
507.46	19087.07
507.63	19154.94
507.81	19328.14
507.98	19269.63
508.16	19255.59
508.33	19351.55
508.50	19618.37
508.68	19716.67
508.85	19440.49
509.03	19669.86
509.20	19594.96
509.38	20030.30
509.55	19887.53
509.73	20252.66
509.90	20257.34
510.08	20126.27
510.25	19826.68
510.42	20280.74
510.60	20313.51
510.77	20383.73
510.95	20538.20
511.12	20189.46
511.30	20313.51
511.47	20451.60
511.64	20737.15
511.82	20898.64
511.99	20802.68
512.17	20847.15
512.34	20680.97
512.51	21008.65
512.69	21394.84
512.86	21303.56
513.04	21050.78
513.21	21233.34
513.38	21682.72
513.56	20950.14
513.73	21392.50
513.90	21177.17
514.08	21104.61
514.25	21366.75
514.43	21474.42
514.60	21551.65
514.77	21914.44
514.95	21867.63
515.12	21666.34
515.29	21528.25
515.47	21699.11
515.64	22024.44
515.81	21748.26
515.99	21795.07
516.16	22118.06
516.33	22450.42
516.51	22251.47
516.68	22223.39
516.85	21972.95
517.03	22204.66
517.20	22469.14
517.37	22368.50
517.54	22609.58
517.72	22391.91
517.89	23023.85
518.06	22544.04
518.24	22618.94
518.41	22473.82
518.58	22937.25
518.75	22466.80
518.93	22757.03
519.10	22970.02
519.27	23009.81
519.45	22773.41
519.62	22717.24
519.79	22778.09
519.96	22867.03
520.14	23208.75
520.31	23000.44
520.48	23239.18
520.65	23360.89
520.83	23550.47
521.00	23580.90
521.17	23323.44
521.34	23871.12
521.52	23211.09
521.69	23536.43
521.86	23676.86
522.03	23648.77
522.20	23859.42
522.38	23646.43
522.55	23920.28
522.72	23882.83
522.89	24189.44
523.07	24451.58
523.24	24283.06
523.41	24149.65
523.58	23861.76
523.75	24376.68
523.92	24144.97
524.10	24217.52
524.27	24278.38
524.44	24552.22
524.61	24706.70
524.78	24514.77
524.96	24418.81
525.13	24397.74
525.30	24634.14
525.47	24547.54
525.64	24893.94
525.81	24907.98
525.98	24982.88
526.16	24795.64
526.33	24559.24
526.50	24800.32
526.67	24812.02
526.84	25001.60
527.01	25020.33
527.18	25301.19
527.36	25177.14
527.53	25158.42
527.70	25408.86
527.87	25769.30
528.04	25460.35
528.21	25287.15
528.38	25088.20
528.55	25638.23
528.72	25806.75
528.89	25785.68
529.07	25708.44
529.24	25563.33
529.41	25553.97
529.58	25795.04
529.75	25322.26
529.92	25769.30
530.09	25788.02
530.26	25661.63
530.43	26183.57
530.60	25965.90
530.77	26251.45
530.94	26359.11
531.11	26249.11
531.28	25853.56
531.46	25853.56
531.63	26120.38
531.80	26211.66
531.97	26260.81
532.14	26319.32
532.31	26211.66
532.48	26335.71
532.65	26412.95
532.82	26347.41
532.99	26881.05
533.16	26164.85
533.33	26672.74
533.50	26881.05
533.67	27019.14
533.84	26316.98
534.01	26621.25
534.18	26345.07
534.35	26838.92
534.52	26569.76
534.69	26757.00
534.86	26771.05
535.03	26960.63
535.20	27033.19
535.37	27290.65
535.54	27112.77
535.71	27178.30
535.88	27035.53
536.05	26946.59
536.22	27356.18
536.38	26937.23
536.55	27175.96
536.72	27414.69
536.89	27257.88
537.06	27449.80
537.23	27391.29
537.40	27431.08
537.57	27166.60
537.74	27297.67
537.91	27833.65
538.08	27737.69
538.25	27686.20
538.42	27892.16
538.59	28233.88
538.75	27604.28
538.92	27683.86
539.09	27814.93
539.26	28046.64
539.43	27864.08
539.60	27922.59
539.77	28493.68
539.94	27967.06
540.11	27971.74
540.28	28329.84
540.44	28451.55
540.61	28247.93
540.78	28116.86
540.95	28561.56
541.12	28774.55
541.29	28414.10
541.46	28673.90
541.62	28428.15
541.79	28683.27
541.96	28477.30
542.13	28524.11
542.30	28505.38
542.47	28966.47
542.63	29006.26
542.80	28914.98
542.97	28947.75
543.14	29223.93
543.31	29294.14
543.48	29032.00
543.64	29275.42
543.81	29507.13
543.98	29605.44
544.15	29355.00
544.32	29586.71
544.48	29383.09
544.65	29287.12
544.82	29329.25
544.99	29336.27
545.16	29476.71
545.32	29425.22
545.49	29823.11
545.66	30274.83
545.83	29722.46
546.00	30082.91
546.16	30031.41
546.33	29392.45
546.50	29340.96
546.67	29422.87
546.83	29362.02
547.00	29366.70
547.17	29694.38
547.34	29654.59
547.50	29694.38
547.67	29867.58
547.84	29560.97
548.00	30108.65
548.17	30082.91
548.34	29890.98
548.51	30080.56
548.67	29893.32
548.84	30412.92
549.01	30003.33
549.18	29715.44
549.34	30120.35
549.51	30171.85
549.68	29949.50
549.84	30221.00
550.01	30204.61
550.18	29944.81
550.34	30272.49
550.51	29860.55
550.68	30181.21
550.84	30017.37
551.01	30213.98
551.18	30022.05
551.34	29811.40
551.51	30160.14
551.68	29722.46
551.84	30291.21
552.01	29954.18
552.18	30813.15
552.34	30319.30
552.51	30497.18
552.68	30204.61
552.84	30136.74
553.01	30588.46
553.18	30003.33
553.34	30745.28
553.51	30445.69
553.67	30567.40
553.84	31262.54
554.01	31012.10
554.17	30593.14
554.34	30843.58
554.51	30455.05
554.67	30483.14
554.84	30581.44
555.00	30625.91
555.17	30705.49
555.33	30639.95
555.50	30876.35
555.67	31136.15
555.83	30885.71
556.00	30768.68
556.16	31330.41
556.33	30895.07
556.50	30899.75
556.66	31103.38
556.83	31194.66
556.99	31070.61
557.16	31307.01
557.32	31494.25
557.49	31262.54
557.65	30967.63
557.82	31267.22
557.98	30569.74
558.15	30836.56
558.32	31012.10
558.48	30946.56
558.65	31096.36
558.81	31599.57
558.98	31335.09
559.14	31271.90
559.31	30958.27
559.47	31353.82
559.64	31297.64
559.80	31573.83
559.97	31232.11
560.13	31433.39
560.30	31330.41
560.46	31709.58
560.63	31400.63
560.79	31281.26
560.96	31728.30
561.12	31463.82
561.29	31332.75
561.45	31215.72
561.61	31782.13
561.78	31370.20
561.94	31431.05
562.11	31674.47
562.27	31817.24
562.44	31360.84
562.60	31405.31
562.77	31601.91
562.93	31899.16
563.10	31821.92
563.26	31283.60
563.42	31845.33
563.59	31789.16
563.75	31435.74
563.92	32016.19
564.08	31328.07
564.24	31955.33
564.41	32018.53
564.57	31545.74
564.74	31798.52
564.90	32044.27
565.07	32140.24
565.23	31756.39
565.39	31637.02
565.56	32013.85
565.72	31840.65
565.88	32210.45
566.05	31740.00
566.21	31899.16
566.38	31601.91
566.54	31931.93
566.70	32093.43
566.87	32254.92
567.03	31957.67
567.19	32107.47
567.36	32208.11
567.52	31747.03
567.68	31690.85
567.85	31662.77
568.01	31896.82
568.17	31861.71
568.34	32451.53
568.50	32060.66
568.66	32130.87
568.83	32175.34
568.99	32222.16
569.15	32133.21
569.32	32161.30
569.48	32055.98
569.64	32180.03
569.81	32336.84
569.97	32063.00
570.13	32477.27
570.30	32027.89
570.46	32374.29
570.62	32779.20
570.78	31866.39
570.95	32067.68
571.11	32320.46
571.27	32084.06
571.43	31889.80
571.60	32353.23
571.76	32439.82
571.92	32425.78
572.09	32498.34
572.25	32432.80
572.41	32247.90
572.57	32119.17
572.74	32037.25
572.90	32360.25
573.06	32327.48
573.22	32517.06
573.38	32350.88
573.55	32334.50
573.71	32608.34
573.87	32833.04
574.03	32112.15
574.20	32582.60
574.36	32488.98
574.52	32549.83
574.68	32465.57
574.84	32451.53
575.01	32575.58
575.17	32833.04
575.33	32100.45
575.49	32540.47
575.65	32542.81
575.82	32381.31
575.98	32460.89
576.14	32720.69
576.30	32486.64
576.46	32680.90
576.62	32151.94
576.79	32730.05
576.95	32538.13
577.11	32189.39
577.27	32521.74
577.43	32716.01
577.59	32357.91
577.75	32678.56
577.92	32421.10
578.08	32554.51
578.24	32334.50
578.40	32758.14
578.56	32741.75
578.72	32500.68
578.88	32772.18
579.04	32470.25
579.21	32627.07
579.37	33273.06
579.53	32376.63
579.69	32353.23
579.85	32704.31
580.01	32584.94
580.17	32414.08
580.33	32826.01
580.49	32549.83
580.65	33235.61
580.82	33195.82
580.98	32734.73
581.14	32512.38
581.30	33062.41
581.46	32826.01
581.62	32795.59
581.78	32952.40
581.94	33244.97
582.10	32573.24
582.26	32720.69
582.42	33181.77
582.58	32877.51
582.74	32481.95
582.90	32877.51
583.06	32781.54
583.22	32711.33
583.38	32818.99
583.54	32900.91
583.70	32685.58
583.86	32931.34
584.02	32629.41
584.18	32961.76
584.34	33013.26
584.50	32950.06
584.66	32886.87
584.82	32247.90
584.98	33003.89
585.14	33046.02
585.30	32638.77
585.46	32811.97
585.62	32584.94
585.78	32959.42
585.94	32573.24
586.10	33003.89
586.26	32891.55
586.42	32818.99
586.58	33237.95
586.74	32802.61
586.90	32500.68
587.06	32472.59
587.22	32566.21
587.38	32491.32
587.54	33106.88
587.70	33397.10
587.86	33010.92
588.02	32680.90
588.18	33167.73
588.34	32818.99
588.49	33219.22
588.65	33214.54
588.81	32624.73
588.97	32797.93
589.13	32968.79
589.29	32905.59
589.45	33371.36
589.61	33017.94
589.77	33362.00
589.93	33539.88
590.08	33020.28
590.24	32891.55
590.40	33001.55
590.56	33567.96
590.72	33111.56
590.88	33088.15
591.04	33015.60
591.20	33322.21
591.35	32797.93
591.51	33635.84
591.67	33254.33
