SpectraSuite Data File
++++++++++++++++++++++++++++++++++++
Date: Fri Oct 04 11:39:59 GMT-05:00 2013
User: price-jones
Dark Spectrum Present: No
Reference Spectrum Present: No
Number of Sampled Component Spectra: 1
Spectrometers: USB2+H05261
Integration Time (usec): 100000 (USB2+H05261)
Spectra Averaged: 1 (USB2+H05261)
Boxcar Smoothing: 0 (USB2+H05261)
Correct for Electrical Dark: No (USB2+H05261)
Strobe/Lamp Enabled: No (USB2+H05261)
Correct for Detector Non-linearity: No (USB2+H05261)
Correct for Stray Light: No (USB2+H05261)
Number of Pixels in Processed Spectrum: 2048
>>>>>Begin Processed Spectral Data<<<<<
365.73	74.90
365.92	74.90
366.12	74.90
366.32	0.00
366.52	0.00
366.72	0.00
366.91	0.00
367.11	0.00
367.31	0.00
367.51	0.00
367.70	0.00
367.90	0.00
368.10	0.00
368.30	0.00
368.49	0.00
368.69	0.00
368.89	0.00
369.09	0.00
369.28	0.00
369.48	0.00
369.68	0.00
369.87	14.04
370.07	0.00
370.27	81.92
370.47	67.88
370.66	91.28
370.86	88.94
371.06	81.92
371.25	102.98
371.45	95.96
371.65	145.11
371.84	70.22
372.04	110.01
372.24	154.48
372.44	133.41
372.63	124.05
372.83	224.69
373.03	124.05
373.22	93.62
373.42	128.73
373.62	121.71
373.81	154.48
374.01	212.99
374.21	187.24
374.40	234.05
374.60	170.86
374.79	184.90
374.99	95.96
375.19	210.65
375.38	173.20
375.58	208.31
375.78	156.82
375.97	210.65
376.17	234.05
376.37	212.99
376.56	262.14
376.76	133.41
376.95	142.77
377.15	196.60
377.35	166.18
377.54	142.77
377.74	95.96
377.93	65.54
378.13	140.43
378.33	173.20
378.52	175.54
378.72	145.11
378.91	133.41
379.11	173.20
379.31	119.37
379.50	93.62
379.70	140.43
379.89	156.82
380.09	114.69
380.28	131.07
380.48	205.97
380.68	220.01
380.87	98.30
381.07	100.64
381.26	180.22
381.46	175.54
381.65	203.63
381.85	161.50
382.04	175.54
382.24	147.45
382.43	182.56
382.63	124.05
382.83	88.94
383.02	180.22
383.22	187.24
383.41	161.50
383.61	198.95
383.80	161.50
384.00	196.60
384.19	100.64
384.39	149.79
384.58	161.50
384.78	166.18
384.97	170.86
385.17	194.26
385.36	119.37
385.56	154.48
385.75	189.58
385.95	189.58
386.14	196.60
386.34	173.20
386.53	220.01
386.72	170.86
386.92	205.97
387.11	182.56
387.31	212.99
387.50	168.52
387.70	189.58
387.89	194.26
388.09	145.11
388.28	112.35
388.48	203.63
388.67	168.52
388.86	145.11
389.06	194.26
389.25	252.78
389.45	234.05
389.64	245.76
389.84	198.95
390.03	168.52
390.22	220.01
390.42	166.18
390.61	180.22
390.81	215.33
391.00	201.29
391.19	128.73
391.39	184.90
391.58	145.11
391.78	222.35
391.97	205.97
392.16	131.07
392.36	220.01
392.55	159.16
392.75	198.95
392.94	138.09
393.13	234.05
393.33	166.18
393.52	191.92
393.71	259.80
393.91	170.86
394.10	175.54
394.29	203.63
394.49	184.90
394.68	205.97
394.88	238.73
395.07	243.42
395.26	301.93
395.46	285.55
395.65	248.10
395.84	257.46
396.04	299.59
396.23	290.23
396.42	241.08
396.62	234.05
396.81	271.50
397.00	220.01
397.19	238.73
397.39	241.08
397.58	220.01
397.77	287.89
397.97	227.03
398.16	212.99
398.35	210.65
398.55	266.82
398.74	255.12
398.93	315.97
399.12	257.46
399.32	292.57
399.51	194.26
399.70	250.44
399.90	283.20
400.09	283.20
400.28	313.63
400.47	222.35
400.67	351.08
400.86	227.03
401.05	306.61
401.24	311.29
401.44	241.08
401.63	330.02
401.82	299.59
402.01	278.52
402.21	381.51
402.40	355.76
402.59	348.74
402.78	308.95
402.97	231.71
403.17	353.42
403.36	369.80
403.55	280.86
403.74	386.19
403.93	428.32
404.13	411.93
404.32	404.91
404.51	414.27
404.70	411.93
404.89	369.80
405.09	475.13
405.28	454.06
405.47	407.25
405.66	372.15
405.85	386.19
406.05	407.25
406.24	475.13
406.43	386.19
406.62	486.83
406.81	519.60
407.00	407.25
407.20	454.06
407.39	519.60
407.58	397.89
407.77	514.92
407.96	512.58
408.15	538.32
408.34	482.15
408.54	486.83
408.73	510.24
408.92	545.34
409.11	538.32
409.30	580.45
409.49	601.52
409.68	554.71
409.87	554.71
410.07	535.98
410.26	571.09
410.45	540.66
410.64	589.82
410.83	540.66
411.02	526.62
411.21	645.99
411.40	571.09
411.59	559.39
411.78	643.65
411.98	552.37
412.17	631.94
412.36	580.45
412.55	641.31
412.74	688.12
412.93	730.25
413.12	674.07
413.31	709.18
413.50	699.82
413.69	613.22
413.88	709.18
414.07	683.44
414.26	727.91
414.45	645.99
414.64	751.31
414.83	795.78
415.02	664.71
415.22	795.78
415.41	828.55
415.60	739.61
415.79	730.25
415.98	819.19
416.17	812.17
416.36	751.31
416.55	828.55
416.74	814.51
416.93	854.30
417.12	823.87
417.31	837.91
417.50	821.53
417.69	835.57
417.88	837.91
418.07	861.32
418.26	875.36
418.45	917.49
418.64	1008.77
418.83	880.04
419.02	908.13
419.21	961.96
419.39	903.45
419.58	947.92
419.77	926.85
419.96	987.71
420.15	1022.81
420.34	896.43
420.53	1053.24
420.72	1006.43
420.91	997.07
421.10	1116.44
421.29	1041.54
421.48	980.68
421.67	1008.77
421.86	1020.47
422.05	1011.11
422.24	1069.62
422.43	997.07
422.61	985.37
422.80	1100.05
422.99	1107.07
423.18	1097.71
423.37	1107.07
423.56	1071.97
423.75	1125.80
423.94	912.81
424.13	1039.20
424.32	987.71
424.50	1109.41
424.69	1069.62
424.88	1067.28
425.07	1034.52
425.26	1057.92
425.45	1095.37
425.64	1048.56
425.83	1055.58
426.01	1116.44
426.20	1078.99
426.39	1093.03
426.58	1029.84
426.77	978.34
426.96	1130.48
427.15	1069.62
427.33	1151.54
427.52	1102.39
427.71	1156.22
427.90	1242.82
428.09	1095.37
428.28	1149.20
428.46	1231.12
428.65	1193.67
428.84	1151.54
429.03	1294.32
429.22	1282.61
429.40	1156.22
429.59	1196.01
429.78	1186.65
429.97	1181.97
430.16	1174.95
430.34	1200.69
430.53	1177.29
430.72	1172.61
430.91	1275.59
431.10	1284.95
431.28	1184.31
431.47	1228.78
431.66	1203.04
431.85	1186.65
432.03	1313.04
432.22	1387.94
432.41	1324.74
432.60	1366.87
432.79	1259.21
432.97	1322.40
433.16	1294.32
433.35	1301.34
433.54	1282.61
433.72	1268.57
433.91	1324.74
434.10	1296.66
434.28	1385.60
434.47	1409.00
434.66	1359.85
434.85	1357.51
435.03	1378.58
435.22	1624.33
435.41	1839.66
435.59	1811.57
435.78	1586.88
435.97	1430.07
436.16	1455.81
436.34	1411.34
436.53	1357.51
436.72	1462.83
436.90	1406.66
437.09	1427.73
437.28	1465.18
437.46	1460.49
437.65	1364.53
437.84	1479.22
438.02	1416.02
438.21	1488.58
438.40	1427.73
438.58	1542.41
438.77	1458.15
438.96	1563.48
439.14	1617.31
439.33	1542.41
439.52	1556.46
439.70	1643.06
439.89	1600.93
440.08	1650.08
440.26	1526.03
440.45	1568.16
440.63	1600.93
440.82	1565.82
441.01	1610.29
441.19	1598.59
441.38	1582.20
441.57	1631.35
441.75	1736.68
441.94	1753.06
442.12	1584.54
442.31	1720.29
442.50	1746.04
442.68	1844.34
442.87	1654.76
443.05	1771.79
443.24	1839.66
443.43	1792.85
443.61	1842.00
443.80	1846.68
443.98	1713.27
444.17	1673.48
444.35	1849.02
444.54	1762.42
444.73	1769.44
444.91	1825.62
445.10	1806.89
445.28	1781.15
445.47	1818.60
445.65	1792.85
445.84	1764.76
446.02	1785.83
446.21	1755.40
446.39	1837.32
446.58	1858.39
446.77	1937.96
446.95	1837.32
447.14	1849.02
447.32	1926.26
447.51	1842.00
447.69	1909.88
447.88	1832.64
448.06	1837.32
448.25	1834.98
448.43	1849.02
448.62	1776.47
448.80	1792.85
448.99	1916.90
449.17	1832.64
449.36	1825.62
449.54	1975.41
449.73	1919.24
449.91	1937.96
450.10	1994.14
450.28	1923.92
450.46	1853.70
450.65	1996.48
450.83	1956.69
451.02	1926.26
451.20	1970.73
451.39	1867.75
451.57	1982.43
451.76	1937.96
451.94	1942.64
452.13	2050.31
452.31	2017.54
452.49	2017.54
452.68	2038.61
452.86	2050.31
453.05	2136.91
453.23	2024.56
453.42	1956.69
453.60	1949.67
453.78	2022.22
453.97	2052.65
454.15	1956.69
454.34	2054.99
454.52	1942.64
454.70	2040.95
454.89	1944.99
455.07	2038.61
455.26	2040.95
455.44	2179.04
455.62	2101.80
455.81	2139.25
455.99	2289.04
456.17	2134.57
456.36	2120.53
456.54	2242.23
456.73	2256.28
456.91	2272.66
457.09	2181.38
457.28	2363.94
457.46	2122.87
457.64	2303.09
457.83	2244.57
458.01	2132.23
458.19	2279.68
458.38	2300.75
458.56	2307.77
458.74	2370.96
458.93	2363.94
459.11	2303.09
459.29	2317.13
459.48	2279.68
459.66	2289.04
459.84	2335.85
460.03	2422.45
460.21	2373.30
460.39	2324.15
460.57	2242.23
460.76	2392.03
460.94	2359.26
461.12	2415.43
461.31	2387.35
461.49	2333.51
461.67	2403.73
461.85	2523.10
462.04	2511.39
462.22	2953.76
462.40	2546.50
462.59	2478.63
462.77	2354.58
462.95	2541.82
463.13	2483.31
463.32	2413.09
463.50	2441.18
463.68	2441.18
463.86	2469.27
464.05	2417.77
464.23	2516.08
464.41	2513.74
464.59	2448.20
464.78	2530.12
464.96	2534.80
465.14	2590.97
465.32	2523.10
465.50	2546.50
465.69	2553.52
465.87	2523.10
466.05	2513.74
466.23	2583.95
466.41	2581.61
466.60	2658.85
466.78	2675.23
466.96	2607.36
467.14	2539.48
467.32	2703.32
467.51	2630.76
467.69	2560.55
467.87	2658.85
468.05	2640.12
468.23	2712.68
468.41	2745.45
468.60	2675.23
468.78	2700.98
468.96	2626.08
469.14	2682.25
469.32	2698.64
469.50	2658.85
469.69	2705.66
469.87	2719.70
470.05	2801.62
470.23	2801.62
470.41	2841.41
470.59	2761.83
470.77	2644.81
470.95	2775.88
471.14	2895.24
471.32	2787.58
471.50	2937.37
471.68	2850.77
471.86	2939.71
472.04	2820.35
472.22	2984.18
472.40	2841.41
472.58	2843.75
472.77	2878.86
472.95	2853.11
473.13	2974.82
473.31	3000.57
473.49	2972.48
473.67	2937.37
473.85	2970.14
474.03	3068.44
474.21	2991.20
474.39	3148.02
474.57	3103.55
474.75	2998.23
474.93	3143.34
475.12	3016.95
475.30	3108.23
475.48	3098.87
475.66	3211.22
475.84	3190.15
476.02	3288.45
476.20	3187.81
476.38	3265.05
476.56	3412.50
476.74	3377.39
476.92	3368.03
477.10	3267.39
477.28	3314.20
477.46	3353.99
477.64	3358.67
477.82	3548.25
478.00	3428.88
478.18	3459.31
478.36	3597.40
478.54	3588.04
478.72	3459.31
478.90	3674.64
479.08	3566.98
479.26	3538.89
479.44	3648.90
479.62	3733.15
479.80	3803.37
479.98	3744.86
480.16	3808.05
480.34	3761.24
480.52	3791.67
480.70	3871.25
480.88	3634.85
481.06	3641.87
481.24	3922.74
481.41	3948.48
481.59	3904.01
481.77	3934.44
481.95	3978.91
482.13	3990.61
482.31	3936.78
482.49	4121.68
482.67	4035.08
482.85	4161.47
483.03	4414.25
483.21	4367.44
483.39	4290.20
483.57	4315.95
483.74	4283.18
483.92	4376.80
484.10	4629.58
484.28	4550.00
484.46	4575.75
484.64	4580.43
484.82	4627.24
485.00	4540.64
485.18	4711.50
485.35	4791.08
485.53	4692.77
485.71	4620.22
485.89	4896.40
486.07	4816.82
486.25	4770.01
486.43	4812.14
486.61	4922.15
486.78	4795.76
486.96	5039.17
487.14	5158.54
487.32	5172.58
487.50	5116.41
487.68	5121.09
487.85	5078.96
488.03	5308.34
488.21	5320.04
488.39	5203.01
488.57	5287.27
488.75	5327.06
488.92	5626.65
489.10	5481.53
489.28	5624.31
489.46	5563.45
489.64	5434.72
489.81	5605.58
489.99	5748.36
490.17	5547.07
490.35	5729.63
490.53	5710.91
490.70	5736.65
490.88	5785.80
491.06	5825.59
491.24	5682.82
491.41	5944.96
491.59	5724.95
491.77	5893.47
491.95	5940.28
492.13	5973.05
492.30	5977.73
492.48	6026.88
492.66	6111.14
492.84	6038.58
493.01	6052.63
493.19	6284.34
493.37	6347.53
493.54	6293.70
493.72	6249.23
493.90	6200.08
494.08	6450.52
494.25	6473.92
494.43	6406.05
494.61	6513.71
494.79	6534.78
494.96	6473.92
495.14	6829.68
495.32	6670.53
495.49	6604.99
495.67	6817.98
495.85	6682.23
496.02	6707.98
496.20	6881.18
496.38	6871.81
496.55	6878.83
496.73	6909.26
496.91	6836.70
497.09	7016.93
497.26	6991.18
497.44	7108.21
497.62	7180.76
497.79	7009.90
497.97	7059.06
498.14	7119.91
498.32	7302.47
498.50	7169.06
498.67	7447.58
498.85	7258.00
499.03	7293.11
499.20	7456.95
499.38	7351.62
499.56	7316.51
499.73	7339.92
499.91	7433.54
500.08	7520.14
500.26	7639.51
500.44	7576.31
500.61	7632.49
500.79	7562.27
500.97	7719.09
501.14	7641.85
501.32	7529.50
501.49	7676.96
501.67	7775.26
501.84	7749.51
502.02	7770.58
502.20	7927.39
502.37	7864.20
502.55	7882.92
502.72	7798.66
502.90	7765.90
503.07	7770.58
503.25	7948.46
503.43	7936.76
503.60	8095.91
503.78	8046.76
503.95	8093.57
504.13	8156.77
504.30	8107.62
504.48	8259.75
504.65	8255.07
504.83	8315.92
505.01	8304.22
505.18	8191.88
505.36	8341.67
505.53	8367.42
505.71	8294.86
505.88	8358.05
506.06	8329.97
506.23	8472.74
506.41	8273.79
506.58	8421.25
506.76	8500.83
506.93	8390.82
507.11	8278.47
507.28	8437.63
507.46	8432.95
507.63	8498.49
507.81	8622.53
507.98	8542.96
508.16	8524.23
508.33	8624.87
508.50	8542.96
508.68	8678.71
508.85	8849.57
509.03	8950.21
509.20	8730.20
509.38	8945.53
509.55	8894.04
509.73	8926.80
509.90	8821.48
510.08	8922.12
510.25	9006.38
510.42	8875.31
510.60	9060.21
510.77	9179.58
510.95	9118.73
511.12	9088.30
511.30	9055.53
511.47	9217.03
511.64	9294.27
511.82	9284.91
511.99	9055.53
512.17	9399.59
512.34	9214.69
512.51	9263.84
512.69	9195.96
512.86	9488.53
513.04	9458.10
513.21	9493.21
513.38	9518.96
513.56	9483.85
513.73	9364.48
513.90	9441.72
514.08	9462.79
514.25	9610.24
514.43	9678.12
514.60	9701.52
514.77	9635.99
514.95	9589.17
515.12	9778.76
515.29	9769.40
515.47	9692.16
515.64	9863.02
515.81	9846.63
515.99	9846.63
516.16	9966.00
516.33	9961.32
516.51	10010.47
516.68	9921.53
516.85	9973.02
517.03	9944.94
517.20	10017.49
517.37	9989.41
517.54	10171.97
517.72	10029.20
517.89	10026.86
518.06	10211.76
518.24	10078.35
518.41	10284.31
518.58	10174.31
518.75	10061.96
518.93	10174.31
519.10	10043.24
519.27	10057.28
519.45	10246.87
519.62	10286.65
519.79	10162.61
519.96	10391.98
520.14	10443.47
520.31	10359.21
520.48	10525.39
520.65	10490.28
520.83	10347.51
521.00	10384.96
521.17	10391.98
521.34	10431.77
521.52	10487.94
521.69	10719.65
521.86	10637.73
522.03	10778.17
522.20	10462.19
522.38	10544.11
522.55	10520.71
522.72	10689.23
522.89	10747.74
523.07	10703.27
523.24	10630.71
523.41	10911.58
523.58	10712.63
523.75	10813.28
523.92	10640.08
524.10	10848.38
524.27	10593.26
524.44	10820.30
524.61	11222.87
524.78	10904.56
524.96	11035.63
525.13	10963.07
525.30	11084.78
525.47	11002.86
525.64	10738.38
525.81	11061.37
525.98	11335.21
526.16	11047.33
526.33	10956.05
526.50	11213.51
526.67	11232.23
526.84	11014.56
527.01	11019.24
527.18	11325.85
527.36	11037.97
527.53	11321.17
527.70	11288.40
527.87	11208.83
528.04	11414.79
528.21	11269.68
528.38	11307.13
528.55	11260.32
528.72	11623.10
528.89	11370.32
529.07	11363.30
529.24	11459.26
529.41	11489.69
529.58	11559.91
529.75	11590.33
529.92	11606.72
530.09	11363.30
530.26	11698.00
530.43	11573.95
530.60	11552.88
530.77	11606.72
530.94	11716.72
531.11	11679.27
531.28	11454.58
531.46	11667.57
531.63	11623.10
531.80	11620.76
531.97	11707.36
532.14	11712.04
532.31	11669.91
532.48	11749.49
532.65	11899.28
532.82	11789.28
532.99	11812.68
533.16	11756.51
533.33	11822.05
533.50	12032.69
533.67	11946.09
533.84	11824.39
534.01	11772.89
534.18	11669.91
534.35	12002.27
534.52	12002.27
534.69	11995.25
534.86	12114.61
535.03	11707.36
535.20	11985.88
535.37	11896.94
535.54	12004.61
535.71	11719.06
535.88	11946.09
536.05	12128.66
536.22	11913.33
536.38	12245.68
536.55	12112.27
536.72	12311.22
536.89	12006.95
537.06	12320.58
537.23	12360.37
537.40	12166.10
537.57	12231.64
537.74	12276.11
537.91	12482.08
538.08	12599.10
538.25	12376.75
538.42	12353.35
538.59	12559.31
538.75	12351.01
538.92	12390.80
539.09	12456.33
539.26	12423.56
539.43	12697.41
539.60	12538.25
539.77	12795.71
539.94	12744.22
540.11	12716.13
540.28	12725.49
540.44	12676.34
540.61	12896.35
540.78	12814.43
540.95	12999.34
541.12	12940.82
541.29	13039.12
541.46	13256.79
541.62	13151.47
541.79	12992.31
541.96	13013.38
542.13	12826.14
542.30	13107.00
542.47	13125.72
542.63	13256.79
542.80	13193.60
542.97	13331.69
543.14	13301.26
543.31	13214.66
543.48	13296.58
543.64	13397.23
543.81	13193.60
543.98	13315.31
544.15	13383.18
544.32	13366.80
544.48	13322.33
544.65	13071.89
544.82	13067.21
544.99	13364.46
545.16	13397.23
545.32	13376.16
545.49	13600.85
545.66	14394.29
545.83	14204.71
546.00	14300.67
546.16	13951.93
546.33	13425.31
546.50	13469.78
546.67	13322.33
546.83	13104.66
547.00	13064.87
547.17	13359.78
547.34	13488.51
547.50	13233.39
547.67	13469.78
547.84	13039.12
548.00	13195.94
548.17	13422.97
548.34	13298.92
548.51	13532.98
548.67	13324.67
548.84	13357.44
549.01	13413.61
549.18	13385.52
549.34	13664.05
549.51	13245.09
549.68	13336.37
549.84	13327.01
550.01	13331.69
550.18	13544.68
550.34	13425.31
550.51	13458.08
550.68	13413.61
550.84	13275.52
551.01	13334.03
551.18	13186.58
551.34	13458.08
551.51	13380.84
551.68	13504.89
551.84	13507.23
552.01	13385.52
552.18	13568.09
552.34	13425.31
552.51	13432.33
552.68	13383.18
552.84	13530.64
553.01	13537.66
553.18	13544.68
553.34	13310.63
553.51	13465.10
553.67	13582.13
553.84	13743.63
554.01	13755.33
554.17	13310.63
554.34	13577.45
554.51	13366.80
554.67	13743.63
554.84	13554.04
555.00	13551.70
555.17	13642.98
555.33	13364.46
555.50	13685.11
555.67	13507.23
555.83	13509.57
556.00	13575.11
556.16	13687.45
556.33	13745.97
556.50	13610.22
556.66	13865.33
556.83	13551.70
556.99	13792.78
557.16	13813.84
557.32	13547.02
557.49	13748.31
557.65	13635.96
557.82	13706.18
557.98	13387.86
558.15	13640.64
558.32	13884.06
558.48	13540.00
558.65	13701.50
558.81	13675.75
558.98	13886.40
559.14	13799.80
559.31	13671.07
559.47	13818.52
559.64	13776.39
559.80	13785.76
559.97	13682.77
560.13	13809.16
560.30	13701.50
560.46	13783.41
560.63	13680.43
560.79	13919.17
560.96	13678.09
561.12	13666.39
561.29	13696.82
561.45	13893.42
561.61	13855.97
561.78	13741.29
561.94	14015.13
562.11	13788.10
562.27	13647.66
562.44	13818.52
562.60	13958.96
562.77	14054.92
562.93	13846.61
563.10	13823.20
563.26	13792.78
563.42	13942.57
563.59	13659.37
563.75	13802.14
563.92	14111.09
564.08	13710.86
564.24	13870.01
564.41	13696.82
564.57	13860.65
564.74	13781.07
564.90	13795.12
565.07	13657.03
565.23	13949.59
565.39	13958.96
565.56	13991.72
565.72	13645.32
565.88	13874.70
566.05	13914.48
566.21	13797.46
566.38	13865.33
566.54	13933.21
566.70	14300.67
566.87	14085.34
567.03	13806.82
567.19	14155.56
567.36	13937.89
567.52	13802.14
567.68	13771.71
567.85	13771.71
568.01	13804.48
568.17	13706.18
568.34	14071.30
568.50	14106.41
568.66	13853.63
568.83	14225.78
568.99	13717.88
569.15	13797.46
569.32	13879.38
569.48	13614.90
569.64	13996.40
569.81	14033.85
569.97	13600.85
570.13	13926.19
570.30	13914.48
570.46	13989.38
570.62	14104.07
570.78	14075.98
570.95	13944.91
571.11	14298.33
571.27	14052.58
571.43	13668.73
571.60	13984.70
571.76	14036.19
571.92	14092.37
572.09	14052.58
572.25	14029.17
572.41	14010.45
572.57	14335.78
572.74	14036.19
572.90	13701.50
573.06	13769.37
573.22	14185.99
573.38	14178.97
573.55	13956.61
573.71	13949.59
573.87	13659.37
574.03	13785.76
574.20	14354.51
574.36	13947.25
574.52	14038.53
574.68	14029.17
574.84	14113.43
575.01	13933.21
575.17	14090.02
575.33	14052.58
575.49	14193.01
575.65	14398.98
575.82	14209.39
575.98	14139.18
576.14	14068.96
576.30	14118.11
576.46	14118.11
576.62	14122.79
576.79	14434.08
576.95	14340.46
577.11	14221.10
577.27	14026.83
577.43	14022.15
577.59	13977.68
577.75	13879.38
577.92	13982.36
578.08	13884.06
578.24	14001.08
578.40	13867.67
578.56	14331.10
578.72	14368.55
578.88	14370.89
579.04	14391.95
579.21	14455.15
579.37	14136.84
579.53	14139.18
579.69	13921.51
579.85	13951.93
580.01	14347.48
580.17	13947.25
580.33	14092.37
580.49	14218.75
580.65	14171.94
580.82	14544.09
580.98	14036.19
581.14	14115.77
581.30	14185.99
581.46	14235.14
581.62	14349.82
581.78	13682.77
581.94	14169.60
582.10	14218.75
582.26	14298.33
582.42	14061.94
582.58	14352.16
582.74	14291.31
582.90	14326.42
583.06	14232.80
583.22	14043.21
583.38	14345.14
583.54	14064.28
583.70	14258.54
583.86	14363.87
584.02	13858.31
584.18	14387.27
584.34	14059.60
584.50	14183.65
584.66	14263.22
584.82	14181.31
584.98	14047.90
585.14	14211.73
585.30	14090.02
585.46	14516.00
585.62	14256.20
585.78	14565.15
585.94	14118.11
586.10	14185.99
586.26	14221.10
586.42	14361.53
586.58	14328.76
586.74	14438.76
586.90	14057.26
587.06	14277.27
587.22	14099.39
587.38	14246.84
587.54	14244.50
587.70	14047.90
587.86	14143.86
588.02	14225.78
588.18	14452.81
588.34	14462.17
588.49	14139.18
588.65	14328.76
588.81	14246.84
588.97	14307.69
589.13	14015.13
589.29	14382.59
589.45	14157.90
589.61	14239.82
589.77	14342.80
589.93	14448.13
590.08	14331.10
590.24	14185.99
590.40	14272.59
590.56	14445.79
590.72	14312.38
590.88	14005.77
591.04	14441.11
591.20	14448.13
591.35	14218.75
591.51	14277.27
591.67	14438.76
591.83	14277.27
591.99	14380.25
592.15	14455.15
592.31	14380.25
592.46	14256.20
592.62	14239.82
592.78	14434.08
592.94	14593.24
593.10	14398.98
593.26	14464.51
593.41	14356.85
593.57	14593.24
593.73	14342.80
593.89	14555.79
594.05	14511.32
594.20	14026.83
594.36	14207.05
