SpectraSuite Data File
++++++++++++++++++++++++++++++++++++
Date: Fri Oct 04 11:40:02 GMT-05:00 2013
User: price-jones
Dark Spectrum Present: No
Reference Spectrum Present: No
Number of Sampled Component Spectra: 1
Spectrometers: USB2+H05261
Integration Time (usec): 100000 (USB2+H05261)
Spectra Averaged: 1 (USB2+H05261)
Boxcar Smoothing: 0 (USB2+H05261)
Correct for Electrical Dark: No (USB2+H05261)
Strobe/Lamp Enabled: No (USB2+H05261)
Correct for Detector Non-linearity: No (USB2+H05261)
Correct for Stray Light: No (USB2+H05261)
Number of Pixels in Processed Spectrum: 2048
>>>>>Begin Processed Spectral Data<<<<<
365.73	49.15
365.92	49.15
366.12	49.15
366.32	0.00
366.52	0.00
366.72	2.34
366.91	0.00
367.11	0.00
367.31	0.00
367.51	0.00
367.70	0.00
367.90	0.00
368.10	0.00
368.30	0.00
368.49	0.00
368.69	0.00
368.89	0.00
369.09	0.00
369.28	42.13
369.48	0.00
369.68	0.00
369.87	0.00
370.07	0.00
370.27	79.58
370.47	114.69
370.66	58.51
370.86	79.58
371.06	196.60
371.25	140.43
371.45	184.90
371.65	110.01
371.84	131.07
372.04	145.11
372.24	121.71
372.44	133.41
372.63	119.37
372.83	161.50
373.03	140.43
373.22	138.09
373.42	182.56
373.62	220.01
373.81	205.97
374.01	201.29
374.21	264.48
374.40	72.56
374.60	227.03
374.79	154.48
374.99	198.95
375.19	212.99
375.38	128.73
375.58	196.60
375.78	201.29
375.97	252.78
376.17	276.18
376.37	156.82
376.56	161.50
376.76	154.48
376.95	191.92
377.15	191.92
377.35	217.67
377.54	182.56
377.74	201.29
377.93	180.22
378.13	175.54
378.33	220.01
378.52	229.37
378.72	222.35
378.91	227.03
379.11	201.29
379.31	262.14
379.50	201.29
379.70	266.82
379.89	198.95
380.09	189.58
380.28	236.39
380.48	154.48
380.68	236.39
380.87	114.69
381.07	140.43
381.26	175.54
381.46	236.39
381.65	236.39
381.85	173.20
382.04	168.52
382.24	238.73
382.43	210.65
382.63	194.26
382.83	212.99
383.02	245.76
383.22	131.07
383.41	248.10
383.61	133.41
383.80	227.03
384.00	201.29
384.19	243.42
384.39	271.50
384.58	175.54
384.78	205.97
384.97	210.65
385.17	262.14
385.36	208.31
385.56	210.65
385.75	245.76
385.95	236.39
386.14	215.33
386.34	189.58
386.53	278.52
386.72	227.03
386.92	280.86
387.11	250.44
387.31	231.71
387.50	201.29
387.70	208.31
387.89	220.01
388.09	294.91
388.28	189.58
388.48	250.44
388.67	266.82
388.86	182.56
389.06	220.01
389.25	222.35
389.45	248.10
389.64	241.08
389.84	294.91
390.03	238.73
390.22	306.61
390.42	212.99
390.61	189.58
390.81	201.29
391.00	234.05
391.19	273.84
391.39	290.23
391.58	294.91
391.78	262.14
391.97	285.55
392.16	208.31
392.36	290.23
392.55	294.91
392.75	276.18
392.94	290.23
393.13	330.02
393.33	182.56
393.52	292.57
393.71	285.55
393.91	294.91
394.10	318.31
394.29	273.84
394.49	306.61
394.68	325.33
394.88	320.65
395.07	337.04
395.26	280.86
395.46	330.02
395.65	341.72
395.84	388.53
396.04	428.32
396.23	402.57
396.42	332.36
396.62	409.59
396.81	348.74
397.00	418.96
397.19	325.33
397.39	379.17
397.58	423.64
397.77	334.70
397.97	362.78
398.16	353.42
398.35	435.34
398.55	411.93
398.74	449.38
398.93	386.19
399.12	409.59
399.32	367.46
399.51	489.17
399.70	421.30
399.90	433.00
400.09	454.06
400.28	456.40
400.47	531.30
400.67	545.34
400.86	456.40
401.05	566.41
401.24	510.24
401.44	458.74
401.63	543.00
401.82	608.54
402.01	554.71
402.21	580.45
402.40	500.87
402.59	561.73
402.78	543.00
402.97	568.75
403.17	582.79
403.36	601.52
403.55	594.50
403.74	634.29
403.93	706.84
404.13	732.59
404.32	631.94
404.51	650.67
404.70	603.86
404.89	674.07
405.09	704.50
405.28	690.46
405.47	667.05
405.66	678.76
405.85	664.71
406.05	746.63
406.24	723.23
406.43	725.57
406.62	816.85
406.81	856.64
407.00	833.23
407.20	723.23
407.39	844.93
407.58	837.91
407.77	880.04
407.96	779.40
408.15	844.93
408.34	812.17
408.54	894.08
408.73	861.32
408.92	966.64
409.11	919.83
409.30	922.17
409.49	950.26
409.68	957.28
409.87	858.98
410.07	954.94
410.26	1036.86
410.45	924.51
410.64	1032.18
410.83	936.21
411.02	1074.31
411.21	976.00
411.40	1046.22
411.59	1086.01
411.78	1046.22
411.98	1139.84
412.17	1093.03
412.36	1142.18
412.55	1193.67
412.74	1163.25
412.93	1172.61
413.12	1184.31
413.31	1306.02
413.50	1284.95
413.69	1203.04
413.88	1334.11
414.07	1282.61
414.26	1500.28
414.45	1416.02
414.64	1376.24
414.83	1357.51
415.02	1320.06
415.22	1462.83
415.41	1504.96
415.60	1406.66
415.79	1516.67
415.98	1654.76
416.17	1540.07
416.36	1577.52
416.55	1507.30
416.74	1509.65
416.93	1556.46
417.12	1575.18
417.31	1652.42
417.50	1657.10
417.69	1657.10
417.88	1694.55
418.07	1607.95
418.26	1757.74
418.45	1778.81
418.64	1785.83
418.83	1790.51
419.02	1764.76
419.21	1760.08
419.39	1741.36
419.58	1732.00
419.77	1781.15
419.96	1844.34
420.15	1923.92
420.34	1837.32
420.53	1891.15
420.72	1804.55
420.91	1870.09
421.10	1879.45
421.29	1991.80
421.48	1895.83
421.67	1916.90
421.86	1907.54
422.05	1944.99
422.24	1933.28
422.43	1942.64
422.61	1980.09
422.80	1989.46
422.99	1963.71
423.18	2085.42
423.37	2101.80
423.56	2172.02
423.75	2031.58
423.94	1982.43
424.13	2010.52
424.32	1952.01
424.50	1935.62
424.69	2036.27
424.88	2080.74
425.07	2017.54
425.26	2097.12
425.45	2026.90
425.64	2047.97
425.83	2010.52
426.01	2087.76
426.20	2031.58
426.39	2085.42
426.58	2026.90
426.77	2132.23
426.96	2148.61
427.15	2066.69
427.33	2031.58
427.52	2143.93
427.71	2279.68
427.90	2188.40
428.09	2043.29
428.28	2312.45
428.46	2221.17
428.65	2141.59
428.84	2211.81
429.03	2214.15
429.22	2258.62
429.40	2223.51
429.59	2324.15
429.78	2228.19
429.97	2200.10
430.16	2115.84
430.34	2324.15
430.53	2403.73
430.72	2370.96
430.91	2354.58
431.10	2265.64
431.28	2370.96
431.47	2476.29
431.66	2471.61
431.85	2345.22
432.03	2422.45
432.22	2534.80
432.41	2438.84
432.60	2534.80
432.79	2413.09
432.97	2445.86
433.16	2459.90
433.35	2502.03
433.54	2495.01
433.72	2670.55
433.91	2656.51
434.10	2555.86
434.28	2595.65
434.47	2633.10
434.66	2562.89
434.85	2588.63
435.03	2719.70
435.22	2899.92
435.41	3016.95
435.59	3033.33
435.78	2939.71
435.97	2766.51
436.16	2689.28
436.34	2583.95
436.53	2700.98
436.72	2703.32
436.90	2616.72
437.09	2705.66
437.28	2895.24
437.46	2752.47
437.65	2626.08
437.84	2703.32
438.02	2825.03
438.21	2806.30
438.40	2841.41
438.58	2892.90
438.77	2979.50
438.96	2803.96
439.14	2832.05
439.33	2960.78
439.52	2942.05
439.70	2991.20
439.89	2970.14
440.08	2995.89
440.26	3012.27
440.45	3042.70
440.63	3077.80
440.82	3105.89
441.01	3251.00
441.19	3112.91
441.38	3236.96
441.57	3255.69
441.75	3339.94
441.94	3164.40
442.12	3248.66
442.31	3269.73
442.50	3400.80
442.68	3300.16
442.87	3307.18
443.05	3391.44
443.24	3431.23
443.43	3351.65
443.61	3515.48
443.80	3541.23
443.98	3377.39
444.17	3328.24
444.35	3412.50
444.54	3426.54
444.73	3513.14
444.91	3370.37
445.10	3332.92
445.28	3499.10
445.47	3449.95
445.65	3492.08
445.84	3375.05
446.02	3398.46
446.21	3538.89
446.39	3489.74
446.58	3583.36
446.77	3641.87
446.95	3499.10
447.14	3468.67
447.32	3499.10
447.51	3454.63
447.69	3538.89
447.88	3700.39
448.06	3569.32
448.25	3604.42
448.43	3520.17
448.62	3538.89
448.80	3576.34
448.99	3527.19
449.17	3616.13
449.36	3604.42
449.54	3646.55
449.73	3728.47
449.91	3672.30
450.10	3665.28
450.28	3801.03
450.46	3794.01
450.65	3768.26
450.83	3887.63
451.02	3590.38
451.20	3791.67
451.39	3896.99
451.57	3819.75
451.76	3854.86
451.94	3761.24
452.13	3880.61
452.31	3770.60
452.49	3857.20
452.68	3969.55
452.86	3955.51
453.05	3918.06
453.23	3913.38
453.42	3843.16
453.60	3929.76
453.78	3901.67
453.97	3927.42
454.15	3861.88
454.34	3864.22
454.52	4086.58
454.70	3992.95
454.89	4007.00
455.07	4004.66
455.26	4140.41
455.44	4074.87
455.62	4156.79
455.81	3955.51
455.99	4140.41
456.17	4147.43
456.36	4004.66
456.54	4243.39
456.73	4208.28
456.91	4344.03
457.09	4337.01
457.28	4266.80
457.46	4196.58
457.64	4301.90
457.83	4264.46
458.01	4264.46
458.19	4386.16
458.38	4140.41
458.56	4430.63
458.74	4416.59
458.93	4395.53
459.11	4561.70
459.29	4215.30
459.48	4435.32
459.66	4472.76
459.84	4463.40
460.03	4610.86
460.21	4447.02
460.39	4442.34
460.57	4568.73
460.76	4517.23
460.94	4638.94
461.12	4587.45
461.31	4617.88
461.49	4482.13
461.67	4620.22
461.85	4795.76
462.04	4652.98
462.22	5078.96
462.40	4716.18
462.59	4723.20
462.77	4683.41
462.95	4692.77
463.13	4807.46
463.32	4821.50
463.50	4800.44
463.68	4847.25
463.86	4671.71
464.05	4751.29
464.23	4821.50
464.41	4791.08
464.59	4781.71
464.78	4999.38
464.96	4896.40
465.14	4875.34
465.32	5036.83
465.50	5163.22
465.69	5022.79
465.87	4807.46
466.05	5041.51
466.23	5001.72
466.41	5018.11
466.60	5118.75
466.78	5025.13
466.96	4884.70
467.14	5041.51
467.32	5039.17
467.51	5069.60
467.69	5011.09
467.87	5217.05
468.05	5067.26
468.23	5060.24
468.41	5280.25
468.60	5121.09
468.78	5181.95
468.96	5090.67
469.14	5022.79
469.32	5270.89
469.50	5146.84
469.69	5228.76
469.87	5369.19
470.05	5385.57
470.23	5348.12
470.41	5359.83
470.59	5203.01
470.77	5472.17
470.95	5394.93
471.14	5465.15
471.32	5317.70
471.50	5617.29
471.68	5586.86
471.86	5575.16
472.04	5741.33
472.22	5598.56
472.40	5621.97
472.58	5664.10
472.77	5659.42
472.95	5825.59
473.13	5717.93
473.31	5675.80
473.49	5797.51
473.67	5818.57
473.85	5743.67
474.03	5893.47
474.21	5944.96
474.39	6010.50
474.57	6017.52
474.75	6036.24
474.93	5996.45
475.12	6033.90
475.30	6061.99
475.48	6099.44
475.66	5996.45
475.84	6057.31
476.02	6305.40
476.20	6125.18
476.38	6516.05
476.56	6436.47
476.74	6377.96
476.92	6565.20
477.10	6441.15
477.28	6579.25
477.46	6406.05
477.64	6504.35
477.82	6455.20
478.00	6927.99
478.18	7042.67
478.36	6829.68
478.54	6860.11
478.72	7075.44
478.90	6949.05
479.08	7152.68
479.26	7080.12
479.44	7028.63
479.62	7288.43
479.80	7201.83
479.98	7105.87
480.16	7529.50
480.34	7456.95
480.52	7353.96
480.70	7447.58
480.88	7531.84
481.06	7487.37
481.24	7665.25
481.41	7573.97
481.59	7810.37
481.77	7880.58
481.95	7747.17
482.13	7948.46
482.31	7941.44
482.49	8285.50
482.67	7934.42
482.85	8177.83
483.03	8297.20
483.21	8449.33
483.39	8416.57
483.57	8325.29
483.74	8554.66
483.92	8725.52
484.10	8404.86
484.28	8826.16
484.46	8755.94
484.64	8912.76
484.82	8793.39
485.00	8990.00
485.18	9013.40
485.35	9107.02
485.53	9095.32
485.71	9001.70
485.89	9202.99
486.07	9252.14
486.25	9483.85
486.43	9514.28
486.61	9603.22
486.78	9692.16
486.96	9797.48
487.14	9722.59
487.32	9867.70
487.50	9687.48
487.68	10003.45
487.85	10127.50
488.03	10270.27
488.21	10310.06
488.39	10244.52
488.57	10211.76
488.75	10471.56
488.92	10555.82
489.10	10382.62
489.28	10567.52
489.46	10750.08
489.64	10839.02
489.81	11061.37
489.99	10911.58
490.17	11080.10
490.35	11398.41
490.53	11318.83
490.70	11325.85
490.88	11241.59
491.06	11384.37
491.24	11365.64
491.41	11564.59
491.59	11702.68
491.77	11655.87
491.95	11674.59
492.13	11726.08
492.30	11899.28
492.48	12032.69
492.66	11887.58
492.84	11800.98
493.01	12039.72
493.19	11950.78
493.37	12205.89
493.54	12219.94
493.72	12358.03
493.90	12386.12
494.08	12404.84
494.25	12587.40
494.43	12692.73
494.61	12645.91
494.79	12823.80
494.96	12720.81
495.14	12844.86
495.32	12936.14
495.49	13177.22
495.67	12985.29
495.85	13355.10
496.02	13509.57
496.20	13619.58
496.38	13315.31
496.55	13231.05
496.73	13811.50
496.91	13628.94
497.09	13575.11
497.26	13973.00
497.44	13600.85
497.62	13640.64
497.79	13867.67
497.97	14375.57
498.14	14216.41
498.32	14373.23
498.50	14071.30
498.67	14370.89
498.85	14253.86
499.03	14340.46
499.20	14413.02
499.38	14471.53
499.56	14661.12
499.73	14679.84
499.91	14672.82
500.08	14892.83
500.26	14682.18
500.44	14925.60
500.61	15005.17
500.79	14778.14
500.97	14965.39
501.14	15066.03
501.32	15012.20
501.49	15328.17
501.67	15180.71
501.84	15250.93
502.02	15262.63
502.20	15449.88
502.37	15461.58
502.55	15384.34
502.72	15468.60
502.90	15360.94
503.07	15709.68
503.25	15468.60
503.43	15648.82
503.60	15908.62
503.78	15761.17
503.95	16004.58
504.13	15730.74
504.30	15908.62
504.48	16166.08
504.65	16168.42
504.83	16137.99
505.01	16379.07
505.18	16039.69
505.36	16236.30
505.53	16365.03
505.71	16720.79
505.88	16369.71
506.06	16458.65
506.23	16650.57
506.41	16514.82
506.58	16695.04
506.76	16613.12
506.93	16720.79
507.11	16779.30
507.28	16851.86
507.46	16795.68
507.63	16879.94
507.81	17289.54
507.98	17128.04
508.16	17123.36
508.33	17287.20
508.50	17095.27
508.68	17280.18
508.85	17614.87
509.03	17387.84
509.20	17514.23
509.38	17462.74
509.55	17797.43
509.73	17500.19
509.90	17720.20
510.08	17724.88
510.25	17799.77
510.42	17631.26
510.60	18071.28
510.77	18216.39
510.95	18295.97
511.12	18087.66
511.30	18125.11
511.47	18164.90
511.64	18340.44
511.82	18249.16
511.99	18342.78
512.17	18480.87
512.34	18298.31
512.51	18373.21
512.69	18286.61
512.86	18537.04
513.04	18759.39
513.21	18707.90
513.38	18654.07
513.56	19274.31
513.73	18869.40
513.90	18658.75
514.08	18761.73
514.25	18735.99
514.43	19332.82
514.60	19302.40
514.77	19173.67
514.95	19257.93
515.12	19012.17
515.29	18988.77
515.47	19398.36
515.64	19452.19
515.81	19321.12
515.99	19737.74
516.16	19932.00
516.33	19805.61
516.51	19775.19
516.68	19410.06
516.85	19557.52
517.03	19658.16
517.20	19707.31
517.37	19597.31
517.54	19810.29
517.72	19917.96
517.89	19875.83
518.06	19658.16
518.24	20020.94
518.41	20042.01
518.58	20154.35
518.75	20156.69
518.93	20379.04
519.10	20259.68
519.27	20470.33
519.45	20582.67
519.62	20163.72
519.79	20121.59
519.96	20414.15
520.14	20355.64
520.31	20638.84
520.48	20734.81
520.65	20460.96
520.83	20395.43
521.00	20720.76
521.17	20556.93
521.34	20884.60
521.52	20659.91
521.69	20982.90
521.86	21125.68
522.03	21242.70
522.20	21041.42
522.38	20826.09
522.55	20985.24
522.72	21177.17
522.89	20819.07
523.07	21397.18
523.24	21212.28
523.41	21270.79
523.58	21186.53
523.75	20971.20
523.92	21369.09
524.10	21537.61
524.27	21336.32
524.44	21507.18
524.61	21518.89
524.78	21722.51
524.96	21820.81
525.13	21748.26
525.30	21769.32
525.47	21764.64
525.64	21708.47
525.81	21860.60
525.98	22017.42
526.16	22178.92
526.33	22150.83
526.50	22295.94
526.67	21912.10
526.84	21970.61
527.01	22066.57
527.18	22263.18
527.36	22466.80
527.53	22569.79
527.70	22375.52
527.87	22359.14
528.04	22279.56
528.21	22476.16
528.38	22534.68
528.55	22225.73
528.72	22911.50
528.89	22651.70
529.07	22644.68
529.24	22443.40
529.41	22850.65
529.58	22686.81
529.75	22719.58
529.92	22588.51
530.09	22654.05
530.26	22761.71
530.43	22932.57
530.60	22485.53
530.77	22609.58
530.94	22661.07
531.11	22904.48
531.28	22843.63
531.46	23173.64
531.63	23180.67
531.80	23257.90
531.97	22860.01
532.14	23290.67
532.31	23208.75
532.48	23278.97
532.65	23374.93
532.82	23206.41
532.99	23183.01
533.16	23484.94
533.33	23578.56
533.50	23651.11
533.67	23665.16
533.84	23161.94
534.01	23056.62
534.18	23342.16
534.35	23339.82
534.52	23487.28
534.69	23791.55
534.86	24056.03
535.03	23634.73
535.20	23859.42
535.37	23817.29
535.54	23915.59
535.71	23681.54
535.88	23606.64
536.05	23613.66
536.22	23871.12
536.38	23861.76
536.55	23922.62
536.72	23793.89
536.89	23625.37
537.06	23859.42
537.23	23791.55
537.40	24140.29
537.57	23740.05
537.74	24245.61
537.91	24404.77
538.08	24526.47
538.25	24114.54
538.42	24320.51
538.59	24589.67
538.75	24222.20
538.92	24292.42
539.09	24414.13
539.26	24926.71
539.43	24091.13
539.60	24671.59
539.77	24521.79
539.94	24702.01
540.11	24353.27
540.28	24903.30
540.44	25062.46
540.61	24982.88
540.78	24758.19
540.95	24730.10
541.12	24891.60
541.29	25228.63
541.46	25212.25
541.62	25170.12
541.79	25083.52
541.96	24992.24
542.13	25027.35
542.30	25223.95
542.47	25500.14
542.63	25425.24
542.80	25668.66
542.97	26047.82
543.14	25439.28
543.31	25586.74
543.48	25769.30
543.64	25795.04
543.81	26010.37
543.98	25544.61
544.15	25546.95
544.32	25823.13
544.48	25628.87
544.65	25490.77
544.82	25811.43
544.99	25465.03
545.16	25837.17
545.32	25846.54
545.49	26281.88
545.66	26986.38
545.83	26625.93
546.00	26911.48
546.16	26164.85
546.33	25748.23
546.50	25502.48
546.67	25827.81
546.83	25685.04
547.00	25975.27
547.17	25682.70
547.34	25727.17
547.50	25989.31
547.67	26043.14
547.84	26087.61
548.00	25963.56
548.17	25851.22
548.34	26368.48
548.51	26469.12
548.67	26164.85
548.84	26101.65
549.01	25933.14
549.18	26012.71
549.34	26167.19
549.51	26178.89
549.68	26199.96
549.84	25706.10
550.01	26118.04
550.18	26204.64
550.34	25755.26
550.51	26394.22
550.68	26422.31
550.84	25933.14
551.01	25914.41
551.18	26087.61
551.34	26103.99
551.51	26298.26
551.68	26288.90
551.84	26129.74
552.01	26218.68
552.18	26691.47
552.34	26047.82
552.51	26600.19
552.68	26045.48
552.84	26321.66
553.01	26232.72
553.18	26572.10
553.34	26457.42
553.51	26415.29
553.67	26553.38
553.84	26424.65
554.01	26668.06
554.17	26366.13
554.34	26370.82
554.51	26565.08
554.67	26452.73
554.84	26431.67
555.00	26644.66
555.17	26752.32
555.33	26473.80
555.50	26375.50
555.67	26647.00
555.83	26445.71
556.00	26532.31
556.16	27065.96
556.33	26630.62
556.50	26347.41
556.66	26703.17
556.83	26714.87
556.99	27332.78
557.16	27143.19
557.32	26855.31
557.49	26913.82
557.65	26431.67
557.82	26375.50
557.98	26988.72
558.15	26831.90
558.32	27171.28
558.48	26988.72
558.65	26700.83
558.81	26941.91
558.98	26984.04
559.14	26892.76
559.31	26916.16
559.47	26621.25
559.64	26705.51
559.80	26501.89
559.97	26822.54
560.13	26742.96
560.30	27005.10
560.46	27028.51
560.63	27005.10
560.79	27260.22
560.96	27023.83
561.12	27005.10
561.29	26768.71
561.45	27297.67
561.61	27108.08
561.78	26867.01
561.94	26698.49
562.11	26991.06
562.27	27009.78
562.44	27026.17
562.60	26663.38
562.77	26998.08
562.93	26859.99
563.10	27236.81
563.26	27110.43
563.42	27307.03
563.59	26946.59
563.75	27140.85
563.92	27227.45
564.08	26923.18
564.24	27101.06
564.41	27028.51
564.57	27215.75
564.74	26925.52
564.90	27080.00
565.07	27154.90
565.23	26986.38
565.39	27197.02
565.56	27182.98
565.72	27197.02
565.88	26757.00
566.05	26918.50
566.21	27138.51
566.38	27030.85
566.54	27030.85
566.70	27063.61
566.87	27576.19
567.03	27257.88
567.19	27201.71
567.36	27391.29
567.52	27138.51
567.68	27061.27
567.85	27267.24
568.01	27082.34
568.17	27292.99
568.34	27164.26
568.50	27257.88
568.66	27194.68
568.83	27269.58
568.99	27145.53
569.15	27037.87
569.32	26930.20
569.48	27077.66
569.64	27222.77
569.81	27211.07
569.97	27391.29
570.13	27468.53
570.30	27620.66
570.46	27346.82
570.62	27300.01
570.78	27473.21
570.95	27187.66
571.11	27433.42
571.27	27002.76
571.43	27243.84
571.60	27391.29
571.76	27545.76
571.92	27615.98
572.09	27576.19
572.25	27122.13
572.41	27555.13
572.57	27154.90
572.74	27669.81
572.90	27159.58
573.06	27220.43
573.22	27648.75
573.38	27290.65
573.55	27309.37
573.71	27784.50
573.87	27648.75
574.03	27175.96
574.20	27393.63
574.36	27456.82
574.52	27393.63
574.68	27351.50
574.84	27227.45
575.01	27360.86
575.17	27583.21
575.33	27735.35
575.49	27405.33
575.65	27737.69
575.82	27239.15
575.98	27440.44
576.14	27630.02
576.30	27335.12
576.46	27449.80
576.62	27859.40
576.79	27868.76
576.95	27398.31
577.11	27513.00
577.27	27520.02
577.43	27728.33
577.59	27388.95
577.75	27330.44
577.92	27513.00
578.08	27199.37
578.24	27180.64
578.40	27346.82
578.56	27552.79
578.72	27564.49
578.88	28184.73
579.04	28144.94
579.21	27475.55
579.37	27475.55
579.53	27484.91
579.69	27192.34
579.85	27316.39
580.01	27740.03
580.17	27587.89
580.33	27681.52
580.49	27552.79
580.65	27454.48
580.82	27789.18
580.98	27576.19
581.14	27131.49
581.30	27590.24
581.46	27241.50
581.62	27206.39
581.78	27281.28
581.94	27480.23
582.10	27400.65
582.26	27676.83
582.42	27576.19
582.58	27711.94
582.74	27955.36
582.90	27882.80
583.06	27672.15
583.22	27782.16
583.38	27665.13
583.54	27742.37
583.70	27140.85
583.86	27597.26
584.02	27377.25
584.18	27501.29
584.34	27545.76
584.50	27950.68
584.66	27763.43
584.82	27377.25
584.98	27304.69
585.14	27573.85
585.30	27363.20
585.46	27395.97
585.62	27463.85
585.78	27456.82
585.94	27625.34
586.10	27637.05
586.26	27824.29
586.42	27873.44
586.58	27648.75
586.74	27328.10
586.90	27243.84
587.06	27433.42
587.22	27756.41
587.38	27810.25
587.54	27723.65
587.70	27922.59
587.86	27814.93
588.02	27721.30
588.18	27889.82
588.34	27627.68
588.49	27772.80
588.65	27850.03
588.81	27562.15
588.97	27466.19
589.13	27227.45
589.29	27775.14
589.45	27735.35
589.61	27887.48
589.77	27840.67
589.93	27828.97
590.08	27887.48
590.24	27531.72
590.40	27524.70
590.56	28002.17
590.72	27761.09
590.88	27737.69
591.04	27559.81
591.20	27845.35
591.35	27896.85
591.51	28278.35
591.67	27908.55
591.83	27840.67
591.99	28339.21
592.15	27983.44
