SpectraSuite Data File
++++++++++++++++++++++++++++++++++++
Date: Fri Oct 04 11:39:21 GMT-05:00 2013
User: price-jones
Dark Spectrum Present: No
Reference Spectrum Present: No
Number of Sampled Component Spectra: 1
Spectrometers: USB2+H05261
Integration Time (usec): 100000 (USB2+H05261)
Spectra Averaged: 1 (USB2+H05261)
Boxcar Smoothing: 0 (USB2+H05261)
Correct for Electrical Dark: No (USB2+H05261)
Strobe/Lamp Enabled: No (USB2+H05261)
Correct for Detector Non-linearity: No (USB2+H05261)
Correct for Stray Light: No (USB2+H05261)
Number of Pixels in Processed Spectrum: 2048
>>>>>Begin Processed Spectral Data<<<<<
365.73	128.73
365.92	128.73
366.12	128.73
366.32	0.00
366.52	0.00
366.72	42.13
366.91	0.00
367.11	0.00
367.31	30.43
367.51	0.00
367.70	0.00
367.90	0.00
368.10	0.00
368.30	0.00
368.49	0.00
368.69	0.00
368.89	0.00
369.09	0.00
369.28	0.00
369.48	9.36
369.68	32.77
369.87	16.38
370.07	0.00
370.27	84.26
370.47	98.30
370.66	299.59
370.86	285.55
371.06	236.39
371.25	318.31
371.45	205.97
371.65	238.73
371.84	313.63
372.04	229.37
372.24	262.14
372.44	259.80
372.63	315.97
372.83	341.72
373.03	241.08
373.22	283.20
373.42	285.55
373.62	311.29
373.81	351.08
374.01	407.25
374.21	318.31
374.40	386.19
374.60	360.44
374.79	367.46
374.99	320.65
375.19	362.78
375.38	372.15
375.58	346.40
375.78	437.68
375.97	386.19
376.17	484.49
376.37	383.85
376.56	407.25
376.76	334.70
376.95	362.78
377.15	435.34
377.35	386.19
377.54	404.91
377.74	442.36
377.93	402.57
378.13	409.59
378.33	397.89
378.52	486.83
378.72	386.19
378.91	372.15
379.11	322.99
379.31	388.53
379.50	397.89
379.70	421.30
379.89	421.30
380.09	379.17
380.28	423.64
380.48	320.65
380.68	360.44
380.87	435.34
381.07	482.15
381.26	402.57
381.46	414.27
381.65	337.04
381.85	437.68
382.04	475.13
382.24	482.15
382.43	440.02
382.63	421.30
382.83	482.15
383.02	482.15
383.22	493.85
383.41	533.64
383.61	472.79
383.80	468.11
384.00	538.32
384.19	585.13
384.39	510.24
384.58	550.03
384.78	465.77
384.97	559.39
385.17	423.64
385.36	463.43
385.56	491.51
385.75	517.26
385.95	500.87
386.14	428.32
386.34	545.34
386.53	559.39
386.72	503.22
386.92	533.64
387.11	503.22
387.31	540.66
387.50	538.32
387.70	514.92
387.89	554.71
388.09	566.41
388.28	587.47
388.48	540.66
388.67	620.24
388.86	554.71
389.06	505.56
389.25	622.58
389.45	648.33
389.64	552.37
389.84	564.07
390.03	596.84
390.22	552.37
390.42	587.47
390.61	587.47
390.81	657.69
391.00	594.50
391.19	615.56
391.39	615.56
391.58	608.54
391.78	660.03
391.97	692.80
392.16	578.11
392.36	678.76
392.55	713.86
392.75	629.60
392.94	678.76
393.13	660.03
393.33	653.01
393.52	725.57
393.71	734.93
393.91	791.10
394.10	709.18
394.29	690.46
394.49	816.85
394.68	704.50
394.88	753.65
395.07	851.96
395.26	751.31
395.46	692.80
395.65	788.76
395.84	767.70
396.04	835.57
396.23	833.23
396.42	774.72
396.62	866.00
396.81	763.01
397.00	800.46
397.19	830.89
397.39	833.23
397.58	877.70
397.77	830.89
397.97	931.53
398.16	847.27
398.35	844.93
398.55	873.02
398.74	936.21
398.93	959.62
399.12	849.61
399.32	887.06
399.51	901.11
399.70	936.21
399.90	936.21
400.09	1032.18
400.28	968.98
400.47	1020.47
400.67	1022.81
400.86	912.81
401.05	945.58
401.24	1032.18
401.44	1057.92
401.63	1069.62
401.82	987.71
402.01	999.41
402.21	1043.88
402.40	1107.07
402.59	1114.10
402.78	1046.22
402.97	1088.35
403.17	1188.99
403.36	1245.16
403.55	1130.48
403.74	1158.57
403.93	1200.69
404.13	1207.72
404.32	1226.44
404.51	1177.29
404.70	1221.76
404.89	1226.44
405.09	1172.61
405.28	1212.40
405.47	1256.87
405.66	1306.02
405.85	1355.17
406.05	1247.51
406.24	1280.27
406.43	1317.72
406.62	1301.34
406.81	1430.07
407.00	1334.11
407.20	1371.55
407.39	1444.11
407.58	1446.45
407.77	1441.77
407.96	1472.20
408.15	1493.26
408.34	1474.54
408.54	1535.39
408.73	1516.67
408.92	1483.90
409.11	1579.86
409.30	1661.78
409.49	1568.16
409.68	1544.75
409.87	1619.65
410.07	1598.59
410.26	1596.25
410.45	1598.59
410.64	1610.29
410.83	1699.23
411.02	1610.29
411.21	1813.92
411.40	1806.89
411.59	1764.76
411.78	1727.32
411.98	1696.89
412.17	1804.55
412.36	1746.04
412.55	1799.87
412.74	1928.60
412.93	2047.97
413.12	1975.41
413.31	2106.48
413.50	1984.77
413.69	1940.30
413.88	2050.31
414.07	2097.12
414.26	2106.48
414.45	2207.13
414.64	2169.68
414.83	2153.29
415.02	2232.87
415.22	2237.55
415.41	2251.60
415.60	2284.36
415.79	2265.64
415.98	2263.30
416.17	2338.20
416.36	2305.43
416.55	2347.56
416.74	2495.01
416.93	2583.95
417.12	2464.58
417.31	2459.90
417.50	2410.75
417.69	2565.23
417.88	2553.52
418.07	2551.18
418.26	2516.08
418.45	2513.74
418.64	2569.91
418.83	2637.78
419.02	2619.06
419.21	2731.41
419.39	2682.25
419.58	2675.23
419.77	2785.24
419.96	2726.72
420.15	2867.16
420.34	2736.09
420.53	2782.90
420.72	2768.85
420.91	2867.16
421.10	2839.07
421.29	2942.05
421.48	2801.62
421.67	2977.16
421.86	2871.84
422.05	2925.67
422.24	2850.77
422.43	2920.99
422.61	2867.16
422.80	2937.37
422.99	3047.38
423.18	3112.91
423.37	3061.42
423.56	2888.22
423.75	2974.82
423.94	3000.57
424.13	2935.03
424.32	2857.79
424.50	3033.33
424.69	3094.19
424.88	3091.85
425.07	3047.38
425.26	3021.63
425.45	3005.25
425.64	3028.65
425.83	3070.78
426.01	3138.66
426.20	3112.91
426.39	3108.23
426.58	2993.55
426.77	3122.27
426.96	3222.92
427.15	3124.62
427.33	3098.87
427.52	3038.02
427.71	3251.00
427.90	3234.62
428.09	3192.49
428.28	3157.38
428.46	3328.24
428.65	3311.86
428.84	3300.16
429.03	3370.37
429.22	3248.66
429.40	3141.00
429.59	3382.07
429.78	3208.87
429.97	3229.94
430.16	3281.43
430.34	3449.95
430.53	3538.89
430.72	3440.59
430.91	3382.07
431.10	3417.18
431.28	3503.78
431.47	3482.72
431.66	3562.30
431.85	3595.06
432.03	3655.92
432.22	3684.00
432.41	3566.98
432.60	3625.49
432.79	3522.51
432.97	3676.98
433.16	3777.62
433.35	3737.84
433.54	3599.74
433.72	3651.24
433.91	3700.39
434.10	3871.25
434.28	3719.11
434.47	3782.31
434.66	3747.20
434.85	3967.21
435.03	3861.88
435.22	4102.96
435.41	4454.04
435.59	4470.42
435.78	4210.62
435.97	4086.58
436.16	4067.85
436.34	3864.22
436.53	3969.55
436.72	4011.68
436.90	3936.78
437.09	4093.60
437.28	3995.29
437.46	4058.49
437.65	4046.79
437.84	4177.86
438.02	4191.90
438.21	3988.27
438.40	4100.62
438.58	4208.28
438.77	4227.01
438.96	4177.86
439.14	4243.39
439.33	4421.27
439.52	4435.32
439.70	4297.22
439.89	4461.06
440.08	4500.85
440.26	4493.83
440.45	4667.03
440.63	4606.17
440.82	4697.46
441.01	4723.20
441.19	4711.50
441.38	4767.67
441.57	4861.29
441.75	4793.42
441.94	4814.48
442.12	4809.80
442.31	5027.47
442.50	4835.55
442.68	4880.02
442.87	4835.55
443.05	4835.55
443.24	5238.12
443.43	4936.19
443.61	5085.98
443.80	5100.03
443.98	5018.11
444.17	4861.29
444.35	5116.41
444.54	5165.56
444.73	5226.42
444.91	5128.11
445.10	5034.49
445.28	5294.29
445.47	4978.32
445.65	5156.20
445.84	5055.56
446.02	5277.91
446.21	5275.57
446.39	5156.20
446.58	5217.05
446.77	5067.26
446.95	4912.78
447.14	5294.29
447.32	5352.81
447.51	5219.39
447.69	5303.65
447.88	5315.36
448.06	5184.29
448.25	5149.18
448.43	5149.18
448.62	5226.42
448.80	5313.02
448.99	5214.71
449.17	5284.93
449.36	5509.62
449.54	5378.55
449.73	5542.39
449.91	5497.92
450.10	5481.53
450.28	5593.88
450.46	5666.44
450.65	5568.13
450.83	5523.66
451.02	5626.65
451.20	5523.66
451.39	5809.21
451.57	5654.73
451.76	5605.58
451.94	5652.39
452.13	5832.62
452.31	5689.84
452.49	5600.90
452.68	5586.86
452.86	5708.57
453.05	5764.74
453.23	5914.53
453.42	5675.80
453.60	5694.52
453.78	5870.06
453.97	5970.71
454.15	5820.91
454.34	5820.91
454.52	5867.72
454.70	5991.77
454.89	5980.07
455.07	5921.56
455.26	6120.50
455.44	6218.80
455.62	6087.73
455.81	5973.05
455.99	6167.31
456.17	6179.01
456.36	6169.65
456.54	6286.68
456.73	6246.89
456.91	6384.98
457.09	6511.37
457.28	6700.95
457.46	6415.41
457.64	6553.50
457.83	6387.32
458.01	6436.47
458.19	6530.09
458.38	6551.16
458.56	6616.69
458.74	6567.54
458.93	6527.75
459.11	6272.64
459.29	6534.78
459.48	6707.98
459.66	6600.31
459.84	6736.06
460.03	6848.41
460.21	6684.57
460.39	6745.42
460.57	6722.02
460.76	6825.00
460.94	6916.28
461.12	6794.58
461.31	6888.20
461.49	6925.65
461.67	6906.92
461.85	7052.03
462.04	7117.57
462.22	7496.74
462.40	6958.41
462.59	7012.24
462.77	7080.12
462.95	7066.08
463.13	7087.14
463.32	7033.31
463.50	7026.29
463.68	6979.48
463.86	7126.93
464.05	7054.37
464.23	7199.49
464.41	7157.36
464.59	7117.57
464.78	7222.89
464.96	7314.17
465.14	7131.61
465.32	7290.77
465.50	7466.31
465.69	7529.50
465.87	7435.88
466.05	7279.07
466.23	7269.70
466.41	7562.27
466.60	7730.79
466.78	7419.50
466.96	7566.95
467.14	7480.35
467.32	7667.60
467.51	7419.50
467.69	7428.86
467.87	7611.42
468.05	7695.68
468.23	7620.78
468.41	7545.89
468.60	7836.11
468.78	7786.96
468.96	7641.85
469.14	7796.32
469.32	7913.35
469.50	7833.77
469.69	7836.11
469.87	7868.88
470.05	8088.89
470.23	8112.30
470.41	7857.18
470.59	8006.97
470.77	8044.42
470.95	8084.21
471.14	8194.22
471.32	8023.36
471.50	8383.80
471.68	8035.06
471.86	8388.48
472.04	8355.71
472.22	8542.96
472.40	8521.89
472.58	8442.31
472.77	8475.08
472.95	8678.71
473.13	8648.28
473.31	8636.58
473.49	8519.55
473.67	8655.30
473.85	8683.39
474.03	9029.79
474.21	8784.03
474.39	9310.65
474.57	8947.87
474.75	8950.21
474.93	9146.81
475.12	9092.98
475.30	9390.23
475.48	9198.31
475.66	9188.94
475.84	9430.02
476.02	9355.12
476.20	9275.54
476.38	9476.83
476.56	9638.33
476.74	9783.44
476.92	9633.64
477.10	9628.96
477.28	9839.61
477.46	9568.11
477.64	9851.31
477.82	10122.82
478.00	10197.71
478.18	10029.20
478.36	10230.48
478.54	10197.71
478.72	10422.41
478.90	10422.41
479.08	10483.26
479.26	10796.89
479.44	10661.14
479.62	11023.92
479.80	11105.84
479.98	10846.04
480.16	11197.12
480.34	10988.82
480.52	11351.60
480.70	11262.66
480.88	11185.42
481.06	11164.36
481.24	11096.48
481.41	11517.78
481.59	11878.22
481.77	11857.15
481.95	11627.78
482.13	11946.09
482.31	12004.61
482.49	12081.85
482.67	12184.83
482.85	12428.24
483.03	12428.24
483.21	12531.23
483.39	12674.00
483.57	12636.55
483.74	12734.85
483.92	12826.14
484.10	12996.99
484.28	13291.90
484.46	13172.54
484.64	13523.62
484.82	13179.56
485.00	13579.79
485.18	13614.90
485.35	13893.42
485.53	13687.45
485.71	13757.67
485.89	14497.28
486.07	14075.98
486.25	14113.43
486.43	14195.35
486.61	14293.65
486.78	14553.45
486.96	14785.16
487.14	14789.85
487.32	14799.21
487.50	15110.50
487.68	15028.58
487.85	15377.32
488.03	15559.88
488.21	15871.17
488.39	15424.13
488.57	15765.85
488.75	15658.18
488.92	16224.59
489.10	16332.26
489.28	16149.70
489.46	16325.24
489.64	16491.41
489.81	16559.29
489.99	16800.37
490.17	16896.33
490.35	16966.54
490.53	16985.27
490.70	17259.11
490.88	17088.25
491.06	17364.43
491.24	17235.70
491.41	17378.48
491.59	17884.03
491.77	17500.19
491.95	17741.26
492.13	17987.02
492.30	17909.78
492.48	18047.87
492.66	18427.04
492.84	18363.84
493.01	18700.88
493.19	18487.89
493.37	18789.82
493.54	19105.79
493.72	19234.52
493.90	18712.58
494.08	19405.38
494.25	19473.26
494.43	19194.73
494.61	19880.51
494.79	19426.45
494.96	19646.46
495.14	19749.44
495.32	19758.80
495.49	19733.06
495.67	20112.22
495.85	20233.93
496.02	20269.04
496.20	20547.56
496.38	20416.49
496.55	20645.87
496.73	20835.45
496.91	20666.93
497.09	21261.43
497.26	21123.33
497.44	20964.18
497.62	21149.08
497.79	21348.03
497.97	21448.67
498.14	21996.35
498.32	21759.96
498.50	21474.42
498.67	21666.34
498.85	22246.79
499.03	22024.44
499.20	21989.33
499.38	22164.87
499.56	22522.98
499.73	22300.62
499.91	22757.03
500.08	22555.74
500.26	22689.15
500.44	22588.51
500.61	22544.04
500.79	22813.20
500.97	23115.13
501.14	23138.54
501.32	23452.17
501.49	23297.69
501.67	23604.30
501.84	23381.95
502.02	23431.10
502.20	23555.15
502.37	23658.14
502.55	23824.31
502.72	23889.85
502.90	23981.13
503.07	24056.03
503.25	24269.01
503.43	23920.28
503.60	24308.80
503.78	24271.36
503.95	24308.80
504.13	24283.06
504.30	24407.11
504.48	24491.37
504.65	24776.91
504.83	24840.11
505.01	24676.27
505.18	24863.51
505.36	25177.14
505.53	24926.71
505.71	25369.07
505.88	25109.27
506.06	25266.08
506.23	25266.08
506.41	25422.90
506.58	25277.79
506.76	25771.64
506.93	25539.93
507.11	25675.68
507.28	25954.20
507.46	25937.82
507.63	26214.00
507.81	26370.82
507.98	26190.59
508.16	26314.64
508.33	26206.98
508.50	25895.69
508.68	26703.17
508.85	26728.92
509.03	26536.99
509.20	26752.32
509.38	27211.07
509.55	26838.92
509.73	27044.89
509.90	26925.52
510.08	26841.26
510.25	27171.28
510.42	26944.25
510.60	27421.72
510.77	27480.23
510.95	27573.85
511.12	27365.54
511.30	27222.77
511.47	27983.44
511.64	28091.11
511.82	28027.92
511.99	27789.18
512.17	28414.10
512.34	27997.49
512.51	28318.14
512.69	27992.81
512.86	28189.41
513.04	28671.56
513.21	28765.18
513.38	28690.29
513.56	28938.38
513.73	28556.88
513.90	28615.39
514.08	28510.07
514.25	28741.78
514.43	28912.64
514.60	28968.81
514.77	29324.57
514.95	29153.71
515.12	28968.81
515.29	28982.85
515.47	29041.37
515.64	29287.12
515.81	29472.03
515.99	29778.64
516.16	29656.93
516.33	29895.66
516.51	30139.08
516.68	29610.12
516.85	29916.73
517.03	29748.21
517.20	30012.69
517.37	30206.95
517.54	30455.05
517.72	30300.58
517.89	30515.90
518.06	30132.06
518.24	29909.71
518.41	30064.18
518.58	30799.11
518.75	30412.92
518.93	31033.16
519.10	30817.83
519.27	30920.82
519.45	30665.70
519.62	30705.49
519.79	30909.11
519.96	30932.52
520.14	31585.53
520.31	31180.62
520.48	31021.46
520.65	31316.37
520.83	31487.23
521.00	31536.38
521.17	31548.08
521.34	31840.65
521.52	31782.13
521.69	31601.91
521.86	31920.23
522.03	32177.68
522.20	32088.74
522.38	32105.13
522.55	31676.81
522.72	32149.60
522.89	31821.92
523.07	32556.85
523.24	32458.55
523.41	32524.08
523.58	32458.55
523.75	32638.77
523.92	32451.53
524.10	32755.80
524.27	32465.57
524.44	32929.00
524.61	32884.53
524.78	32678.56
524.96	33141.99
525.13	33216.88
525.30	33244.97
525.47	33034.32
525.64	33813.72
525.81	33694.35
525.98	33769.25
526.16	33474.34
526.33	33479.02
526.50	33865.21
526.67	33359.66
526.84	33708.40
527.01	33364.34
527.18	33631.16
527.36	33703.71
527.53	34066.50
527.70	34213.95
527.87	34167.14
528.04	34038.41
528.21	33853.51
528.38	33715.42
528.55	34237.36
528.72	34094.58
528.89	34291.19
529.07	34539.29
529.24	34408.22
529.41	34314.59
529.58	34267.78
529.75	34558.01
529.92	34550.99
530.09	34579.07
530.26	34539.29
530.43	34623.54
530.60	34881.00
530.77	34930.16
530.94	34693.76
531.11	35105.70
531.28	34773.34
531.46	34700.78
531.63	35150.17
531.80	35070.59
531.97	35468.48
532.14	35861.69
532.31	35260.17
532.48	35592.53
532.65	35042.50
532.82	35232.08
532.99	35627.63
533.16	35220.38
533.33	35690.83
533.50	35637.00
533.67	35510.61
533.84	35721.26
534.01	35658.06
534.18	35391.24
534.35	35999.78
534.52	36093.40
534.69	36039.57
534.86	36077.02
535.03	35985.74
535.20	35978.72
535.37	36325.11
535.54	36332.14
535.71	36182.34
535.88	36187.02
536.05	36140.21
536.22	36556.83
536.38	36655.13
536.55	36580.23
536.72	37083.45
536.89	36727.69
537.06	36500.65
537.23	36891.52
537.40	36343.84
537.57	36596.62
537.74	36638.75
537.91	37244.94
538.08	36884.50
538.25	36980.46
538.42	37219.20
538.59	36996.85
538.75	36715.98
538.92	36870.46
539.09	37085.79
539.26	37188.77
539.43	37345.59
539.60	37368.99
539.77	37631.13
539.94	37567.94
540.11	37991.58
540.28	37462.61
540.44	38075.84
540.61	38132.01
540.78	37771.57
540.95	38045.41
541.12	37830.08
541.29	38349.68
541.46	38082.86
541.62	38309.89
541.79	38284.14
541.96	37909.66
542.13	37830.08
542.30	38464.36
542.47	38417.55
542.63	38349.68
542.80	38721.82
542.97	38754.59
543.14	39100.99
543.31	38092.22
543.48	38944.17
543.64	39428.66
543.81	39210.99
543.98	38948.85
544.15	39257.81
544.32	39189.93
544.48	39442.71
544.65	39129.08
544.82	38852.89
544.99	38747.57
545.16	39157.16
545.32	39058.86
545.49	39924.86
545.66	40561.48
545.83	40208.06
546.00	40582.55
546.16	40142.53
546.33	39391.22
546.50	39241.42
546.67	39519.95
546.83	39070.56
547.00	39505.90
547.17	39058.86
547.34	39714.21
547.50	39564.42
547.67	40037.20
547.84	39838.26
548.00	39742.30
548.17	39618.25
548.34	39777.40
548.51	40151.89
548.67	39627.61
548.84	39873.37
549.01	39374.83
549.18	39688.46
549.34	39784.43
549.51	40051.25
549.68	39592.50
549.84	40189.34
550.01	39784.43
550.18	40067.63
550.34	40224.45
550.51	40315.73
550.68	40617.66
550.84	40053.59
551.01	40383.60
551.18	39915.50
551.34	39618.25
551.51	40119.12
551.68	39892.09
551.84	40100.40
552.01	40128.48
552.18	40634.04
552.34	39999.76
552.51	40535.74
552.68	40395.31
552.84	40545.10
553.01	40594.25
553.18	40627.02
553.34	40547.44
553.51	40350.84
553.67	40552.12
553.84	41027.25
554.01	40643.40
554.17	40655.11
554.34	40765.11
554.51	40297.00
554.67	40992.14
554.84	40428.07
555.00	40285.30
555.17	40893.84
555.33	40914.90
555.50	41188.75
555.67	40942.99
555.83	40893.84
556.00	41301.09
556.16	41102.15
556.33	40804.90
556.50	40987.46
556.66	41050.66
556.83	41153.64
556.99	41453.23
557.16	41486.00
557.32	41361.95
557.49	41544.51
557.65	41120.87
557.82	40952.35
557.98	41333.86
558.15	41008.53
558.32	41366.63
558.48	41270.67
558.65	41457.91
558.81	41233.22
558.98	41572.60
559.14	41453.23
559.31	41258.96
559.47	41553.87
559.64	41258.96
559.80	41429.82
559.97	41668.56
560.13	41553.87
560.30	41780.90
560.46	41696.64
560.63	41460.25
560.79	41441.53
560.96	41577.28
561.12	41666.22
561.29	41525.78
561.45	41914.31
561.61	41539.83
561.78	41933.04
561.94	41722.39
562.11	42174.11
562.27	41539.83
562.44	41736.43
562.60	41654.51
562.77	41825.37
562.93	42155.39
563.10	42469.02
563.26	41904.95
563.42	42672.65
563.59	41947.08
563.75	42003.25
563.92	42253.69
564.08	41841.76
564.24	42202.20
564.41	41897.93
564.57	41914.31
564.74	42197.52
564.90	41982.19
565.07	41916.65
565.23	42305.18
565.39	41926.02
565.56	42080.49
565.72	42108.58
565.88	42309.86
566.05	42014.96
566.21	41780.90
566.38	42239.65
566.54	41844.10
566.70	42017.30
566.87	42618.81
567.03	42192.84
567.19	42609.45
567.36	41893.25
567.52	42567.32
567.68	42581.37
567.85	42153.05
568.01	42295.82
568.17	42155.39
568.34	41907.29
568.50	42464.34
568.66	42408.17
568.83	42286.46
568.99	42139.00
569.15	42459.66
569.32	42003.25
569.48	42155.39
569.64	42298.16
569.81	42216.24
569.97	42366.04
570.13	42623.50
570.30	41937.72
570.46	42522.85
570.62	42316.89
570.78	42302.84
570.95	41954.10
571.11	42525.19
571.27	42082.83
571.43	42075.81
571.60	42330.93
571.76	42153.05
571.92	42433.91
572.09	42356.67
572.25	42686.69
572.41	42462.00
572.57	42309.86
572.74	42223.26
572.90	42328.59
573.06	42684.35
573.22	42581.37
573.38	42459.66
573.55	42880.95
573.71	42939.47
573.87	42684.35
574.03	42857.55
574.20	42499.45
574.36	42560.30
574.52	42773.29
574.68	42197.52
574.84	42330.93
575.01	42483.06
575.17	42424.55
575.33	42520.51
575.49	42499.45
575.65	42511.15
575.82	42478.38
575.98	42691.37
576.14	42581.37
576.30	42637.54
576.46	42745.20
576.62	42696.05
576.79	42843.51
576.95	42740.52
577.11	43253.10
577.27	42955.85
577.43	42932.45
577.59	42749.88
577.75	42447.96
577.92	41979.85
578.08	42527.53
578.24	42195.18
578.40	42586.05
578.56	42595.41
578.72	43306.93
578.88	42983.94
579.04	43290.55
579.21	43082.24
579.37	43133.73
579.53	42822.44
579.69	42761.59
579.85	42555.62
580.01	42976.92
580.17	42150.71
580.33	42988.62
580.49	43096.28
580.65	42607.11
580.82	43133.73
580.98	42817.76
581.14	43112.67
581.30	42937.13
581.46	42780.31
581.62	42799.04
581.78	42841.17
581.94	43044.79
582.10	42911.38
582.26	43356.08
582.42	43435.66
582.58	43253.10
582.74	42902.02
582.90	43105.65
583.06	42815.42
583.22	42876.27
583.38	43077.56
583.54	43168.84
583.70	43086.92
583.86	42707.76
584.02	42759.25
584.18	43065.86
584.34	42806.06
584.50	43297.57
584.66	43213.31
584.82	42848.19
584.98	42843.51
585.14	42745.20
585.30	42375.40
585.46	43215.65
585.62	43042.45
585.78	42918.40
585.94	42904.36
586.10	43234.38
586.26	42911.38
586.42	43386.51
586.58	43192.25
586.74	42932.45
586.90	42649.24
587.06	42693.71
587.22	43089.26
587.38	43164.16
587.54	43026.07
587.70	43409.92
587.86	43040.11
588.02	43236.72
588.18	43325.66
588.34	42799.04
588.49	42855.21
588.65	42876.27
588.81	43049.47
588.97	43267.14
589.13	42890.32
589.29	42883.30
589.45	43138.41
589.61	43274.16
589.77	43470.77
589.93	43335.02
590.08	43587.80
590.24	43098.62
590.40	43318.64
590.56	43419.28
590.72	43445.02
590.88	42745.20
591.04	43122.03
