SpectraSuite Data File
++++++++++++++++++++++++++++++++++++
Date: Fri Oct 04 11:39:33 GMT-05:00 2013
User: price-jones
Dark Spectrum Present: No
Reference Spectrum Present: No
Number of Sampled Component Spectra: 1
Spectrometers: USB2+H05261
Integration Time (usec): 100000 (USB2+H05261)
Spectra Averaged: 1 (USB2+H05261)
Boxcar Smoothing: 0 (USB2+H05261)
Correct for Electrical Dark: No (USB2+H05261)
Strobe/Lamp Enabled: No (USB2+H05261)
Correct for Detector Non-linearity: No (USB2+H05261)
Correct for Stray Light: No (USB2+H05261)
Number of Pixels in Processed Spectrum: 2048
>>>>>Begin Processed Spectral Data<<<<<
365.73	67.88
365.92	67.88
366.12	67.88
366.32	25.75
366.52	0.00
366.72	0.00
366.91	0.00
367.11	0.00
367.31	0.00
367.51	0.00
367.70	0.00
367.90	0.00
368.10	0.00
368.30	0.00
368.49	0.00
368.69	0.00
368.89	0.00
369.09	0.00
369.28	70.22
369.48	0.00
369.68	11.70
369.87	0.00
370.07	0.00
370.27	0.00
370.47	0.00
370.66	170.86
370.86	168.52
371.06	196.60
371.25	238.73
371.45	173.20
371.65	191.92
371.84	184.90
372.04	163.84
372.24	163.84
372.44	152.13
372.63	177.88
372.83	252.78
373.03	212.99
373.22	241.08
373.42	224.69
373.62	175.54
373.81	227.03
374.01	196.60
374.21	236.39
374.40	287.89
374.60	227.03
374.79	217.67
374.99	266.82
375.19	203.63
375.38	180.22
375.58	173.20
375.78	182.56
375.97	234.05
376.17	191.92
376.37	234.05
376.56	217.67
376.76	212.99
376.95	163.84
377.15	269.16
377.35	243.42
377.54	215.33
377.74	220.01
377.93	252.78
378.13	208.31
378.33	203.63
378.52	220.01
378.72	220.01
378.91	224.69
379.11	203.63
379.31	231.71
379.50	224.69
379.70	215.33
379.89	196.60
380.09	264.48
380.28	264.48
380.48	231.71
380.68	217.67
380.87	234.05
381.07	264.48
381.26	283.20
381.46	229.37
381.65	269.16
381.85	252.78
382.04	248.10
382.24	304.27
382.43	259.80
382.63	271.50
382.83	341.72
383.02	245.76
383.22	273.84
383.41	194.26
383.61	236.39
383.80	276.18
384.00	210.65
384.19	252.78
384.39	236.39
384.58	304.27
384.78	276.18
384.97	285.55
385.17	255.12
385.36	325.33
385.56	217.67
385.75	262.14
385.95	259.80
386.14	339.38
386.34	220.01
386.53	283.20
386.72	313.63
386.92	416.62
387.11	283.20
387.31	290.23
387.50	292.57
387.70	287.89
387.89	290.23
388.09	299.59
388.28	294.91
388.48	250.44
388.67	353.42
388.86	245.76
389.06	315.97
389.25	306.61
389.45	360.44
389.64	287.89
389.84	475.13
390.03	381.51
390.22	308.95
390.42	337.04
390.61	322.99
390.81	400.23
391.00	369.80
391.19	315.97
391.39	411.93
391.58	355.76
391.78	322.99
391.97	348.74
392.16	386.19
392.36	379.17
392.55	372.15
392.75	386.19
392.94	332.36
393.13	374.49
393.33	397.89
393.52	393.21
393.71	507.90
393.91	374.49
394.10	428.32
394.29	437.68
394.49	458.74
394.68	477.47
394.88	451.72
395.07	374.49
395.26	414.27
395.46	430.66
395.65	442.36
395.84	451.72
396.04	521.94
396.23	496.19
396.42	447.04
396.62	463.43
396.81	482.15
397.00	442.36
397.19	414.27
397.39	472.79
397.58	517.26
397.77	552.37
397.97	573.43
398.16	519.60
398.35	500.87
398.55	430.66
398.74	524.28
398.93	638.97
399.12	482.15
399.32	526.62
399.51	596.84
399.70	538.32
399.90	585.13
400.09	603.86
400.28	550.03
400.47	594.50
400.67	582.79
400.86	592.16
401.05	538.32
401.24	547.69
401.44	636.63
401.63	585.13
401.82	685.78
402.01	587.47
402.21	683.44
402.40	669.39
402.59	667.05
402.78	641.31
402.97	748.97
403.17	697.48
403.36	744.29
403.55	706.84
403.74	727.91
403.93	805.14
404.13	847.27
404.32	861.32
404.51	798.12
404.70	887.06
404.89	816.85
405.09	791.10
405.28	835.57
405.47	805.14
405.66	837.91
405.85	905.79
406.05	922.17
406.24	966.64
406.43	954.94
406.62	964.30
406.81	1032.18
407.00	973.66
407.20	945.58
407.39	1029.84
407.58	1018.13
407.77	1036.86
407.96	1041.54
408.15	1032.18
408.34	1046.22
408.54	1041.54
408.73	1067.28
408.92	1116.44
409.11	1006.43
409.30	1200.69
409.49	1156.22
409.68	1139.84
409.87	1198.35
410.07	1191.33
410.26	1254.53
410.45	1170.27
410.64	1256.87
410.83	1287.29
411.02	1270.91
411.21	1299.00
411.40	1362.19
411.59	1345.81
411.78	1282.61
411.98	1397.30
412.17	1387.94
412.36	1376.24
412.55	1420.71
412.74	1544.75
412.93	1607.95
413.12	1537.73
413.31	1582.20
413.50	1591.56
413.69	1650.08
413.88	1577.52
414.07	1589.22
414.26	1631.35
414.45	1689.87
414.64	1699.23
414.83	1675.82
415.02	1650.08
415.22	1839.66
415.41	1743.70
415.60	1802.21
415.79	1830.30
415.98	1919.24
416.17	1834.98
416.36	1907.54
416.55	1879.45
416.74	1926.26
416.93	1905.20
417.12	1966.05
417.31	2052.65
417.50	1921.58
417.69	2071.37
417.88	2146.27
418.07	2104.14
418.26	1984.77
418.45	2094.78
418.64	2237.55
418.83	2174.36
419.02	2118.18
419.21	2265.64
419.39	2211.81
419.58	2153.29
419.77	2230.53
419.96	2342.88
420.15	2310.11
420.34	2174.36
420.53	2296.07
420.72	2377.98
420.91	2242.23
421.10	2331.17
421.29	2527.78
421.48	2347.56
421.67	2459.90
421.86	2244.57
422.05	2394.37
422.24	2511.39
422.43	2480.97
422.61	2504.37
422.80	2548.84
422.99	2546.50
423.18	2600.34
423.37	2546.50
423.56	2473.95
423.75	2469.27
423.94	2431.82
424.13	2279.68
424.32	2410.75
424.50	2548.84
424.69	2609.70
424.88	2572.25
425.07	2544.16
425.26	2469.27
425.45	2588.63
425.64	2466.92
425.83	2579.27
426.01	2530.12
426.20	2546.50
426.39	2562.89
426.58	2602.68
426.77	2537.14
426.96	2588.63
427.15	2708.00
427.33	2715.02
427.52	2593.31
427.71	2743.11
427.90	2630.76
428.09	2677.57
428.28	2768.85
428.46	2672.89
428.65	2839.07
428.84	2862.48
429.03	2899.92
429.22	2752.47
429.40	2892.90
429.59	2853.11
429.78	2848.43
429.97	2759.49
430.16	2670.55
430.34	2843.75
430.53	2972.48
430.72	2860.13
430.91	2925.67
431.10	2909.29
431.28	3038.02
431.47	2899.92
431.66	3068.44
431.85	3061.42
432.03	3136.32
432.22	3119.93
432.41	3026.31
432.60	3026.31
432.79	2993.55
432.97	3087.17
433.16	3173.77
433.35	3180.79
433.54	3040.36
433.72	3122.27
433.91	3122.27
434.10	3232.28
434.28	3346.97
434.47	3215.90
434.66	3274.41
434.85	3262.71
435.03	3337.60
435.22	3468.67
435.41	3747.20
435.59	3623.15
435.78	3522.51
435.97	3419.52
436.16	3414.84
436.34	3349.31
436.53	3344.63
436.72	3459.31
436.90	3283.77
437.09	3466.33
437.28	3403.14
437.46	3466.33
437.65	3651.24
437.84	3489.74
438.02	3510.80
438.21	3496.76
438.40	3550.59
438.58	3637.19
438.77	3510.80
438.96	3653.58
439.14	3712.09
439.33	3782.31
439.52	3669.96
439.70	3775.28
439.89	3770.60
440.08	3904.01
440.26	3796.35
440.45	3817.41
440.63	3829.12
440.82	3932.10
441.01	3978.91
441.19	3960.19
441.38	3974.23
441.57	4037.42
441.75	4117.00
441.94	4198.92
442.12	4039.76
442.31	4025.72
442.50	4119.34
442.68	4351.06
442.87	4241.05
443.05	4266.80
443.24	4285.52
443.43	4292.54
443.61	4351.06
443.80	4456.38
443.98	4140.41
444.17	4081.89
444.35	4273.82
444.54	4222.33
444.73	4318.29
444.91	4292.54
445.10	4472.76
445.28	4362.76
445.47	4292.54
445.65	4311.27
445.84	4318.29
446.02	4517.23
446.21	4161.47
446.39	4379.14
446.58	4369.78
446.77	4273.82
446.95	4374.46
447.14	4409.57
447.32	4397.87
447.51	4374.46
447.69	4491.49
447.88	4297.22
448.06	4475.10
448.25	4409.57
448.43	4550.00
448.62	4374.46
448.80	4512.55
448.99	4449.36
449.17	4526.60
449.36	4479.79
449.54	4594.47
449.73	4437.66
449.91	4592.13
450.10	4636.60
450.28	4723.20
450.46	4615.54
450.65	4746.61
450.83	4695.11
451.02	4557.02
451.20	4873.00
451.39	4805.12
451.57	4718.52
451.76	4781.71
451.94	4791.08
452.13	4912.78
452.31	4788.74
452.49	4774.69
452.68	4788.74
452.86	4873.00
453.05	4889.38
453.23	5034.49
453.42	4854.27
453.60	4910.44
453.78	4887.04
453.97	4826.18
454.15	4905.76
454.34	5018.11
454.52	4865.97
454.70	5123.43
454.89	5008.75
455.07	5027.47
455.26	4966.62
455.44	5102.37
455.62	5095.35
455.81	5205.35
455.99	5205.35
456.17	5137.48
456.36	5160.88
456.54	5413.66
456.73	5327.06
456.91	5399.62
457.09	5469.83
457.28	5420.68
457.46	5376.21
457.64	5490.90
457.83	5458.13
458.01	5231.10
458.19	5401.96
458.38	5404.30
458.56	5453.45
458.74	5518.98
458.93	5481.53
459.11	5661.76
459.29	5460.47
459.48	5509.62
459.66	5483.88
459.84	5657.07
460.03	5722.61
460.21	5502.60
460.39	5612.60
460.57	5614.95
460.76	5753.04
460.94	5816.23
461.12	5820.91
461.31	5856.02
461.49	5746.02
461.67	5837.30
461.85	6012.84
462.04	5797.51
462.22	6085.39
462.40	5942.62
462.59	5982.41
462.77	5996.45
462.95	5944.96
463.13	5844.32
463.32	6050.28
463.50	6066.67
463.68	6129.86
463.86	5891.13
464.05	5870.06
464.23	6136.88
464.41	6157.95
464.59	5959.00
464.78	6277.32
464.96	6061.99
465.14	6054.97
465.32	6195.40
465.50	6326.47
465.69	6321.79
465.87	6186.04
466.05	6314.77
466.23	6258.59
466.41	6263.27
466.60	6450.52
466.78	6310.08
466.96	6289.02
467.14	6239.87
467.32	6291.36
467.51	6450.52
467.69	6333.49
467.87	6239.87
468.05	6455.20
468.23	6438.81
468.41	6296.04
468.60	6413.07
468.78	6490.31
468.96	6396.68
469.14	6574.56
469.32	6424.77
469.50	6373.28
469.69	6712.66
469.87	6663.51
470.05	6743.08
470.23	6710.32
470.41	6808.62
470.59	6827.34
470.77	6829.68
470.95	6803.94
471.14	6930.33
471.32	6759.47
471.50	6932.67
471.68	6927.99
471.86	6937.35
472.04	6942.03
472.22	6951.39
472.40	7075.44
472.58	7148.00
472.77	7180.76
472.95	7180.76
473.13	7578.65
473.31	7365.67
473.49	7061.40
473.67	7321.20
473.85	7405.46
474.03	7475.67
474.21	7496.74
474.39	7260.34
474.57	7524.82
474.75	7616.10
474.93	7550.57
475.12	7733.13
475.30	7662.91
475.48	7702.70
475.66	7922.71
475.84	7749.51
476.02	7929.74
476.20	7702.70
476.38	8037.40
476.56	7889.95
476.74	8032.72
476.92	8100.59
477.10	8044.42
477.28	8170.81
477.46	7971.86
477.64	8425.93
477.82	8439.97
478.00	8376.78
478.18	8470.40
478.36	8613.17
478.54	8676.37
478.72	8706.79
478.90	8610.83
479.08	8826.16
479.26	8959.57
479.44	9015.74
479.62	9076.60
479.80	9001.70
479.98	9090.64
480.16	9041.49
480.34	9172.56
480.52	9413.63
480.70	9605.56
480.88	9226.39
481.06	9507.26
481.24	9308.31
481.41	9657.05
481.59	9848.97
481.77	9977.70
481.95	9905.15
482.13	9916.85
482.31	9879.40
482.49	10169.63
482.67	10178.99
482.85	10366.23
483.03	10387.30
483.21	10485.60
483.39	10719.65
483.57	10530.07
483.74	10544.11
483.92	10609.65
484.10	10733.70
484.28	10764.12
484.46	11147.97
484.64	11047.33
484.82	10991.16
485.00	11124.57
485.18	11510.75
485.35	11513.10
485.53	11580.97
485.71	11330.53
485.89	11775.24
486.07	11723.74
486.25	11782.26
486.43	11730.76
486.61	11910.99
486.78	12222.28
486.96	12121.63
487.14	12081.85
487.32	12334.62
487.50	12372.07
487.68	12500.80
487.85	12702.09
488.03	12994.65
488.21	12971.25
488.39	13013.38
488.57	12971.25
488.75	12996.99
488.92	13390.20
489.10	13511.91
489.28	13493.19
489.46	13303.60
489.64	13752.99
489.81	13893.42
489.99	13867.67
490.17	14040.87
490.35	13949.59
490.53	14153.22
490.70	14185.99
490.88	14319.40
491.06	14642.39
491.24	14586.22
491.41	14434.08
491.59	14738.35
491.77	14998.15
491.95	14817.93
492.13	14857.72
492.30	15021.56
492.48	15080.07
492.66	15150.29
492.84	15227.53
493.01	15449.88
493.19	15529.45
493.37	15524.77
493.54	15559.88
493.72	15817.34
493.90	15620.74
494.08	15803.30
494.25	15999.90
494.43	15943.73
494.61	16453.97
494.79	16145.02
494.96	16435.24
495.14	16666.95
495.32	16350.98
495.49	16617.80
495.67	16783.98
495.85	17053.14
496.02	17062.51
496.20	16933.78
496.38	16903.35
496.55	16833.13
496.73	17373.80
496.91	17167.83
497.09	17544.66
497.26	17394.86
497.44	17579.76
497.62	17640.62
497.79	17790.41
497.97	17568.06
498.14	17664.02
498.32	17935.53
498.50	18153.20
498.67	17987.02
498.85	18300.65
499.03	18279.58
499.20	18380.23
499.38	18319.37
499.56	18647.05
499.73	18471.51
499.91	18752.37
500.08	19028.56
500.26	18443.42
500.44	18780.46
500.61	19070.68
500.79	18881.10
500.97	18991.11
501.14	19061.32
501.32	19246.23
501.49	19073.03
501.67	19424.11
501.84	19735.40
502.02	19405.38
502.20	19321.12
502.37	19648.80
502.55	19709.65
502.72	19501.34
502.90	19798.59
503.07	19307.08
503.25	20039.67
503.43	20004.56
503.60	20142.65
503.78	20262.02
503.95	20180.10
504.13	20203.50
504.30	20247.97
504.48	20285.42
504.65	20549.90
504.83	20634.16
505.01	20563.95
505.18	20552.24
505.36	20570.97
505.53	20489.05
505.71	20741.83
505.88	20875.24
506.06	20690.34
506.23	21006.31
506.41	20980.56
506.58	21476.76
506.76	20655.23
506.93	21348.03
507.11	21198.23
507.28	21523.57
507.46	21235.68
507.63	21556.33
507.81	21722.51
507.98	21469.73
508.16	21532.93
508.33	21694.43
508.50	21811.45
508.68	21806.77
508.85	21783.37
509.03	21891.03
509.20	22164.87
509.38	22012.74
509.55	22162.53
509.73	22373.18
509.90	22345.09
510.08	22281.90
510.25	22555.74
510.42	22431.69
510.60	22754.69
510.77	22513.61
510.95	22806.18
511.12	22583.83
511.30	22923.21
511.47	22977.04
511.64	23173.64
511.82	23063.64
511.99	23278.97
512.17	23351.52
512.34	23150.24
512.51	23494.30
512.69	23349.18
512.86	23290.67
513.04	23491.96
513.21	23885.17
513.38	23899.21
513.56	23782.18
513.73	23639.41
513.90	23653.45
514.08	23585.58
514.25	24013.90
514.43	24315.83
514.60	24189.44
514.77	24137.94
514.95	23967.09
515.12	23929.64
515.29	24215.18
515.47	24112.20
515.64	24294.76
515.81	24582.65
515.99	24678.61
516.16	24788.61
516.33	24987.56
516.51	24730.10
516.68	24524.13
516.85	24451.58
517.03	24929.05
517.20	25102.25
517.37	25003.94
517.54	25088.20
517.72	25120.97
517.89	25099.90
518.06	25092.88
518.24	24980.54
518.41	25245.02
518.58	25266.08
518.75	25177.14
518.93	25329.28
519.10	25731.85
519.27	25256.72
519.45	25766.96
519.62	25511.84
519.79	25394.81
519.96	25790.36
520.14	25893.35
520.31	25453.33
520.48	26153.15
520.65	26424.65
520.83	25727.17
521.00	25991.65
521.17	26499.55
521.34	25996.33
521.52	25996.33
521.69	26314.64
521.86	26483.16
522.03	26588.49
522.20	26478.48
522.38	26569.76
522.55	26703.17
522.72	26298.26
522.89	26953.61
523.07	26972.33
523.24	26799.13
523.41	26977.01
523.58	27007.44
523.75	26974.67
523.92	26911.48
524.10	26850.63
524.27	27126.81
524.44	27672.15
524.61	27400.65
524.78	27707.26
524.96	27398.31
525.13	27412.35
525.30	27637.05
525.47	27484.91
525.64	27447.46
525.81	27798.54
525.98	27756.41
526.16	27791.52
526.33	27576.19
526.50	28112.17
526.67	27777.48
526.84	27749.39
527.01	27536.40
527.18	27651.09
527.36	28203.46
527.53	28219.84
527.70	28114.52
527.87	28268.99
528.04	28191.75
528.21	28364.95
528.38	28123.88
528.55	28505.38
528.72	28271.33
528.89	28678.58
529.07	28631.77
529.24	28697.31
529.41	29032.00
529.58	28367.29
529.75	28364.95
529.92	28556.88
530.09	28606.03
530.26	28823.70
530.43	28819.02
530.60	28678.58
530.77	28940.72
530.94	29252.02
531.11	28723.05
531.28	28828.38
531.46	28910.30
531.63	29235.63
531.80	29099.88
531.97	29404.15
532.14	29352.66
532.31	29212.23
532.48	29163.08
532.65	29603.10
532.82	29205.20
532.99	29589.05
533.16	29160.73
533.33	29795.02
533.50	30103.97
533.67	29680.33
533.84	29378.40
534.01	29525.86
534.18	29628.84
534.35	29731.83
534.52	29762.25
534.69	29830.13
534.86	29640.54
535.03	29745.87
535.20	30022.05
535.37	30015.03
535.54	30068.86
535.71	29710.76
535.88	29844.17
536.05	29862.90
536.22	30326.32
536.38	30382.49
536.55	30314.62
536.72	30354.41
536.89	30277.17
537.06	30464.41
537.23	30525.27
537.40	30143.76
537.57	30543.99
537.74	30412.92
537.91	30904.43
538.08	30857.62
538.25	30487.82
538.42	30342.70
538.59	30902.09
538.75	30319.30
538.92	30764.00
539.09	30976.99
539.26	30710.17
539.43	31119.76
539.60	31250.83
539.77	31094.02
539.94	31070.61
540.11	31133.81
540.28	31213.38
540.44	31454.46
540.61	31143.17
540.78	31311.69
540.95	31756.39
541.12	31772.77
541.29	31749.37
541.46	31791.50
541.62	31089.34
541.79	32037.25
541.96	31440.42
542.13	31929.59
542.30	31747.03
542.47	32105.13
542.63	31992.78
542.80	32100.45
542.97	32023.21
543.14	32264.28
543.31	32065.34
543.48	31786.82
543.64	32442.17
543.81	32140.24
543.98	32624.73
544.15	32615.37
544.32	32765.16
544.48	32746.44
544.65	32488.98
544.82	32226.84
544.99	32226.84
545.16	32505.36
545.32	32355.57
545.49	33158.37
545.66	33549.24
545.83	33813.72
546.00	33324.55
546.16	33125.60
546.33	32545.15
546.50	32343.86
546.67	32327.48
546.83	32491.32
547.00	32554.51
547.17	32554.51
547.34	32671.54
547.50	32907.93
547.67	33095.18
547.84	32624.73
548.00	32936.02
548.17	32769.84
548.34	32840.06
548.51	33312.84
548.67	33254.33
548.84	33027.30
549.01	32620.05
549.18	33125.60
549.34	33184.12
549.51	32921.98
549.68	32919.63
549.84	33172.41
550.01	32959.42
550.18	32680.90
550.34	33282.42
550.51	32971.13
550.68	33483.70
550.84	32957.08
551.01	33237.95
551.18	32879.85
551.34	33095.18
551.51	32783.88
551.68	33340.93
551.84	33462.64
552.01	33441.57
552.18	33528.17
552.34	32877.51
552.51	33617.11
552.68	33205.18
552.84	33249.65
553.01	33284.76
553.18	33366.68
553.34	33411.15
553.51	33668.61
553.67	33525.83
553.84	33692.01
554.01	33837.12
554.17	33497.75
554.34	33809.04
554.51	33715.42
554.67	33869.89
554.84	34185.86
555.00	33495.41
555.17	33291.78
555.33	33682.65
555.50	33673.29
555.67	33582.01
555.83	33673.29
556.00	33675.63
556.16	34309.91
556.33	33923.72
556.50	33624.14
556.66	33684.99
556.83	33544.56
556.99	34237.36
557.16	33937.77
557.32	33577.33
557.49	33783.29
557.65	33659.24
557.82	33766.91
557.98	33605.41
558.15	33741.16
558.32	34099.26
558.48	34148.42
558.65	33937.77
558.81	34005.64
558.98	33883.94
559.14	33858.19
559.31	33565.62
559.47	34218.63
559.64	34232.68
559.80	34277.15
559.97	33933.09
560.13	33890.96
560.30	34462.05
560.46	34103.95
560.63	34295.87
560.79	34438.64
560.96	34511.20
561.12	33865.21
561.29	33921.38
561.45	34181.18
561.61	34164.80
561.78	34363.75
561.94	34316.93
562.11	34150.76
562.27	34319.28
562.44	34242.04
562.60	34066.50
562.77	34127.35
562.93	34314.59
563.10	34375.45
563.26	34342.68
563.42	34644.61
563.59	34459.71
563.75	34693.76
563.92	34609.50
564.08	34054.79
564.24	34579.07
564.41	34333.32
564.57	34335.66
564.74	34316.93
564.90	34583.76
565.07	34597.80
565.23	34796.74
565.39	34651.63
565.56	34424.60
565.72	34078.20
565.88	34396.51
566.05	34300.55
566.21	34574.39
566.38	34230.33
566.54	34330.98
566.70	34476.09
566.87	34623.54
567.03	34466.73
567.19	34773.34
567.36	34644.61
567.52	34780.36
567.68	34785.04
567.85	34511.20
568.01	34476.09
568.17	34218.63
568.34	34562.69
568.50	34983.99
568.66	34850.58
568.83	34857.60
568.99	34312.25
569.15	34902.07
569.32	34808.45
569.48	34359.06
569.64	34668.02
569.81	34672.70
569.97	34869.30
570.13	34754.61
570.30	34646.95
570.46	34719.51
570.62	34822.49
570.78	34705.46
570.95	34338.00
571.11	34455.03
571.27	34239.70
571.43	34572.05
571.60	35110.38
571.76	34616.52
571.92	34843.56
572.09	34628.23
572.25	34623.54
572.41	34684.40
572.57	34904.41
572.74	34883.34
572.90	34595.46
573.06	34560.35
573.22	34499.50
573.38	34785.04
573.55	34852.92
573.71	35243.79
573.87	35206.34
574.03	34607.16
574.20	34869.30
574.36	35019.10
574.52	34670.36
574.68	34649.29
574.84	34632.91
575.01	35021.44
575.17	35276.55
575.33	34616.52
575.49	34576.73
575.65	34820.15
575.82	35096.33
575.98	34869.30
576.14	34384.81
576.30	34960.58
576.46	34885.68
576.62	34705.46
576.79	34993.35
576.95	34663.33
577.11	35161.87
577.27	34817.81
577.43	34897.39
577.59	34724.19
577.75	34920.79
577.92	34572.05
578.08	34873.98
578.24	34813.13
578.40	35171.23
578.56	34698.44
578.72	35007.39
578.88	35555.08
579.04	34888.03
579.21	34930.16
579.37	35182.93
579.53	35072.93
579.69	35012.07
579.85	34986.33
580.01	35007.39
580.17	34691.42
580.33	35072.93
580.49	35030.80
580.65	34822.49
580.82	35171.23
580.98	34782.70
581.14	34653.97
581.30	35124.42
581.46	34665.67
581.62	34801.43
581.78	34976.97
581.94	34726.53
582.10	34513.54
582.26	34799.08
582.42	35122.08
582.58	35274.21
582.74	35019.10
582.90	34920.79
583.06	35189.95
583.22	34792.06
583.38	34995.69
583.54	34497.16
583.70	34892.71
583.86	34801.43
584.02	34686.74
584.18	34948.88
584.34	35028.46
584.50	35063.57
584.66	34974.63
584.82	34712.49
584.98	34742.91
585.14	35030.80
585.30	35014.41
585.46	34998.03
585.62	34672.70
585.78	35157.19
585.94	35136.12
586.10	35103.35
586.26	35040.16
586.42	35421.67
586.58	35220.38
586.74	34920.79
586.90	34766.32
587.06	34965.26
587.22	35026.12
587.38	34759.30
587.54	35093.99
587.70	35548.06
587.86	35009.73
588.02	35211.02
588.18	35089.31
588.34	35215.70
588.49	34953.56
588.65	34675.04
588.81	35016.75
588.97	34859.94
589.13	35058.88
589.29	34991.01
589.45	35164.21
589.61	34974.63
589.77	35346.77
589.93	35271.87
590.08	35306.98
590.24	35356.13
590.40	35189.95
590.56	35360.81
590.72	35166.55
590.88	35227.40
591.04	35138.46
591.20	35133.78
591.35	35426.35
591.51	35810.20
591.67	35505.93
