SpectraSuite Data File
++++++++++++++++++++++++++++++++++++
Date: Fri Oct 04 11:39:46 GMT-05:00 2013
User: price-jones
Dark Spectrum Present: No
Reference Spectrum Present: No
Number of Sampled Component Spectra: 1
Spectrometers: USB2+H05261
Integration Time (usec): 100000 (USB2+H05261)
Spectra Averaged: 1 (USB2+H05261)
Boxcar Smoothing: 0 (USB2+H05261)
Correct for Electrical Dark: No (USB2+H05261)
Strobe/Lamp Enabled: No (USB2+H05261)
Correct for Detector Non-linearity: No (USB2+H05261)
Correct for Stray Light: No (USB2+H05261)
Number of Pixels in Processed Spectrum: 2048
>>>>>Begin Processed Spectral Data<<<<<
365.73	0.00
365.92	0.00
366.12	0.00
366.32	18.72
366.52	0.00
366.72	0.00
366.91	0.00
367.11	0.00
367.31	0.00
367.51	0.00
367.70	0.00
367.90	14.04
368.10	0.00
368.30	0.00
368.49	0.00
368.69	0.00
368.89	0.00
369.09	0.00
369.28	0.00
369.48	0.00
369.68	37.45
369.87	44.47
370.07	9.36
370.27	60.85
370.47	173.20
370.66	416.62
370.86	477.47
371.06	475.13
371.25	585.13
371.45	482.15
371.65	547.69
371.84	547.69
372.04	547.69
372.24	578.11
372.44	573.43
372.63	578.11
372.83	683.44
373.03	627.26
373.22	648.33
373.42	580.45
373.62	660.03
373.81	655.35
374.01	720.88
374.21	697.48
374.40	760.67
374.60	786.42
374.79	662.37
374.99	615.56
375.19	685.78
375.38	751.31
375.58	725.57
375.78	758.33
375.97	786.42
376.17	802.80
376.37	758.33
376.56	770.04
376.76	718.54
376.95	739.61
377.15	812.17
377.35	748.97
377.54	795.78
377.74	816.85
377.93	826.21
378.13	812.17
378.33	889.40
378.52	807.48
378.72	800.46
378.91	866.00
379.11	926.85
379.31	833.23
379.50	842.59
379.70	919.83
379.89	912.81
380.09	903.45
380.28	861.32
380.48	896.43
380.68	936.21
380.87	866.00
381.07	936.21
381.26	990.05
381.46	971.32
381.65	889.40
381.85	889.40
382.04	870.68
382.24	959.62
382.43	954.94
382.63	966.64
382.83	919.83
383.02	992.39
383.22	978.34
383.41	1018.13
383.61	1025.15
383.80	1083.67
384.00	1015.79
384.19	1041.54
384.39	1020.47
384.58	1100.05
384.78	983.02
384.97	1041.54
385.17	1055.58
385.36	1090.69
385.56	1177.29
385.75	1004.09
385.95	1086.01
386.14	1093.03
386.34	1062.60
386.53	1116.44
386.72	1114.10
386.92	1146.86
387.11	1064.94
387.31	1097.71
387.50	1214.74
387.70	1097.71
387.89	1259.21
388.09	1224.10
388.28	1188.99
388.48	1207.72
388.67	1205.38
388.86	1299.00
389.06	1259.21
389.25	1291.98
389.45	1334.11
389.64	1329.42
389.84	1273.25
390.03	1366.87
390.22	1385.60
390.42	1284.95
390.61	1266.23
390.81	1369.21
391.00	1392.62
391.19	1387.94
391.39	1364.53
391.58	1399.64
391.78	1394.96
391.97	1420.71
392.16	1376.24
392.36	1446.45
392.55	1455.81
392.75	1427.73
392.94	1432.41
393.13	1488.58
393.33	1530.71
393.52	1458.15
393.71	1617.31
393.91	1563.48
394.10	1624.33
394.29	1638.38
394.49	1453.47
394.68	1638.38
394.88	1657.10
395.07	1577.52
395.26	1638.38
395.46	1671.14
395.65	1626.67
395.84	1579.86
396.04	1830.30
396.23	1720.29
396.42	1743.70
396.62	1858.39
396.81	1811.57
397.00	1715.61
397.19	1797.53
397.39	1825.62
397.58	1774.13
397.77	1685.19
397.97	1820.94
398.16	1865.41
398.35	1893.49
398.55	1842.00
398.74	1984.77
398.93	1914.56
399.12	1860.73
399.32	1984.77
399.51	1900.52
399.70	2029.24
399.90	2038.61
400.09	2066.69
400.28	2094.78
400.47	2073.71
400.67	2101.80
400.86	1996.48
401.05	2052.65
401.24	2052.65
401.44	2225.85
401.63	2127.55
401.82	2176.70
402.01	2223.51
402.21	2202.44
402.40	2204.78
402.59	2282.02
402.78	2172.02
402.97	2258.62
403.17	2375.64
403.36	2356.92
403.55	2354.58
403.74	2328.83
403.93	2370.96
404.13	2480.97
404.32	2434.16
404.51	2495.01
404.70	2553.52
404.89	2567.57
405.09	2480.97
405.28	2605.02
405.47	2558.21
405.66	2523.10
405.85	2588.63
406.05	2537.14
406.24	2668.21
406.43	2686.94
406.62	2743.11
406.81	2757.15
407.00	2708.00
407.20	2693.96
407.39	2668.21
407.58	2768.85
407.77	2885.88
407.96	2846.09
408.15	2895.24
408.34	2871.84
408.54	2930.35
408.73	2878.86
408.92	3038.02
409.11	3021.63
409.30	2939.71
409.49	3000.57
409.68	2956.10
409.87	3073.12
410.07	3068.44
410.26	3066.10
410.45	3183.13
410.64	3229.94
410.83	3206.53
411.02	3236.96
411.21	3276.75
411.40	3325.90
411.59	3297.81
411.78	3377.39
411.98	3407.82
412.17	3480.38
412.36	3531.87
412.55	3669.96
412.74	3613.79
412.93	3574.00
413.12	3623.15
413.31	3684.00
413.50	3634.85
413.69	3770.60
413.88	3761.24
414.07	3845.50
414.26	3833.80
414.45	3981.25
414.64	3861.88
414.83	4004.66
415.02	4135.73
415.22	4058.49
415.41	4135.73
415.60	4102.96
415.79	4168.49
415.98	4262.12
416.17	4269.14
416.36	4271.48
416.55	4367.44
416.74	4393.19
416.93	4351.06
417.12	4507.87
417.31	4535.96
417.50	4484.47
417.69	4720.86
417.88	4615.54
418.07	4645.96
418.26	4468.08
418.45	4725.54
418.64	4744.27
418.83	4814.48
419.02	4910.44
419.21	4819.16
419.39	4758.31
419.58	4781.71
419.77	4676.39
419.96	4739.58
420.15	4997.04
420.34	4943.21
420.53	4985.34
420.72	5135.14
420.91	5149.18
421.10	5062.58
421.29	5282.59
421.48	5210.03
421.67	5247.48
421.86	5191.31
422.05	5247.48
422.24	5132.79
422.43	5130.45
422.61	5336.42
422.80	5313.02
422.99	5287.27
423.18	5310.68
423.37	5364.51
423.56	5275.57
423.75	5547.07
423.94	5350.46
424.13	5139.82
424.32	5060.24
424.50	5549.41
424.69	5399.62
424.88	5427.70
425.07	5462.81
425.26	5357.49
425.45	5455.79
425.64	5418.34
425.83	5404.30
426.01	5511.96
426.20	5530.69
426.39	5521.32
426.58	5671.12
426.77	5547.07
426.96	5397.28
427.15	5483.88
427.33	5542.39
427.52	5689.84
427.71	5657.07
427.90	5703.89
428.09	5748.36
428.28	5636.01
428.46	5905.17
428.65	5659.42
428.84	6026.88
429.03	5935.60
429.22	5643.03
429.40	6001.13
429.59	6106.46
429.78	5916.87
429.97	5455.79
430.16	5853.68
430.34	6031.56
430.53	6209.44
430.72	6223.48
430.91	6076.03
431.10	6232.85
431.28	6324.13
431.47	6431.79
431.66	6434.13
431.85	6305.40
432.03	6511.37
432.22	6410.73
432.41	6548.82
432.60	6565.20
432.79	6483.28
432.97	6492.65
433.16	6595.63
433.35	6609.67
433.54	6712.66
433.72	6717.34
433.91	6555.84
434.10	6679.89
434.28	6775.85
434.47	6754.79
434.66	6939.69
434.85	6958.41
435.03	6761.81
435.22	6949.05
435.41	7569.29
435.59	7246.30
435.78	7267.36
435.97	7077.78
436.16	7110.55
436.34	6974.80
436.53	7133.95
436.72	7255.66
436.90	7084.80
437.09	7346.94
437.28	7159.70
437.46	7155.02
437.65	7365.67
437.84	7452.27
438.02	7475.67
438.21	7379.71
438.40	7611.42
438.58	7616.10
438.77	7665.25
438.96	7627.81
439.14	7698.02
439.33	7974.21
439.52	7969.52
439.70	7927.39
439.89	7810.37
440.08	8004.63
440.26	8231.66
440.45	8248.05
440.63	8060.80
440.82	8358.05
441.01	8344.01
441.19	8571.04
441.38	8372.10
441.57	8636.58
441.75	8578.06
441.94	8844.88
442.12	8744.24
442.31	8603.81
442.50	8833.18
442.68	8833.18
442.87	8795.73
443.05	8760.63
443.24	8999.36
443.43	9022.77
443.61	9254.48
443.80	9249.80
443.98	8968.93
444.17	8510.19
444.35	9217.03
444.54	9397.25
444.73	9195.96
444.91	9069.58
445.10	9219.37
445.28	9226.39
445.47	9135.11
445.65	9245.12
445.84	9408.95
446.02	9430.02
446.21	9226.39
446.39	9198.31
446.58	9516.62
446.77	9362.14
446.95	9109.36
447.14	9469.81
447.32	9401.93
447.51	9366.82
447.69	9355.12
447.88	9341.08
448.06	9619.60
448.25	9404.27
448.43	9504.92
448.62	9514.28
448.80	9540.02
448.99	9650.03
449.17	9593.86
449.36	9614.92
449.54	9879.40
449.73	9802.16
449.91	9980.04
450.10	9994.09
450.28	10012.81
450.46	10134.52
450.65	9956.64
450.83	10092.39
451.02	9888.76
451.20	10150.90
451.39	10097.07
451.57	10118.14
451.76	10160.27
451.94	10223.46
452.13	10399.00
452.31	10525.39
452.49	10289.00
452.68	10186.01
452.86	10277.29
453.05	10527.73
453.23	10654.12
453.42	10513.69
453.60	10352.19
453.78	10399.00
453.97	10478.58
454.15	10668.16
454.34	10548.79
454.52	10747.74
454.70	10808.59
454.89	10696.25
455.07	10934.98
455.26	10864.77
455.44	11234.57
455.62	10991.16
455.81	11056.69
455.99	10958.39
456.17	11246.27
456.36	11234.57
456.54	11314.15
456.73	11197.12
456.91	11499.05
457.09	11325.85
457.28	11831.41
457.46	11485.01
457.64	11716.72
457.83	11693.32
458.01	11485.01
458.19	11868.86
458.38	11728.42
458.56	11878.22
458.74	11946.09
458.93	11861.84
459.11	11950.78
459.29	11964.82
459.48	11946.09
459.66	12250.36
459.84	12065.46
460.03	12383.77
460.21	12334.62
460.39	12334.62
460.57	12196.53
460.76	12437.61
460.94	12561.66
461.12	12437.61
461.31	12348.67
461.49	12306.54
461.67	12348.67
461.85	12800.39
462.04	12718.47
462.22	12952.52
462.40	12886.99
462.59	12901.03
462.77	12791.03
462.95	13078.91
463.13	12924.44
463.32	13181.90
463.50	13088.28
463.68	13015.72
463.86	13008.70
464.05	12936.14
464.23	13022.74
464.41	13446.38
464.59	12999.34
464.78	13453.40
464.96	13483.83
465.14	13242.75
465.32	13493.19
465.50	13710.86
465.69	13661.71
465.87	13532.98
466.05	13287.22
466.23	13593.83
466.41	13668.73
466.60	14141.52
466.78	13666.39
466.96	13607.87
467.14	13504.89
467.32	13788.10
467.51	13951.93
467.69	13631.28
467.87	13806.82
468.05	13956.61
468.23	14094.71
468.41	14043.21
468.60	14059.60
468.78	14256.20
468.96	13975.34
469.14	14609.62
469.32	14333.44
469.50	13923.85
469.69	14614.30
469.87	14731.33
470.05	14862.40
470.23	14710.27
470.41	14590.90
470.59	14918.57
470.77	14558.13
470.95	14941.98
471.14	15082.41
471.32	14796.87
471.50	15257.95
471.68	15321.15
471.86	15421.79
472.04	15419.45
472.22	15695.63
472.40	15466.26
472.58	15550.52
472.77	15492.01
472.95	15829.04
473.13	16240.98
473.31	15524.77
473.49	16002.24
473.67	15913.30
473.85	15936.71
474.03	16463.33
474.21	16070.12
474.39	16266.72
474.57	16336.94
474.75	16528.86
474.93	16685.68
475.12	16835.47
475.30	16919.73
475.48	16519.50
475.66	17259.11
475.84	17329.33
476.02	17111.66
476.20	17310.60
476.38	17631.26
476.56	17895.74
476.74	18218.73
476.92	17785.73
477.10	17914.46
477.28	18176.60
477.46	18359.16
477.64	18127.45
477.82	18604.92
478.00	18857.70
478.18	18773.44
478.36	19129.20
478.54	19428.79
478.72	19351.55
478.90	19360.91
479.08	19398.36
479.26	19683.91
479.44	19796.25
479.62	20039.67
479.80	19974.13
479.98	20184.78
480.16	20786.30
480.34	20439.90
480.52	20812.04
480.70	20999.29
480.88	20514.80
481.06	20922.05
481.24	21394.84
481.41	21001.63
481.59	21774.00
481.77	21869.97
481.95	22270.20
482.13	22120.40
482.31	22298.28
482.49	22382.54
482.67	22897.46
482.85	22803.84
483.03	23407.70
483.21	23693.24
483.39	23648.77
483.57	23683.88
483.74	23990.49
483.92	24037.30
484.10	23840.70
484.28	24496.05
484.46	24931.39
484.64	25146.72
484.82	24568.60
485.00	25303.53
485.18	25338.64
485.35	25832.49
485.53	25539.93
485.71	25806.75
485.89	26375.50
486.07	26295.92
486.25	26710.19
486.43	26609.55
486.61	27087.02
486.78	27592.58
486.96	27386.61
487.14	27803.22
487.32	28046.64
487.50	28018.55
487.68	27990.47
487.85	28596.67
488.03	28676.24
488.21	29422.87
488.39	29266.06
488.57	29404.15
488.75	29481.39
488.92	30038.44
489.10	30305.26
489.28	29989.28
489.46	31026.14
489.64	30796.77
489.81	31166.57
489.99	31161.89
490.17	31246.15
490.35	31697.88
490.53	31498.93
490.70	32180.03
490.88	32367.27
491.06	32238.54
491.24	32177.68
491.41	32400.04
491.59	32992.19
491.77	33067.09
491.95	33787.97
492.13	33614.77
492.30	33816.06
492.48	34089.90
492.66	33930.75
492.84	34029.05
493.01	34864.62
493.19	34499.50
493.37	35204.00
493.54	35236.77
493.72	35398.26
493.90	35585.50
494.08	35749.34
494.25	36086.38
494.43	36285.33
494.61	36701.94
494.79	36615.34
494.96	36538.10
495.14	36917.27
495.32	37633.47
495.49	37233.24
495.67	37603.05
495.85	37745.82
496.02	37734.12
496.20	38064.13
496.38	38377.76
496.55	38391.81
496.73	39594.84
496.91	38721.82
497.09	39571.44
497.26	39480.16
497.44	39173.55
497.62	39398.24
497.79	40051.25
497.97	40034.86
498.14	40264.24
498.32	40854.05
498.50	40783.83
498.67	41230.88
498.85	40687.87
499.03	41088.10
499.20	41193.43
499.38	41893.25
499.56	41706.01
499.73	41804.31
499.91	42232.63
500.08	42340.29
500.26	42176.45
500.44	42307.52
500.61	42862.23
500.79	42204.54
500.97	42850.53
501.14	43592.48
501.32	43405.23
501.49	43381.83
501.67	43192.25
501.84	43323.32
502.02	43894.41
502.20	43983.35
502.37	44311.02
502.55	44023.14
502.72	44580.18
502.90	44388.26
503.07	44397.62
503.25	44177.61
503.43	44378.90
503.60	44854.03
503.78	44912.54
503.95	44954.67
504.13	45153.62
504.30	45771.52
504.48	45144.25
504.65	45778.54
504.83	45785.56
505.01	46447.93
505.18	45984.51
505.36	46415.16
505.53	46398.78
505.71	46581.34
505.88	46731.14
506.06	46330.90
506.23	47026.04
506.41	46918.38
506.58	47051.79
506.76	47077.54
506.93	47583.09
507.11	47072.85
507.28	47447.34
507.46	47669.69
507.63	47707.14
507.81	48013.75
507.98	47728.20
508.16	47894.38
508.33	48296.95
508.50	48193.97
508.68	48493.56
508.85	49092.74
509.03	48666.76
509.20	48868.05
509.38	49322.11
509.55	49153.59
509.73	49043.59
509.90	49153.59
510.08	48978.05
510.25	49322.11
510.42	50085.12
510.60	50115.55
510.77	49907.24
510.95	49748.09
511.12	50017.25
511.30	49544.46
511.47	50075.76
511.64	49984.48
511.82	50550.89
511.99	50525.14
512.17	50710.05
512.34	50581.32
512.51	50817.71
512.69	50913.67
512.86	50841.12
513.04	51449.66
513.21	51501.15
513.38	51248.37
513.56	51634.56
513.73	51110.28
513.90	51447.32
514.08	51735.20
514.25	51564.34
514.43	51936.49
514.60	52374.17
514.77	52236.08
514.95	52271.18
515.12	52135.43
515.29	51995.00
515.47	52060.54
515.64	52891.43
515.81	52404.59
515.99	52715.89
516.16	52907.81
516.33	52783.76
516.51	52898.45
516.68	52683.12
516.85	52853.98
517.03	53102.07
517.20	53209.74
517.37	53214.42
517.54	53502.31
517.72	53329.11
517.89	53352.51
518.06	53104.41
518.24	53336.13
518.41	53329.11
518.58	53621.67
518.75	53797.21
518.93	53813.60
519.10	53954.03
519.27	53979.78
519.45	54089.78
519.62	54059.35
519.79	53916.58
519.96	54127.23
520.14	54387.03
520.31	54071.06
520.48	54450.22
520.65	54265.32
520.83	54628.10
521.00	54532.14
521.17	54202.13
521.34	54593.00
521.52	54497.03
521.69	54859.82
521.86	54803.64
522.03	55007.27
522.20	54871.52
522.38	55037.70
522.55	55161.75
522.72	54955.78
522.89	55267.07
523.07	55604.11
523.24	55578.36
523.41	55657.94
523.58	55487.08
523.75	55484.74
523.92	55295.16
524.10	55674.32
524.27	55634.53
524.44	55774.97
524.61	55891.99
524.78	56034.77
524.96	56002.00
525.13	56076.90
525.30	56016.04
525.47	56037.11
525.64	56172.86
525.81	56378.82
525.98	56385.85
526.16	56374.14
526.33	56339.04
526.50	56629.26
526.67	56236.05
526.84	56479.47
527.01	56360.10
527.18	56643.30
527.36	56868.00
527.53	56800.12
527.70	57073.96
527.87	56985.02
528.04	56898.42
528.21	56893.74
528.38	56945.23
528.55	56893.74
528.72	56935.87
528.89	57172.27
529.07	57064.60
529.24	57059.92
529.41	57265.89
529.58	57099.71
529.75	57167.58
529.92	57172.27
530.09	57361.85
530.26	57272.91
530.43	57399.30
530.60	57151.20
530.77	57460.15
530.94	57633.35
531.11	57616.97
531.28	57382.91
531.46	57565.48
531.63	57895.49
531.80	57968.05
531.97	57939.96
532.14	58007.84
532.31	58082.73
532.48	58197.42
532.65	58136.57
532.82	57733.99
532.99	58157.63
533.16	58085.07
533.33	58333.17
533.50	58389.34
533.67	58272.32
533.84	58155.29
534.01	58202.10
534.18	58150.61
534.35	58508.71
534.52	58117.84
534.69	58656.17
534.86	58583.61
535.03	58581.27
535.20	58646.80
535.37	58447.86
535.54	58812.98
535.71	58251.25
535.88	58710.00
536.05	59004.91
536.22	58944.05
536.38	58932.35
536.55	58930.01
536.72	58920.65
536.89	58805.96
537.06	58864.47
537.23	59119.59
537.40	58859.79
537.57	59042.35
537.74	58951.07
537.91	59341.94
538.08	59121.93
538.25	59119.59
538.42	59098.53
538.59	59370.03
538.75	59180.45
538.92	59374.71
539.09	59405.14
539.26	59646.21
539.43	59540.89
539.60	59491.74
539.77	59487.06
539.94	59812.39
540.11	59587.70
540.28	59590.04
540.44	59657.91
540.61	59592.38
540.78	59798.35
540.95	59866.22
541.12	59934.10
541.29	59781.96
541.46	59910.69
541.62	59828.77
541.79	59744.51
541.96	59798.35
542.13	59938.78
542.30	60032.40
542.47	60217.30
542.63	60278.16
542.80	60308.58
542.97	60355.39
543.14	60542.64
543.31	60315.61
543.48	60425.61
543.64	60418.59
543.81	60633.92
543.98	60671.37
544.15	60729.88
544.32	60835.20
544.48	60692.43
544.65	60617.53
544.82	60601.15
544.99	60371.78
545.16	60889.04
545.32	60498.17
545.49	61022.45
545.66	61024.79
545.83	61296.29
546.00	61378.21
546.16	60961.59
546.33	60790.73
546.50	60678.39
546.67	60867.97
546.83	60671.37
547.00	60865.63
547.17	60999.04
547.34	61041.17
547.50	61034.15
547.67	61125.43
547.84	61104.37
548.00	61193.31
548.17	61315.01
548.34	61090.32
548.51	61284.59
548.67	61371.19
548.84	61307.99
549.01	61219.05
549.18	61408.64
549.34	61226.07
549.51	61261.18
549.68	61277.57
549.84	61181.60
550.01	61366.51
550.18	61497.58
550.34	61303.31
550.51	61591.20
550.68	61680.14
550.84	61350.12
551.01	61518.64
551.18	61640.35
551.34	61387.57
551.51	61563.11
551.68	61516.30
551.84	61792.48
552.01	61670.78
552.18	61825.25
552.34	61691.84
552.51	61895.47
552.68	61471.83
552.84	61701.20
553.01	61740.99
553.18	61780.78
553.34	61944.62
553.51	61942.28
553.67	61975.05
553.84	62131.86
554.01	62164.63
554.17	61968.02
554.34	62033.56
554.51	61846.32
554.67	62136.54
554.84	61998.45
555.00	62019.52
555.17	62145.90
555.33	62262.93
555.50	61998.45
555.67	62031.22
555.83	62199.74
556.00	61986.75
556.16	62370.60
556.33	62045.26
556.50	62204.42
556.66	62466.56
556.83	62204.42
556.99	62578.90
557.16	62492.30
557.32	62307.40
557.49	62457.20
557.65	62276.97
557.82	62438.47
557.98	62202.08
558.15	62337.83
558.32	62508.69
558.48	62529.75
558.65	62681.89
558.81	62555.50
558.98	62585.92
559.14	62475.92
559.31	62417.41
559.47	62412.73
559.64	62611.67
559.80	62688.91
559.97	62911.26
560.13	62644.44
560.30	62702.95
560.46	62763.81
560.63	62691.25
560.79	62702.95
560.96	62780.19
561.12	62646.78
561.29	62740.40
561.45	62747.42
561.61	62944.03
561.78	62920.62
561.94	63047.01
562.11	62883.17
562.27	62656.14
562.44	62768.49
562.60	62780.19
562.77	62855.09
562.93	62805.94
563.10	63061.05
563.26	62691.25
563.42	63011.90
563.59	62899.56
563.75	63140.63
563.92	63131.27
564.08	62901.90
564.24	63089.14
564.41	62981.48
564.57	62829.34
564.74	62953.39
564.90	63168.72
565.07	63105.52
565.23	62995.52
565.39	63079.78
565.56	63149.99
565.72	63107.86
565.88	63075.10
566.05	63103.18
566.21	62969.77
566.38	63147.65
566.54	62988.50
566.70	63149.99
566.87	63292.77
567.03	63210.85
567.19	63309.15
567.36	63119.57
567.52	63114.89
567.68	63178.08
567.85	63049.35
568.01	63192.12
568.17	63171.06
568.34	63318.51
568.50	63142.97
568.66	63334.90
568.83	63465.97
568.99	63398.09
569.15	63217.87
569.32	63325.53
569.48	63243.62
569.64	63407.45
569.81	63245.96
569.97	63360.64
570.13	63428.52
570.30	63175.74
570.46	63540.86
570.62	63337.24
570.78	63405.11
570.95	63447.24
571.11	63355.96
571.27	63302.13
571.43	63477.67
571.60	63580.65
571.76	63341.92
571.92	63508.10
572.09	63458.94
572.25	63695.34
572.41	63753.85
572.57	63613.42
572.74	63622.78
572.90	63590.01
573.06	63606.40
573.22	63573.63
573.38	63524.48
573.55	63580.65
573.71	63798.32
573.87	63718.74
574.03	63454.26
574.20	63580.65
574.36	63685.98
574.52	63494.05
574.68	63629.80
574.84	63683.64
575.01	63721.08
575.17	63730.45
575.33	63538.52
575.49	63477.67
575.65	63760.87
575.82	63859.18
575.98	63407.45
576.14	63800.66
576.30	63554.91
576.46	63573.63
576.62	63667.25
576.79	63552.57
576.95	63564.27
577.11	63580.65
577.27	63840.45
577.43	63735.13
577.59	63552.57
577.75	63735.13
577.92	63599.38
578.08	63662.57
578.24	63599.38
578.40	63721.08
578.56	63779.60
578.72	63700.02
578.88	64177.49
579.04	63751.51
579.21	63905.99
579.37	63852.15
579.53	63913.01
579.69	63643.85
579.85	63723.43
580.01	63582.99
580.17	63650.87
580.33	63753.85
580.49	63866.20
580.65	63891.94
580.82	63938.75
580.98	63793.64
581.14	63739.81
581.30	63845.13
581.46	63571.29
581.62	63604.06
581.78	63578.31
581.94	63863.86
582.10	63810.03
582.26	63971.52
582.42	63992.59
582.58	64020.67
582.74	63955.14
582.90	63929.39
583.06	63955.14
583.22	63620.44
583.38	63964.50
583.54	63838.11
583.70	63838.11
583.86	63693.00
584.02	63643.85
584.18	63868.54
584.34	64006.63
584.50	63950.46
584.66	63978.54
584.82	63725.77
584.98	63966.84
585.14	63880.24
585.30	63765.56
585.46	63803.00
585.62	63793.64
585.78	63868.54
585.94	63931.73
586.10	63795.98
586.26	63957.48
586.42	64060.46
586.58	64023.01
586.74	63929.39
586.90	63744.49
587.06	63847.47
587.22	64243.02
587.38	63831.09
587.54	64102.59
587.70	64083.87
587.86	64076.85
588.02	64069.82
588.18	64121.32
588.34	64011.31
588.49	64079.19
588.65	63978.54
