SpectraSuite Data File
++++++++++++++++++++++++++++++++++++
Date: Fri Oct 04 11:39:54 GMT-05:00 2013
User: price-jones
Dark Spectrum Present: No
Reference Spectrum Present: No
Number of Sampled Component Spectra: 1
Spectrometers: USB2+H05261
Integration Time (usec): 100000 (USB2+H05261)
Spectra Averaged: 1 (USB2+H05261)
Boxcar Smoothing: 0 (USB2+H05261)
Correct for Electrical Dark: No (USB2+H05261)
Strobe/Lamp Enabled: No (USB2+H05261)
Correct for Detector Non-linearity: No (USB2+H05261)
Correct for Stray Light: No (USB2+H05261)
Number of Pixels in Processed Spectrum: 2048
>>>>>Begin Processed Spectral Data<<<<<
365.73	67.88
365.92	67.88
366.12	67.88
366.32	0.00
366.52	0.00
366.72	0.00
366.91	0.00
367.11	0.00
367.31	0.00
367.51	0.00
367.70	0.00
367.90	0.00
368.10	0.00
368.30	0.00
368.49	0.00
368.69	0.00
368.89	23.41
369.09	0.00
369.28	0.00
369.48	0.00
369.68	23.41
369.87	0.00
370.07	2.34
370.27	56.17
370.47	56.17
370.66	91.28
370.86	168.52
371.06	131.07
371.25	224.69
371.45	182.56
371.65	105.32
371.84	161.50
372.04	70.22
372.24	135.75
372.44	175.54
372.63	159.16
372.83	187.24
373.03	234.05
373.22	208.31
373.42	203.63
373.62	217.67
373.81	177.88
374.01	287.89
374.21	297.25
374.40	320.65
374.60	273.84
374.79	224.69
374.99	283.20
375.19	285.55
375.38	212.99
375.58	252.78
375.78	299.59
375.97	191.92
376.17	290.23
376.37	278.52
376.56	243.42
376.76	217.67
376.95	224.69
377.15	262.14
377.35	208.31
377.54	257.46
377.74	227.03
377.93	156.82
378.13	238.73
378.33	311.29
378.52	210.65
378.72	191.92
378.91	360.44
379.11	252.78
379.31	285.55
379.50	156.82
379.70	259.80
379.89	243.42
380.09	163.84
380.28	182.56
380.48	287.89
380.68	238.73
380.87	231.71
381.07	184.90
381.26	278.52
381.46	332.36
381.65	290.23
381.85	217.67
382.04	252.78
382.24	290.23
382.43	252.78
382.63	194.26
382.83	212.99
383.02	255.12
383.22	266.82
383.41	245.76
383.61	337.04
383.80	250.44
384.00	334.70
384.19	215.33
384.39	358.10
384.58	227.03
384.78	290.23
384.97	339.38
385.17	322.99
385.36	273.84
385.56	203.63
385.75	311.29
385.95	299.59
386.14	297.25
386.34	367.46
386.53	287.89
386.72	205.97
386.92	299.59
387.11	346.40
387.31	285.55
387.50	301.93
387.70	306.61
387.89	299.59
388.09	301.93
388.28	257.46
388.48	285.55
388.67	346.40
388.86	257.46
389.06	332.36
389.25	386.19
389.45	334.70
389.64	320.65
389.84	320.65
390.03	248.10
390.22	325.33
390.42	400.23
390.61	334.70
390.81	395.55
391.00	346.40
391.19	425.98
391.39	325.33
391.58	402.57
391.78	367.46
391.97	346.40
392.16	294.91
392.36	360.44
392.55	346.40
392.75	388.53
392.94	369.80
393.13	468.11
393.33	327.68
393.52	332.36
393.71	425.98
393.91	447.04
394.10	430.66
394.29	400.23
394.49	402.57
394.68	491.51
394.88	447.04
395.07	510.24
395.26	461.09
395.46	458.74
395.65	411.93
395.84	444.70
396.04	430.66
396.23	416.62
396.42	587.47
396.62	411.93
396.81	493.85
397.00	430.66
397.19	447.04
397.39	533.64
397.58	496.19
397.77	475.13
397.97	514.92
398.16	599.18
398.35	578.11
398.55	580.45
398.74	535.98
398.93	585.13
399.12	547.69
399.32	575.77
399.51	521.94
399.70	582.79
399.90	594.50
400.09	573.43
400.28	575.77
400.47	589.82
400.67	596.84
400.86	601.52
401.05	587.47
401.24	573.43
401.44	627.26
401.63	617.90
401.82	662.37
402.01	641.31
402.21	650.67
402.40	697.48
402.59	688.12
402.78	580.45
402.97	580.45
403.17	645.99
403.36	676.41
403.55	638.97
403.74	713.86
403.93	699.82
404.13	734.93
404.32	777.06
404.51	795.78
404.70	772.38
404.89	807.48
405.09	847.27
405.28	784.08
405.47	784.08
405.66	891.74
405.85	898.77
406.05	826.21
406.24	819.19
406.43	830.89
406.62	840.25
406.81	812.17
407.00	875.36
407.20	908.13
407.39	849.61
407.58	844.93
407.77	954.94
407.96	971.32
408.15	950.26
408.34	950.26
408.54	999.41
408.73	1053.24
408.92	1027.50
409.11	1116.44
409.30	983.02
409.49	1006.43
409.68	1081.33
409.87	994.73
410.07	1034.52
410.26	1111.75
410.45	1160.91
410.64	1057.92
410.83	1135.16
411.02	990.05
411.21	1217.08
411.40	1228.78
411.59	1200.69
411.78	1186.65
411.98	1181.97
412.17	1158.57
412.36	1151.54
412.55	1315.38
412.74	1151.54
412.93	1327.08
413.12	1289.64
413.31	1411.34
413.50	1355.17
413.69	1430.07
413.88	1394.96
414.07	1474.54
414.26	1495.60
414.45	1380.92
414.64	1460.49
414.83	1476.88
415.02	1535.39
415.22	1495.60
415.41	1544.75
415.60	1565.82
415.79	1502.62
415.98	1638.38
416.17	1547.09
416.36	1600.93
416.55	1596.25
416.74	1605.61
416.93	1661.78
417.12	1739.02
417.31	1792.85
417.50	1692.21
417.69	1813.92
417.88	1771.79
418.07	1633.69
418.26	1778.81
418.45	1795.19
418.64	1881.79
418.83	1867.75
419.02	1811.57
419.21	1834.98
419.39	1776.47
419.58	1811.57
419.77	1919.24
419.96	1954.35
420.15	2015.20
420.34	1856.04
420.53	1933.28
420.72	2019.88
420.91	1914.56
421.10	2029.24
421.29	2083.08
421.48	1984.77
421.67	2066.69
421.86	2019.88
422.05	2127.55
422.24	2066.69
422.43	2176.70
422.61	2010.52
422.80	2132.23
422.99	2172.02
423.18	2083.08
423.37	2237.55
423.56	2115.84
423.75	2052.65
423.94	2165.00
424.13	1914.56
424.32	2073.71
424.50	2214.15
424.69	2239.89
424.88	2106.48
425.07	2153.29
425.26	2099.46
425.45	2275.00
425.64	2094.78
425.83	2150.95
426.01	2136.91
426.20	2108.82
426.39	2200.10
426.58	2188.40
426.77	2232.87
426.96	2202.44
427.15	2207.13
427.33	2232.87
427.52	2237.55
427.71	2186.06
427.90	2335.85
428.09	2310.11
428.28	2310.11
428.46	2347.56
428.65	2235.21
428.84	2464.58
429.03	2363.94
429.22	2356.92
429.40	2385.01
429.59	2375.64
429.78	2244.57
429.97	2415.43
430.16	2275.00
430.34	2410.75
430.53	2551.18
430.72	2450.54
430.91	2424.80
431.10	2452.88
431.28	2452.88
431.47	2504.37
431.66	2614.38
431.85	2394.37
432.03	2614.38
432.22	2539.48
432.41	2602.68
432.60	2640.12
432.79	2661.19
432.97	2551.18
433.16	2595.65
433.35	2635.44
433.54	2640.12
433.72	2782.90
433.91	2761.83
434.10	2700.98
434.28	2731.41
434.47	2740.77
434.66	2862.48
434.85	2733.75
435.03	2785.24
435.22	3089.51
435.41	3241.64
435.59	3248.66
435.78	3084.83
435.97	2839.07
436.16	2766.51
436.34	2881.20
436.53	2895.24
436.72	2986.52
436.90	2930.35
437.09	2951.42
437.28	2841.41
437.46	2944.39
437.65	2874.18
437.84	3030.99
438.02	2923.33
438.21	2979.50
438.40	2920.99
438.58	3080.14
438.77	2970.14
438.96	3049.72
439.14	3021.63
439.33	3063.76
439.52	3148.02
439.70	3192.49
439.89	3248.66
440.08	3155.04
440.26	3157.38
440.45	3246.32
440.63	3328.24
440.82	3391.44
441.01	3255.69
441.19	3475.70
441.38	3351.65
441.57	3417.18
441.75	3471.01
441.94	3592.72
442.12	3531.87
442.31	3566.98
442.50	3456.97
442.68	3489.74
442.87	3482.72
443.05	3541.23
443.24	3662.94
443.43	3623.15
443.61	3726.13
443.80	3613.79
443.98	3487.40
444.17	3435.91
444.35	3786.99
444.54	3641.87
444.73	3875.93
444.91	3597.40
445.10	3801.03
445.28	3578.68
445.47	3761.24
445.65	3590.38
445.84	3627.83
446.02	3798.69
446.21	3737.84
446.39	3707.41
446.58	3768.26
446.77	3709.75
446.95	3646.55
447.14	3777.62
447.32	3744.86
447.51	3630.17
447.69	3693.37
447.88	3691.02
448.06	3742.52
448.25	3705.07
448.43	3754.22
448.62	3786.99
448.80	3693.37
448.99	3889.97
449.17	3878.27
449.36	3854.86
449.54	3955.51
449.73	4032.74
449.91	3920.40
450.10	3939.12
450.28	3920.40
450.46	4018.70
450.65	4060.83
450.83	4168.49
451.02	3885.29
451.20	4105.30
451.39	4135.73
451.57	3904.01
451.76	3978.91
451.94	4032.74
452.13	4044.45
452.31	4245.73
452.49	4016.36
452.68	4212.96
452.86	4117.00
453.05	4205.94
453.23	4093.60
453.42	3992.95
453.60	4112.32
453.78	4215.30
453.97	4187.22
454.15	4243.39
454.34	4435.32
454.52	4287.86
454.70	4308.93
454.89	4306.59
455.07	4332.33
455.26	4358.08
455.44	4318.29
455.62	4423.61
455.81	4374.46
455.99	4535.96
456.17	4397.87
456.36	4484.47
456.54	4440.00
456.73	4493.83
456.91	4617.88
457.09	4493.83
457.28	4566.39
457.46	4617.88
457.64	4535.96
457.83	4608.51
458.01	4587.45
458.19	4690.43
458.38	4652.98
458.56	4779.37
458.74	4887.04
458.93	4669.37
459.11	4692.77
459.29	4744.27
459.48	4915.12
459.66	4643.62
459.84	4844.91
460.03	4994.70
460.21	4793.42
460.39	4777.03
460.57	4805.12
460.76	4983.00
460.94	4863.63
461.12	5041.51
461.31	4905.76
461.49	4812.14
461.67	4732.56
461.85	5027.47
462.04	4997.04
462.22	5535.37
462.40	5020.45
462.59	5203.01
462.77	5128.11
462.95	5273.23
463.13	5078.96
463.32	5163.22
463.50	5210.03
463.68	5191.31
463.86	5100.03
464.05	5179.61
464.23	5130.45
464.41	5193.65
464.59	5235.78
464.78	5261.52
464.96	5219.39
465.14	5214.71
465.32	5263.86
465.50	5397.28
465.69	5348.12
465.87	5275.57
466.05	5336.42
466.23	5350.46
466.41	5406.64
466.60	5598.56
466.78	5308.34
466.96	5411.32
467.14	5394.93
467.32	5427.70
467.51	5336.42
467.69	5397.28
467.87	5584.52
468.05	5554.09
468.23	5441.75
468.41	5399.62
468.60	5453.45
468.78	5797.51
468.96	5570.48
469.14	5612.60
469.32	5586.86
469.50	5621.97
469.69	5788.14
469.87	5631.33
470.05	5809.21
470.23	5736.65
470.41	5846.66
470.59	5809.21
470.77	5884.11
470.95	5916.87
471.14	5966.03
471.32	5982.41
471.50	5989.43
471.68	6031.56
471.86	6036.24
472.04	5970.71
472.22	6092.41
472.40	5881.77
472.58	6132.20
472.77	6097.10
472.95	6218.80
473.13	6319.45
473.31	6239.87
473.49	6125.18
473.67	6209.44
473.85	6263.27
474.03	6317.11
474.21	6366.26
474.39	6352.21
474.57	6597.97
474.75	6602.65
474.93	6637.76
475.12	6612.01
475.30	6532.44
475.48	6434.13
475.66	6586.27
475.84	6679.89
476.02	6668.19
476.20	7009.90
476.38	7049.69
476.56	7007.56
476.74	6890.54
476.92	6899.90
477.10	6942.03
477.28	6946.71
477.46	6972.46
477.64	7211.19
477.82	7293.11
478.00	7536.52
478.18	7239.28
478.36	7342.26
478.54	7398.43
478.72	7232.26
478.90	7321.20
479.08	7620.78
479.26	7805.69
479.44	7658.23
479.62	7784.62
479.80	7873.56
479.98	7955.48
480.16	8070.17
480.34	7969.52
480.52	8173.15
480.70	8145.06
480.88	7936.76
481.06	8152.09
481.24	8180.17
481.41	8205.92
481.59	8276.13
481.77	8393.16
481.95	8470.40
482.13	8575.72
482.31	8622.53
482.49	8744.24
482.67	8678.71
482.85	8779.35
483.03	8987.66
483.21	9025.11
483.39	9156.18
483.57	9172.56
483.74	9338.74
483.92	9301.29
484.10	9191.28
484.28	9415.98
484.46	9678.12
484.64	9757.69
484.82	9638.33
485.00	9617.26
485.18	9708.54
485.35	10047.92
485.53	10017.49
485.71	9912.17
485.89	10186.01
486.07	10099.41
486.25	10232.82
486.43	10265.59
486.61	10331.12
486.78	10394.32
486.96	10427.09
487.14	10775.83
487.32	10815.62
487.50	10696.25
487.68	10906.90
487.85	10574.54
488.03	11197.12
488.21	11529.48
488.39	11124.57
488.57	11201.80
488.75	11389.05
488.92	11871.20
489.10	11482.67
489.28	11447.56
489.46	11707.36
489.64	11974.18
489.81	11899.28
489.99	11808.00
490.17	11953.12
490.35	12168.45
490.53	11964.82
490.70	12283.13
490.88	12219.94
491.06	12262.07
491.24	12545.27
491.41	12418.88
491.59	12578.04
491.77	12512.50
491.95	12760.60
492.13	12961.89
492.30	12950.18
492.48	12886.99
492.66	13158.49
492.84	13163.17
493.01	13060.19
493.19	13205.30
493.37	13387.86
493.54	13577.45
493.72	13511.91
493.90	13657.03
494.08	13565.74
494.25	13886.40
494.43	14008.11
494.61	14097.05
494.79	14265.57
494.96	14260.88
495.14	14024.49
495.32	14094.71
495.49	14143.86
495.67	14300.67
495.85	14560.47
496.02	14457.49
496.20	14635.37
496.38	14642.39
496.55	14892.83
496.73	15145.61
496.91	15056.67
497.09	15229.87
497.26	15419.45
497.44	15009.86
497.62	15110.50
497.79	15442.85
497.97	15304.76
498.14	15552.86
498.32	15665.21
498.50	15840.75
498.67	15822.02
498.85	15606.69
499.03	15915.64
499.20	15978.84
499.38	16084.16
499.56	16091.18
499.73	16327.58
499.91	16325.24
500.08	16301.83
500.26	15854.79
500.44	16224.59
500.61	16299.49
500.79	16486.73
500.97	16650.57
501.14	16685.68
501.32	16493.76
501.49	16709.08
501.67	16905.69
501.84	16868.24
502.02	16905.69
502.20	17132.72
502.37	17451.03
502.55	17188.89
502.72	17018.04
502.90	17104.64
503.07	17092.93
503.25	17198.26
503.43	17205.28
503.60	17376.14
503.78	17633.60
503.95	17446.35
504.13	17607.85
504.30	17682.75
504.48	17727.22
504.65	17886.37
504.83	17869.99
505.01	18216.39
505.18	17944.89
505.36	18298.31
505.53	18211.71
505.71	17935.53
505.88	18054.89
506.06	18230.43
506.23	18494.91
506.41	18253.84
506.58	18553.43
506.76	18260.86
506.93	18333.42
507.11	18373.21
507.28	18663.43
507.46	18703.22
507.63	19028.56
507.81	18714.92
507.98	18609.60
508.16	18904.51
508.33	18773.44
508.50	19112.81
508.68	19009.83
508.85	19449.85
509.03	19321.12
509.20	19180.69
509.38	19452.19
509.55	19410.06
509.73	19754.12
509.90	19489.64
510.08	19688.59
510.25	19796.25
510.42	19709.65
510.60	19875.83
510.77	20074.77
510.95	20009.24
511.12	19861.79
511.30	20027.96
511.47	19985.83
511.64	20346.28
511.82	20446.92
511.99	19836.04
512.17	20180.10
512.34	20336.91
512.51	20472.67
512.69	20585.01
512.86	20416.49
513.04	21085.89
513.21	21039.08
513.38	20748.85
513.56	20940.77
513.73	20943.11
513.90	20734.81
514.08	20861.19
514.25	21032.05
514.43	20968.86
514.60	21146.74
514.77	21074.18
514.95	21135.04
515.12	21008.65
515.29	21188.87
515.47	21378.45
515.64	21635.91
515.81	21521.23
515.99	21497.82
516.16	21876.99
516.33	21713.15
516.51	21848.90
516.68	21682.72
516.85	21717.83
517.03	21774.00
517.20	22183.60
517.37	22024.44
517.54	21961.25
517.72	22188.28
517.89	22319.35
518.06	21954.22
518.24	22256.15
518.41	22089.98
518.58	22153.17
518.75	22354.46
518.93	22265.52
519.10	22412.97
519.27	22415.31
519.45	22455.10
519.62	22635.32
519.79	22518.29
519.96	22464.46
520.14	22862.35
520.31	22515.95
520.48	22920.87
520.65	22944.27
520.83	22780.43
521.00	22710.22
521.17	22892.78
521.34	23000.44
521.52	23030.87
521.69	22768.73
521.86	23344.50
522.03	23178.33
522.20	23035.55
522.38	23164.28
522.55	23206.41
522.72	23143.22
522.89	23417.06
523.07	23639.41
523.24	23711.97
523.41	23463.87
523.58	23616.01
523.75	23934.32
523.92	23810.27
524.10	23838.36
524.27	23948.36
524.44	24011.56
524.61	24088.79
524.78	23995.17
524.96	23527.06
525.13	24290.08
525.30	23955.38
525.47	24369.66
525.64	24521.79
525.81	24556.90
525.98	24306.46
526.16	24219.86
526.33	24442.21
526.50	24259.65
526.67	24332.21
526.84	24580.31
527.01	24599.03
527.18	24596.69
527.36	24704.35
527.53	24863.51
527.70	24938.41
527.87	25181.82
528.04	24833.08
528.21	25081.18
528.38	24774.57
528.55	24884.58
528.72	24807.34
528.89	25029.69
529.07	24662.22
529.24	24748.82
529.41	25186.50
529.58	24980.54
529.75	24912.66
529.92	25034.37
530.09	25120.97
530.26	25706.10
530.43	25495.46
530.60	25579.71
530.77	25647.59
530.94	25743.55
531.11	25247.36
531.28	25392.47
531.46	25785.68
531.63	25703.76
531.80	25874.62
531.97	25748.23
532.14	25825.47
532.31	25783.34
532.48	25820.79
532.65	26192.94
532.82	25781.00
532.99	25993.99
533.16	25893.35
533.33	26277.19
533.50	26457.42
533.67	26146.12
533.84	26298.26
534.01	26237.41
534.18	26129.74
534.35	26471.46
534.52	26073.57
534.69	26539.33
534.86	26377.84
535.03	26305.28
535.20	26632.96
535.37	26628.27
535.54	26684.45
535.71	26216.34
535.88	26616.57
536.05	26934.88
536.22	26668.06
536.38	26874.03
536.55	26555.72
536.72	27012.12
536.89	26789.77
537.06	26703.17
537.23	27178.30
537.40	26649.34
537.57	27058.93
537.74	26925.52
537.91	27391.29
538.08	27339.80
538.25	27129.15
538.42	27098.72
538.59	27370.22
538.75	27229.79
538.92	27204.05
539.09	27496.61
539.26	27559.81
539.43	27569.17
539.60	27440.44
539.77	27513.00
539.94	27620.66
540.11	27543.42
540.28	27772.80
540.44	27983.44
540.61	27800.88
540.78	27807.90
540.95	27697.90
541.12	27573.85
541.29	28088.77
541.46	28444.53
541.62	28465.60
541.79	28226.86
541.96	27765.78
542.13	27850.03
542.30	28472.62
542.47	28467.94
542.63	28603.69
542.80	28290.06
542.97	28954.77
543.14	28599.01
543.31	28697.31
543.48	28500.70
543.64	28856.46
543.81	28891.57
543.98	28687.95
544.15	28711.35
544.32	28947.75
544.48	29060.09
544.65	28797.95
544.82	28519.43
544.99	28367.29
545.16	29153.71
545.32	28629.43
545.49	29757.57
545.66	29675.65
545.83	29993.97
546.00	29792.68
546.16	29703.74
546.33	29064.77
546.50	28793.27
546.67	29149.03
546.83	28706.67
547.00	29109.24
547.17	28999.24
547.34	29081.16
547.50	29261.38
547.67	29151.37
547.84	29298.83
548.00	29170.10
548.17	29598.41
548.34	29404.15
548.51	29165.42
548.67	29656.93
548.84	29713.10
549.01	29670.97
549.18	29497.77
549.34	29209.89
549.51	29233.29
549.68	29343.30
549.84	29364.36
550.01	29392.45
550.18	29523.52
550.34	29539.90
550.51	29958.86
550.68	29759.91
550.84	29579.69
551.01	29460.32
551.18	29179.46
551.34	29474.37
551.51	29497.77
551.68	29696.72
551.84	29577.35
552.01	29972.90
552.18	29975.24
552.34	29755.23
552.51	29764.59
552.68	29551.60
552.84	29677.99
553.01	29942.47
553.18	29757.57
553.34	30068.86
553.51	30218.66
553.67	30265.47
553.84	29947.15
554.01	29949.50
554.17	30059.50
554.34	29972.90
554.51	29790.34
554.67	30288.87
554.84	30286.53
555.00	29759.91
555.17	30574.42
555.33	30087.59
555.50	30380.15
555.67	30230.36
555.83	29818.42
556.00	30260.79
556.16	30693.79
556.33	30139.08
556.50	30277.17
556.66	30508.88
556.83	30295.89
556.99	30548.67
557.16	30670.38
557.32	30553.35
557.49	30909.11
557.65	30155.46
557.82	30466.75
557.98	30354.41
558.15	30529.95
558.32	30670.38
558.48	30579.10
558.65	31037.84
558.81	30438.67
558.98	30696.13
559.14	30583.78
559.31	30522.93
559.47	30658.68
559.64	30504.20
559.80	30478.46
559.97	30632.93
560.13	30862.30
560.30	30478.46
560.46	30572.08
560.63	30527.61
560.79	30576.76
560.96	31068.27
561.12	30693.79
561.29	30520.59
561.45	30354.41
561.61	31440.42
561.78	30749.96
561.94	30885.71
562.11	31164.23
562.27	30808.47
562.44	30630.59
562.60	30745.28
562.77	31096.36
562.93	30874.01
563.10	30995.71
563.26	31110.40
563.42	31414.67
563.59	30885.71
563.75	31351.48
563.92	31271.90
564.08	30895.07
564.24	30902.09
564.41	31007.42
564.57	30752.30
564.74	31108.06
564.90	31321.05
565.07	31028.48
565.23	31026.14
565.39	31276.58
565.56	31197.00
565.72	31042.53
565.88	31489.57
566.05	31035.50
566.21	30838.90
566.38	31110.40
566.54	31082.31
566.70	31370.20
566.87	31370.20
567.03	30920.82
567.19	31075.29
567.36	31335.09
567.52	30866.98
567.68	30836.56
567.85	30890.39
568.01	31204.02
568.17	30806.13
568.34	31157.21
568.50	30974.65
568.66	31447.44
568.83	31061.25
568.99	31072.95
569.15	31489.57
569.32	31243.81
569.48	31033.16
569.64	30913.80
569.81	30923.16
569.97	31454.46
570.13	31412.33
570.30	31297.64
570.46	31608.93
570.62	31044.87
570.78	31456.80
570.95	31234.45
571.11	31082.31
571.27	30955.93
571.43	31288.28
571.60	31199.34
571.76	31276.58
571.92	31489.57
572.09	31482.55
572.25	31360.84
572.41	31274.24
572.57	31536.38
572.74	31199.34
572.90	31316.37
573.06	31384.24
573.22	31557.44
573.38	31569.15
573.55	31356.16
573.71	32016.19
573.87	31732.98
574.03	31271.90
574.20	31662.77
574.36	31339.77
574.52	31672.13
574.68	31456.80
574.84	31992.78
575.01	31651.06
575.17	31257.85
575.33	31386.58
575.49	31796.18
575.65	31798.52
575.82	31431.05
575.98	31468.50
576.14	31627.66
576.30	31742.35
576.46	31384.24
576.62	31562.12
576.79	31880.44
576.95	31379.56
577.11	31548.08
577.27	31765.75
577.43	31892.14
577.59	31550.42
577.75	31747.03
577.92	31695.53
578.08	31274.24
578.24	31283.60
578.40	32088.74
578.56	31672.13
578.72	31732.98
578.88	32077.04
579.04	32496.00
579.21	32081.72
579.37	31510.63
579.53	32011.51
579.69	31417.01
579.85	31592.55
580.01	31433.39
580.17	31482.55
580.33	31728.30
580.49	31742.35
580.65	31679.15
580.82	31592.55
580.98	31702.56
581.14	31625.32
581.30	31728.30
581.46	31754.05
581.62	31908.52
581.78	31718.94
581.94	31854.69
582.10	31686.17
582.26	31786.82
582.42	31842.99
582.58	31864.05
582.74	32140.24
582.90	32245.56
583.06	32025.55
583.22	32027.89
583.38	31838.31
583.54	32025.55
583.70	31622.98
583.86	31695.53
584.02	31541.06
584.18	31461.48
584.34	31814.90
584.50	31803.20
584.66	31772.77
584.82	31744.69
584.98	31864.05
585.14	31800.86
585.30	31545.74
585.46	31814.90
585.62	31857.03
585.78	32231.52
585.94	31751.71
586.10	32081.72
586.26	31967.04
586.42	32154.28
586.58	32554.51
586.74	32175.34
586.90	31945.97
587.06	31559.78
587.22	32226.84
587.38	32371.95
587.54	32177.68
587.70	32266.63
587.86	31894.48
588.02	32390.67
588.18	31990.44
588.34	31981.08
588.49	32182.37
588.65	31735.32
588.81	31927.25
588.97	32224.50
589.13	31784.48
589.29	31899.16
589.45	32161.30
589.61	32037.25
589.77	32383.65
589.93	32348.54
590.08	32584.94
590.24	32528.77
590.40	32385.99
590.56	32091.09
590.72	32189.39
590.88	31805.54
591.04	32519.40
591.20	32367.27
591.35	32184.71
591.51	32802.61
591.67	32512.38
591.83	32636.43
