SpectraSuite Data File
++++++++++++++++++++++++++++++++++++
Date: Fri Oct 04 11:39:32 GMT-05:00 2013
User: price-jones
Dark Spectrum Present: No
Reference Spectrum Present: No
Number of Sampled Component Spectra: 1
Spectrometers: USB2+H05261
Integration Time (usec): 100000 (USB2+H05261)
Spectra Averaged: 1 (USB2+H05261)
Boxcar Smoothing: 0 (USB2+H05261)
Correct for Electrical Dark: No (USB2+H05261)
Strobe/Lamp Enabled: No (USB2+H05261)
Correct for Detector Non-linearity: No (USB2+H05261)
Correct for Stray Light: No (USB2+H05261)
Number of Pixels in Processed Spectrum: 2048
>>>>>Begin Processed Spectral Data<<<<<
365.73	23.41
365.92	23.41
366.12	23.41
366.32	0.00
366.52	0.00
366.72	0.00
366.91	16.38
367.11	0.00
367.31	0.00
367.51	0.00
367.70	0.00
367.90	0.00
368.10	0.00
368.30	0.00
368.49	0.00
368.69	0.00
368.89	0.00
369.09	0.00
369.28	21.06
369.48	0.00
369.68	0.00
369.87	35.11
370.07	0.00
370.27	25.75
370.47	49.15
370.66	234.05
370.86	245.76
371.06	304.27
371.25	271.50
371.45	299.59
371.65	248.10
371.84	238.73
372.04	308.95
372.24	322.99
372.44	322.99
372.63	332.36
372.83	386.19
373.03	327.68
373.22	325.33
373.42	369.80
373.62	365.12
373.81	379.17
374.01	456.40
374.21	301.93
374.40	341.72
374.60	395.55
374.79	409.59
374.99	381.51
375.19	411.93
375.38	404.91
375.58	414.27
375.78	360.44
375.97	341.72
376.17	386.19
376.37	332.36
376.56	381.51
376.76	379.17
376.95	402.57
377.15	367.46
377.35	369.80
377.54	388.53
377.74	318.31
377.93	325.33
378.13	362.78
378.33	454.06
378.52	411.93
378.72	355.76
378.91	386.19
379.11	339.38
379.31	477.47
379.50	341.72
379.70	470.45
379.89	514.92
380.09	461.09
380.28	428.32
380.48	395.55
380.68	402.57
380.87	458.74
381.07	458.74
381.26	468.11
381.46	416.62
381.65	435.34
381.85	400.23
382.04	484.49
382.24	519.60
382.43	390.87
382.63	472.79
382.83	440.02
383.02	479.81
383.22	505.56
383.41	362.78
383.61	456.40
383.80	465.77
384.00	535.98
384.19	447.04
384.39	451.72
384.58	517.26
384.78	503.22
384.97	540.66
385.17	475.13
385.36	498.53
385.56	409.59
385.75	517.26
385.95	535.98
386.14	517.26
386.34	491.51
386.53	528.96
386.72	491.51
386.92	615.56
387.11	603.86
387.31	561.73
387.50	596.84
387.70	461.09
387.89	519.60
388.09	489.17
388.28	587.47
388.48	507.90
388.67	620.24
388.86	528.96
389.06	550.03
389.25	653.01
389.45	603.86
389.64	596.84
389.84	674.07
390.03	627.26
390.22	575.77
390.42	505.56
390.61	514.92
390.81	627.26
391.00	650.67
391.19	580.45
391.39	706.84
391.58	641.31
391.78	629.60
391.97	603.86
392.16	585.13
392.36	596.84
392.55	725.57
392.75	627.26
392.94	678.76
393.13	685.78
393.33	650.67
393.52	699.82
393.71	767.70
393.91	699.82
394.10	683.44
394.29	786.42
394.49	702.16
394.68	737.27
394.88	779.40
395.07	777.06
395.26	779.40
395.46	755.99
395.65	781.74
395.84	702.16
396.04	851.96
396.23	723.23
396.42	779.40
396.62	800.46
396.81	847.27
397.00	816.85
397.19	821.53
397.39	884.72
397.58	826.21
397.77	842.59
397.97	898.77
398.16	910.47
398.35	896.43
398.55	959.62
398.74	858.98
398.93	912.81
399.12	910.47
399.32	961.96
399.51	992.39
399.70	1032.18
399.90	952.60
400.09	961.96
400.28	1062.60
400.47	1025.15
400.67	1032.18
400.86	1006.43
401.05	1039.20
401.24	1011.11
401.44	1036.86
401.63	1100.05
401.82	1146.86
402.01	1123.46
402.21	1043.88
402.40	1043.88
402.59	1081.33
402.78	1125.80
402.97	1139.84
403.17	1165.59
403.36	1228.78
403.55	1174.95
403.74	1170.27
403.93	1266.23
404.13	1327.08
404.32	1287.29
404.51	1249.85
404.70	1242.82
404.89	1266.23
405.09	1280.27
405.28	1320.06
405.47	1275.59
405.66	1362.19
405.85	1357.51
406.05	1355.17
406.24	1371.55
406.43	1336.45
406.62	1376.24
406.81	1469.86
407.00	1336.45
407.20	1453.47
407.39	1526.03
407.58	1474.54
407.77	1497.94
407.96	1579.86
408.15	1586.88
408.34	1507.30
408.54	1614.97
408.73	1570.50
408.92	1666.46
409.11	1659.44
409.30	1668.80
409.49	1696.89
409.68	1682.85
409.87	1717.95
410.07	1739.02
410.26	1647.74
410.45	1769.44
410.64	1802.21
410.83	1778.81
411.02	1870.09
411.21	1830.30
411.40	1813.92
411.59	1930.94
411.78	1909.88
411.98	1790.51
412.17	1935.62
412.36	1893.49
412.55	2036.27
412.74	2076.06
412.93	2134.57
413.12	2059.67
413.31	2085.42
413.50	2094.78
413.69	2134.57
413.88	2239.89
414.07	2179.04
414.26	2303.09
414.45	2366.28
414.64	2328.83
414.83	2396.71
415.02	2394.37
415.22	2478.63
415.41	2410.75
415.60	2389.69
415.79	2457.56
415.98	2443.52
416.17	2544.16
416.36	2527.78
416.55	2525.44
416.74	2644.81
416.93	2600.34
417.12	2686.94
417.31	2696.30
417.50	2661.19
417.69	2813.32
417.88	2686.94
418.07	2719.70
418.26	2761.83
418.45	2815.66
418.64	2895.24
418.83	2818.00
419.02	2860.13
419.21	2862.48
419.39	2930.35
419.58	2789.92
419.77	2836.73
419.96	2918.65
420.15	2963.12
420.34	2911.63
420.53	3068.44
420.72	3091.85
420.91	3115.25
421.10	3155.04
421.29	3164.40
421.48	3030.99
421.67	3171.43
421.86	3108.23
422.05	3098.87
422.24	3148.02
422.43	3159.72
422.61	3269.73
422.80	3241.64
422.99	3281.43
423.18	3384.41
423.37	3361.01
423.56	3391.44
423.75	3220.58
423.94	3166.74
424.13	3197.17
424.32	3063.76
424.50	3173.77
424.69	3393.78
424.88	3314.20
425.07	3353.99
425.26	3215.90
425.45	3361.01
425.64	3297.81
425.83	3258.03
426.01	3377.39
426.20	3194.83
426.39	3386.76
426.58	3426.54
426.77	3337.60
426.96	3452.29
427.15	3534.21
427.33	3424.20
427.52	3335.26
427.71	3471.01
427.90	3389.10
428.09	3595.06
428.28	3428.88
428.46	3473.36
428.65	3588.04
428.84	3599.74
429.03	3719.11
429.22	3655.92
429.40	3693.37
429.59	3667.62
429.78	3534.21
429.97	3433.57
430.16	3655.92
430.34	3824.44
430.53	3777.62
430.72	3751.88
430.91	3667.62
431.10	3845.50
431.28	3693.37
431.47	3808.05
431.66	3946.14
431.85	3875.93
432.03	3831.46
432.22	3997.64
432.41	3798.69
432.60	3999.98
432.79	3875.93
432.97	4032.74
433.16	4049.13
433.35	3873.59
433.54	4014.02
433.72	3936.78
433.91	4086.58
434.10	4194.24
434.28	3960.19
434.47	4177.86
434.66	4021.04
434.85	4215.30
435.03	4257.43
435.22	4358.08
435.41	4650.64
435.59	4624.90
435.78	4423.61
435.97	4379.14
436.16	4313.61
436.34	4475.10
436.53	4315.95
436.72	4362.76
436.90	4327.65
437.09	4390.84
437.28	4425.95
437.46	4493.83
437.65	4573.41
437.84	4514.89
438.02	4472.76
438.21	4615.54
438.40	4360.42
438.58	4683.41
438.77	4697.46
438.96	4636.60
439.14	4746.61
439.33	4793.42
439.52	4809.80
439.70	4713.84
439.89	4798.10
440.08	4891.72
440.26	4905.76
440.45	4894.06
440.63	4973.64
440.82	5118.75
441.01	5151.52
441.19	5137.48
441.38	5130.45
441.57	5125.77
441.75	5270.89
441.94	5291.95
442.12	5212.37
442.31	5420.68
442.50	5198.33
442.68	5233.44
442.87	5364.51
443.05	5317.70
443.24	5291.95
443.43	5441.75
443.61	5350.46
443.80	5399.62
443.98	5420.68
444.17	5256.84
444.35	5509.62
444.54	5657.07
444.73	5556.43
444.91	5511.96
445.10	5490.90
445.28	5287.27
445.47	5563.45
445.65	5647.71
445.84	5636.01
446.02	5680.48
446.21	5682.82
446.39	5530.69
446.58	5668.78
446.77	5792.83
446.95	5561.11
447.14	5753.04
447.32	5727.29
447.51	5544.73
447.69	5708.57
447.88	5696.86
448.06	5713.25
448.25	5430.04
448.43	5823.25
448.62	5659.42
448.80	5724.95
448.99	5753.04
449.17	5764.74
449.36	5731.97
449.54	5860.70
449.73	5907.51
449.91	6052.63
450.10	6001.13
450.28	6106.46
450.46	6111.14
450.65	5973.05
450.83	6008.16
451.02	5900.49
451.20	6267.95
451.39	6169.65
451.57	6052.63
451.76	6073.69
451.94	6050.28
452.13	6216.46
452.31	6181.35
452.49	6225.82
452.68	6225.82
452.86	6223.48
453.05	6183.70
453.23	6424.77
453.42	6228.17
453.60	6382.64
453.78	6368.60
453.97	6181.35
454.15	6258.59
454.34	6307.74
454.52	6497.33
454.70	6551.16
454.89	6438.81
455.07	6502.01
455.26	6544.14
455.44	6539.46
455.62	6502.01
455.81	6628.40
455.99	6796.92
456.17	6705.63
456.36	6764.15
456.54	6684.57
456.73	6703.29
456.91	7082.46
457.09	6953.73
457.28	7194.81
457.46	6864.79
457.64	6946.71
457.83	7070.76
458.01	7030.97
458.19	7119.91
458.38	7089.48
458.56	7082.46
458.74	7213.53
458.93	7211.19
459.11	7169.06
459.29	7133.95
459.48	7180.76
459.66	7129.27
459.84	7164.38
460.03	7358.64
460.21	7222.89
460.39	7229.91
460.57	7185.44
460.76	7283.75
460.94	7314.17
461.12	7358.64
461.31	7606.74
461.49	7386.73
461.67	7368.01
461.85	7517.80
462.04	7524.82
462.22	7782.28
462.40	7599.72
462.59	7723.77
462.77	7590.36
462.95	7569.29
463.13	7611.42
463.32	7775.26
463.50	7646.53
463.68	7564.61
463.86	7660.57
464.05	7531.84
464.23	7749.51
464.41	7922.71
464.59	7737.81
464.78	7798.66
464.96	7857.18
465.14	7906.33
465.32	8187.19
465.50	8011.65
465.69	7992.93
465.87	7932.08
466.05	7929.74
466.23	8063.15
466.41	7990.59
466.60	8049.10
466.78	7981.23
466.96	7840.79
467.14	7892.29
467.32	7974.21
467.51	8051.44
467.69	7995.27
467.87	8077.19
468.05	8152.09
468.23	8046.76
468.41	8159.11
468.60	8140.38
468.78	8439.97
468.96	8187.19
469.14	8446.99
469.32	8393.16
469.50	8217.62
469.69	8411.89
469.87	8795.73
470.05	8505.51
470.23	8521.89
470.41	8734.88
470.59	8741.90
470.77	8601.47
470.95	8655.30
471.14	8840.20
471.32	8765.31
471.50	8840.20
471.68	8931.48
471.86	8898.72
472.04	9015.74
472.22	9217.03
472.40	9205.33
472.58	9114.05
472.77	9233.41
472.95	9226.39
473.13	9444.06
473.31	9139.79
473.49	9043.83
473.67	9135.11
473.85	9214.69
474.03	9525.98
474.21	9327.03
474.39	9638.33
474.57	9841.95
474.75	9692.16
474.93	9612.58
475.12	9659.39
475.30	9804.50
475.48	9715.56
475.66	9930.89
475.84	9860.68
476.02	10083.03
476.20	9872.38
476.38	10001.11
476.56	10443.47
476.74	10352.19
476.92	10352.19
477.10	10235.16
477.28	10647.10
477.46	10420.06
477.64	10576.88
477.82	10857.75
478.00	10930.30
478.18	10874.13
478.36	10888.17
478.54	11103.50
478.72	11023.92
478.90	11262.66
479.08	11494.37
479.26	11557.57
479.44	11503.73
479.62	11529.48
479.80	11559.91
479.98	11644.17
480.16	11674.59
480.34	11728.42
480.52	11903.96
480.70	11997.59
480.88	11978.86
481.06	12070.14
481.24	12077.16
481.41	12463.35
481.59	12400.16
481.77	12351.01
481.95	12645.91
482.13	12578.04
482.31	12919.76
482.49	13011.04
482.67	12968.91
482.85	13224.03
483.03	13338.71
483.21	13380.84
483.39	13467.44
483.57	13600.85
483.74	13654.69
483.92	13809.16
484.10	13790.44
484.28	14038.53
484.46	14228.12
484.64	14469.19
484.82	14225.78
485.00	14377.91
485.18	14721.97
485.35	14878.79
485.53	14773.46
485.71	14764.10
485.89	15276.68
486.07	15234.55
486.25	14972.41
486.43	15311.78
486.61	15250.93
486.78	15428.81
486.96	15646.48
487.14	15815.00
487.32	15948.41
487.50	16149.70
487.68	16030.33
487.85	16170.76
488.03	16477.37
488.21	16702.06
488.39	16585.04
488.57	16933.78
488.75	16575.67
488.92	17128.04
489.10	17055.48
489.28	17181.87
489.46	17254.43
489.64	17624.23
489.81	17584.44
489.99	17937.87
490.17	17841.90
490.35	17909.78
490.53	17947.23
490.70	18391.93
490.88	18281.92
491.06	18398.95
491.24	18581.51
491.41	18654.07
491.59	18813.23
491.77	18853.02
491.95	18991.11
492.13	19229.84
492.30	19138.56
492.48	19124.52
492.66	19271.97
492.84	19616.03
493.01	19585.60
493.19	19829.02
493.37	19999.88
493.54	20098.18
493.72	20137.97
493.90	20154.35
494.08	20259.68
494.25	20547.56
494.43	20629.48
494.61	20847.15
494.79	21135.04
494.96	20954.82
495.14	21156.10
495.32	21181.85
495.49	21249.72
495.67	21015.67
495.85	21816.13
496.02	21869.97
496.20	21823.16
496.38	21792.73
496.55	21965.93
496.73	22127.42
496.91	22146.15
497.09	22295.94
497.26	22586.17
497.44	22651.70
497.62	22419.99
497.79	22927.89
497.97	22630.64
498.14	23091.73
498.32	23082.36
498.50	23288.33
498.67	23616.01
498.85	23475.57
499.03	23655.79
499.20	23637.07
499.38	23522.38
499.56	23726.01
499.73	24006.87
499.91	24123.90
500.08	23931.98
500.26	23814.95
500.44	24025.60
500.61	24329.87
500.79	24395.40
500.97	24613.07
501.14	24863.51
501.32	24781.59
501.49	24563.92
501.67	24341.57
501.84	24893.94
502.02	24807.34
502.20	25198.21
502.37	25144.38
502.55	25085.86
502.72	25172.46
502.90	25371.41
503.07	25167.78
503.25	25343.32
503.43	25462.69
503.60	25759.94
503.78	25919.09
503.95	25584.40
504.13	25689.72
504.30	25652.27
504.48	25820.79
504.65	26010.37
504.83	26246.77
505.01	26398.90
505.18	26345.07
505.36	26728.92
505.53	26417.63
505.71	26588.49
505.88	26897.44
506.06	26642.32
506.23	27023.83
506.41	26529.97
506.58	27297.67
506.76	26988.72
506.93	27187.66
507.11	26888.07
507.28	27452.14
507.46	27583.21
507.63	27339.80
507.81	27936.63
507.98	27309.37
508.16	27723.65
508.33	27758.75
508.50	27768.12
508.68	27878.12
508.85	28135.58
509.03	28112.17
509.20	28205.80
509.38	28379.00
509.55	28809.65
509.73	28444.53
509.90	28936.04
510.08	28898.59
510.25	28575.60
510.42	29015.62
510.60	29223.93
510.77	29083.50
510.95	29273.08
511.12	28917.32
511.30	29221.59
511.47	29418.19
511.64	29228.61
511.82	29567.99
511.99	29624.16
512.17	29600.76
512.34	29713.10
512.51	29837.15
512.69	29633.52
512.86	29972.90
513.04	29926.09
513.21	30225.68
513.38	30192.91
513.56	30293.55
513.73	30125.04
513.90	30284.19
514.08	30073.54
514.25	30457.39
514.43	30895.07
514.60	30536.97
514.77	30764.00
514.95	30974.65
515.12	30707.83
515.29	31023.80
515.47	31054.23
515.64	31035.50
515.81	31089.34
515.99	31187.64
516.16	31854.69
516.33	31421.69
516.51	32030.23
516.68	31154.87
516.85	31370.20
517.03	31901.50
517.20	31962.36
517.37	31927.25
517.54	32063.00
517.72	31707.24
517.89	31695.53
518.06	32121.51
518.24	32355.57
518.41	31690.85
518.58	31974.06
518.75	32627.07
518.93	32409.40
519.10	32739.41
519.27	32493.66
519.45	32479.61
519.62	32933.68
519.79	32460.89
519.96	32648.13
520.14	32964.10
520.31	33198.16
520.48	32568.55
520.65	32802.61
520.83	33425.19
521.00	33315.19
521.17	33677.97
521.34	33064.75
521.52	33638.18
521.69	33354.97
521.86	33443.91
522.03	34007.98
522.20	33743.50
522.38	33942.45
522.55	33727.12
522.72	33640.52
522.89	33544.56
523.07	34511.20
523.24	34419.92
523.41	34237.36
523.58	33933.09
523.75	34298.21
523.92	34565.03
524.10	34340.34
524.27	34703.12
524.44	34820.15
524.61	34710.14
524.78	35093.99
524.96	34726.53
525.13	34719.51
525.30	34955.90
525.47	34820.15
525.64	34677.38
525.81	35346.77
525.98	35288.26
526.16	35002.71
526.33	35040.16
526.50	35206.34
526.67	35023.78
526.84	35283.58
527.01	35374.86
527.18	35241.45
527.36	35772.75
527.53	35718.92
527.70	36348.52
527.87	36016.16
528.04	36280.64
528.21	35908.50
528.38	35622.95
528.55	36254.90
528.72	35847.64
528.89	35955.31
529.07	35681.47
529.24	36350.86
529.41	36287.67
529.58	36060.63
529.75	36280.64
529.92	36074.68
530.09	36233.83
530.26	36444.48
530.43	36952.38
530.60	36201.07
530.77	36463.21
530.94	36725.35
531.11	35978.72
531.28	36692.58
531.46	36889.18
531.63	37125.58
531.80	36987.49
531.97	36692.58
532.14	37331.54
532.31	37109.19
532.48	37317.50
532.65	37525.81
532.82	37125.58
532.99	37017.91
533.16	37050.68
533.33	37560.92
533.50	37954.13
533.67	37514.11
533.84	37165.37
534.01	37242.60
534.18	37361.97
534.35	37750.50
534.52	37624.11
534.69	38239.67
534.86	38401.17
535.03	37488.36
535.20	37961.15
535.37	38244.35
535.54	38127.33
535.71	37780.93
535.88	37848.80
536.05	37998.60
536.22	38169.46
536.38	38185.84
536.55	38298.19
536.72	38401.17
536.89	38562.67
537.06	38323.93
537.23	38738.21
537.40	38366.06
537.57	38501.81
537.74	38253.72
537.91	38965.24
538.08	38684.37
538.25	38766.29
538.42	38906.73
538.59	39194.61
538.75	38616.50
538.92	38426.92
539.09	38920.77
539.26	39220.36
539.43	39690.80
539.60	39248.44
539.77	39140.78
539.94	39416.96
540.11	39290.57
540.28	39056.52
540.44	39636.97
540.61	39105.67
540.78	39435.69
540.95	39627.61
541.12	39487.18
541.29	39856.98
541.46	39606.55
541.62	39428.66
541.79	40034.86
541.96	39831.24
542.13	39999.76
542.30	40037.20
542.47	40355.52
542.63	40540.42
542.80	40179.98
542.97	40685.53
543.14	40577.87
543.31	40498.29
543.48	40392.97
543.64	41001.50
543.81	40851.71
543.98	40566.16
544.15	40966.40
544.32	41074.06
544.48	40610.64
544.65	40940.65
544.82	41031.93
544.99	40343.81
545.16	40849.37
545.32	40779.15
545.49	41401.74
545.66	42122.62
545.83	42047.72
546.00	41970.49
546.16	41497.70
546.33	41104.49
546.50	40524.04
546.67	41083.42
546.83	40521.69
547.00	41038.95
547.17	41097.47
547.34	41148.96
547.50	41053.00
547.67	41652.17
547.84	41471.95
548.00	41366.63
548.17	41820.69
548.34	41273.01
548.51	41572.60
548.67	41516.42
548.84	41558.55
549.01	41813.67
549.18	42014.96
549.34	41603.02
549.51	41523.44
549.68	41539.83
549.84	41841.76
550.01	41956.44
550.18	41778.56
550.34	41762.18
550.51	42197.52
550.68	41933.04
550.84	41514.08
551.01	41703.67
551.18	41528.13
551.34	41841.76
551.51	41776.22
551.68	41759.84
551.84	41521.10
552.01	42164.75
552.18	41766.86
552.34	41603.02
552.51	42146.03
552.68	41890.91
552.84	41776.22
553.01	41982.19
553.18	42092.19
553.34	42373.06
553.51	41869.84
553.67	42012.62
553.84	42752.23
554.01	42469.02
554.17	42464.34
554.34	42305.18
554.51	42227.95
554.67	42120.28
554.84	42843.51
555.00	42572.00
555.17	42436.25
555.33	42607.11
555.50	42333.27
555.67	42333.27
555.83	42497.11
556.00	42239.65
556.16	42469.02
556.33	42263.05
556.50	42586.05
556.66	42700.73
556.83	42815.42
556.99	42794.36
557.16	42359.02
557.32	42625.84
557.49	42763.93
557.65	42637.54
557.82	42710.10
557.98	42677.33
558.15	42878.61
558.32	42761.59
558.48	42663.28
558.65	42728.82
558.81	43196.93
558.98	42995.64
559.14	42597.75
559.31	42763.93
559.47	42904.36
559.64	43253.10
559.80	43217.99
559.97	43016.71
560.13	43152.46
560.30	43133.73
560.46	43267.14
560.63	43112.67
560.79	43225.01
560.96	43627.59
561.12	43117.35
561.29	42806.06
561.45	43016.71
561.61	43119.69
561.78	43580.78
561.94	43447.36
562.11	43353.74
562.27	43173.52
562.44	43466.09
562.60	42986.28
562.77	43147.78
562.93	43295.23
563.10	43655.67
563.26	43316.29
563.42	43744.61
563.59	43100.97
563.75	43180.54
563.92	43433.32
564.08	42955.85
564.24	43276.51
564.41	43161.82
564.57	43107.99
564.74	43107.99
564.90	43662.69
565.07	43332.68
565.23	43400.55
565.39	43402.89
565.56	43302.25
565.72	43047.13
565.88	43395.87
566.05	43187.56
566.21	43030.75
566.38	43391.19
566.54	43051.81
566.70	43606.52
566.87	43487.15
567.03	43234.38
567.19	44088.67
567.36	43779.72
567.52	43569.07
567.68	44020.80
567.85	43496.52
568.01	43875.68
568.17	43494.18
568.34	43948.24
568.50	43735.25
568.66	43634.61
568.83	43831.21
568.99	43510.56
569.15	43908.45
569.32	43723.55
569.48	43414.60
569.64	43529.28
569.81	43505.88
569.97	43400.55
570.13	43672.06
570.30	43824.19
570.46	43587.80
570.62	43695.46
570.78	43679.08
570.95	42925.42
571.11	43983.35
571.27	43531.62
571.43	43585.46
571.60	43583.12
571.76	43819.51
571.92	43854.62
572.09	43842.92
572.25	43969.30
572.41	43632.27
572.57	43587.80
572.74	43667.37
572.90	43871.00
573.06	43576.09
573.22	43749.29
573.38	43934.20
573.55	44238.47
573.71	44013.77
573.87	44362.51
574.03	43838.23
574.20	44156.55
574.36	43494.18
574.52	43962.28
574.68	43875.68
574.84	43578.43
575.01	44041.86
575.17	43866.32
575.33	43606.52
575.49	43761.00
575.65	43835.89
575.82	44079.31
575.98	43545.67
576.14	43859.30
576.30	44067.61
576.46	43601.84
576.62	43971.64
576.79	43697.80
576.95	43503.54
577.11	43859.30
577.27	43966.96
577.43	43924.83
577.59	43887.39
577.75	43887.39
577.92	43594.82
578.08	43342.04
578.24	43545.67
578.40	43585.46
578.56	44573.16
578.72	44044.20
578.88	44505.29
579.04	44039.52
579.21	43868.66
579.37	43966.96
579.53	44264.21
579.69	43674.40
579.85	43887.39
580.01	44002.07
580.17	44009.09
580.33	43861.64
580.49	44521.67
580.65	43555.03
580.82	44053.56
580.98	43882.70
581.14	43917.81
581.30	44114.42
581.46	43482.47
581.62	43529.28
581.78	43414.60
581.94	43629.93
582.10	43976.33
582.26	44149.53
582.42	44011.43
582.58	43779.72
582.74	43639.29
582.90	43943.56
583.06	44151.87
583.22	43889.73
583.38	43779.72
583.54	43728.23
583.70	43718.87
583.86	44039.52
584.02	43973.98
584.18	44240.81
584.34	44069.95
584.50	44102.71
584.66	44266.55
584.82	43435.66
584.98	43842.92
585.14	43634.61
585.30	43643.97
585.46	43718.87
585.62	44268.89
585.78	44252.51
585.94	44034.84
586.10	44648.06
586.26	44158.89
586.42	44348.47
586.58	44198.68
586.74	44083.99
586.90	44009.09
587.06	44102.71
587.22	44165.91
587.38	43934.20
587.54	44233.78
587.70	44149.53
587.86	43899.09
588.02	44343.79
588.18	44278.25
588.34	43990.37
588.49	44060.58
588.65	43863.98
588.81	44168.25
588.97	44238.47
589.13	43999.73
589.29	43580.78
589.45	44135.48
589.61	44079.31
589.77	44285.28
589.93	44430.39
590.08	44313.36
590.24	44353.15
590.40	43988.03
590.56	44046.54
590.72	44350.81
590.88	43929.51
