SpectraSuite Data File
++++++++++++++++++++++++++++++++++++
Date: Fri Oct 04 11:39:29 GMT-05:00 2013
User: price-jones
Dark Spectrum Present: No
Reference Spectrum Present: No
Number of Sampled Component Spectra: 1
Spectrometers: USB2+H05261
Integration Time (usec): 100000 (USB2+H05261)
Spectra Averaged: 1 (USB2+H05261)
Boxcar Smoothing: 0 (USB2+H05261)
Correct for Electrical Dark: No (USB2+H05261)
Strobe/Lamp Enabled: No (USB2+H05261)
Correct for Detector Non-linearity: No (USB2+H05261)
Correct for Stray Light: No (USB2+H05261)
Number of Pixels in Processed Spectrum: 2048
>>>>>Begin Processed Spectral Data<<<<<
365.73	53.83
365.92	53.83
366.12	53.83
366.32	0.00
366.52	0.00
366.72	14.04
366.91	0.00
367.11	0.00
367.31	0.00
367.51	0.00
367.70	0.00
367.90	0.00
368.10	0.00
368.30	0.00
368.49	0.00
368.69	0.00
368.89	9.36
369.09	14.04
369.28	0.00
369.48	0.00
369.68	2.34
369.87	0.00
370.07	42.13
370.27	70.22
370.47	9.36
370.66	72.56
370.86	112.35
371.06	102.98
371.25	156.82
371.45	49.15
371.65	198.95
371.84	105.32
372.04	166.18
372.24	156.82
372.44	159.16
372.63	166.18
372.83	229.37
373.03	184.90
373.22	196.60
373.42	170.86
373.62	145.11
373.81	182.56
374.01	159.16
374.21	191.92
374.40	201.29
374.60	234.05
374.79	208.31
374.99	135.75
375.19	152.13
375.38	269.16
375.58	184.90
375.78	266.82
375.97	210.65
376.17	198.95
376.37	152.13
376.56	140.43
376.76	170.86
376.95	131.07
377.15	280.86
377.35	236.39
377.54	156.82
377.74	217.67
377.93	152.13
378.13	224.69
378.33	210.65
378.52	227.03
378.72	166.18
378.91	266.82
379.11	205.97
379.31	222.35
379.50	124.05
379.70	205.97
379.89	243.42
380.09	170.86
380.28	203.63
380.48	175.54
380.68	159.16
380.87	201.29
381.07	198.95
381.26	259.80
381.46	177.88
381.65	222.35
381.85	215.33
382.04	196.60
382.24	234.05
382.43	191.92
382.63	187.24
382.83	173.20
383.02	189.58
383.22	245.76
383.41	154.48
383.61	243.42
383.80	198.95
384.00	175.54
384.19	133.41
384.39	227.03
384.58	259.80
384.78	210.65
384.97	196.60
385.17	182.56
385.36	227.03
385.56	257.46
385.75	203.63
385.95	224.69
386.14	327.68
386.34	149.79
386.53	280.86
386.72	147.45
386.92	243.42
387.11	196.60
387.31	201.29
387.50	259.80
387.70	168.52
387.89	276.18
388.09	250.44
388.28	271.50
388.48	205.97
388.67	266.82
388.86	248.10
389.06	220.01
389.25	315.97
389.45	266.82
389.64	252.78
389.84	290.23
390.03	234.05
390.22	276.18
390.42	245.76
390.61	266.82
390.81	262.14
391.00	266.82
391.19	304.27
391.39	224.69
391.58	262.14
391.78	334.70
391.97	243.42
392.16	278.52
392.36	259.80
392.55	257.46
392.75	294.91
392.94	301.93
393.13	348.74
393.33	266.82
393.52	276.18
393.71	332.36
393.91	322.99
394.10	369.80
394.29	344.06
394.49	313.63
394.68	339.38
394.88	341.72
395.07	351.08
395.26	320.65
395.46	250.44
395.65	435.34
395.84	318.31
396.04	435.34
396.23	367.46
396.42	407.25
396.62	395.55
396.81	351.08
397.00	297.25
397.19	297.25
397.39	425.98
397.58	390.87
397.77	332.36
397.97	482.15
398.16	383.85
398.35	411.93
398.55	400.23
398.74	337.04
398.93	414.27
399.12	325.33
399.32	454.06
399.51	374.49
399.70	461.09
399.90	475.13
400.09	393.21
400.28	421.30
400.47	493.85
400.67	526.62
400.86	507.90
401.05	491.51
401.24	505.56
401.44	514.92
401.63	521.94
401.82	545.34
402.01	496.19
402.21	538.32
402.40	500.87
402.59	496.19
402.78	507.90
402.97	582.79
403.17	585.13
403.36	538.32
403.55	505.56
403.74	568.75
403.93	617.90
404.13	681.10
404.32	655.35
404.51	669.39
404.70	723.23
404.89	622.58
405.09	655.35
405.28	678.76
405.47	650.67
405.66	734.93
405.85	676.41
406.05	688.12
406.24	697.48
406.43	674.07
406.62	716.20
406.81	842.59
407.00	760.67
407.20	802.80
407.39	772.38
407.58	819.19
407.77	788.76
407.96	791.10
408.15	816.85
408.34	870.68
408.54	819.19
408.73	837.91
408.92	788.76
409.11	849.61
409.30	849.61
409.49	903.45
409.68	931.53
409.87	882.38
410.07	884.72
410.26	877.70
410.45	1018.13
410.64	966.64
410.83	1032.18
411.02	896.43
411.21	980.68
411.40	1053.24
411.59	1043.88
411.78	1116.44
411.98	1078.99
412.17	1111.75
412.36	1086.01
412.55	1097.71
412.74	1156.22
412.93	1160.91
413.12	1132.82
413.31	1160.91
413.50	1205.38
413.69	1149.20
413.88	1172.61
414.07	1249.85
414.26	1296.66
414.45	1130.48
414.64	1240.48
414.83	1247.51
415.02	1207.72
415.22	1261.55
415.41	1245.16
415.60	1296.66
415.79	1446.45
415.98	1392.62
416.17	1390.28
416.36	1390.28
416.55	1448.79
416.74	1509.65
416.93	1488.58
417.12	1409.00
417.31	1437.09
417.50	1474.54
417.69	1605.61
417.88	1537.73
418.07	1547.09
418.26	1572.84
418.45	1605.61
418.64	1666.46
418.83	1685.19
419.02	1638.38
419.21	1598.59
419.39	1607.95
419.58	1673.48
419.77	1586.88
419.96	1600.93
420.15	1802.21
420.34	1750.72
420.53	1673.48
420.72	1767.10
420.91	1703.91
421.10	1795.19
421.29	1753.06
421.48	1757.74
421.67	1764.76
421.86	1736.68
422.05	1823.28
422.24	1774.13
422.43	1778.81
422.61	1820.94
422.80	1816.26
422.99	1839.66
423.18	1877.11
423.37	1870.09
423.56	1834.98
423.75	1795.19
423.94	1881.79
424.13	1781.15
424.32	1778.81
424.50	1839.66
424.69	1942.64
424.88	1921.58
425.07	1907.54
425.26	1937.96
425.45	1921.58
425.64	1940.30
425.83	1914.56
426.01	2033.93
426.20	1994.14
426.39	1888.81
426.58	1973.07
426.77	1935.62
426.96	1942.64
427.15	2064.35
427.33	1947.33
427.52	2026.90
427.71	2040.95
427.90	1959.03
428.09	2062.01
428.28	2038.61
428.46	1987.11
428.65	2146.27
428.84	2122.87
429.03	2108.82
429.22	1973.07
429.40	2148.61
429.59	2174.36
429.78	1982.43
429.97	2031.58
430.16	2134.57
430.34	2134.57
430.53	2143.93
430.72	2207.13
430.91	2246.91
431.10	2118.18
431.28	2256.28
431.47	2214.15
431.66	2244.57
431.85	2190.74
432.03	2354.58
432.22	2307.77
432.41	2195.42
432.60	2377.98
432.79	2296.07
432.97	2401.39
433.16	2310.11
433.35	2300.75
433.54	2328.83
433.72	2345.22
433.91	2523.10
434.10	2326.49
434.28	2279.68
434.47	2504.37
434.66	2377.98
434.85	2392.03
435.03	2438.84
435.22	2640.12
435.41	3038.02
435.59	2909.29
435.78	2740.77
435.97	2546.50
436.16	2651.83
436.34	2457.56
436.53	2497.35
436.72	2626.08
436.90	2457.56
437.09	2630.76
437.28	2576.93
437.46	2579.27
437.65	2686.94
437.84	2647.15
438.02	2630.76
438.21	2651.83
438.40	2553.52
438.58	2693.96
438.77	2698.64
438.96	2555.86
439.14	2815.66
439.33	2818.00
439.52	2843.75
439.70	2846.09
439.89	2832.05
440.08	2855.45
440.26	2836.73
440.45	2885.88
440.63	2867.16
440.82	2909.29
441.01	2911.63
441.19	2930.35
441.38	2993.55
441.57	2925.67
441.75	3075.46
441.94	3141.00
442.12	2986.52
442.31	3171.43
442.50	3150.36
442.68	3002.91
442.87	3108.23
443.05	3012.27
443.24	3239.30
443.43	3143.34
443.61	3304.84
443.80	3208.87
443.98	3087.17
444.17	3131.64
444.35	3157.38
444.54	3129.30
444.73	3258.03
444.91	3155.04
445.10	3162.06
445.28	3318.88
445.47	3290.79
445.65	3119.93
445.84	3365.69
446.02	3194.83
446.21	3255.69
446.39	3272.07
446.58	3234.62
446.77	3101.21
446.95	3215.90
447.14	3199.51
447.32	3403.14
447.51	3323.56
447.69	3272.07
447.88	3295.47
448.06	3405.48
448.25	3349.31
448.43	3241.64
448.62	3262.71
448.80	3272.07
448.99	3384.41
449.17	3290.79
449.36	3323.56
449.54	3346.97
449.73	3370.37
449.91	3503.78
450.10	3562.30
450.28	3564.64
450.46	3609.11
450.65	3466.33
450.83	3499.10
451.02	3515.48
451.20	3653.58
451.39	3606.77
451.57	3550.59
451.76	3588.04
451.94	3552.93
452.13	3693.37
452.31	3604.42
452.49	3475.70
452.68	3566.98
452.86	3679.32
453.05	3714.43
453.23	3669.96
453.42	3714.43
453.60	3557.61
453.78	3691.02
453.97	3623.15
454.15	3548.25
454.34	3639.53
454.52	3824.44
454.70	3763.58
454.89	3667.62
455.07	3709.75
455.26	3794.01
455.44	3875.93
455.62	3838.48
455.81	3763.58
455.99	3880.61
456.17	3960.19
456.36	3836.14
456.54	4049.13
456.73	3988.27
456.91	4007.00
457.09	4114.66
457.28	4095.94
457.46	3915.72
457.64	4021.04
457.83	4042.11
458.01	3932.10
458.19	4222.33
458.38	4224.67
458.56	4145.09
458.74	4255.09
458.93	3999.98
459.11	4198.92
459.29	4049.13
459.48	4007.00
459.66	4126.36
459.84	4280.84
460.03	4327.65
460.21	4053.81
460.39	4196.58
460.57	4280.84
460.76	4386.16
460.94	4369.78
461.12	4383.82
461.31	4299.56
461.49	4248.07
461.67	4241.05
461.85	4475.10
462.04	4322.97
462.22	4463.40
462.40	4421.27
462.59	4432.97
462.77	4376.80
462.95	4318.29
463.13	4283.18
463.32	4339.35
463.50	4547.66
463.68	4430.63
463.86	4601.49
464.05	4358.08
464.23	4395.53
464.41	4470.42
464.59	4482.13
464.78	4512.55
464.96	4557.02
465.14	4540.64
465.32	4491.49
465.50	4685.75
465.69	4662.35
465.87	4578.09
466.05	4627.24
466.23	4585.11
466.41	4847.25
466.60	4851.93
466.78	4739.58
466.96	4791.08
467.14	4594.47
467.32	4777.03
467.51	4973.64
467.69	4566.39
467.87	4746.61
468.05	4784.06
468.23	4627.24
468.41	4922.15
468.60	4826.18
468.78	4856.61
468.96	4933.85
469.14	4912.78
469.32	4924.49
469.50	4765.33
469.69	4847.25
469.87	4901.08
470.05	4971.30
470.23	5015.77
470.41	4987.68
470.59	5004.07
470.77	5074.28
470.95	5067.26
471.14	5177.26
471.32	4997.04
471.50	5200.67
471.68	5146.84
471.86	5158.54
472.04	5343.44
472.22	5336.42
472.40	5172.58
472.58	5245.14
472.77	5261.52
472.95	5497.92
473.13	5437.06
473.31	5308.34
473.49	5614.95
473.67	5537.71
473.85	5240.46
474.03	5591.54
474.21	5343.44
474.39	5671.12
474.57	5724.95
474.75	5626.65
474.93	5788.14
475.12	5757.72
475.30	5748.36
475.48	5710.91
475.66	5830.27
475.84	5731.97
476.02	5734.31
476.20	5879.43
476.38	5809.21
476.56	6183.70
476.74	6106.46
476.92	5921.56
477.10	5933.26
477.28	6188.38
477.46	6239.87
477.64	6218.80
477.82	6127.52
478.00	6424.77
478.18	6384.98
478.36	6265.61
478.54	6520.73
478.72	6408.39
478.90	6518.39
479.08	6670.53
479.26	6684.57
479.44	6565.20
479.62	6794.58
479.80	6604.99
479.98	6677.55
480.16	6890.54
480.34	7000.54
480.52	7019.27
480.70	7040.33
480.88	7033.31
481.06	6916.28
481.24	7080.12
481.41	7045.01
481.59	7222.89
481.77	7356.30
481.95	7440.56
482.13	7494.40
482.31	7365.67
482.49	7524.82
482.67	7604.40
482.85	7871.22
483.03	7817.39
483.21	7707.38
483.39	7999.95
483.57	7812.71
483.74	7866.54
483.92	8098.25
484.10	8086.55
484.28	8212.94
484.46	8203.58
484.64	8414.23
484.82	8189.53
485.00	8355.71
485.18	8428.27
485.35	8568.70
485.53	8540.61
485.71	8636.58
485.89	8713.81
486.07	8697.43
486.25	8982.98
486.43	8755.94
486.61	8910.42
486.78	8994.68
486.96	9085.96
487.14	9193.62
487.32	9259.16
487.50	9137.45
487.68	9411.29
487.85	9352.78
488.03	9334.06
488.21	9729.61
488.39	9619.60
488.57	9872.38
488.75	9912.17
488.92	9860.68
489.10	9830.25
489.28	10197.71
489.46	10031.54
489.64	9762.37
489.81	10251.55
489.99	10207.08
490.17	10277.29
490.35	10604.97
490.53	10399.00
490.70	10504.32
490.88	10438.79
491.06	10773.49
491.24	10464.54
491.41	10717.31
491.59	11012.22
491.77	10925.62
491.95	10995.84
492.13	10979.45
492.30	11077.76
492.48	11016.90
492.66	11089.46
492.84	11213.51
493.01	11564.59
493.19	11314.15
493.37	11501.39
493.54	11468.62
493.72	11440.54
493.90	11627.78
494.08	11716.72
494.25	11932.05
494.43	12070.14
494.61	11918.01
494.79	11836.09
494.96	12135.68
495.14	12095.89
495.32	12161.42
495.49	12278.45
495.67	12360.37
495.85	12208.23
496.02	12404.84
496.20	12734.85
496.38	12692.73
496.55	12496.12
496.73	12894.01
496.91	12765.28
497.09	12800.39
497.26	12847.20
497.44	12943.16
497.62	13160.83
497.79	12975.93
497.97	12957.21
498.14	13195.94
498.32	13149.13
498.50	13392.55
498.67	13425.31
498.85	13439.36
499.03	13451.06
499.20	13521.27
499.38	13441.70
499.56	13884.06
499.73	13942.57
499.91	13886.40
500.08	13853.63
500.26	13741.29
500.44	13870.01
500.61	13870.01
500.79	13760.01
500.97	13839.59
501.14	14101.73
501.32	14047.90
501.49	14150.88
501.67	14253.86
501.84	14242.16
502.02	14459.83
502.20	14209.39
502.37	14597.92
502.55	14663.46
502.72	14513.66
502.90	14546.43
503.07	14647.07
503.25	14455.15
503.43	14553.45
503.60	14874.10
503.78	14705.59
503.95	14839.00
504.13	14815.59
504.30	14963.04
504.48	15080.07
504.65	15059.01
504.83	15145.61
505.01	15309.44
505.18	15484.98
505.36	15103.48
505.53	15077.73
505.71	15529.45
505.88	15660.52
506.06	15428.81
506.23	15351.57
506.41	15637.12
506.58	15667.55
506.76	15726.06
506.93	15599.67
507.11	15637.12
507.28	15723.72
507.46	15861.81
507.63	15868.83
507.81	16058.42
507.98	16266.72
508.16	16046.71
508.33	15871.17
508.50	15981.18
508.68	16238.64
508.85	16135.65
509.03	16294.81
509.20	16526.52
509.38	16297.15
509.55	16554.61
509.73	16453.97
509.90	16463.33
510.08	16395.45
510.25	16493.76
510.42	16563.97
510.60	16676.32
510.77	16931.44
510.95	16884.62
511.12	16751.21
511.30	16769.94
511.47	16931.44
511.64	17116.34
511.82	17219.32
511.99	16929.09
512.17	17256.77
512.34	17287.20
512.51	16999.31
512.69	17298.90
512.86	17277.83
513.04	17472.10
513.21	17825.52
513.38	17355.07
513.56	17376.14
513.73	17348.05
513.90	17474.44
514.08	17521.25
514.25	17614.87
514.43	17390.18
514.60	17671.04
514.77	17628.92
514.95	18026.81
515.12	17965.95
515.29	17614.87
515.47	18068.94
515.64	18176.60
515.81	18075.96
515.99	18305.33
516.16	18214.05
516.33	18141.49
516.51	18300.65
516.68	18122.77
516.85	18389.59
517.03	18129.79
517.20	18422.36
517.37	18513.64
517.54	18551.09
517.72	18410.65
517.89	18487.89
518.06	18520.66
518.24	18735.99
518.41	18712.58
518.58	18754.71
518.75	18569.81
518.93	19124.52
519.10	18721.95
519.27	19023.87
519.45	18721.95
519.62	18820.25
519.79	18717.26
519.96	18801.52
520.14	19276.65
520.31	19056.64
520.48	19143.24
520.65	19337.51
520.83	19550.49
521.00	19503.68
521.17	19176.01
521.34	19445.17
521.52	19522.41
521.69	19316.44
521.86	19719.01
522.03	20004.56
522.20	19672.20
522.38	19679.22
522.55	19716.67
522.72	19768.16
522.89	19800.93
523.07	19838.38
523.24	19910.94
523.41	19845.40
523.58	20058.39
523.75	19997.54
523.92	19915.62
524.10	20037.33
524.27	20128.61
524.44	20376.70
524.61	20126.27
524.78	20353.30
524.96	20196.48
525.13	19789.23
525.30	20608.42
525.47	20379.04
525.64	20301.81
525.81	20709.06
525.98	20477.35
526.16	20521.82
526.33	20805.02
526.50	20617.78
526.67	20620.12
526.84	20542.88
527.01	20711.40
527.18	20723.10
527.36	20798.00
527.53	20964.18
527.70	20924.39
527.87	20556.93
528.04	21057.80
528.21	20769.91
528.38	20840.13
528.55	21097.59
528.72	21001.63
528.89	20917.37
529.07	21050.78
529.24	21149.08
529.41	21275.47
529.58	21408.88
529.75	20957.16
529.92	21359.73
530.09	21228.66
530.26	21324.62
530.43	21333.98
530.60	21481.44
530.77	21523.57
530.94	21458.03
531.11	21593.78
531.28	21380.79
531.46	21514.20
531.63	21879.33
531.80	21591.44
531.97	21792.73
532.14	21804.43
532.31	21575.06
532.48	21783.37
532.65	21912.10
532.82	21774.00
532.99	21923.80
533.16	21607.83
533.33	21907.41
533.50	22127.42
533.67	21701.45
533.84	21818.47
534.01	21916.78
534.18	21804.43
534.35	22017.42
534.52	22087.64
534.69	22136.79
534.86	22522.98
535.03	22403.61
535.20	22326.37
535.37	22228.07
535.54	22270.20
535.71	22146.15
535.88	22530.00
536.05	22340.41
536.22	22768.73
536.38	22338.07
536.55	22621.28
536.72	22499.57
536.89	22462.12
537.06	22766.39
537.23	22600.21
537.40	22560.42
537.57	22602.55
537.74	22579.15
537.91	22670.43
538.08	22754.69
538.25	22635.32
538.42	22705.54
538.59	22897.46
538.75	22618.94
538.92	22530.00
539.09	23213.43
539.26	22761.71
539.43	23211.09
539.60	23173.64
539.77	23070.66
539.94	22927.89
540.11	23288.33
540.28	22995.76
540.44	23419.40
540.61	23316.42
540.78	23356.21
540.95	23311.74
541.12	23569.19
541.29	23342.16
541.46	23587.92
541.62	23311.74
541.79	23939.00
541.96	23716.65
542.13	23513.02
542.30	23735.37
542.47	23868.78
542.63	23922.62
542.80	23843.04
542.97	23763.46
543.14	24013.90
543.31	23644.09
543.48	24100.50
543.64	24346.25
543.81	24348.59
543.98	24297.10
544.15	24217.52
544.32	24254.97
544.48	24442.21
544.65	23859.42
544.82	23922.62
544.99	24133.26
545.16	24107.52
545.32	24105.18
545.49	25198.21
545.66	25081.18
545.83	25355.02
546.00	25266.08
546.16	24751.17
546.33	24512.43
546.50	24201.14
546.67	24109.86
546.83	24208.16
547.00	24299.44
547.17	24444.56
547.34	24140.29
547.50	24552.22
547.67	24491.37
547.84	24613.07
548.00	24311.14
548.17	24528.81
548.34	24659.88
548.51	24837.76
548.67	24652.86
548.84	24519.45
549.01	24577.97
549.18	24547.54
549.34	24666.91
549.51	24446.90
549.68	24465.62
549.84	24552.22
550.01	24065.39
550.18	24713.72
550.34	24634.14
550.51	24716.06
550.68	24671.59
550.84	24402.43
551.01	24746.48
551.18	24386.04
551.34	24652.86
551.51	24643.50
551.68	24627.12
551.84	24783.93
552.01	24648.18
552.18	24924.36
552.34	24601.37
552.51	24797.98
552.68	24577.97
552.84	24716.06
553.01	24706.70
553.18	24816.70
553.34	24940.75
553.51	24650.52
553.67	25153.74
553.84	25219.27
554.01	24987.56
554.17	25050.75
554.34	25090.54
554.51	24950.11
554.67	24907.98
554.84	24800.32
555.00	25202.89
555.17	24844.79
555.33	25146.72
555.50	24779.25
555.67	25025.01
555.83	24805.00
556.00	25081.18
556.16	25301.19
556.33	24933.73
556.50	25151.40
556.66	25027.35
556.83	25015.65
556.99	25329.28
557.16	25135.01
557.32	25355.02
557.49	25427.58
557.65	25186.50
557.82	25153.74
557.98	25195.87
558.15	25233.32
558.32	25319.92
558.48	25235.66
558.65	25151.40
558.81	25235.66
558.98	25322.26
559.14	25591.42
559.31	25413.54
559.47	25502.48
559.64	25296.51
559.80	25432.26
559.97	25174.80
560.13	25254.38
560.30	25483.75
560.46	25598.44
560.63	25317.57
560.79	25551.63
560.96	25411.20
561.12	25397.15
561.29	25441.62
561.45	25329.28
561.61	25589.08
561.78	25661.63
561.94	25619.50
562.11	25745.89
562.27	25486.09
562.44	25467.37
562.60	25689.72
562.77	25689.72
562.93	25736.53
563.10	25675.68
563.26	25804.41
563.42	25858.24
563.59	25663.97
563.75	25701.42
563.92	25699.08
564.08	25488.43
564.24	25486.09
564.41	25462.69
564.57	25898.03
564.74	25399.49
564.90	25432.26
565.07	25497.80
565.23	25743.55
565.39	25605.46
565.56	25851.22
565.72	25916.75
565.88	25535.24
566.05	25546.95
566.21	25486.09
566.38	25493.12
566.54	25483.75
566.70	25832.49
566.87	25715.47
567.03	25558.65
567.19	26019.74
567.36	25757.60
567.52	25490.77
567.68	25879.30
567.85	25659.29
568.01	25736.53
568.17	25717.81
568.34	25692.06
568.50	25745.89
568.66	25951.86
568.83	26183.57
568.99	25724.83
569.15	25663.97
569.32	25509.50
569.48	25795.04
569.64	25685.04
569.81	25949.52
569.97	25654.61
570.13	25949.52
570.30	25656.95
570.46	25963.56
570.62	26183.57
570.78	25813.77
570.95	25834.83
571.11	26108.68
571.27	25823.13
571.43	25802.07
571.60	25661.63
571.76	25654.61
571.92	26010.37
572.09	26064.21
572.25	25734.19
572.41	25886.32
572.57	25682.70
572.74	26026.76
572.90	26082.93
573.06	26089.95
573.22	25647.59
573.38	26094.63
573.55	25680.36
573.71	26185.91
573.87	25792.70
574.03	25708.44
574.20	25886.32
574.36	25432.26
574.52	25778.66
574.68	26129.74
574.84	25759.94
575.01	25799.73
575.17	25731.85
575.33	26045.48
575.49	26008.03
575.65	25874.62
575.82	25841.85
575.98	25734.19
576.14	25956.54
576.30	26277.19
576.46	25724.83
576.62	26089.95
576.79	25851.22
576.95	25846.54
577.11	26024.42
577.27	26045.48
577.43	26143.78
577.59	25874.62
577.75	25841.85
577.92	25975.27
578.08	25963.56
578.24	25937.82
578.40	25521.20
578.56	25827.81
578.72	25979.95
578.88	26080.59
579.04	26141.44
579.21	25944.84
579.37	25984.63
579.53	25914.41
579.69	25998.67
579.85	25876.96
580.01	26143.78
580.17	25818.45
580.33	25802.07
580.49	25921.43
580.65	26190.59
580.82	26001.01
580.98	25858.24
581.14	25996.33
581.30	26010.37
581.46	25891.01
581.62	25816.11
581.78	26066.55
581.94	25942.50
582.10	25905.05
582.26	26103.99
582.42	25998.67
582.58	26497.20
582.74	25921.43
582.90	26033.78
583.06	26164.85
583.22	26017.40
583.38	25984.63
583.54	25909.73
583.70	26256.13
583.86	26162.51
584.02	25755.26
584.18	26389.54
584.34	26331.03
584.50	26342.73
584.66	26155.49
584.82	25820.79
584.98	25895.69
585.14	26017.40
585.30	26068.89
585.46	26047.82
585.62	25855.90
585.78	26008.03
585.94	26249.11
586.10	25923.77
586.26	26066.55
586.42	26405.92
586.58	26249.11
586.74	26223.36
586.90	26335.71
587.06	26225.70
587.22	26284.22
587.38	25773.98
587.54	26202.30
587.70	26253.79
587.86	26038.46
588.02	26143.78
588.18	26513.59
588.34	26160.17
588.49	26150.81
588.65	25844.20
588.81	25834.83
588.97	26047.82
589.13	25895.69
589.29	26331.03
589.45	26001.01
589.61	26429.33
589.77	26199.96
589.93	26359.11
590.08	26199.96
590.24	26574.44
590.40	26293.58
590.56	26174.21
590.72	26045.48
590.88	25951.86
591.04	25806.75
591.20	26382.52
591.35	26178.89
591.51	26532.31
591.67	26246.77
591.83	26356.77
591.99	26384.86
592.15	26438.69
