SpectraSuite Data File
++++++++++++++++++++++++++++++++++++
Date: Fri Oct 04 11:39:14 GMT-05:00 2013
User: price-jones
Dark Spectrum Present: No
Reference Spectrum Present: No
Number of Sampled Component Spectra: 1
Spectrometers: USB2+H05261
Integration Time (usec): 100000 (USB2+H05261)
Spectra Averaged: 1 (USB2+H05261)
Boxcar Smoothing: 0 (USB2+H05261)
Correct for Electrical Dark: No (USB2+H05261)
Strobe/Lamp Enabled: No (USB2+H05261)
Correct for Detector Non-linearity: No (USB2+H05261)
Correct for Stray Light: No (USB2+H05261)
Number of Pixels in Processed Spectrum: 2048
>>>>>Begin Processed Spectral Data<<<<<
365.73	44.47
365.92	44.47
366.12	44.47
366.32	0.00
366.52	0.00
366.72	0.00
366.91	0.00
367.11	25.75
367.31	0.00
367.51	0.00
367.70	0.00
367.90	0.00
368.10	9.36
368.30	0.00
368.49	0.00
368.69	2.34
368.89	0.00
369.09	0.00
369.28	0.00
369.48	0.00
369.68	14.04
369.87	49.15
370.07	0.00
370.27	37.45
370.47	65.54
370.66	133.41
370.86	220.01
371.06	283.20
371.25	198.95
371.45	152.13
371.65	266.82
371.84	182.56
372.04	212.99
372.24	248.10
372.44	208.31
372.63	243.42
372.83	212.99
373.03	170.86
373.22	234.05
373.42	243.42
373.62	299.59
373.81	334.70
374.01	294.91
374.21	248.10
374.40	259.80
374.60	257.46
374.79	297.25
374.99	318.31
375.19	264.48
375.38	308.95
375.58	330.02
375.78	311.29
375.97	306.61
376.17	304.27
376.37	229.37
376.56	313.63
376.76	255.12
376.95	280.86
377.15	337.04
377.35	290.23
377.54	308.95
377.74	229.37
377.93	255.12
378.13	348.74
378.33	325.33
378.52	234.05
378.72	304.27
378.91	278.52
379.11	245.76
379.31	259.80
379.50	269.16
379.70	301.93
379.89	301.93
380.09	252.78
380.28	259.80
380.48	330.02
380.68	285.55
380.87	264.48
381.07	257.46
381.26	374.49
381.46	315.97
381.65	339.38
381.85	318.31
382.04	255.12
382.24	351.08
382.43	313.63
382.63	290.23
382.83	334.70
383.02	341.72
383.22	400.23
383.41	346.40
383.61	294.91
383.80	362.78
384.00	257.46
384.19	327.68
384.39	365.12
384.58	381.51
384.78	301.93
384.97	365.12
385.17	330.02
385.36	341.72
385.56	344.06
385.75	283.20
385.95	276.18
386.14	444.70
386.34	330.02
386.53	386.19
386.72	367.46
386.92	404.91
387.11	465.77
387.31	339.38
387.50	388.53
387.70	334.70
387.89	330.02
388.09	339.38
388.28	388.53
388.48	372.15
388.67	418.96
388.86	369.80
389.06	395.55
389.25	362.78
389.45	512.58
389.64	372.15
389.84	379.17
390.03	390.87
390.22	449.38
390.42	425.98
390.61	404.91
390.81	456.40
391.00	437.68
391.19	454.06
391.39	428.32
391.58	435.34
391.78	486.83
391.97	414.27
392.16	472.79
392.36	404.91
392.55	430.66
392.75	407.25
392.94	454.06
393.13	461.09
393.33	390.87
393.52	400.23
393.71	468.11
393.91	421.30
394.10	449.38
394.29	423.64
394.49	449.38
394.68	486.83
394.88	444.70
395.07	561.73
395.26	440.02
395.46	482.15
395.65	526.62
395.84	535.98
396.04	596.84
396.23	421.30
396.42	521.94
396.62	585.13
396.81	519.60
397.00	472.79
397.19	519.60
397.39	578.11
397.58	662.37
397.77	561.73
397.97	491.51
398.16	552.37
398.35	540.66
398.55	521.94
398.74	575.77
398.93	601.52
399.12	622.58
399.32	580.45
399.51	615.56
399.70	540.66
399.90	617.90
400.09	559.39
400.28	669.39
400.47	610.88
400.67	543.00
400.86	573.43
401.05	695.14
401.24	580.45
401.44	629.60
401.63	615.56
401.82	734.93
402.01	641.31
402.21	676.41
402.40	653.01
402.59	697.48
402.78	706.84
402.97	704.50
403.17	671.73
403.36	697.48
403.55	723.23
403.74	741.95
403.93	734.93
404.13	800.46
404.32	805.14
404.51	802.80
404.70	734.93
404.89	725.57
405.09	828.55
405.28	657.69
405.47	723.23
405.66	856.64
405.85	814.51
406.05	765.36
406.24	770.04
406.43	779.40
406.62	812.17
406.81	840.25
407.00	755.99
407.20	856.64
407.39	798.12
407.58	837.91
407.77	957.28
407.96	854.30
408.15	833.23
408.34	812.17
408.54	844.93
408.73	873.02
408.92	905.79
409.11	926.85
409.30	933.87
409.49	938.55
409.68	896.43
409.87	924.51
410.07	985.37
410.26	1015.79
410.45	910.47
410.64	901.11
410.83	1015.79
411.02	1043.88
411.21	994.73
411.40	912.81
411.59	1050.90
411.78	1015.79
411.98	1034.52
412.17	1041.54
412.36	994.73
412.55	987.71
412.74	1125.80
412.93	1181.97
413.12	1053.24
413.31	1231.12
413.50	1142.18
413.69	1036.86
413.88	1273.25
414.07	1256.87
414.26	1165.59
414.45	1219.42
414.64	1214.74
414.83	1160.91
415.02	1252.19
415.22	1118.78
415.41	1221.76
415.60	1200.69
415.79	1303.68
415.98	1369.21
416.17	1350.49
416.36	1280.27
416.55	1409.00
416.74	1310.70
416.93	1273.25
417.12	1341.13
417.31	1406.66
417.50	1385.60
417.69	1472.20
417.88	1362.19
418.07	1345.81
418.26	1427.73
418.45	1540.07
418.64	1490.92
418.83	1483.90
419.02	1383.26
419.21	1469.86
419.39	1451.13
419.58	1465.18
419.77	1394.96
419.96	1472.20
420.15	1474.54
420.34	1500.28
420.53	1537.73
420.72	1586.88
420.91	1598.59
421.10	1486.24
421.29	1619.65
421.48	1544.75
421.67	1614.97
421.86	1504.96
422.05	1589.22
422.24	1598.59
422.43	1640.72
422.61	1516.67
422.80	1668.80
422.99	1612.63
423.18	1629.01
423.37	1643.06
423.56	1699.23
423.75	1636.03
423.94	1605.61
424.13	1629.01
424.32	1572.84
424.50	1757.74
424.69	1605.61
424.88	1661.78
425.07	1558.80
425.26	1579.86
425.45	1598.59
425.64	1717.95
425.83	1549.43
426.01	1678.16
426.20	1696.89
426.39	1682.85
426.58	1729.66
426.77	1631.35
426.96	1668.80
427.15	1633.69
427.33	1710.93
427.52	1699.23
427.71	1713.27
427.90	1692.21
428.09	1755.40
428.28	1753.06
428.46	1729.66
428.65	1788.17
428.84	1823.28
429.03	1764.76
429.22	1834.98
429.40	1753.06
429.59	1851.36
429.78	1778.81
429.97	1802.21
430.16	1746.04
430.34	1764.76
430.53	1987.11
430.72	1863.07
430.91	1874.77
431.10	1933.28
431.28	2010.52
431.47	1893.49
431.66	1952.01
431.85	1872.43
432.03	1966.05
432.22	1987.11
432.41	1961.37
432.60	1895.83
432.79	1994.14
432.97	1959.03
433.16	1849.02
433.35	1912.22
433.54	1923.92
433.72	2052.65
433.91	2090.10
434.10	1959.03
434.28	1982.43
434.47	2071.37
434.66	2097.12
434.85	2104.14
435.03	2129.89
435.22	2300.75
435.41	2551.18
435.59	2509.05
435.78	2387.35
435.97	2209.47
436.16	2284.36
436.34	2136.91
436.53	2186.06
436.72	2172.02
436.90	2092.44
437.09	2172.02
437.28	2162.66
437.46	2162.66
437.65	2111.16
437.84	2204.78
438.02	2092.44
438.21	2258.62
438.40	2176.70
438.58	2183.72
438.77	2260.96
438.96	2366.28
439.14	2342.88
439.33	2399.05
439.52	2312.45
439.70	2410.75
439.89	2396.71
440.08	2424.80
440.26	2403.73
440.45	2420.11
440.63	2457.56
440.82	2574.59
441.01	2420.11
441.19	2593.31
441.38	2504.37
441.57	2480.97
441.75	2586.29
441.94	2539.48
442.12	2523.10
442.31	2583.95
442.50	2623.74
442.68	2729.06
442.87	2616.72
443.05	2621.40
443.24	2808.64
443.43	2691.62
443.61	2593.31
443.80	2736.09
443.98	2523.10
444.17	2562.89
444.35	2640.12
444.54	2703.32
444.73	2686.94
444.91	2759.49
445.10	2679.91
445.28	2857.79
445.47	2740.77
445.65	2731.41
445.84	2778.22
446.02	2761.83
446.21	2773.53
446.39	2740.77
446.58	2717.36
446.77	2799.28
446.95	2815.66
447.14	2778.22
447.32	2773.53
447.51	2708.00
447.69	2693.96
447.88	2803.96
448.06	2686.94
448.25	2693.96
448.43	2885.88
448.62	2719.70
448.80	2743.11
448.99	2822.69
449.17	2944.39
449.36	2729.06
449.54	2792.26
449.73	2874.18
449.91	2953.76
450.10	2972.48
450.28	2909.29
450.46	2939.71
450.65	2972.48
450.83	3026.31
451.02	2937.37
451.20	3052.06
451.39	3098.87
451.57	2913.97
451.76	2979.50
451.94	3070.78
452.13	2986.52
452.31	3042.70
452.49	2977.16
452.68	3040.36
452.86	3028.65
453.05	3007.59
453.23	3038.02
453.42	3068.44
453.60	3112.91
453.78	3087.17
453.97	3068.44
454.15	3075.46
454.34	3068.44
454.52	3178.45
454.70	3119.93
454.89	3173.77
455.07	3194.83
455.26	3105.89
455.44	3194.83
455.62	3143.34
455.81	3157.38
455.99	3248.66
456.17	3178.45
456.36	3258.03
456.54	3321.22
456.73	3300.16
456.91	3361.01
457.09	3344.63
457.28	3515.48
457.46	3417.18
457.64	3407.82
457.83	3274.41
458.01	3377.39
458.19	3503.78
458.38	3454.63
458.56	3478.04
458.74	3471.01
458.93	3435.91
459.11	3384.41
459.29	3485.06
459.48	3550.59
459.66	3499.10
459.84	3557.61
460.03	3627.83
460.21	3597.40
460.39	3510.80
460.57	3449.95
460.76	3639.53
460.94	3571.66
461.12	3494.42
461.31	3550.59
461.49	3485.06
461.67	3597.40
461.85	3660.60
462.04	3674.64
462.22	3676.98
462.40	3819.75
462.59	3676.98
462.77	3667.62
462.95	3716.77
463.13	3686.34
463.32	3747.20
463.50	3810.39
463.68	3803.37
463.86	3779.97
464.05	3789.33
464.23	3866.56
464.41	3829.12
464.59	3798.69
464.78	3817.41
464.96	3889.97
465.14	3735.50
465.32	3772.94
465.50	3836.14
465.69	3875.93
465.87	3714.43
466.05	3744.86
466.23	3880.61
466.41	3866.56
466.60	4023.38
466.78	3906.35
466.96	3770.60
467.14	3932.10
467.32	3801.03
467.51	3943.80
467.69	4002.32
467.87	4021.04
468.05	4065.51
468.23	3976.57
468.41	3925.08
468.60	3854.86
468.78	3976.57
468.96	4025.72
469.14	3892.31
469.32	4084.23
469.50	3911.04
469.69	4077.21
469.87	4149.77
470.05	4168.49
470.23	4095.94
470.41	4320.63
470.59	4205.94
470.77	4250.41
470.95	4238.71
471.14	4156.79
471.32	4236.37
471.50	4346.37
471.68	4400.21
471.86	4318.29
472.04	4470.42
472.22	4287.86
472.40	4404.89
472.58	4362.76
472.77	4437.66
472.95	4496.17
473.13	4578.09
473.31	4486.81
473.49	4423.61
473.67	4461.06
473.85	4578.09
474.03	4655.33
474.21	4505.53
474.39	4669.37
474.57	4758.31
474.75	4678.73
474.93	4842.57
475.12	4854.27
475.30	4730.22
475.48	4959.60
475.66	4891.72
475.84	4809.80
476.02	4788.74
476.20	4884.70
476.38	4973.64
476.56	4952.57
476.74	5163.22
476.92	4997.04
477.10	4985.34
477.28	5004.07
477.46	5142.16
477.64	5093.01
477.82	5212.37
478.00	5341.10
478.18	5474.51
478.36	5373.87
478.54	5495.58
478.72	5486.22
478.90	5444.09
479.08	5476.85
479.26	5418.34
479.44	5657.07
479.62	5645.37
479.80	5722.61
479.98	5701.54
480.16	5666.44
480.34	5633.67
480.52	5818.57
480.70	5902.83
480.88	5851.34
481.06	5806.87
481.24	5841.98
481.41	6069.01
481.59	5966.03
481.77	6052.63
481.95	6253.91
482.13	6139.23
482.31	6284.34
482.49	6345.19
482.67	6211.78
482.85	6490.31
483.03	6427.11
483.21	6452.86
483.39	6593.29
483.57	6569.88
483.74	6574.56
483.92	6698.61
484.10	6740.74
484.28	6897.56
484.46	7014.59
484.64	7042.67
484.82	6817.98
485.00	7042.67
485.18	7016.93
485.35	7164.38
485.53	7077.78
485.71	7208.85
485.89	7368.01
486.07	7229.91
486.25	7148.00
486.43	7314.17
486.61	7370.35
486.78	7403.11
486.96	7562.27
487.14	7606.74
487.32	7709.72
487.50	7779.94
487.68	7740.15
487.85	7854.84
488.03	7988.25
488.21	7953.14
488.39	8067.83
488.57	8231.66
488.75	8264.43
488.92	8344.01
489.10	8346.35
489.28	8297.20
489.46	8402.52
489.64	8514.87
489.81	8439.97
489.99	8610.83
490.17	8650.62
490.35	8659.98
490.53	8805.10
490.70	8739.56
490.88	8777.01
491.06	8734.88
491.24	8751.26
491.41	8875.31
491.59	8933.82
491.77	9139.79
491.95	9369.16
492.13	9132.77
492.30	9092.98
492.48	9160.86
492.66	9259.16
492.84	9343.42
493.01	9439.38
493.19	9488.53
493.37	9624.28
493.54	9685.14
493.72	9628.96
493.90	9872.38
494.08	9877.06
494.25	9767.06
494.43	9881.74
494.61	9963.66
494.79	10176.65
494.96	10228.14
495.14	9907.49
495.32	10249.21
495.49	10228.14
495.67	10125.16
495.85	10352.19
496.02	10492.62
496.20	10410.70
496.38	10452.83
496.55	10462.19
496.73	10509.01
496.91	10532.41
497.09	10597.95
497.26	10927.96
497.44	10951.37
497.62	10761.78
497.79	10913.92
497.97	10729.02
498.14	11087.12
498.32	11054.35
498.50	10949.03
498.67	11033.29
498.85	11035.63
499.03	11232.23
499.20	11150.31
499.38	11218.19
499.56	11185.42
499.73	11571.61
499.91	11515.44
500.08	11796.30
500.26	11220.53
500.44	11311.81
500.61	11688.64
500.79	11735.45
500.97	11676.93
501.14	11981.20
501.32	11798.64
501.49	11660.55
501.67	11651.19
501.84	11915.67
502.02	11976.52
502.20	12182.49
502.37	12428.24
502.55	12210.57
502.72	12079.50
502.90	12067.80
503.07	12053.76
503.25	12020.99
503.43	12133.34
503.60	12358.03
503.78	12397.82
503.95	12360.37
504.13	12184.83
504.30	12458.67
504.48	12374.41
504.65	12510.16
504.83	12608.47
505.01	12681.02
505.18	12847.20
505.36	12514.84
505.53	12439.95
505.71	12620.17
505.88	12620.17
506.06	12795.71
506.23	12908.05
506.41	12835.50
506.58	12936.14
506.76	12961.89
506.93	12992.31
507.11	13013.38
507.28	13219.35
507.46	13130.41
507.63	13076.57
507.81	13200.62
507.98	13336.37
508.16	13418.29
508.33	13151.47
508.50	13277.86
508.68	13373.82
508.85	13341.05
509.03	13186.58
509.20	13479.15
509.38	13460.42
509.55	13633.62
509.73	13657.03
509.90	13841.93
510.08	13439.36
510.25	13973.00
510.42	13610.22
510.60	14040.87
510.77	13989.38
510.95	14066.62
511.12	13689.79
511.30	13998.74
511.47	14209.39
511.64	14160.24
511.82	14281.95
511.99	14066.62
512.17	14141.52
512.34	14434.08
512.51	14295.99
512.69	14171.94
512.86	14516.00
513.04	14487.92
513.21	14541.75
513.38	14361.53
513.56	14417.70
513.73	14356.85
513.90	14750.06
514.08	14654.09
514.25	14607.28
514.43	14600.26
514.60	14888.15
514.77	15063.69
514.95	14803.89
515.12	14946.66
515.29	14766.44
515.47	14918.57
515.64	14944.32
515.81	15225.18
515.99	15084.75
516.16	15236.89
516.33	15061.35
516.51	15147.95
516.68	15096.46
516.85	15234.55
517.03	15349.23
517.20	15527.11
517.37	15328.17
517.54	15655.84
517.72	15243.91
517.89	15367.96
518.06	15370.30
518.24	15405.41
518.41	15311.78
518.58	15611.37
518.75	15367.96
518.93	15714.36
519.10	15637.12
519.27	15880.53
519.45	15641.80
519.62	15927.35
519.79	15791.59
519.96	15777.55
520.14	16091.18
520.31	15740.10
520.48	16060.76
520.65	16020.97
520.83	15793.94
521.00	16308.85
521.17	16177.78
521.34	16044.37
521.52	15777.55
521.69	16332.26
521.86	16453.97
522.03	16575.67
522.20	16486.73
522.38	16432.90
522.55	16493.76
522.72	16191.83
522.89	16264.38
523.07	16652.91
523.24	16444.60
523.41	16500.78
523.58	16514.82
523.75	16517.16
523.92	16500.78
524.10	16802.71
524.27	16568.65
524.44	16540.57
524.61	16814.41
524.78	16943.14
524.96	16929.09
525.13	16837.81
525.30	16912.71
525.47	16901.01
525.64	16861.22
525.81	17078.89
525.98	16992.29
526.16	16662.27
526.33	16570.99
526.50	17228.68
526.67	17184.21
526.84	17130.38
527.01	17067.19
527.18	16950.16
527.36	17165.49
527.53	17312.94
527.70	17273.15
527.87	17268.47
528.04	17291.88
528.21	17228.68
528.38	17252.09
528.55	17610.19
528.72	17366.78
528.89	17792.75
529.07	17514.23
529.24	17591.47
529.41	17657.00
529.58	17429.97
529.75	17436.99
529.92	17511.89
530.09	17774.03
530.26	17841.90
530.43	17858.29
530.60	17689.77
530.77	17987.02
530.94	17860.63
531.11	17781.05
531.28	17783.39
531.46	17689.77
531.63	17841.90
531.80	17781.05
531.97	17759.98
532.14	18125.11
532.31	18153.20
532.48	17987.02
532.65	18188.30
532.82	17895.74
532.99	18075.96
533.16	18057.23
533.33	17994.04
533.50	18019.78
533.67	18345.12
533.84	18202.35
534.01	18169.58
534.18	18071.28
534.35	18478.53
534.52	18221.07
534.69	18434.06
534.86	18497.25
535.03	18221.07
535.20	18342.78
535.37	18342.78
535.54	18845.99
535.71	18375.55
535.88	18845.99
536.05	18857.70
536.22	18661.09
536.38	18796.84
536.55	18658.75
536.72	18944.30
536.89	18853.02
537.06	18794.50
537.23	18696.20
537.40	18424.70
537.57	18595.56
537.74	18881.10
537.91	18941.96
538.08	18747.69
538.25	18637.69
538.42	18670.45
538.59	19176.01
538.75	18991.11
538.92	18862.38
539.09	19051.96
539.26	18937.27
539.43	19152.60
539.60	19098.77
539.77	19176.01
539.94	19377.30
540.11	19435.81
540.28	19328.14
540.44	19197.07
540.61	19166.65
540.78	19220.48
540.95	19454.53
541.12	19342.19
541.29	19393.68
541.46	19517.73
541.62	19679.22
541.79	19632.41
541.96	19414.74
542.13	19227.50
542.30	19386.66
542.47	19793.91
542.63	19861.79
542.80	19754.12
542.97	20065.41
543.14	20060.73
543.31	19700.29
543.48	19999.88
543.64	20093.50
543.81	20159.03
543.98	20067.75
544.15	19892.21
544.32	19915.62
544.48	20175.42
544.65	20168.40
544.82	20294.79
544.99	19768.16
545.16	20451.60
545.32	20084.14
545.49	20435.22
545.66	20802.68
545.83	21252.06
546.00	21060.14
546.16	20549.90
546.33	20430.54
546.50	20233.93
546.67	20269.04
546.83	20105.20
547.00	20493.73
547.17	20032.65
547.34	20203.50
547.50	20264.36
547.67	20446.92
547.84	20189.46
548.00	20201.16
548.17	20486.71
548.34	20460.96
548.51	20439.90
548.67	20381.38
548.84	20566.29
549.01	20315.85
549.18	20163.72
549.34	20245.63
549.51	20280.74
549.68	20393.09
549.84	20425.86
550.01	20753.53
550.18	20587.35
550.34	20236.27
550.51	20535.86
550.68	20566.29
550.84	20657.57
551.01	20793.32
551.18	20315.85
551.34	20369.68
551.51	20959.50
551.68	20643.52
551.84	20664.59
552.01	20704.38
552.18	20814.38
552.34	20699.70
552.51	20568.63
552.68	20627.14
552.84	20753.53
553.01	20805.02
553.18	20844.81
553.34	20765.23
553.51	20828.43
553.67	20947.79
553.84	21231.00
554.01	20936.09
554.17	20800.34
554.34	21102.27
554.51	20844.81
554.67	20856.51
554.84	21097.59
555.00	21013.33
555.17	20938.43
555.33	20847.15
555.50	21025.03
555.67	20882.26
555.83	20840.13
556.00	20582.67
556.16	21401.86
556.33	21144.40
556.50	21207.59
556.66	21214.62
556.83	21245.04
556.99	21233.34
557.16	21123.33
557.32	21179.51
557.49	21207.59
557.65	21223.98
557.82	21111.63
557.98	20992.26
558.15	21233.34
558.32	21235.68
558.48	21214.62
558.65	21294.19
558.81	21514.20
558.98	21160.78
559.14	21181.85
559.31	21312.92
559.47	21525.91
559.64	21401.86
559.80	21614.85
559.97	21514.20
560.13	21404.20
560.30	21348.03
560.46	21408.88
560.63	21626.55
560.79	21181.85
560.96	21205.25
561.12	21261.43
561.29	21338.66
561.45	21289.51
561.61	21195.89
561.78	21537.61
561.94	21898.05
562.11	21572.72
562.27	21455.69
562.44	21179.51
562.60	21376.11
562.77	21120.99
562.93	21090.57
563.10	21671.02
563.26	21324.62
563.42	21752.94
563.59	21675.70
563.75	21518.89
563.92	21633.57
564.08	21699.11
564.24	21792.73
564.41	21628.89
564.57	21551.65
564.74	21216.96
564.90	21493.14
565.07	21603.14
565.23	21750.60
565.39	21502.50
565.56	21652.30
565.72	21680.38
565.88	21584.42
566.05	21467.39
566.21	21507.18
566.38	21294.19
566.54	21584.42
566.70	21774.00
566.87	21699.11
567.03	21532.93
567.19	21811.45
567.36	21888.69
567.52	21458.03
567.68	21420.58
567.85	21458.03
568.01	21624.21
568.17	21539.95
568.34	21661.66
568.50	21727.19
568.66	21687.40
568.83	21724.85
568.99	21453.35
569.15	21387.82
569.32	21462.71
569.48	21659.32
569.64	21888.69
569.81	21715.49
569.97	21745.92
570.13	21600.80
570.30	21703.79
570.46	21764.64
570.62	21752.94
570.78	22089.98
570.95	21612.51
571.11	21804.43
571.27	21802.09
571.43	21617.19
571.60	21811.45
571.76	21717.83
571.92	21846.56
572.09	22054.87
572.25	21701.45
572.41	21823.16
572.57	22087.64
572.74	21949.54
572.90	21729.53
573.06	21825.50
573.22	22279.56
573.38	22134.45
573.55	21612.51
573.71	22143.81
573.87	22359.14
574.03	21795.07
574.20	21954.22
574.36	21949.54
574.52	22043.17
574.68	21764.64
574.84	22024.44
575.01	21895.71
575.17	21989.33
575.33	21937.84
575.49	21972.95
575.65	21886.35
575.82	21778.68
575.98	21729.53
576.14	21888.69
576.30	21802.09
576.46	22003.38
576.62	22045.51
576.79	22361.48
576.95	21891.03
577.11	21956.57
577.27	22171.89
577.43	22019.76
577.59	22029.12
577.75	22050.19
577.92	21563.36
578.08	22040.82
578.24	22073.59
578.40	21881.67
578.56	21905.07
578.72	22115.72
578.88	22136.79
579.04	22366.16
579.21	22281.90
579.37	22052.53
579.53	22361.48
579.69	21788.05
579.85	21769.32
580.01	22214.02
580.17	22087.64
580.33	22040.82
580.49	21876.99
580.65	22104.02
580.82	21825.50
580.98	22452.76
581.14	21975.29
581.30	22199.98
581.46	21884.01
581.62	21968.27
581.78	22001.04
581.94	22302.96
582.10	22195.30
582.26	22097.00
582.42	22202.32
582.58	22443.40
582.74	22150.83
582.90	22164.87
583.06	22380.20
583.22	22122.74
583.38	22249.13
583.54	22366.16
583.70	22317.01
583.86	22291.26
584.02	21951.88
584.18	22136.79
584.34	22520.63
584.50	22445.74
584.66	22134.45
584.82	21891.03
584.98	22335.73
585.14	22190.62
585.30	22242.11
585.46	22277.22
585.62	22237.43
585.78	22359.14
585.94	22328.71
586.10	22455.10
586.26	22277.22
586.42	22228.07
586.58	22221.05
586.74	22279.56
586.90	22223.39
587.06	22309.99
587.22	22274.88
587.38	21928.48
587.54	22478.50
587.70	22492.55
587.86	22583.83
588.02	22361.48
588.18	22162.53
588.34	22441.06
588.49	22221.05
588.65	22246.79
588.81	21907.41
588.97	21977.63
589.13	22202.32
589.29	22438.72
589.45	22560.42
589.61	22387.22
589.77	22497.23
589.93	22267.86
590.08	22728.94
590.24	22258.49
590.40	22410.63
590.56	22728.94
590.72	22239.77
590.88	22403.61
591.04	22427.01
591.20	22469.14
591.35	22492.55
591.51	23143.22
591.67	22452.76
591.83	22410.63
591.99	22515.95
592.15	22658.73
592.31	22658.73
592.46	22684.47
