SpectraSuite Data File
++++++++++++++++++++++++++++++++++++
Date: Fri Oct 04 11:39:20 GMT-05:00 2013
User: price-jones
Dark Spectrum Present: No
Reference Spectrum Present: No
Number of Sampled Component Spectra: 1
Spectrometers: USB2+H05261
Integration Time (usec): 100000 (USB2+H05261)
Spectra Averaged: 1 (USB2+H05261)
Boxcar Smoothing: 0 (USB2+H05261)
Correct for Electrical Dark: No (USB2+H05261)
Strobe/Lamp Enabled: No (USB2+H05261)
Correct for Detector Non-linearity: No (USB2+H05261)
Correct for Stray Light: No (USB2+H05261)
Number of Pixels in Processed Spectrum: 2048
>>>>>Begin Processed Spectral Data<<<<<
365.73	0.00
365.92	0.00
366.12	0.00
366.32	0.00
366.52	0.00
366.72	0.00
366.91	0.00
367.11	0.00
367.31	0.00
367.51	0.00
367.70	0.00
367.90	0.00
368.10	0.00
368.30	0.00
368.49	0.00
368.69	0.00
368.89	0.00
369.09	0.00
369.28	0.00
369.48	21.06
369.68	23.41
369.87	0.00
370.07	0.00
370.27	70.22
370.47	121.71
370.66	252.78
370.86	248.10
371.06	255.12
371.25	311.29
371.45	327.68
371.65	346.40
371.84	278.52
372.04	325.33
372.24	229.37
372.44	337.04
372.63	397.89
372.83	433.00
373.03	320.65
373.22	318.31
373.42	365.12
373.62	346.40
373.81	433.00
374.01	447.04
374.21	334.70
374.40	461.09
374.60	500.87
374.79	315.97
374.99	442.36
375.19	449.38
375.38	461.09
375.58	435.34
375.78	386.19
375.97	444.70
376.17	482.15
376.37	409.59
376.56	468.11
376.76	435.34
376.95	437.68
377.15	440.02
377.35	442.36
377.54	425.98
377.74	435.34
377.93	482.15
378.13	498.53
378.33	505.56
378.52	514.92
378.72	564.07
378.91	524.28
379.11	479.81
379.31	468.11
379.50	491.51
379.70	493.85
379.89	627.26
380.09	505.56
380.28	533.64
380.48	496.19
380.68	407.25
380.87	552.37
381.07	540.66
381.26	552.37
381.46	608.54
381.65	547.69
381.85	514.92
382.04	568.75
382.24	538.32
382.43	575.77
382.63	535.98
382.83	545.34
383.02	587.47
383.22	524.28
383.41	557.05
383.61	608.54
383.80	617.90
384.00	573.43
384.19	645.99
384.39	580.45
384.58	655.35
384.78	554.71
384.97	638.97
385.17	592.16
385.36	613.22
385.56	624.92
385.75	634.29
385.95	568.75
386.14	613.22
386.34	587.47
386.53	688.12
386.72	610.88
386.92	751.31
387.11	674.07
387.31	688.12
387.50	697.48
387.70	645.99
387.89	674.07
388.09	608.54
388.28	671.73
388.48	688.12
388.67	695.14
388.86	697.48
389.06	702.16
389.25	774.72
389.45	781.74
389.64	765.36
389.84	746.63
390.03	763.01
390.22	763.01
390.42	758.33
390.61	688.12
390.81	681.10
391.00	809.83
391.19	772.38
391.39	734.93
391.58	793.44
391.78	788.76
391.97	842.59
392.16	784.08
392.36	840.25
392.55	884.72
392.75	851.96
392.94	753.65
393.13	861.32
393.33	835.57
393.52	863.66
393.71	887.06
393.91	849.61
394.10	809.83
394.29	870.68
394.49	861.32
394.68	933.87
394.88	929.19
395.07	964.30
395.26	983.02
395.46	901.11
395.65	915.15
395.84	952.60
396.04	1095.37
396.23	1039.20
396.42	1013.45
396.62	971.32
396.81	1011.11
397.00	1027.50
397.19	1057.92
397.39	985.37
397.58	1097.71
397.77	1018.13
397.97	1034.52
398.16	1093.03
398.35	1090.69
398.55	1062.60
398.74	1170.27
398.93	1179.63
399.12	1018.13
399.32	1107.07
399.51	1088.35
399.70	1163.25
399.90	1083.67
400.09	1163.25
400.28	1214.74
400.47	1086.01
400.67	1146.86
400.86	1233.46
401.05	1233.46
401.24	1315.38
401.44	1310.70
401.63	1291.98
401.82	1320.06
402.01	1315.38
402.21	1385.60
402.40	1394.96
402.59	1338.79
402.78	1343.47
402.97	1294.32
403.17	1345.81
403.36	1411.34
403.55	1376.24
403.74	1423.05
403.93	1528.37
404.13	1458.15
404.32	1448.79
404.51	1331.76
404.70	1582.20
404.89	1418.36
405.09	1460.49
405.28	1479.22
405.47	1495.60
405.66	1596.25
405.85	1614.97
406.05	1537.73
406.24	1490.92
406.43	1535.39
406.62	1591.56
406.81	1755.40
407.00	1689.87
407.20	1682.85
407.39	1624.33
407.58	1535.39
407.77	1804.55
407.96	1769.44
408.15	1839.66
408.34	1778.81
408.54	1760.08
408.73	1788.17
408.92	1732.00
409.11	1891.15
409.30	1970.73
409.49	1886.47
409.68	1863.07
409.87	1989.46
410.07	1968.39
410.26	1980.09
410.45	1916.90
410.64	2101.80
410.83	1954.35
411.02	1984.77
411.21	2083.08
411.40	2073.71
411.59	2129.89
411.78	2165.00
411.98	2043.29
412.17	2209.47
412.36	2120.53
412.55	2211.81
412.74	2396.71
412.93	2165.00
413.12	2221.17
413.31	2361.60
413.50	2377.98
413.69	2282.02
413.88	2363.94
414.07	2499.69
414.26	2373.30
414.45	2492.67
414.64	2511.39
414.83	2525.44
415.02	2516.08
415.22	2649.49
415.41	2579.27
415.60	2623.74
415.79	2623.74
415.98	2630.76
416.17	2637.78
416.36	2743.11
416.55	2761.83
416.74	2843.75
416.93	2813.32
417.12	2843.75
417.31	2832.05
417.50	2843.75
417.69	2904.60
417.88	2958.44
418.07	2998.23
418.26	2956.10
418.45	3040.36
418.64	3220.58
418.83	3016.95
419.02	3040.36
419.21	3080.14
419.39	3187.81
419.58	3045.04
419.77	3082.49
419.96	3208.87
420.15	3241.64
420.34	3077.80
420.53	3393.78
420.72	3318.88
420.91	3185.47
421.10	3386.76
421.29	3414.84
421.48	3197.17
421.67	3459.31
421.86	3361.01
422.05	3391.44
422.24	3398.46
422.43	3346.97
422.61	3499.10
422.80	3531.87
422.99	3548.25
423.18	3552.93
423.37	3410.16
423.56	3496.76
423.75	3442.93
423.94	3389.10
424.13	3229.94
424.32	3302.50
424.50	3473.36
424.69	3691.02
424.88	3592.72
425.07	3440.59
425.26	3454.63
425.45	3506.12
425.64	3620.81
425.83	3520.17
426.01	3494.42
426.20	3630.17
426.39	3440.59
426.58	3618.47
426.77	3613.79
426.96	3688.68
427.15	3698.05
427.33	3681.66
427.52	3686.34
427.71	3674.64
427.90	3707.41
428.09	3747.20
428.28	3756.56
428.46	3906.35
428.65	3817.41
428.84	3957.85
429.03	4072.53
429.22	3749.54
429.40	3871.25
429.59	3864.22
429.78	3784.65
429.97	3728.47
430.16	3709.75
430.34	4051.47
430.53	4095.94
430.72	3896.99
430.91	4028.06
431.10	3941.46
431.28	3950.82
431.47	4198.92
431.66	4264.46
431.85	4070.19
432.03	4147.43
432.22	4388.50
432.41	4236.37
432.60	4280.84
432.79	4278.50
432.97	4290.20
433.16	4236.37
433.35	4259.78
433.54	4283.18
433.72	4311.27
433.91	4311.27
434.10	4395.53
434.28	4351.06
434.47	4571.07
434.66	4517.23
434.85	4550.00
435.03	4606.17
435.22	4620.22
435.41	4868.31
435.59	4980.66
435.78	4774.69
435.97	4751.29
436.16	4734.90
436.34	4606.17
436.53	4578.09
436.72	4865.97
436.90	4716.18
437.09	4613.20
437.28	4753.63
437.46	4645.96
437.65	4887.04
437.84	4830.87
438.02	4861.29
438.21	4908.10
438.40	4711.50
438.58	5071.94
438.77	5069.60
438.96	5055.56
439.14	5064.92
439.33	5128.11
439.52	5193.65
439.70	5179.61
439.89	5291.95
440.08	5305.99
440.26	5423.02
440.45	5348.12
440.63	5298.97
440.82	5495.58
441.01	5423.02
441.19	5586.86
441.38	5474.51
441.57	5547.07
441.75	5685.16
441.94	5713.25
442.12	5757.72
442.31	5839.64
442.50	5748.36
442.68	5687.50
442.87	5832.62
443.05	5764.74
443.24	5689.84
443.43	5771.76
443.61	5898.15
443.80	6129.86
443.98	5802.19
444.17	5638.35
444.35	5860.70
444.54	5849.00
444.73	6033.90
444.91	5886.45
445.10	6083.05
445.28	6059.65
445.47	6026.88
445.65	5996.45
445.84	6148.59
446.02	6141.57
446.21	5989.43
446.39	6061.99
446.58	6239.87
446.77	6078.37
446.95	5949.64
447.14	6104.12
447.32	6235.19
447.51	6104.12
447.69	5977.73
447.88	6026.88
448.06	6001.13
448.25	6052.63
448.43	6129.86
448.62	6085.39
448.80	6136.88
448.99	6249.23
449.17	6293.70
449.36	6232.85
449.54	6466.90
449.73	6265.61
449.91	6429.45
450.10	6356.90
450.28	6530.09
450.46	6619.04
450.65	6642.44
450.83	6628.40
451.02	6750.10
451.20	6621.38
451.39	6572.22
451.57	6455.20
451.76	6492.65
451.94	6647.12
452.13	6651.80
452.31	6682.23
452.49	6569.88
452.68	6546.48
452.86	6759.47
453.05	6759.47
453.23	6977.14
453.42	6738.40
453.60	6750.10
453.78	6869.47
453.97	6722.02
454.15	6663.51
454.34	6883.52
454.52	7028.63
454.70	6972.46
454.89	7059.06
455.07	6970.12
455.26	7075.44
455.44	7115.23
455.62	7140.97
455.81	7122.25
455.99	7276.73
456.17	7304.81
456.36	7197.15
456.54	7124.59
456.73	7368.01
456.91	7508.44
457.09	7616.10
457.28	7632.49
457.46	7286.09
457.64	7571.63
457.83	7405.46
458.01	7578.65
458.19	7538.87
458.38	7480.35
458.56	7679.30
458.74	7782.28
458.93	7723.77
459.11	7765.90
459.29	7683.98
459.48	7934.42
459.66	7747.17
459.84	7712.07
460.03	7911.01
460.21	7850.16
460.39	7981.23
460.57	7882.92
460.76	8079.53
460.94	8056.12
461.12	8109.96
461.31	8039.74
461.49	8016.33
461.67	7899.31
461.85	8215.28
462.04	8329.97
462.22	8730.20
462.40	8203.58
462.59	8163.79
462.77	8215.28
462.95	8372.10
463.13	8409.54
463.32	8322.94
463.50	8451.67
463.68	8461.04
463.86	8388.48
464.05	8231.66
464.23	8435.29
464.41	8561.68
464.59	8451.67
464.78	8861.27
464.96	8636.58
465.14	8601.47
465.32	8620.19
465.50	8596.79
465.69	8716.16
465.87	8727.86
466.05	8716.16
466.23	8592.11
466.41	8638.92
466.60	9020.42
466.78	8730.20
466.96	8746.58
467.14	8645.94
467.32	8889.35
467.51	8840.20
467.69	8641.26
467.87	8872.97
468.05	8861.27
468.23	8769.99
468.41	8849.57
468.60	8957.23
468.78	9291.93
468.96	8912.76
469.14	9184.26
469.32	9280.22
469.50	9177.24
469.69	9621.94
469.87	9348.10
470.05	9308.31
470.23	9458.10
470.41	9291.93
470.59	9490.87
470.77	9514.28
470.95	9731.95
471.14	9554.07
471.32	9481.51
471.50	9916.85
471.68	9666.41
471.86	9694.50
472.04	9888.76
472.22	10012.81
472.40	9905.15
472.58	9867.70
472.77	9771.74
472.95	10017.49
473.13	10258.57
473.31	9944.94
473.49	9982.38
473.67	10076.01
473.85	10289.00
474.03	10326.44
474.21	10389.64
474.39	10485.60
474.57	10551.14
474.75	10520.71
474.93	10642.42
475.12	10602.63
475.30	10902.22
475.48	10478.58
475.66	10883.49
475.84	10700.93
476.02	10977.11
476.20	11002.86
476.38	11157.33
476.56	11461.60
476.74	11489.69
476.92	11604.38
477.10	11358.62
477.28	11529.48
477.46	11452.24
477.64	11578.63
477.82	11646.51
478.00	11939.07
478.18	12142.70
478.36	12318.24
478.54	12432.93
478.72	12428.24
478.90	12491.44
479.08	12198.87
479.26	12514.84
479.44	12730.17
479.62	12858.90
479.80	12699.75
479.98	12943.16
480.16	13118.70
480.34	13109.34
480.52	13280.20
480.70	13401.91
480.88	13046.15
481.06	13294.24
481.24	13123.38
481.41	13633.62
481.59	13804.48
481.77	13881.72
481.95	13729.58
482.13	14188.33
482.31	13991.72
482.49	14368.55
482.67	14057.26
482.85	14485.58
483.03	14925.60
483.21	15091.77
483.39	14803.89
483.57	14801.55
483.74	15044.96
483.92	15033.26
484.10	15178.37
484.28	15545.84
484.46	15730.74
484.64	16112.25
484.82	15653.50
485.00	15960.11
485.18	16159.06
485.35	16372.05
485.53	16367.37
485.71	16475.03
485.89	16791.00
486.07	16842.50
486.25	16699.72
486.43	16908.03
486.61	16964.20
486.78	17376.14
486.96	17188.89
487.14	17631.26
487.32	17287.20
487.50	17778.71
487.68	17600.83
487.85	17947.23
488.03	18314.69
488.21	18717.26
488.39	18150.85
488.57	18672.79
488.75	18815.57
488.92	19290.70
489.10	18862.38
489.28	19487.30
489.46	19309.42
489.64	19365.59
489.81	19822.00
489.99	19719.01
490.17	19709.65
490.35	20379.04
490.53	20306.49
490.70	20456.28
490.88	20107.54
491.06	20699.70
491.24	20421.17
491.41	20514.80
491.59	20978.22
491.77	20744.17
491.95	21144.40
492.13	21490.80
492.30	21422.92
492.48	21305.90
492.66	21710.81
492.84	21579.74
493.01	21965.93
493.19	21994.01
493.37	22235.09
493.54	22375.52
493.72	22534.68
493.90	21991.67
494.08	22707.88
494.25	22963.00
494.43	23009.81
494.61	23232.16
494.79	23445.15
494.96	23129.17
495.14	23199.39
495.32	23531.75
495.49	23538.77
495.67	23559.83
495.85	23908.57
496.02	24070.07
496.20	24194.12
496.38	24266.67
496.55	24084.11
496.73	24802.66
496.91	24828.40
497.09	24872.87
497.26	25254.38
497.44	24837.76
497.62	25078.84
497.79	24966.49
497.97	25479.07
498.14	25792.70
498.32	25762.28
498.50	25940.16
498.67	26031.44
498.85	25778.66
499.03	26113.36
499.20	26223.36
499.38	26122.72
499.56	26649.34
499.73	26686.79
499.91	26998.08
500.08	27133.83
500.26	26691.47
500.44	27002.76
500.61	26878.71
500.79	26977.01
500.97	27393.63
501.14	27447.46
501.32	27880.46
501.49	27800.88
501.67	27681.52
501.84	27583.21
502.02	27627.68
502.20	27857.06
502.37	28474.96
502.55	28238.56
502.72	28465.60
502.90	28306.44
503.07	28620.07
503.25	28364.95
503.43	28360.27
503.60	29207.55
503.78	28713.69
503.95	28980.51
504.13	28903.28
504.30	29149.03
504.48	28858.81
504.65	29350.32
504.83	29366.70
505.01	29455.64
505.18	29514.16
505.36	29685.01
505.53	30141.42
505.71	29883.96
505.88	29769.27
506.06	30054.82
506.23	30068.86
506.41	30155.46
506.58	30497.18
506.76	30118.01
506.93	30548.67
507.11	30656.34
507.28	30543.99
507.46	30841.24
507.63	30890.39
507.81	30955.93
507.98	30836.56
508.16	31000.40
508.33	30834.22
508.50	31019.12
508.68	31302.32
508.85	31477.86
509.03	31365.52
509.20	31566.81
509.38	31889.80
509.55	32184.71
509.73	32240.88
509.90	31634.68
510.08	31751.71
510.25	32161.30
510.42	32378.97
510.60	32687.92
510.77	32826.01
510.95	32460.89
511.12	32177.68
511.30	32545.15
511.47	32826.01
511.64	32673.88
511.82	33134.96
511.99	32889.21
512.17	33172.41
512.34	33031.98
512.51	33141.99
512.69	33799.68
512.86	33408.81
513.04	33694.35
513.21	34160.12
513.38	33862.87
513.56	33970.54
513.73	33998.62
513.90	34043.09
514.08	34040.75
514.25	34061.82
514.43	34686.74
514.60	34342.68
514.77	34602.48
514.95	34906.75
515.12	34176.50
515.29	34930.16
515.47	34852.92
515.64	34803.77
515.81	35093.99
515.99	35173.57
516.16	35433.37
516.33	35524.65
516.51	35473.16
516.68	35330.39
516.85	35482.52
517.03	35583.16
517.20	35751.68
517.37	35917.86
517.54	35896.80
517.72	36079.36
517.89	35885.09
518.06	35910.84
518.24	36051.27
518.41	35997.44
518.58	36273.62
518.75	36196.38
518.93	36498.31
519.10	36278.30
519.27	36774.50
519.45	36315.75
519.62	36205.75
519.79	36748.75
519.96	36938.33
520.14	37263.67
520.31	36975.78
520.48	37120.90
520.65	37202.82
520.83	37315.16
521.00	37605.39
521.17	37399.42
521.34	37530.49
521.52	37479.00
521.69	37734.12
521.86	37745.82
522.03	37340.91
522.20	37916.68
522.38	38017.32
522.55	38040.73
522.72	37893.27
522.89	38029.02
523.07	38663.31
523.24	38653.95
523.41	38436.28
523.58	37783.27
523.75	38625.86
523.92	38480.75
524.10	38852.89
524.27	38993.32
524.44	39239.08
524.61	39353.77
524.78	39005.03
524.96	39185.25
525.13	39454.41
525.30	39484.84
525.47	39225.04
525.64	39409.94
525.81	39192.27
525.98	39690.80
526.16	39519.95
526.33	39445.05
526.50	40112.10
526.67	39246.10
526.84	39789.11
527.01	39777.40
527.18	39908.47
527.36	40229.13
527.53	40346.15
527.70	40776.81
527.87	40414.03
528.04	40240.83
528.21	40079.33
528.38	40362.54
528.55	40240.83
528.72	40655.11
528.89	40531.06
529.07	40952.35
529.24	40620.00
529.41	40952.35
529.58	40905.54
529.75	40725.32
529.92	40767.45
530.09	40896.18
530.26	41050.66
530.43	41488.34
530.60	40769.79
530.77	41146.62
530.94	41195.77
531.11	41233.22
531.28	41099.81
531.46	41165.34
531.63	41413.44
531.80	41406.42
531.97	41523.44
532.14	41986.87
532.31	42050.06
532.48	41825.37
532.65	42045.38
532.82	41841.76
532.99	41914.31
533.16	42270.08
533.33	42454.98
533.50	42223.26
533.67	42305.18
533.84	41872.18
534.01	42192.84
534.18	41928.36
534.35	42541.58
534.52	42124.96
534.69	42869.25
534.86	43281.19
535.03	42637.54
535.20	42810.74
535.37	42639.88
535.54	42904.36
535.71	42440.93
535.88	43171.18
536.05	43213.31
536.22	43386.51
536.38	43232.04
536.55	43632.27
536.72	43498.86
536.89	43421.62
537.06	43133.73
537.23	43910.79
537.40	43466.09
537.57	43531.62
537.74	43470.77
537.91	43761.00
538.08	43428.64
538.25	43620.56
538.42	44196.34
538.59	43922.49
538.75	42895.00
538.92	44009.09
539.09	43938.88
539.26	43622.90
539.43	44252.51
539.60	44339.11
539.77	44074.63
539.94	44346.13
540.11	44638.70
540.28	44512.31
540.44	44320.38
540.61	44432.73
540.78	44720.62
540.95	44769.77
541.12	44711.25
541.29	44832.96
541.46	45006.16
541.62	44851.69
541.79	45315.11
541.96	45090.42
542.13	44933.60
542.30	45254.26
542.47	45261.28
542.63	45584.27
542.80	46019.61
542.97	45705.98
543.14	45736.41
543.31	45897.91
543.48	45340.86
543.64	46134.30
543.81	46153.02
543.98	46288.77
544.15	45989.19
544.32	46337.93
544.48	46321.54
544.65	45731.73
544.82	45556.19
544.99	45724.71
545.16	46148.34
545.32	46209.20
545.49	46925.40
545.66	47138.39
545.83	47178.18
546.00	47456.70
546.16	46576.66
546.33	46513.47
546.50	46169.41
546.67	46693.69
546.83	45998.55
547.00	46082.81
547.17	47138.39
547.34	46817.74
547.50	46742.84
547.67	46967.53
547.84	46717.09
548.00	46492.40
548.17	46740.50
548.34	46579.00
548.51	46859.87
548.67	47346.70
548.84	46794.33
549.01	46597.73
549.18	47044.77
549.34	46707.73
549.51	46836.46
549.68	47037.75
549.84	47473.09
550.01	47405.21
550.18	46953.49
550.34	47236.69
550.51	47517.56
550.68	47533.94
550.84	47114.98
551.01	47035.41
551.18	47210.95
551.34	47131.37
551.51	46955.83
551.68	47643.94
551.84	47405.21
552.01	47454.36
552.18	47557.35
552.34	47505.85
552.51	47655.65
552.68	47440.32
552.84	47236.69
553.01	47466.06
553.18	47414.57
553.34	47313.93
553.51	47215.63
553.67	47566.71
553.84	47922.47
554.01	47992.68
554.17	47475.43
554.34	47606.50
554.51	48020.77
554.67	47826.51
554.84	47718.84
555.00	47980.98
555.17	47807.78
555.33	48392.92
555.50	47880.34
555.67	47753.95
555.83	48006.73
556.00	48254.82
556.16	48790.81
556.33	48002.05
556.50	48432.71
556.66	48444.41
556.83	48495.90
556.99	48334.40
557.16	48498.24
557.32	48669.10
557.49	48573.14
557.65	48254.82
557.82	48280.57
557.98	48385.89
558.15	48617.61
558.32	48694.85
558.48	48589.52
558.65	48601.22
558.81	48837.62
558.98	48568.46
559.14	48624.63
559.31	48126.10
559.47	48641.01
559.64	48994.43
559.80	48685.48
559.97	49031.88
560.13	48720.59
560.30	48849.32
560.46	49076.35
560.63	48861.02
560.79	49099.76
560.96	49172.31
561.12	48610.59
561.29	48739.32
561.45	48662.08
561.61	49071.67
561.78	48964.01
561.94	48975.71
562.11	49368.92
562.27	49092.74
562.44	49230.83
562.60	49200.40
562.77	49563.18
562.93	48975.71
563.10	49069.33
563.26	48683.14
563.42	49305.73
563.59	49242.53
563.75	49364.24
563.92	49507.01
564.08	49235.51
564.24	49153.59
564.41	49113.80
564.57	49071.67
564.74	49074.01
564.90	49270.62
565.07	49268.28
565.23	49614.68
565.39	49375.94
565.56	49490.63
565.72	49209.76
565.88	49242.53
566.05	49195.72
566.21	49209.76
566.38	49368.92
566.54	49530.42
566.70	49708.30
566.87	49659.15
567.03	49521.05
567.19	50092.15
567.36	49682.55
567.52	49439.14
567.68	49460.20
567.85	49497.65
568.01	49677.87
568.17	49766.81
568.34	49497.65
568.50	49666.17
568.66	49881.50
568.83	49851.07
568.99	49811.28
569.15	49750.43
569.32	49626.38
569.48	49429.77
569.64	49659.15
569.81	49617.02
569.97	49677.87
570.13	49546.80
570.30	49537.44
570.46	49947.03
570.62	49904.90
570.78	49317.43
570.95	49502.33
571.11	49724.68
571.27	49776.17
571.43	49514.03
571.60	49476.58
571.76	49518.71
571.92	50010.23
572.09	49949.37
572.25	50089.80
572.41	50035.97
572.57	50050.02
572.74	50082.78
572.90	49544.46
573.06	49923.63
573.22	49429.77
573.38	49907.24
573.55	50211.51
573.71	50230.24
573.87	50038.31
574.03	49673.19
574.20	50127.25
574.36	49993.84
574.52	49907.24
574.68	49705.96
574.84	49577.23
575.01	49893.20
575.17	49932.99
575.33	49996.18
575.49	50115.55
575.65	50251.30
575.82	50492.38
575.98	50148.32
576.14	49815.96
576.30	49832.35
576.46	49932.99
576.62	50000.86
576.79	50174.06
576.95	49837.03
577.11	50227.90
577.27	50337.90
577.43	50248.96
577.59	50068.74
577.75	50122.57
577.92	50124.91
578.08	49799.58
578.24	49471.90
578.40	49930.65
578.56	50012.57
578.72	50405.78
578.88	50246.62
579.04	50468.97
579.21	50155.34
579.37	49900.22
579.53	50218.53
579.69	49907.24
579.85	49724.68
580.01	50361.31
580.17	49914.26
580.33	50218.53
580.49	50337.90
580.65	50078.10
580.82	50480.67
580.98	50298.11
581.14	50209.17
581.30	50216.19
581.46	50265.34
581.62	50354.29
581.78	49815.96
581.94	50443.23
582.10	50131.93
582.26	50738.13
582.42	50237.26
582.58	50534.51
582.74	50340.24
582.90	50279.39
583.06	50672.60
583.22	50218.53
583.38	50351.94
583.54	50380.03
583.70	50042.99
583.86	50045.33
584.02	49925.97
584.18	50401.10
584.34	50323.86
584.50	50574.30
584.66	50358.97
584.82	50150.66
584.98	50241.94
585.14	50265.34
585.30	50071.08
585.46	50108.53
585.62	50424.50
585.78	50272.37
585.94	50438.54
586.10	50113.21
586.26	50632.81
586.42	50763.88
586.58	50644.51
586.74	50284.07
586.90	50272.37
587.06	50375.35
587.22	50564.93
587.38	50518.12
587.54	50305.13
587.70	50487.70
587.86	50621.11
588.02	50684.30
588.18	51121.98
588.34	50625.79
588.49	50745.15
588.65	50344.92
588.81	50373.01
588.97	50518.12
589.13	50333.22
589.29	50681.96
589.45	50433.86
589.61	50438.54
589.77	50841.12
589.93	50820.05
590.08	50817.71
590.24	50548.55
590.40	50522.80
590.56	50892.61
