SpectraSuite Data File
++++++++++++++++++++++++++++++++++++
Date: Tue Oct 01 18:27:29 GMT-05:00 2013
User: stostad
Dark Spectrum Present: No
Reference Spectrum Present: No
Number of Sampled Component Spectra: 1
Spectrometers: USB2+H05261
Integration Time (usec): 100000 (USB2+H05261)
Spectra Averaged: 1 (USB2+H05261)
Boxcar Smoothing: 0 (USB2+H05261)
Correct for Electrical Dark: No (USB2+H05261)
Strobe/Lamp Enabled: No (USB2+H05261)
Correct for Detector Non-linearity: No (USB2+H05261)
Correct for Stray Light: No (USB2+H05261)
Number of Pixels in Processed Spectrum: 2048
>>>>>Begin Processed Spectral Data<<<<<
365.73	117.03
365.92	117.03
366.12	117.03
366.32	0.00
366.52	23.41
366.72	58.51
366.91	0.00
367.11	0.00
367.31	7.02
367.51	0.00
367.70	0.00
367.90	0.00
368.10	0.00
368.30	0.00
368.49	0.00
368.69	35.11
368.89	0.00
369.09	0.00
369.28	2.34
369.48	0.00
369.68	0.00
369.87	11.70
370.07	14.04
370.27	79.58
370.47	91.28
370.66	330.02
370.86	269.16
371.06	393.21
371.25	330.02
371.45	299.59
371.65	318.31
371.84	402.57
372.04	313.63
372.24	374.49
372.44	334.70
372.63	360.44
372.83	362.78
373.03	372.15
373.22	418.96
373.42	393.21
373.62	353.42
373.81	435.34
374.01	496.19
374.21	442.36
374.40	447.04
374.60	428.32
374.79	451.72
374.99	543.00
375.19	456.40
375.38	580.45
375.58	437.68
375.78	545.34
375.97	519.60
376.17	512.58
376.37	444.70
376.56	491.51
376.76	465.77
376.95	351.08
377.15	479.81
377.35	496.19
377.54	528.96
377.74	416.62
377.93	477.47
378.13	545.34
378.33	521.94
378.52	496.19
378.72	533.64
378.91	573.43
379.11	528.96
379.31	477.47
379.50	440.02
379.70	568.75
379.89	559.39
380.09	477.47
380.28	535.98
380.48	543.00
380.68	578.11
380.87	531.30
381.07	596.84
381.26	557.05
381.46	606.20
381.65	517.26
381.85	552.37
382.04	559.39
382.24	627.26
382.43	620.24
382.63	634.29
382.83	636.63
383.02	627.26
383.22	631.94
383.41	552.37
383.61	634.29
383.80	608.54
384.00	657.69
384.19	627.26
384.39	617.90
384.58	660.03
384.78	613.22
384.97	645.99
385.17	655.35
385.36	631.94
385.56	723.23
385.75	594.50
385.95	667.05
386.14	622.58
386.34	674.07
386.53	727.91
386.72	622.58
386.92	737.27
387.11	709.18
387.31	753.65
387.50	711.52
387.70	695.14
387.89	739.61
388.09	688.12
388.28	744.29
388.48	706.84
388.67	746.63
388.86	690.46
389.06	681.10
389.25	767.70
389.45	765.36
389.64	866.00
389.84	784.08
390.03	802.80
390.22	786.42
390.42	779.40
390.61	791.10
390.81	704.50
391.00	784.08
391.19	875.36
391.39	835.57
391.58	795.78
391.78	805.14
391.97	858.98
392.16	837.91
392.36	901.11
392.55	870.68
392.75	861.32
392.94	856.64
393.13	861.32
393.33	870.68
393.52	903.45
393.71	882.38
393.91	889.40
394.10	912.81
394.29	940.90
394.49	870.68
394.68	891.74
394.88	985.37
395.07	1027.50
395.26	1076.65
395.46	1015.79
395.65	1034.52
395.84	1048.56
396.04	1107.07
396.23	1055.58
396.42	1039.20
396.62	1078.99
396.81	1006.43
397.00	1102.39
397.19	1090.69
397.39	1020.47
397.58	1008.77
397.77	1020.47
397.97	1097.71
398.16	1081.33
398.35	1081.33
398.55	1165.59
398.74	1149.20
398.93	1263.89
399.12	1125.80
399.32	1121.12
399.51	1174.95
399.70	1228.78
399.90	1210.06
400.09	1240.48
400.28	1259.21
400.47	1240.48
400.67	1242.82
400.86	1306.02
401.05	1291.98
401.24	1282.61
401.44	1320.06
401.63	1322.40
401.82	1221.76
402.01	1289.64
402.21	1247.51
402.40	1247.51
402.59	1362.19
402.78	1371.55
402.97	1404.32
403.17	1493.26
403.36	1439.43
403.55	1437.09
403.74	1486.24
403.93	1533.05
404.13	1502.62
404.32	1607.95
404.51	1605.61
404.70	1537.73
404.89	1645.40
405.09	1603.27
405.28	1509.65
405.47	1563.48
405.66	1629.01
405.85	1621.99
406.05	1675.82
406.24	1572.84
406.43	1703.91
406.62	1701.57
406.81	1776.47
407.00	1703.91
407.20	1696.89
407.39	1720.29
407.58	1806.89
407.77	1853.70
407.96	1827.96
408.15	1881.79
408.34	1837.32
408.54	1944.99
408.73	1916.90
408.92	1961.37
409.11	1909.88
409.30	2136.91
409.49	1947.33
409.68	2024.56
409.87	1963.71
410.07	2012.86
410.26	2045.63
410.45	2069.03
410.64	2101.80
410.83	2083.08
411.02	2101.80
411.21	2169.68
411.40	2188.40
411.59	2209.47
411.78	2284.36
411.98	2251.60
412.17	2286.70
412.36	2352.24
412.55	2310.11
412.74	2291.38
412.93	2401.39
413.12	2310.11
413.31	2436.50
413.50	2438.84
413.69	2464.58
413.88	2562.89
414.07	2490.33
414.26	2590.97
414.45	2675.23
414.64	2656.51
414.83	2703.32
415.02	2612.04
415.22	2658.85
415.41	2750.13
415.60	2778.22
415.79	2848.43
415.98	2825.03
416.17	2684.59
416.36	2801.62
416.55	2920.99
416.74	2899.92
416.93	2860.13
417.12	3026.31
417.31	2892.90
417.50	3005.25
417.69	3007.59
417.88	3066.10
418.07	3026.31
418.26	3068.44
418.45	3110.57
418.64	3192.49
418.83	3222.92
419.02	3173.77
419.21	3204.19
419.39	3211.22
419.58	3251.00
419.77	3269.73
419.96	3227.60
420.15	3368.03
420.34	3335.26
420.53	3211.22
420.72	3391.44
420.91	3447.61
421.10	3382.07
421.29	3534.21
421.48	3454.63
421.67	3480.38
421.86	3379.73
422.05	3522.51
422.24	3475.70
422.43	3513.14
422.61	3517.83
422.80	3562.30
422.99	3599.74
423.18	3641.87
423.37	3702.73
423.56	3585.70
423.75	3627.83
423.94	3524.85
424.13	3396.12
424.32	3482.72
424.50	3531.87
424.69	3611.45
424.88	3756.56
425.07	3702.73
425.26	3536.55
425.45	3536.55
425.64	3637.19
425.83	3646.55
426.01	3719.11
426.20	3740.18
426.39	3662.94
426.58	3646.55
426.77	3770.60
426.96	3705.07
427.15	3641.87
427.33	3653.58
427.52	3709.75
427.71	3833.80
427.90	3695.71
428.09	3908.69
428.28	3904.01
428.46	4098.28
428.65	3969.55
428.84	3901.67
429.03	3927.42
429.22	3983.59
429.40	4053.81
429.59	4156.79
429.78	3939.12
429.97	3822.09
430.16	3887.63
430.34	3861.88
430.53	4236.37
430.72	4196.58
430.91	4016.36
431.10	4112.32
431.28	4189.56
431.47	4098.28
431.66	4386.16
431.85	4145.09
432.03	4423.61
432.22	4409.57
432.41	4337.01
432.60	4325.31
432.79	4339.35
432.97	4432.97
433.16	4430.63
433.35	4273.82
433.54	4535.96
433.72	4234.03
433.91	4414.25
434.10	4505.53
434.28	4533.62
434.47	4503.19
434.66	4594.47
434.85	4552.34
435.03	4821.50
435.22	4533.62
435.41	4699.80
435.59	4812.14
435.78	4564.04
435.97	4685.75
436.16	4730.22
436.34	4737.24
436.53	4723.20
436.72	4922.15
436.90	4711.50
437.09	5022.79
437.28	4887.04
437.46	4882.36
437.65	4765.33
437.84	5062.58
438.02	4919.81
438.21	5036.83
438.40	5004.07
438.58	5018.11
438.77	5165.56
438.96	5247.48
439.14	5118.75
439.33	5313.02
439.52	5212.37
439.70	5259.18
439.89	5399.62
440.08	5369.19
440.26	5373.87
440.45	5448.77
440.63	5561.11
440.82	5575.16
441.01	5509.62
441.19	5647.71
441.38	5760.06
441.57	5743.67
441.75	5802.19
441.94	5755.38
442.12	5846.66
442.31	5844.32
442.50	6047.94
442.68	5687.50
442.87	5944.96
443.05	5954.32
443.24	6113.48
443.43	6160.29
443.61	6274.98
443.80	6368.60
443.98	5853.68
444.17	5795.17
444.35	6059.65
444.54	6216.46
444.73	6008.16
444.91	6057.31
445.10	6040.92
445.28	6225.82
445.47	6054.97
445.65	6370.94
445.84	6293.70
446.02	6209.44
446.21	6312.42
446.39	6214.12
446.58	6356.90
446.77	6251.57
446.95	6003.47
447.14	6223.48
447.32	6408.39
447.51	6267.95
447.69	6251.57
447.88	6359.24
448.06	6410.73
448.25	6312.42
448.43	6403.71
448.62	6354.55
448.80	6282.00
448.99	6230.51
449.17	6532.44
449.36	6375.62
449.54	6647.12
449.73	6590.95
449.91	6623.72
450.10	6579.25
450.28	6651.80
450.46	6693.93
450.65	6792.23
450.83	6630.74
451.02	6588.61
451.20	6562.86
451.39	6850.75
451.57	6925.65
451.76	6841.39
451.94	6754.79
452.13	6752.45
452.31	6956.07
452.49	6817.98
452.68	6864.79
452.86	6932.67
453.05	6878.83
453.23	7059.06
453.42	6822.66
453.60	6895.22
453.78	7133.95
453.97	7021.61
454.15	7239.28
454.34	7033.31
454.52	7080.12
454.70	7171.40
454.89	7243.96
455.07	7112.89
455.26	7332.90
455.44	7335.24
455.62	7400.77
455.81	7349.28
455.99	7349.28
456.17	7396.09
456.36	7466.31
456.54	7253.32
456.73	7569.29
456.91	7719.09
457.09	7793.98
457.28	7789.30
457.46	7681.64
457.64	7871.22
457.83	7716.75
458.01	7733.13
458.19	8070.17
458.38	7927.39
458.56	7850.16
458.74	8042.08
458.93	7943.78
459.11	8016.33
459.29	7967.18
459.48	8187.19
459.66	7971.86
459.84	8203.58
460.03	8098.25
460.21	8154.43
460.39	7997.61
460.57	8124.00
460.76	8163.79
460.94	8276.13
461.12	8243.37
461.31	8339.33
461.49	8273.79
461.67	8404.86
461.85	8442.31
462.04	8374.44
462.22	9046.17
462.40	8519.55
462.59	8503.17
462.77	8486.78
462.95	8699.77
463.13	8493.80
463.32	8517.21
463.50	8643.60
463.68	8840.20
463.86	8709.13
464.05	8800.41
464.23	8744.24
464.41	8769.99
464.59	8758.28
464.78	8793.39
464.96	8877.65
465.14	8704.45
465.32	8842.54
465.50	8861.27
465.69	9144.47
465.87	8800.41
466.05	9039.15
466.23	9224.05
466.41	9107.02
466.60	9254.48
466.78	8994.68
466.96	9226.39
467.14	9020.42
467.32	9261.50
467.51	9397.25
467.69	8933.82
467.87	9064.89
468.05	9247.46
468.23	9198.31
468.41	9231.07
468.60	9385.55
468.78	9530.66
468.96	9320.01
469.14	9497.89
469.32	9509.60
469.50	9305.97
469.69	9626.62
469.87	9736.63
470.05	9788.12
470.23	9561.09
470.41	9727.27
470.59	9830.25
470.77	9741.31
470.95	9685.14
471.14	9820.89
471.32	9657.05
471.50	9963.66
471.68	9984.73
471.86	9888.76
472.04	10157.92
472.22	10246.87
472.40	9970.68
472.58	10237.50
472.77	10305.38
472.95	10396.66
473.13	10745.40
473.31	10387.30
473.49	10391.98
473.67	10626.03
473.85	10296.02
474.03	10686.89
474.21	10810.93
474.39	10909.24
474.57	10918.60
474.75	11089.46
474.93	11257.98
475.12	10949.03
475.30	11218.19
475.48	11527.14
475.66	11356.28
475.84	11286.06
476.02	11440.54
476.20	11456.92
476.38	11592.67
476.56	11808.00
476.74	11894.60
476.92	11789.28
477.10	11859.49
477.28	12217.60
477.46	11943.75
477.64	12252.70
477.82	12407.18
478.00	12655.28
478.18	12526.55
478.36	12362.71
478.54	12594.42
478.72	12674.00
478.90	12779.32
479.08	12847.20
479.26	12819.11
479.44	13167.85
479.62	13191.26
479.80	13336.37
479.98	13453.40
480.16	13525.96
480.34	13422.97
480.52	13792.78
480.70	13958.96
480.88	13678.09
481.06	13771.71
481.24	13865.33
481.41	13980.02
481.59	14291.31
481.77	14473.87
481.95	14663.46
482.13	14544.09
482.31	14604.94
482.49	15194.76
482.67	15026.24
482.85	15136.24
483.03	15218.16
483.21	15391.36
483.39	15440.51
483.57	15639.46
483.74	15587.97
483.92	15915.64
484.10	15674.57
484.28	16009.26
484.46	16046.71
484.64	16383.75
484.82	16299.49
485.00	16491.41
485.18	16758.24
485.35	16943.14
485.53	16961.86
485.71	16809.73
485.89	17612.53
486.07	17219.32
486.25	17186.55
486.43	17554.02
486.61	17848.93
486.78	17898.08
486.96	17860.63
487.14	18033.83
487.32	18075.96
487.50	18530.02
487.68	18420.02
487.85	18672.79
488.03	19007.49
488.21	19335.17
488.39	19150.26
488.57	19154.94
488.75	19353.89
488.92	19894.55
489.10	19726.04
489.28	19873.49
489.46	20224.57
489.64	20130.95
489.81	20486.71
489.99	20531.18
490.17	20664.59
490.35	21142.06
490.53	21046.10
490.70	21095.25
490.88	20746.51
491.06	21411.22
491.24	21287.17
491.41	21474.42
491.59	21741.24
491.77	21736.56
491.95	21900.39
492.13	22216.36
492.30	22342.75
492.48	22118.06
492.66	22436.38
492.84	22490.21
493.01	22761.71
493.19	22665.75
493.37	23117.47
493.54	23243.86
493.72	23367.91
493.90	23370.25
494.08	23552.81
494.25	23899.21
494.43	23983.47
494.61	24159.01
494.79	23920.28
494.96	24041.98
495.14	24252.63
495.32	24559.24
495.49	24430.51
495.67	25158.42
495.85	25034.37
496.02	24985.22
496.20	25483.75
496.38	25158.42
496.55	25298.85
496.73	26022.08
496.91	25912.07
497.09	26122.72
497.26	25766.96
497.44	25975.27
497.62	25944.84
497.79	26424.65
497.97	26558.06
498.14	26927.86
498.32	26852.97
498.50	26962.97
498.67	27192.34
498.85	27042.55
499.03	27309.37
499.20	27536.40
499.38	27634.71
499.56	27583.21
499.73	27859.40
499.91	27688.54
500.08	28187.07
500.26	27641.73
500.44	28002.17
500.61	28283.03
500.79	28556.88
500.97	28533.47
501.14	28914.98
501.32	28868.17
501.49	28945.41
501.67	28603.69
501.84	28985.19
502.02	28893.91
502.20	29301.17
502.37	29043.71
502.55	29270.74
502.72	29256.70
502.90	29263.72
503.07	29261.38
503.25	29954.18
503.43	29553.94
503.60	30036.09
503.78	30096.95
503.95	29827.79
504.13	29813.74
504.30	30045.46
504.48	30906.77
504.65	30466.75
504.83	30340.36
505.01	30735.92
505.18	30859.96
505.36	31262.54
505.53	30792.09
505.71	30796.77
505.88	31538.72
506.06	31112.74
506.23	31159.55
506.41	31489.57
506.58	31459.14
506.76	31571.49
506.93	31896.82
507.11	31552.76
507.28	32329.82
507.46	32180.03
507.63	31915.54
507.81	32378.97
507.98	31798.52
508.16	32290.03
508.33	32313.44
508.50	32723.03
508.68	32767.50
508.85	33235.61
509.03	32587.28
509.20	33408.81
509.38	33120.92
509.55	33181.77
509.73	33443.91
509.90	33305.82
510.08	33247.31
510.25	33195.82
510.42	33846.49
510.60	33841.81
510.77	33675.63
510.95	34543.97
511.12	34230.33
511.30	33972.88
511.47	34504.18
511.64	34307.57
511.82	34721.85
511.99	34232.68
512.17	34670.36
512.34	34749.93
512.51	34918.45
512.69	35122.08
512.86	34834.19
513.04	35590.19
513.21	35154.85
513.38	35255.49
513.56	35316.34
513.73	35709.55
513.90	35517.63
514.08	35526.99
514.25	35601.89
514.43	35878.07
514.60	35758.70
514.77	35800.83
514.95	35992.76
515.12	36135.53
515.29	36252.56
515.47	36350.86
515.64	36858.76
515.81	36758.11
515.99	36968.76
516.16	36842.37
516.33	36451.50
516.51	37467.30
516.68	37017.91
516.85	37090.47
517.03	37163.03
517.20	37446.23
517.37	37294.10
517.54	37858.17
517.72	37301.12
517.89	37172.39
518.06	37427.51
518.24	37385.38
518.41	37514.11
518.58	37312.82
518.75	37607.73
518.93	37984.55
519.10	37596.03
519.27	38003.28
519.45	38232.65
519.62	38183.50
519.79	38466.70
519.96	38258.40
520.14	38354.36
520.31	38452.66
520.48	38766.29
520.65	38686.71
520.83	38892.68
521.00	39035.45
521.17	38763.95
521.34	39318.66
521.52	39110.35
521.69	39110.35
521.86	39180.57
522.03	39711.87
522.20	40009.12
522.38	39894.43
522.55	39871.03
522.72	39543.35
522.89	40210.40
523.07	40409.35
523.24	39854.64
523.41	39709.53
523.58	39669.74
523.75	40165.93
523.92	40219.77
524.10	40144.87
524.27	40690.21
524.44	40847.03
524.61	41064.70
524.78	40596.59
524.96	40891.50
525.13	40685.53
525.30	41053.00
525.47	41069.38
525.64	41010.87
525.81	41483.66
525.98	41289.39
526.16	41607.70
526.33	41413.44
526.50	41895.59
526.67	41258.96
526.84	41741.11
527.01	41837.08
527.18	41509.40
527.36	41574.94
527.53	42103.90
527.70	42174.11
527.87	42174.11
528.04	41879.21
528.21	41867.50
528.38	42249.01
528.55	42394.12
528.72	42213.90
528.89	42557.96
529.07	42258.37
529.24	42220.92
529.41	42550.94
529.58	42206.88
529.75	42745.20
529.92	42902.02
530.09	42979.26
530.26	42848.19
530.43	43405.23
530.60	42534.56
530.77	42693.71
530.94	42665.63
531.11	43159.48
531.28	43482.47
531.46	43447.36
531.63	43309.27
531.80	43306.93
531.97	43325.66
532.14	43807.81
532.31	43309.27
532.48	43585.46
532.65	43653.33
532.82	43863.98
532.99	43931.86
533.16	44037.18
533.33	44172.93
533.50	44116.76
533.67	43826.53
533.84	43927.17
534.01	43983.35
534.18	43936.54
534.35	44739.34
534.52	44587.21
534.69	44772.11
534.86	44744.02
535.03	44332.09
535.20	44498.26
535.37	44704.23
535.54	44720.62
535.71	44643.38
535.88	45062.33
536.05	44797.85
536.22	45088.08
536.38	44725.30
536.55	44940.63
536.72	44671.46
536.89	45027.23
537.06	44893.82
537.23	45338.52
537.40	45308.09
537.57	45137.23
537.74	45244.90
537.91	45497.67
538.08	45453.20
538.25	45507.04
538.42	45579.59
538.59	45900.25
538.75	45052.97
538.92	45993.87
539.09	46183.45
539.26	45954.08
539.43	45783.22
539.60	45797.26
539.77	45867.48
539.94	45975.14
540.11	46003.23
540.28	46218.56
540.44	46562.62
540.61	46412.82
540.78	45937.69
540.95	46349.63
541.12	46810.71
541.29	46515.81
541.46	45762.15
541.62	46190.47
541.79	46850.50
541.96	46333.24
542.13	46513.47
542.30	46810.71
542.47	46878.59
542.63	46726.46
542.80	46955.83
542.97	47313.93
543.14	47243.71
543.31	47056.47
543.48	47662.67
543.64	47655.65
543.81	47309.25
543.98	47334.99
544.15	47414.57
544.32	47370.10
544.48	47657.99
544.65	47536.28
544.82	47550.32
544.99	47412.23
545.16	47620.54
545.32	47915.45
545.49	48390.58
545.66	48030.13
545.83	47639.26
546.00	47828.85
546.16	48039.50
546.33	47559.69
546.50	47571.39
546.67	48203.33
546.83	47627.56
547.00	47983.32
547.17	48325.04
547.34	47618.20
547.50	48294.61
547.67	48741.66
547.84	48116.73
548.00	48760.38
548.17	48582.50
548.34	48839.96
548.51	48610.59
548.67	49076.35
548.84	48584.84
549.01	48411.64
549.18	48357.81
549.34	48395.26
549.51	48849.32
549.68	48914.86
549.84	48760.38
550.01	49202.74
550.18	48924.22
550.34	48690.16
550.51	48987.41
550.68	48863.36
550.84	48594.20
551.01	49059.97
551.18	48987.41
551.34	49043.59
551.51	49116.14
551.68	48985.07
551.84	49118.48
552.01	49158.27
552.18	49322.11
552.34	48706.55
552.51	49057.63
552.68	49233.17
552.84	49336.15
553.01	49581.91
553.18	49640.42
553.34	49743.41
553.51	49612.34
553.67	49317.43
553.84	49584.25
554.01	49654.47
554.17	49436.80
554.34	49811.28
554.51	49808.94
554.67	50061.72
554.84	50129.59
555.00	49900.22
555.17	49577.23
555.33	49553.82
555.50	49682.55
555.67	49565.52
555.83	50033.63
556.00	50078.10
556.16	50651.53
556.33	50576.64
556.50	50281.73
556.66	50494.72
556.83	49778.51
556.99	49897.88
557.16	50059.38
557.32	50101.51
557.49	50398.76
557.65	50326.20
557.82	50328.54
557.98	50703.03
558.15	50213.85
558.32	50815.37
558.48	50071.08
558.65	50468.97
558.81	50316.84
558.98	50391.73
559.14	50174.06
559.31	50035.97
559.47	50817.71
559.64	50490.04
559.80	50798.99
559.97	50960.48
560.13	50742.81
560.30	50686.64
560.46	50188.11
560.63	50490.04
560.79	50632.81
560.96	50920.70
561.12	50698.34
561.29	50827.07
561.45	50806.01
561.61	50586.00
561.78	51033.04
561.94	50309.82
562.11	50878.57
562.27	50611.74
562.44	50696.00
562.60	50574.30
562.77	50794.31
562.93	50890.27
563.10	50988.57
563.26	50885.59
563.42	51201.56
563.59	50894.95
563.75	51091.55
563.92	51217.94
564.08	50703.03
564.24	51068.15
564.41	51475.40
564.57	51105.60
564.74	51248.37
564.90	51007.29
565.07	51049.42
565.23	51201.56
565.39	51194.54
565.56	51187.52
565.72	51154.75
565.88	50969.85
566.05	51660.30
566.21	51124.32
566.38	51430.93
566.54	50988.57
566.70	51295.18
566.87	51103.26
567.03	50997.93
567.19	51100.92
567.36	51309.22
567.52	50990.91
567.68	51545.62
567.85	51407.53
568.01	51653.28
568.17	51405.19
568.34	51068.15
568.50	51470.72
568.66	51084.53
568.83	51323.27
568.99	50972.19
569.15	51636.90
569.32	51395.82
569.48	51255.39
569.64	51913.08
569.81	51482.42
569.97	51164.11
570.13	51782.01
570.30	51103.26
570.46	51213.26
570.62	51386.46
570.78	51482.42
570.95	51267.09
571.11	51344.33
571.27	51590.09
571.43	51779.67
571.60	52055.85
571.76	51693.07
571.92	51571.36
572.09	51540.94
572.25	51714.14
572.41	51599.45
572.57	51854.57
572.74	51707.12
572.90	51625.20
573.06	51929.47
573.22	51819.46
573.38	51915.42
573.55	51412.21
573.71	51826.48
573.87	51395.82
574.03	51543.28
574.20	51430.93
574.36	51683.71
574.52	51662.64
574.68	51798.40
574.84	52004.36
575.01	51969.26
575.17	51995.00
575.33	51753.93
575.49	51629.88
575.65	51948.19
575.82	52285.23
575.98	51444.98
576.14	52011.38
576.30	52142.45
576.46	51737.54
576.62	52095.64
576.79	51547.96
576.95	51854.57
577.11	51751.59
577.27	51835.84
577.43	51774.99
577.59	51608.81
577.75	51470.72
577.92	51124.32
578.08	51672.01
578.24	51880.31
578.40	51859.25
578.56	52081.60
578.72	51849.89
578.88	51793.71
579.04	52081.60
579.21	51880.31
579.37	52109.69
579.53	51805.42
579.69	52116.71
579.85	52126.07
580.01	51978.62
580.17	52236.08
580.33	52025.43
580.49	52350.76
580.65	51807.76
580.82	51950.53
580.98	51875.63
581.14	51683.71
581.30	51927.13
581.46	52018.41
581.62	51945.85
581.78	52072.24
581.94	52158.84
582.10	51873.29
582.26	52032.45
582.42	51828.82
582.58	51870.95
582.74	52034.79
582.90	52095.64
583.06	51969.26
583.22	52156.50
583.38	52219.69
583.54	52353.10
583.70	52149.48
583.86	52060.54
584.02	52121.39
584.18	52102.67
584.34	52018.41
584.50	52140.11
584.66	52076.92
584.82	51735.20
584.98	52074.58
585.14	52231.40
585.30	51964.57
585.46	52240.76
585.62	52198.63
585.78	51985.64
585.94	51800.74
586.10	52044.15
586.26	51798.40
586.42	52037.13
586.58	52154.16
586.74	51934.15
586.90	51971.60
587.06	52184.58
587.22	52530.98
587.38	52257.14
587.54	52313.31
587.70	52432.68
587.86	52374.17
588.02	51807.76
588.18	52559.07
588.34	52095.64
588.49	52411.62
588.65	52062.88
588.81	52395.23
588.97	52486.51
589.13	52509.92
589.29	52617.58
589.45	52470.13
589.61	52271.18
589.77	52371.83
589.93	52275.87
590.08	52229.05
590.24	52519.28
590.40	52580.13
