SpectraSuite Data File
++++++++++++++++++++++++++++++++++++
Date: Fri Oct 04 11:39:29 GMT-05:00 2013
User: price-jones
Dark Spectrum Present: No
Reference Spectrum Present: No
Number of Sampled Component Spectra: 1
Spectrometers: USB2+H05261
Integration Time (usec): 100000 (USB2+H05261)
Spectra Averaged: 1 (USB2+H05261)
Boxcar Smoothing: 0 (USB2+H05261)
Correct for Electrical Dark: No (USB2+H05261)
Strobe/Lamp Enabled: No (USB2+H05261)
Correct for Detector Non-linearity: No (USB2+H05261)
Correct for Stray Light: No (USB2+H05261)
Number of Pixels in Processed Spectrum: 2048
>>>>>Begin Processed Spectral Data<<<<<
365.73	65.54
365.92	65.54
366.12	65.54
366.32	0.00
366.52	0.00
366.72	0.00
366.91	0.00
367.11	0.00
367.31	0.00
367.51	0.00
367.70	0.00
367.90	0.00
368.10	0.00
368.30	2.34
368.49	0.00
368.69	0.00
368.89	0.00
369.09	0.00
369.28	0.00
369.48	4.68
369.68	0.00
369.87	0.00
370.07	0.00
370.27	37.45
370.47	0.00
370.66	81.92
370.86	84.26
371.06	142.77
371.25	107.66
371.45	98.30
371.65	121.71
371.84	88.94
372.04	114.69
372.24	124.05
372.44	91.28
372.63	159.16
372.83	229.37
373.03	119.37
373.22	177.88
373.42	95.96
373.62	152.13
373.81	229.37
374.01	177.88
374.21	191.92
374.40	222.35
374.60	236.39
374.79	119.37
374.99	147.45
375.19	128.73
375.38	189.58
375.58	222.35
375.78	290.23
375.97	250.44
376.17	212.99
376.37	170.86
376.56	227.03
376.76	133.41
376.95	187.24
377.15	187.24
377.35	201.29
377.54	159.16
377.74	187.24
377.93	163.84
378.13	191.92
378.33	205.97
378.52	231.71
378.72	280.86
378.91	210.65
379.11	161.50
379.31	210.65
379.50	180.22
379.70	173.20
379.89	154.48
380.09	259.80
380.28	238.73
380.48	182.56
380.68	138.09
380.87	168.52
381.07	259.80
381.26	201.29
381.46	215.33
381.65	191.92
381.85	278.52
382.04	161.50
382.24	210.65
382.43	163.84
382.63	182.56
382.83	142.77
383.02	271.50
383.22	271.50
383.41	184.90
383.61	241.08
383.80	210.65
384.00	180.22
384.19	182.56
384.39	266.82
384.58	217.67
384.78	175.54
384.97	189.58
385.17	201.29
385.36	208.31
385.56	255.12
385.75	208.31
385.95	273.84
386.14	234.05
386.34	205.97
386.53	196.60
386.72	170.86
386.92	262.14
387.11	320.65
387.31	257.46
387.50	259.80
387.70	231.71
387.89	276.18
388.09	222.35
388.28	205.97
388.48	231.71
388.67	205.97
388.86	257.46
389.06	236.39
389.25	248.10
389.45	243.42
389.64	290.23
389.84	299.59
390.03	255.12
390.22	287.89
390.42	252.78
390.61	234.05
390.81	266.82
391.00	217.67
391.19	330.02
391.39	248.10
391.58	285.55
391.78	325.33
391.97	299.59
392.16	290.23
392.36	278.52
392.55	341.72
392.75	208.31
392.94	362.78
393.13	330.02
393.33	299.59
393.52	259.80
393.71	351.08
393.91	351.08
394.10	379.17
394.29	283.20
394.49	313.63
394.68	301.93
394.88	365.12
395.07	376.83
395.26	369.80
395.46	315.97
395.65	421.30
395.84	337.04
396.04	402.57
396.23	397.89
396.42	409.59
396.62	372.15
396.81	360.44
397.00	449.38
397.19	365.12
397.39	407.25
397.58	402.57
397.77	428.32
397.97	454.06
398.16	280.86
398.35	421.30
398.55	418.96
398.74	395.55
398.93	475.13
399.12	475.13
399.32	418.96
399.51	360.44
399.70	486.83
399.90	482.15
400.09	442.36
400.28	482.15
400.47	416.62
400.67	482.15
400.86	454.06
401.05	489.17
401.24	430.66
401.44	528.96
401.63	535.98
401.82	538.32
402.01	486.83
402.21	493.85
402.40	517.26
402.59	531.30
402.78	491.51
402.97	601.52
403.17	587.47
403.36	566.41
403.55	458.74
403.74	596.84
403.93	580.45
404.13	613.22
404.32	561.73
404.51	695.14
404.70	653.01
404.89	636.63
405.09	685.78
405.28	636.63
405.47	678.76
405.66	648.33
405.85	720.88
406.05	610.88
406.24	610.88
406.43	711.52
406.62	833.23
406.81	800.46
407.00	699.82
407.20	828.55
407.39	819.19
407.58	791.10
407.77	788.76
407.96	816.85
408.15	830.89
408.34	772.38
408.54	774.72
408.73	870.68
408.92	798.12
409.11	931.53
409.30	870.68
409.49	849.61
409.68	922.17
409.87	910.47
410.07	929.19
410.26	912.81
410.45	990.05
410.64	866.00
410.83	875.36
411.02	964.30
411.21	1036.86
411.40	964.30
411.59	891.74
411.78	954.94
411.98	971.32
412.17	1043.88
412.36	994.73
412.55	1142.18
412.74	1121.12
412.93	1107.07
413.12	1081.33
413.31	1219.42
413.50	1064.94
413.69	1179.63
413.88	1203.04
414.07	1240.48
414.26	1240.48
414.45	1193.67
414.64	1238.14
414.83	1331.76
415.02	1301.34
415.22	1306.02
415.41	1385.60
415.60	1390.28
415.79	1383.26
415.98	1392.62
416.17	1322.40
416.36	1409.00
416.55	1441.77
416.74	1469.86
416.93	1451.13
417.12	1467.52
417.31	1486.24
417.50	1526.03
417.69	1544.75
417.88	1668.80
418.07	1500.28
418.26	1537.73
418.45	1610.29
418.64	1682.85
418.83	1593.90
419.02	1535.39
419.21	1636.03
419.39	1703.91
419.58	1621.99
419.77	1675.82
419.96	1675.82
420.15	1732.00
420.34	1703.91
420.53	1722.63
420.72	1736.68
420.91	1685.19
421.10	1680.50
421.29	1774.13
421.48	1804.55
421.67	1760.08
421.86	1811.57
422.05	1762.42
422.24	1776.47
422.43	1863.07
422.61	1776.47
422.80	1823.28
422.99	1799.87
423.18	1846.68
423.37	1863.07
423.56	1856.04
423.75	1834.98
423.94	1874.77
424.13	1692.21
424.32	1884.13
424.50	1877.11
424.69	1823.28
424.88	1919.24
425.07	1774.13
425.26	1888.81
425.45	1820.94
425.64	1895.83
425.83	1891.15
426.01	1947.33
426.20	1900.52
426.39	1863.07
426.58	1870.09
426.77	1930.94
426.96	1937.96
427.15	1891.15
427.33	1905.20
427.52	1973.07
427.71	2050.31
427.90	2125.21
428.09	2022.22
428.28	2024.56
428.46	1961.37
428.65	2108.82
428.84	2062.01
429.03	2125.21
429.22	2073.71
429.40	2155.63
429.59	1954.35
429.78	2064.35
429.97	2045.63
430.16	2076.06
430.34	2160.31
430.53	2174.36
430.72	2207.13
430.91	2064.35
431.10	2052.65
431.28	2289.04
431.47	2200.10
431.66	2218.83
431.85	2090.10
432.03	2291.38
432.22	2352.24
432.41	2263.30
432.60	2256.28
432.79	2326.49
432.97	2347.56
433.16	2225.85
433.35	2300.75
433.54	2375.64
433.72	2478.63
433.91	2438.84
434.10	2385.01
434.28	2340.54
434.47	2459.90
434.66	2462.24
434.85	2415.43
435.03	2469.27
435.22	2675.23
435.41	2916.31
435.59	2909.29
435.78	2726.72
435.97	2562.89
436.16	2516.08
436.34	2553.52
436.53	2565.23
436.72	2602.68
436.90	2532.46
437.09	2586.29
437.28	2459.90
437.46	2595.65
437.65	2492.67
437.84	2537.14
438.02	2665.87
438.21	2560.55
438.40	2684.59
438.58	2684.59
438.77	2621.40
438.96	2764.17
439.14	2593.31
439.33	2841.41
439.52	2848.43
439.70	2759.49
439.89	2794.60
440.08	2787.58
440.26	2771.19
440.45	2902.26
440.63	2853.11
440.82	2923.33
441.01	3126.96
441.19	2970.14
441.38	2911.63
441.57	3002.91
441.75	2972.48
441.94	3045.04
442.12	2998.23
442.31	3103.55
442.50	3084.83
442.68	2991.20
442.87	3141.00
443.05	3141.00
443.24	3035.67
443.43	3141.00
443.61	3269.73
443.80	3300.16
443.98	3021.63
444.17	2984.18
444.35	3148.02
444.54	3295.47
444.73	3199.51
444.91	3318.88
445.10	3157.38
445.28	3061.42
445.47	3169.09
445.65	3215.90
445.84	3274.41
446.02	3281.43
446.21	3407.82
446.39	3251.00
446.58	3187.81
446.77	3370.37
446.95	3248.66
447.14	3133.98
447.32	3239.30
447.51	3405.48
447.69	3213.56
447.88	3152.70
448.06	3260.37
448.25	3117.59
448.43	3307.18
448.62	3304.84
448.80	3297.81
448.99	3478.04
449.17	3351.65
449.36	3253.34
449.54	3543.57
449.73	3435.91
449.91	3513.14
450.10	3426.54
450.28	3588.04
450.46	3520.17
450.65	3508.46
450.83	3466.33
451.02	3438.25
451.20	3665.28
451.39	3459.31
451.57	3499.10
451.76	3524.85
451.94	3463.99
452.13	3630.17
452.31	3543.57
452.49	3499.10
452.68	3618.47
452.86	3569.32
453.05	3588.04
453.23	3672.30
453.42	3609.11
453.60	3545.91
453.78	3632.51
453.97	3695.71
454.15	3613.79
454.34	3555.27
454.52	3634.85
454.70	3761.24
454.89	3723.79
455.07	3796.35
455.26	3829.12
455.44	3826.78
455.62	3836.14
455.81	3789.33
455.99	3939.12
456.17	3777.62
456.36	3744.86
456.54	4032.74
456.73	3875.93
456.91	3997.64
457.09	4025.72
457.28	4044.45
457.46	3906.35
457.64	4044.45
457.83	4007.00
458.01	3985.93
458.19	4067.85
458.38	3967.21
458.56	4128.70
458.74	3997.64
458.93	3960.19
459.11	4086.58
459.29	3971.89
459.48	4067.85
459.66	4250.41
459.84	4121.68
460.03	4339.35
460.21	4109.98
460.39	4074.87
460.57	4138.07
460.76	4126.36
460.94	4180.20
461.12	4402.55
461.31	4306.59
461.49	4348.72
461.67	4180.20
461.85	4425.95
462.04	4217.65
462.22	4491.49
462.40	4388.50
462.59	4435.32
462.77	4304.25
462.95	4571.07
463.13	4381.48
463.32	4503.19
463.50	4451.70
463.68	4360.42
463.86	4566.39
464.05	4351.06
464.23	4365.10
464.41	4482.13
464.59	4311.27
464.78	4538.30
464.96	4587.45
465.14	4400.21
465.32	4589.79
465.50	4564.04
465.69	4622.56
465.87	4643.62
466.05	4645.96
466.23	4528.94
466.41	4669.37
466.60	4847.25
466.78	4573.41
466.96	4564.04
467.14	4557.02
467.32	4723.20
467.51	4753.63
467.69	4709.16
467.87	4875.34
468.05	4772.35
468.23	4821.50
468.41	4709.16
468.60	4671.71
468.78	4777.03
468.96	4765.33
469.14	4856.61
469.32	4828.53
469.50	4770.01
469.69	4854.27
469.87	5048.54
470.05	4950.23
470.23	5029.81
470.41	5076.62
470.59	4997.04
470.77	4954.91
470.95	4997.04
471.14	5069.60
471.32	5018.11
471.50	5231.10
471.68	5167.90
471.86	5132.79
472.04	4999.38
472.22	5212.37
472.40	5205.35
472.58	5254.50
472.77	5261.52
472.95	5313.02
473.13	5516.64
473.31	5345.78
473.49	5179.61
473.67	5289.61
473.85	5406.64
474.03	5460.47
474.21	5268.55
474.39	5514.30
474.57	5537.71
474.75	5619.63
474.93	5696.86
475.12	5460.47
475.30	5551.75
475.48	5338.76
475.66	5830.27
475.84	5710.91
476.02	5813.89
476.20	5699.20
476.38	5881.77
476.56	5888.79
476.74	5849.00
476.92	5980.07
477.10	6066.67
477.28	6143.91
477.46	6115.82
477.64	6019.86
477.82	6200.08
478.00	6242.21
478.18	6237.53
478.36	6090.07
478.54	6462.22
478.72	6401.37
478.90	6593.29
479.08	6698.61
479.26	6518.39
479.44	6466.90
479.62	6722.02
479.80	6726.70
479.98	6883.52
480.16	6740.74
480.34	6705.63
480.52	7028.63
480.70	6953.73
480.88	6923.30
481.06	7037.99
481.24	6895.22
481.41	7030.97
481.59	7166.72
481.77	7274.38
481.95	7351.62
482.13	7288.43
482.31	7370.35
482.49	7583.34
482.67	7527.16
482.85	7456.95
483.03	7737.81
483.21	7885.26
483.39	7740.15
483.57	7772.92
483.74	7751.85
483.92	8004.63
484.10	7796.32
484.28	7957.82
484.46	8245.71
484.64	8336.99
484.82	8147.40
485.00	8297.20
485.18	8571.04
485.35	8456.36
485.53	8414.23
485.71	8404.86
485.89	8631.90
486.07	8636.58
486.25	8781.69
486.43	8702.11
486.61	8755.94
486.78	8978.30
486.96	9060.21
487.14	9116.39
487.32	9268.52
487.50	9156.18
487.68	9107.02
487.85	9357.46
488.03	9605.56
488.21	9511.94
488.39	9696.84
488.57	9753.01
488.75	9668.75
488.92	9956.64
489.10	9863.02
489.28	9930.89
489.46	10054.94
489.64	9881.74
489.81	10193.03
489.99	10111.11
490.17	10083.03
490.35	10445.81
490.53	10319.42
490.70	10611.99
490.88	10382.62
491.06	10609.65
491.24	10644.76
491.41	10745.40
491.59	10810.93
491.77	10857.75
491.95	10942.00
492.13	10923.28
492.30	11059.03
492.48	10785.19
492.66	11145.63
492.84	10998.18
493.01	11243.93
493.19	11255.64
493.37	11548.20
493.54	11335.21
493.72	11391.39
493.90	11449.90
494.08	11548.20
494.25	11829.07
494.43	11800.98
494.61	11698.00
494.79	11885.24
494.96	11964.82
495.14	11943.75
495.32	12238.66
495.49	12020.99
495.67	12184.83
495.85	12098.23
496.02	12107.59
496.20	12554.63
496.38	12409.52
496.55	12613.15
496.73	12627.19
496.91	12669.32
497.09	12915.08
497.26	13287.22
497.44	12753.58
497.62	12542.93
497.79	12971.25
497.97	12954.87
498.14	13233.39
498.32	13174.88
498.50	13177.22
498.67	13500.21
498.85	13160.83
499.03	13209.98
499.20	13483.83
499.38	13502.55
499.56	13582.13
499.73	13673.41
499.91	13624.26
500.08	13628.94
500.26	13664.05
500.44	13617.24
500.61	13907.46
500.79	13596.17
500.97	14153.22
501.14	14071.30
501.32	14015.13
501.49	14033.85
501.67	13921.51
501.84	14066.62
502.02	14396.64
502.20	14314.72
502.37	14420.04
502.55	14562.81
502.72	14473.87
502.90	14555.79
503.07	14284.29
503.25	14485.58
503.43	14736.01
503.60	14792.19
503.78	14885.81
503.95	14862.40
504.13	14778.14
504.30	14768.78
504.48	14789.85
504.65	14824.95
504.83	15119.86
505.01	15124.54
505.18	15054.33
505.36	15009.86
505.53	14939.64
505.71	15176.03
505.88	15370.30
506.06	15185.40
506.23	15445.20
506.41	15398.38
506.58	15569.24
506.76	15667.55
506.93	15786.91
507.11	15363.28
507.28	15557.54
507.46	15398.38
507.63	15777.55
507.81	15903.94
507.98	15419.45
508.16	15992.88
508.33	15749.46
508.50	16002.24
508.68	15983.52
508.85	16205.87
509.03	16503.12
509.20	16287.79
509.38	16404.81
509.55	16507.80
509.73	16259.70
509.90	16332.26
510.08	16563.97
510.25	16755.90
510.42	16793.34
510.60	16566.31
510.77	16716.11
510.95	16606.10
511.12	16507.80
511.30	16812.07
511.47	16587.38
511.64	17294.22
511.82	16959.52
511.99	16774.62
512.17	17341.03
512.34	17090.59
512.51	17240.39
512.69	17235.70
512.86	17242.73
513.04	17455.72
513.21	17202.94
513.38	17315.28
513.56	17429.97
513.73	17205.28
513.90	17678.07
514.08	17322.30
514.25	17596.15
514.43	17675.73
514.60	17495.50
514.77	17652.32
514.95	17776.37
515.12	17607.85
515.29	17874.67
515.47	17757.64
515.64	17935.53
515.81	17877.01
515.99	18104.04
516.16	18293.63
516.33	18471.51
516.51	18207.03
516.68	17823.18
516.85	17956.59
517.03	18216.39
517.20	18281.92
517.37	18314.69
517.54	18270.22
517.72	18328.74
517.89	18621.30
518.06	18333.42
518.24	18239.79
518.41	18319.37
518.58	18609.60
518.75	18672.79
518.93	18654.07
519.10	18810.89
519.27	18775.78
519.45	18640.03
519.62	18705.56
519.79	18771.10
519.96	18958.34
520.14	19042.60
520.31	18878.76
520.48	19192.39
520.65	19204.10
520.83	19262.61
521.00	19267.29
521.17	19117.50
521.34	19054.30
521.52	19372.61
521.69	19330.48
521.86	19433.47
522.03	19585.60
522.20	19594.96
522.38	19342.19
522.55	19644.12
522.72	19726.04
522.89	19374.95
523.07	19786.89
523.24	19688.59
523.41	19798.59
523.58	19594.96
523.75	19690.93
523.92	19948.39
524.10	19796.25
524.27	19871.15
524.44	19800.93
524.61	19920.30
524.78	20215.21
524.96	20236.27
525.13	19992.86
525.30	20060.73
525.47	20201.16
525.64	20421.17
525.81	20135.63
525.98	20608.42
526.16	20212.87
526.33	20400.11
526.50	20421.17
526.67	20428.20
526.84	20376.70
527.01	20355.64
527.18	20596.71
527.36	20498.41
527.53	20795.66
527.70	20844.81
527.87	21027.37
528.04	20662.25
528.21	20542.88
528.38	20741.83
528.55	21034.39
528.72	20884.60
528.89	20922.05
529.07	20774.60
529.24	21015.67
529.41	21151.42
529.58	21113.97
529.75	20823.75
529.92	21076.52
530.09	21057.80
530.26	21387.82
530.43	21123.33
530.60	21144.40
530.77	21181.85
530.94	20957.16
531.11	21078.86
531.28	21156.10
531.46	21453.35
531.63	21680.38
531.80	21624.21
531.97	21715.49
532.14	21380.79
532.31	21521.23
532.48	21432.29
532.65	21413.56
532.82	21654.64
532.99	21635.91
533.16	21837.20
533.33	21771.66
533.50	22160.19
533.67	21844.22
533.84	21830.18
534.01	21692.08
534.18	21792.73
534.35	22267.86
534.52	21989.33
534.69	22010.40
534.86	21891.03
535.03	21949.54
535.20	22207.00
535.37	21869.97
535.54	22230.41
535.71	22104.02
535.88	22235.09
536.05	22256.15
536.22	22038.48
536.38	22506.59
536.55	22333.39
536.72	22155.51
536.89	22450.42
537.06	22169.55
537.23	22721.92
537.40	22183.60
537.57	22075.93
537.74	22228.07
537.91	22717.24
538.08	22387.22
538.25	22412.97
538.42	22422.33
538.59	22654.05
538.75	22373.18
538.92	22452.76
539.09	22740.64
539.26	22789.80
539.43	23110.45
539.60	22703.20
539.77	22963.00
539.94	23183.01
540.11	22855.33
540.28	23147.90
540.44	22927.89
540.61	23220.45
540.78	23381.95
540.95	23293.01
541.12	23445.15
541.29	23229.82
541.46	23601.96
541.62	23391.31
541.79	23662.82
541.96	23037.89
542.13	23171.30
542.30	23353.87
542.47	23585.58
542.63	23625.37
542.80	23821.97
542.97	23800.91
543.14	23723.67
543.31	23690.90
543.48	23562.17
543.64	24046.66
543.81	23875.80
543.98	23765.80
544.15	24121.56
544.32	23810.27
544.48	24091.13
544.65	24027.94
544.82	23847.72
544.99	23761.12
545.16	24301.78
545.32	24088.79
545.49	24498.39
545.66	25097.56
545.83	25195.87
546.00	25329.28
546.16	24542.86
546.33	24105.18
546.50	23882.83
546.67	24128.58
546.83	24093.47
547.00	24088.79
547.17	24189.44
547.34	24187.10
547.50	24446.90
547.67	24381.36
547.84	24428.17
548.00	24320.51
548.17	24189.44
548.34	24217.52
548.51	24442.21
548.67	24559.24
548.84	24254.97
549.01	24339.23
549.18	24364.98
549.34	24304.12
549.51	24112.20
549.68	24472.64
549.84	24276.04
550.01	24034.96
550.18	24484.34
550.34	24680.95
550.51	24460.94
550.68	24800.32
550.84	24339.23
551.01	24299.44
551.18	24458.60
551.34	24514.77
551.51	24269.01
551.68	24379.02
551.84	24671.59
552.01	24503.07
552.18	24727.76
552.34	24156.67
552.51	24313.48
552.68	24390.72
552.84	24357.96
553.01	24503.07
553.18	24812.02
553.34	24669.25
553.51	24414.13
553.67	24896.28
553.84	25111.61
554.01	24788.61
554.17	24584.99
554.34	24753.51
554.51	24826.06
554.67	24868.19
554.84	24411.79
555.00	24915.00
555.17	24655.20
555.33	24809.68
555.50	24861.17
555.67	24992.24
555.83	24816.70
556.00	24638.82
556.16	25039.05
556.33	24961.81
556.50	24854.15
556.66	24945.43
556.83	24907.98
556.99	25202.89
557.16	24959.47
557.32	25032.03
557.49	25298.85
557.65	24734.78
557.82	25062.46
557.98	25245.02
558.15	25029.69
558.32	25060.12
558.48	25191.19
558.65	25130.33
558.81	24971.18
558.98	25308.21
559.14	24900.96
559.31	25050.75
559.47	25137.35
559.64	24992.24
559.80	25202.89
559.97	25223.95
560.13	25170.12
560.30	24900.96
560.46	24915.00
560.63	25301.19
560.79	25235.66
560.96	25034.37
561.12	25095.22
561.29	25329.28
561.45	25418.22
561.61	25308.21
561.78	25172.46
561.94	25455.67
562.11	25703.76
562.27	24985.22
562.44	24842.45
562.60	25017.99
562.77	25113.95
562.93	25270.76
563.10	25841.85
563.26	25516.52
563.42	25661.63
563.59	25364.39
563.75	25551.63
563.92	25525.88
564.08	25205.23
564.24	25472.05
564.41	25174.80
564.57	25373.75
564.74	25352.68
564.90	25130.33
565.07	25343.32
565.23	25429.92
565.39	25322.26
565.56	25450.99
565.72	25355.02
565.88	25298.85
566.05	25350.34
566.21	25303.53
566.38	25167.78
566.54	25441.62
566.70	25715.47
566.87	25776.32
567.03	25294.17
567.19	25661.63
567.36	25411.20
567.52	25359.70
567.68	25359.70
567.85	25729.51
568.01	25240.34
568.17	25261.40
568.34	25549.29
568.50	25296.51
568.66	25476.73
568.83	25893.35
568.99	25715.47
569.15	25235.66
569.32	25560.99
569.48	25699.08
569.64	25369.07
569.81	25486.09
569.97	25446.30
570.13	25947.18
570.30	25436.94
570.46	25584.40
570.62	25626.53
570.78	25635.89
570.95	25149.06
571.11	25755.26
571.27	25511.84
571.43	25610.14
571.60	25628.87
571.76	25560.99
571.92	25696.74
572.09	26146.12
572.25	25521.20
572.41	25596.10
572.57	25568.01
572.74	25750.57
572.90	25458.01
573.06	25528.22
573.22	25811.43
573.38	25661.63
573.55	25560.99
573.71	26019.74
573.87	25392.47
574.03	25961.22
574.20	25383.11
574.36	25694.40
574.52	25605.46
574.68	25570.35
574.84	25731.85
575.01	25385.45
575.17	25769.30
575.33	25680.36
575.49	25790.36
575.65	25781.00
575.82	25722.49
575.98	25301.19
576.14	25687.38
576.30	26059.52
576.46	25804.41
576.62	25853.56
576.79	25940.16
576.95	25673.34
577.11	25993.99
577.27	25776.32
577.43	25666.31
577.59	25668.66
577.75	25844.20
577.92	25626.53
578.08	25755.26
578.24	25619.50
578.40	25785.68
578.56	25708.44
578.72	26232.72
578.88	26183.57
579.04	25965.90
579.21	25748.23
579.37	25891.01
579.53	25748.23
579.69	25766.96
579.85	25785.68
580.01	25624.18
580.17	25703.76
580.33	25682.70
580.49	25823.13
580.65	25762.28
580.82	25743.55
580.98	25956.54
581.14	25617.16
581.30	26045.48
581.46	25895.69
581.62	25820.79
581.78	25687.38
581.94	26008.03
582.10	25710.78
582.26	25876.96
582.42	25886.32
582.58	25928.45
582.74	25848.88
582.90	26316.98
583.06	25708.44
583.22	25694.40
583.38	25642.91
583.54	25891.01
583.70	25724.83
583.86	25745.89
584.02	25469.71
584.18	25610.14
584.34	25891.01
584.50	25731.85
584.66	26120.38
584.82	25921.43
584.98	26010.37
585.14	25792.70
585.30	25525.88
585.46	25652.27
585.62	25839.51
585.78	25928.45
585.94	25745.89
586.10	25453.33
586.26	25977.61
586.42	26089.95
586.58	26331.03
586.74	26047.82
586.90	25682.70
587.06	25568.01
587.22	25841.85
587.38	26066.55
587.54	26047.82
587.70	26284.22
587.86	26101.65
588.02	25860.58
588.18	26190.59
588.34	25792.70
588.49	25949.52
588.65	25497.80
588.81	25848.88
588.97	25783.34
589.13	26312.30
589.29	25930.80
589.45	26195.28
589.61	25738.87
589.77	26216.34
589.93	26199.96
590.08	26054.84
590.24	26195.28
590.40	25797.38
590.56	26314.64
590.72	26040.80
590.88	25886.32
591.04	25986.97
591.20	26094.63
591.35	26071.23
591.51	26295.92
591.67	26380.18
591.83	26246.77
591.99	26279.54
592.15	26064.21
592.31	25926.11
