SpectraSuite Data File
++++++++++++++++++++++++++++++++++++
Date: Tue Oct 01 18:27:24 GMT-05:00 2013
User: stostad
Dark Spectrum Present: No
Reference Spectrum Present: No
Number of Sampled Component Spectra: 1
Spectrometers: USB2+H05261
Integration Time (usec): 100000 (USB2+H05261)
Spectra Averaged: 1 (USB2+H05261)
Boxcar Smoothing: 0 (USB2+H05261)
Correct for Electrical Dark: No (USB2+H05261)
Strobe/Lamp Enabled: No (USB2+H05261)
Correct for Detector Non-linearity: No (USB2+H05261)
Correct for Stray Light: No (USB2+H05261)
Number of Pixels in Processed Spectrum: 2048
>>>>>Begin Processed Spectral Data<<<<<
365.73	77.24
365.92	77.24
366.12	77.24
366.32	0.00
366.52	0.00
366.72	0.00
366.91	0.00
367.11	0.00
367.31	0.00
367.51	35.11
367.70	0.00
367.90	9.36
368.10	0.00
368.30	0.00
368.49	0.00
368.69	0.00
368.89	28.09
369.09	0.00
369.28	18.72
369.48	0.00
369.68	25.75
369.87	0.00
370.07	0.00
370.27	16.38
370.47	86.60
370.66	294.91
370.86	283.20
371.06	308.95
371.25	351.08
371.45	367.46
371.65	362.78
371.84	386.19
372.04	337.04
372.24	383.85
372.44	369.80
372.63	407.25
372.83	428.32
373.03	416.62
373.22	393.21
373.42	435.34
373.62	458.74
373.81	423.64
374.01	421.30
374.21	379.17
374.40	444.70
374.60	477.47
374.79	418.96
374.99	454.06
375.19	559.39
375.38	477.47
375.58	468.11
375.78	479.81
375.97	514.92
376.17	517.26
376.37	435.34
376.56	479.81
376.76	435.34
376.95	465.77
377.15	526.62
377.35	498.53
377.54	573.43
377.74	512.58
377.93	477.47
378.13	557.05
378.33	526.62
378.52	491.51
378.72	587.47
378.91	517.26
379.11	566.41
379.31	489.17
379.50	486.83
379.70	575.77
379.89	503.22
380.09	519.60
380.28	545.34
380.48	545.34
380.68	540.66
380.87	512.58
381.07	484.49
381.26	610.88
381.46	622.58
381.65	533.64
381.85	479.81
382.04	575.77
382.24	559.39
382.43	540.66
382.63	585.13
382.83	564.07
383.02	638.97
383.22	622.58
383.41	592.16
383.61	596.84
383.80	641.31
384.00	608.54
384.19	615.56
384.39	678.76
384.58	512.58
384.78	601.52
384.97	674.07
385.17	620.24
385.36	622.58
385.56	727.91
385.75	603.86
385.95	706.84
386.14	641.31
386.34	638.97
386.53	662.37
386.72	662.37
386.92	678.76
387.11	699.82
387.31	671.73
387.50	608.54
387.70	681.10
387.89	753.65
388.09	758.33
388.28	739.61
388.48	683.44
388.67	793.44
388.86	716.20
389.06	657.69
389.25	755.99
389.45	725.57
389.64	671.73
389.84	805.14
390.03	798.12
390.22	777.06
390.42	737.27
390.61	816.85
390.81	741.95
391.00	744.29
391.19	781.74
391.39	861.32
391.58	877.70
391.78	866.00
391.97	795.78
392.16	744.29
392.36	858.98
392.55	847.27
392.75	851.96
392.94	880.04
393.13	954.94
393.33	812.17
393.52	903.45
393.71	933.87
393.91	945.58
394.10	952.60
394.29	882.38
394.49	936.21
394.68	889.40
394.88	919.83
395.07	954.94
395.26	964.30
395.46	966.64
395.65	1064.94
395.84	1039.20
396.04	1095.37
396.23	964.30
396.42	1090.69
396.62	1050.90
396.81	1013.45
397.00	1081.33
397.19	936.21
397.39	1095.37
397.58	1174.95
397.77	1097.71
397.97	1121.12
398.16	1081.33
398.35	1167.93
398.55	1097.71
398.74	1153.88
398.93	1263.89
399.12	1174.95
399.32	1107.07
399.51	1160.91
399.70	1242.82
399.90	1160.91
400.09	1268.57
400.28	1287.29
400.47	1282.61
400.67	1331.76
400.86	1221.76
401.05	1317.72
401.24	1301.34
401.44	1369.21
401.63	1378.58
401.82	1359.85
402.01	1261.55
402.21	1352.83
402.40	1338.79
402.59	1334.11
402.78	1364.53
402.97	1502.62
403.17	1441.77
403.36	1519.01
403.55	1551.78
403.74	1490.92
403.93	1500.28
404.13	1540.07
404.32	1551.78
404.51	1423.05
404.70	1551.78
404.89	1523.69
405.09	1675.82
405.28	1605.61
405.47	1570.50
405.66	1610.29
405.85	1612.63
406.05	1619.65
406.24	1694.55
406.43	1743.70
406.62	1678.16
406.81	1785.83
407.00	1664.12
407.20	1795.19
407.39	1790.51
407.58	1846.68
407.77	1842.00
407.96	1867.75
408.15	1809.23
408.34	2008.18
408.54	1881.79
408.73	1921.58
408.92	1874.77
409.11	1954.35
409.30	1991.80
409.49	1970.73
409.68	1977.75
409.87	1980.09
410.07	2017.54
410.26	2010.52
410.45	2036.27
410.64	2092.44
410.83	2090.10
411.02	2134.57
411.21	2134.57
411.40	2150.95
411.59	2310.11
411.78	2291.38
411.98	2197.76
412.17	2298.41
412.36	2202.44
412.55	2368.62
412.74	2354.58
412.93	2403.73
413.12	2368.62
413.31	2441.18
413.50	2480.97
413.69	2485.65
413.88	2572.25
414.07	2497.35
414.26	2654.17
414.45	2506.71
414.64	2518.42
414.83	2693.96
415.02	2700.98
415.22	2789.92
415.41	2724.38
415.60	2789.92
415.79	2752.47
415.98	2813.32
416.17	2815.66
416.36	2778.22
416.55	2885.88
416.74	2953.76
416.93	2920.99
417.12	3021.63
417.31	3061.42
417.50	2958.44
417.69	3098.87
417.88	3103.55
418.07	2899.92
418.26	3157.38
418.45	3075.46
418.64	3307.18
418.83	3243.98
419.02	3253.34
419.21	3218.24
419.39	3164.40
419.58	3206.53
419.77	3241.64
419.96	3096.53
420.15	3293.13
420.34	3265.05
420.53	3370.37
420.72	3531.87
420.91	3452.29
421.10	3403.14
421.29	3552.93
421.48	3358.67
421.67	3569.32
421.86	3431.23
422.05	3417.18
422.24	3496.76
422.43	3468.67
422.61	3538.89
422.80	3583.36
422.99	3667.62
423.18	3545.91
423.37	3609.11
423.56	3555.27
423.75	3517.83
423.94	3548.25
424.13	3410.16
424.32	3475.70
424.50	3698.05
424.69	3576.34
424.88	3705.07
425.07	3440.59
425.26	3735.50
425.45	3611.45
425.64	3637.19
425.83	3534.21
426.01	3564.64
426.20	3613.79
426.39	3651.24
426.58	3653.58
426.77	3786.99
426.96	3744.86
427.15	3742.52
427.33	3728.47
427.52	3810.39
427.71	3674.64
427.90	3705.07
428.09	3904.01
428.28	3824.44
428.46	3911.04
428.65	3990.61
428.84	3983.59
429.03	4056.15
429.22	3857.20
429.40	3920.40
429.59	4049.13
429.78	3794.01
429.97	3824.44
430.16	4018.70
430.34	4084.23
430.53	4257.43
430.72	4077.21
430.91	4095.94
431.10	4086.58
431.28	4205.94
431.47	4376.80
431.66	4149.77
431.85	4241.05
432.03	4369.78
432.22	4456.38
432.41	4243.39
432.60	4376.80
432.79	4243.39
432.97	4304.25
433.16	4395.53
433.35	4376.80
433.54	4564.04
433.72	4372.12
433.91	4421.27
434.10	4425.95
434.28	4528.94
434.47	4627.24
434.66	4526.60
434.85	4603.83
435.03	4510.21
435.22	4489.15
435.41	4812.14
435.59	4638.94
435.78	4737.24
435.97	4870.65
436.16	4777.03
436.34	4718.52
436.53	4816.82
436.72	4870.65
436.90	4760.65
437.09	4999.38
437.28	4795.76
437.46	4784.06
437.65	4961.94
437.84	5067.26
438.02	4971.30
438.21	5076.62
438.40	4835.55
438.58	5043.85
438.77	5090.67
438.96	5102.37
439.14	5200.67
439.33	5310.68
439.52	5313.02
439.70	5341.10
439.89	5245.14
440.08	5423.02
440.26	5380.89
440.45	5432.38
440.63	5467.49
440.82	5589.20
441.01	5427.70
441.19	5554.09
441.38	5596.22
441.57	5582.18
441.75	5664.10
441.94	5813.89
442.12	5785.80
442.31	5912.19
442.50	5781.12
442.68	5879.43
442.87	5914.53
443.05	5956.66
443.24	6141.57
443.43	5942.62
443.61	6080.71
443.80	6246.89
443.98	6012.84
444.17	5942.62
444.35	6045.60
444.54	6176.67
444.73	6094.76
444.91	6214.12
445.10	5991.77
445.28	6169.65
445.47	6083.05
445.65	6026.88
445.84	6071.35
446.02	6244.55
446.21	6244.55
446.39	6218.80
446.58	6228.17
446.77	6331.15
446.95	6040.92
447.14	6232.85
447.32	6366.26
447.51	6326.47
447.69	6328.81
447.88	6272.64
448.06	6211.78
448.25	6218.80
448.43	6200.08
448.62	6310.08
448.80	6286.68
448.99	6572.22
449.17	6399.02
449.36	6349.87
449.54	6661.16
449.73	6710.32
449.91	6621.38
450.10	6612.01
450.28	6612.01
450.46	6679.89
450.65	6726.70
450.83	6867.13
451.02	6869.47
451.20	6656.48
451.39	6825.00
451.57	6717.34
451.76	6822.66
451.94	6665.85
452.13	6817.98
452.31	6895.22
452.49	6670.53
452.68	7007.56
452.86	6911.60
453.05	6817.98
453.23	7030.97
453.42	7103.53
453.60	6916.28
453.78	7183.10
453.97	6967.77
454.15	6981.82
454.34	7075.44
454.52	7173.74
454.70	7159.70
454.89	7314.17
455.07	7342.26
455.26	7208.85
455.44	7353.96
455.62	7286.09
455.81	7229.91
455.99	7297.79
456.17	7445.24
456.36	7531.84
456.54	7482.69
456.73	7485.03
456.91	7786.96
457.09	7604.40
457.28	7941.44
457.46	7602.06
457.64	7812.71
457.83	7868.88
458.01	7719.09
458.19	7903.99
458.38	7894.63
458.56	7943.78
458.74	8058.46
458.93	7889.95
459.11	8140.38
459.29	7943.78
459.48	7941.44
459.66	8088.89
459.84	8100.59
460.03	8063.15
460.21	8109.96
460.39	8051.44
460.57	8072.51
460.76	8042.08
460.94	8306.56
461.12	8116.98
461.31	8128.68
461.49	8369.76
461.67	8383.80
461.85	8521.89
462.04	8439.97
462.22	8973.61
462.40	8575.72
462.59	8489.12
462.77	8533.59
462.95	8718.50
463.13	8468.06
463.32	8578.06
463.50	8746.58
463.68	8732.54
463.86	8702.11
464.05	8709.13
464.23	8697.43
464.41	8767.65
464.59	8624.87
464.78	8898.72
464.96	8812.12
465.14	8732.54
465.32	9029.79
465.50	8889.35
465.69	9064.89
465.87	8903.40
466.05	9029.79
466.23	8798.07
466.41	8865.95
466.60	9130.43
466.78	9008.72
466.96	8964.25
467.14	9151.49
467.32	9109.36
467.51	9371.50
467.69	8863.61
467.87	9121.07
468.05	9198.31
468.23	9205.33
468.41	9170.22
468.60	9486.19
468.78	9287.25
468.96	9235.75
469.14	9476.83
469.32	9652.37
469.50	9537.68
469.69	9790.46
469.87	9645.35
470.05	9760.03
470.23	9657.05
470.41	9621.94
470.59	9792.80
470.77	9771.74
470.95	9860.68
471.14	9954.30
471.32	9827.91
471.50	9954.30
471.68	9848.97
471.86	10148.56
472.04	10078.35
472.22	10157.92
472.40	10099.41
472.58	10249.21
472.77	10228.14
472.95	10354.53
473.13	10808.59
473.31	10281.97
473.49	10485.60
473.67	10546.45
473.85	10724.33
474.03	10733.70
474.21	10792.21
474.39	10949.03
474.57	10913.92
474.75	10881.15
474.93	11007.54
475.12	11087.12
475.30	11211.17
475.48	11309.47
475.66	11342.24
475.84	11288.40
476.02	11295.43
476.20	11283.72
476.38	11676.93
476.56	11845.45
476.74	11800.98
476.92	11513.10
477.10	11695.66
477.28	11946.09
477.46	12051.42
477.64	12231.64
477.82	12128.66
478.00	12631.87
478.18	12423.56
478.36	12603.78
478.54	12446.97
478.72	12578.04
478.90	13011.04
479.08	13018.06
479.26	13090.62
479.44	13130.41
479.62	13263.82
479.80	13128.06
479.98	13425.31
480.16	13427.65
480.34	14005.77
480.52	13617.24
480.70	13776.39
480.88	13544.68
481.06	14026.83
481.24	13940.23
481.41	14195.35
481.59	14356.85
481.77	14221.10
481.95	14537.07
482.13	14590.90
482.31	14499.62
482.49	15019.22
482.67	14956.02
482.85	15552.86
483.03	15470.94
483.21	15398.38
483.39	15227.53
483.57	15377.32
483.74	15459.24
483.92	15815.00
484.10	15686.27
484.28	15770.53
484.46	16545.25
484.64	16517.16
484.82	15974.16
485.00	16367.37
485.18	16688.02
485.35	16893.99
485.53	16706.74
485.71	17359.75
485.89	17228.68
486.07	17125.70
486.25	17298.90
486.43	17572.74
486.61	17668.70
486.78	17902.76
486.96	17862.97
487.14	18380.23
487.32	18162.56
487.50	18363.84
487.68	18558.11
487.85	18939.62
488.03	18967.70
488.21	19068.34
488.39	19281.33
488.57	19379.64
488.75	19389.00
488.92	19562.20
489.10	19894.55
489.28	19653.48
489.46	20119.24
489.64	20042.01
489.81	20365.00
489.99	20339.26
490.17	20868.22
490.35	20772.25
490.53	21177.17
490.70	21156.10
490.88	20788.64
491.06	21074.18
491.24	21207.59
491.41	21769.32
491.59	21837.20
491.77	21769.32
491.95	21844.22
492.13	21963.59
492.30	22370.84
492.48	22253.81
492.66	22244.45
492.84	22602.55
493.01	22750.01
493.19	22691.49
493.37	22724.26
493.54	23164.28
493.72	23388.97
493.90	23503.66
494.08	23913.25
494.25	23901.55
494.43	23545.79
494.61	24016.24
494.79	24130.92
494.96	23833.68
495.14	24432.85
495.32	24575.62
495.49	24573.28
495.67	24819.04
495.85	24812.02
496.02	24758.19
496.20	24790.95
496.38	25219.27
496.55	25411.20
496.73	25961.22
496.91	25479.07
497.09	25820.79
497.26	26120.38
497.44	25713.13
497.62	26103.99
497.79	26576.78
497.97	26438.69
498.14	26892.76
498.32	26855.31
498.50	26972.33
498.67	27201.71
498.85	27103.40
499.03	27140.85
499.20	27363.20
499.38	27271.92
499.56	27531.72
499.73	27571.51
499.91	27386.61
500.08	28168.35
500.26	27976.42
500.44	27749.39
500.61	28046.64
500.79	28376.66
500.97	28233.88
501.14	28655.18
501.32	28521.77
501.49	28397.72
501.67	29088.18
501.84	28943.06
502.02	28786.25
502.20	29228.61
502.37	29039.03
502.55	29237.97
502.72	29202.86
502.90	29308.19
503.07	29408.83
503.25	29848.85
503.43	29900.34
503.60	29919.07
503.78	29780.98
503.95	29701.40
504.13	29919.07
504.30	30370.79
504.48	30836.56
504.65	30553.35
504.83	30834.22
505.01	31072.95
505.18	30546.33
505.36	30665.70
505.53	31084.65
505.71	31253.17
505.88	31105.72
506.06	31278.92
506.23	31555.10
506.41	31189.98
506.58	31274.24
506.76	31597.23
506.93	32231.52
507.11	31618.30
507.28	32226.84
507.46	32119.17
507.63	32247.90
507.81	32236.20
507.98	31983.42
508.16	32079.38
508.33	32247.90
508.50	32327.48
508.68	32486.64
508.85	33439.23
509.03	32893.89
509.20	33027.30
509.38	33132.62
509.55	33102.20
509.73	33347.95
509.90	33251.99
510.08	33715.42
510.25	33502.43
510.42	33530.51
510.60	33551.58
510.77	33914.36
510.95	34110.97
511.12	33766.91
511.30	34370.77
511.47	34136.71
511.64	34237.36
511.82	34572.05
511.99	34340.34
512.17	34857.60
512.34	34515.88
512.51	34958.24
512.69	35056.54
512.86	35344.43
513.04	35143.14
513.21	35587.85
513.38	35002.71
513.56	35543.38
513.73	35182.93
513.90	35536.35
514.08	35676.79
514.25	35959.99
514.43	35517.63
514.60	35974.03
514.77	35803.17
514.95	36217.45
515.12	36135.53
515.29	36137.87
515.47	36416.40
515.64	36840.03
515.81	36678.54
515.99	36617.68
516.16	36582.57
516.33	36460.87
516.51	37333.89
516.68	36882.16
516.85	37088.13
517.03	37186.43
517.20	37315.16
517.37	37322.18
517.54	37266.01
517.72	37287.07
517.89	37266.01
518.06	37081.11
518.24	37890.93
518.41	37546.87
518.58	37923.70
518.75	37724.75
518.93	37876.89
519.10	37773.91
519.27	38038.39
519.45	38146.05
519.62	38574.37
519.79	38377.76
519.96	38473.73
520.14	38960.56
520.31	38501.81
520.48	38686.71
520.65	38452.66
520.83	39257.81
521.00	39185.25
521.17	38665.65
521.34	39323.34
521.52	39241.42
521.69	39454.41
521.86	39000.35
522.03	39445.05
522.20	39342.06
522.38	39618.25
522.55	39503.56
522.72	39824.22
522.89	39981.03
523.07	40114.44
523.24	39707.19
523.41	40081.67
523.58	39751.66
523.75	40149.55
523.92	40154.23
524.10	40362.54
524.27	40435.10
524.44	40631.70
524.61	40676.17
524.78	40989.80
524.96	40931.29
525.13	40903.20
525.30	40905.54
525.47	41198.11
525.64	40847.03
525.81	41741.11
525.98	41198.11
526.16	41155.98
526.33	41371.31
526.50	41862.82
526.67	41364.29
526.84	41724.73
527.01	41549.19
527.18	41638.13
527.36	42234.97
527.53	41897.93
527.70	42148.37
527.87	41928.36
528.04	41968.15
528.21	42330.93
528.38	42021.98
528.55	42307.52
528.72	42546.26
528.89	42588.39
529.07	42293.48
529.24	41914.31
529.41	42478.38
529.58	42464.34
529.75	42564.98
529.92	42824.78
530.09	42459.66
530.26	42845.85
530.43	43026.07
530.60	42824.78
530.77	42609.45
530.94	43065.86
531.11	42759.25
531.28	43012.02
531.46	43161.82
531.63	43243.74
531.80	43501.20
531.97	43552.69
532.14	43608.86
532.31	43257.78
532.48	43686.10
532.65	43887.39
532.82	43768.02
532.99	43796.10
533.16	43655.67
533.33	43988.03
533.50	44257.19
533.67	43966.96
533.84	43484.81
534.01	43697.80
534.18	44123.78
534.35	44444.43
534.52	44018.46
534.69	44800.19
534.86	44697.21
535.03	44161.23
535.20	43959.94
535.37	44495.92
535.54	44631.68
535.71	44748.70
535.88	44879.77
536.05	44554.44
536.22	45411.07
536.38	45074.04
536.55	44856.37
536.72	45216.81
536.89	44634.02
537.06	44807.22
537.23	45097.44
537.40	45057.65
537.57	45261.28
537.74	45043.61
537.91	45471.93
538.08	45549.17
538.25	45270.64
538.42	45462.57
538.59	45942.38
538.75	45450.86
538.92	45724.71
539.09	45986.85
539.26	45806.62
539.43	45897.91
539.60	45846.41
539.77	45872.16
539.94	45895.56
540.11	46024.29
540.28	46410.48
540.44	46314.52
540.61	46831.78
540.78	46520.49
540.95	46007.91
541.12	46490.06
541.29	46220.90
541.46	46195.15
541.62	46192.81
541.79	46513.47
541.96	46281.75
542.13	46464.32
542.30	46698.37
542.47	46965.19
542.63	46703.05
542.80	47016.68
542.97	47065.83
543.14	47306.91
543.31	47068.17
543.48	47154.77
543.64	47723.52
543.81	47583.09
543.98	47580.75
544.15	47456.70
544.32	47463.72
544.48	47639.26
544.65	47126.69
544.82	47608.84
544.99	47522.24
545.16	47618.20
545.32	47475.43
545.49	48458.45
545.66	48090.99
545.83	48149.50
546.00	47784.38
546.16	48240.78
546.33	48032.47
546.50	47643.94
546.67	48002.05
546.83	47316.27
547.00	48186.95
547.17	48186.95
547.34	47760.97
547.50	47782.04
547.67	48556.75
547.84	48334.40
548.00	48495.90
548.17	48725.27
548.34	48893.79
548.51	48542.71
548.67	48711.23
548.84	48144.82
549.01	48481.86
549.18	48507.60
549.34	48500.58
549.51	48460.79
549.68	48610.59
549.84	49188.70
550.01	48804.85
550.18	48631.65
550.34	48685.48
550.51	48973.37
550.68	49228.49
550.84	48626.97
551.01	49172.31
551.18	48729.95
551.34	48641.01
551.51	49155.93
551.68	49244.87
551.84	49214.44
552.01	48893.79
552.18	49050.61
552.34	48961.67
552.51	48814.21
552.68	49050.61
552.84	49214.44
553.01	49549.14
553.18	49394.67
553.34	49703.62
553.51	49380.62
553.67	49347.86
553.84	49757.45
554.01	49872.14
554.17	49752.77
554.34	49624.04
554.51	49722.34
554.67	50145.98
554.84	50075.76
555.00	49790.22
555.17	49837.03
555.33	50038.31
555.50	49411.05
555.67	49495.31
555.83	49794.90
556.00	49771.49
556.16	50548.55
556.33	50099.17
556.50	49846.39
556.66	50387.05
556.83	50017.25
556.99	50223.22
557.16	50068.74
557.32	50085.12
557.49	50632.81
557.65	50263.00
557.82	50160.02
557.98	50548.55
558.15	50419.82
558.32	50541.53
558.48	50295.77
558.65	50691.32
558.81	50150.66
558.98	50131.93
559.14	50319.18
559.31	50253.64
559.47	50302.79
559.64	50784.94
559.80	50578.98
559.97	50340.24
560.13	50354.29
560.30	50099.17
560.46	50143.64
560.63	50492.38
560.79	50562.59
560.96	50813.03
561.12	50506.42
561.29	51171.13
561.45	50759.20
561.61	51124.32
561.78	50932.40
561.94	50724.09
562.11	50611.74
562.27	50787.28
562.44	50700.68
562.60	51000.27
562.77	50686.64
562.93	51033.04
563.10	51358.38
563.26	51063.47
563.42	51295.18
563.59	50986.23
563.75	50670.26
563.92	50869.20
564.08	50808.35
564.24	51112.62
564.41	50749.84
564.57	51009.64
564.74	51206.24
564.90	51030.70
565.07	50913.67
565.23	51384.12
565.39	50997.93
565.56	51250.71
565.72	51262.41
565.88	51351.35
566.05	51070.49
566.21	51398.16
566.38	50953.46
566.54	51054.11
566.70	51346.67
566.87	51676.69
567.03	51103.26
567.19	51054.11
567.36	51077.51
567.52	51028.36
567.68	51503.49
567.85	51337.31
568.01	51554.98
568.17	51512.85
568.34	51239.01
568.50	51082.19
568.66	51175.81
568.83	51547.96
568.99	51554.98
569.15	51423.91
569.32	51437.95
569.48	51140.71
569.64	51716.48
569.81	51402.85
569.97	51562.00
570.13	51377.10
570.30	51475.40
570.46	51311.56
570.62	51571.36
570.78	51206.24
570.95	51262.41
571.11	51634.56
571.27	51611.15
571.43	51494.13
571.60	51519.87
571.76	51484.76
571.92	51466.04
572.09	51358.38
572.25	51522.21
572.41	51473.06
572.57	51807.76
572.74	51585.41
572.90	51840.53
573.06	51641.58
573.22	51662.64
573.38	51934.15
573.55	51625.20
573.71	51643.92
573.87	51632.22
574.03	51210.92
574.20	51831.16
574.36	51313.90
574.52	51426.25
574.68	51660.30
574.84	51875.63
575.01	52004.36
575.17	52062.88
575.33	51653.28
575.49	51512.85
575.65	51880.31
575.82	51803.08
575.98	51585.41
576.14	52100.32
576.30	52051.17
576.46	51990.32
576.62	51735.20
576.79	52053.51
576.95	51896.70
577.11	51789.03
577.27	51990.32
577.43	51999.68
577.59	51510.51
577.75	51547.96
577.92	51777.33
578.08	51487.10
578.24	51751.59
578.40	52100.32
578.56	52030.11
578.72	51927.13
578.88	52093.30
579.04	51774.99
579.21	51601.79
579.37	51913.08
579.53	51985.64
579.69	52002.02
579.85	51903.72
580.01	51896.70
580.17	51700.09
580.33	51992.66
580.49	52083.94
580.65	51749.24
580.82	51721.16
580.98	51959.89
581.14	51838.18
581.30	52236.08
581.46	51936.49
581.62	52018.41
581.78	52093.30
581.94	51959.89
582.10	51971.60
582.26	51697.75
582.42	51842.87
582.58	51873.29
582.74	52189.27
582.90	51887.34
583.06	52238.42
583.22	52191.61
583.38	52217.35
583.54	51985.64
583.70	52259.48
583.86	52437.36
584.02	51782.01
584.18	52479.49
584.34	52247.78
584.50	51847.55
584.66	52285.23
584.82	52112.03
584.98	52301.61
585.14	52184.58
585.30	51873.29
585.46	51990.32
585.62	52130.75
585.78	52142.45
585.94	51721.16
586.10	51915.42
586.26	52018.41
586.42	52219.69
586.58	51906.06
586.74	52023.09
586.90	51952.87
587.06	52161.18
587.22	52247.78
587.38	52193.95
587.54	52081.60
587.70	52268.84
587.86	52275.87
588.02	52299.27
588.18	52292.25
588.34	52189.27
588.49	52074.58
588.65	51936.49
588.81	52486.51
588.97	52584.82
589.13	52437.36
589.29	52568.43
589.45	52381.19
589.61	52334.38
589.77	52498.22
589.93	52261.82
590.08	52128.41
590.24	52610.56
590.40	52692.48
