SpectraSuite Data File
++++++++++++++++++++++++++++++++++++
Date: Fri Oct 04 11:39:31 GMT-05:00 2013
User: price-jones
Dark Spectrum Present: No
Reference Spectrum Present: No
Number of Sampled Component Spectra: 1
Spectrometers: USB2+H05261
Integration Time (usec): 100000 (USB2+H05261)
Spectra Averaged: 1 (USB2+H05261)
Boxcar Smoothing: 0 (USB2+H05261)
Correct for Electrical Dark: No (USB2+H05261)
Strobe/Lamp Enabled: No (USB2+H05261)
Correct for Detector Non-linearity: No (USB2+H05261)
Correct for Stray Light: No (USB2+H05261)
Number of Pixels in Processed Spectrum: 2048
>>>>>Begin Processed Spectral Data<<<<<
365.73	93.62
365.92	93.62
366.12	93.62
366.32	0.00
366.52	0.00
366.72	0.00
366.91	0.00
367.11	0.00
367.31	0.00
367.51	0.00
367.70	0.00
367.90	7.02
368.10	0.00
368.30	0.00
368.49	0.00
368.69	0.00
368.89	0.00
369.09	0.00
369.28	0.00
369.48	39.79
369.68	0.00
369.87	0.00
370.07	0.00
370.27	124.05
370.47	65.54
370.66	269.16
370.86	252.78
371.06	276.18
371.25	358.10
371.45	278.52
371.65	280.86
371.84	241.08
372.04	348.74
372.24	430.66
372.44	315.97
372.63	266.82
372.83	421.30
373.03	390.87
373.22	433.00
373.42	367.46
373.62	404.91
373.81	442.36
374.01	458.74
374.21	421.30
374.40	374.49
374.60	411.93
374.79	423.64
374.99	411.93
375.19	463.43
375.38	465.77
375.58	454.06
375.78	550.03
375.97	362.78
376.17	449.38
376.37	517.26
376.56	421.30
376.76	397.89
376.95	435.34
377.15	425.98
377.35	498.53
377.54	498.53
377.74	442.36
377.93	444.70
378.13	393.21
378.33	444.70
378.52	486.83
378.72	517.26
378.91	456.40
379.11	409.59
379.31	440.02
379.50	514.92
379.70	559.39
379.89	442.36
380.09	528.96
380.28	468.11
380.48	552.37
380.68	479.81
380.87	491.51
381.07	564.07
381.26	547.69
381.46	531.30
381.65	571.09
381.85	477.47
382.04	535.98
382.24	503.22
382.43	479.81
382.63	517.26
382.83	538.32
383.02	550.03
383.22	533.64
383.41	608.54
383.61	561.73
383.80	552.37
384.00	613.22
384.19	610.88
384.39	615.56
384.58	648.33
384.78	599.18
384.97	578.11
385.17	571.09
385.36	620.24
385.56	624.92
385.75	653.01
385.95	624.92
386.14	645.99
386.34	657.69
386.53	573.43
386.72	674.07
386.92	643.65
387.11	709.18
387.31	650.67
387.50	697.48
387.70	641.31
387.89	638.97
388.09	681.10
388.28	657.69
388.48	613.22
388.67	674.07
388.86	723.23
389.06	770.04
389.25	748.97
389.45	676.41
389.64	676.41
389.84	727.91
390.03	732.59
390.22	758.33
390.42	664.71
390.61	741.95
390.81	711.52
391.00	798.12
391.19	739.61
391.39	725.57
391.58	800.46
391.78	748.97
391.97	800.46
392.16	760.67
392.36	868.34
392.55	866.00
392.75	819.19
392.94	901.11
393.13	833.23
393.33	835.57
393.52	898.77
393.71	940.90
393.91	938.55
394.10	889.40
394.29	910.47
394.49	844.93
394.68	866.00
394.88	896.43
395.07	877.70
395.26	912.81
395.46	894.08
395.65	940.90
395.84	1001.75
396.04	1001.75
396.23	994.73
396.42	1018.13
396.62	950.26
396.81	1008.77
397.00	1074.31
397.19	1067.28
397.39	964.30
397.58	1102.39
397.77	1071.97
397.97	1057.92
398.16	1069.62
398.35	1090.69
398.55	1086.01
398.74	1093.03
398.93	1128.14
399.12	1062.60
399.32	1142.18
399.51	1050.90
399.70	1116.44
399.90	1151.54
400.09	1053.24
400.28	1121.12
400.47	1172.61
400.67	1266.23
400.86	1181.97
401.05	1128.14
401.24	1217.08
401.44	1210.06
401.63	1240.48
401.82	1249.85
402.01	1172.61
402.21	1371.55
402.40	1273.25
402.59	1296.66
402.78	1270.91
402.97	1331.76
403.17	1355.17
403.36	1406.66
403.55	1376.24
403.74	1509.65
403.93	1387.94
404.13	1500.28
404.32	1462.83
404.51	1430.07
404.70	1500.28
404.89	1418.36
405.09	1554.12
405.28	1497.94
405.47	1521.35
405.66	1603.27
405.85	1462.83
406.05	1554.12
406.24	1621.99
406.43	1603.27
406.62	1673.48
406.81	1762.42
407.00	1666.46
407.20	1652.42
407.39	1657.10
407.58	1748.38
407.77	1734.34
407.96	1696.89
408.15	1767.10
408.34	1717.95
408.54	1710.93
408.73	1774.13
408.92	1823.28
409.11	1839.66
409.30	1923.92
409.49	1977.75
409.68	1919.24
409.87	1879.45
410.07	1825.62
410.26	1973.07
410.45	2104.14
410.64	1984.77
410.83	2003.50
411.02	2054.99
411.21	2099.46
411.40	2064.35
411.59	2118.18
411.78	2122.87
411.98	2267.98
412.17	2132.23
412.36	2186.06
412.55	2277.34
412.74	2289.04
412.93	2282.02
413.12	2244.57
413.31	2403.73
413.50	2307.77
413.69	2394.37
413.88	2541.82
414.07	2403.73
414.26	2544.16
414.45	2562.89
414.64	2574.59
414.83	2551.18
415.02	2495.01
415.22	2829.71
415.41	2738.43
415.60	2722.04
415.79	2731.41
415.98	2768.85
416.17	2747.79
416.36	2834.39
416.55	2953.76
416.74	2981.84
416.93	2890.56
417.12	2832.05
417.31	3091.85
417.50	2883.54
417.69	3091.85
417.88	3108.23
418.07	3035.67
418.26	3096.53
418.45	3082.49
418.64	3178.45
418.83	3045.04
419.02	3152.70
419.21	3262.71
419.39	3190.15
419.58	3138.66
419.77	3164.40
419.96	3218.24
420.15	3328.24
420.34	3272.07
420.53	3290.79
420.72	3417.18
420.91	3251.00
421.10	3442.93
421.29	3538.89
421.48	3342.28
421.67	3466.33
421.86	3478.04
422.05	3508.46
422.24	3557.61
422.43	3599.74
422.61	3482.72
422.80	3531.87
422.99	3405.48
423.18	3538.89
423.37	3527.19
423.56	3475.70
423.75	3585.70
423.94	3499.10
424.13	3269.73
424.32	3447.61
424.50	3611.45
424.69	3595.06
424.88	3672.30
425.07	3562.30
425.26	3463.99
425.45	3442.93
425.64	3534.21
425.83	3562.30
426.01	3751.88
426.20	3646.55
426.39	3648.90
426.58	3595.06
426.77	3719.11
426.96	3658.26
427.15	3765.92
427.33	3742.52
427.52	3747.20
427.71	3705.07
427.90	3641.87
428.09	3728.47
428.28	3838.48
428.46	3922.74
428.65	3836.14
428.84	4236.37
429.03	4030.40
429.22	3796.35
429.40	4084.23
429.59	3953.16
429.78	3899.33
429.97	3779.97
430.16	3843.16
430.34	4028.06
430.53	3981.25
430.72	4037.42
430.91	4014.02
431.10	4072.53
431.28	4105.30
431.47	4198.92
431.66	4159.13
431.85	4154.45
432.03	4339.35
432.22	4393.19
432.41	4390.84
432.60	4346.37
432.79	4294.88
432.97	4404.89
433.16	4208.28
433.35	4266.80
433.54	4430.63
433.72	4273.82
433.91	4418.93
434.10	4540.64
434.28	4404.89
434.47	4531.28
434.66	4482.13
434.85	4732.56
435.03	4774.69
435.22	4629.58
435.41	4964.28
435.59	4926.83
435.78	4891.72
435.97	4807.46
436.16	4812.14
436.34	4812.14
436.53	4697.46
436.72	4968.96
436.90	4620.22
437.09	4835.55
437.28	4720.86
437.46	4777.03
437.65	4870.65
437.84	4931.51
438.02	4915.12
438.21	5100.03
438.40	4910.44
438.58	5013.43
438.77	5186.63
438.96	5167.90
439.14	5170.24
439.33	5172.58
439.52	5214.71
439.70	5270.89
439.89	5298.97
440.08	5420.68
440.26	5362.17
440.45	5387.91
440.63	5401.96
440.82	5526.00
441.01	5385.57
441.19	5612.60
441.38	5638.35
441.57	5664.10
441.75	5682.82
441.94	5626.65
442.12	5783.46
442.31	5888.79
442.50	5900.49
442.68	5682.82
442.87	5961.34
443.05	5921.56
443.24	6092.41
443.43	5926.24
443.61	5930.92
443.80	6038.58
443.98	5830.27
444.17	5919.21
444.35	5874.74
444.54	6113.48
444.73	6069.01
444.91	5834.96
445.10	6038.58
445.28	6031.56
445.47	6179.01
445.65	6167.31
445.84	6132.20
446.02	6136.88
446.21	6232.85
446.39	6171.99
446.58	6134.54
446.77	6001.13
446.95	6104.12
447.14	6335.83
447.32	6106.46
447.51	6115.82
447.69	6162.63
447.88	6209.44
448.06	6186.04
448.25	6179.01
448.43	6328.81
448.62	6263.27
448.80	6242.21
448.99	6260.93
449.17	6265.61
449.36	6370.94
449.54	6375.62
449.73	6441.15
449.91	6408.39
450.10	6511.37
450.28	6635.42
450.46	6504.35
450.65	6630.74
450.83	6593.29
451.02	6399.02
451.20	6691.59
451.39	6583.93
451.57	6661.16
451.76	6630.74
451.94	6801.60
452.13	6881.18
452.31	6581.59
452.49	6494.99
452.68	6827.34
452.86	6902.24
453.05	7016.93
453.23	6867.13
453.42	6825.00
453.60	6782.87
453.78	6878.83
453.97	6977.14
454.15	6953.73
454.34	6963.09
454.52	6925.65
454.70	6944.37
454.89	7012.24
455.07	6953.73
455.26	7073.10
455.44	7150.34
455.62	7201.83
455.81	7318.86
455.99	7122.25
456.17	7201.83
456.36	7143.32
456.54	7365.67
456.73	7290.77
456.91	7442.90
457.09	7377.37
457.28	7756.54
457.46	7363.33
457.64	7691.00
457.83	7527.16
458.01	7309.49
458.19	7705.04
458.38	7487.37
458.56	7655.89
458.74	7588.02
458.93	7634.83
459.11	7796.32
459.29	7695.68
459.48	7854.84
459.66	7726.11
459.84	7892.29
460.03	8028.04
460.21	7892.29
460.39	7887.61
460.57	7812.71
460.76	7796.32
460.94	7868.88
461.12	8037.40
461.31	7838.45
461.49	7955.48
461.67	7903.99
461.85	8182.51
462.04	8037.40
462.22	8334.65
462.40	8280.82
462.59	8231.66
462.77	8336.99
462.95	8329.97
463.13	8124.00
463.32	8404.86
463.50	8400.18
463.68	8454.02
463.86	8351.03
464.05	8339.33
464.23	8234.00
464.41	8629.56
464.59	8376.78
464.78	8594.45
464.96	8465.72
465.14	8449.33
465.32	8662.32
465.50	8798.07
465.69	8606.15
465.87	8557.00
466.05	8812.12
466.23	8411.89
466.41	8861.27
466.60	8917.44
466.78	8779.35
466.96	8575.72
467.14	8807.44
467.32	8879.99
467.51	8718.50
467.69	8613.17
467.87	9036.81
468.05	8896.38
468.23	8863.61
468.41	8858.93
468.60	9102.34
468.78	8973.61
468.96	9048.51
469.14	9111.71
469.32	9123.41
469.50	8903.40
469.69	9465.13
469.87	9334.06
470.05	9364.48
470.23	9446.40
470.41	9249.80
470.59	9352.78
470.77	9284.91
470.95	9397.25
471.14	9579.81
471.32	9338.74
471.50	9596.20
471.68	9767.06
471.86	9715.56
472.04	9596.20
472.22	9930.89
472.40	9631.30
472.58	9844.29
472.77	9811.53
472.95	10073.67
473.13	10272.61
473.31	10193.03
473.49	9919.19
473.67	9848.97
473.85	10200.05
474.03	10375.59
474.21	10246.87
474.39	10473.90
474.57	10237.50
474.75	10663.48
474.93	10693.91
475.12	10626.03
475.30	10576.88
475.48	10630.71
475.66	10745.40
475.84	10768.80
476.02	10822.64
476.20	10771.15
476.38	11190.10
476.56	11183.08
476.74	11143.29
476.92	11124.57
477.10	11274.36
477.28	11332.87
477.46	11534.16
477.64	11538.84
477.82	11625.44
478.00	11847.79
478.18	11939.07
478.36	12042.06
478.54	12166.10
478.72	12222.28
478.90	12133.34
479.08	12451.65
479.26	12369.73
479.44	12437.61
479.62	12400.16
479.80	12568.68
479.98	12891.67
480.16	12896.35
480.34	13027.42
480.52	13174.88
480.70	13214.66
480.88	13092.96
481.06	13392.55
481.24	13125.72
481.41	13460.42
481.59	13898.10
481.77	13736.60
481.95	13710.86
482.13	13832.57
482.31	13930.87
482.49	14216.41
482.67	14162.58
482.85	14335.78
483.03	14726.65
483.21	14820.27
483.39	14485.58
483.57	14700.90
483.74	15108.16
483.92	15159.65
484.10	15040.28
484.28	15140.93
484.46	15552.86
484.64	15899.26
484.82	15576.27
485.00	15903.94
485.18	16037.35
485.35	16264.38
485.53	15892.24
485.71	16311.19
485.89	16477.37
486.07	16423.54
486.25	16549.93
486.43	16563.97
486.61	16788.66
486.78	17104.64
486.96	17069.53
487.14	17525.93
487.32	17097.61
487.50	17680.41
487.68	17727.22
487.85	17834.88
488.03	18174.26
488.21	18242.14
488.39	18260.86
488.57	18405.97
488.75	18398.95
488.92	18906.85
489.10	18565.13
489.28	18958.34
489.46	19208.78
489.64	18785.14
489.81	19403.04
489.99	19555.18
490.17	19260.27
490.35	19744.76
490.53	19829.02
490.70	19875.83
490.88	20154.35
491.06	20243.29
491.24	20315.85
491.41	20329.89
491.59	20173.08
491.77	20425.86
491.95	20655.23
492.13	21039.08
492.30	21130.36
492.48	20903.32
492.66	21207.59
492.84	21132.70
493.01	21500.16
493.19	21310.58
493.37	21851.24
493.54	21741.24
493.72	22160.19
493.90	21865.28
494.08	22260.84
494.25	22312.33
494.43	22534.68
494.61	22920.87
494.79	22693.83
494.96	22740.64
495.14	22829.59
495.32	23236.84
495.49	23421.74
495.67	23548.13
495.85	23721.33
496.02	23789.20
496.20	23800.91
496.38	23887.51
496.55	23915.59
496.73	24217.52
496.91	24112.20
497.09	24538.18
497.26	24620.10
497.44	24505.41
497.62	24482.00
497.79	24863.51
497.97	24786.27
498.14	24996.92
498.32	25125.65
498.50	25317.57
498.67	25645.25
498.85	25748.23
499.03	25415.88
499.20	25450.99
499.38	25781.00
499.56	25809.09
499.73	26314.64
499.91	26050.16
500.08	26286.56
500.26	26387.20
500.44	26019.74
500.61	26190.59
500.79	26354.43
500.97	27065.96
501.14	27042.55
501.32	26953.61
501.49	27531.72
501.67	26995.74
501.84	27005.10
502.02	27058.93
502.20	27503.64
502.37	27625.34
502.55	27431.08
502.72	27716.62
502.90	28086.43
503.07	27513.00
503.25	27906.21
503.43	27864.08
503.60	28107.49
503.78	28350.91
503.95	28135.58
504.13	28325.16
504.30	28140.26
504.48	28355.59
504.65	28591.98
504.83	28718.37
505.01	29092.86
505.18	28744.12
505.36	28919.66
505.53	28652.84
505.71	29001.58
505.88	29120.95
506.06	28999.24
506.23	29240.31
506.41	29296.49
506.58	29336.27
506.76	29518.84
506.93	29457.98
507.11	29778.64
507.28	29659.27
507.46	30129.72
507.63	30155.46
507.81	30153.12
507.98	30216.32
508.16	30429.30
508.33	30366.11
508.50	30178.87
508.68	30836.56
508.85	30684.42
509.03	30646.97
509.20	30806.13
509.38	31227.43
509.55	31051.89
509.73	31054.23
509.90	31056.57
510.08	31072.95
510.25	31236.79
510.42	31466.16
510.60	31634.68
510.77	31761.07
510.95	31545.74
511.12	31578.51
511.30	31555.10
511.47	31941.29
511.64	32165.98
511.82	32470.25
511.99	31999.80
512.17	32357.91
512.34	32264.28
512.51	32533.45
512.69	32732.39
512.86	32470.25
513.04	33064.75
513.21	32943.04
513.38	33022.62
513.56	32786.22
513.73	32659.84
513.90	33015.60
514.08	33036.66
514.25	33500.09
514.43	33160.71
514.60	33394.76
514.77	33223.90
514.95	33528.17
515.12	33603.07
515.29	33460.30
515.47	33736.48
515.64	34330.98
515.81	33631.16
515.99	34609.50
516.16	34649.29
516.33	34363.75
516.51	34368.43
516.68	33940.11
516.85	34698.44
517.03	34642.27
517.20	34803.77
517.37	35096.33
517.54	34883.34
517.72	34878.66
517.89	34668.02
518.06	34859.94
518.24	34986.33
518.41	34668.02
518.58	35283.58
518.75	34843.56
518.93	35175.91
519.10	35564.44
519.27	35505.93
519.45	35391.24
519.62	35344.43
519.79	35314.00
519.96	35564.44
520.14	36123.83
520.31	35686.15
520.48	36226.81
520.65	36032.55
520.83	36566.19
521.00	36315.75
521.17	36168.30
521.34	36369.58
521.52	36350.86
521.69	36545.12
521.86	36545.12
522.03	36561.51
522.20	36634.06
522.38	36999.19
522.55	36779.18
522.72	36479.59
522.89	36664.49
523.07	37336.23
523.24	37125.58
523.41	37352.61
523.58	37106.85
523.75	37607.73
523.92	37212.18
524.10	37336.23
524.27	37621.77
524.44	37598.37
524.61	37778.59
524.78	37713.05
524.96	37764.54
525.13	38141.37
525.30	38293.50
525.47	38368.40
525.64	38199.88
525.81	38122.65
525.98	38375.42
526.16	38024.34
526.33	38162.43
526.50	38649.27
526.67	38440.96
526.84	38419.89
527.01	38043.07
527.18	38543.94
527.36	38412.87
527.53	38892.68
527.70	38799.06
527.87	38904.38
528.04	38976.94
528.21	38576.71
528.38	38417.55
528.55	38880.98
528.72	38864.60
528.89	39255.46
529.07	39278.87
529.24	38691.40
529.41	39267.17
529.58	39152.48
529.75	39250.78
529.92	39093.97
530.09	39995.07
530.26	39711.87
530.43	39498.88
530.60	39203.97
530.77	39531.65
530.94	39976.35
531.11	40210.40
531.28	40025.50
531.46	39859.32
531.63	39969.33
531.80	40114.44
531.97	40016.14
532.14	40177.64
532.31	39948.26
532.48	40306.37
532.65	40491.27
532.82	40194.02
532.99	40442.12
533.16	40313.39
533.33	40959.38
533.50	40952.35
533.67	40891.50
533.84	40521.69
534.01	40683.19
534.18	40582.55
534.35	41268.33
534.52	40917.25
534.69	41432.16
534.86	41036.61
535.03	41305.77
535.20	41668.56
535.37	41443.87
535.54	41315.14
535.71	41366.63
535.88	41397.06
536.05	41467.27
536.22	41235.56
536.38	42089.85
536.55	41471.95
536.72	41420.46
536.89	41638.13
537.06	41216.83
537.23	41897.93
537.40	41869.84
537.57	41883.89
537.74	41808.99
537.91	41911.97
538.08	42134.32
538.25	42373.06
538.42	41654.51
538.59	42106.24
538.75	41942.40
538.92	42124.96
539.09	42557.96
539.26	42225.60
539.43	42089.85
539.60	42424.55
539.77	42450.30
539.94	42768.61
540.11	42876.27
540.28	42777.97
540.44	42639.88
540.61	42845.85
540.78	43290.55
540.95	43377.15
541.12	42656.26
541.29	43267.14
541.46	43213.31
541.62	43089.26
541.79	43250.76
541.96	43131.39
542.13	42955.85
542.30	43695.46
542.47	43700.14
542.63	43566.73
542.80	43510.56
542.97	43906.11
543.14	43922.49
543.31	43452.05
543.48	43892.07
543.64	44154.21
543.81	43772.70
543.98	44451.45
544.15	44041.86
544.32	44381.24
544.48	44044.20
544.65	44292.30
544.82	44196.34
544.99	43491.83
545.16	43957.60
545.32	43707.16
545.49	44903.18
545.66	45574.91
545.83	45233.19
546.00	45565.55
546.16	44732.32
546.33	44301.66
546.50	43964.62
546.67	44383.58
546.83	44271.23
547.00	44479.54
547.17	44502.95
547.34	44399.96
547.50	44727.64
547.67	44903.18
547.84	44751.04
548.00	45113.83
548.17	44868.07
548.34	44748.70
548.51	45097.44
548.67	45219.15
548.84	45031.91
549.01	44538.05
549.18	45029.57
549.34	44968.71
549.51	44832.96
549.68	45134.89
549.84	44753.38
550.01	45621.72
550.18	45020.20
550.34	45294.05
550.51	45469.59
550.68	45588.95
550.84	44882.11
551.01	44694.87
551.18	44947.65
551.34	45347.88
551.51	45254.26
551.68	45284.68
551.84	45308.09
552.01	45502.35
552.18	45324.47
552.34	45322.13
552.51	45343.20
552.68	45467.25
552.84	45560.87
553.01	45474.27
553.18	45287.03
553.34	45666.19
553.51	45708.32
553.67	45881.52
553.84	46110.89
554.01	45717.68
554.17	45750.45
554.34	45745.77
554.51	45469.59
554.67	45797.26
554.84	45970.46
555.00	45900.25
555.17	45577.25
555.33	45949.40
555.50	45923.65
555.67	45645.13
555.83	45724.71
556.00	46241.96
556.16	45914.29
556.33	45907.27
556.50	45989.19
556.66	46415.16
556.83	45872.16
556.99	46347.29
557.16	46164.73
557.32	46527.51
557.49	46218.56
557.65	46426.87
557.82	45937.69
557.98	46457.29
558.15	46270.05
558.32	46195.15
558.48	46586.02
558.65	46501.76
558.81	46408.14
558.98	46387.08
559.14	46457.29
559.31	46000.89
559.47	46183.45
559.64	46368.35
559.80	46543.89
559.97	46967.53
560.13	46494.74
560.30	46529.85
560.46	46717.09
560.63	46309.84
560.79	46696.03
560.96	46756.88
561.12	46806.03
561.29	46445.59
561.45	46635.17
561.61	46527.51
561.78	46344.95
561.94	46909.02
562.11	46969.87
562.27	46873.91
562.44	46761.56
562.60	46993.28
562.77	46672.62
562.93	46698.37
563.10	46621.13
563.26	46658.58
563.42	46946.47
563.59	46988.60
563.75	46965.19
563.92	47014.34
564.08	46576.66
564.24	46401.12
564.41	46810.71
564.57	46637.51
564.74	46780.29
564.90	46948.81
565.07	47033.07
565.23	47035.41
565.39	46920.72
565.56	46958.17
565.72	46969.87
565.88	46979.23
566.05	47159.45
566.21	46686.67
566.38	46616.45
566.54	47012.00
566.70	47342.02
566.87	47337.33
567.03	47473.09
567.19	47445.00
567.36	47033.07
567.52	47372.44
567.68	46904.34
567.85	46731.14
568.01	46997.96
568.17	47215.63
568.34	47210.95
568.50	47185.20
568.66	47180.52
568.83	47334.99
568.99	46939.44
569.15	46656.24
569.32	46937.10
569.48	47260.10
569.64	47182.86
569.81	47089.24
569.97	47253.08
570.13	47175.84
570.30	47271.80
570.46	47246.05
570.62	47232.01
570.78	47180.52
570.95	46904.34
571.11	47026.04
571.27	47056.47
571.43	47131.37
571.60	46871.57
571.76	47313.93
571.92	47028.38
572.09	47157.11
572.25	47236.69
572.41	47552.66
572.57	47430.96
572.74	47636.92
572.90	46923.06
573.06	47278.82
573.22	47330.31
573.38	47222.65
573.55	47164.14
573.71	47739.91
573.87	47763.31
574.03	47171.16
574.20	47105.62
574.36	47519.90
574.52	47196.90
574.68	46932.42
574.84	47388.83
575.01	47622.88
575.17	47393.51
575.33	46934.76
575.49	47143.07
575.65	47629.90
575.82	47482.45
575.98	47707.14
576.14	47573.73
576.30	47126.69
576.46	47435.64
576.62	47510.53
576.79	47519.90
576.95	47571.39
577.11	48090.99
577.27	47323.29
577.43	47849.91
577.59	47267.12
577.75	47510.53
577.92	47601.82
578.08	47175.84
578.24	47103.28
578.40	47402.87
578.56	47564.37
578.72	47634.58
578.88	47753.95
579.04	47618.20
579.21	47454.36
579.37	47693.10
579.53	47662.67
579.69	47168.82
579.85	47332.65
580.01	47791.40
580.17	47407.55
580.33	47260.10
580.49	47496.49
580.65	47430.96
580.82	47833.53
580.98	47452.02
581.14	47210.95
581.30	47751.61
581.46	47297.55
581.62	47295.21
581.78	47325.63
581.94	47585.43
582.10	47213.29
582.26	47690.76
582.42	47370.10
582.58	47615.86
582.74	47887.36
582.90	47281.16
583.06	47185.20
583.22	47311.59
583.38	47248.39
583.54	47372.44
583.70	47159.45
583.86	47445.00
584.02	47784.38
584.18	47501.17
584.34	47618.20
584.50	48060.56
584.66	47547.98
584.82	47288.18
584.98	47571.39
585.14	47531.60
585.30	47437.98
585.46	47653.31
585.62	47334.99
585.78	47601.82
585.94	47150.09
586.10	47562.03
586.26	47379.46
586.42	47875.66
586.58	47775.02
586.74	47222.65
586.90	47550.32
587.06	47246.05
587.22	47456.70
587.38	47526.92
587.54	47473.09
587.70	47744.59
587.86	47391.17
588.02	47643.94
588.18	47786.72
588.34	47442.66
588.49	47409.89
588.65	47770.33
588.81	47386.49
588.97	47320.95
589.13	47702.46
589.29	47274.14
589.45	47959.92
589.61	47826.51
589.77	48055.88
589.93	47863.96
590.08	47882.68
590.24	47868.64
590.40	47828.85
590.56	47786.72
