SpectraSuite Data File
++++++++++++++++++++++++++++++++++++
Date: Fri Oct 04 11:39:50 GMT-05:00 2013
User: price-jones
Dark Spectrum Present: No
Reference Spectrum Present: No
Number of Sampled Component Spectra: 1
Spectrometers: USB2+H05261
Integration Time (usec): 100000 (USB2+H05261)
Spectra Averaged: 1 (USB2+H05261)
Boxcar Smoothing: 0 (USB2+H05261)
Correct for Electrical Dark: No (USB2+H05261)
Strobe/Lamp Enabled: No (USB2+H05261)
Correct for Detector Non-linearity: No (USB2+H05261)
Correct for Stray Light: No (USB2+H05261)
Number of Pixels in Processed Spectrum: 2048
>>>>>Begin Processed Spectral Data<<<<<
365.73	88.94
365.92	88.94
366.12	88.94
366.32	0.00
366.52	0.00
366.72	0.00
366.91	11.70
367.11	0.00
367.31	0.00
367.51	0.00
367.70	0.00
367.90	0.00
368.10	0.00
368.30	0.00
368.49	0.00
368.69	37.45
368.89	0.00
369.09	0.00
369.28	0.00
369.48	0.00
369.68	0.00
369.87	0.00
370.07	9.36
370.27	0.00
370.47	56.17
370.66	37.45
370.86	14.04
371.06	131.07
371.25	194.26
371.45	42.13
371.65	105.32
371.84	81.92
372.04	133.41
372.24	74.90
372.44	217.67
372.63	131.07
372.83	98.30
373.03	140.43
373.22	95.96
373.42	131.07
373.62	107.66
373.81	112.35
374.01	276.18
374.21	236.39
374.40	105.32
374.60	203.63
374.79	203.63
374.99	198.95
375.19	154.48
375.38	152.13
375.58	182.56
375.78	182.56
375.97	180.22
376.17	182.56
376.37	173.20
376.56	128.73
376.76	133.41
376.95	187.24
377.15	220.01
377.35	159.16
377.54	198.95
377.74	166.18
377.93	110.01
378.13	91.28
378.33	196.60
378.52	201.29
378.72	231.71
378.91	154.48
379.11	140.43
379.31	117.03
379.50	117.03
379.70	149.79
379.89	224.69
380.09	133.41
380.28	145.11
380.48	201.29
380.68	170.86
380.87	117.03
381.07	184.90
381.26	187.24
381.46	147.45
381.65	224.69
381.85	135.75
382.04	194.26
382.24	166.18
382.43	173.20
382.63	147.45
382.83	117.03
383.02	217.67
383.22	175.54
383.41	112.35
383.61	149.79
383.80	147.45
384.00	65.54
384.19	224.69
384.39	121.71
384.58	212.99
384.78	163.84
384.97	135.75
385.17	154.48
385.36	198.95
385.56	245.76
385.75	224.69
385.95	159.16
386.14	215.33
386.34	175.54
386.53	227.03
386.72	205.97
386.92	187.24
387.11	175.54
387.31	212.99
387.50	163.84
387.70	231.71
387.89	182.56
388.09	175.54
388.28	173.20
388.48	86.60
388.67	170.86
388.86	93.62
389.06	198.95
389.25	208.31
389.45	140.43
389.64	215.33
389.84	170.86
390.03	166.18
390.22	248.10
390.42	184.90
390.61	187.24
390.81	166.18
391.00	149.79
391.19	196.60
391.39	187.24
391.58	299.59
391.78	222.35
391.97	180.22
392.16	114.69
392.36	238.73
392.55	217.67
392.75	273.84
392.94	138.09
393.13	187.24
393.33	248.10
393.52	229.37
393.71	262.14
393.91	224.69
394.10	180.22
394.29	168.52
394.49	198.95
394.68	250.44
394.88	173.20
395.07	325.33
395.26	241.08
395.46	243.42
395.65	173.20
395.84	238.73
396.04	332.36
396.23	250.44
396.42	280.86
396.62	273.84
396.81	234.05
397.00	217.67
397.19	229.37
397.39	231.71
397.58	287.89
397.77	294.91
397.97	224.69
398.16	194.26
398.35	315.97
398.55	231.71
398.74	252.78
398.93	311.29
399.12	177.88
399.32	292.57
399.51	248.10
399.70	266.82
399.90	294.91
400.09	255.12
400.28	325.33
400.47	318.31
400.67	407.25
400.86	341.72
401.05	299.59
401.24	330.02
401.44	271.50
401.63	339.38
401.82	325.33
402.01	276.18
402.21	388.53
402.40	320.65
402.59	269.16
402.78	325.33
402.97	269.16
403.17	344.06
403.36	397.89
403.55	318.31
403.74	362.78
403.93	264.48
404.13	472.79
404.32	421.30
404.51	400.23
404.70	418.96
404.89	456.40
405.09	430.66
405.28	311.29
405.47	315.97
405.66	381.51
405.85	386.19
406.05	411.93
406.24	442.36
406.43	444.70
406.62	390.87
406.81	472.79
407.00	449.38
407.20	496.19
407.39	447.04
407.58	430.66
407.77	435.34
407.96	437.68
408.15	463.43
408.34	477.47
408.54	447.04
408.73	486.83
408.92	442.36
409.11	543.00
409.30	468.11
409.49	482.15
409.68	503.22
409.87	599.18
410.07	596.84
410.26	587.47
410.45	552.37
410.64	521.94
410.83	521.94
411.02	543.00
411.21	587.47
411.40	603.86
411.59	582.79
411.78	561.73
411.98	615.56
412.17	617.90
412.36	580.45
412.55	617.90
412.74	594.50
412.93	601.52
413.12	688.12
413.31	636.63
413.50	641.31
413.69	592.16
413.88	699.82
414.07	634.29
414.26	685.78
414.45	648.33
414.64	683.44
414.83	669.39
415.02	688.12
415.22	676.41
415.41	844.93
415.60	713.86
415.79	779.40
415.98	718.54
416.17	821.53
416.36	819.19
416.55	770.04
416.74	870.68
416.93	847.27
417.12	814.51
417.31	809.83
417.50	784.08
417.69	828.55
417.88	833.23
418.07	863.66
418.26	903.45
418.45	812.17
418.64	861.32
418.83	919.83
419.02	863.66
419.21	844.93
419.39	856.64
419.58	835.57
419.77	924.51
419.96	858.98
420.15	891.74
420.34	891.74
420.53	924.51
420.72	924.51
420.91	917.49
421.10	894.08
421.29	844.93
421.48	884.72
421.67	999.41
421.86	994.73
422.05	901.11
422.24	950.26
422.43	964.30
422.61	863.66
422.80	976.00
422.99	938.55
423.18	985.37
423.37	1032.18
423.56	945.58
423.75	992.39
423.94	959.62
424.13	933.87
424.32	940.90
424.50	1057.92
424.69	1034.52
424.88	1064.94
425.07	966.64
425.26	1006.43
425.45	1034.52
425.64	1060.26
425.83	1100.05
426.01	1022.81
426.20	1036.86
426.39	997.07
426.58	976.00
426.77	1015.79
426.96	1090.69
427.15	1041.54
427.33	1046.22
427.52	1050.90
427.71	1163.25
427.90	929.19
428.09	978.34
428.28	1107.07
428.46	1032.18
428.65	1118.78
428.84	1071.97
429.03	1160.91
429.22	1100.05
429.40	1121.12
429.59	1114.10
429.78	1116.44
429.97	1025.15
430.16	1076.65
430.34	1093.03
430.53	1116.44
430.72	1151.54
430.91	1121.12
431.10	1153.88
431.28	1102.39
431.47	1170.27
431.66	1153.88
431.85	1114.10
432.03	1238.14
432.22	1252.19
432.41	1160.91
432.60	1186.65
432.79	1207.72
432.97	1086.01
433.16	1207.72
433.35	1217.08
433.54	1203.04
433.72	1163.25
433.91	1210.06
434.10	1249.85
434.28	1310.70
434.47	1249.85
434.66	1268.57
434.85	1270.91
435.03	1308.36
435.22	1444.11
435.41	1652.42
435.59	1689.87
435.78	1598.59
435.97	1315.38
436.16	1317.72
436.34	1287.29
436.53	1345.81
436.72	1336.45
436.90	1233.46
437.09	1291.98
437.28	1320.06
437.46	1252.19
437.65	1313.04
437.84	1313.04
438.02	1315.38
438.21	1334.11
438.40	1334.11
438.58	1397.30
438.77	1409.00
438.96	1357.51
439.14	1399.64
439.33	1409.00
439.52	1411.34
439.70	1355.17
439.89	1493.26
440.08	1483.90
440.26	1472.20
440.45	1476.88
440.63	1446.45
440.82	1589.22
441.01	1500.28
441.19	1528.37
441.38	1638.38
441.57	1509.65
441.75	1570.50
441.94	1528.37
442.12	1549.43
442.31	1614.97
442.50	1685.19
442.68	1570.50
442.87	1519.01
443.05	1575.18
443.24	1717.95
443.43	1753.06
443.61	1703.91
443.80	1734.34
443.98	1657.10
444.17	1577.52
444.35	1629.01
444.54	1682.85
444.73	1647.74
444.91	1687.53
445.10	1596.25
445.28	1593.90
445.47	1652.42
445.65	1643.06
445.84	1687.53
446.02	1591.56
446.21	1689.87
446.39	1626.67
446.58	1701.57
446.77	1614.97
446.95	1554.12
447.14	1579.86
447.32	1678.16
447.51	1621.99
447.69	1764.76
447.88	1657.10
448.06	1792.85
448.25	1671.14
448.43	1633.69
448.62	1717.95
448.80	1643.06
448.99	1673.48
449.17	1771.79
449.36	1682.85
449.54	1762.42
449.73	1696.89
449.91	1867.75
450.10	1820.94
450.28	1788.17
450.46	1823.28
450.65	1834.98
450.83	1750.72
451.02	1762.42
451.20	1846.68
451.39	1858.39
451.57	1783.49
451.76	1797.53
451.94	1823.28
452.13	1788.17
452.31	1781.15
452.49	1872.43
452.68	1734.34
452.86	1811.57
453.05	1933.28
453.23	1804.55
453.42	1762.42
453.60	1806.89
453.78	1837.32
453.97	1856.04
454.15	1799.87
454.34	1830.30
454.52	1982.43
454.70	1881.79
454.89	1942.64
455.07	1940.30
455.26	1872.43
455.44	2043.29
455.62	1921.58
455.81	1952.01
455.99	2010.52
456.17	1839.66
456.36	1884.13
456.54	1930.94
456.73	1870.09
456.91	2022.22
457.09	1998.82
457.28	2008.18
457.46	1947.33
457.64	2022.22
457.83	1870.09
458.01	1940.30
458.19	2099.46
458.38	2113.50
458.56	1987.11
458.74	2043.29
458.93	2050.31
459.11	2029.24
459.29	2118.18
459.48	2148.61
459.66	2174.36
459.84	2090.10
460.03	2162.66
460.21	2031.58
460.39	2195.42
460.57	2139.25
460.76	2267.98
460.94	2139.25
461.12	2153.29
461.31	2113.50
461.49	2118.18
461.67	2010.52
461.85	2139.25
462.04	2214.15
462.22	2602.68
462.40	2251.60
462.59	2050.31
462.77	2258.62
462.95	2289.04
463.13	2181.38
463.32	2277.34
463.50	2279.68
463.68	2186.06
463.86	2179.04
464.05	2190.74
464.23	2214.15
464.41	2385.01
464.59	2197.76
464.78	2363.94
464.96	2275.00
465.14	2237.55
465.32	2338.20
465.50	2218.83
465.69	2406.07
465.87	2324.15
466.05	2382.67
466.23	2204.78
466.41	2305.43
466.60	2403.73
466.78	2363.94
466.96	2282.02
467.14	2370.96
467.32	2429.48
467.51	2331.17
467.69	2296.07
467.87	2389.69
468.05	2267.98
468.23	2448.20
468.41	2380.32
468.60	2417.77
468.78	2567.57
468.96	2394.37
469.14	2473.95
469.32	2380.32
469.50	2469.27
469.69	2448.20
469.87	2434.16
470.05	2394.37
470.23	2420.11
470.41	2487.99
470.59	2368.62
470.77	2438.84
470.95	2478.63
471.14	2590.97
471.32	2516.08
471.50	2574.59
471.68	2427.14
471.86	2555.86
472.04	2595.65
472.22	2670.55
472.40	2576.93
472.58	2684.59
472.77	2609.70
472.95	2810.98
473.13	2780.56
473.31	2677.57
473.49	2588.63
473.67	2686.94
473.85	2537.14
474.03	2733.75
474.21	2686.94
474.39	2761.83
474.57	2771.19
474.75	2888.22
474.93	2754.81
475.12	2768.85
475.30	2848.43
475.48	2820.35
475.66	2897.58
475.84	2860.13
476.02	2857.79
476.20	2885.88
476.38	2810.98
476.56	3115.25
476.74	2981.84
476.92	3033.33
477.10	2949.08
477.28	3014.61
477.46	2874.18
477.64	2902.26
477.82	3000.57
478.00	3091.85
478.18	3136.32
478.36	3157.38
478.54	3075.46
478.72	3138.66
478.90	3155.04
479.08	3300.16
479.26	3290.79
479.44	3145.68
479.62	3159.72
479.80	3365.69
479.98	3358.67
480.16	3403.14
480.34	3332.92
480.52	3433.57
480.70	3328.24
480.88	3545.91
481.06	3391.44
481.24	3419.52
481.41	3529.53
481.59	3524.85
481.77	3651.24
481.95	3496.76
482.13	3676.98
482.31	3543.57
482.49	3543.57
482.67	3693.37
482.85	3709.75
483.03	3716.77
483.21	3740.18
483.39	3810.39
483.57	3894.65
483.74	3831.46
483.92	3918.06
484.10	3894.65
484.28	4046.79
484.46	4058.49
484.64	4117.00
484.82	4042.11
485.00	3932.10
485.18	4102.96
485.35	4107.64
485.53	4250.41
485.71	4201.26
485.89	4332.33
486.07	4196.58
486.25	4320.63
486.43	4322.97
486.61	4252.75
486.78	4423.61
486.96	4255.09
487.14	4358.08
487.32	4409.57
487.50	4484.47
487.68	4538.30
487.85	4601.49
488.03	4573.41
488.21	4683.41
488.39	4505.53
488.57	4620.22
488.75	4758.31
488.92	5029.81
489.10	4844.91
489.28	4975.98
489.46	4821.50
489.64	4648.30
489.81	5095.35
489.99	4971.30
490.17	5006.41
490.35	5167.90
490.53	5090.67
490.70	5074.28
490.88	5102.37
491.06	5205.35
491.24	5083.64
491.41	5226.42
491.59	5268.55
491.77	5193.65
491.95	5322.38
492.13	5324.72
492.30	5376.21
492.48	5572.82
492.66	5455.79
492.84	5217.05
493.01	5371.53
493.19	5554.09
493.37	5547.07
493.54	5741.33
493.72	5593.88
493.90	5687.50
494.08	5680.48
494.25	5731.97
494.43	5689.84
494.61	5640.69
494.79	5837.30
494.96	5788.14
495.14	5654.73
495.32	5926.24
495.49	5930.92
495.67	5900.49
495.85	6043.26
496.02	5919.21
496.20	6108.80
496.38	5980.07
496.55	5877.09
496.73	6209.44
496.91	6256.25
497.09	6235.19
497.26	6214.12
497.44	6223.48
497.62	6293.70
497.79	6279.66
497.97	6246.89
498.14	6394.34
498.32	6473.92
498.50	6366.26
498.67	6284.34
498.85	6317.11
499.03	6436.47
499.20	6438.81
499.38	6562.86
499.56	6551.16
499.73	6476.26
499.91	6576.91
500.08	6527.75
500.26	6579.25
500.44	6581.59
500.61	6750.10
500.79	6527.75
500.97	6649.46
501.14	6794.58
501.32	6754.79
501.49	6590.95
501.67	6710.32
501.84	6782.87
502.02	6787.55
502.20	6829.68
502.37	7026.29
502.55	6899.90
502.72	6822.66
502.90	6829.68
503.07	6974.80
503.25	6963.09
503.43	7014.59
503.60	7126.93
503.78	7187.79
503.95	7066.08
504.13	7101.19
504.30	7197.15
504.48	7145.66
504.65	7091.82
504.83	7197.15
505.01	7070.76
505.18	7068.42
505.36	7379.71
505.53	7384.39
505.71	7152.68
505.88	7311.83
506.06	7269.70
506.23	7302.47
506.41	7487.37
506.58	7492.05
506.76	7370.35
506.93	7295.45
507.11	7349.28
507.28	7368.01
507.46	7447.58
507.63	7515.46
507.81	7419.50
507.98	7641.85
508.16	7517.80
508.33	7691.00
508.50	7616.10
508.68	7611.42
508.85	7637.17
509.03	7611.42
509.20	7669.94
509.38	7892.29
509.55	7861.86
509.73	7733.13
509.90	7896.97
510.08	7784.62
510.25	7999.95
510.42	7903.99
510.60	8025.70
510.77	8042.08
510.95	8013.99
511.12	7943.78
511.30	7866.54
511.47	8175.49
511.64	8088.89
511.82	8152.09
511.99	8145.06
512.17	8098.25
512.34	8187.19
512.51	8011.65
512.69	8180.17
512.86	8273.79
513.04	8259.75
513.21	8142.72
513.38	8292.52
513.56	8229.32
513.73	8297.20
513.90	8100.59
514.08	8339.33
514.25	8287.84
514.43	8332.31
514.60	8390.82
514.77	8182.51
514.95	8559.34
515.12	8496.14
515.29	8388.48
515.47	8524.23
515.64	8751.26
515.81	8407.20
515.99	8655.30
516.16	8751.26
516.33	8730.20
516.51	8638.92
516.68	8650.62
516.85	8730.20
517.03	8746.58
517.20	8851.91
517.37	8664.66
517.54	8720.84
517.72	8681.05
517.89	8767.65
518.06	8844.88
518.24	8767.65
518.41	8894.04
518.58	8674.03
518.75	8788.71
518.93	8901.06
519.10	8669.34
519.27	8954.89
519.45	8823.82
519.62	8891.70
519.79	8915.10
519.96	8842.54
520.14	9114.05
520.31	8854.25
520.48	9004.04
520.65	8940.85
520.83	9004.04
521.00	8968.93
521.17	9109.36
521.34	9308.31
521.52	9256.82
521.69	8940.85
521.86	9380.87
522.03	9191.28
522.20	9451.08
522.38	9378.53
522.55	9139.79
522.72	9055.53
522.89	9191.28
523.07	9495.55
523.24	9308.31
523.41	9387.89
523.58	9366.82
523.75	9610.24
523.92	9280.22
524.10	9217.03
524.27	9369.16
524.44	9551.73
524.61	9701.52
524.78	9453.42
524.96	9584.49
525.13	9504.92
525.30	9708.54
525.47	9521.30
525.64	9540.02
525.81	9544.70
525.98	9638.33
526.16	9607.90
526.33	9577.47
526.50	9710.88
526.67	9579.81
526.84	9537.68
527.01	9572.79
527.18	9731.95
527.36	9778.76
527.53	9811.53
527.70	9834.93
527.87	9781.10
528.04	10008.13
528.21	9720.24
528.38	9893.44
528.55	9767.06
528.72	9870.04
528.89	9994.09
529.07	9865.36
529.24	9722.59
529.41	10097.07
529.58	9982.38
529.75	9874.72
529.92	9865.36
530.09	9886.42
530.26	10090.05
530.43	9989.41
530.60	10003.45
530.77	9947.28
530.94	10108.77
531.11	10052.60
531.28	10223.46
531.46	9970.68
531.63	10272.61
531.80	10305.38
531.97	10181.33
532.14	10181.33
532.31	9912.17
532.48	10396.66
532.65	10216.44
532.82	10003.45
532.99	10333.47
533.16	10230.48
533.33	10249.21
533.50	10370.91
533.67	10148.56
533.84	10251.55
534.01	10104.09
534.18	10251.55
534.35	10272.61
534.52	10263.25
534.69	10487.94
534.86	10455.17
535.03	10221.12
535.20	10366.23
535.37	10457.51
535.54	10616.67
535.71	10289.00
535.88	10232.82
536.05	10450.49
536.22	10581.56
536.38	10583.90
536.55	10651.78
536.72	10644.76
536.89	10345.17
537.06	10490.28
537.23	10562.84
537.40	10642.42
537.57	10635.39
537.74	10668.16
537.91	10672.84
538.08	10494.96
538.25	10717.31
538.42	10930.30
538.59	10729.02
538.75	10565.18
538.92	10640.08
539.09	10792.21
539.26	10532.41
539.43	10944.34
539.60	10768.80
539.77	10920.94
539.94	10974.77
540.11	10930.30
540.28	10942.00
540.44	10717.31
540.61	11035.63
540.78	10768.80
540.95	10871.79
541.12	11206.48
541.29	11035.63
541.46	11267.34
541.62	11314.15
541.79	11300.11
541.96	11133.93
542.13	11260.32
542.30	11346.92
542.47	11290.74
542.63	11042.65
542.80	11220.53
542.97	11506.07
543.14	11325.85
543.31	11087.12
543.48	11473.31
543.64	11536.50
543.81	11367.98
543.98	11433.52
544.15	11302.45
544.32	11185.42
544.48	11433.52
544.65	11335.21
544.82	11178.40
544.99	11318.83
545.16	11527.14
545.32	11431.18
545.49	11981.20
545.66	12058.44
545.83	12308.88
546.00	12236.32
546.16	11779.92
546.33	11772.89
546.50	11346.92
546.67	11452.24
546.83	11424.15
547.00	11527.14
547.17	11218.19
547.34	11382.03
547.50	11314.15
547.67	11555.22
547.84	11351.60
548.00	11279.04
548.17	11363.30
548.34	11337.56
548.51	11595.01
548.67	11562.25
548.84	11580.97
549.01	11548.20
549.18	11293.08
549.34	11529.48
549.51	11396.07
549.68	11529.48
549.84	11461.60
550.01	11520.12
550.18	11389.05
550.34	11349.26
550.51	11470.97
550.68	11508.41
550.84	11335.21
551.01	11735.45
551.18	11552.88
551.34	11187.76
551.51	11417.13
551.68	11482.67
551.84	11597.35
552.01	11328.19
552.18	11672.25
552.34	11463.94
552.51	11555.22
552.68	11377.34
552.84	11302.45
553.01	11688.64
553.18	11412.45
553.34	11375.00
553.51	11501.39
553.67	11396.07
553.84	11812.68
554.01	11714.38
554.17	11700.34
554.34	11660.55
554.51	11564.59
554.67	11627.78
554.84	11573.95
555.00	11698.00
555.17	11438.20
555.33	11751.83
555.50	11534.16
555.67	11925.03
555.83	11592.67
556.00	11618.42
556.16	11784.60
556.33	11529.48
556.50	11543.52
556.66	11775.24
556.83	11712.04
556.99	11896.94
557.16	11651.19
557.32	11744.81
557.49	11721.40
557.65	11632.46
557.82	11693.32
557.98	11728.42
558.15	11433.52
558.32	11843.11
558.48	12070.14
558.65	11679.27
558.81	11719.06
558.98	11805.66
559.14	11712.04
559.31	11604.38
559.47	11716.72
559.64	11763.53
559.80	11840.77
559.97	11646.51
560.13	11672.25
560.30	11840.77
560.46	12056.10
560.63	11946.09
560.79	11545.86
560.96	11857.15
561.12	11789.28
561.29	11658.21
561.45	11435.86
561.61	11974.18
561.78	11932.05
561.94	11721.40
562.11	11522.46
562.27	11793.96
562.44	11784.60
562.60	11992.90
562.77	11632.46
562.93	11953.12
563.10	11845.45
563.26	11822.05
563.42	11927.37
563.59	11763.53
563.75	11648.85
563.92	12018.65
564.08	11733.11
564.24	11789.28
564.41	11705.02
564.57	11733.11
564.74	11887.58
564.90	11815.02
565.07	12060.78
565.23	11887.58
565.39	11953.12
565.56	11964.82
565.72	11730.76
565.88	11681.61
566.05	11719.06
566.21	11721.40
566.38	12042.06
566.54	11843.11
566.70	12079.50
566.87	11826.73
567.03	11742.47
567.19	11770.55
567.36	11969.50
567.52	11847.79
567.68	11896.94
567.85	11751.83
568.01	11929.71
568.17	11906.31
568.34	11805.66
568.50	11826.73
568.66	11922.69
568.83	12149.72
568.99	11742.47
569.15	11808.00
569.32	11896.94
569.48	11800.98
569.64	11969.50
569.81	11793.96
569.97	11913.33
570.13	11913.33
570.30	11871.20
570.46	11866.52
570.62	11915.67
570.78	11997.59
570.95	11775.24
571.11	11782.26
571.27	11918.01
571.43	11805.66
571.60	11613.74
571.76	11779.92
571.92	12070.14
572.09	12020.99
572.25	12035.03
572.41	11990.56
572.57	11861.84
572.74	12184.83
572.90	11955.46
573.06	12058.44
573.22	11941.41
573.38	12004.61
573.55	11857.15
573.71	12170.79
573.87	12018.65
574.03	11899.28
574.20	12093.55
574.36	11957.80
574.52	11978.86
574.68	12035.03
574.84	11836.09
575.01	12070.14
575.17	11913.33
575.33	11831.41
575.49	11826.73
575.65	11843.11
575.82	12025.67
575.98	11913.33
576.14	12105.25
576.30	11700.34
576.46	11864.18
576.62	12013.97
576.79	12020.99
576.95	12056.10
577.11	11955.46
577.27	12112.27
577.43	12039.72
577.59	11812.68
577.75	11997.59
577.92	11833.75
578.08	11864.18
578.24	11847.79
578.40	11910.99
578.56	12072.48
578.72	12023.33
578.88	12128.66
579.04	12088.87
579.21	12184.83
579.37	11800.98
579.53	12067.80
579.69	12016.31
579.85	11852.47
580.01	12278.45
580.17	12077.16
580.33	12098.23
580.49	11887.58
580.65	12058.44
580.82	12177.81
580.98	11960.14
581.14	12114.61
581.30	12259.73
581.46	11899.28
581.62	12189.51
581.78	12131.00
581.94	11866.52
582.10	11688.64
582.26	12149.72
582.42	12212.92
582.58	12039.72
582.74	12063.12
582.90	12250.36
583.06	11957.80
583.22	12013.97
583.38	11941.41
583.54	11880.56
583.70	12138.02
583.86	11971.84
584.02	12056.10
584.18	11962.48
584.34	12187.17
584.50	12049.08
584.66	11852.47
584.82	11943.75
584.98	12135.68
585.14	12046.74
585.30	12156.74
585.46	11981.20
585.62	12086.53
585.78	12042.06
585.94	11999.93
586.10	11967.16
586.26	11784.60
586.42	12098.23
586.58	12245.68
586.74	12079.50
586.90	12264.41
587.06	11941.41
587.22	12250.36
587.38	11920.35
587.54	12233.98
587.70	12128.66
587.86	12149.72
588.02	12194.19
588.18	12259.73
588.34	12126.32
588.49	12084.19
588.65	12044.40
588.81	12194.19
588.97	11859.49
589.13	12006.95
589.29	12133.34
589.45	12168.45
589.61	12140.36
589.77	12325.26
589.93	12154.40
590.08	12070.14
590.24	12315.90
590.40	12182.49
590.56	12273.77
590.72	11953.12
590.88	11906.31
591.04	11990.56
591.20	12032.69
591.35	12210.57
591.51	12233.98
591.67	12290.15
591.83	12294.83
591.99	12177.81
592.15	12133.34
592.31	12241.00
592.46	12411.86
592.62	12255.04
592.78	12100.57
592.94	12175.47
593.10	12121.63
593.26	12313.56
593.41	12318.24
593.57	12105.25
593.73	12163.76
593.89	12255.04
594.05	12074.82
594.20	12049.08
594.36	12126.32
594.52	12156.74
594.68	12098.23
594.84	12049.08
594.99	12093.55
595.15	12074.82
595.31	12241.00
