SpectraSuite Data File
++++++++++++++++++++++++++++++++++++
Date: Fri Oct 04 11:39:21 GMT-05:00 2013
User: price-jones
Dark Spectrum Present: No
Reference Spectrum Present: No
Number of Sampled Component Spectra: 1
Spectrometers: USB2+H05261
Integration Time (usec): 100000 (USB2+H05261)
Spectra Averaged: 1 (USB2+H05261)
Boxcar Smoothing: 0 (USB2+H05261)
Correct for Electrical Dark: No (USB2+H05261)
Strobe/Lamp Enabled: No (USB2+H05261)
Correct for Detector Non-linearity: No (USB2+H05261)
Correct for Stray Light: No (USB2+H05261)
Number of Pixels in Processed Spectrum: 2048
>>>>>Begin Processed Spectral Data<<<<<
365.73	74.90
365.92	74.90
366.12	74.90
366.32	21.06
366.52	0.00
366.72	72.56
366.91	0.00
367.11	0.00
367.31	0.00
367.51	0.00
367.70	0.00
367.90	0.00
368.10	0.00
368.30	0.00
368.49	0.00
368.69	0.00
368.89	0.00
369.09	0.00
369.28	0.00
369.48	0.00
369.68	14.04
369.87	0.00
370.07	0.00
370.27	0.00
370.47	100.64
370.66	98.30
370.86	191.92
371.06	255.12
371.25	313.63
371.45	229.37
371.65	292.57
371.84	238.73
372.04	257.46
372.24	351.08
372.44	248.10
372.63	339.38
372.83	306.61
373.03	334.70
373.22	294.91
373.42	297.25
373.62	292.57
373.81	351.08
374.01	327.68
374.21	290.23
374.40	252.78
374.60	250.44
374.79	358.10
374.99	395.55
375.19	362.78
375.38	409.59
375.58	411.93
375.78	346.40
375.97	386.19
376.17	369.80
376.37	367.46
376.56	416.62
376.76	425.98
376.95	402.57
377.15	341.72
377.35	414.27
377.54	421.30
377.74	367.46
377.93	365.12
378.13	404.91
378.33	465.77
378.52	400.23
378.72	425.98
378.91	360.44
379.11	402.57
379.31	379.17
379.50	393.21
379.70	444.70
379.89	381.51
380.09	442.36
380.28	430.66
380.48	447.04
380.68	414.27
380.87	395.55
381.07	425.98
381.26	472.79
381.46	409.59
381.65	404.91
381.85	404.91
382.04	393.21
382.24	379.17
382.43	484.49
382.63	411.93
382.83	468.11
383.02	470.45
383.22	552.37
383.41	493.85
383.61	440.02
383.80	435.34
384.00	519.60
384.19	526.62
384.39	477.47
384.58	468.11
384.78	472.79
384.97	454.06
385.17	545.34
385.36	472.79
385.56	475.13
385.75	489.17
385.95	650.67
386.14	528.96
386.34	503.22
386.53	524.28
386.72	540.66
386.92	552.37
387.11	603.86
387.31	526.62
387.50	510.24
387.70	535.98
387.89	491.51
388.09	557.05
388.28	528.96
388.48	517.26
388.67	620.24
388.86	512.58
389.06	547.69
389.25	669.39
389.45	627.26
389.64	615.56
389.84	678.76
390.03	629.60
390.22	603.86
390.42	613.22
390.61	580.45
390.81	566.41
391.00	662.37
391.19	681.10
391.39	688.12
391.58	615.56
391.78	603.86
391.97	620.24
392.16	622.58
392.36	688.12
392.55	688.12
392.75	713.86
392.94	678.76
393.13	688.12
393.33	615.56
393.52	692.80
393.71	746.63
393.91	697.48
394.10	671.73
394.29	669.39
394.49	772.38
394.68	676.41
394.88	779.40
395.07	716.20
395.26	765.36
395.46	821.53
395.65	739.61
395.84	821.53
396.04	774.72
396.23	765.36
396.42	777.06
396.62	758.33
396.81	760.67
397.00	819.19
397.19	844.93
397.39	814.51
397.58	870.68
397.77	849.61
397.97	772.38
398.16	863.66
398.35	861.32
398.55	812.17
398.74	947.92
398.93	917.49
399.12	891.74
399.32	835.57
399.51	910.47
399.70	882.38
399.90	805.14
400.09	978.34
400.28	985.37
400.47	882.38
400.67	997.07
400.86	968.98
401.05	1001.75
401.24	978.34
401.44	1041.54
401.63	997.07
401.82	1053.24
402.01	1043.88
402.21	1064.94
402.40	1041.54
402.59	1088.35
402.78	1109.41
402.97	1090.69
403.17	1186.65
403.36	1107.07
403.55	1149.20
403.74	1172.61
403.93	1174.95
404.13	1261.55
404.32	1163.25
404.51	1270.91
404.70	1252.19
404.89	1268.57
405.09	1277.93
405.28	1235.80
405.47	1256.87
405.66	1392.62
405.85	1268.57
406.05	1310.70
406.24	1296.66
406.43	1341.13
406.62	1329.42
406.81	1413.68
407.00	1369.21
407.20	1275.59
407.39	1294.32
407.58	1404.32
407.77	1437.09
407.96	1493.26
408.15	1404.32
408.34	1448.79
408.54	1521.35
408.73	1535.39
408.92	1439.43
409.11	1511.99
409.30	1507.30
409.49	1568.16
409.68	1598.59
409.87	1514.33
410.07	1516.67
410.26	1617.31
410.45	1589.22
410.64	1544.75
410.83	1657.10
411.02	1717.95
411.21	1736.68
411.40	1748.38
411.59	1760.08
411.78	1771.79
411.98	1771.79
412.17	1778.81
412.36	1820.94
412.55	1879.45
412.74	1884.13
412.93	1912.22
413.12	1905.20
413.31	2057.33
413.50	1893.49
413.69	2010.52
413.88	2097.12
414.07	2099.46
414.26	1982.43
414.45	2085.42
414.64	2076.06
414.83	2157.97
415.02	2125.21
415.22	2211.81
415.41	2216.49
415.60	2127.55
415.79	2260.96
415.98	2345.22
416.17	2399.05
416.36	2272.66
416.55	2253.94
416.74	2410.75
416.93	2464.58
417.12	2370.96
417.31	2429.48
417.50	2347.56
417.69	2555.86
417.88	2513.74
418.07	2576.93
418.26	2434.16
418.45	2485.65
418.64	2677.57
418.83	2736.09
419.02	2668.21
419.21	2644.81
419.39	2710.34
419.58	2593.31
419.77	2696.30
419.96	2579.27
420.15	2719.70
420.34	2698.64
420.53	2658.85
420.72	2766.51
420.91	2813.32
421.10	2792.26
421.29	2822.69
421.48	2892.90
421.67	2796.94
421.86	2965.46
422.05	2836.73
422.24	2796.94
422.43	2803.96
422.61	3045.04
422.80	2778.22
422.99	3059.08
423.18	2995.89
423.37	2963.12
423.56	2916.31
423.75	2974.82
423.94	3028.65
424.13	2857.79
424.32	2766.51
424.50	3026.31
424.69	3068.44
424.88	2984.18
425.07	3038.02
425.26	2920.99
425.45	2995.89
425.64	3021.63
425.83	2951.42
426.01	3119.93
426.20	3274.41
426.39	3019.29
426.58	2991.20
426.77	3166.74
426.96	3038.02
427.15	3131.64
427.33	3157.38
427.52	3190.15
427.71	3148.02
427.90	3110.57
428.09	3133.98
428.28	3199.51
428.46	3185.47
428.65	3279.09
428.84	3325.90
429.03	3449.95
429.22	3276.75
429.40	3251.00
429.59	3321.22
429.78	3295.47
429.97	3321.22
430.16	3283.77
430.34	3499.10
430.53	3433.57
430.72	3520.17
430.91	3421.86
431.10	3328.24
431.28	3538.89
431.47	3555.27
431.66	3506.12
431.85	3449.95
432.03	3651.24
432.22	3775.28
432.41	3597.40
432.60	3581.02
432.79	3688.68
432.97	3536.55
433.16	3653.58
433.35	3620.81
433.54	3637.19
433.72	3751.88
433.91	3794.01
434.10	3817.41
434.28	3726.13
434.47	3733.15
434.66	3927.42
434.85	3754.22
435.03	4025.72
435.22	4039.76
435.41	4454.04
435.59	4397.87
435.78	4222.33
435.97	4133.39
436.16	4056.15
436.34	4039.76
436.53	3990.61
436.72	4002.32
436.90	4105.30
437.09	4121.68
437.28	4088.92
437.46	4114.66
437.65	4107.64
437.84	4112.32
438.02	4088.92
438.21	4184.88
438.40	4109.98
438.58	4276.16
438.77	4332.33
438.96	4255.09
439.14	4344.03
439.33	4407.23
439.52	4486.81
439.70	4519.57
439.89	4531.28
440.08	4442.34
440.26	4540.64
440.45	4585.11
440.63	4655.33
440.82	4589.79
441.01	4755.97
441.19	4608.51
441.38	4812.14
441.57	4730.22
441.75	4667.03
441.94	4945.55
442.12	4903.42
442.31	4823.84
442.50	4980.66
442.68	4816.82
442.87	4865.97
443.05	4812.14
443.24	5146.84
443.43	5071.94
443.61	5043.85
443.80	5153.86
443.98	4894.06
444.17	4755.97
444.35	5081.30
444.54	5144.50
444.73	5081.30
444.91	5032.15
445.10	5057.90
445.28	5149.18
445.47	5041.51
445.65	5125.77
445.84	5123.43
446.02	5193.65
446.21	5064.92
446.39	5282.59
446.58	5118.75
446.77	5163.22
446.95	5146.84
447.14	5184.29
447.32	5226.42
447.51	5392.59
447.69	5296.63
447.88	5231.10
448.06	5270.89
448.25	5139.82
448.43	5111.73
448.62	5184.29
448.80	5240.46
448.99	5324.72
449.17	5483.88
449.36	5195.99
449.54	5355.15
449.73	5493.24
449.91	5453.45
450.10	5406.64
450.28	5497.92
450.46	5504.94
450.65	5502.60
450.83	5481.53
451.02	5392.59
451.20	5575.16
451.39	5673.46
451.57	5636.01
451.76	5488.56
451.94	5547.07
452.13	5788.14
452.31	5788.14
452.49	5593.88
452.68	5619.63
452.86	5785.80
453.05	5930.92
453.23	5881.77
453.42	5713.25
453.60	5769.42
453.78	5841.98
453.97	5769.42
454.15	5790.49
454.34	5727.29
454.52	5991.77
454.70	6076.03
454.89	6043.26
455.07	5940.28
455.26	6017.52
455.44	6078.37
455.62	5935.60
455.81	6036.24
455.99	6029.22
456.17	6132.20
456.36	6087.73
456.54	6167.31
456.73	5982.41
456.91	6202.42
457.09	6242.21
457.28	6382.64
457.46	6258.59
457.64	6389.66
457.83	6340.51
458.01	6384.98
458.19	6483.28
458.38	6359.24
458.56	6574.56
458.74	6497.33
458.93	6527.75
459.11	6574.56
459.29	6656.48
459.48	6494.99
459.66	6490.31
459.84	6509.03
460.03	6729.04
460.21	6747.76
460.39	6583.93
460.57	6679.89
460.76	6787.55
460.94	6834.36
461.12	6913.94
461.31	6993.52
461.49	6960.75
461.67	6757.13
461.85	7075.44
462.04	7030.97
462.22	7330.56
462.40	6967.77
462.59	7136.29
462.77	6874.15
462.95	7033.31
463.13	6993.52
463.32	7091.82
463.50	7110.55
463.68	7073.10
463.86	7173.74
464.05	7014.59
464.23	7143.32
464.41	7208.85
464.59	7047.35
464.78	7447.58
464.96	7049.69
465.14	7265.02
465.32	7269.70
465.50	7358.64
465.69	7531.84
465.87	7260.34
466.05	7288.43
466.23	7442.90
466.41	7302.47
466.60	7538.87
466.78	7293.11
466.96	7363.33
467.14	7363.33
467.32	7581.00
467.51	7620.78
467.69	7506.10
467.87	7662.91
468.05	7590.36
468.23	7293.11
468.41	7492.05
468.60	7651.21
468.78	7754.19
468.96	7801.01
469.14	7707.38
469.32	7749.51
469.50	7653.55
469.69	7925.05
469.87	8009.31
470.05	8021.02
470.23	7969.52
470.41	7822.07
470.59	8025.70
470.77	7826.75
470.95	8091.23
471.14	8180.17
471.32	7908.67
471.50	8381.46
471.68	8283.16
471.86	8241.03
472.04	8329.97
472.22	8566.36
472.40	8339.33
472.58	8388.48
472.77	8229.32
472.95	8571.04
473.13	8872.97
473.31	8344.01
473.49	8376.78
473.67	8505.51
473.85	8725.52
474.03	8786.37
474.21	8704.45
474.39	8734.88
474.57	8833.18
474.75	8898.72
474.93	9001.70
475.12	9020.42
475.30	9104.68
475.48	9085.96
475.66	9029.79
475.84	9235.75
476.02	9334.06
476.20	9460.45
476.38	9310.65
476.56	9720.24
476.74	9614.92
476.92	9577.47
477.10	9467.47
477.28	9682.80
477.46	9584.49
477.64	9905.15
477.82	10132.18
478.00	10382.62
478.18	10218.78
478.36	10335.81
478.54	10129.84
478.72	10401.34
478.90	10501.98
479.08	10555.82
479.26	10721.99
479.44	10576.88
479.62	10904.56
479.80	10984.13
479.98	10757.10
480.16	11061.37
480.34	11136.27
480.52	11164.36
480.70	11152.65
480.88	11286.06
481.06	11389.05
481.24	11225.21
481.41	11459.26
481.59	11644.17
481.77	11742.47
481.95	11782.26
482.13	11812.68
482.31	11929.71
482.49	11981.20
482.67	12002.27
482.85	12358.03
483.03	12404.84
483.21	12360.37
483.39	12489.10
483.57	12575.70
483.74	12688.04
483.92	12896.35
484.10	12776.98
484.28	13277.86
484.46	13177.22
484.64	13252.11
484.82	13095.30
485.00	13177.22
485.18	13540.00
485.35	13631.28
485.53	13893.42
485.71	13905.12
485.89	14160.24
486.07	14036.19
486.25	14001.08
486.43	14099.39
486.61	14127.47
486.78	14670.48
486.96	14696.22
487.14	14721.97
487.32	14799.21
487.50	15042.62
487.68	14853.04
487.85	15037.94
488.03	15272.00
488.21	15431.15
488.39	15311.78
488.57	15403.07
488.75	15634.78
488.92	15941.39
489.10	16023.31
489.28	16271.40
489.46	16009.26
489.64	16217.57
489.81	16666.95
489.99	16526.52
490.17	16720.79
490.35	16812.07
490.53	16716.11
490.70	17256.77
490.88	16863.56
491.06	17118.68
491.24	17319.96
491.41	17511.89
491.59	17415.93
491.77	17727.22
491.95	17998.72
492.13	17825.52
492.30	18080.64
492.48	17877.01
492.66	17961.27
492.84	18178.94
493.01	18558.11
493.19	18237.45
493.37	18544.06
493.54	18513.64
493.72	18623.64
493.90	18885.78
494.08	18778.12
494.25	19374.95
494.43	19168.99
494.61	19599.65
494.79	19674.54
494.96	19484.96
495.14	19789.23
495.32	19555.18
495.49	19473.26
495.67	19936.68
495.85	20081.80
496.02	20259.68
496.20	20311.17
496.38	20285.42
496.55	20421.17
496.73	20631.82
496.91	20554.58
497.09	20842.47
497.26	20959.50
497.44	21001.63
497.62	20854.17
497.79	21303.56
497.97	21039.08
498.14	21689.74
498.32	21467.39
498.50	21577.40
498.67	21944.86
498.85	21792.73
499.03	21788.05
499.20	21781.03
499.38	22038.48
499.56	22038.48
499.73	22270.20
499.91	22520.63
500.08	22860.01
500.26	22513.61
500.44	22272.54
500.61	22817.88
500.79	22628.30
500.97	22693.83
501.14	23318.76
501.32	23536.43
501.49	23187.69
501.67	23496.64
501.84	23337.48
502.02	23447.49
502.20	23447.49
502.37	23665.16
502.55	23122.15
502.72	23585.58
502.90	23365.57
503.07	23620.69
503.25	23889.85
503.43	23910.91
503.60	24212.84
503.78	24322.85
503.95	24095.82
504.13	23999.85
504.30	24575.62
504.48	24306.46
504.65	24491.37
504.83	24746.48
505.01	24903.30
505.18	24889.26
505.36	24706.70
505.53	24900.96
505.71	24566.26
505.88	25020.33
506.06	24877.55
506.23	25401.83
506.41	24989.90
506.58	25338.64
506.76	25324.60
506.93	25254.38
507.11	25163.10
507.28	25570.35
507.46	25481.41
507.63	25937.82
507.81	25898.03
507.98	25715.47
508.16	25848.88
508.33	26288.90
508.50	26064.21
508.68	26178.89
508.85	26670.40
509.03	26487.84
509.20	26422.31
509.38	26946.59
509.55	26824.88
509.73	26962.97
509.90	27070.64
510.08	26466.78
510.25	26941.91
510.42	27101.06
510.60	27215.75
510.77	27330.44
510.95	27466.19
511.12	27566.83
511.30	27358.52
511.47	27239.15
511.64	27491.93
511.82	27835.99
511.99	27833.65
512.17	27948.34
512.34	27702.58
512.51	27871.10
512.69	27981.10
512.86	28163.67
513.04	28320.48
513.21	28285.37
513.38	28514.75
513.56	28409.42
513.73	28336.87
513.90	28304.10
514.08	28355.59
514.25	28526.45
514.43	28922.00
514.60	29010.94
514.77	28900.94
514.95	29167.76
515.12	29064.77
515.29	28870.51
515.47	29654.59
515.64	29268.40
515.81	29282.44
515.99	29497.77
516.16	29720.12
516.33	29607.78
516.51	30176.53
516.68	29645.23
516.85	29736.51
517.03	30059.50
517.20	30143.76
517.37	30064.18
517.54	29937.79
517.72	29914.39
517.89	29996.31
518.06	29916.73
518.24	29874.60
518.41	30136.74
518.58	30455.05
518.75	30169.51
518.93	30525.27
519.10	30878.69
519.27	30801.45
519.45	30206.95
519.62	30995.71
519.79	30890.39
519.96	31007.42
520.14	30902.09
520.31	30925.50
520.48	30939.54
520.65	31386.58
520.83	31519.99
521.00	31751.71
521.17	31136.15
521.34	31318.71
521.52	31487.23
521.69	31487.23
521.86	31934.27
522.03	31903.84
522.20	31922.57
522.38	32023.21
522.55	31676.81
522.72	31749.37
522.89	32243.22
523.07	32439.82
523.24	32222.16
523.41	32706.65
523.58	32163.64
523.75	32498.34
523.92	31999.80
524.10	32526.42
524.27	32795.59
524.44	32519.40
524.61	33303.48
524.78	32823.67
524.96	32762.82
525.13	32954.74
525.30	33132.62
525.47	32921.98
525.64	33352.63
525.81	33003.89
525.98	33287.10
526.16	33240.29
526.33	33195.82
526.50	33743.50
526.67	32982.83
526.84	33404.13
527.01	33390.08
527.18	33254.33
527.36	33806.70
527.53	33537.54
527.70	33928.41
527.87	33921.38
528.04	33766.91
528.21	33734.14
528.38	33778.61
528.55	33802.02
528.72	34005.64
528.89	34073.52
529.07	34206.93
529.24	34022.03
529.41	34185.86
529.58	34338.00
529.75	34225.65
529.92	34178.84
530.09	34546.31
530.26	34499.50
530.43	34415.24
530.60	34590.78
530.77	34452.69
530.94	34686.74
531.11	34574.39
531.28	34831.85
531.46	34600.14
531.63	34953.56
531.80	34813.13
531.97	34838.87
532.14	35428.69
532.31	34848.24
532.48	35459.12
532.65	35529.33
532.82	35297.62
532.99	35285.92
533.16	35126.76
533.33	35480.18
533.50	35714.23
533.67	35651.04
533.84	35351.45
534.01	35704.87
534.18	35332.73
534.35	35524.65
534.52	35737.64
534.69	35978.72
534.86	36290.01
535.03	36025.53
535.20	36093.40
535.37	36130.85
535.54	35758.70
535.71	35859.35
535.88	35988.08
536.05	36395.33
536.22	36407.03
536.38	36570.87
536.55	36545.12
536.72	36170.64
536.89	36458.52
537.06	36435.12
537.23	36180.00
537.40	36264.26
537.57	36512.36
537.74	36467.89
537.91	36760.45
538.08	36746.41
538.25	36943.02
538.42	36343.84
538.59	36856.42
538.75	36388.31
538.92	36861.10
539.09	37275.37
539.26	37067.06
539.43	37462.61
539.60	37647.52
539.77	37769.22
539.94	37383.04
540.11	37502.40
540.28	37521.13
540.44	37397.08
540.61	37020.25
540.78	37769.22
540.95	37710.71
541.12	37867.53
541.29	37780.93
541.46	37801.99
541.62	37902.64
541.79	38202.22
541.96	37383.04
542.13	38253.72
542.30	38029.02
542.47	38438.62
542.63	38462.02
542.80	38462.02
542.97	38199.88
543.14	38452.66
543.31	38132.01
543.48	38169.46
543.64	38930.13
543.81	38443.30
543.98	39302.28
544.15	38862.26
544.32	38967.58
544.48	39196.95
544.65	38742.89
544.82	38862.26
544.99	38628.20
545.16	38820.13
545.32	39091.63
545.49	39777.40
545.66	40343.81
545.83	40261.90
546.00	40669.15
546.16	39735.27
546.33	39112.69
546.50	38850.55
546.67	39250.78
546.83	39168.87
547.00	39325.68
547.17	38869.28
547.34	39473.13
547.50	39676.76
547.67	39679.10
547.84	39484.84
548.00	39725.91
548.17	39433.35
548.34	39433.35
548.51	39730.59
548.67	39672.08
548.84	39620.59
549.01	39431.01
549.18	39447.39
549.34	39608.89
549.51	39267.17
549.68	39847.62
549.84	39398.24
550.01	39875.71
550.18	39978.69
550.34	39585.48
550.51	40203.38
550.68	40294.66
550.84	39768.04
551.01	39936.56
551.18	39896.77
551.34	39468.45
551.51	39569.10
551.68	39702.51
551.84	39948.26
552.01	40130.83
552.18	40179.98
552.34	40266.58
552.51	40229.13
552.68	40187.00
552.84	40261.90
553.01	40385.94
553.18	40194.02
553.34	40669.15
553.51	40378.92
553.67	40577.87
553.84	40563.82
554.01	40552.12
554.17	40348.50
554.34	40470.20
554.51	40341.47
554.67	40556.80
554.84	40547.44
555.00	40561.48
555.17	40158.91
555.33	40435.10
555.50	40519.35
555.67	41045.97
555.83	40318.07
556.00	40690.21
556.16	41146.62
556.33	40596.59
556.50	40594.25
556.66	40954.69
556.83	40821.28
556.99	41280.03
557.16	41036.61
557.32	40879.80
557.49	41043.63
557.65	40561.48
557.82	40610.64
557.98	40643.40
558.15	40685.53
558.32	41041.29
558.48	41064.70
558.65	41034.27
558.81	41102.15
558.98	41247.26
559.14	41258.96
559.31	40786.18
559.47	41186.41
559.64	41757.50
559.80	41163.00
559.97	41148.96
560.13	41277.69
560.30	41256.62
560.46	41172.36
560.63	41619.41
560.79	41301.09
560.96	41111.51
561.12	41343.22
561.29	41488.34
561.45	40982.78
561.61	41350.24
561.78	41223.86
561.94	41680.26
562.11	41687.28
562.27	41434.50
562.44	41914.31
562.60	41057.68
562.77	41631.11
562.93	42026.66
563.10	41811.33
563.26	41570.25
563.42	42082.83
563.59	41511.74
563.75	41425.14
563.92	41371.31
564.08	41666.22
564.24	41471.95
564.41	42227.95
564.57	41827.71
564.74	41661.54
564.90	41745.80
565.07	41331.52
565.23	41982.19
565.39	41715.37
565.56	41727.07
565.72	41483.66
565.88	42085.17
566.05	41846.44
566.21	41631.11
566.38	41605.36
566.54	42014.96
566.70	42108.58
566.87	42050.06
567.03	41963.46
567.19	42590.73
567.36	41982.19
567.52	41940.06
567.68	42050.06
567.85	41949.42
568.01	42176.45
568.17	42000.91
568.34	42162.41
568.50	42387.10
568.66	42007.94
568.83	42288.80
568.99	42005.59
569.15	42167.09
569.32	42195.18
569.48	41647.49
569.64	41900.27
569.81	42089.85
569.97	42150.71
570.13	42429.23
570.30	42204.54
570.46	42417.53
570.62	42398.80
570.78	42267.73
570.95	41818.35
571.11	42038.36
571.27	41666.22
571.43	42220.92
571.60	41991.55
571.76	42103.90
571.92	42054.75
572.09	42160.07
572.25	42665.63
572.41	41785.58
572.57	42265.39
572.74	42454.98
572.90	42593.07
573.06	42220.92
573.22	42288.80
573.38	42293.48
573.55	42391.78
573.71	42253.69
573.87	42539.24
574.03	41996.23
574.20	42309.86
574.36	42043.04
574.52	42295.82
574.68	41968.15
574.84	42328.59
575.01	42529.87
575.17	42061.77
575.33	42092.19
575.49	42010.28
575.65	42366.04
575.82	42588.39
575.98	42447.96
576.14	42181.13
576.30	42279.44
576.46	42305.18
576.62	42361.36
576.79	42312.20
576.95	42560.30
577.11	42611.79
577.27	42588.39
577.43	42560.30
577.59	42689.03
577.75	42160.07
577.92	42038.36
578.08	41986.87
578.24	42487.74
578.40	42127.30
578.56	42637.54
578.72	42490.09
578.88	43292.89
579.04	42714.78
579.21	42396.46
579.37	42923.08
579.53	42061.77
579.69	42895.00
579.85	42466.68
580.01	42600.09
580.17	42515.83
580.33	42349.65
580.49	42445.62
580.65	42782.65
580.82	42995.64
580.98	42403.49
581.14	42412.85
581.30	42649.24
581.46	41965.81
581.62	42131.98
581.78	42333.27
581.94	42941.81
582.10	42382.42
582.26	42344.97
582.42	42710.10
582.58	42588.39
582.74	42848.19
582.90	42988.62
583.06	42983.94
583.22	42445.62
583.38	42359.02
583.54	42431.57
583.70	42384.76
583.86	42857.55
584.02	42295.82
584.18	42288.80
584.34	42621.16
584.50	43100.97
584.66	42595.41
584.82	42574.34
584.98	42506.47
585.14	42389.44
585.30	42174.11
585.46	42316.89
585.62	42796.70
585.78	42820.10
585.94	42616.47
586.10	43260.12
586.26	42848.19
586.42	42721.80
586.58	43098.62
586.74	42391.78
586.90	42433.91
587.06	42438.59
587.22	42944.15
587.38	42511.15
587.54	43119.69
587.70	42792.01
587.86	42845.85
588.02	42953.51
588.18	42738.18
588.34	43124.37
588.49	42745.20
588.65	42834.14
588.81	42838.83
588.97	42974.58
589.13	42763.93
589.29	42667.97
589.45	42871.59
589.61	43140.75
589.77	43030.75
589.93	43178.20
590.08	42850.53
590.24	43107.99
590.40	42923.08
590.56	43063.52
590.72	43026.07
590.88	42618.81
591.04	42780.31
