SpectraSuite Data File
++++++++++++++++++++++++++++++++++++
Date: Fri Oct 04 11:39:21 GMT-05:00 2013
User: price-jones
Dark Spectrum Present: No
Reference Spectrum Present: No
Number of Sampled Component Spectra: 1
Spectrometers: USB2+H05261
Integration Time (usec): 100000 (USB2+H05261)
Spectra Averaged: 1 (USB2+H05261)
Boxcar Smoothing: 0 (USB2+H05261)
Correct for Electrical Dark: No (USB2+H05261)
Strobe/Lamp Enabled: No (USB2+H05261)
Correct for Detector Non-linearity: No (USB2+H05261)
Correct for Stray Light: No (USB2+H05261)
Number of Pixels in Processed Spectrum: 2048
>>>>>Begin Processed Spectral Data<<<<<
365.73	23.41
365.92	23.41
366.12	23.41
366.32	0.00
366.52	0.00
366.72	0.00
366.91	0.00
367.11	0.00
367.31	0.00
367.51	0.00
367.70	0.00
367.90	0.00
368.10	0.00
368.30	0.00
368.49	0.00
368.69	0.00
368.89	0.00
369.09	0.00
369.28	0.00
369.48	0.00
369.68	0.00
369.87	4.68
370.07	32.77
370.27	70.22
370.47	79.58
370.66	222.35
370.86	224.69
371.06	327.68
371.25	360.44
371.45	325.33
371.65	327.68
371.84	327.68
372.04	299.59
372.24	327.68
372.44	294.91
372.63	404.91
372.83	358.10
373.03	334.70
373.22	369.80
373.42	292.57
373.62	341.72
373.81	348.74
374.01	465.77
374.21	425.98
374.40	397.89
374.60	402.57
374.79	411.93
374.99	400.23
375.19	322.99
375.38	355.76
375.58	397.89
375.78	409.59
375.97	421.30
376.17	449.38
376.37	358.10
376.56	346.40
376.76	365.12
376.95	442.36
377.15	463.43
377.35	411.93
377.54	341.72
377.74	411.93
377.93	416.62
378.13	430.66
378.33	475.13
378.52	498.53
378.72	468.11
378.91	442.36
379.11	390.87
379.31	503.22
379.50	447.04
379.70	465.77
379.89	414.27
380.09	418.96
380.28	449.38
380.48	409.59
380.68	416.62
380.87	444.70
381.07	524.28
381.26	468.11
381.46	491.51
381.65	512.58
381.85	379.17
382.04	496.19
382.24	451.72
382.43	421.30
382.63	517.26
382.83	470.45
383.02	535.98
383.22	477.47
383.41	440.02
383.61	444.70
383.80	545.34
384.00	568.75
384.19	510.24
384.39	526.62
384.58	465.77
384.78	517.26
384.97	550.03
385.17	505.56
385.36	475.13
385.56	491.51
385.75	514.92
385.95	531.30
386.14	606.20
386.34	580.45
386.53	552.37
386.72	454.06
386.92	643.65
387.11	575.77
387.31	603.86
387.50	500.87
387.70	592.16
387.89	589.82
388.09	575.77
388.28	547.69
388.48	519.60
388.67	627.26
388.86	550.03
389.06	580.45
389.25	648.33
389.45	655.35
389.64	650.67
389.84	613.22
390.03	699.82
390.22	697.48
390.42	653.01
390.61	603.86
390.81	601.52
391.00	655.35
391.19	732.59
391.39	699.82
391.58	664.71
391.78	629.60
391.97	753.65
392.16	667.05
392.36	683.44
392.55	765.36
392.75	732.59
392.94	725.57
393.13	816.85
393.33	706.84
393.52	655.35
393.71	755.99
393.91	725.57
394.10	823.87
394.29	753.65
394.49	805.14
394.68	767.70
394.88	770.04
395.07	809.83
395.26	800.46
395.46	805.14
395.65	823.87
395.84	847.27
396.04	919.83
396.23	858.98
396.42	856.64
396.62	894.08
396.81	812.17
397.00	844.93
397.19	947.92
397.39	861.32
397.58	898.77
397.77	938.55
397.97	887.06
398.16	978.34
398.35	980.68
398.55	943.24
398.74	957.28
398.93	973.66
399.12	924.51
399.32	938.55
399.51	1046.22
399.70	1109.41
399.90	983.02
400.09	1011.11
400.28	1057.92
400.47	1029.84
400.67	1064.94
400.86	1064.94
401.05	1064.94
401.24	1081.33
401.44	1050.90
401.63	1144.52
401.82	1132.82
402.01	1114.10
402.21	1050.90
402.40	1142.18
402.59	1193.67
402.78	1144.52
402.97	1149.20
403.17	1102.39
403.36	1259.21
403.55	1270.91
403.74	1266.23
403.93	1313.04
404.13	1322.40
404.32	1289.64
404.51	1397.30
404.70	1357.51
404.89	1364.53
405.09	1444.11
405.28	1306.02
405.47	1336.45
405.66	1448.79
405.85	1401.98
406.05	1331.76
406.24	1423.05
406.43	1465.18
406.62	1476.88
406.81	1467.52
407.00	1453.47
407.20	1432.41
407.39	1479.22
407.58	1626.67
407.77	1547.09
407.96	1432.41
408.15	1619.65
408.34	1603.27
408.54	1528.37
408.73	1643.06
408.92	1542.41
409.11	1610.29
409.30	1741.36
409.49	1626.67
409.68	1743.70
409.87	1710.93
410.07	1678.16
410.26	1638.38
410.45	1682.85
410.64	1764.76
410.83	1764.76
411.02	1811.57
411.21	1877.11
411.40	1940.30
411.59	1872.43
411.78	1846.68
411.98	1853.70
412.17	1933.28
412.36	1949.67
412.55	2022.22
412.74	2022.22
412.93	2043.29
413.12	2005.84
413.31	2026.90
413.50	2108.82
413.69	2148.61
413.88	2047.97
414.07	2125.21
414.26	2106.48
414.45	2160.31
414.64	2139.25
414.83	2141.59
415.02	2389.69
415.22	2375.64
415.41	2310.11
415.60	2448.20
415.79	2352.24
415.98	2429.48
416.17	2483.31
416.36	2429.48
416.55	2530.12
416.74	2588.63
416.93	2497.35
417.12	2590.97
417.31	2590.97
417.50	2595.65
417.69	2682.25
417.88	2684.59
418.07	2583.95
418.26	2658.85
418.45	2715.02
418.64	2736.09
418.83	2757.15
419.02	2672.89
419.21	2822.69
419.39	2846.09
419.58	2909.29
419.77	2792.26
419.96	2925.67
420.15	2953.76
420.34	2888.22
420.53	2899.92
420.72	2930.35
420.91	2899.92
421.10	2979.50
421.29	3098.87
421.48	2939.71
421.67	3014.61
421.86	2958.44
422.05	2972.48
422.24	3049.72
422.43	3035.67
422.61	3023.97
422.80	3014.61
422.99	3173.77
423.18	3138.66
423.37	3117.59
423.56	3206.53
423.75	3080.14
423.94	3026.31
424.13	2864.82
424.32	2906.95
424.50	3201.85
424.69	3307.18
424.88	3166.74
425.07	3133.98
425.26	3197.17
425.45	3056.74
425.64	3124.62
425.83	3124.62
426.01	3309.52
426.20	3164.40
426.39	3190.15
426.58	3159.72
426.77	3253.34
426.96	3323.56
427.15	3356.33
427.33	3325.90
427.52	3365.69
427.71	3314.20
427.90	3253.34
428.09	3300.16
428.28	3438.25
428.46	3353.99
428.65	3342.28
428.84	3550.59
429.03	3536.55
429.22	3389.10
429.40	3534.21
429.59	3510.80
429.78	3393.78
429.97	3449.95
430.16	3379.73
430.34	3494.42
430.53	3602.08
430.72	3653.58
430.91	3494.42
431.10	3571.66
431.28	3735.50
431.47	3770.60
431.66	3730.81
431.85	3707.41
432.03	3817.41
432.22	3782.31
432.41	3756.56
432.60	3796.35
432.79	3894.65
432.97	3756.56
433.16	3822.09
433.35	3840.82
433.54	3964.87
433.72	3889.97
433.91	3950.82
434.10	3953.16
434.28	3871.25
434.47	3922.74
434.66	4128.70
434.85	4063.17
435.03	4109.98
435.22	4297.22
435.41	4545.32
435.59	4402.55
435.78	4301.90
435.97	4339.35
436.16	4344.03
436.34	4154.45
436.53	4255.09
436.72	4229.35
436.90	4173.18
437.09	4362.76
437.28	4114.66
437.46	4297.22
437.65	4337.01
437.84	4294.88
438.02	4346.37
438.21	4409.57
438.40	4269.14
438.58	4461.06
438.77	4351.06
438.96	4449.36
439.14	4449.36
439.33	4503.19
439.52	4601.49
439.70	4517.23
439.89	4676.39
440.08	4582.77
440.26	4943.21
440.45	4704.48
440.63	4711.50
440.82	4964.28
441.01	4873.00
441.19	5018.11
441.38	4952.57
441.57	4954.91
441.75	5165.56
441.94	5153.86
442.12	5078.96
442.31	5198.33
442.50	5247.48
442.68	5100.03
442.87	5284.93
443.05	5240.46
443.24	5341.10
443.43	5341.10
443.61	5310.68
443.80	5305.99
443.98	5111.73
444.17	5095.35
444.35	5263.86
444.54	5394.93
444.73	5467.49
444.91	5343.44
445.10	5467.49
445.28	5439.40
445.47	5221.74
445.65	5350.46
445.84	5392.59
446.02	5607.92
446.21	5577.50
446.39	5406.64
446.58	5420.68
446.77	5352.81
446.95	5401.96
447.14	5341.10
447.32	5568.13
447.51	5331.74
447.69	5394.93
447.88	5500.26
448.06	5640.69
448.25	5425.36
448.43	5645.37
448.62	5568.13
448.80	5565.79
448.99	5755.38
449.17	5720.27
449.36	5504.94
449.54	5643.03
449.73	5741.33
449.91	5858.36
450.10	5643.03
450.28	5792.83
450.46	5818.57
450.65	5762.40
450.83	5919.21
451.02	5956.66
451.20	6064.33
451.39	5839.64
451.57	5923.90
451.76	5900.49
451.94	5746.02
452.13	6071.35
452.31	5970.71
452.49	6064.33
452.68	6038.58
452.86	6054.97
453.05	6162.63
453.23	6195.40
453.42	6010.50
453.60	6143.91
453.78	6036.24
453.97	6113.48
454.15	6242.21
454.34	6139.23
454.52	6312.42
454.70	6221.14
454.89	6307.74
455.07	6429.45
455.26	6181.35
455.44	6359.24
455.62	6293.70
455.81	6300.72
455.99	6321.79
456.17	6298.38
456.36	6303.06
456.54	6670.53
456.73	6548.82
456.91	6724.36
457.09	6719.68
457.28	6918.62
457.46	6619.04
457.64	6813.30
457.83	6836.70
458.01	6815.64
458.19	6871.81
458.38	6682.23
458.56	6967.77
458.74	7002.88
458.93	6841.39
459.11	6918.62
459.29	6918.62
459.48	7073.10
459.66	7089.48
459.84	7166.72
460.03	7117.57
460.21	7054.37
460.39	7042.67
460.57	7133.95
460.76	7199.49
460.94	7283.75
461.12	7194.81
461.31	7192.47
461.49	7143.32
461.67	7119.91
461.85	7262.68
462.04	7169.06
462.22	7810.37
462.40	7442.90
462.59	7262.68
462.77	7531.84
462.95	7410.14
463.13	7363.33
463.32	7442.90
463.50	7634.83
463.68	7529.50
463.86	7515.46
464.05	7527.16
464.23	7595.04
464.41	7730.79
464.59	7456.95
464.78	7634.83
464.96	7648.87
465.14	7541.21
465.32	7653.55
465.50	7740.15
465.69	7852.50
465.87	7836.11
466.05	7683.98
466.23	7651.21
466.41	7812.71
466.60	8072.51
466.78	7648.87
466.96	7744.83
467.14	7875.90
467.32	7810.37
467.51	7915.69
467.69	7896.97
467.87	7918.03
468.05	8088.89
468.23	7913.35
468.41	7988.25
468.60	8154.43
468.78	8196.56
468.96	8046.76
469.14	8250.39
469.32	8327.63
469.50	7927.39
469.69	8201.24
469.87	8386.14
470.05	8528.91
470.23	8449.33
470.41	8243.37
470.59	8454.02
470.77	8334.65
470.95	8538.27
471.14	8655.30
471.32	8526.57
471.50	8706.79
471.68	8805.10
471.86	8720.84
472.04	8716.16
472.22	9123.41
472.40	8945.53
472.58	8940.85
472.77	8952.55
472.95	8978.30
473.13	9156.18
473.31	8931.48
473.49	9130.43
473.67	9144.47
473.85	9284.91
474.03	9387.89
474.21	9437.04
474.39	9549.39
474.57	9296.61
474.75	9563.43
474.93	9738.97
475.12	9556.41
475.30	9736.63
475.48	9593.86
475.66	9799.82
475.84	9626.62
476.02	9912.17
476.20	9666.41
476.38	10190.69
476.56	10157.92
476.74	10228.14
476.92	10080.69
477.10	10242.18
477.28	10485.60
477.46	10120.48
477.64	10324.10
477.82	10464.54
478.00	10731.36
478.18	10637.73
478.36	10843.70
478.54	10972.43
478.72	10993.50
478.90	10827.32
479.08	11314.15
479.26	11215.85
479.44	11272.02
479.62	11363.30
479.80	11665.23
479.98	11653.53
480.16	11822.05
480.34	11515.44
480.52	11875.88
480.70	11817.36
480.88	11990.56
481.06	11913.33
481.24	11901.62
481.41	12135.68
481.59	12432.93
481.77	12283.13
481.95	12379.09
482.13	12608.47
482.31	12442.29
482.49	12657.62
482.67	12833.16
482.85	13036.78
483.03	13179.56
483.21	13352.76
483.39	13364.46
483.57	13500.21
483.74	13357.44
483.92	13598.51
484.10	13329.35
484.28	13881.72
484.46	13778.73
484.64	14436.42
484.82	14019.81
485.00	14443.45
485.18	14338.12
485.35	14633.03
485.53	14525.36
485.71	14768.78
485.89	15152.63
486.07	14902.19
486.25	14803.89
486.43	15105.82
486.61	15248.59
486.78	15484.98
486.96	15377.32
487.14	15651.16
487.32	15456.90
487.50	15800.96
487.68	15793.94
487.85	15901.60
488.03	16203.53
488.21	16442.26
488.39	16570.99
488.57	16517.16
488.75	16580.36
488.92	17109.32
489.10	16936.12
489.28	17202.94
489.46	17411.25
489.64	17273.15
489.81	17738.92
489.99	17441.67
490.17	17724.88
490.35	17659.34
490.53	18005.74
490.70	18202.35
490.88	18019.78
491.06	18221.07
491.24	18251.50
491.41	18228.09
491.59	18649.39
491.77	18712.58
491.95	19049.62
492.13	19002.81
492.30	18771.10
492.48	19171.33
492.66	19325.80
492.84	19328.14
493.01	19311.76
493.19	19648.80
493.37	19749.44
493.54	19878.17
493.72	20070.09
493.90	20107.54
494.08	20058.39
494.25	20280.74
494.43	20554.58
494.61	20664.59
494.79	20744.17
494.96	20601.40
495.14	20685.65
495.32	20964.18
495.49	21095.25
495.67	21348.03
495.85	21146.74
496.02	21153.76
496.20	21448.67
496.38	21612.51
496.55	21675.70
496.73	22256.15
496.91	22197.64
497.09	22033.80
497.26	22459.78
497.44	22319.35
497.62	22389.56
497.79	22705.54
497.97	22499.57
498.14	22670.43
498.32	22766.39
498.50	23042.57
498.67	23175.98
498.85	23194.71
499.03	23180.67
499.20	23506.00
499.38	23417.06
499.56	23728.35
499.73	23836.02
499.91	24140.29
500.08	23943.68
500.26	23791.55
500.44	23873.46
500.61	24339.23
500.79	24041.98
500.97	24353.27
501.14	24290.08
501.32	24795.64
501.49	24687.97
501.67	24496.05
501.84	24479.66
502.02	24744.14
502.20	24992.24
502.37	24943.09
502.55	24954.79
502.72	25160.76
502.90	24907.98
503.07	24931.39
503.25	25364.39
503.43	24833.08
503.60	25511.84
503.78	25479.07
503.95	25638.23
504.13	25568.01
504.30	25867.60
504.48	25617.16
504.65	25799.73
504.83	26527.63
505.01	26384.86
505.18	26082.93
505.36	26478.48
505.53	26382.52
505.71	26424.65
505.88	26618.91
506.06	26464.44
506.23	26492.52
506.41	26764.03
506.58	26953.61
506.76	27180.64
506.93	27035.53
507.11	26897.44
507.28	26850.63
507.46	27227.45
507.63	27447.46
507.81	27477.89
507.98	27419.38
508.16	27690.88
508.33	27913.23
508.50	27878.12
508.68	27985.79
508.85	27903.87
509.03	27908.55
509.20	28201.11
509.38	28489.00
509.55	28294.74
509.73	28573.26
509.90	28283.03
510.08	28748.80
510.25	28603.69
510.42	28606.03
510.60	28814.34
510.77	28823.70
510.95	29111.58
511.12	28704.33
511.30	29132.65
511.47	29085.84
511.64	29509.47
511.82	29240.31
511.99	29364.36
512.17	29752.89
512.34	29572.67
512.51	29638.20
512.69	29853.53
512.86	30087.59
513.04	29998.65
513.21	30295.89
513.38	30391.86
513.56	30068.86
513.73	30345.05
513.90	30396.54
514.08	30169.51
514.25	30464.41
514.43	30529.95
514.60	30895.07
514.77	30845.92
514.95	30864.64
515.12	30614.21
515.29	30764.00
515.47	30941.88
515.64	31051.89
515.81	31239.13
515.99	31295.30
516.16	31508.29
516.33	31564.46
516.51	31466.16
516.68	31229.77
516.85	31365.52
517.03	31452.12
517.20	31768.09
517.37	31634.68
517.54	31922.57
517.72	31597.23
517.89	32105.13
518.06	31981.08
518.24	32278.33
518.41	32053.64
518.58	32034.91
518.75	32044.27
518.93	32507.70
519.10	32444.51
519.27	32732.39
519.45	32828.35
519.62	32620.05
519.79	32725.37
519.96	33064.75
520.14	33020.28
520.31	32797.93
520.48	32779.20
520.65	33067.09
520.83	33352.63
521.00	32774.52
521.17	33640.52
521.34	33111.56
521.52	33366.68
521.69	33649.88
521.86	33804.36
522.03	33797.34
522.20	33432.21
522.38	33958.83
522.55	33642.86
522.72	33926.07
522.89	33961.17
523.07	33986.92
523.24	34265.44
523.41	34817.81
523.58	34003.30
523.75	34403.53
523.92	34054.79
524.10	34391.83
524.27	34913.77
524.44	34651.63
524.61	34991.01
524.78	35021.44
524.96	34801.43
525.13	34787.38
525.30	35246.13
525.47	34829.51
525.64	35220.38
525.81	34995.69
525.98	35372.52
526.16	35391.24
526.33	35468.48
526.50	35557.42
526.67	34972.28
526.84	35178.25
527.01	35220.38
527.18	35220.38
527.36	35967.01
527.53	36128.51
527.70	35936.59
527.87	35796.15
528.04	35615.93
528.21	35805.52
528.38	35852.33
528.55	36203.41
528.72	35763.39
528.89	35899.14
529.07	35793.81
529.24	36187.02
529.41	36524.06
529.58	35981.06
529.75	36776.84
529.92	36629.38
530.09	36825.99
530.26	36477.25
530.43	36678.54
530.60	36856.42
530.77	36573.21
530.94	36495.97
531.11	36912.59
531.28	36863.44
531.46	36973.44
531.63	36987.49
531.80	37212.18
531.97	37172.39
532.14	37345.59
532.31	36697.26
532.48	37256.65
532.65	37165.37
532.82	37118.56
532.99	37504.74
533.16	37371.33
533.33	37748.16
533.50	38227.97
533.67	37984.55
533.84	37883.91
534.01	37268.35
534.18	37090.47
534.35	37944.76
534.52	37888.59
534.69	38005.62
534.86	38490.11
535.03	37919.02
535.20	38260.74
535.37	38082.86
535.54	38029.02
535.71	38169.46
535.88	37895.61
536.05	38384.79
536.22	38225.63
536.38	38946.51
536.55	38813.10
536.72	38300.53
536.89	38604.80
537.06	38242.01
537.23	38609.48
537.40	38295.85
537.57	38387.13
537.74	38810.76
537.91	39166.52
538.08	39342.06
538.25	38796.72
538.42	39297.59
538.59	38988.64
538.75	39152.48
538.92	39239.08
539.09	39267.17
539.26	39377.17
539.43	39414.62
539.60	39594.84
539.77	39201.63
539.94	39318.66
540.11	39688.46
540.28	39775.06
540.44	39950.60
540.61	39665.06
540.78	39927.20
540.95	40030.18
541.12	39856.98
541.29	40601.27
541.46	40201.04
541.62	40149.55
541.79	40491.27
541.96	39971.67
542.13	40254.87
542.30	40376.58
542.47	40449.14
542.63	40814.26
542.80	41137.26
542.97	41265.99
543.14	40914.90
543.31	40704.26
543.48	40769.79
543.64	41216.83
543.81	41301.09
543.98	41483.66
544.15	40774.47
544.32	41710.69
544.48	41659.20
544.65	41474.29
544.82	40893.84
544.99	41528.13
545.16	41574.94
545.32	41422.80
545.49	41647.49
545.66	42464.34
545.83	42541.58
546.00	42656.26
546.16	42101.56
546.33	41792.61
546.50	41478.97
546.67	41284.71
546.83	41139.60
547.00	41556.21
547.17	41488.34
547.34	41560.89
547.50	41544.51
547.67	42333.27
547.84	41900.27
548.00	42183.48
548.17	42057.09
548.34	41741.11
548.51	42335.61
548.67	41860.48
548.84	42347.31
549.01	41893.25
549.18	41837.08
549.34	42066.45
549.51	41942.40
549.68	42183.48
549.84	42101.56
550.01	42230.29
550.18	42127.30
550.34	42293.48
550.51	42344.97
550.68	42410.51
550.84	42246.67
551.01	41989.21
551.18	41813.67
551.34	42106.24
551.51	42368.38
551.68	42223.26
551.84	42714.78
552.01	42295.82
552.18	42370.72
552.34	42534.56
552.51	42604.77
552.68	41977.51
552.84	42600.09
553.01	42698.39
553.18	42518.17
553.34	43189.91
553.51	42649.24
553.67	42834.14
553.84	43477.79
554.01	43107.99
554.17	42972.24
554.34	42454.98
554.51	43030.75
554.67	43112.67
554.84	43100.97
555.00	43152.46
555.17	43033.09
555.33	43136.07
555.50	43096.28
555.67	42511.15
555.83	43529.28
556.00	42696.05
556.16	43559.71
556.33	43086.92
556.50	43084.58
556.66	43393.53
556.83	43454.39
556.99	43845.26
557.16	43234.38
557.32	43548.01
557.49	43845.26
557.65	43447.36
557.82	43192.25
557.98	43077.56
558.15	43784.40
558.32	43475.45
558.48	43646.31
558.65	43311.61
558.81	43510.56
558.98	43526.94
559.14	43887.39
559.31	42986.28
559.47	43711.84
559.64	43636.95
559.80	44058.24
559.97	43863.98
560.13	43267.14
560.30	43938.88
560.46	43786.74
560.63	43648.65
560.79	44158.89
560.96	43856.96
561.12	43988.03
561.29	43999.73
561.45	44041.86
561.61	43676.74
561.78	43819.51
561.94	44535.71
562.11	44233.78
562.27	43920.15
562.44	43849.94
562.60	44182.29
562.77	44048.88
562.93	44137.82
563.10	44418.69
563.26	43686.10
563.42	44208.04
563.59	44388.26
563.75	44704.23
563.92	44498.26
564.08	44060.58
564.24	44577.84
564.41	44109.74
564.57	44360.17
564.74	44355.49
564.90	44055.90
565.07	44390.60
565.23	44114.42
565.39	44137.82
565.56	44561.46
565.72	44219.74
565.88	44315.70
566.05	44058.24
566.21	44261.87
566.38	44708.91
566.54	44189.31
566.70	44800.19
566.87	45043.61
567.03	44259.53
567.19	44737.00
567.36	44676.15
567.52	44395.28
567.68	44320.38
567.85	44442.09
568.01	45013.18
568.17	44446.77
568.34	44547.42
568.50	44409.32
568.66	44381.24
568.83	44542.74
568.99	44526.35
569.15	44488.90
569.32	44432.73
569.48	44615.29
569.64	44629.34
569.81	44746.36
569.97	44465.50
570.13	44844.66
570.30	44449.11
570.46	44641.04
570.62	44608.27
570.78	44603.59
570.95	44432.73
571.11	44481.88
571.27	44282.94
571.43	44545.08
571.60	44287.62
571.76	44533.37
571.92	44669.12
572.09	45291.71
572.25	44987.44
572.41	45067.02
572.57	44868.07
572.74	44767.43
572.90	44751.04
573.06	44905.52
573.22	44631.68
573.38	44982.76
573.55	44919.56
573.71	45277.66
573.87	45205.11
574.03	45123.19
574.20	45151.27
574.36	44685.51
574.52	44896.16
574.68	44942.97
574.84	44999.14
575.01	44978.07
575.17	44645.72
575.33	45085.74
575.49	45055.31
575.65	45074.04
575.82	44879.77
575.98	44500.61
576.14	44875.09
576.30	45076.38
576.46	44584.86
576.62	44753.38
576.79	45059.99
576.95	44910.20
577.11	45242.56
577.27	45055.31
577.43	45015.52
577.59	45010.84
577.75	44978.07
577.92	44795.51
578.08	44762.75
578.24	44875.09
578.40	44966.37
578.56	45703.64
578.72	44947.65
578.88	45478.95
579.04	45715.34
579.21	44872.75
579.37	45532.78
579.53	45216.81
579.69	44893.82
579.85	44905.52
580.01	45471.93
580.17	45301.07
580.33	45397.03
580.49	45319.79
580.65	45270.64
580.82	45539.80
580.98	45170.00
581.14	45457.88
581.30	45282.34
581.46	44797.85
581.62	44818.92
581.78	45013.18
581.94	45184.04
582.10	44971.05
582.26	45387.67
582.42	45202.77
582.58	45326.81
582.74	45448.52
582.90	45256.60
583.06	45518.74
583.22	45083.40
583.38	45347.88
583.54	45188.72
583.70	45310.43
583.86	45067.02
584.02	45170.00
584.18	45331.50
584.34	45696.62
584.50	45495.33
584.66	45352.56
584.82	45289.37
584.98	45331.50
585.14	45481.29
585.30	45109.14
585.46	44938.29
585.62	45095.10
585.78	44912.54
585.94	45146.59
586.10	45315.11
586.26	45579.59
586.42	45907.27
586.58	45202.77
586.74	45174.68
586.90	45228.51
587.06	44690.19
587.22	45041.27
587.38	45179.36
587.54	45144.25
587.70	45265.96
587.86	45205.11
588.02	45436.82
588.18	45698.96
588.34	45237.87
588.49	45287.03
588.65	45151.27
588.81	45654.49
588.97	45837.05
589.13	45270.64
589.29	45593.64
589.45	45254.26
589.61	45661.51
589.77	46017.27
589.93	45317.45
590.08	45965.78
590.24	45738.75
590.40	45628.74
590.56	45890.88
590.72	45820.67
590.88	45198.09
