SpectraSuite Data File
++++++++++++++++++++++++++++++++++++
Date: Tue Oct 01 18:27:25 GMT-05:00 2013
User: stostad
Dark Spectrum Present: No
Reference Spectrum Present: No
Number of Sampled Component Spectra: 1
Spectrometers: USB2+H05261
Integration Time (usec): 100000 (USB2+H05261)
Spectra Averaged: 1 (USB2+H05261)
Boxcar Smoothing: 0 (USB2+H05261)
Correct for Electrical Dark: No (USB2+H05261)
Strobe/Lamp Enabled: No (USB2+H05261)
Correct for Detector Non-linearity: No (USB2+H05261)
Correct for Stray Light: No (USB2+H05261)
Number of Pixels in Processed Spectrum: 2048
>>>>>Begin Processed Spectral Data<<<<<
365.73	105.32
365.92	105.32
366.12	105.32
366.32	0.00
366.52	0.00
366.72	0.00
366.91	0.00
367.11	0.00
367.31	0.00
367.51	0.00
367.70	14.04
367.90	28.09
368.10	4.68
368.30	0.00
368.49	0.00
368.69	0.00
368.89	0.00
369.09	0.00
369.28	0.00
369.48	0.00
369.68	51.49
369.87	49.15
370.07	44.47
370.27	32.77
370.47	102.98
370.66	264.48
370.86	285.55
371.06	294.91
371.25	308.95
371.45	337.04
371.65	330.02
371.84	327.68
372.04	304.27
372.24	318.31
372.44	304.27
372.63	400.23
372.83	437.68
373.03	383.85
373.22	400.23
373.42	341.72
373.62	376.83
373.81	421.30
374.01	409.59
374.21	463.43
374.40	472.79
374.60	475.13
374.79	435.34
374.99	416.62
375.19	444.70
375.38	486.83
375.58	404.91
375.78	421.30
375.97	388.53
376.17	526.62
376.37	447.04
376.56	535.98
376.76	521.94
376.95	451.72
377.15	543.00
377.35	454.06
377.54	517.26
377.74	440.02
377.93	421.30
378.13	496.19
378.33	543.00
378.52	491.51
378.72	573.43
378.91	589.82
379.11	440.02
379.31	545.34
379.50	409.59
379.70	500.87
379.89	571.09
380.09	491.51
380.28	500.87
380.48	564.07
380.68	500.87
380.87	500.87
381.07	601.52
381.26	571.09
381.46	648.33
381.65	601.52
381.85	493.85
382.04	547.69
382.24	578.11
382.43	610.88
382.63	592.16
382.83	594.50
383.02	645.99
383.22	678.76
383.41	554.71
383.61	648.33
383.80	636.63
384.00	631.94
384.19	589.82
384.39	594.50
384.58	688.12
384.78	660.03
384.97	634.29
385.17	678.76
385.36	638.97
385.56	713.86
385.75	627.26
385.95	638.97
386.14	634.29
386.34	718.54
386.53	674.07
386.72	664.71
386.92	723.23
387.11	697.48
387.31	697.48
387.50	688.12
387.70	702.16
387.89	711.52
388.09	716.20
388.28	709.18
388.48	662.37
388.67	699.82
388.86	653.01
389.06	720.88
389.25	786.42
389.45	760.67
389.64	800.46
389.84	823.87
390.03	779.40
390.22	763.01
390.42	739.61
390.61	763.01
390.81	727.91
391.00	755.99
391.19	802.80
391.39	711.52
391.58	788.76
391.78	812.17
391.97	877.70
392.16	807.48
392.36	908.13
392.55	856.64
392.75	856.64
392.94	863.66
393.13	938.55
393.33	854.30
393.52	938.55
393.71	940.90
393.91	877.70
394.10	891.74
394.29	950.26
394.49	816.85
394.68	908.13
394.88	891.74
395.07	983.02
395.26	880.04
395.46	992.39
395.65	994.73
395.84	983.02
396.04	1064.94
396.23	1039.20
396.42	992.39
396.62	1104.73
396.81	985.37
397.00	971.32
397.19	1076.65
397.39	1060.26
397.58	1111.75
397.77	1062.60
397.97	1114.10
398.16	1043.88
398.35	1097.71
398.55	1078.99
398.74	1041.54
398.93	1163.25
399.12	1109.41
399.32	1067.28
399.51	1186.65
399.70	1203.04
399.90	1177.29
400.09	1245.16
400.28	1252.19
400.47	1128.14
400.67	1233.46
400.86	1277.93
401.05	1235.80
401.24	1296.66
401.44	1376.24
401.63	1217.08
401.82	1338.79
402.01	1275.59
402.21	1390.28
402.40	1418.36
402.59	1270.91
402.78	1313.04
402.97	1280.27
403.17	1394.96
403.36	1371.55
403.55	1481.56
403.74	1439.43
403.93	1446.45
404.13	1533.05
404.32	1556.46
404.51	1537.73
404.70	1582.20
404.89	1577.52
405.09	1575.18
405.28	1535.39
405.47	1565.82
405.66	1687.53
405.85	1629.01
406.05	1682.85
406.24	1736.68
406.43	1561.14
406.62	1668.80
406.81	1760.08
407.00	1701.57
407.20	1710.93
407.39	1781.15
407.58	1781.15
407.77	1877.11
407.96	1823.28
408.15	1881.79
408.34	1783.49
408.54	1834.98
408.73	1900.52
408.92	1914.56
409.11	1975.41
409.30	2003.50
409.49	1994.14
409.68	2008.18
409.87	2050.31
410.07	1937.96
410.26	2050.31
410.45	2040.95
410.64	2033.93
410.83	2113.50
411.02	2003.50
411.21	2183.72
411.40	2134.57
411.59	2244.57
411.78	2176.70
411.98	2300.75
412.17	2218.83
412.36	2209.47
412.55	2352.24
412.74	2279.68
412.93	2312.45
413.12	2375.64
413.31	2410.75
413.50	2359.26
413.69	2422.45
413.88	2546.50
414.07	2443.52
414.26	2532.46
414.45	2583.95
414.64	2593.31
414.83	2644.81
415.02	2593.31
415.22	2689.28
415.41	2768.85
415.60	2761.83
415.79	2689.28
415.98	2918.65
416.17	2925.67
416.36	2761.83
416.55	2726.72
416.74	2928.01
416.93	2860.13
417.12	2972.48
417.31	2965.46
417.50	3080.14
417.69	3155.04
417.88	3000.57
418.07	2979.50
418.26	3038.02
418.45	2984.18
418.64	3143.34
418.83	3220.58
419.02	3117.59
419.21	3251.00
419.39	3229.94
419.58	3150.36
419.77	3145.68
419.96	3276.75
420.15	3368.03
420.34	3225.26
420.53	3382.07
420.72	3400.80
420.91	3356.33
421.10	3335.26
421.29	3461.65
421.48	3281.43
421.67	3527.19
421.86	3447.61
422.05	3379.73
422.24	3414.84
422.43	3379.73
422.61	3454.63
422.80	3583.36
422.99	3602.08
423.18	3538.89
423.37	3555.27
423.56	3597.40
423.75	3503.78
423.94	3414.84
424.13	3349.31
424.32	3337.60
424.50	3749.54
424.69	3662.94
424.88	3714.43
425.07	3527.19
425.26	3548.25
425.45	3588.04
425.64	3742.52
425.83	3716.77
426.01	3723.79
426.20	3684.00
426.39	3693.37
426.58	3693.37
426.77	3681.66
426.96	3700.39
427.15	3735.50
427.33	3716.77
427.52	3723.79
427.71	3824.44
427.90	3906.35
428.09	3721.45
428.28	3981.25
428.46	3927.42
428.65	3775.28
428.84	4056.15
429.03	4163.81
429.22	3679.32
429.40	3967.21
429.59	4088.92
429.78	3983.59
429.97	3801.03
430.16	3990.61
430.34	4053.81
430.53	4159.13
430.72	4105.30
430.91	4018.70
431.10	4142.75
431.28	3999.98
431.47	4238.71
431.66	4243.39
431.85	4224.67
432.03	4248.07
432.22	4388.50
432.41	4351.06
432.60	4423.61
432.79	4325.31
432.97	4227.01
433.16	4407.23
433.35	4271.48
433.54	4358.08
433.72	4517.23
433.91	4442.34
434.10	4500.85
434.28	4400.21
434.47	4517.23
434.66	4550.00
434.85	4411.91
435.03	4655.33
435.22	4575.75
435.41	4755.97
435.59	4676.39
435.78	4615.54
435.97	4786.40
436.16	4575.75
436.34	4716.18
436.53	4751.29
436.72	4807.46
436.90	4699.80
437.09	4669.37
437.28	4816.82
437.46	4779.37
437.65	4903.42
437.84	4983.00
438.02	4980.66
438.21	4887.04
438.40	4844.91
438.58	5179.61
438.77	5167.90
438.96	5008.75
439.14	5158.54
439.33	5240.46
439.52	5207.69
439.70	5256.84
439.89	5383.23
440.08	5401.96
440.26	5514.30
440.45	5462.81
440.63	5289.61
440.82	5621.97
441.01	5378.55
441.19	5476.85
441.38	5743.67
441.57	5671.12
441.75	5703.89
441.94	5830.27
442.12	5755.38
442.31	5802.19
442.50	5991.77
442.68	5851.34
442.87	5774.10
443.05	5926.24
443.24	5930.92
443.43	5790.49
443.61	5799.85
443.80	6148.59
443.98	5856.02
444.17	5884.11
444.35	6059.65
444.54	6204.76
444.73	6083.05
444.91	6036.24
445.10	6010.50
445.28	6078.37
445.47	6094.76
445.65	6090.07
445.84	6221.14
446.02	6216.46
446.21	6108.80
446.39	6057.31
446.58	6331.15
446.77	6176.67
446.95	6237.53
447.14	6258.59
447.32	6118.16
447.51	6169.65
447.69	6286.68
447.88	6265.61
448.06	6284.34
448.25	6237.53
448.43	6312.42
448.62	6406.05
448.80	6232.85
448.99	6424.77
449.17	6345.19
449.36	6188.38
449.54	6546.48
449.73	6623.72
449.91	6604.99
450.10	6630.74
450.28	6684.57
450.46	6677.55
450.65	6679.89
450.83	6670.53
451.02	6480.94
451.20	6703.29
451.39	6700.95
451.57	6848.41
451.76	6754.79
451.94	6715.00
452.13	6836.70
452.31	6693.93
452.49	6696.27
452.68	6782.87
452.86	6775.85
453.05	6773.51
453.23	6993.52
453.42	6904.58
453.60	6906.92
453.78	6810.96
453.97	6864.79
454.15	6848.41
454.34	6998.20
454.52	7159.70
454.70	7129.27
454.89	7143.32
455.07	7063.74
455.26	7194.81
455.44	7229.91
455.62	7124.59
455.81	7302.47
455.99	7248.64
456.17	7267.36
456.36	7344.60
456.54	7566.95
456.73	7688.66
456.91	7735.47
457.09	7693.34
457.28	7735.47
457.46	7669.94
457.64	7695.68
457.83	7852.50
458.01	7613.76
458.19	7796.32
458.38	7768.24
458.56	7754.19
458.74	7777.60
458.93	7903.99
459.11	8056.12
459.29	7808.03
459.48	7772.92
459.66	7887.61
459.84	8084.21
460.03	8060.80
460.21	7915.69
460.39	8229.32
460.57	7768.24
460.76	8280.82
460.94	8243.37
461.12	8175.49
461.31	8196.56
461.49	8126.34
461.67	8329.97
461.85	8353.37
462.04	8386.14
462.22	8629.56
462.40	8252.73
462.59	8456.36
462.77	8659.98
462.95	8669.34
463.13	8489.12
463.32	8468.06
463.50	8594.45
463.68	8503.17
463.86	8709.13
464.05	8580.40
464.23	8528.91
464.41	8692.75
464.59	8690.41
464.78	8891.70
464.96	8898.72
465.14	8613.17
465.32	8926.80
465.50	8917.44
465.69	8966.59
465.87	8566.36
466.05	8725.52
466.23	8849.57
466.41	9125.75
466.60	9100.00
466.78	8910.42
466.96	8990.00
467.14	8882.33
467.32	9142.13
467.51	9240.44
467.69	8954.89
467.87	9027.45
468.05	9268.52
468.23	9095.32
468.41	9287.25
468.60	9338.74
468.78	9270.86
468.96	9202.99
469.14	9334.06
469.32	9444.06
469.50	9202.99
469.69	9626.62
469.87	9558.75
470.05	9582.15
470.23	9628.96
470.41	9600.88
470.59	9633.64
470.77	9614.92
470.95	9701.52
471.14	9818.55
471.32	9600.88
471.50	10136.86
471.68	10211.76
471.86	10115.80
472.04	10176.65
472.22	10195.37
472.40	10087.71
472.58	10183.67
472.77	10305.38
472.95	10267.93
473.13	10546.45
473.31	10298.36
473.49	10258.57
473.67	10235.16
473.85	10314.74
474.03	10747.74
474.21	10658.80
474.39	10736.04
474.57	10675.18
474.75	11061.37
474.93	11110.52
475.12	10876.47
475.30	10986.47
475.48	11084.78
475.66	11194.78
475.84	11159.67
476.02	11536.50
476.20	11204.14
476.38	11489.69
476.56	11719.06
476.74	11480.33
476.92	11346.92
477.10	11342.24
477.28	11824.39
477.46	11932.05
477.64	11889.92
477.82	12114.61
478.00	12297.17
478.18	12266.75
478.36	12465.69
478.54	12493.78
478.72	12620.17
478.90	12699.75
479.08	12737.20
479.26	13139.77
479.44	12879.97
479.62	12982.95
479.80	13130.41
479.98	13277.86
480.16	13638.30
480.34	13458.08
480.52	13565.74
480.70	13731.92
480.88	13245.09
481.06	13659.37
481.24	13446.38
481.41	14148.54
481.59	14370.89
481.77	14740.69
481.95	14464.51
482.13	14333.44
482.31	14436.42
482.49	14836.66
482.67	14614.30
482.85	14752.40
483.03	15269.66
483.21	15356.25
483.39	15403.07
483.57	15213.48
483.74	15594.99
483.92	15625.42
484.10	15747.12
484.28	15791.59
484.46	15847.77
484.64	16114.59
484.82	16343.96
485.00	16365.03
485.18	16875.26
485.35	16893.99
485.53	16828.45
485.71	16865.90
485.89	17027.40
486.07	16968.88
486.25	17446.35
486.43	17486.14
486.61	17687.43
486.78	17752.96
486.96	17703.81
487.14	17895.74
487.32	18092.34
487.50	18036.17
487.68	18298.31
487.85	18661.09
488.03	18890.46
488.21	19295.38
488.39	19229.84
488.57	19126.86
488.75	19412.40
488.92	19517.73
489.10	19646.46
489.28	19403.04
489.46	19693.27
489.64	19709.65
489.81	20451.60
489.99	20173.08
490.17	20713.74
490.35	20950.14
490.53	20648.21
490.70	20830.77
490.88	20952.48
491.06	21266.11
491.24	21149.08
491.41	21378.45
491.59	21511.86
491.77	21788.05
491.95	21795.07
492.13	21624.21
492.30	22111.04
492.48	22125.08
492.66	22146.15
492.84	22553.40
493.01	22707.88
493.19	22216.36
493.37	22752.35
493.54	22717.24
493.72	23381.95
493.90	23243.86
494.08	23477.91
494.25	24032.62
494.43	23672.18
494.61	23466.21
494.79	23651.11
494.96	23971.77
495.14	24133.26
495.32	24575.62
495.49	24142.63
495.67	24922.02
495.85	24793.29
496.02	25034.37
496.20	24900.96
496.38	24755.85
496.55	25289.49
496.73	25788.02
496.91	25364.39
497.09	25418.22
497.26	25825.47
497.44	26012.71
497.62	25949.52
497.79	26071.23
497.97	26087.61
498.14	26443.37
498.32	26588.49
498.50	26803.82
498.67	26916.16
498.85	26738.28
499.03	26876.37
499.20	26920.84
499.38	27042.55
499.56	27585.55
499.73	27487.25
499.91	27569.17
500.08	27800.88
500.26	27477.89
500.44	28004.51
500.61	28063.02
500.79	27990.47
500.97	28584.96
501.14	28240.90
501.32	28584.96
501.49	28395.38
501.67	28650.50
501.84	28746.46
502.02	28741.78
502.20	28926.68
502.37	28973.49
502.55	28889.23
502.72	29184.14
502.90	29130.31
503.07	29490.75
503.25	29673.31
503.43	29198.18
503.60	29921.41
503.78	29757.57
503.95	29392.45
504.13	29888.64
504.30	30122.69
504.48	30040.78
504.65	30462.07
504.83	30515.90
505.01	30792.09
505.18	30728.89
505.36	30930.18
505.53	30958.27
505.71	30972.31
505.88	30888.05
506.06	30700.81
506.23	31632.34
506.41	30937.20
506.58	31377.22
506.76	31321.05
506.93	31342.11
507.11	31672.13
507.28	31634.68
507.46	32126.19
507.63	31751.71
507.81	32100.45
507.98	31630.00
508.16	31922.57
508.33	32177.68
508.50	32219.81
508.68	32973.47
508.85	32938.36
509.03	32540.47
509.20	32453.87
509.38	32524.08
509.55	33113.90
509.73	33039.00
509.90	33244.97
510.08	33560.94
510.25	33315.19
510.42	33371.36
510.60	33598.39
510.77	33951.81
510.95	33998.62
511.12	33837.12
511.30	34043.09
511.47	34015.01
511.64	34349.70
511.82	34422.26
511.99	33940.11
512.17	34508.86
512.34	34380.13
512.51	35122.08
512.69	34700.78
512.86	34862.28
513.04	35388.90
513.21	34958.24
513.38	35065.91
513.56	35257.83
513.73	34965.26
513.90	35084.63
514.08	34939.52
514.25	35583.16
514.43	35723.60
514.60	35756.36
514.77	35810.20
514.95	35931.90
515.12	35931.90
515.29	35758.70
515.47	36725.35
515.64	36744.07
515.81	36636.41
515.99	35889.77
516.16	36297.03
516.33	36486.61
516.51	37053.02
516.68	36645.77
516.85	36397.67
517.03	37212.18
517.20	37273.03
517.37	37109.19
517.54	36755.77
517.72	36926.63
517.89	36744.07
518.06	36961.74
518.24	36954.72
518.41	37261.33
518.58	37942.42
518.75	37659.22
518.93	37488.36
519.10	37647.52
519.27	38080.52
519.45	37654.54
519.62	38005.62
519.79	38211.59
519.96	38424.57
520.14	38223.29
520.31	38132.01
520.48	38146.05
520.65	38550.96
520.83	38698.42
521.00	38529.90
521.17	38808.42
521.34	38960.56
521.52	38876.30
521.69	39267.17
521.86	39264.83
522.03	38876.30
522.20	39337.38
522.38	39510.58
522.55	39379.51
522.72	39405.26
522.89	39564.42
523.07	39852.30
523.24	39323.34
523.41	39775.06
523.58	39454.41
523.75	39686.12
523.92	39875.71
524.10	40130.83
524.27	40336.79
524.44	40474.88
524.61	40718.30
524.78	40287.64
524.96	40634.04
525.13	40376.58
525.30	40584.89
525.47	41181.73
525.64	40484.25
525.81	40685.53
525.98	40914.90
526.16	41258.96
526.33	40926.61
526.50	41017.89
526.67	40950.01
526.84	41090.44
527.01	41155.98
527.18	41841.76
527.36	41799.63
527.53	41361.95
527.70	41867.50
527.87	41673.24
528.04	41420.46
528.21	41762.18
528.38	41909.63
528.55	41813.67
528.72	41750.48
528.89	42120.28
529.07	41883.89
529.24	41860.48
529.41	42419.87
529.58	42124.96
529.75	42532.22
529.92	42581.37
530.09	42499.45
530.26	42873.93
530.43	42529.87
530.60	42391.78
530.77	42588.39
530.94	42906.70
531.11	42494.77
531.28	43199.27
531.46	43112.67
531.63	43175.86
531.80	43124.37
531.97	43236.72
532.14	42944.15
532.31	43180.54
532.48	43133.73
532.65	43543.33
532.82	43299.91
532.99	43768.02
533.16	43344.38
533.33	43627.59
533.50	43622.90
533.67	43365.45
533.84	43386.51
534.01	43662.69
534.18	43966.96
534.35	44287.62
534.52	44341.45
534.69	44549.76
534.86	44418.69
535.03	43782.06
535.20	43866.32
535.37	44479.54
535.54	44481.88
535.71	44191.65
535.88	44360.17
536.05	44493.58
536.22	44666.78
536.38	44737.00
536.55	44786.15
536.72	44641.04
536.89	44481.88
537.06	44765.09
537.23	44739.34
537.40	44938.29
537.57	44650.40
537.74	45265.96
537.91	45450.86
538.08	45045.95
538.25	44320.38
538.42	45123.19
538.59	45397.03
538.75	45069.36
538.92	45390.01
539.09	45666.19
539.26	45682.58
539.43	45067.02
539.60	45333.84
539.77	45507.04
539.94	45305.75
540.11	45748.11
540.28	46143.66
540.44	45757.47
540.61	45904.93
540.78	46171.75
540.95	45624.06
541.12	45872.16
541.29	46328.56
541.46	46237.28
541.62	46094.51
541.79	46232.60
541.96	46195.15
542.13	46295.80
542.30	46710.07
542.47	46862.21
542.63	46579.00
542.80	46553.26
542.97	46452.61
543.14	46850.50
543.31	46801.35
543.48	46859.87
543.64	47201.58
543.81	47136.05
543.98	47311.59
544.15	47381.80
544.32	46831.78
544.48	47674.37
544.65	46806.03
544.82	46843.48
544.99	47241.37
545.16	47964.60
545.32	47241.37
545.49	47800.76
545.66	47765.65
545.83	47622.88
546.00	47744.59
546.16	47611.18
546.33	47295.21
546.50	47346.70
546.67	47831.19
546.83	46965.19
547.00	47721.18
547.17	47786.72
547.34	47861.61
547.50	47903.74
547.67	48107.37
547.84	48371.85
548.00	48119.07
548.17	48210.35
548.34	48215.04
548.51	48535.69
548.67	48652.72
548.84	48512.28
549.01	48163.54
549.18	48046.52
549.34	48086.31
549.51	48432.71
549.68	48378.87
549.84	48177.59
550.01	48914.86
550.18	48861.02
550.34	48083.97
550.51	48521.65
550.68	48334.40
550.84	48423.34
551.01	48837.62
551.18	48418.66
551.34	48626.97
551.51	48835.28
551.68	49153.59
551.84	48945.28
552.01	48453.77
552.18	48762.72
552.34	48498.24
552.51	48802.51
552.68	48978.05
552.84	48898.47
553.01	49347.86
553.18	49352.54
553.34	48982.73
553.51	48968.69
553.67	49036.56
553.84	49125.50
554.01	49542.12
554.17	49411.05
554.34	49333.81
554.51	49315.09
554.67	49844.05
554.84	49404.03
555.00	49340.83
555.17	49806.60
555.33	49631.06
555.50	49411.05
555.67	49022.52
555.83	49441.48
556.00	49450.84
556.16	50380.03
556.33	49710.64
556.50	49825.32
556.66	49724.68
556.83	49874.48
556.99	49666.17
557.16	49996.18
557.32	49663.83
557.49	50057.04
557.65	50181.09
557.82	50251.30
557.98	50457.27
558.15	50136.62
558.32	50337.90
558.48	49876.82
558.65	49965.76
558.81	49911.92
558.98	49783.19
559.14	49844.05
559.31	49925.97
559.47	50089.80
559.64	50314.50
559.80	50850.48
559.97	50326.20
560.13	50061.72
560.30	49872.14
560.46	50082.78
560.63	49935.33
560.79	50436.20
560.96	50412.80
561.12	50330.88
561.29	50714.73
561.45	50485.36
561.61	50396.42
561.78	50370.67
561.94	50234.92
562.11	50567.27
562.27	50127.25
562.44	50349.60
562.60	50700.68
562.77	50696.00
562.93	50600.04
563.10	50801.33
563.26	50759.20
563.42	50983.89
563.59	50450.25
563.75	50279.39
563.92	50878.57
564.08	50611.74
564.24	50773.24
564.41	50707.71
564.57	51007.29
564.74	50876.22
564.90	50939.42
565.07	50490.04
565.23	50890.27
565.39	50684.30
565.56	50880.91
565.72	50798.99
565.88	50733.45
566.05	50941.76
566.21	50958.14
566.38	51133.68
566.54	50972.19
566.70	51023.68
566.87	51054.11
567.03	50948.78
567.19	51239.01
567.36	51037.72
567.52	51054.11
567.68	50997.93
567.85	50887.93
568.01	51461.36
568.17	50681.96
568.34	51114.96
568.50	51063.47
568.66	51026.02
568.83	51164.11
568.99	50878.57
569.15	50894.95
569.32	51161.77
569.48	50974.53
569.64	51026.02
569.81	51002.61
569.97	51454.34
570.13	51508.17
570.30	50988.57
570.46	51231.99
570.62	51264.75
570.78	51437.95
570.95	51407.53
571.11	51316.25
571.27	51171.13
571.43	51377.10
571.60	51468.38
571.76	51019.00
571.92	51323.27
572.09	51129.00
572.25	51121.98
572.41	51377.10
572.57	51309.22
572.74	51437.95
572.90	51372.42
573.06	51250.71
573.22	51547.96
573.38	51737.54
573.55	51400.50
573.71	51524.55
573.87	51419.23
574.03	51194.54
574.20	51278.80
574.36	51164.11
574.52	51276.46
574.68	51501.15
574.84	51339.65
575.01	51554.98
575.17	51529.23
575.33	51332.63
575.49	51332.63
575.65	51381.78
575.82	51543.28
575.98	51175.81
576.14	51545.62
576.30	51774.99
576.46	51657.96
576.62	51571.36
576.79	51976.28
576.95	51569.02
577.11	51660.30
577.27	51557.32
577.43	51477.74
577.59	51550.30
577.75	51758.61
577.92	51180.49
578.08	51494.13
578.24	51735.20
578.40	51950.53
578.56	51774.99
578.72	51679.03
578.88	51531.57
579.04	51587.75
579.21	51723.50
579.37	51346.67
579.53	51613.49
579.69	51545.62
579.85	51887.34
580.01	51971.60
580.17	51863.93
580.33	51845.21
580.49	51592.43
580.65	51877.97
580.82	51756.27
580.98	51508.17
581.14	51398.16
581.30	51447.32
581.46	51292.84
581.62	51906.06
581.78	51756.27
581.94	51901.38
582.10	51732.86
582.26	51744.56
582.42	51512.85
582.58	51746.90
582.74	51538.60
582.90	51569.02
583.06	51784.35
583.22	51845.21
583.38	51903.72
583.54	52247.78
583.70	52030.11
583.86	51723.50
584.02	51590.09
584.18	51906.06
584.34	51856.91
584.50	51688.39
584.66	51814.78
584.82	51686.05
584.98	51913.08
585.14	51620.52
585.30	51601.79
585.46	51636.90
585.62	51646.26
585.78	51709.46
585.94	51508.17
586.10	51798.40
586.26	51554.98
586.42	51714.14
586.58	51690.73
586.74	51512.85
586.90	51840.53
587.06	51709.46
587.22	52303.95
587.38	51903.72
587.54	52296.93
587.70	52081.60
587.86	52025.43
588.02	51749.24
588.18	51952.87
588.34	52107.35
588.49	51885.00
588.65	51955.21
588.81	51922.44
588.97	52509.92
589.13	52252.46
589.29	52268.84
589.45	52055.85
589.61	52186.92
589.77	51983.30
589.93	51863.93
590.08	52030.11
590.24	51896.70
590.40	52437.36
