SpectraSuite Data File
++++++++++++++++++++++++++++++++++++
Date: Fri Oct 04 11:39:56 GMT-05:00 2013
User: price-jones
Dark Spectrum Present: No
Reference Spectrum Present: No
Number of Sampled Component Spectra: 1
Spectrometers: USB2+H05261
Integration Time (usec): 100000 (USB2+H05261)
Spectra Averaged: 1 (USB2+H05261)
Boxcar Smoothing: 0 (USB2+H05261)
Correct for Electrical Dark: No (USB2+H05261)
Strobe/Lamp Enabled: No (USB2+H05261)
Correct for Detector Non-linearity: No (USB2+H05261)
Correct for Stray Light: No (USB2+H05261)
Number of Pixels in Processed Spectrum: 2048
>>>>>Begin Processed Spectral Data<<<<<
365.73	72.56
365.92	72.56
366.12	72.56
366.32	0.00
366.52	0.00
366.72	0.00
366.91	0.00
367.11	0.00
367.31	0.00
367.51	0.00
367.70	0.00
367.90	0.00
368.10	0.00
368.30	0.00
368.49	0.00
368.69	0.00
368.89	0.00
369.09	0.00
369.28	14.04
369.48	0.00
369.68	0.00
369.87	0.00
370.07	0.00
370.27	23.41
370.47	70.22
370.66	180.22
370.86	154.48
371.06	189.58
371.25	205.97
371.45	201.29
371.65	236.39
371.84	175.54
372.04	227.03
372.24	222.35
372.44	201.29
372.63	224.69
372.83	297.25
373.03	210.65
373.22	224.69
373.42	210.65
373.62	330.02
373.81	217.67
374.01	311.29
374.21	266.82
374.40	243.42
374.60	344.06
374.79	227.03
374.99	262.14
375.19	248.10
375.38	304.27
375.58	231.71
375.78	276.18
375.97	271.50
376.17	383.85
376.37	315.97
376.56	332.36
376.76	358.10
376.95	341.72
377.15	241.08
377.35	358.10
377.54	271.50
377.74	297.25
377.93	248.10
378.13	341.72
378.33	351.08
378.52	292.57
378.72	276.18
378.91	297.25
379.11	252.78
379.31	304.27
379.50	287.89
379.70	330.02
379.89	278.52
380.09	353.42
380.28	337.04
380.48	379.17
380.68	273.84
380.87	325.33
381.07	341.72
381.26	348.74
381.46	402.57
381.65	334.70
381.85	369.80
382.04	465.77
382.24	297.25
382.43	360.44
382.63	313.63
382.83	395.55
383.02	383.85
383.22	318.31
383.41	301.93
383.61	351.08
383.80	351.08
384.00	402.57
384.19	372.15
384.39	348.74
384.58	400.23
384.78	369.80
384.97	369.80
385.17	411.93
385.36	334.70
385.56	421.30
385.75	386.19
385.95	486.83
386.14	355.76
386.34	346.40
386.53	447.04
386.72	449.38
386.92	414.27
387.11	414.27
387.31	475.13
387.50	397.89
387.70	374.49
387.89	362.78
388.09	416.62
388.28	353.42
388.48	440.02
388.67	414.27
388.86	383.85
389.06	402.57
389.25	470.45
389.45	500.87
389.64	369.80
389.84	484.49
390.03	433.00
390.22	414.27
390.42	512.58
390.61	461.09
390.81	456.40
391.00	402.57
391.19	468.11
391.39	472.79
391.58	489.17
391.78	496.19
391.97	444.70
392.16	512.58
392.36	486.83
392.55	491.51
392.75	449.38
392.94	519.60
393.13	566.41
393.33	470.45
393.52	428.32
393.71	491.51
393.91	468.11
394.10	465.77
394.29	578.11
394.49	533.64
394.68	486.83
394.88	482.15
395.07	603.86
395.26	601.52
395.46	571.09
395.65	554.71
395.84	594.50
396.04	608.54
396.23	629.60
396.42	491.51
396.62	550.03
396.81	617.90
397.00	615.56
397.19	606.20
397.39	664.71
397.58	627.26
397.77	657.69
397.97	669.39
398.16	610.88
398.35	753.65
398.55	671.73
398.74	627.26
398.93	641.31
399.12	739.61
399.32	772.38
399.51	716.20
399.70	657.69
399.90	711.52
400.09	730.25
400.28	676.41
400.47	667.05
400.67	711.52
400.86	692.80
401.05	727.91
401.24	800.46
401.44	805.14
401.63	854.30
401.82	891.74
402.01	730.25
402.21	802.80
402.40	875.36
402.59	753.65
402.78	812.17
402.97	898.77
403.17	887.06
403.36	910.47
403.55	947.92
403.74	887.06
403.93	961.96
404.13	910.47
404.32	875.36
404.51	936.21
404.70	1036.86
404.89	978.34
405.09	1046.22
405.28	1032.18
405.47	1004.09
405.66	1001.75
405.85	1011.11
406.05	1095.37
406.24	978.34
406.43	919.83
406.62	1020.47
406.81	1170.27
407.00	1156.22
407.20	1074.31
407.39	1109.41
407.58	1109.41
407.77	1118.78
407.96	1125.80
408.15	1100.05
408.34	1128.14
408.54	1128.14
408.73	1160.91
408.92	1090.69
409.11	1275.59
409.30	1235.80
409.49	1181.97
409.68	1289.64
409.87	1224.10
410.07	1310.70
410.26	1198.35
410.45	1369.21
410.64	1291.98
410.83	1336.45
411.02	1322.40
411.21	1378.58
411.40	1413.68
411.59	1570.50
411.78	1455.81
411.98	1362.19
412.17	1399.64
412.36	1441.77
412.55	1537.73
412.74	1511.99
412.93	1497.94
413.12	1511.99
413.31	1659.44
413.50	1607.95
413.69	1511.99
413.88	1729.66
414.07	1661.78
414.26	1654.76
414.45	1570.50
414.64	1748.38
414.83	1849.02
415.02	1753.06
415.22	1832.64
415.41	1802.21
415.60	1755.40
415.79	1785.83
415.98	1832.64
416.17	1804.55
416.36	1879.45
416.55	1830.30
416.74	1895.83
416.93	1944.99
417.12	1961.37
417.31	2029.24
417.50	1984.77
417.69	2202.44
417.88	2015.20
418.07	1989.46
418.26	2134.57
418.45	2188.40
418.64	2179.04
418.83	2080.74
419.02	2108.82
419.21	2188.40
419.39	2139.25
419.58	2176.70
419.77	2092.44
419.96	2188.40
420.15	2230.53
420.34	2279.68
420.53	2202.44
420.72	2242.23
420.91	2167.34
421.10	2375.64
421.29	2321.81
421.48	2202.44
421.67	2347.56
421.86	2328.83
422.05	2284.36
422.24	2333.51
422.43	2328.83
422.61	2387.35
422.80	2263.30
422.99	2385.01
423.18	2408.41
423.37	2422.45
423.56	2399.05
423.75	2406.07
423.94	2396.71
424.13	2186.06
424.32	2289.04
424.50	2434.16
424.69	2492.67
424.88	2560.55
425.07	2466.92
425.26	2443.52
425.45	2359.26
425.64	2530.12
425.83	2427.14
426.01	2506.71
426.20	2396.71
426.39	2478.63
426.58	2394.37
426.77	2462.24
426.96	2459.90
427.15	2525.44
427.33	2548.84
427.52	2616.72
427.71	2597.99
427.90	2480.97
428.09	2525.44
428.28	2600.34
428.46	2565.23
428.65	2450.54
428.84	2605.02
429.03	2794.60
429.22	2626.08
429.40	2637.78
429.59	2708.00
429.78	2651.83
429.97	2565.23
430.16	2693.96
430.34	2719.70
430.53	2656.51
430.72	2822.69
430.91	2738.43
431.10	2689.28
431.28	2815.66
431.47	2904.60
431.66	2897.58
431.85	2766.51
432.03	2829.71
432.22	2813.32
432.41	2932.69
432.60	2855.45
432.79	2979.50
432.97	2932.69
433.16	2871.84
433.35	2953.76
433.54	2965.46
433.72	2904.60
433.91	3026.31
434.10	3021.63
434.28	2977.16
434.47	3119.93
434.66	3098.87
434.85	3150.36
435.03	3281.43
435.22	3321.22
435.41	3496.76
435.59	3651.24
435.78	3471.01
435.97	3365.69
436.16	3166.74
436.34	3105.89
436.53	3220.58
436.72	3225.26
436.90	3262.71
437.09	3234.62
437.28	3185.47
437.46	3176.11
437.65	3236.96
437.84	3431.23
438.02	3272.07
438.21	3417.18
438.40	3344.63
438.58	3368.03
438.77	3389.10
438.96	3384.41
439.14	3283.77
439.33	3590.38
439.52	3482.72
439.70	3609.11
439.89	3581.02
440.08	3646.55
440.26	3721.45
440.45	3592.72
440.63	3627.83
440.82	3679.32
441.01	3768.26
441.19	3644.21
441.38	3719.11
441.57	3887.63
441.75	3758.90
441.94	3810.39
442.12	3854.86
442.31	4044.45
442.50	4004.66
442.68	3871.25
442.87	3901.67
443.05	4002.32
443.24	3974.23
443.43	3967.21
443.61	4077.21
443.80	4161.47
443.98	3791.67
444.17	3880.61
444.35	4135.73
444.54	4093.60
444.73	4014.02
444.91	4065.51
445.10	4102.96
445.28	4070.19
445.47	4018.70
445.65	4007.00
445.84	4161.47
446.02	4168.49
446.21	4070.19
446.39	3983.59
446.58	4037.42
446.77	3908.69
446.95	3964.87
447.14	4126.36
447.32	4229.35
447.51	4051.47
447.69	4107.64
447.88	4163.81
448.06	4135.73
448.25	4107.64
448.43	4280.84
448.62	4117.00
448.80	4184.88
448.99	4191.90
449.17	4276.16
449.36	4011.68
449.54	4166.15
449.73	4224.67
449.91	4294.88
450.10	4311.27
450.28	4524.26
450.46	4367.44
450.65	4512.55
450.83	4505.53
451.02	4428.29
451.20	4362.76
451.39	4526.60
451.57	4517.23
451.76	4383.82
451.94	4470.42
452.13	4533.62
452.31	4458.72
452.49	4454.04
452.68	4552.34
452.86	4634.26
453.05	4601.49
453.23	4648.30
453.42	4582.77
453.60	4400.21
453.78	4690.43
453.97	4496.17
454.15	4671.71
454.34	4585.11
454.52	4755.97
454.70	4847.25
454.89	4739.58
455.07	4889.38
455.26	4664.69
455.44	4802.78
455.62	4802.78
455.81	4578.09
455.99	4760.65
456.17	4940.87
456.36	4875.34
456.54	4938.53
456.73	4793.42
456.91	5156.20
457.09	5076.62
457.28	5069.60
457.46	5107.05
457.64	5004.07
457.83	5078.96
458.01	4954.91
458.19	5107.05
458.38	5198.33
458.56	5125.77
458.74	5128.11
458.93	5093.01
459.11	5280.25
459.29	5174.92
459.48	5266.21
459.66	5214.71
459.84	5282.59
460.03	5390.25
460.21	5231.10
460.39	5205.35
460.57	5289.61
460.76	5441.75
460.94	5387.91
461.12	5249.82
461.31	5458.13
461.49	5357.49
461.67	5364.51
461.85	5575.16
462.04	5544.73
462.22	5827.93
462.40	5610.26
462.59	5511.96
462.77	5535.37
462.95	5418.34
463.13	5504.94
463.32	5626.65
463.50	5596.22
463.68	5661.76
463.86	5710.91
464.05	5528.35
464.23	5598.56
464.41	5521.32
464.59	5579.84
464.78	5600.90
464.96	5778.78
465.14	5748.36
465.32	5760.06
465.50	5776.44
465.69	5942.62
465.87	5720.27
466.05	5706.23
466.23	5774.10
466.41	5874.74
466.60	5921.56
466.78	5783.46
466.96	5900.49
467.14	5785.80
467.32	5849.00
467.51	6003.47
467.69	5898.15
467.87	6029.22
468.05	6029.22
468.23	5947.30
468.41	5928.58
468.60	5994.11
468.78	6040.92
468.96	5977.73
469.14	5940.28
469.32	6235.19
469.50	6033.90
469.69	6221.14
469.87	6186.04
470.05	6253.91
470.23	6363.92
470.41	6349.87
470.59	6377.96
470.77	6277.32
470.95	6420.09
471.14	6235.19
471.32	6375.62
471.50	6604.99
471.68	6324.13
471.86	6530.09
472.04	6537.12
472.22	6682.23
472.40	6408.39
472.58	6621.38
472.77	6492.65
472.95	6703.29
473.13	6738.40
473.31	6731.38
473.49	6560.52
473.67	6710.32
473.85	6722.02
474.03	6729.04
474.21	6911.60
474.39	6995.86
474.57	7007.56
474.75	6984.16
474.93	7068.42
475.12	7005.22
475.30	7155.02
475.48	7112.89
475.66	7190.13
475.84	7178.42
476.02	7372.69
476.20	7253.32
476.38	7440.56
476.56	7616.10
476.74	7679.30
476.92	7524.82
477.10	7611.42
477.28	7758.88
477.46	7595.04
477.64	7714.41
477.82	7808.03
478.00	8037.40
478.18	7733.13
478.36	7943.78
478.54	7950.80
478.72	7873.56
478.90	8292.52
479.08	8308.90
479.26	8351.03
479.44	8276.13
479.62	8315.92
479.80	8514.87
479.98	8451.67
480.16	8540.61
480.34	8622.53
480.52	8882.33
480.70	8812.12
480.88	8786.37
481.06	8781.69
481.24	8643.60
481.41	8889.35
481.59	9188.94
481.77	9095.32
481.95	9179.58
482.13	9383.21
482.31	9156.18
482.49	9291.93
482.67	9312.99
482.85	9266.18
483.03	9689.82
483.21	9795.14
483.39	9872.38
483.57	9701.52
483.74	9879.40
483.92	9811.53
484.10	9851.31
484.28	10120.48
484.46	10375.59
484.64	10303.04
484.82	10078.35
485.00	10399.00
485.18	10370.91
485.35	10661.14
485.53	10560.50
485.71	10668.16
485.89	11096.48
486.07	10904.56
486.25	11030.94
486.43	11066.05
486.61	11337.56
486.78	11019.24
486.96	11180.74
487.14	11386.71
487.32	11356.28
487.50	11506.07
487.68	11529.48
487.85	11454.58
488.03	11934.39
488.21	11833.75
488.39	12233.98
488.57	12042.06
488.75	12077.16
488.92	12519.53
489.10	12217.60
489.28	12329.94
489.46	12486.76
489.64	12451.65
489.81	12643.57
489.99	12884.65
490.17	12652.94
490.35	13027.42
490.53	13004.02
490.70	13013.38
490.88	13195.94
491.06	13231.05
491.24	13207.64
491.41	13327.01
491.59	13694.47
491.77	13202.96
491.95	13895.76
492.13	13720.22
492.30	13745.97
492.48	13795.12
492.66	13893.42
492.84	14036.19
493.01	13865.33
493.19	14113.43
493.37	14031.51
493.54	14244.50
493.72	14602.60
493.90	14448.13
494.08	14511.32
494.25	14876.44
494.43	14862.40
494.61	15002.83
494.79	15101.14
494.96	15176.03
495.14	14843.68
495.32	15115.18
495.49	14897.51
495.67	15386.68
495.85	15342.21
496.02	15419.45
496.20	15566.90
496.38	15421.79
496.55	15655.84
496.73	15889.90
496.91	16023.31
497.09	16161.40
497.26	16126.29
497.44	16098.20
497.62	16091.18
497.79	16336.94
497.97	16243.32
498.14	16491.41
498.32	16699.72
498.50	16308.85
498.67	16875.26
498.85	16484.39
499.03	16734.83
499.20	16800.37
499.38	16842.50
499.56	16985.27
499.73	17011.01
499.91	17132.72
500.08	17181.87
500.26	17057.82
500.44	17151.45
500.61	17373.80
500.79	17057.82
500.97	17462.74
501.14	17736.58
501.32	17987.02
501.49	17635.94
501.67	17633.60
501.84	17757.64
502.02	17750.62
502.20	18036.17
502.37	17893.40
502.55	17862.97
502.72	18001.06
502.90	18288.95
503.07	17998.72
503.25	18232.77
503.43	18218.73
503.60	18412.99
503.78	18499.59
503.95	18494.91
504.13	18148.51
504.30	18539.38
504.48	18621.30
504.65	18398.95
504.83	18925.57
505.01	18824.93
505.18	18806.20
505.36	18986.43
505.53	18967.70
505.71	19056.64
505.88	19126.86
506.06	19012.17
506.23	19262.61
506.41	19051.96
506.58	19468.58
506.76	19513.05
506.93	19396.02
507.11	19269.63
507.28	19597.31
507.46	19653.48
507.63	19875.83
507.81	19999.88
507.98	20004.56
508.16	19805.61
508.33	19950.73
508.50	19901.58
508.68	20002.22
508.85	20175.42
509.03	20123.93
509.20	20266.70
509.38	20166.06
509.55	20552.24
509.73	20432.88
509.90	20725.44
510.08	20552.24
510.25	20365.00
510.42	20816.72
510.60	20819.07
510.77	20947.79
510.95	20905.66
511.12	20652.89
511.30	21041.42
511.47	21076.52
511.64	21008.65
511.82	21130.36
511.99	21146.74
512.17	21460.37
512.34	20931.41
512.51	21158.44
512.69	21249.72
512.86	21619.53
513.04	21392.50
513.21	21809.11
513.38	21411.22
513.56	21561.02
513.73	21788.05
513.90	21451.01
514.08	21521.23
514.25	21823.16
514.43	21844.22
514.60	22249.13
514.77	22270.20
514.95	22167.21
515.12	22015.08
515.29	22024.44
515.47	21996.35
515.64	22452.76
515.81	22558.08
515.99	22600.21
516.16	22583.83
516.33	22349.78
516.51	22735.96
516.68	22452.76
516.85	22593.19
517.03	22761.71
517.20	22831.93
517.37	22878.74
517.54	22824.90
517.72	22867.03
517.89	22808.52
518.06	22991.08
518.24	23122.15
518.41	22862.35
518.58	23000.44
518.75	23379.61
518.93	23073.00
519.10	23023.85
519.27	23522.38
519.45	23129.17
519.62	23295.35
519.79	23611.32
519.96	23487.28
520.14	23426.42
520.31	23304.71
520.48	23889.85
520.65	23424.08
520.83	23978.79
521.00	23840.70
521.17	23707.29
521.34	23789.20
521.52	24112.20
521.69	24039.64
521.86	23990.49
522.03	24341.57
522.20	24442.21
522.38	24577.97
522.55	24271.36
522.72	24074.75
522.89	24360.30
523.07	24430.51
523.24	24451.58
523.41	24655.20
523.58	24596.69
523.75	24601.37
523.92	24500.73
524.10	24463.28
524.27	24519.45
524.44	24893.94
524.61	25102.25
524.78	24919.68
524.96	25160.76
525.13	24926.71
525.30	24856.49
525.47	24996.92
525.64	24540.52
525.81	25308.21
525.98	25277.79
526.16	25230.98
526.33	25188.85
526.50	25443.96
526.67	25287.15
526.84	25245.02
527.01	25649.93
527.18	25694.40
527.36	25764.62
527.53	25481.41
527.70	25830.15
527.87	25989.31
528.04	25546.95
528.21	25614.82
528.38	25488.43
528.55	25696.74
528.72	25546.95
528.89	25891.01
529.07	25769.30
529.24	25935.48
529.41	25954.20
529.58	25795.04
529.75	25802.07
529.92	25986.97
530.09	26230.38
530.26	26171.87
530.43	26391.88
530.60	26204.64
530.77	26281.88
530.94	26328.69
531.11	26174.21
531.28	26321.66
531.46	26029.10
531.63	26391.88
531.80	26342.73
531.97	26639.98
532.14	26864.67
532.31	26572.10
532.48	26464.44
532.65	26862.33
532.82	26387.20
532.99	26696.15
533.16	26457.42
533.33	26700.83
533.50	26998.08
533.67	26974.67
533.84	26679.77
534.01	26738.28
534.18	26965.31
534.35	26923.18
534.52	27065.96
534.69	27087.02
534.86	27309.37
535.03	27421.72
535.20	26988.72
535.37	27068.30
535.54	27269.58
535.71	27108.08
535.88	27445.12
536.05	27440.44
536.22	27447.46
536.38	27440.44
536.55	27569.17
536.72	27445.12
536.89	27723.65
537.06	27695.56
537.23	27426.40
537.40	27260.22
537.57	27845.35
537.74	27901.53
537.91	27798.54
538.08	28261.97
538.25	27817.27
538.42	27843.01
538.59	27962.38
538.75	27931.95
538.92	27695.56
539.09	27917.91
539.26	27875.78
539.43	28229.20
539.60	27896.85
539.77	28182.39
539.94	28168.35
540.11	27988.13
540.28	28177.71
540.44	28205.80
540.61	28517.09
540.78	28252.61
540.95	28634.11
541.12	28947.75
541.29	29010.94
541.46	28772.21
541.62	28439.85
541.79	28835.40
541.96	28636.45
542.13	28453.89
542.30	28711.35
542.47	29237.97
542.63	29326.91
542.80	29069.45
542.97	29055.41
543.14	29181.80
543.31	28971.15
543.48	28875.19
543.64	29015.62
543.81	29479.05
543.98	29490.75
544.15	29355.00
544.32	29364.36
544.48	29795.02
544.65	29125.63
544.82	29060.09
544.99	29041.37
545.16	29305.85
545.32	29511.81
545.49	30015.03
545.66	30443.35
545.83	30768.68
546.00	30588.46
546.16	30132.06
546.33	29593.73
546.50	29624.16
546.67	29567.99
546.83	29474.37
547.00	29460.32
547.17	30061.84
547.34	29663.95
547.50	29799.70
547.67	29811.40
547.84	29769.27
548.00	29970.56
548.17	30092.27
548.34	29827.79
548.51	29790.34
548.67	29930.77
548.84	30017.37
549.01	29699.06
549.18	29886.30
549.34	29933.11
549.51	30010.35
549.68	30047.80
549.84	29797.36
550.01	29907.37
550.18	29717.78
550.34	29680.33
550.51	30242.06
550.68	30146.10
550.84	29790.34
551.01	30122.69
551.18	30279.51
551.34	29743.53
551.51	29888.64
551.68	29895.66
551.84	30054.82
552.01	30256.11
552.18	30307.60
552.34	30209.29
552.51	30326.32
552.68	29961.20
552.84	30249.08
553.01	30178.87
553.18	29979.92
553.34	30464.41
553.51	30625.91
553.67	30382.49
553.84	30597.82
554.01	30408.24
554.17	30506.54
554.34	30469.09
554.51	30527.61
554.67	30443.35
554.84	30487.82
555.00	30136.74
555.17	30087.59
555.33	30319.30
555.50	30174.19
555.67	30527.61
555.83	30242.06
556.00	30607.19
556.16	30888.05
556.33	30558.03
556.50	30405.90
556.66	30684.42
556.83	30464.41
556.99	31023.80
557.16	30546.33
557.32	30712.51
557.49	30771.02
557.65	30045.46
557.82	30885.71
557.98	30403.56
558.15	30646.97
558.32	30883.37
558.48	30597.82
558.65	30677.40
558.81	30675.06
558.98	30494.84
559.14	30551.01
559.31	30522.93
559.47	30625.91
559.64	31056.57
559.80	30991.03
559.97	30738.26
560.13	30988.69
560.30	30651.66
560.46	30759.32
560.63	30904.43
560.79	30597.82
560.96	31236.79
561.12	30735.92
561.29	30668.04
561.45	31047.21
561.61	30871.67
561.78	31185.30
561.94	31058.91
562.11	31133.81
562.27	30888.05
562.44	31068.27
562.60	30721.87
562.77	30808.47
562.93	30808.47
563.10	31377.22
563.26	30979.33
563.42	31192.32
563.59	30960.61
563.75	30911.46
563.92	31206.36
564.08	30941.88
564.24	31318.71
564.41	31105.72
564.57	30735.92
564.74	30998.06
564.90	31185.30
565.07	31058.91
565.23	31047.21
565.39	31166.57
565.56	31222.75
565.72	30852.94
565.88	31021.46
566.05	31058.91
566.21	31339.77
566.38	31335.09
566.54	31295.30
566.70	31026.14
566.87	31681.49
567.03	30953.58
567.19	31850.01
567.36	31442.76
567.52	31384.24
567.68	31370.20
567.85	30450.37
568.01	31590.21
568.17	31239.13
568.34	31288.28
568.50	31505.95
568.66	30962.95
568.83	31288.28
568.99	31515.31
569.15	31002.74
569.32	31098.70
569.48	31377.22
569.64	31049.55
569.81	31257.85
569.97	31676.81
570.13	31501.27
570.30	31187.64
570.46	31297.64
570.62	30834.22
570.78	31110.40
570.95	31051.89
571.11	30843.58
571.27	31194.66
571.43	30998.06
571.60	31157.21
571.76	31267.22
571.92	31445.10
572.09	31253.17
572.25	31274.24
572.41	31309.35
572.57	31592.55
572.74	31821.92
572.90	31358.50
573.06	31255.51
573.22	31257.85
573.38	31482.55
573.55	31323.39
573.71	31386.58
573.87	31473.18
574.03	31679.15
574.20	31440.42
574.36	31201.68
574.52	31356.16
574.68	31543.40
574.84	31585.53
575.01	31309.35
575.17	31653.40
575.33	31278.92
575.49	31402.97
575.65	31414.67
575.82	31470.84
575.98	30984.01
576.14	31475.52
576.30	31508.29
576.46	31342.11
576.62	31379.56
576.79	31559.78
576.95	31648.72
577.11	31395.95
577.27	31555.10
577.43	31597.23
577.59	31412.33
577.75	31857.03
577.92	31637.02
578.08	31171.25
578.24	30986.35
578.40	31189.98
578.56	31412.33
578.72	31271.90
578.88	31639.36
579.04	31814.90
579.21	31637.02
579.37	31459.14
579.53	31517.65
579.69	31243.81
579.85	31124.44
580.01	31470.84
580.17	31307.01
580.33	31608.93
580.49	31365.52
580.65	31503.61
580.82	31419.35
580.98	31494.25
581.14	31845.33
581.30	31892.14
581.46	31894.48
581.62	31534.04
581.78	31236.79
581.94	31583.19
582.10	31763.41
582.26	31618.30
582.42	31543.40
582.58	31770.43
582.74	31686.17
582.90	31840.65
583.06	31353.82
583.22	31608.93
583.38	31395.95
583.54	31690.85
583.70	31431.05
583.86	31555.10
584.02	31524.68
584.18	31330.41
584.34	31744.69
584.50	31538.72
584.66	31517.65
584.82	31510.63
584.98	31618.30
585.14	31435.74
585.30	31414.67
585.46	31391.26
585.62	31463.82
585.78	31826.60
585.94	31218.07
586.10	31482.55
586.26	31543.40
586.42	31927.25
586.58	31648.72
586.74	31648.72
586.90	31491.91
587.06	31587.87
587.22	31428.71
587.38	30953.58
587.54	31557.44
587.70	31718.94
587.86	31730.64
588.02	31805.54
588.18	31861.71
588.34	31641.70
588.49	31426.37
588.65	31353.82
588.81	31543.40
588.97	31519.99
589.13	31569.15
589.29	31931.93
589.45	31835.97
589.61	31814.90
589.77	31669.79
589.93	31405.31
590.08	31777.45
590.24	31711.92
590.40	31356.16
590.56	31985.76
590.72	31409.99
590.88	31550.42
591.04	31725.96
591.20	31775.11
591.35	32013.85
591.51	31960.02
591.67	31864.05
