SpectraSuite Data File
++++++++++++++++++++++++++++++++++++
Date: Fri Oct 04 11:39:52 GMT-05:00 2013
User: price-jones
Dark Spectrum Present: No
Reference Spectrum Present: No
Number of Sampled Component Spectra: 1
Spectrometers: USB2+H05261
Integration Time (usec): 100000 (USB2+H05261)
Spectra Averaged: 1 (USB2+H05261)
Boxcar Smoothing: 0 (USB2+H05261)
Correct for Electrical Dark: No (USB2+H05261)
Strobe/Lamp Enabled: No (USB2+H05261)
Correct for Detector Non-linearity: No (USB2+H05261)
Correct for Stray Light: No (USB2+H05261)
Number of Pixels in Processed Spectrum: 2048
>>>>>Begin Processed Spectral Data<<<<<
365.73	30.43
365.92	30.43
366.12	30.43
366.32	0.00
366.52	0.00
366.72	7.02
366.91	0.00
367.11	14.04
367.31	0.00
367.51	0.00
367.70	0.00
367.90	0.00
368.10	0.00
368.30	0.00
368.49	0.00
368.69	0.00
368.89	0.00
369.09	0.00
369.28	0.00
369.48	0.00
369.68	0.00
369.87	32.77
370.07	39.79
370.27	14.04
370.47	0.00
370.66	67.88
370.86	70.22
371.06	100.64
371.25	102.98
371.45	56.17
371.65	44.47
371.84	67.88
372.04	30.43
372.24	112.35
372.44	23.41
372.63	53.83
372.83	194.26
373.03	189.58
373.22	110.01
373.42	102.98
373.62	119.37
373.81	79.58
374.01	220.01
374.21	222.35
374.40	170.86
374.60	194.26
374.79	159.16
374.99	110.01
375.19	166.18
375.38	124.05
375.58	147.45
375.78	133.41
375.97	177.88
376.17	222.35
376.37	88.94
376.56	126.39
376.76	170.86
376.95	107.66
377.15	173.20
377.35	177.88
377.54	126.39
377.74	124.05
377.93	159.16
378.13	98.30
378.33	119.37
378.52	203.63
378.72	168.52
378.91	147.45
379.11	173.20
379.31	128.73
379.50	35.11
379.70	154.48
379.89	175.54
380.09	102.98
380.28	175.54
380.48	168.52
380.68	168.52
380.87	121.71
381.07	149.79
381.26	152.13
381.46	156.82
381.65	170.86
381.85	236.39
382.04	128.73
382.24	114.69
382.43	117.03
382.63	114.69
382.83	112.35
383.02	229.37
383.22	152.13
383.41	100.64
383.61	149.79
383.80	159.16
384.00	154.48
384.19	156.82
384.39	124.05
384.58	154.48
384.78	138.09
384.97	131.07
385.17	175.54
385.36	170.86
385.56	198.95
385.75	128.73
385.95	161.50
386.14	203.63
386.34	152.13
386.53	168.52
386.72	166.18
386.92	121.71
387.11	210.65
387.31	163.84
387.50	198.95
387.70	173.20
387.89	220.01
388.09	142.77
388.28	147.45
388.48	138.09
388.67	203.63
388.86	175.54
389.06	166.18
389.25	175.54
389.45	189.58
389.64	114.69
389.84	180.22
390.03	168.52
390.22	177.88
390.42	102.98
390.61	152.13
390.81	112.35
391.00	196.60
391.19	208.31
391.39	212.99
391.58	220.01
391.78	168.52
391.97	196.60
392.16	149.79
392.36	243.42
392.55	276.18
392.75	163.84
392.94	191.92
393.13	212.99
393.33	124.05
393.52	203.63
393.71	227.03
393.91	215.33
394.10	189.58
394.29	149.79
394.49	133.41
394.68	189.58
394.88	217.67
395.07	238.73
395.26	241.08
395.46	166.18
395.65	177.88
395.84	175.54
396.04	327.68
396.23	248.10
396.42	250.44
396.62	163.84
396.81	227.03
397.00	259.80
397.19	243.42
397.39	205.97
397.58	250.44
397.77	168.52
397.97	194.26
398.16	205.97
398.35	278.52
398.55	269.16
398.74	220.01
398.93	210.65
399.12	245.76
399.32	173.20
399.51	220.01
399.70	283.20
399.90	308.95
400.09	294.91
400.28	304.27
400.47	248.10
400.67	252.78
400.86	304.27
401.05	262.14
401.24	306.61
401.44	238.73
401.63	236.39
401.82	266.82
402.01	203.63
402.21	243.42
402.40	208.31
402.59	189.58
402.78	250.44
402.97	250.44
403.17	290.23
403.36	280.86
403.55	297.25
403.74	301.93
403.93	255.12
404.13	418.96
404.32	348.74
404.51	301.93
404.70	325.33
404.89	294.91
405.09	285.55
405.28	273.84
405.47	229.37
405.66	322.99
405.85	322.99
406.05	358.10
406.24	264.48
406.43	346.40
406.62	435.34
406.81	418.96
407.00	369.80
407.20	332.36
407.39	327.68
407.58	393.21
407.77	374.49
407.96	262.14
408.15	421.30
408.34	332.36
408.54	322.99
408.73	440.02
408.92	313.63
409.11	358.10
409.30	425.98
409.49	451.72
409.68	369.80
409.87	334.70
410.07	388.53
410.26	395.55
410.45	393.21
410.64	358.10
410.83	437.68
411.02	416.62
411.21	374.49
411.40	468.11
411.59	463.43
411.78	437.68
411.98	409.59
412.17	437.68
412.36	433.00
412.55	435.34
412.74	393.21
412.93	496.19
413.12	433.00
413.31	477.47
413.50	449.38
413.69	458.74
413.88	531.30
414.07	535.98
414.26	468.11
414.45	528.96
414.64	540.66
414.83	517.26
415.02	547.69
415.22	531.30
415.41	472.79
415.60	425.98
415.79	531.30
415.98	503.22
416.17	507.90
416.36	482.15
416.55	493.85
416.74	552.37
416.93	596.84
417.12	582.79
417.31	578.11
417.50	571.09
417.69	638.97
417.88	657.69
418.07	601.52
418.26	610.88
418.45	620.24
418.64	645.99
418.83	573.43
419.02	517.26
419.21	535.98
419.39	543.00
419.58	627.26
419.77	660.03
419.96	681.10
420.15	629.60
420.34	571.09
420.53	638.97
420.72	629.60
420.91	641.31
421.10	653.01
421.29	674.07
421.48	627.26
421.67	718.54
421.86	636.63
422.05	650.67
422.24	697.48
422.43	657.69
422.61	734.93
422.80	685.78
422.99	725.57
423.18	678.76
423.37	657.69
423.56	643.65
423.75	751.31
423.94	676.41
424.13	718.54
424.32	648.33
424.50	627.26
424.69	741.95
424.88	702.16
425.07	690.46
425.26	746.63
425.45	667.05
425.64	671.73
425.83	699.82
426.01	692.80
426.20	746.63
426.39	737.27
426.58	723.23
426.77	667.05
426.96	748.97
427.15	695.14
427.33	641.31
427.52	711.52
427.71	678.76
427.90	739.61
428.09	739.61
428.28	641.31
428.46	816.85
428.65	744.29
428.84	755.99
429.03	868.34
429.22	763.01
429.40	713.86
429.59	723.23
429.78	744.29
429.97	692.80
430.16	763.01
430.34	741.95
430.53	816.85
430.72	746.63
430.91	723.23
431.10	704.50
431.28	699.82
431.47	781.74
431.66	816.85
431.85	737.27
432.03	842.59
432.22	833.23
432.41	814.51
432.60	840.25
432.79	809.83
432.97	866.00
433.16	807.48
433.35	844.93
433.54	861.32
433.72	828.55
433.91	866.00
434.10	819.19
434.28	802.80
434.47	819.19
434.66	877.70
434.85	931.53
435.03	924.51
435.22	1121.12
435.41	1322.40
435.59	1263.89
435.78	1132.82
435.97	961.96
436.16	931.53
436.34	926.85
436.53	873.02
436.72	870.68
436.90	861.32
437.09	891.74
437.28	910.47
437.46	866.00
437.65	943.24
437.84	950.26
438.02	912.81
438.21	887.06
438.40	891.74
438.58	901.11
438.77	882.38
438.96	936.21
439.14	983.02
439.33	1008.77
439.52	1116.44
439.70	1008.77
439.89	1011.11
440.08	957.28
440.26	1001.75
440.45	992.39
440.63	987.71
440.82	940.90
441.01	1046.22
441.19	1001.75
441.38	936.21
441.57	1013.45
441.75	1027.50
441.94	1125.80
442.12	1062.60
442.31	1025.15
442.50	1029.84
442.68	1071.97
442.87	1102.39
443.05	1043.88
443.24	1107.07
443.43	1025.15
443.61	1123.46
443.80	1144.52
443.98	1032.18
444.17	1146.86
444.35	1191.33
444.54	1142.18
444.73	1256.87
444.91	1055.58
445.10	1060.26
445.28	1104.73
445.47	1142.18
445.65	1231.12
445.84	1137.50
446.02	1151.54
446.21	1100.05
446.39	1015.79
446.58	1181.97
446.77	1053.24
446.95	1043.88
447.14	1088.35
447.32	1240.48
447.51	1163.25
447.69	1142.18
447.88	1142.18
448.06	1144.52
448.25	1149.20
448.43	1160.91
448.62	1069.62
448.80	1163.25
448.99	1076.65
449.17	1186.65
449.36	1165.59
449.54	1167.93
449.73	1203.04
449.91	1233.46
450.10	1196.01
450.28	1306.02
450.46	1252.19
450.65	1261.55
450.83	1291.98
451.02	1203.04
451.20	1247.51
451.39	1249.85
451.57	1193.67
451.76	1226.44
451.94	1331.76
452.13	1291.98
452.31	1301.34
452.49	1144.52
452.68	1240.48
452.86	1289.64
453.05	1380.92
453.23	1284.95
453.42	1139.84
453.60	1207.72
453.78	1242.82
453.97	1238.14
454.15	1287.29
454.34	1235.80
454.52	1357.51
454.70	1324.74
454.89	1289.64
455.07	1277.93
455.26	1371.55
455.44	1324.74
455.62	1329.42
455.81	1397.30
455.99	1261.55
456.17	1343.47
456.36	1355.17
456.54	1369.21
456.73	1299.00
456.91	1357.51
457.09	1284.95
457.28	1437.09
457.46	1404.32
457.64	1418.36
457.83	1341.13
458.01	1338.79
458.19	1476.88
458.38	1348.15
458.56	1362.19
458.74	1352.83
458.93	1490.92
459.11	1476.88
459.29	1387.94
459.48	1406.66
459.66	1399.64
459.84	1472.20
460.03	1570.50
460.21	1380.92
460.39	1455.81
460.57	1448.79
460.76	1472.20
460.94	1380.92
461.12	1523.69
461.31	1549.43
461.49	1509.65
461.67	1392.62
461.85	1523.69
462.04	1547.09
462.22	1930.94
462.40	1661.78
462.59	1474.54
462.77	1490.92
462.95	1500.28
463.13	1497.94
463.32	1643.06
463.50	1469.86
463.68	1521.35
463.86	1561.14
464.05	1500.28
464.23	1540.07
464.41	1621.99
464.59	1612.63
464.78	1479.22
464.96	1451.13
465.14	1558.80
465.32	1528.37
465.50	1500.28
465.69	1687.53
465.87	1575.18
466.05	1629.01
466.23	1497.94
466.41	1614.97
466.60	1739.02
466.78	1554.12
466.96	1689.87
467.14	1544.75
467.32	1554.12
467.51	1617.31
467.69	1533.05
467.87	1593.90
468.05	1600.93
468.23	1593.90
468.41	1638.38
468.60	1617.31
468.78	1661.78
468.96	1675.82
469.14	1614.97
469.32	1657.10
469.50	1645.40
469.69	1722.63
469.87	1659.44
470.05	1661.78
470.23	1654.76
470.41	1586.88
470.59	1600.93
470.77	1710.93
470.95	1703.91
471.14	1713.27
471.32	1645.40
471.50	1736.68
471.68	1729.66
471.86	1797.53
472.04	1713.27
472.22	1802.21
472.40	1706.25
472.58	1706.25
472.77	1792.85
472.95	1809.23
473.13	1764.76
473.31	1846.68
473.49	1816.26
473.67	1813.92
473.85	1858.39
474.03	1909.88
474.21	1813.92
474.39	1949.67
474.57	1865.41
474.75	1785.83
474.93	1898.17
475.12	1825.62
475.30	1996.48
475.48	1823.28
475.66	1975.41
475.84	1895.83
476.02	1954.35
476.20	1947.33
476.38	1982.43
476.56	1949.67
476.74	2036.27
476.92	2050.31
477.10	2019.88
477.28	2108.82
477.46	2015.20
477.64	2073.71
477.82	2038.61
478.00	2022.22
478.18	2146.27
478.36	2090.10
478.54	2106.48
478.72	2153.29
478.90	2165.00
479.08	2289.04
479.26	2150.95
479.44	2244.57
479.62	2270.32
479.80	2223.51
479.98	2207.13
480.16	2108.82
480.34	2267.98
480.52	2218.83
480.70	2317.13
480.88	2293.72
481.06	2230.53
481.24	2368.62
481.41	2324.15
481.59	2436.50
481.77	2363.94
481.95	2509.05
482.13	2363.94
482.31	2502.03
482.49	2518.42
482.67	2401.39
482.85	2539.48
483.03	2504.37
483.21	2565.23
483.39	2565.23
483.57	2539.48
483.74	2588.63
483.92	2616.72
484.10	2724.38
484.28	2682.25
484.46	2789.92
484.64	2738.43
484.82	2815.66
485.00	2761.83
485.18	2810.98
485.35	2808.64
485.53	2829.71
485.71	2691.62
485.89	2853.11
486.07	2799.28
486.25	2988.86
486.43	2822.69
486.61	2834.39
486.78	2995.89
486.96	2991.20
487.14	2869.50
487.32	2993.55
487.50	2998.23
487.68	3035.67
487.85	3096.53
488.03	2998.23
488.21	3143.34
488.39	3204.19
488.57	3173.77
488.75	3124.62
488.92	3407.82
489.10	3267.39
489.28	3164.40
489.46	3222.92
489.64	3335.26
489.81	3407.82
489.99	3473.36
490.17	3353.99
490.35	3510.80
490.53	3368.03
490.70	3405.48
490.88	3487.40
491.06	3447.61
491.24	3489.74
491.41	3445.27
491.59	3681.66
491.77	3623.15
491.95	3648.90
492.13	3492.08
492.30	3634.85
492.48	3590.38
492.66	3618.47
492.84	3646.55
493.01	3866.56
493.19	3620.81
493.37	3669.96
493.54	3775.28
493.72	3686.34
493.90	3822.09
494.08	3852.52
494.25	3906.35
494.43	3896.99
494.61	3840.82
494.79	3786.99
494.96	3772.94
495.14	4042.11
495.32	3852.52
495.49	3995.29
495.67	4109.98
495.85	3997.64
496.02	3978.91
496.20	3969.55
496.38	4126.36
496.55	3978.91
496.73	4212.96
496.91	4042.11
497.09	4126.36
497.26	4313.61
497.44	4074.87
497.62	4102.96
497.79	4198.92
497.97	4395.53
498.14	4346.37
498.32	4346.37
498.50	4280.84
498.67	4325.31
498.85	4348.72
499.03	4432.97
499.20	4339.35
499.38	4227.01
499.56	4372.12
499.73	4454.04
499.91	4622.56
500.08	4514.89
500.26	4320.63
500.44	4416.59
500.61	4414.25
500.79	4510.21
500.97	4449.36
501.14	4727.88
501.32	4636.60
501.49	4688.09
501.67	4440.00
501.84	4645.96
502.02	4568.73
502.20	4613.20
502.37	4657.67
502.55	4503.19
502.72	4608.51
502.90	4702.14
503.07	4774.69
503.25	4681.07
503.43	4725.54
503.60	4603.83
503.78	4648.30
503.95	4826.18
504.13	4734.90
504.30	4800.44
504.48	4842.57
504.65	4865.97
504.83	4685.75
505.01	4826.18
505.18	4795.76
505.36	4858.95
505.53	4964.28
505.71	5027.47
505.88	5144.50
506.06	5025.13
506.23	4929.17
506.41	4990.02
506.58	5093.01
506.76	4924.49
506.93	4971.30
507.11	5109.39
507.28	5036.83
507.46	5081.30
507.63	5100.03
507.81	5174.92
507.98	5179.61
508.16	5193.65
508.33	5081.30
508.50	5195.99
508.68	5132.79
508.85	5078.96
509.03	5195.99
509.20	5191.31
509.38	5397.28
509.55	5200.67
509.73	5252.16
509.90	5284.93
510.08	5277.91
510.25	5336.42
510.42	5348.12
510.60	5343.44
510.77	5362.17
510.95	5411.32
511.12	5298.97
511.30	5345.78
511.47	5270.89
511.64	5212.37
511.82	5390.25
511.99	5413.66
512.17	5357.49
512.34	5483.88
512.51	5420.68
512.69	5640.69
512.86	5488.56
513.04	5511.96
513.21	5530.69
513.38	5516.64
513.56	5591.54
513.73	5575.16
513.90	5500.26
514.08	5472.17
514.25	5584.52
514.43	5554.09
514.60	5680.48
514.77	5640.69
514.95	5624.31
515.12	5554.09
515.29	5640.69
515.47	5570.48
515.64	5738.99
515.81	5675.80
515.99	5930.92
516.16	5764.74
516.33	5692.18
516.51	5853.68
516.68	5650.05
516.85	5839.64
517.03	5846.66
517.20	5823.25
517.37	5823.25
517.54	5884.11
517.72	5776.44
517.89	5680.48
518.06	5811.55
518.24	5872.40
518.41	5895.81
518.58	5905.17
518.75	5970.71
518.93	5954.32
519.10	5996.45
519.27	5975.39
519.45	5963.68
519.62	5956.66
519.79	6083.05
519.96	5984.75
520.14	6029.22
520.31	5977.73
520.48	6146.25
520.65	6029.22
520.83	6033.90
521.00	6319.45
521.17	6256.25
521.34	6080.71
521.52	6164.97
521.69	5984.75
521.86	6141.57
522.03	6286.68
522.20	6104.12
522.38	6183.70
522.55	6148.59
522.72	6045.60
522.89	6225.82
523.07	6244.55
523.24	6251.57
523.41	6506.69
523.58	6274.98
523.75	6455.20
523.92	6377.96
524.10	6307.74
524.27	6314.77
524.44	6359.24
524.61	6480.94
524.78	6410.73
524.96	6415.41
525.13	6293.70
525.30	6427.11
525.47	6384.98
525.64	6586.27
525.81	6429.45
525.98	6471.58
526.16	6509.03
526.33	6326.47
526.50	6420.09
526.67	6399.02
526.84	6296.04
527.01	6368.60
527.18	6562.86
527.36	6595.63
527.53	6679.89
527.70	6640.10
527.87	6668.19
528.04	6703.29
528.21	6483.28
528.38	6635.42
528.55	6675.21
528.72	6483.28
528.89	6703.29
529.07	6539.46
529.24	6729.04
529.41	6829.68
529.58	6743.08
529.75	6532.44
529.92	6850.75
530.09	6815.64
530.26	6621.38
530.43	6750.10
530.60	6752.45
530.77	6876.49
530.94	6913.94
531.11	6626.06
531.28	6537.12
531.46	6803.94
531.63	6649.46
531.80	6827.34
531.97	6944.37
532.14	6925.65
532.31	6637.76
532.48	6785.21
532.65	6782.87
532.82	6841.39
532.99	6881.18
533.16	6920.96
533.33	6909.26
533.50	6902.24
533.67	7117.57
533.84	6911.60
534.01	6883.52
534.18	6729.04
534.35	6857.77
534.52	6841.39
534.69	6960.75
534.86	7122.25
535.03	6963.09
535.20	6984.16
535.37	6923.30
535.54	7101.19
535.71	6740.74
535.88	6878.83
536.05	7180.76
536.22	6986.50
536.38	7222.89
536.55	7075.44
536.72	7056.72
536.89	7073.10
537.06	6981.82
537.23	7176.08
537.40	7239.28
537.57	7115.23
537.74	7136.29
537.91	7227.57
538.08	7213.53
538.25	7225.23
538.42	7269.70
538.59	7037.99
538.75	7016.93
538.92	7269.70
539.09	7351.62
539.26	7208.85
539.43	7229.91
539.60	7248.64
539.77	7468.65
539.94	7351.62
540.11	7148.00
540.28	7311.83
540.44	7417.16
540.61	7283.75
540.78	7438.22
540.95	7597.38
541.12	7531.84
541.29	7630.15
541.46	7686.32
541.62	7667.60
541.79	7803.35
541.96	7679.30
542.13	7665.25
542.30	7433.54
542.47	7578.65
542.63	7707.38
542.80	7665.25
542.97	7674.62
543.14	7630.15
543.31	7662.91
543.48	7852.50
543.64	7646.53
543.81	7714.41
543.98	7693.34
544.15	7777.60
544.32	7925.05
544.48	7606.74
544.65	7646.53
544.82	7695.68
544.99	7761.22
545.16	7728.45
545.32	7721.43
545.49	8077.19
545.66	8327.63
545.83	8475.08
546.00	8351.03
546.16	7981.23
546.33	7871.22
546.50	7772.92
546.67	7707.38
546.83	7737.81
547.00	7669.94
547.17	7590.36
547.34	7669.94
547.50	7726.11
547.67	7796.32
547.84	7728.45
548.00	7765.90
548.17	7817.39
548.34	7691.00
548.51	7864.20
548.67	7817.39
548.84	7662.91
549.01	7887.61
549.18	7747.17
549.34	7822.07
549.51	7896.97
549.68	7868.88
549.84	7751.85
550.01	7868.88
550.18	7829.09
550.34	7974.21
550.51	7726.11
550.68	7726.11
550.84	7756.54
551.01	7857.18
551.18	7548.23
551.34	7597.38
551.51	7735.47
551.68	7808.03
551.84	7918.03
552.01	7726.11
552.18	7681.64
552.34	7875.90
552.51	7754.19
552.68	7747.17
552.84	7698.02
553.01	7641.85
553.18	7779.94
553.34	7793.98
553.51	7847.82
553.67	7901.65
553.84	8152.09
554.01	7712.07
554.17	7705.04
554.34	7702.70
554.51	7679.30
554.67	8126.34
554.84	7859.52
555.00	7847.82
555.17	7805.69
555.33	7864.20
555.50	7833.77
555.67	7871.22
555.83	8021.02
556.00	7915.69
556.16	8217.62
556.33	7999.95
556.50	7903.99
556.66	7700.36
556.83	7803.35
556.99	7927.39
557.16	7878.24
557.32	7990.59
557.49	7936.76
557.65	7896.97
557.82	7815.05
557.98	7840.79
558.15	7854.84
558.32	7859.52
558.48	7765.90
558.65	7882.92
558.81	7997.61
558.98	8035.06
559.14	7864.20
559.31	7880.58
559.47	7742.49
559.64	7840.79
559.80	7929.74
559.97	7775.26
560.13	7896.97
560.30	7885.26
560.46	7847.82
560.63	7920.37
560.79	8004.63
560.96	7997.61
561.12	8002.29
561.29	7815.05
561.45	8018.68
561.61	7939.10
561.78	8166.13
561.94	8030.38
562.11	8030.38
562.27	8044.42
562.44	7948.46
562.60	7815.05
562.77	7854.84
562.93	7943.78
563.10	7934.42
563.26	7903.99
563.42	7960.16
563.59	7922.71
563.75	7985.91
563.92	7892.29
564.08	7878.24
564.24	7960.16
564.41	7927.39
564.57	7943.78
564.74	7988.25
564.90	8180.17
565.07	7988.25
565.23	8046.76
565.39	8025.70
565.56	7999.95
565.72	8049.10
565.88	7915.69
566.05	7892.29
566.21	8140.38
566.38	7894.63
566.54	8198.90
566.70	8081.87
566.87	8187.19
567.03	8021.02
567.19	8201.24
567.36	8049.10
567.52	8037.40
567.68	8154.43
567.85	7770.58
568.01	8018.68
568.17	7969.52
568.34	8002.29
568.50	8016.33
568.66	7976.55
568.83	7915.69
568.99	7838.45
569.15	8088.89
569.32	7913.35
569.48	7969.52
569.64	7953.14
569.81	8175.49
569.97	8126.34
570.13	8053.78
570.30	8037.40
570.46	8224.64
570.62	7894.63
570.78	8053.78
570.95	8098.25
571.11	8135.70
571.27	7990.59
571.43	7964.84
571.60	7929.74
571.76	8095.91
571.92	8159.11
572.09	8124.00
572.25	8088.89
572.41	8135.70
572.57	7995.27
572.74	8229.32
572.90	8182.51
573.06	8023.36
573.22	8224.64
573.38	8105.28
573.55	8060.80
573.71	8308.90
573.87	8046.76
574.03	8149.75
574.20	8173.15
574.36	7946.12
574.52	8013.99
574.68	8079.53
574.84	8063.15
575.01	8049.10
575.17	8358.05
575.33	8170.81
575.49	8011.65
575.65	8095.91
575.82	8063.15
575.98	8095.91
576.14	8079.53
576.30	8170.81
576.46	8147.40
576.62	8039.74
576.79	8390.82
576.95	8262.09
577.11	8081.87
577.27	8060.80
577.43	8156.77
577.59	8149.75
577.75	8131.02
577.92	8166.13
578.08	8051.44
578.24	7901.65
578.40	8098.25
578.56	8446.99
578.72	8402.52
578.88	8404.86
579.04	8454.02
579.21	8116.98
579.37	8210.60
579.53	8016.33
579.69	8339.33
579.85	8234.00
580.01	8219.96
580.17	8184.85
580.33	8203.58
580.49	8077.19
580.65	8159.11
580.82	8313.58
580.98	8124.00
581.14	8149.75
581.30	8063.15
581.46	8124.00
581.62	8210.60
581.78	8201.24
581.94	8100.59
582.10	8109.96
582.26	8131.02
582.42	8032.72
582.58	8184.85
582.74	8229.32
582.90	8018.68
583.06	8159.11
583.22	8198.90
583.38	8285.50
583.54	8182.51
583.70	8112.30
583.86	8119.32
584.02	8201.24
584.18	8329.97
584.34	8184.85
584.50	8329.97
584.66	8175.49
584.82	8126.34
584.98	8245.71
585.14	8131.02
585.30	8175.49
585.46	8053.78
585.62	8308.90
585.78	8215.28
585.94	8212.94
586.10	8334.65
586.26	8250.39
586.42	8231.66
586.58	8042.08
586.74	8259.75
586.90	8210.60
587.06	8465.72
587.22	8414.23
587.38	8194.22
587.54	8255.07
587.70	8168.47
587.86	8402.52
588.02	8166.13
588.18	8346.35
588.34	8259.75
588.49	8203.58
588.65	8198.90
588.81	8131.02
588.97	8386.14
589.13	8081.87
589.29	8320.60
589.45	8215.28
589.61	8191.88
589.77	8102.93
589.93	8234.00
590.08	8025.70
590.24	8341.67
590.40	8388.48
590.56	8351.03
590.72	8205.92
590.88	8325.29
591.04	8074.85
591.20	8049.10
591.35	8257.41
591.51	8425.93
591.67	8341.67
591.83	8411.89
591.99	8446.99
592.15	8325.29
592.31	8362.73
592.46	8266.77
592.62	8334.65
592.78	8203.58
592.94	8121.66
593.10	8156.77
593.26	8388.48
593.41	8278.47
593.57	8519.55
593.73	8173.15
593.89	8339.33
594.05	8393.16
594.20	8236.35
594.36	8465.72
594.52	8269.11
594.68	8325.29
594.84	8313.58
594.99	8332.31
595.15	8257.41
595.31	8285.50
595.47	8444.65
595.62	8299.54
595.78	8241.03
595.94	8180.17
596.10	8105.28
596.25	8306.56
596.41	8432.95
596.57	8152.09
596.73	8346.35
596.88	8182.51
597.04	8276.13
597.20	8318.26
597.36	8400.18
597.51	8388.48
597.67	8334.65
597.83	8273.79
597.99	8341.67
598.14	8299.54
598.30	8145.06
598.46	8386.14
598.61	8299.54
598.77	8273.79
598.93	8203.58
599.09	8313.58
599.24	8229.32
599.40	8308.90
599.56	8313.58
599.71	8299.54
599.87	8454.02
600.03	8358.05
600.18	8184.85
600.34	8234.00
