SpectraSuite Data File
++++++++++++++++++++++++++++++++++++
Date: Fri Oct 04 11:39:38 GMT-05:00 2013
User: price-jones
Dark Spectrum Present: No
Reference Spectrum Present: No
Number of Sampled Component Spectra: 1
Spectrometers: USB2+H05261
Integration Time (usec): 100000 (USB2+H05261)
Spectra Averaged: 1 (USB2+H05261)
Boxcar Smoothing: 0 (USB2+H05261)
Correct for Electrical Dark: No (USB2+H05261)
Strobe/Lamp Enabled: No (USB2+H05261)
Correct for Detector Non-linearity: No (USB2+H05261)
Correct for Stray Light: No (USB2+H05261)
Number of Pixels in Processed Spectrum: 2048
>>>>>Begin Processed Spectral Data<<<<<
365.73	60.85
365.92	60.85
366.12	60.85
366.32	0.00
366.52	0.00
366.72	16.38
366.91	0.00
367.11	0.00
367.31	0.00
367.51	0.00
367.70	0.00
367.90	0.00
368.10	23.41
368.30	0.00
368.49	0.00
368.69	0.00
368.89	0.00
369.09	0.00
369.28	14.04
369.48	9.36
369.68	0.00
369.87	42.13
370.07	14.04
370.27	107.66
370.47	124.05
370.66	273.84
370.86	353.42
371.06	362.78
371.25	430.66
371.45	311.29
371.65	409.59
371.84	381.51
372.04	418.96
372.24	390.87
372.44	435.34
372.63	482.15
372.83	456.40
373.03	428.32
373.22	435.34
373.42	449.38
373.62	416.62
373.81	521.94
374.01	498.53
374.21	402.57
374.40	521.94
374.60	535.98
374.79	449.38
374.99	468.11
375.19	500.87
375.38	496.19
375.58	444.70
375.78	526.62
375.97	449.38
376.17	617.90
376.37	599.18
376.56	521.94
376.76	543.00
376.95	578.11
377.15	456.40
377.35	484.49
377.54	561.73
377.74	533.64
377.93	493.85
378.13	535.98
378.33	538.32
378.52	566.41
378.72	634.29
378.91	674.07
379.11	564.07
379.31	589.82
379.50	575.77
379.70	599.18
379.89	578.11
380.09	486.83
380.28	660.03
380.48	653.01
380.68	638.97
380.87	580.45
381.07	587.47
381.26	636.63
381.46	664.71
381.65	676.41
381.85	657.69
382.04	692.80
382.24	678.76
382.43	655.35
382.63	617.90
382.83	662.37
383.02	648.33
383.22	648.33
383.41	657.69
383.61	648.33
383.80	711.52
384.00	702.16
384.19	643.65
384.39	739.61
384.58	746.63
384.78	713.86
384.97	711.52
385.17	755.99
385.36	744.29
385.56	730.25
385.75	713.86
385.95	793.44
386.14	763.01
386.34	725.57
386.53	861.32
386.72	777.06
386.92	889.40
387.11	807.48
387.31	800.46
387.50	819.19
387.70	777.06
387.89	767.70
388.09	805.14
388.28	781.74
388.48	688.12
388.67	861.32
388.86	807.48
389.06	793.44
389.25	924.51
389.45	866.00
389.64	856.64
389.84	861.32
390.03	903.45
390.22	887.06
390.42	882.38
390.61	896.43
390.81	903.45
391.00	912.81
391.19	999.41
391.39	919.83
391.58	915.15
391.78	952.60
391.97	980.68
392.16	889.40
392.36	1043.88
392.55	952.60
392.75	985.37
392.94	954.94
393.13	997.07
393.33	980.68
393.52	1088.35
393.71	1071.97
393.91	961.96
394.10	1088.35
394.29	1001.75
394.49	1118.78
394.68	1076.65
394.88	959.62
395.07	1151.54
395.26	1020.47
395.46	1102.39
395.65	1083.67
395.84	1158.57
396.04	1170.27
396.23	1107.07
396.42	1170.27
396.62	1181.97
396.81	1219.42
397.00	1233.46
397.19	1200.69
397.39	1308.36
397.58	1240.48
397.77	1200.69
397.97	1240.48
398.16	1320.06
398.35	1275.59
398.55	1181.97
398.74	1282.61
398.93	1270.91
399.12	1392.62
399.32	1242.82
399.51	1357.51
399.70	1357.51
399.90	1404.32
400.09	1294.32
400.28	1420.71
400.47	1446.45
400.67	1404.32
400.86	1448.79
401.05	1420.71
401.24	1483.90
401.44	1437.09
401.63	1519.01
401.82	1469.86
402.01	1462.83
402.21	1495.60
402.40	1493.26
402.59	1465.18
402.78	1430.07
402.97	1451.13
403.17	1605.61
403.36	1687.53
403.55	1593.90
403.74	1636.03
403.93	1654.76
404.13	1586.88
404.32	1671.14
404.51	1586.88
404.70	1746.04
404.89	1631.35
405.09	1724.97
405.28	1717.95
405.47	1666.46
405.66	1870.09
405.85	1755.40
406.05	1790.51
406.24	1764.76
406.43	1802.21
406.62	1877.11
406.81	1870.09
407.00	1750.72
407.20	1806.89
407.39	1905.20
407.58	1935.62
407.77	2005.84
407.96	1968.39
408.15	1933.28
408.34	1954.35
408.54	1928.60
408.73	1996.48
408.92	2047.97
409.11	1994.14
409.30	2167.34
409.49	2097.12
409.68	2174.36
409.87	2104.14
410.07	2057.33
410.26	2211.81
410.45	2125.21
410.64	2132.23
410.83	2225.85
411.02	2221.17
411.21	2272.66
411.40	2370.96
411.59	2459.90
411.78	2251.60
411.98	2333.51
412.17	2464.58
412.36	2314.79
412.55	2368.62
412.74	2504.37
412.93	2483.31
413.12	2469.27
413.31	2647.15
413.50	2499.69
413.69	2597.99
413.88	2736.09
414.07	2726.72
414.26	2684.59
414.45	2729.06
414.64	2708.00
414.83	2747.79
415.02	2822.69
415.22	2899.92
415.41	2855.45
415.60	2916.31
415.79	2909.29
415.98	2937.37
416.17	2935.03
416.36	3038.02
416.55	2956.10
416.74	3042.70
416.93	3075.46
417.12	3206.53
417.31	3206.53
417.50	3110.57
417.69	3262.71
417.88	3103.55
418.07	3096.53
418.26	3325.90
418.45	3398.46
418.64	3405.48
418.83	3356.33
419.02	3445.27
419.21	3311.86
419.39	3346.97
419.58	3297.81
419.77	3456.97
419.96	3424.20
420.15	3578.68
420.34	3524.85
420.53	3581.02
420.72	3487.40
420.91	3669.96
421.10	3726.13
421.29	3707.41
421.48	3566.98
421.67	3726.13
421.86	3721.45
422.05	3651.24
422.24	3606.77
422.43	3669.96
422.61	3691.02
422.80	3840.82
422.99	3758.90
423.18	3669.96
423.37	3723.79
423.56	3728.47
423.75	3618.47
423.94	3695.71
424.13	3520.17
424.32	3676.98
424.50	3838.48
424.69	3929.76
424.88	3960.19
425.07	3880.61
425.26	3789.33
425.45	3744.86
425.64	3740.18
425.83	3810.39
426.01	3854.86
426.20	3889.97
426.39	3777.62
426.58	3826.78
426.77	3971.89
426.96	3887.63
427.15	3887.63
427.33	3957.85
427.52	4065.51
427.71	4081.89
427.90	4051.47
428.09	4100.62
428.28	4023.38
428.46	4147.43
428.65	4091.26
428.84	4262.12
429.03	4205.94
429.22	4025.72
429.40	4124.02
429.59	4248.07
429.78	4053.81
429.97	4224.67
430.16	4063.17
430.34	4269.14
430.53	4383.82
430.72	4360.42
430.91	4257.43
431.10	4334.67
431.28	4362.76
431.47	4341.69
431.66	4348.72
431.85	4423.61
432.03	4517.23
432.22	4650.64
432.41	4655.33
432.60	4542.98
432.79	4550.00
432.97	4482.13
433.16	4807.46
433.35	4566.39
433.54	4802.78
433.72	4718.52
433.91	4624.90
434.10	4638.94
434.28	4791.08
434.47	4641.28
434.66	4601.49
434.85	4884.70
435.03	4762.99
435.22	4901.08
435.41	5289.61
435.59	5427.70
435.78	5224.08
435.97	5214.71
436.16	5013.43
436.34	5107.05
436.53	5043.85
436.72	5219.39
436.90	5093.01
437.09	4922.15
437.28	4987.68
437.46	5074.28
437.65	5132.79
437.84	5174.92
438.02	5235.78
438.21	5217.05
438.40	5071.94
438.58	5221.74
438.77	5451.11
438.96	5226.42
439.14	5453.45
439.33	5423.02
439.52	5451.11
439.70	5584.52
439.89	5610.26
440.08	5673.46
440.26	5614.95
440.45	5563.45
440.63	5722.61
440.82	5820.91
441.01	5865.38
441.19	5893.47
441.38	6015.18
441.57	5973.05
441.75	6054.97
441.94	6057.31
442.12	6001.13
442.31	6179.01
442.50	6085.39
442.68	6242.21
442.87	6181.35
443.05	6083.05
443.24	6246.89
443.43	6352.21
443.61	6317.11
443.80	6644.78
443.98	6195.40
444.17	5961.34
444.35	6331.15
444.54	6448.18
444.73	6377.96
444.91	6464.56
445.10	6279.66
445.28	6415.41
445.47	6424.77
445.65	6382.64
445.84	6413.07
446.02	6389.66
446.21	6244.55
446.39	6284.34
446.58	6445.84
446.77	6502.01
446.95	6436.47
447.14	6434.13
447.32	6583.93
447.51	6403.71
447.69	6574.56
447.88	6572.22
448.06	6382.64
448.25	6506.69
448.43	6408.39
448.62	6427.11
448.80	6499.67
448.99	6619.04
449.17	6628.40
449.36	6590.95
449.54	6855.43
449.73	6693.93
449.91	7005.22
450.10	6794.58
450.28	6885.86
450.46	6927.99
450.65	6911.60
450.83	6923.30
451.02	6869.47
451.20	7033.31
451.39	6913.94
451.57	6984.16
451.76	7073.10
451.94	6974.80
452.13	7187.79
452.31	7307.15
452.49	6923.30
452.68	6981.82
452.86	7061.40
453.05	7335.24
453.23	7199.49
453.42	7155.02
453.60	7150.34
453.78	7222.89
453.97	7250.98
454.15	7047.35
454.34	7105.87
454.52	7351.62
454.70	7424.18
454.89	7407.80
455.07	7339.92
455.26	7286.09
455.44	7712.07
455.62	7503.76
455.81	7566.95
455.99	7482.69
456.17	7744.83
456.36	7492.05
456.54	7562.27
456.73	7691.00
456.91	8182.51
457.09	7962.50
457.28	8102.93
457.46	7859.52
457.64	7761.22
457.83	8030.38
458.01	7796.32
458.19	7999.95
458.38	8077.19
458.56	8163.79
458.74	8009.31
458.93	7929.74
459.11	7906.33
459.29	7988.25
459.48	8287.84
459.66	8245.71
459.84	8234.00
460.03	8360.39
460.21	8177.83
460.39	8180.17
460.57	8194.22
460.76	8578.06
460.94	8545.30
461.12	8547.64
461.31	8425.93
461.49	8306.56
461.67	8322.94
461.85	8800.41
462.04	8589.77
462.22	8652.96
462.40	8659.98
462.59	8692.75
462.77	8697.43
462.95	8774.67
463.13	8877.65
463.32	8791.05
463.50	8828.50
463.68	8854.25
463.86	8884.67
464.05	8725.52
464.23	8954.89
464.41	8903.40
464.59	8870.63
464.78	9022.77
464.96	9048.51
465.14	8847.22
465.32	8887.01
465.50	9020.42
465.69	9259.16
465.87	8950.21
466.05	9221.71
466.23	8980.64
466.41	9172.56
466.60	9298.95
466.78	9270.86
466.96	9186.60
467.14	8985.32
467.32	9327.03
467.51	9481.51
467.69	8940.85
467.87	9287.25
468.05	9415.98
468.23	9233.41
468.41	9280.22
468.60	9298.95
468.78	9563.43
468.96	9329.38
469.14	9549.39
469.32	9628.96
469.50	9275.54
469.69	9741.31
469.87	9830.25
470.05	9757.69
470.23	9806.84
470.41	9837.27
470.59	10017.49
470.77	9715.56
470.95	9736.63
471.14	10267.93
471.32	9811.53
471.50	10279.63
471.68	10111.11
471.86	10143.88
472.04	10246.87
472.22	10246.87
472.40	10237.50
472.58	10551.14
472.77	10420.06
472.95	10452.83
473.13	10888.17
473.31	10480.92
473.49	10726.68
473.67	10878.81
473.85	10562.84
474.03	10824.98
474.21	10850.72
474.39	10991.16
474.57	11199.46
474.75	10995.84
474.93	11136.27
475.12	11152.65
475.30	11400.75
475.48	11349.26
475.66	11367.98
475.84	11222.87
476.02	11410.11
476.20	11442.88
476.38	11583.31
476.56	11742.47
476.74	11744.81
476.92	11845.45
477.10	12070.14
477.28	11999.93
477.46	12063.12
477.64	12161.42
477.82	12287.81
478.00	12528.89
478.18	12587.40
478.36	12519.53
478.54	12702.09
478.72	12905.71
478.90	12837.84
479.08	13207.64
479.26	12805.07
479.44	13170.19
479.62	13394.89
479.80	13142.11
479.98	13209.98
480.16	13521.27
480.34	13675.75
480.52	13476.80
480.70	13783.41
480.88	13598.51
481.06	13926.19
481.24	13975.34
481.41	14157.90
481.59	14195.35
481.77	14410.68
481.95	14410.68
482.13	14691.54
482.31	14523.02
482.49	14988.79
482.67	14548.77
482.85	15023.90
483.03	15311.78
483.21	15482.64
483.39	15534.14
483.57	15463.92
483.74	15742.44
483.92	15868.83
484.10	15758.83
484.28	16030.33
484.46	16273.74
484.64	16255.02
484.82	16346.30
485.00	16248.00
485.18	16568.65
485.35	17034.42
485.53	16884.62
485.71	16842.50
485.89	17490.82
486.07	17282.52
486.25	17167.83
486.43	17310.60
486.61	17481.46
486.78	17699.13
486.96	17893.40
487.14	18094.68
487.32	18071.28
487.50	18242.14
487.68	18434.06
487.85	18478.53
488.03	18752.37
488.21	19131.54
488.39	19290.70
488.57	19222.82
488.75	19105.79
488.92	19599.65
489.10	19676.88
489.28	19850.08
489.46	19758.80
489.64	20154.35
489.81	20659.91
489.99	20510.11
490.17	20669.27
490.35	20526.50
490.53	20627.14
490.70	20912.69
490.88	21245.04
491.06	21284.83
491.24	21219.30
491.41	21071.84
491.59	21561.02
491.77	21022.69
491.95	22005.72
492.13	21858.26
492.30	21977.63
492.48	21998.70
492.66	22181.26
492.84	22403.61
493.01	22742.99
493.19	22469.14
493.37	23016.83
493.54	22948.95
493.72	23129.17
493.90	22855.33
494.08	23314.08
494.25	23498.98
494.43	23498.98
494.61	23798.57
494.79	24168.37
494.96	23653.45
495.14	24154.33
495.32	24477.32
495.49	24144.97
495.67	24381.36
495.85	24793.29
496.02	24664.57
496.20	24905.64
496.38	24861.17
496.55	24971.18
496.73	25195.87
496.91	25355.02
497.09	25568.01
497.26	25809.09
497.44	25682.70
497.62	25607.80
497.79	25986.97
497.97	26047.82
498.14	26506.57
498.32	26536.99
498.50	26539.33
498.67	26883.39
498.85	26316.98
499.03	26670.40
499.20	26888.07
499.38	26845.94
499.56	27096.38
499.73	27337.46
499.91	27424.06
500.08	27454.48
500.26	27307.03
500.44	27660.45
500.61	27630.02
500.79	27248.52
500.97	27857.06
501.14	28116.86
501.32	28011.53
501.49	28072.39
501.67	28079.41
501.84	28360.27
502.02	28229.20
502.20	28788.59
502.37	28797.95
502.55	28645.82
502.72	28655.18
502.90	29095.20
503.07	28875.19
503.25	29329.25
503.43	29015.62
503.60	29324.57
503.78	29305.85
503.95	29539.90
504.13	29947.15
504.30	29626.50
504.48	29446.28
504.65	29722.46
504.83	29947.15
505.01	30396.54
505.18	30085.25
505.36	30314.62
505.53	30139.08
505.71	30235.04
505.88	30235.04
506.06	30094.61
506.23	30635.27
506.41	30761.66
506.58	30621.23
506.76	30679.74
506.93	30852.94
507.11	30565.06
507.28	31089.34
507.46	31091.68
507.63	31543.40
507.81	31648.72
507.98	31150.19
508.16	31211.04
508.33	31445.10
508.50	31395.95
508.68	32046.62
508.85	32318.12
509.03	31981.08
509.20	32196.41
509.38	32109.81
509.55	32259.60
509.73	32364.93
509.90	32350.88
510.08	32381.31
510.25	32402.38
510.42	32425.78
510.60	32737.07
510.77	33188.80
510.95	33315.19
511.12	32561.53
511.30	32926.66
511.47	33202.84
511.64	33399.44
511.82	33780.95
511.99	33436.89
512.17	33750.52
512.34	33982.24
512.51	33813.72
512.69	33722.44
512.86	33865.21
513.04	33668.61
513.21	34391.83
513.38	34394.17
513.56	34387.15
513.73	34321.62
513.90	34375.45
514.08	34684.40
514.25	34230.33
514.43	34925.47
514.60	34719.51
514.77	34642.27
514.95	35126.76
515.12	35044.84
515.29	34595.46
515.47	35051.86
515.64	35269.53
515.81	35454.44
515.99	35620.61
516.16	35842.96
516.33	35697.85
516.51	35716.58
516.68	35653.38
516.85	35885.09
517.03	35761.05
517.20	35789.13
517.37	36339.16
517.54	36151.91
517.72	36343.84
517.89	36275.96
518.06	36189.36
518.24	36238.51
518.41	36500.65
518.58	36346.18
518.75	36629.38
518.93	36912.59
519.10	36847.05
519.27	36893.86
519.45	36737.05
519.62	36786.20
519.79	37127.92
519.96	36833.01
520.14	37249.63
520.31	37439.21
520.48	37553.90
520.65	37130.26
520.83	37862.85
521.00	37895.61
521.17	37434.53
521.34	37748.16
521.52	37900.29
521.69	38333.29
521.86	38143.71
522.03	38176.48
522.20	38279.46
522.38	38260.74
522.55	37862.85
522.72	37909.66
522.89	38665.65
523.07	38698.42
523.24	38567.35
523.41	38888.00
523.58	38417.55
523.75	38747.57
523.92	38508.83
524.10	38780.34
524.27	39068.22
524.44	38948.85
524.61	39496.54
524.78	39643.99
524.96	39398.24
525.13	39452.07
525.30	38843.53
525.47	39545.69
525.64	39660.38
525.81	39571.44
525.98	39880.39
526.16	40004.44
526.33	39728.25
526.50	39601.86
526.67	39299.94
526.84	40034.86
527.01	39374.83
527.18	39751.66
527.36	40027.84
527.53	40149.55
527.70	40156.57
527.87	40741.71
528.04	40524.04
528.21	40402.33
528.38	40687.87
528.55	40804.90
528.72	40505.31
528.89	40769.79
529.07	40517.01
529.24	40835.33
529.41	40690.21
529.58	40954.69
529.75	40914.90
529.92	40999.16
530.09	40439.78
530.26	40856.39
530.43	41060.02
530.60	41048.32
530.77	41319.82
530.94	41516.42
531.11	41258.96
531.28	41055.34
531.46	41214.49
531.63	41652.17
531.80	41617.07
531.97	41895.59
532.14	41698.98
532.31	41516.42
532.48	41783.24
532.65	41659.20
532.82	41769.20
532.99	41926.02
533.16	42094.53
533.33	41991.55
533.50	42333.27
533.67	41984.53
533.84	41968.15
534.01	42258.37
534.18	42213.90
534.35	42450.30
534.52	42403.49
534.69	42745.20
534.86	42862.23
535.03	42644.56
535.20	42553.28
535.37	42986.28
535.54	43009.68
535.71	42490.09
535.88	42387.10
536.05	42997.98
536.22	43234.38
536.38	42918.40
536.55	43255.44
536.72	43124.37
536.89	43089.26
537.06	43194.59
537.23	43030.75
537.40	43716.53
537.57	43330.34
537.74	43430.98
537.91	43491.83
538.08	43522.26
538.25	43196.93
538.42	43697.80
538.59	43370.13
538.75	43309.27
538.92	43395.87
539.09	43669.72
539.26	44170.59
539.43	43849.94
539.60	43639.29
539.77	43653.33
539.94	43906.11
540.11	44074.63
540.28	44580.18
540.44	44186.97
540.61	43906.11
540.78	44404.64
540.95	44116.76
541.12	44069.95
541.29	44685.51
541.46	44334.43
541.62	44304.00
541.79	44545.08
541.96	44435.07
542.13	44194.00
542.30	44959.35
542.47	44821.26
542.63	44924.24
542.80	45013.18
542.97	45361.92
543.14	45287.03
543.31	45125.53
543.48	45188.72
543.64	45497.67
543.81	45593.64
543.98	45265.96
544.15	45691.94
544.32	45827.69
544.48	45979.82
544.65	45476.61
544.82	45291.71
544.99	45429.80
545.16	45610.02
545.32	45928.33
545.49	46038.34
545.66	46579.00
545.83	46651.56
546.00	46686.67
546.16	45769.18
546.33	45783.22
546.50	45853.44
546.67	45869.82
546.83	45368.94
547.00	45743.43
547.17	46050.04
547.34	46167.07
547.50	45916.63
547.67	46284.09
547.84	45991.53
548.00	46597.73
548.17	46532.19
548.34	45977.48
548.51	46342.61
548.67	46649.22
548.84	46358.99
549.01	46483.04
549.18	46408.14
549.34	46419.84
549.51	46323.88
549.68	46335.59
549.84	46653.90
550.01	46522.83
550.18	46134.30
550.34	46616.45
550.51	46637.51
550.68	46712.41
550.84	46583.68
551.01	46848.16
551.18	46504.10
551.34	46595.38
551.51	46562.62
551.68	47049.45
551.84	46665.60
552.01	46686.67
552.18	46770.93
552.34	46749.86
552.51	47019.02
552.68	46719.43
552.84	47164.14
553.01	47131.37
553.18	46951.15
553.34	47150.09
553.51	47114.98
553.67	46981.57
553.84	47414.57
554.01	47426.28
554.17	46958.17
554.34	46962.85
554.51	47391.17
554.67	47573.73
554.84	46983.91
555.00	47480.11
555.17	47618.20
555.33	47552.66
555.50	47229.67
555.67	47342.02
555.83	47789.06
556.00	46981.57
556.16	47555.00
556.33	47536.28
556.50	47416.91
556.66	47639.26
556.83	47203.92
556.99	47437.98
557.16	47487.13
557.32	47423.93
557.49	47629.90
557.65	47461.38
557.82	47555.00
557.98	47372.44
558.15	47409.89
558.32	47519.90
558.48	47559.69
558.65	47791.40
558.81	47590.11
558.98	47973.96
559.14	47290.52
559.31	47566.71
559.47	47632.24
559.64	47737.57
559.80	48107.37
559.97	48025.45
560.13	47775.02
560.30	47962.26
560.46	48137.80
560.63	48072.26
560.79	48184.61
560.96	48004.39
561.12	47934.17
561.29	47922.47
561.45	47725.86
561.61	48196.31
561.78	48264.19
561.94	48128.44
562.11	48100.35
562.27	48126.10
562.44	47716.50
562.60	48285.25
562.77	47997.37
562.93	48058.22
563.10	48210.35
563.26	48046.52
563.42	48547.39
563.59	48428.02
563.75	48095.67
563.92	48463.13
564.08	48088.65
564.24	48100.35
564.41	47756.29
564.57	48168.22
564.74	48137.80
564.90	47973.96
565.07	48610.59
565.23	48161.20
565.39	48135.46
565.56	48247.80
565.72	48458.45
565.88	48470.15
566.05	48519.31
566.21	48364.83
566.38	48222.06
566.54	48219.72
566.70	48753.36
566.87	48713.57
567.03	48535.69
567.19	48846.98
567.36	48779.10
567.52	48289.93
567.68	48432.71
567.85	48418.66
568.01	48222.06
568.17	48303.98
568.34	48502.92
568.50	48561.44
568.66	48535.69
568.83	48364.83
568.99	48332.06
569.15	48261.85
569.32	48428.02
569.48	48388.24
569.64	48196.31
569.81	48706.55
569.97	48507.60
570.13	48507.60
570.30	48858.68
570.46	48704.21
570.62	48568.46
570.78	48369.51
570.95	48350.79
571.11	48956.99
571.27	48053.54
571.43	48678.46
571.60	48692.50
571.76	48582.50
571.92	48472.49
572.09	48488.88
572.25	48790.81
572.41	48238.44
572.57	48362.49
572.74	48772.08
572.90	48329.72
573.06	48528.67
573.22	48559.09
573.38	48996.77
573.55	48477.18
573.71	48638.67
573.87	48884.43
574.03	48804.85
574.20	48463.13
574.36	48484.20
574.52	48624.63
574.68	48404.62
574.84	48545.05
575.01	48542.71
575.17	48715.91
575.33	48896.13
575.49	48802.51
575.65	48732.29
575.82	48783.79
575.98	48999.12
576.14	49003.80
576.30	48774.42
576.46	48608.25
576.62	48671.44
576.79	48498.24
576.95	48432.71
577.11	48467.81
577.27	48870.39
577.43	48849.32
577.59	48914.86
577.75	48486.54
577.92	48320.36
578.08	48519.31
578.24	48666.76
578.40	48692.50
578.56	48828.26
578.72	48521.65
578.88	49191.04
579.04	49193.38
579.21	48809.53
579.37	49006.14
579.53	48933.58
579.69	48697.19
579.85	48699.53
580.01	48491.22
580.17	48912.52
580.33	48767.40
580.49	48821.23
580.65	48856.34
580.82	48823.58
580.98	49237.85
581.14	48591.86
581.30	48746.34
581.46	48624.63
581.62	48655.06
581.78	48411.64
581.94	49038.90
582.10	48395.26
582.26	48704.21
582.42	49109.12
582.58	48554.41
582.74	48928.90
582.90	49158.27
583.06	48704.21
583.22	48919.54
583.38	48612.93
583.54	48666.76
583.70	48273.55
583.86	48786.13
584.02	48619.95
584.18	49172.31
584.34	49031.88
584.50	49031.88
584.66	49020.18
584.82	48732.29
584.98	49251.89
585.14	48554.41
585.30	48769.74
585.46	48713.57
585.62	48804.85
585.78	48657.40
585.94	48360.15
586.10	48786.13
586.26	48786.13
586.42	49045.93
586.58	48751.02
586.74	49078.69
586.90	48821.23
587.06	48821.23
587.22	48898.47
587.38	49071.67
587.54	48851.66
587.70	48961.67
587.86	48556.75
588.02	48786.13
588.18	49315.09
588.34	49006.14
588.49	48942.94
588.65	48413.98
588.81	48662.08
588.97	48830.60
589.13	48540.37
589.29	48788.47
589.45	48924.22
589.61	49008.48
589.77	49256.57
589.93	48851.66
590.08	49338.49
590.24	49141.89
