SpectraSuite Data File
++++++++++++++++++++++++++++++++++++
Date: Fri Oct 04 11:39:30 GMT-05:00 2013
User: price-jones
Dark Spectrum Present: No
Reference Spectrum Present: No
Number of Sampled Component Spectra: 1
Spectrometers: USB2+H05261
Integration Time (usec): 100000 (USB2+H05261)
Spectra Averaged: 1 (USB2+H05261)
Boxcar Smoothing: 0 (USB2+H05261)
Correct for Electrical Dark: No (USB2+H05261)
Strobe/Lamp Enabled: No (USB2+H05261)
Correct for Detector Non-linearity: No (USB2+H05261)
Correct for Stray Light: No (USB2+H05261)
Number of Pixels in Processed Spectrum: 2048
>>>>>Begin Processed Spectral Data<<<<<
365.73	39.79
365.92	39.79
366.12	39.79
366.32	0.00
366.52	0.00
366.72	0.00
366.91	0.00
367.11	0.00
367.31	0.00
367.51	0.00
367.70	0.00
367.90	0.00
368.10	0.00
368.30	0.00
368.49	0.00
368.69	0.00
368.89	16.38
369.09	0.00
369.28	0.00
369.48	16.38
369.68	0.00
369.87	0.00
370.07	14.04
370.27	60.85
370.47	2.34
370.66	84.26
370.86	74.90
371.06	149.79
371.25	91.28
371.45	112.35
371.65	166.18
371.84	98.30
372.04	198.95
372.24	180.22
372.44	201.29
372.63	159.16
372.83	203.63
373.03	170.86
373.22	138.09
373.42	128.73
373.62	159.16
373.81	175.54
374.01	227.03
374.21	177.88
374.40	241.08
374.60	215.33
374.79	201.29
374.99	201.29
375.19	189.58
375.38	168.52
375.58	222.35
375.78	191.92
375.97	187.24
376.17	285.55
376.37	238.73
376.56	191.92
376.76	173.20
376.95	220.01
377.15	189.58
377.35	203.63
377.54	262.14
377.74	187.24
377.93	177.88
378.13	224.69
378.33	177.88
378.52	152.13
378.72	266.82
378.91	262.14
379.11	222.35
379.31	224.69
379.50	196.60
379.70	161.50
379.89	266.82
380.09	215.33
380.28	217.67
380.48	154.48
380.68	187.24
380.87	163.84
381.07	252.78
381.26	264.48
381.46	234.05
381.65	205.97
381.85	234.05
382.04	215.33
382.24	140.43
382.43	234.05
382.63	208.31
382.83	266.82
383.02	245.76
383.22	266.82
383.41	210.65
383.61	252.78
383.80	131.07
384.00	245.76
384.19	266.82
384.39	276.18
384.58	201.29
384.78	224.69
384.97	212.99
385.17	229.37
385.36	201.29
385.56	252.78
385.75	220.01
385.95	229.37
386.14	252.78
386.34	250.44
386.53	201.29
386.72	262.14
386.92	220.01
387.11	269.16
387.31	238.73
387.50	203.63
387.70	180.22
387.89	271.50
388.09	189.58
388.28	241.08
388.48	210.65
388.67	306.61
388.86	182.56
389.06	285.55
389.25	271.50
389.45	198.95
389.64	262.14
389.84	315.97
390.03	266.82
390.22	287.89
390.42	346.40
390.61	198.95
390.81	182.56
391.00	215.33
391.19	301.93
391.39	285.55
391.58	271.50
391.78	313.63
391.97	224.69
392.16	241.08
392.36	344.06
392.55	294.91
392.75	325.33
392.94	278.52
393.13	271.50
393.33	269.16
393.52	381.51
393.71	376.83
393.91	327.68
394.10	285.55
394.29	262.14
394.49	259.80
394.68	304.27
394.88	304.27
395.07	365.12
395.26	332.36
395.46	341.72
395.65	388.53
395.84	367.46
396.04	440.02
396.23	322.99
396.42	390.87
396.62	390.87
396.81	388.53
397.00	355.76
397.19	311.29
397.39	306.61
397.58	421.30
397.77	369.80
397.97	374.49
398.16	395.55
398.35	397.89
398.55	407.25
398.74	374.49
398.93	461.09
399.12	402.57
399.32	444.70
399.51	334.70
399.70	533.64
399.90	472.79
400.09	449.38
400.28	442.36
400.47	440.02
400.67	482.15
400.86	463.43
401.05	526.62
401.24	561.73
401.44	503.22
401.63	507.90
401.82	540.66
402.01	456.40
402.21	514.92
402.40	540.66
402.59	571.09
402.78	540.66
402.97	540.66
403.17	559.39
403.36	596.84
403.55	613.22
403.74	622.58
403.93	559.39
404.13	641.31
404.32	645.99
404.51	657.69
404.70	683.44
404.89	601.52
405.09	704.50
405.28	650.67
405.47	669.39
405.66	711.52
405.85	681.10
406.05	578.11
406.24	734.93
406.43	716.20
406.62	744.29
406.81	798.12
407.00	751.31
407.20	772.38
407.39	772.38
407.58	692.80
407.77	727.91
407.96	819.19
408.15	814.51
408.34	826.21
408.54	819.19
408.73	795.78
408.92	873.02
409.11	924.51
409.30	884.72
409.49	861.32
409.68	774.72
409.87	847.27
410.07	849.61
410.26	898.77
410.45	882.38
410.64	908.13
410.83	1036.86
411.02	997.07
411.21	1001.75
411.40	990.05
411.59	1081.33
411.78	1029.84
411.98	1050.90
412.17	957.28
412.36	1050.90
412.55	1090.69
412.74	1069.62
412.93	1102.39
413.12	1071.97
413.31	1200.69
413.50	1160.91
413.69	1193.67
413.88	1203.04
414.07	1228.78
414.26	1242.82
414.45	1198.35
414.64	1299.00
414.83	1301.34
415.02	1387.94
415.22	1287.29
415.41	1399.64
415.60	1392.62
415.79	1444.11
415.98	1434.75
416.17	1439.43
416.36	1444.11
416.55	1413.68
416.74	1462.83
416.93	1469.86
417.12	1521.35
417.31	1500.28
417.50	1549.43
417.69	1633.69
417.88	1584.54
418.07	1673.48
418.26	1598.59
418.45	1551.78
418.64	1722.63
418.83	1654.76
419.02	1626.67
419.21	1678.16
419.39	1645.40
419.58	1593.90
419.77	1743.70
419.96	1671.14
420.15	1778.81
420.34	1708.59
420.53	1715.61
420.72	1818.60
420.91	1671.14
421.10	1708.59
421.29	1781.15
421.48	1746.04
421.67	1778.81
421.86	1769.44
422.05	1877.11
422.24	1832.64
422.43	1888.81
422.61	1804.55
422.80	1851.36
422.99	1874.77
423.18	1823.28
423.37	1762.42
423.56	1877.11
423.75	1790.51
423.94	1778.81
424.13	1734.34
424.32	1687.53
424.50	1923.92
424.69	1802.21
424.88	1996.48
425.07	1846.68
425.26	1877.11
425.45	1954.35
425.64	1856.04
425.83	1844.34
426.01	1905.20
426.20	1940.30
426.39	1900.52
426.58	1914.56
426.77	1991.80
426.96	1977.75
427.15	1970.73
427.33	1975.41
427.52	1923.92
427.71	2052.65
427.90	2015.20
428.09	1961.37
428.28	1963.71
428.46	2073.71
428.65	2115.84
428.84	2118.18
429.03	2157.97
429.22	1989.46
429.40	2050.31
429.59	2153.29
429.78	2073.71
429.97	1984.77
430.16	2040.95
430.34	2169.68
430.53	2263.30
430.72	2300.75
430.91	2211.81
431.10	2136.91
431.28	2188.40
431.47	2211.81
431.66	2284.36
431.85	2253.94
432.03	2216.49
432.22	2307.77
432.41	2225.85
432.60	2317.13
432.79	2267.98
432.97	2263.30
433.16	2427.14
433.35	2267.98
433.54	2296.07
433.72	2303.09
433.91	2331.17
434.10	2319.47
434.28	2373.30
434.47	2380.32
434.66	2473.95
434.85	2406.07
435.03	2401.39
435.22	2654.17
435.41	2953.76
435.59	2876.52
435.78	2726.72
435.97	2602.68
436.16	2562.89
436.34	2534.80
436.53	2562.89
436.72	2572.25
436.90	2464.58
437.09	2480.97
437.28	2534.80
437.46	2621.40
437.65	2569.91
437.84	2710.34
438.02	2565.23
438.21	2511.39
438.40	2609.70
438.58	2590.97
438.77	2588.63
438.96	2705.66
439.14	2637.78
439.33	2834.39
439.52	2832.05
439.70	2841.41
439.89	2850.77
440.08	2944.39
440.26	2827.37
440.45	2787.58
440.63	2857.79
440.82	2822.69
441.01	2928.01
441.19	2981.84
441.38	3009.93
441.57	3033.33
441.75	3070.78
441.94	3066.10
442.12	2993.55
442.31	3026.31
442.50	3033.33
442.68	3183.13
442.87	3108.23
443.05	3197.17
443.24	3066.10
443.43	3143.34
443.61	3243.98
443.80	3265.05
443.98	3124.62
444.17	2895.24
444.35	3073.12
444.54	3316.54
444.73	3187.81
444.91	3133.98
445.10	3276.75
445.28	3192.49
445.47	3112.91
445.65	3185.47
445.84	3274.41
446.02	3269.73
446.21	3302.50
446.39	3192.49
446.58	3197.17
446.77	3276.75
446.95	3290.79
447.14	3227.60
447.32	3206.53
447.51	3234.62
447.69	3351.65
447.88	3300.16
448.06	3206.53
448.25	3211.22
448.43	3251.00
448.62	3248.66
448.80	3260.37
448.99	3304.84
449.17	3213.56
449.36	3487.40
449.54	3431.23
449.73	3510.80
449.91	3398.46
450.10	3386.76
450.28	3529.53
450.46	3510.80
450.65	3555.27
450.83	3503.78
451.02	3543.57
451.20	3630.17
451.39	3424.20
451.57	3405.48
451.76	3428.88
451.94	3599.74
452.13	3644.21
452.31	3555.27
452.49	3527.19
452.68	3522.51
452.86	3604.42
453.05	3574.00
453.23	3684.00
453.42	3707.41
453.60	3562.30
453.78	3686.34
453.97	3588.04
454.15	3758.90
454.34	3709.75
454.52	3735.50
454.70	3758.90
454.89	3815.07
455.07	3754.22
455.26	3719.11
455.44	3798.69
455.62	3653.58
455.81	3925.08
455.99	3833.80
456.17	3896.99
456.36	3908.69
456.54	3964.87
456.73	3925.08
456.91	3950.82
457.09	3999.98
457.28	3932.10
457.46	3943.80
457.64	3957.85
457.83	4053.81
458.01	3953.16
458.19	4063.17
458.38	3899.33
458.56	4049.13
458.74	4021.04
458.93	4095.94
459.11	4046.79
459.29	4044.45
459.48	4227.01
459.66	4152.11
459.84	4231.69
460.03	4198.92
460.21	4196.58
460.39	4049.13
460.57	4095.94
460.76	4093.60
460.94	4177.86
461.12	4236.37
461.31	4271.48
461.49	4234.03
461.67	4243.39
461.85	4292.54
462.04	4280.84
462.22	4421.27
462.40	4346.37
462.59	4215.30
462.77	4388.50
462.95	4442.34
463.13	4463.40
463.32	4491.49
463.50	4435.32
463.68	4346.37
463.86	4430.63
464.05	4603.83
464.23	4458.72
464.41	4369.78
464.59	4407.23
464.78	4554.68
464.96	4493.83
465.14	4442.34
465.32	4411.91
465.50	4645.96
465.69	4458.72
465.87	4498.51
466.05	4634.26
466.23	4526.60
466.41	4634.26
466.60	4664.69
466.78	4592.13
466.96	4711.50
467.14	4671.71
467.32	4557.02
467.51	4674.05
467.69	4648.30
467.87	4636.60
468.05	4734.90
468.23	4816.82
468.41	4692.77
468.60	4835.55
468.78	4809.80
468.96	4760.65
469.14	4873.00
469.32	4868.31
469.50	4716.18
469.69	4849.59
469.87	4954.91
470.05	5050.88
470.23	5118.75
470.41	5029.81
470.59	4924.49
470.77	5013.43
470.95	4877.68
471.14	4903.42
471.32	5081.30
471.50	5015.77
471.68	5167.90
471.86	5135.14
472.04	5039.17
472.22	5320.04
472.40	4968.96
472.58	5364.51
472.77	5352.81
472.95	5146.84
473.13	5509.62
473.31	5305.99
473.49	5233.44
473.67	5385.57
473.85	5385.57
474.03	5423.02
474.21	5474.51
474.39	5493.24
474.57	5558.77
474.75	5535.37
474.93	5605.58
475.12	5668.78
475.30	5760.06
475.48	5678.14
475.66	5722.61
475.84	5734.31
476.02	5582.18
476.20	5692.18
476.38	6005.81
476.56	5867.72
476.74	5944.96
476.92	5947.30
477.10	5940.28
477.28	6017.52
477.46	5968.37
477.64	6258.59
477.82	6197.74
478.00	6277.32
478.18	6108.80
478.36	6459.88
478.54	6420.09
478.72	6429.45
478.90	6441.15
479.08	6457.54
479.26	6483.28
479.44	6434.13
479.62	6757.13
479.80	6644.78
479.98	6555.84
480.16	6810.96
480.34	6843.73
480.52	6846.07
480.70	6862.45
480.88	6841.39
481.06	6799.26
481.24	6925.65
481.41	7131.61
481.59	7138.63
481.77	7236.94
481.95	7384.39
482.13	7293.11
482.31	7314.17
482.49	7508.44
482.67	7346.94
482.85	7440.56
483.03	7545.89
483.21	7588.02
483.39	7861.86
483.57	7901.65
483.74	7925.05
483.92	7992.93
484.10	7882.92
484.28	8074.85
484.46	8205.92
484.64	8369.76
484.82	8135.70
485.00	8365.07
485.18	8372.10
485.35	8524.23
485.53	8374.44
485.71	8528.91
485.89	8643.60
486.07	8762.97
486.25	8545.30
486.43	8765.31
486.61	8634.24
486.78	8973.61
486.96	9116.39
487.14	9088.30
487.32	9142.13
487.50	9057.87
487.68	9441.72
487.85	9214.69
488.03	9572.79
488.21	9472.15
488.39	9528.32
488.57	9568.11
488.75	9540.02
488.92	9731.95
489.10	9762.37
489.28	9947.28
489.46	9724.93
489.64	10008.13
489.81	10326.44
489.99	10230.48
490.17	10403.68
490.35	10406.02
490.53	10373.25
490.70	10408.36
490.88	10377.94
491.06	10602.63
491.24	10429.43
491.41	10654.12
491.59	10820.30
491.77	10525.39
491.95	10829.66
492.13	10757.10
492.30	10930.30
492.48	10827.32
492.66	11171.38
492.84	11152.65
493.01	11197.12
493.19	11131.59
493.37	11220.53
493.54	11370.32
493.72	11503.73
493.90	11314.15
494.08	11468.62
494.25	11618.42
494.43	11604.38
494.61	11873.54
494.79	11644.17
494.96	12060.78
495.14	11791.62
495.32	12053.76
495.49	12203.55
495.67	12123.98
495.85	12301.86
496.02	12475.06
496.20	12491.44
496.38	12409.52
496.55	12348.67
496.73	12725.49
496.91	12723.15
497.09	12549.95
497.26	12514.84
497.44	12685.70
497.62	12973.59
497.79	12894.01
497.97	13139.77
498.14	12989.97
498.32	13331.69
498.50	13298.92
498.67	13142.11
498.85	13291.90
499.03	13469.78
499.20	13151.47
499.38	13401.91
499.56	13570.43
499.73	13586.81
499.91	13825.54
500.08	13729.58
500.26	13682.77
500.44	13701.50
500.61	13727.24
500.79	13898.10
500.97	13874.70
501.14	14288.97
501.32	14075.98
501.49	14230.46
501.67	13961.30
501.84	14146.20
502.02	14321.74
502.20	14019.81
502.37	14516.00
502.55	14319.40
502.72	14223.44
502.90	14464.51
503.07	14310.04
503.25	14595.58
503.43	14352.16
503.60	14820.27
503.78	14609.62
503.95	14567.49
504.13	14719.63
504.30	14780.48
504.48	14827.29
504.65	15084.75
504.83	15061.35
505.01	14799.21
505.18	15103.48
505.36	15272.00
505.53	15227.53
505.71	15382.00
505.88	15372.64
506.06	15370.30
506.23	15131.56
506.41	15382.00
506.58	15538.82
506.76	15463.92
506.93	15393.70
507.11	15592.65
507.28	15609.03
507.46	15611.37
507.63	15655.84
507.81	15716.70
507.98	15873.51
508.16	16116.93
508.33	15899.26
508.50	15613.71
508.68	15807.98
508.85	16198.85
509.03	16063.10
509.20	16280.77
509.38	16439.92
509.55	16140.33
509.73	16266.72
509.90	16563.97
510.08	16231.62
510.25	16397.79
510.42	16587.38
510.60	16491.41
510.77	16648.23
510.95	16828.45
511.12	16697.38
511.30	16362.69
511.47	16968.88
511.64	16910.37
511.82	17069.53
511.99	16936.12
512.17	17062.51
512.34	17013.35
512.51	17074.21
512.69	16996.97
512.86	17121.02
513.04	17490.82
513.21	17376.14
513.38	17195.92
513.56	17633.60
513.73	17486.14
513.90	17434.65
514.08	17350.39
514.25	17193.58
514.43	17488.48
514.60	17570.40
514.77	17750.62
514.95	17965.95
515.12	17921.48
515.29	17699.13
515.47	17612.53
515.64	17811.48
515.81	17736.58
515.99	18064.25
516.16	18253.84
516.33	18221.07
516.51	18120.43
516.68	18040.85
516.85	18209.37
517.03	18230.43
517.20	18403.63
517.37	18656.41
517.54	18354.48
517.72	18207.03
517.89	18272.56
518.06	18326.39
518.24	18464.49
518.41	18635.35
518.58	18508.96
518.75	18768.76
518.93	18785.14
519.10	18665.77
519.27	18817.91
519.45	18911.53
519.62	18609.60
519.79	18993.45
519.96	18944.30
520.14	18672.79
520.31	18750.03
520.48	18815.57
520.65	18911.53
520.83	18948.98
521.00	19206.44
521.17	18984.09
521.34	19035.58
521.52	19365.59
521.69	19236.86
521.86	19506.02
522.03	19594.96
522.20	19304.74
522.38	19606.67
522.55	19459.21
522.72	19597.31
522.89	19321.12
523.07	19941.36
523.24	19522.41
523.41	19770.51
523.58	19772.85
523.75	19669.86
523.92	19697.95
524.10	19805.61
524.27	19899.23
524.44	20063.07
524.61	20079.46
524.78	20196.48
524.96	20135.63
525.13	19817.32
525.30	20016.26
525.47	20112.22
525.64	19903.92
525.81	20465.64
525.98	20297.13
526.16	20119.24
526.33	20292.44
526.50	20648.21
526.67	20044.35
526.84	20273.72
527.01	20458.62
527.18	20369.68
527.36	20732.47
527.53	20706.72
527.70	20692.68
527.87	20587.35
528.04	20788.64
528.21	20620.12
528.38	20884.60
528.55	21003.97
528.72	20943.11
528.89	21013.33
529.07	20788.64
529.24	20877.58
529.41	20886.94
529.58	21015.67
529.75	20844.81
529.92	21280.15
530.09	20905.66
530.26	21193.55
530.43	21013.33
530.60	21137.38
530.77	21394.84
530.94	21219.30
531.11	21142.06
531.28	21193.55
531.46	21490.80
531.63	21310.58
531.80	21441.65
531.97	21460.37
532.14	21860.60
532.31	21422.92
532.48	21598.46
532.65	21617.19
532.82	21142.06
532.99	21954.22
533.16	21628.89
533.33	21708.47
533.50	21958.91
533.67	21846.56
533.84	21762.30
534.01	21633.57
534.18	21645.27
534.35	21867.63
534.52	21783.37
534.69	21912.10
534.86	22064.23
535.03	21940.18
535.20	21965.93
535.37	22089.98
535.54	22174.24
535.71	22218.71
535.88	21738.90
536.05	22040.82
536.22	22057.21
536.38	22066.57
536.55	22061.89
536.72	22204.66
536.89	21977.63
537.06	22157.85
537.23	22225.73
537.40	22317.01
537.57	22352.12
537.74	22469.14
537.91	22710.22
538.08	22579.15
538.25	22190.62
538.42	22761.71
538.59	22216.36
538.75	22192.96
538.92	22574.47
539.09	22682.13
539.26	22611.92
539.43	22724.26
539.60	22794.48
539.77	22747.67
539.94	22979.38
540.11	23293.01
540.28	22841.29
540.44	22911.50
540.61	23101.09
540.78	23063.64
540.95	23190.03
541.12	23297.69
541.29	23555.15
541.46	23290.67
541.62	23264.92
541.79	23508.34
541.96	23225.14
542.13	23562.17
542.30	23651.11
542.47	23711.97
542.63	23793.89
542.80	23580.90
542.97	23695.58
543.14	23997.51
543.31	23749.42
543.48	23723.67
543.64	23988.15
543.81	23887.51
543.98	23948.36
544.15	23857.08
544.32	23772.82
544.48	23927.30
544.65	23562.17
544.82	23868.78
544.99	23726.01
545.16	23866.44
545.32	23681.54
545.49	24737.12
545.66	25179.48
545.83	25329.28
546.00	25277.79
546.16	24723.08
546.33	24456.26
546.50	23887.51
546.67	24224.54
546.83	23960.06
547.00	24315.83
547.17	24350.93
547.34	24044.32
547.50	24430.51
547.67	24432.85
547.84	24236.25
548.00	24238.59
548.17	24341.57
548.34	24072.41
548.51	24217.52
548.67	24402.43
548.84	24772.23
549.01	24004.53
549.18	24327.53
549.34	24498.39
549.51	24084.11
549.68	24439.87
549.84	24137.94
550.01	24074.75
550.18	24336.89
550.34	24163.69
550.51	24732.44
550.68	24435.19
550.84	24360.30
551.01	24692.65
551.18	24201.14
551.34	24348.59
551.51	24589.67
551.68	24397.74
551.84	24273.70
552.01	24652.86
552.18	24709.04
552.34	24423.49
552.51	24723.08
552.68	24603.71
552.84	24510.09
553.01	24657.54
553.18	24854.15
553.34	24641.16
553.51	24678.61
553.67	24964.15
553.84	24809.68
554.01	25001.60
554.17	24599.03
554.34	24404.77
554.51	24741.80
554.67	24793.29
554.84	25055.43
555.00	24671.59
555.17	24800.32
555.33	24828.40
555.50	24865.85
555.67	24706.70
555.83	25102.25
556.00	24748.82
556.16	24769.89
556.33	24430.51
556.50	25039.05
556.66	24893.94
556.83	24767.55
556.99	25221.61
557.16	24929.05
557.32	24531.15
557.49	25083.52
557.65	24830.74
557.82	24849.47
557.98	24882.24
558.15	25123.31
558.32	25057.78
558.48	24907.98
558.65	25067.14
558.81	25296.51
558.98	25010.96
559.14	25032.03
559.31	24807.34
559.47	24924.36
559.64	24943.09
559.80	25113.95
559.97	25422.90
560.13	24753.51
560.30	24989.90
560.46	25500.14
560.63	25025.01
560.79	25078.84
560.96	25343.32
561.12	25219.27
561.29	24989.90
561.45	25472.05
561.61	25212.25
561.78	25291.83
561.94	25076.50
562.11	25282.47
562.27	25305.87
562.44	25130.33
562.60	25254.38
562.77	25219.27
562.93	25301.19
563.10	25591.42
563.26	25046.07
563.42	25474.39
563.59	25420.56
563.75	25350.34
563.92	25259.06
564.08	25350.34
564.24	24863.51
564.41	25383.11
564.57	25287.15
564.74	25289.49
564.90	25474.39
565.07	25633.55
565.23	25614.82
565.39	25385.45
565.56	25460.35
565.72	24985.22
565.88	25462.69
566.05	25731.85
566.21	25214.59
566.38	25319.92
566.54	25502.48
566.70	25511.84
566.87	25507.16
567.03	25703.76
567.19	25532.90
567.36	25422.90
567.52	25563.33
567.68	25504.82
567.85	25172.46
568.01	25565.67
568.17	25397.15
568.34	25694.40
568.50	25757.60
568.66	25584.40
568.83	25406.52
568.99	25259.06
569.15	25502.48
569.32	25153.74
569.48	25015.65
569.64	25450.99
569.81	25413.54
569.97	25156.08
570.13	25481.41
570.30	25731.85
570.46	25783.34
570.62	25598.44
570.78	25558.65
570.95	25493.12
571.11	25481.41
571.27	25338.64
571.43	25422.90
571.60	25769.30
571.76	25490.77
571.92	25841.85
572.09	25474.39
572.25	25956.54
572.41	25591.42
572.57	25628.87
572.74	25467.37
572.90	25069.48
573.06	25319.92
573.22	25575.03
573.38	25511.84
573.55	25759.94
573.71	26082.93
573.87	25530.56
574.03	25617.16
574.20	25930.80
574.36	25521.20
574.52	25778.66
574.68	25528.22
574.84	25598.44
575.01	25579.71
575.17	25743.55
575.33	25383.11
575.49	25589.08
575.65	25818.45
575.82	25551.63
575.98	25813.77
576.14	25685.04
576.30	25710.78
576.46	25837.17
576.62	25694.40
576.79	25722.49
576.95	25731.85
577.11	25586.74
577.27	25919.09
577.43	25701.42
577.59	25912.07
577.75	25827.81
577.92	25415.88
578.08	25689.72
578.24	25685.04
578.40	25357.36
578.56	25933.14
578.72	25979.95
578.88	26099.31
579.04	26094.63
579.21	25933.14
579.37	25692.06
579.53	25752.91
579.69	25408.86
579.85	26216.34
580.01	25773.98
580.17	25692.06
580.33	25745.89
580.49	25998.67
580.65	25766.96
580.82	25937.82
580.98	25776.32
581.14	25575.03
581.30	25881.64
581.46	25422.90
581.62	25687.38
581.78	25750.57
581.94	25811.43
582.10	25809.09
582.26	25837.17
582.42	25841.85
582.58	25788.02
582.74	25640.57
582.90	26089.95
583.06	25586.74
583.22	25846.54
583.38	26029.10
583.54	25589.08
583.70	25764.62
583.86	25731.85
584.02	25542.27
584.18	26155.49
584.34	25603.12
584.50	25963.56
584.66	25696.74
584.82	25759.94
584.98	25586.74
585.14	25984.63
585.30	25804.41
585.46	25874.62
585.62	25460.35
585.78	26204.64
585.94	25673.34
586.10	26052.50
586.26	26125.06
586.42	25731.85
586.58	25916.75
586.74	26171.87
586.90	25837.17
587.06	25837.17
587.22	25865.26
587.38	26113.36
587.54	25865.26
587.70	25654.61
587.86	26277.19
588.02	25781.00
588.18	26155.49
588.34	26096.97
588.49	25766.96
588.65	25799.73
588.81	25916.75
588.97	26071.23
589.13	25640.57
589.29	25879.30
589.45	25965.90
589.61	26008.03
589.77	26314.64
589.93	26052.50
590.08	25530.56
590.24	26235.06
590.40	25645.25
590.56	25898.03
590.72	26396.56
590.88	25671.00
591.04	26075.91
591.20	26047.82
591.35	25979.95
591.51	26499.55
591.67	26094.63
591.83	26338.05
591.99	26192.94
592.15	25937.82
592.31	25909.73
