SpectraSuite Data File
++++++++++++++++++++++++++++++++++++
Date: Fri Oct 04 11:39:31 GMT-05:00 2013
User: price-jones
Dark Spectrum Present: No
Reference Spectrum Present: No
Number of Sampled Component Spectra: 1
Spectrometers: USB2+H05261
Integration Time (usec): 100000 (USB2+H05261)
Spectra Averaged: 1 (USB2+H05261)
Boxcar Smoothing: 0 (USB2+H05261)
Correct for Electrical Dark: No (USB2+H05261)
Strobe/Lamp Enabled: No (USB2+H05261)
Correct for Detector Non-linearity: No (USB2+H05261)
Correct for Stray Light: No (USB2+H05261)
Number of Pixels in Processed Spectrum: 2048
>>>>>Begin Processed Spectral Data<<<<<
365.73	77.24
365.92	77.24
366.12	77.24
366.32	0.00
366.52	0.00
366.72	51.49
366.91	0.00
367.11	0.00
367.31	0.00
367.51	0.00
367.70	0.00
367.90	0.00
368.10	0.00
368.30	0.00
368.49	0.00
368.69	0.00
368.89	0.00
369.09	0.00
369.28	0.00
369.48	0.00
369.68	30.43
369.87	0.00
370.07	4.68
370.27	0.00
370.47	11.70
370.66	229.37
370.86	264.48
371.06	388.53
371.25	360.44
371.45	337.04
371.65	325.33
371.84	346.40
372.04	304.27
372.24	421.30
372.44	381.51
372.63	372.15
372.83	458.74
373.03	346.40
373.22	337.04
373.42	407.25
373.62	346.40
373.81	458.74
374.01	414.27
374.21	433.00
374.40	491.51
374.60	423.64
374.79	479.81
374.99	430.66
375.19	369.80
375.38	416.62
375.58	407.25
375.78	479.81
375.97	411.93
376.17	451.72
376.37	510.24
376.56	465.77
376.76	444.70
376.95	475.13
377.15	468.11
377.35	482.15
377.54	472.79
377.74	414.27
377.93	491.51
378.13	486.83
378.33	519.60
378.52	519.60
378.72	573.43
378.91	510.24
379.11	559.39
379.31	491.51
379.50	514.92
379.70	500.87
379.89	678.76
380.09	475.13
380.28	512.58
380.48	479.81
380.68	472.79
380.87	507.90
381.07	514.92
381.26	587.47
381.46	540.66
381.65	493.85
381.85	512.58
382.04	538.32
382.24	566.41
382.43	599.18
382.63	512.58
382.83	566.41
383.02	573.43
383.22	582.79
383.41	554.71
383.61	575.77
383.80	559.39
384.00	653.01
384.19	606.20
384.39	557.05
384.58	596.84
384.78	543.00
384.97	601.52
385.17	566.41
385.36	650.67
385.56	615.56
385.75	620.24
385.95	557.05
386.14	692.80
386.34	566.41
386.53	634.29
386.72	624.92
386.92	688.12
387.11	734.93
387.31	662.37
387.50	657.69
387.70	777.06
387.89	709.18
388.09	678.76
388.28	657.69
388.48	678.76
388.67	725.57
388.86	800.46
389.06	713.86
389.25	706.84
389.45	744.29
389.64	718.54
389.84	795.78
390.03	704.50
390.22	844.93
390.42	758.33
390.61	786.42
390.81	784.08
391.00	802.80
391.19	751.31
391.39	753.65
391.58	828.55
391.78	816.85
391.97	884.72
392.16	786.42
392.36	882.38
392.55	894.08
392.75	870.68
392.94	868.34
393.13	837.91
393.33	772.38
393.52	884.72
393.71	954.94
393.91	889.40
394.10	880.04
394.29	952.60
394.49	945.58
394.68	997.07
394.88	856.64
395.07	924.51
395.26	971.32
395.46	994.73
395.65	957.28
395.84	1029.84
396.04	985.37
396.23	1027.50
396.42	1008.77
396.62	1004.09
396.81	966.64
397.00	1029.84
397.19	1006.43
397.39	1011.11
397.58	1022.81
397.77	1062.60
397.97	1137.50
398.16	1078.99
398.35	1153.88
398.55	1177.29
398.74	1240.48
398.93	1210.06
399.12	1046.22
399.32	1097.71
399.51	1090.69
399.70	1186.65
399.90	1188.99
400.09	1170.27
400.28	1277.93
400.47	1200.69
400.67	1214.74
400.86	1247.51
401.05	1217.08
401.24	1275.59
401.44	1193.67
401.63	1205.38
401.82	1306.02
402.01	1284.95
402.21	1352.83
402.40	1392.62
402.59	1308.36
402.78	1364.53
402.97	1331.76
403.17	1432.41
403.36	1390.28
403.55	1474.54
403.74	1460.49
403.93	1439.43
404.13	1526.03
404.32	1483.90
404.51	1558.80
404.70	1479.22
404.89	1519.01
405.09	1547.09
405.28	1507.30
405.47	1533.05
405.66	1708.59
405.85	1535.39
406.05	1668.80
406.24	1650.08
406.43	1636.03
406.62	1640.72
406.81	1755.40
407.00	1652.42
407.20	1652.42
407.39	1746.04
407.58	1724.97
407.77	1659.44
407.96	1799.87
408.15	1813.92
408.34	1802.21
408.54	1874.77
408.73	1832.64
408.92	1839.66
409.11	1944.99
409.30	1919.24
409.49	1968.39
409.68	1818.60
409.87	1954.35
410.07	1944.99
410.26	2040.95
410.45	1966.05
410.64	2078.40
410.83	2080.74
411.02	2005.84
411.21	2111.16
411.40	2186.06
411.59	2136.91
411.78	2214.15
411.98	2214.15
412.17	2160.31
412.36	2197.76
412.55	2291.38
412.74	2324.15
412.93	2382.67
413.12	2256.28
413.31	2511.39
413.50	2396.71
413.69	2431.82
413.88	2452.88
414.07	2555.86
414.26	2509.05
414.45	2516.08
414.64	2539.48
414.83	2619.06
415.02	2677.57
415.22	2600.34
415.41	2803.96
415.60	2745.45
415.79	2696.30
415.98	2815.66
416.17	2785.24
416.36	2860.13
416.55	2848.43
416.74	2988.86
416.93	2850.77
417.12	2937.37
417.31	2916.31
417.50	2911.63
417.69	3073.12
417.88	3073.12
418.07	2972.48
418.26	3136.32
418.45	3222.92
418.64	3241.64
418.83	3169.09
419.02	3215.90
419.21	3229.94
419.39	3286.11
419.58	3126.96
419.77	3166.74
419.96	3232.28
420.15	3302.50
420.34	3396.12
420.53	3368.03
420.72	3414.84
420.91	3426.54
421.10	3304.84
421.29	3538.89
421.48	3389.10
421.67	3545.91
421.86	3440.59
422.05	3485.06
422.24	3534.21
422.43	3662.94
422.61	3574.00
422.80	3562.30
422.99	3623.15
423.18	3676.98
423.37	3632.51
423.56	3637.19
423.75	3655.92
423.94	3578.68
424.13	3478.04
424.32	3463.99
424.50	3578.68
424.69	3772.94
424.88	3784.65
425.07	3669.96
425.26	3686.34
425.45	3705.07
425.64	3691.02
425.83	3744.86
426.01	3801.03
426.20	3744.86
426.39	3632.51
426.58	3742.52
426.77	3770.60
426.96	3810.39
427.15	3665.28
427.33	3756.56
427.52	3880.61
427.71	3808.05
427.90	3688.68
428.09	3845.50
428.28	3976.57
428.46	3854.86
428.65	4002.32
428.84	4065.51
429.03	4049.13
429.22	3857.20
429.40	4124.02
429.59	4046.79
429.78	4007.00
429.97	3880.61
430.16	3976.57
430.34	4098.28
430.53	4102.96
430.72	4107.64
430.91	4173.18
431.10	4042.11
431.28	4294.88
431.47	4203.60
431.66	4308.93
431.85	4276.16
432.03	4301.90
432.22	4355.74
432.41	4355.74
432.60	4238.71
432.79	4409.57
432.97	4430.63
433.16	4369.78
433.35	4271.48
433.54	4575.75
433.72	4627.24
433.91	4444.68
434.10	4648.30
434.28	4526.60
434.47	4554.68
434.66	4601.49
434.85	4636.60
435.03	4671.71
435.22	4777.03
435.41	5221.74
435.59	4992.36
435.78	4873.00
435.97	4929.17
436.16	4709.16
436.34	4821.50
436.53	4760.65
436.72	4851.93
436.90	4873.00
437.09	4905.76
437.28	4905.76
437.46	4968.96
437.65	5008.75
437.84	4997.04
438.02	4938.53
438.21	5067.26
438.40	4840.23
438.58	5174.92
438.77	4975.98
438.96	5249.82
439.14	5151.52
439.33	5224.08
439.52	5345.78
439.70	5284.93
439.89	5490.90
440.08	5423.02
440.26	5430.04
440.45	5387.91
440.63	5355.15
440.82	5547.07
441.01	5458.13
441.19	5561.11
441.38	5750.70
441.57	5755.38
441.75	5811.55
441.94	5788.14
442.12	5832.62
442.31	5949.64
442.50	5935.60
442.68	5916.87
442.87	5858.36
443.05	5863.04
443.24	6069.01
443.43	6136.88
443.61	6040.92
443.80	6328.81
443.98	5984.75
444.17	5865.38
444.35	6097.10
444.54	6176.67
444.73	6155.61
444.91	6101.78
445.10	6118.16
445.28	6050.28
445.47	6162.63
445.65	6225.82
445.84	6253.91
446.02	6279.66
446.21	6190.72
446.39	6249.23
446.58	6183.70
446.77	6279.66
446.95	6108.80
447.14	6319.45
447.32	6408.39
447.51	6279.66
447.69	6174.33
447.88	6083.05
448.06	6202.42
448.25	6310.08
448.43	6384.98
448.62	6431.79
448.80	6225.82
448.99	6424.77
449.17	6303.06
449.36	6548.82
449.54	6492.65
449.73	6410.73
449.91	6576.91
450.10	6785.21
450.28	6684.57
450.46	6644.78
450.65	6539.46
450.83	6719.68
451.02	6567.54
451.20	6635.42
451.39	6789.89
451.57	6888.20
451.76	6750.10
451.94	6689.25
452.13	6799.26
452.31	7040.33
452.49	6787.55
452.68	6810.96
452.86	6995.86
453.05	7007.56
453.23	6942.03
453.42	6778.19
453.60	6855.43
453.78	6855.43
453.97	6932.67
454.15	7023.95
454.34	6986.50
454.52	7276.73
454.70	7108.21
454.89	7021.61
455.07	7236.94
455.26	7229.91
455.44	7335.24
455.62	7229.91
455.81	7414.82
455.99	7421.84
456.17	7431.20
456.36	7330.56
456.54	7536.52
456.73	7630.15
456.91	7454.61
457.09	7634.83
457.28	7730.79
457.46	7494.40
457.64	7751.85
457.83	7588.02
458.01	7557.59
458.19	7850.16
458.38	7801.01
458.56	7793.98
458.74	7782.28
458.93	7915.69
459.11	7646.53
459.29	7974.21
459.48	8025.70
459.66	8002.29
459.84	8011.65
460.03	8035.06
460.21	8109.96
460.39	8098.25
460.57	7969.52
460.76	8037.40
460.94	8074.85
461.12	8219.96
461.31	8100.59
461.49	8234.00
461.67	7985.91
461.85	8428.27
462.04	8304.22
462.22	8376.78
462.40	8458.70
462.59	8479.76
462.77	8388.48
462.95	8383.80
463.13	8278.47
463.32	8685.73
463.50	8327.63
463.68	8414.23
463.86	8449.33
464.05	8411.89
464.23	8299.54
464.41	8643.60
464.59	8423.59
464.78	8837.86
464.96	8688.07
465.14	8617.85
465.32	8664.66
465.50	8784.03
465.69	8781.69
465.87	8746.58
466.05	8774.67
466.23	8648.28
466.41	8870.63
466.60	9067.24
466.78	8791.05
466.96	8879.99
467.14	8990.00
467.32	9034.47
467.51	9109.36
467.69	8936.17
467.87	9022.77
468.05	9142.13
468.23	9067.24
468.41	9083.62
468.60	9170.22
468.78	9273.20
468.96	9231.07
469.14	9263.84
469.32	9146.81
469.50	8973.61
469.69	9476.83
469.87	9778.76
470.05	9600.88
470.23	9490.87
470.41	9425.34
470.59	9462.79
470.77	9465.13
470.95	9572.79
471.14	9657.05
471.32	9430.02
471.50	9645.35
471.68	9879.40
471.86	9980.04
472.04	10024.51
472.22	10207.08
472.40	9879.40
472.58	10090.05
472.77	9804.50
472.95	10122.82
473.13	10384.96
473.31	10094.73
473.49	10265.59
473.67	10312.40
473.85	10232.82
474.03	10623.69
474.21	10391.98
474.39	10717.31
474.57	10623.69
474.75	10399.00
474.93	10925.62
475.12	10729.02
475.30	10930.30
475.48	10974.77
475.66	11068.39
475.84	10899.87
476.02	10988.82
476.20	11047.33
476.38	11365.64
476.56	11672.25
476.74	11391.39
476.92	11358.62
477.10	11323.51
477.28	11854.81
477.46	11609.06
477.64	11866.52
477.82	11695.66
478.00	12126.32
478.18	12231.64
478.36	12341.64
478.54	12231.64
478.72	12376.75
478.90	12540.59
479.08	12690.38
479.26	12702.09
479.44	12566.34
479.62	12812.09
479.80	13233.39
479.98	12992.31
480.16	13270.84
480.34	13263.82
480.52	13334.03
480.70	13373.82
480.88	13458.08
481.06	13455.74
481.24	13521.27
481.41	13619.58
481.59	14064.28
481.77	13998.74
481.95	13888.74
482.13	14160.24
482.31	14115.77
482.49	14516.00
482.67	14593.24
482.85	14602.60
483.03	14822.61
483.21	14876.44
483.39	15166.67
483.57	15044.96
483.74	15379.66
483.92	15372.64
484.10	15459.24
484.28	15796.28
484.46	15892.24
484.64	15955.43
484.82	15903.94
485.00	16116.93
485.18	15925.00
485.35	16514.82
485.53	16732.49
485.71	16465.67
485.89	16961.86
486.07	16919.73
486.25	16723.13
486.43	16893.99
486.61	17329.33
486.78	17369.12
486.96	17315.28
487.14	17710.83
487.32	17839.56
487.50	17745.94
487.68	17912.12
487.85	18185.96
488.03	18267.88
488.21	18764.07
488.39	18508.96
488.57	18661.09
488.75	18841.31
488.92	19002.81
489.10	19047.28
489.28	19257.93
489.46	19454.53
489.64	19381.98
489.81	19679.22
489.99	19709.65
490.17	19836.04
490.35	20348.62
490.53	19878.17
490.70	20423.51
490.88	19885.19
491.06	20645.87
491.24	20205.84
491.41	20683.31
491.59	20744.17
491.77	20856.51
491.95	21003.97
492.13	21413.56
492.30	21261.43
492.48	21275.47
492.66	21443.99
492.84	21418.24
493.01	21909.75
493.19	21479.10
493.37	22108.70
493.54	22445.74
493.72	22455.10
493.90	22487.87
494.08	22874.06
494.25	22586.17
494.43	22918.53
494.61	23175.98
494.79	22960.66
494.96	23089.38
495.14	23061.30
495.32	23653.45
495.49	23623.03
495.67	23740.05
495.85	23819.63
496.02	24149.65
496.20	24231.57
496.38	24318.17
496.55	24636.48
496.73	24774.57
496.91	24673.93
497.09	24833.08
497.26	24943.09
497.44	25228.63
497.62	25179.48
497.79	25397.15
497.97	25130.33
498.14	25748.23
498.32	25589.08
498.50	25886.32
498.67	26197.62
498.85	25720.15
499.03	26029.10
499.20	25998.67
499.38	26277.19
499.56	26125.06
499.73	26473.80
499.91	26288.90
500.08	26871.69
500.26	26225.70
500.44	26408.26
500.61	26937.23
500.79	27136.17
500.97	27255.54
501.14	27625.34
501.32	27400.65
501.49	27510.66
501.67	27346.82
501.84	27803.22
502.02	27522.36
502.20	27878.12
502.37	28271.33
502.55	27943.66
502.72	28283.03
502.90	28283.03
503.07	27824.29
503.25	28332.18
503.43	28203.46
503.60	28701.99
503.78	28744.12
503.95	28835.40
504.13	28851.78
504.30	28919.66
504.48	28868.17
504.65	29200.52
504.83	29034.35
505.01	29507.13
505.18	29303.51
505.36	29689.70
505.53	29427.56
505.71	29467.34
505.88	29191.16
506.06	29385.43
506.23	29851.19
506.41	29961.20
506.58	29797.36
506.76	30000.99
506.93	30298.23
507.11	30050.14
507.28	30611.87
507.46	30696.13
507.63	30176.53
507.81	30944.22
507.98	30459.73
508.16	31012.10
508.33	30918.48
508.50	30815.49
508.68	31152.53
508.85	30920.82
509.03	31386.58
509.20	31601.91
509.38	31864.05
509.55	31749.37
509.73	32128.53
509.90	31552.76
510.08	31976.40
510.25	32013.85
510.42	32334.50
510.60	32402.38
510.77	32634.09
510.95	32233.86
511.12	32002.14
511.30	32526.42
511.47	33029.64
511.64	32603.66
511.82	32575.58
511.99	32800.27
512.17	33200.50
512.34	32591.96
512.51	33261.35
512.69	33378.38
512.86	33043.68
513.04	33640.52
513.21	33380.72
513.38	33362.00
513.56	33453.28
513.73	33610.09
513.90	33301.14
514.08	33378.38
514.25	33586.69
514.43	33759.89
514.60	34078.20
514.77	34448.00
514.95	34394.17
515.12	34323.96
515.29	34000.96
515.47	34405.88
515.64	34857.60
515.81	34302.89
515.99	34934.84
516.16	35215.70
516.33	34817.81
516.51	35122.08
516.68	34679.72
516.85	34579.07
517.03	35356.13
517.20	35323.36
517.37	35604.23
517.54	35166.55
517.72	35409.96
517.89	35421.67
518.06	35660.40
518.24	35461.46
518.41	35164.21
518.58	35599.55
518.75	36219.79
518.93	35929.56
519.10	35999.78
519.27	36100.42
519.45	36039.57
519.62	35901.48
519.79	36177.66
519.96	35969.35
520.14	36795.56
520.31	36100.42
520.48	36758.11
520.65	36559.17
520.83	36879.82
521.00	36882.16
521.17	36987.49
521.34	36762.79
521.52	37322.18
521.69	36517.04
521.86	37345.59
522.03	37394.74
522.20	37308.14
522.38	37387.72
522.55	37420.48
522.72	37551.56
522.89	37523.47
523.07	38005.62
523.24	37773.91
523.41	38213.93
523.58	37923.70
523.75	38178.82
523.92	38171.80
524.10	38220.95
524.27	38146.05
524.44	38602.46
524.61	38307.55
524.78	38176.48
524.96	38513.52
525.13	38457.34
525.30	38829.49
525.47	38637.56
525.64	38417.55
525.81	38857.57
525.98	38934.81
526.16	38778.00
526.33	38864.60
526.50	39641.65
526.67	38714.80
526.84	38998.01
527.01	38780.34
527.18	39407.60
527.36	39840.60
527.53	39257.81
527.70	39470.79
527.87	39756.34
528.04	39674.42
528.21	39754.00
528.38	39257.81
528.55	39491.86
528.72	39943.58
528.89	40231.47
529.07	40030.18
529.24	39758.68
529.41	40187.00
529.58	40098.06
529.75	39562.08
529.92	40018.48
530.09	40275.94
530.26	40568.51
530.43	40491.27
530.60	40245.51
530.77	40486.59
530.94	40868.09
531.11	40084.01
531.28	40521.69
531.46	40498.29
531.63	40692.55
531.80	40598.93
531.97	41556.21
532.14	41233.22
532.31	41050.66
532.48	40849.37
532.65	41022.57
532.82	41081.08
532.99	41319.82
533.16	40992.14
533.33	41373.65
533.50	41603.02
533.67	41682.60
533.84	41092.79
534.01	41277.69
534.18	41287.05
534.35	41607.70
534.52	41586.64
534.69	41666.22
534.86	41816.01
535.03	41383.01
535.20	41689.62
535.37	42082.83
535.54	41961.12
535.71	41799.63
535.88	42117.94
536.05	42106.24
536.22	41956.44
536.38	42363.70
536.55	42557.96
536.72	42579.03
536.89	42054.75
537.06	42443.27
537.23	42557.96
537.40	42047.72
537.57	42277.10
537.74	42548.60
537.91	42784.99
538.08	43143.09
538.25	42429.23
538.42	42417.53
538.59	43110.33
538.75	42363.70
538.92	42384.76
539.09	43030.75
539.26	42951.17
539.43	43246.08
539.60	43402.89
539.77	43026.07
539.94	43337.36
540.11	43363.11
540.28	43566.73
540.44	43438.00
540.61	43800.79
540.78	43599.50
540.95	43732.91
541.12	44224.42
541.29	43908.45
541.46	43875.68
541.62	43917.81
541.79	43924.83
541.96	43346.72
542.13	43709.50
542.30	43901.43
542.47	44573.16
542.63	44329.75
542.80	44655.08
542.97	44360.17
543.14	44437.41
543.31	44481.88
543.48	44566.14
543.64	44514.65
543.81	44938.29
543.98	45174.68
544.15	44751.04
544.32	45024.89
544.48	45390.01
544.65	45067.02
544.82	44741.68
544.99	44692.53
545.16	44648.06
545.32	44362.51
545.49	45621.72
545.66	45888.54
545.83	45645.13
546.00	46382.40
546.16	45464.91
546.33	45198.09
546.50	44425.71
546.67	45048.29
546.83	44650.40
547.00	45235.53
547.17	45610.02
547.34	45450.86
547.50	45158.30
547.67	45698.96
547.84	45553.85
548.00	45560.87
548.17	46146.00
548.34	45432.14
548.51	45844.07
548.67	45874.50
548.84	45581.93
549.01	45544.48
549.18	45806.62
549.34	45883.86
549.51	45720.02
549.68	45574.91
549.84	45598.32
550.01	46185.79
550.18	45844.07
550.34	45883.86
550.51	46155.36
550.68	46197.49
550.84	45787.90
551.01	46270.05
551.18	46167.07
551.34	46103.87
551.51	46291.12
551.68	45993.87
551.84	46298.14
552.01	46284.09
552.18	46471.34
552.34	46466.66
552.51	46485.38
552.68	46206.86
552.84	45991.53
553.01	46358.99
553.18	46550.91
553.34	46663.26
553.51	46248.99
553.67	46672.62
553.84	46674.96
554.01	46562.62
554.17	46492.40
554.34	46342.61
554.51	46546.23
554.67	46560.28
554.84	46366.01
555.00	46380.06
555.17	46665.60
555.33	46663.26
555.50	46717.09
555.67	46588.36
555.83	46429.21
556.00	46459.63
556.16	47061.15
556.33	46752.20
556.50	46714.75
556.66	46838.80
556.83	46707.73
556.99	46831.78
557.16	47082.22
557.32	46838.80
557.49	47023.70
557.65	46728.80
557.82	46799.01
557.98	46923.06
558.15	46995.62
558.32	46918.38
558.48	47058.81
558.65	47349.04
558.81	47166.48
558.98	47248.39
559.14	46892.63
559.31	47044.77
559.47	47033.07
559.64	47297.55
559.80	47243.71
559.97	47131.37
560.13	47262.44
560.30	47461.38
560.46	47199.24
560.63	47636.92
560.79	47192.22
560.96	47426.28
561.12	47260.10
561.29	47468.40
561.45	47222.65
561.61	47475.43
561.78	47377.12
561.94	47239.03
562.11	47512.88
562.27	47491.81
562.44	47456.70
562.60	47189.88
562.77	47070.51
562.93	47606.50
563.10	47351.38
563.26	47122.01
563.42	47845.23
563.59	47714.16
563.75	47580.75
563.92	47531.60
564.08	47250.74
564.24	47714.16
564.41	47260.10
564.57	47604.16
564.74	47643.94
564.90	47632.24
565.07	47821.83
565.23	47721.18
565.39	47494.15
565.56	47915.45
565.72	47995.03
565.88	47283.50
566.05	47578.41
566.21	47625.22
566.38	47906.08
566.54	47643.94
566.70	47866.30
566.87	48074.60
567.03	47618.20
567.19	48046.52
567.36	47964.60
567.52	47753.95
567.68	47744.59
567.85	47634.58
568.01	47938.85
568.17	47798.42
568.34	48016.09
568.50	47653.31
568.66	47770.33
568.83	48004.39
568.99	47646.29
569.15	48203.33
569.32	47934.17
569.48	47580.75
569.64	47819.49
569.81	47875.66
569.97	47447.34
570.13	47924.81
570.30	48149.50
570.46	47863.96
570.62	48144.82
570.78	47973.96
570.95	47786.72
571.11	48011.41
571.27	47854.59
571.43	47821.83
571.60	48046.52
571.76	47950.56
571.92	47945.87
572.09	48060.56
572.25	48210.35
572.41	47915.45
572.57	47693.10
572.74	48041.84
572.90	47941.19
573.06	47807.78
573.22	47966.94
573.38	48020.77
573.55	48292.27
573.71	48240.78
573.87	48549.73
574.03	48055.88
574.20	48257.17
574.36	47772.67
574.52	48079.28
574.68	48369.51
574.84	48051.20
575.01	48079.28
575.17	48456.11
575.33	48336.74
575.49	47653.31
575.65	48596.54
575.82	48332.06
575.98	48011.41
576.14	48006.73
576.30	48179.93
576.46	48362.49
576.62	48179.93
576.79	48294.61
576.95	48119.07
577.11	47896.72
577.27	48278.23
577.43	48069.92
577.59	48451.43
577.75	48205.67
577.92	47709.48
578.08	48093.33
578.24	47962.26
578.40	48002.05
578.56	48362.49
578.72	48392.92
578.88	48573.14
579.04	48741.66
579.21	48252.48
579.37	48177.59
579.53	48301.64
579.69	47995.03
579.85	48280.57
580.01	48222.06
580.17	48034.81
580.33	48107.37
580.49	47765.65
580.65	48149.50
580.82	48259.51
580.98	48247.80
581.14	48315.68
581.30	48402.28
581.46	47955.24
581.62	48182.27
581.78	48105.03
581.94	48395.26
582.10	48002.05
582.26	48170.57
582.42	48278.23
582.58	48025.45
582.74	48222.06
582.90	48793.15
583.06	48348.45
583.22	48318.02
583.38	48362.49
583.54	48081.63
583.70	48296.95
583.86	47990.34
584.02	48161.20
584.18	48484.20
584.34	48037.16
584.50	48320.36
584.66	48301.64
584.82	48018.43
584.98	48105.03
585.14	48018.43
585.30	47812.46
585.46	48048.86
585.62	48425.68
585.78	48348.45
585.94	47915.45
586.10	48505.26
586.26	48027.79
586.42	48446.75
586.58	48418.66
586.74	48374.19
586.90	48011.41
587.06	48172.91
587.22	48353.13
587.38	48177.59
587.54	48535.69
587.70	48519.31
587.86	47920.13
588.02	48540.37
588.18	48954.64
588.34	48402.28
588.49	48392.92
588.65	48062.90
588.81	48320.36
588.97	47985.66
589.13	48090.99
589.29	48395.26
589.45	48261.85
589.61	48758.04
589.77	48697.19
589.93	48495.90
590.08	48641.01
590.24	48858.68
590.40	48357.81
