SpectraSuite Data File
++++++++++++++++++++++++++++++++++++
Date: Tue Oct 01 18:27:25 GMT-05:00 2013
User: stostad
Dark Spectrum Present: No
Reference Spectrum Present: No
Number of Sampled Component Spectra: 1
Spectrometers: USB2+H05261
Integration Time (usec): 100000 (USB2+H05261)
Spectra Averaged: 1 (USB2+H05261)
Boxcar Smoothing: 0 (USB2+H05261)
Correct for Electrical Dark: No (USB2+H05261)
Strobe/Lamp Enabled: No (USB2+H05261)
Correct for Detector Non-linearity: No (USB2+H05261)
Correct for Stray Light: No (USB2+H05261)
Number of Pixels in Processed Spectrum: 2048
>>>>>Begin Processed Spectral Data<<<<<
365.73	102.98
365.92	102.98
366.12	102.98
366.32	0.00
366.52	0.00
366.72	0.00
366.91	18.72
367.11	32.77
367.31	0.00
367.51	0.00
367.70	0.00
367.90	0.00
368.10	0.00
368.30	0.00
368.49	0.00
368.69	18.72
368.89	0.00
369.09	0.00
369.28	7.02
369.48	42.13
369.68	11.70
369.87	9.36
370.07	2.34
370.27	11.70
370.47	119.37
370.66	234.05
370.86	294.91
371.06	330.02
371.25	414.27
371.45	252.78
371.65	362.78
371.84	320.65
372.04	304.27
372.24	313.63
372.44	369.80
372.63	379.17
372.83	390.87
373.03	346.40
373.22	386.19
373.42	313.63
373.62	489.17
373.81	365.12
374.01	381.51
374.21	437.68
374.40	475.13
374.60	489.17
374.79	475.13
374.99	468.11
375.19	454.06
375.38	423.64
375.58	507.90
375.78	479.81
375.97	475.13
376.17	535.98
376.37	479.81
376.56	468.11
376.76	430.66
376.95	479.81
377.15	491.51
377.35	512.58
377.54	461.09
377.74	571.09
377.93	486.83
378.13	477.47
378.33	540.66
378.52	554.71
378.72	512.58
378.91	500.87
379.11	503.22
379.31	407.25
379.50	468.11
379.70	477.47
379.89	507.90
380.09	573.43
380.28	552.37
380.48	564.07
380.68	489.17
380.87	521.94
381.07	603.86
381.26	608.54
381.46	571.09
381.65	521.94
381.85	514.92
382.04	500.87
382.24	500.87
382.43	634.29
382.63	568.75
382.83	538.32
383.02	552.37
383.22	615.56
383.41	498.53
383.61	599.18
383.80	589.82
384.00	575.77
384.19	571.09
384.39	678.76
384.58	685.78
384.78	629.60
384.97	653.01
385.17	653.01
385.36	697.48
385.56	706.84
385.75	620.24
385.95	727.91
386.14	636.63
386.34	643.65
386.53	601.52
386.72	638.97
386.92	650.67
387.11	624.92
387.31	723.23
387.50	622.58
387.70	716.20
387.89	734.93
388.09	730.25
388.28	643.65
388.48	702.16
388.67	720.88
388.86	706.84
389.06	716.20
389.25	798.12
389.45	681.10
389.64	704.50
389.84	830.89
390.03	751.31
390.22	772.38
390.42	805.14
390.61	730.25
390.81	821.53
391.00	711.52
391.19	770.04
391.39	809.83
391.58	814.51
391.78	798.12
391.97	823.87
392.16	812.17
392.36	866.00
392.55	922.17
392.75	863.66
392.94	814.51
393.13	905.79
393.33	945.58
393.52	870.68
393.71	870.68
393.91	903.45
394.10	910.47
394.29	842.59
394.49	833.23
394.68	844.93
394.88	891.74
395.07	954.94
395.26	915.15
395.46	908.13
395.65	1027.50
395.84	884.72
396.04	1025.15
396.23	994.73
396.42	910.47
396.62	1025.15
396.81	1020.47
397.00	952.60
397.19	1020.47
397.39	1097.71
397.58	1142.18
397.77	1039.20
397.97	1078.99
398.16	1088.35
398.35	1184.31
398.55	1090.69
398.74	1104.73
398.93	1144.52
399.12	1156.22
399.32	1179.63
399.51	1151.54
399.70	1165.59
399.90	1186.65
400.09	1116.44
400.28	1142.18
400.47	1172.61
400.67	1322.40
400.86	1284.95
401.05	1383.26
401.24	1205.38
401.44	1315.38
401.63	1228.78
401.82	1322.40
402.01	1327.08
402.21	1249.85
402.40	1383.26
402.59	1385.60
402.78	1291.98
402.97	1394.96
403.17	1416.02
403.36	1420.71
403.55	1488.58
403.74	1432.41
403.93	1444.11
404.13	1542.41
404.32	1488.58
404.51	1535.39
404.70	1584.54
404.89	1596.25
405.09	1661.78
405.28	1605.61
405.47	1565.82
405.66	1645.40
405.85	1558.80
406.05	1624.33
406.24	1540.07
406.43	1668.80
406.62	1619.65
406.81	1844.34
407.00	1633.69
407.20	1722.63
407.39	1717.95
407.58	1703.91
407.77	1652.42
407.96	1804.55
408.15	1872.43
408.34	1839.66
408.54	1935.62
408.73	1818.60
408.92	1837.32
409.11	1827.96
409.30	1970.73
409.49	1900.52
409.68	1966.05
409.87	1879.45
410.07	1952.01
410.26	1961.37
410.45	2045.63
410.64	2083.08
410.83	2050.31
411.02	2059.67
411.21	2122.87
411.40	2148.61
411.59	2207.13
411.78	2122.87
411.98	2125.21
412.17	2195.42
412.36	2209.47
412.55	2193.08
412.74	2382.67
412.93	2427.14
413.12	2314.79
413.31	2448.20
413.50	2492.67
413.69	2352.24
413.88	2504.37
414.07	2565.23
414.26	2532.46
414.45	2429.48
414.64	2576.93
414.83	2607.36
415.02	2527.78
415.22	2684.59
415.41	2677.57
415.60	2710.34
415.79	2719.70
415.98	2708.00
416.17	2600.34
416.36	2698.64
416.55	2822.69
416.74	2621.40
416.93	2745.45
417.12	2846.09
417.31	2953.76
417.50	2850.77
417.69	3019.29
417.88	3002.91
418.07	2920.99
418.26	3021.63
418.45	3023.97
418.64	3192.49
418.83	3019.29
419.02	3059.08
419.21	3192.49
419.39	3199.51
419.58	3042.70
419.77	3201.85
419.96	3087.17
420.15	3276.75
420.34	3227.60
420.53	3410.16
420.72	3262.71
420.91	3456.97
421.10	3295.47
421.29	3400.80
421.48	3286.11
421.67	3517.83
421.86	3438.25
422.05	3452.29
422.24	3346.97
422.43	3276.75
422.61	3508.46
422.80	3557.61
422.99	3517.83
423.18	3515.48
423.37	3515.48
423.56	3389.10
423.75	3424.20
423.94	3513.14
424.13	3286.11
424.32	3358.67
424.50	3562.30
424.69	3564.64
424.88	3684.00
425.07	3398.46
425.26	3513.14
425.45	3550.59
425.64	3557.61
425.83	3545.91
426.01	3620.81
426.20	3538.89
426.39	3602.08
426.58	3707.41
426.77	3651.24
426.96	3723.79
427.15	3590.38
427.33	3597.40
427.52	3684.00
427.71	3831.46
427.90	3742.52
428.09	3812.73
428.28	3700.39
428.46	3768.26
428.65	3894.65
428.84	3915.72
429.03	3936.78
429.22	3758.90
429.40	3946.14
429.59	3964.87
429.78	3934.44
429.97	3955.51
430.16	3894.65
430.34	3894.65
430.53	4100.62
430.72	4088.92
430.91	4011.68
431.10	3974.23
431.28	4173.18
431.47	4140.41
431.66	4236.37
431.85	4168.49
432.03	4404.89
432.22	4304.25
432.41	4189.56
432.60	4299.56
432.79	4177.86
432.97	4114.66
433.16	4374.46
433.35	4315.95
433.54	4184.88
433.72	4374.46
433.91	4428.29
434.10	4447.02
434.28	4461.06
434.47	4411.91
434.66	4458.72
434.85	4641.28
435.03	4500.85
435.22	4500.85
435.41	4566.39
435.59	4559.36
435.78	4533.62
435.97	4526.60
436.16	4760.65
436.34	4660.01
436.53	4713.84
436.72	4903.42
436.90	4587.45
437.09	4730.22
437.28	4599.15
437.46	4802.78
437.65	4821.50
437.84	4842.57
438.02	4727.88
438.21	4938.53
438.40	4828.53
438.58	5025.13
438.77	4873.00
438.96	5083.64
439.14	5207.69
439.33	4961.94
439.52	5104.71
439.70	5195.99
439.89	5472.17
440.08	5399.62
440.26	5327.06
440.45	5308.34
440.63	5394.93
440.82	5345.78
441.01	5362.17
441.19	5493.24
441.38	5640.69
441.57	5720.27
441.75	5650.05
441.94	5666.44
442.12	5671.12
442.31	5708.57
442.50	5788.14
442.68	5687.50
442.87	5767.08
443.05	5778.78
443.24	5991.77
443.43	5856.02
443.61	5865.38
443.80	6179.01
443.98	5863.04
444.17	5572.82
444.35	5912.19
444.54	5937.94
444.73	5933.26
444.91	5984.75
445.10	5987.09
445.28	6003.47
445.47	5947.30
445.65	5998.79
445.84	5923.90
446.02	6080.71
446.21	5975.39
446.39	6125.18
446.58	6167.31
446.77	6141.57
446.95	5937.94
447.14	6118.16
447.32	6153.27
447.51	6038.58
447.69	6139.23
447.88	6286.68
448.06	6160.29
448.25	6094.76
448.43	6211.78
448.62	6064.33
448.80	6193.06
448.99	6155.61
449.17	6211.78
449.36	6267.95
449.54	6380.30
449.73	6387.32
449.91	6427.11
450.10	6373.28
450.28	6466.90
450.46	6560.52
450.65	6464.56
450.83	6633.08
451.02	6436.47
451.20	6520.73
451.39	6658.82
451.57	6399.02
451.76	6609.67
451.94	6576.91
452.13	6670.53
452.31	6722.02
452.49	6764.15
452.68	6916.28
452.86	6817.98
453.05	6754.79
453.23	6890.54
453.42	6874.15
453.60	6787.55
453.78	6757.13
453.97	6841.39
454.15	6848.41
454.34	6829.68
454.52	7098.84
454.70	7054.37
454.89	7155.02
455.07	7197.15
455.26	7157.36
455.44	7190.13
455.62	7068.42
455.81	7035.65
455.99	7300.13
456.17	7136.29
456.36	7332.90
456.54	7438.22
456.73	7449.93
456.91	7660.57
457.09	7466.31
457.28	7613.76
457.46	7506.10
457.64	7573.97
457.83	7499.08
458.01	7569.29
458.19	7789.30
458.38	7751.85
458.56	7808.03
458.74	7779.94
458.93	7765.90
459.11	7911.01
459.29	7749.51
459.48	7779.94
459.66	7681.64
459.84	7899.31
460.03	7901.65
460.21	7779.94
460.39	7892.29
460.57	8032.72
460.76	7829.09
460.94	8152.09
461.12	8084.21
461.31	8168.47
461.49	8212.94
461.67	8098.25
461.85	8173.15
462.04	8119.32
462.22	8915.10
462.40	8432.95
462.59	8411.89
462.77	8348.69
462.95	8524.23
463.13	8507.85
463.32	8416.57
463.50	8468.06
463.68	8594.45
463.86	8362.73
464.05	8451.67
464.23	8573.38
464.41	8517.21
464.59	8322.94
464.78	8774.67
464.96	8561.68
465.14	8678.71
465.32	8816.80
465.50	8615.51
465.69	8741.90
465.87	8748.92
466.05	8898.72
466.23	8837.86
466.41	8624.87
466.60	9144.47
466.78	8484.44
466.96	8704.45
467.14	8692.75
467.32	8842.54
467.51	9036.81
467.69	8564.02
467.87	8985.32
468.05	8954.89
468.23	9043.83
468.41	9160.86
468.60	9312.99
468.78	9329.38
468.96	9008.72
469.14	9186.60
469.32	9359.80
469.50	9097.66
469.69	9502.58
469.87	9291.93
470.05	9401.93
470.23	9404.27
470.41	9401.93
470.59	9547.05
470.77	9769.40
470.95	9621.94
471.14	9818.55
471.32	9745.99
471.50	10003.45
471.68	9792.80
471.86	9764.72
472.04	9921.53
472.22	10113.45
472.40	9645.35
472.58	10040.90
472.77	9916.85
472.95	9994.09
473.13	10452.83
473.31	10200.05
473.49	10197.71
473.67	10129.84
473.85	10296.02
474.03	10312.40
474.21	10555.82
474.39	10635.39
474.57	10614.33
474.75	10649.44
474.93	10862.43
475.12	10764.12
475.30	10979.45
475.48	10782.85
475.66	11040.31
475.84	10967.75
476.02	11199.46
476.20	11096.48
476.38	11389.05
476.56	11281.38
476.74	11272.02
476.92	11154.99
477.10	11379.68
477.28	11740.13
477.46	11573.95
477.64	11672.25
477.82	12086.53
478.00	12112.27
478.18	12365.05
478.36	12299.52
478.54	12285.47
478.72	12496.12
478.90	12512.50
479.08	12669.32
479.26	12793.37
479.44	12961.89
479.62	13018.06
479.80	13146.79
479.98	13217.01
480.16	13518.93
480.34	13158.49
480.52	13689.79
480.70	13289.56
480.88	13088.28
481.06	13432.33
481.24	13738.94
481.41	13692.13
481.59	13977.68
481.77	13923.85
481.95	14057.26
482.13	14178.97
482.31	14307.69
482.49	14349.82
482.67	14665.80
482.85	14590.90
483.03	15016.88
483.21	15075.39
483.39	15059.01
483.57	15159.65
483.74	15543.50
483.92	15639.46
484.10	15384.34
484.28	15775.21
484.46	16039.69
484.64	16147.36
484.82	15726.06
485.00	16238.64
485.18	16500.78
485.35	16641.21
485.53	16411.84
485.71	16664.61
485.89	16966.54
486.07	16781.64
486.25	17137.40
486.43	17069.53
486.61	17317.62
486.78	17432.31
486.96	17528.27
487.14	17626.57
487.32	17912.12
487.50	17940.21
487.68	18251.50
487.85	18462.15
488.03	18443.42
488.21	18630.66
488.39	18618.96
488.57	18675.13
488.75	18925.57
488.92	19152.60
489.10	19536.45
489.28	19463.90
489.46	19772.85
489.64	19489.64
489.81	20329.89
489.99	20032.65
490.17	20100.52
490.35	20266.70
490.53	19997.54
490.70	20280.74
490.88	20503.09
491.06	20800.34
491.24	20786.30
491.41	21123.33
491.59	21097.59
491.77	21266.11
491.95	21401.86
492.13	21231.00
492.30	21816.13
492.48	21675.70
492.66	21907.41
492.84	21994.01
493.01	21689.74
493.19	22384.88
493.37	22508.93
493.54	22394.25
493.72	22822.56
493.90	22998.10
494.08	22696.17
494.25	23119.81
494.43	23285.99
494.61	23426.42
494.79	23316.42
494.96	23508.34
495.14	23480.25
495.32	24095.82
495.49	24395.40
495.67	24187.10
495.85	24203.48
496.02	24725.42
496.20	24561.58
496.38	24697.33
496.55	24451.58
496.73	25682.70
496.91	25369.07
497.09	25074.16
497.26	25282.47
497.44	24868.19
497.62	25645.25
497.79	25788.02
497.97	25872.28
498.14	26284.22
498.32	26270.17
498.50	26377.84
498.67	26668.06
498.85	26607.21
499.03	26644.66
499.20	26740.62
499.38	27033.19
499.56	26567.42
499.73	27178.30
499.91	26836.58
500.08	27225.11
500.26	26836.58
500.44	27173.62
500.61	27695.56
500.79	27843.01
500.97	27908.55
501.14	27878.12
501.32	27861.74
501.49	28126.22
501.67	28231.54
501.84	28470.28
502.02	28465.60
502.20	28215.16
502.37	28671.56
502.55	28514.75
502.72	28463.25
502.90	28449.21
503.07	28451.55
503.25	29525.86
503.43	29221.59
503.60	29158.39
503.78	29163.08
503.95	29109.24
504.13	29413.51
504.30	29532.88
504.48	29593.73
504.65	29907.37
504.83	30038.44
505.01	29862.90
505.18	30246.74
505.36	30398.88
505.53	30295.89
505.71	30305.26
505.88	30267.81
506.06	30534.63
506.23	30675.06
506.41	30267.81
506.58	30452.71
506.76	30609.53
506.93	30876.35
507.11	30981.67
507.28	31321.05
507.46	30988.69
507.63	31325.73
507.81	31206.36
507.98	31178.28
508.16	31524.68
508.33	31571.49
508.50	32063.00
508.68	31899.16
508.85	32325.14
509.03	32383.65
509.20	31974.06
509.38	32128.53
509.55	32610.68
509.73	32437.48
509.90	32856.44
510.08	32643.45
510.25	32863.46
510.42	32980.49
510.60	33083.47
510.77	33282.42
510.95	32968.79
511.12	33158.37
511.30	33184.12
511.47	33837.12
511.64	33017.94
511.82	33825.42
511.99	33408.81
512.17	33977.56
512.34	33804.36
512.51	34174.16
512.69	34387.15
512.86	34288.85
513.04	34728.87
513.21	34490.13
513.38	34342.68
513.56	34354.38
513.73	34693.76
513.90	34649.29
514.08	34600.14
514.25	35211.02
514.43	35204.00
514.60	34993.35
514.77	35236.77
514.95	35477.84
515.12	34913.77
515.29	35274.21
515.47	35622.95
515.64	35709.55
515.81	35580.82
515.99	35756.36
516.16	35969.35
516.33	36212.77
516.51	36004.46
516.68	35934.24
516.85	36336.82
517.03	36259.58
517.20	36662.15
517.37	36341.50
517.54	36376.61
517.72	36371.92
517.89	36404.69
518.06	36629.38
518.24	36999.19
518.41	36760.45
518.58	37109.19
518.75	36680.88
518.93	37202.82
519.10	36964.08
519.27	37399.42
519.45	37123.24
519.62	37034.30
519.79	37743.48
519.96	37453.25
520.14	37525.81
520.31	37401.76
520.48	37563.26
520.65	38024.34
520.83	38227.97
521.00	37895.61
521.17	37888.59
521.34	37900.29
521.52	38457.34
521.69	38405.85
521.86	38384.79
522.03	38424.57
522.20	38717.14
522.38	38803.74
522.55	38670.33
522.72	39229.72
522.89	38932.47
523.07	39377.17
523.24	38857.57
523.41	39079.92
523.58	38969.92
523.75	38866.94
523.92	39147.80
524.10	39400.58
524.27	39775.06
524.44	39615.91
524.61	40051.25
524.78	39906.13
524.96	39367.81
525.13	39658.04
525.30	40203.38
525.47	40294.66
525.64	40165.93
525.81	40381.26
525.98	40502.97
526.16	39892.09
526.33	40224.45
526.50	40580.21
526.67	40428.07
526.84	40425.73
527.01	40479.57
527.18	41198.11
527.36	40865.75
527.53	40818.94
527.70	40996.82
527.87	40957.03
528.04	40722.98
528.21	41228.54
528.38	40938.31
528.55	41254.28
528.72	41024.91
528.89	41413.44
529.07	40964.06
529.24	41177.04
529.41	41460.25
529.58	41546.85
529.75	41354.93
529.92	41830.05
530.09	41289.39
530.26	41748.14
530.43	41565.57
530.60	41895.59
530.77	41638.13
530.94	42174.11
531.11	42232.63
531.28	42321.57
531.46	42148.37
531.63	42450.30
531.80	41888.57
531.97	42272.42
532.14	42518.17
532.31	42246.67
532.48	42651.58
532.65	42754.57
532.82	42604.77
532.99	42983.94
533.16	42883.30
533.33	42855.21
533.50	43206.29
533.67	43028.41
533.84	42768.61
534.01	42892.66
534.18	42878.61
534.35	43608.86
534.52	43761.00
534.69	43770.36
534.86	43290.55
535.03	43281.19
535.20	43433.32
535.37	43023.73
535.54	43779.72
535.71	43447.36
535.88	43714.19
536.05	43955.26
536.22	43871.00
536.38	44271.23
536.55	43990.37
536.72	43842.92
536.89	43594.82
537.06	44140.16
537.23	44624.65
537.40	43976.33
537.57	44208.04
537.74	44760.40
537.91	44818.92
538.08	44374.22
538.25	44058.24
538.42	44233.78
538.59	44622.31
538.75	44315.70
538.92	44568.48
539.09	44828.28
539.26	44737.00
539.43	44847.00
539.60	44868.07
539.77	44811.90
539.94	44774.45
540.11	45258.94
540.28	45333.84
540.44	45364.26
540.61	45436.82
540.78	44872.75
540.95	45553.85
541.12	45280.00
541.29	45406.39
541.46	45312.77
541.62	45329.16
541.79	45422.78
541.96	45069.36
542.13	45450.86
542.30	45450.86
542.47	45748.11
542.63	45734.07
542.80	45813.65
542.97	46440.91
543.14	46358.99
543.31	46122.60
543.48	46452.61
543.64	46887.95
543.81	46588.36
543.98	46852.84
544.15	46616.45
544.32	46253.67
544.48	46710.07
544.65	46277.07
544.82	46843.48
544.99	46426.87
545.16	46934.76
545.32	46511.13
545.49	47365.42
545.66	46883.27
545.83	47072.85
546.00	46934.76
546.16	47243.71
546.33	46918.38
546.50	46894.97
546.67	47533.94
546.83	46443.25
547.00	47019.02
547.17	47112.64
547.34	47114.98
547.50	47154.77
547.67	47477.77
547.84	47334.99
548.00	47447.34
548.17	48060.56
548.34	47400.53
548.51	47632.24
548.67	47416.91
548.84	47412.23
549.01	47456.70
549.18	47267.12
549.34	47655.65
549.51	47718.84
549.68	47690.76
549.84	47618.20
550.01	48065.24
550.18	48058.22
550.34	47693.10
550.51	47718.84
550.68	48023.11
550.84	47569.05
551.01	48016.09
551.18	47739.91
551.34	47927.15
551.51	48016.09
551.68	48353.13
551.84	48512.28
552.01	48397.60
552.18	48112.05
552.34	47955.24
552.51	48109.71
552.68	48011.41
552.84	48437.39
553.01	48685.48
553.18	48846.98
553.34	48751.02
553.51	48172.91
553.67	48395.26
553.84	48879.75
554.01	48423.34
554.17	48474.84
554.34	48804.85
554.51	48765.06
554.67	48879.75
554.84	48736.98
555.00	49022.52
555.17	48694.85
555.33	48879.75
555.50	48502.92
555.67	48722.93
555.83	48615.27
556.00	49165.29
556.16	49242.53
556.33	49251.89
556.50	49207.42
556.66	49336.15
556.83	49069.33
556.99	49331.47
557.16	49045.93
557.32	48931.24
557.49	49570.21
557.65	49354.88
557.82	49331.47
557.98	49422.75
558.15	49879.16
558.32	49677.87
558.48	49338.49
558.65	49591.27
558.81	49043.59
558.98	49111.46
559.14	49429.77
559.31	49305.73
559.47	49621.70
559.64	49497.65
559.80	49495.31
559.97	49975.12
560.13	49450.84
560.30	49446.16
560.46	49523.40
560.63	49476.58
560.79	49757.45
560.96	49785.54
561.12	49712.98
561.29	49937.67
561.45	49710.64
561.61	49893.20
561.78	49773.83
561.94	49904.90
562.11	49757.45
562.27	49546.80
562.44	49415.73
562.60	49766.81
562.77	49944.69
562.93	50190.45
563.10	50340.24
563.26	49741.06
563.42	50279.39
563.59	49759.79
563.75	49998.52
563.92	50141.30
564.08	49907.24
564.24	50157.68
564.41	50356.63
564.57	50274.71
564.74	50452.59
564.90	49832.35
565.07	50155.34
565.23	49869.79
565.39	49897.88
565.56	49890.86
565.72	49956.39
565.88	50145.98
566.05	49982.14
566.21	50333.22
566.38	50232.58
566.54	50417.48
566.70	50703.03
566.87	50356.63
567.03	50183.43
567.19	50148.32
567.36	50253.64
567.52	50178.75
567.68	50595.36
567.85	50445.57
568.01	50431.52
568.17	50555.57
568.34	50536.85
568.50	50192.79
568.66	50227.90
568.83	50052.36
568.99	50358.97
569.15	50501.74
569.32	50026.61
569.48	50433.86
569.64	50937.08
569.81	50330.88
569.97	50522.80
570.13	50665.58
570.30	50255.98
570.46	50351.94
570.62	50513.44
570.78	50555.57
570.95	50525.14
571.11	50586.00
571.27	50670.26
571.43	50665.58
571.60	50939.42
571.76	50602.38
571.92	50520.46
572.09	50670.26
572.25	50756.86
572.41	50532.17
572.57	50707.71
572.74	50731.11
572.90	50649.19
573.06	50761.54
573.22	50969.85
573.38	50990.91
573.55	51084.53
573.71	50616.43
573.87	50759.20
574.03	50586.00
574.20	50843.46
574.36	50483.01
574.52	50738.13
574.68	50623.45
574.84	51096.24
575.01	51234.33
575.17	51112.62
575.33	50686.64
575.49	50726.43
575.65	50883.25
575.82	51004.95
575.98	50485.36
576.14	50892.61
576.30	50894.95
576.46	50918.35
576.62	50878.57
576.79	51035.38
576.95	50693.66
577.11	50892.61
577.27	50951.12
577.43	50759.20
577.59	50855.16
577.75	50951.12
577.92	50880.91
578.08	50604.72
578.24	51131.34
578.40	51337.31
578.56	50997.93
578.72	51056.45
578.88	50852.82
579.04	51011.98
579.21	50852.82
579.37	51044.74
579.53	51210.92
579.69	50969.85
579.85	51283.48
580.01	51414.55
580.17	50901.97
580.33	51033.04
580.49	50932.40
580.65	51110.28
580.82	51061.13
580.98	51056.45
581.14	50965.17
581.30	51267.09
581.46	51260.07
581.62	51110.28
581.78	51372.42
581.94	51129.00
582.10	50834.10
582.26	51175.81
582.42	50927.72
582.58	50995.59
582.74	51145.39
582.90	51070.49
583.06	51065.81
583.22	51274.12
583.38	51433.27
583.54	51341.99
583.70	51161.77
583.86	51327.95
584.02	51157.09
584.18	51299.86
584.34	51044.74
584.50	51267.09
584.66	51098.58
584.82	51040.06
584.98	50901.97
585.14	51246.03
585.30	50794.31
585.46	51487.10
585.62	50958.14
585.78	51231.99
585.94	51229.65
586.10	51004.95
586.26	51112.62
586.42	51217.94
586.58	51386.46
586.74	51079.85
586.90	51026.02
587.06	51545.62
587.22	51641.58
587.38	51529.23
587.54	51760.95
587.70	51482.42
587.86	51051.76
588.02	51175.81
588.18	51360.72
588.34	51461.36
588.49	51384.12
588.65	51297.52
588.81	50906.65
588.97	51688.39
589.13	51501.15
589.29	51662.64
589.45	51604.13
589.61	51395.82
589.77	51444.98
589.93	51393.48
590.08	51304.54
590.24	51470.72
590.40	51510.51
