SpectraSuite Data File
++++++++++++++++++++++++++++++++++++
Date: Tue Oct 01 18:27:28 GMT-05:00 2013
User: stostad
Dark Spectrum Present: No
Reference Spectrum Present: No
Number of Sampled Component Spectra: 1
Spectrometers: USB2+H05261
Integration Time (usec): 100000 (USB2+H05261)
Spectra Averaged: 1 (USB2+H05261)
Boxcar Smoothing: 0 (USB2+H05261)
Correct for Electrical Dark: No (USB2+H05261)
Strobe/Lamp Enabled: No (USB2+H05261)
Correct for Detector Non-linearity: No (USB2+H05261)
Correct for Stray Light: No (USB2+H05261)
Number of Pixels in Processed Spectrum: 2048
>>>>>Begin Processed Spectral Data<<<<<
365.73	107.66
365.92	107.66
366.12	107.66
366.32	0.00
366.52	4.68
366.72	58.51
366.91	2.34
367.11	0.00
367.31	7.02
367.51	0.00
367.70	0.00
367.90	0.00
368.10	0.00
368.30	37.45
368.49	0.00
368.69	0.00
368.89	0.00
369.09	0.00
369.28	23.41
369.48	28.09
369.68	28.09
369.87	95.96
370.07	7.02
370.27	98.30
370.47	119.37
370.66	248.10
370.86	301.93
371.06	418.96
371.25	341.72
371.45	334.70
371.65	402.57
371.84	301.93
372.04	330.02
372.24	339.38
372.44	360.44
372.63	397.89
372.83	369.80
373.03	400.23
373.22	425.98
373.42	409.59
373.62	416.62
373.81	344.06
374.01	447.04
374.21	444.70
374.40	456.40
374.60	433.00
374.79	351.08
374.99	440.02
375.19	430.66
375.38	500.87
375.58	416.62
375.78	482.15
375.97	507.90
376.17	519.60
376.37	496.19
376.56	472.79
376.76	472.79
376.95	498.53
377.15	601.52
377.35	585.13
377.54	470.45
377.74	559.39
377.93	524.28
378.13	507.90
378.33	472.79
378.52	554.71
378.72	571.09
378.91	498.53
379.11	503.22
379.31	479.81
379.50	491.51
379.70	538.32
379.89	528.96
380.09	493.85
380.28	526.62
380.48	486.83
380.68	510.24
380.87	451.72
381.07	550.03
381.26	482.15
381.46	587.47
381.65	592.16
381.85	641.31
382.04	557.05
382.24	578.11
382.43	540.66
382.63	540.66
382.83	552.37
383.02	627.26
383.22	664.71
383.41	566.41
383.61	575.77
383.80	660.03
384.00	692.80
384.19	580.45
384.39	648.33
384.58	650.67
384.78	744.29
384.97	580.45
385.17	620.24
385.36	608.54
385.56	664.71
385.75	620.24
385.95	671.73
386.14	638.97
386.34	716.20
386.53	711.52
386.72	648.33
386.92	662.37
387.11	624.92
387.31	748.97
387.50	746.63
387.70	650.67
387.89	596.84
388.09	688.12
388.28	697.48
388.48	746.63
388.67	772.38
388.86	763.01
389.06	786.42
389.25	739.61
389.45	800.46
389.64	718.54
389.84	737.27
390.03	765.36
390.22	781.74
390.42	791.10
390.61	732.59
390.81	765.36
391.00	746.63
391.19	798.12
391.39	779.40
391.58	835.57
391.78	753.65
391.97	868.34
392.16	821.53
392.36	933.87
392.55	868.34
392.75	922.17
392.94	854.30
393.13	917.49
393.33	952.60
393.52	940.90
393.71	924.51
393.91	947.92
394.10	959.62
394.29	973.66
394.49	863.66
394.68	1001.75
394.88	947.92
395.07	929.19
395.26	1006.43
395.46	957.28
395.65	1069.62
395.84	961.96
396.04	992.39
396.23	1011.11
396.42	1027.50
396.62	1088.35
396.81	1050.90
397.00	1062.60
397.19	940.90
397.39	1057.92
397.58	1055.58
397.77	1179.63
397.97	1125.80
398.16	1177.29
398.35	1184.31
398.55	1083.67
398.74	1097.71
398.93	1270.91
399.12	1132.82
399.32	1137.50
399.51	1200.69
399.70	1193.67
399.90	1296.66
400.09	1228.78
400.28	1242.82
400.47	1179.63
400.67	1280.27
400.86	1214.74
401.05	1289.64
401.24	1287.29
401.44	1303.68
401.63	1277.93
401.82	1341.13
402.01	1352.83
402.21	1364.53
402.40	1397.30
402.59	1334.11
402.78	1434.75
402.97	1437.09
403.17	1427.73
403.36	1472.20
403.55	1462.83
403.74	1598.59
403.93	1521.35
404.13	1493.26
404.32	1547.09
404.51	1479.22
404.70	1533.05
404.89	1530.71
405.09	1586.88
405.28	1519.01
405.47	1568.16
405.66	1645.40
405.85	1645.40
406.05	1687.53
406.24	1600.93
406.43	1645.40
406.62	1596.25
406.81	1724.97
407.00	1664.12
407.20	1706.25
407.39	1809.23
407.58	1860.73
407.77	1872.43
407.96	1785.83
408.15	1860.73
408.34	1834.98
408.54	1830.30
408.73	1886.47
408.92	1947.33
409.11	2045.63
409.30	1952.01
409.49	1954.35
409.68	2033.93
409.87	1982.43
410.07	2118.18
410.26	1975.41
410.45	2031.58
410.64	2249.25
410.83	2085.42
411.02	2242.23
411.21	2193.08
411.40	2246.91
411.59	2172.02
411.78	2267.98
411.98	2202.44
412.17	2275.00
412.36	2242.23
412.55	2300.75
412.74	2300.75
412.93	2314.79
413.12	2272.66
413.31	2602.68
413.50	2457.56
413.69	2480.97
413.88	2558.21
414.07	2483.31
414.26	2565.23
414.45	2612.04
414.64	2562.89
414.83	2586.29
415.02	2668.21
415.22	2780.56
415.41	2778.22
415.60	2764.17
415.79	2750.13
415.98	2747.79
416.17	2773.53
416.36	2850.77
416.55	2871.84
416.74	2796.94
416.93	2897.58
417.12	2909.29
417.31	3030.99
417.50	3028.65
417.69	3098.87
417.88	3089.51
418.07	2960.78
418.26	3143.34
418.45	3096.53
418.64	3213.56
418.83	3131.64
419.02	3098.87
419.21	3260.37
419.39	3248.66
419.58	3218.24
419.77	3286.11
419.96	3314.20
420.15	3337.60
420.34	3276.75
420.53	3365.69
420.72	3307.18
420.91	3328.24
421.10	3438.25
421.29	3492.08
421.48	3384.41
421.67	3417.18
421.86	3391.44
422.05	3515.48
422.24	3506.12
422.43	3386.76
422.61	3459.31
422.80	3581.02
422.99	3623.15
423.18	3676.98
423.37	3536.55
423.56	3688.68
423.75	3482.72
423.94	3524.85
424.13	3396.12
424.32	3478.04
424.50	3730.81
424.69	3698.05
424.88	3688.68
425.07	3555.27
425.26	3604.42
425.45	3688.68
425.64	3475.70
425.83	3606.77
426.01	3796.35
426.20	3639.53
426.39	3634.85
426.58	3590.38
426.77	3756.56
426.96	3777.62
427.15	3803.37
427.33	3822.09
427.52	3831.46
427.71	3899.33
427.90	3988.27
428.09	3955.51
428.28	3864.22
428.46	3913.38
428.65	3969.55
428.84	4086.58
429.03	4028.06
429.22	3978.91
429.40	3964.87
429.59	4016.36
429.78	3896.99
429.97	3786.99
430.16	3920.40
430.34	3985.93
430.53	4215.30
430.72	4079.55
430.91	4109.98
431.10	3932.10
431.28	4224.67
431.47	4187.22
431.66	4269.14
431.85	4161.47
432.03	4224.67
432.22	4432.97
432.41	4318.29
432.60	4386.16
432.79	4290.20
432.97	4468.08
433.16	4458.72
433.35	4507.87
433.54	4517.23
433.72	4463.40
433.91	4465.74
434.10	4624.90
434.28	4683.41
434.47	4617.88
434.66	4505.53
434.85	4589.79
435.03	4599.15
435.22	4660.01
435.41	4695.11
435.59	4704.48
435.78	4786.40
435.97	4692.77
436.16	4877.68
436.34	4805.12
436.53	4777.03
436.72	4961.94
436.90	4669.37
437.09	4720.86
437.28	4716.18
437.46	4903.42
437.65	4952.57
437.84	4983.00
438.02	4999.38
438.21	5025.13
438.40	4990.02
438.58	5177.26
438.77	5064.92
438.96	5167.90
439.14	5329.40
439.33	5397.28
439.52	5320.04
439.70	5392.59
439.89	5420.68
440.08	5446.43
440.26	5500.26
440.45	5439.40
440.63	5523.66
440.82	5748.36
441.01	5610.26
441.19	5659.42
441.38	5708.57
441.57	5624.31
441.75	5858.36
441.94	5816.23
442.12	5834.96
442.31	5980.07
442.50	5816.23
442.68	5818.57
442.87	5886.45
443.05	5928.58
443.24	6125.18
443.43	5853.68
443.61	6087.73
443.80	6312.42
443.98	6155.61
444.17	5837.30
444.35	6183.70
444.54	6066.67
444.73	6207.10
444.91	6080.71
445.10	6209.44
445.28	6160.29
445.47	6061.99
445.65	6164.97
445.84	6289.02
446.02	6300.72
446.21	6263.27
446.39	6211.78
446.58	6246.89
446.77	6389.66
446.95	6045.60
447.14	6197.74
447.32	6338.17
447.51	6221.14
447.69	6239.87
447.88	6340.51
448.06	6118.16
448.25	6394.34
448.43	6368.60
448.62	6293.70
448.80	6441.15
448.99	6513.71
449.17	6518.39
449.36	6368.60
449.54	6527.75
449.73	6740.74
449.91	6619.04
450.10	6693.93
450.28	6815.64
450.46	6670.53
450.65	6832.02
450.83	6698.61
451.02	6675.21
451.20	6670.53
451.39	6803.94
451.57	6771.17
451.76	6778.19
451.94	6754.79
452.13	6913.94
452.31	7110.55
452.49	6808.62
452.68	6958.41
452.86	6958.41
453.05	7061.40
453.23	7040.33
453.42	6927.99
453.60	6878.83
453.78	7023.95
453.97	7101.19
454.15	7112.89
454.34	6888.20
454.52	7124.59
454.70	7187.79
454.89	7311.83
455.07	7122.25
455.26	7356.30
455.44	7295.45
455.62	7389.07
455.81	7372.69
455.99	7508.44
456.17	7358.64
456.36	7386.73
456.54	7529.50
456.73	7545.89
456.91	7597.38
457.09	7651.21
457.28	7908.67
457.46	7674.62
457.64	7772.92
457.83	7887.61
458.01	7939.10
458.19	7950.80
458.38	7983.57
458.56	7967.18
458.74	7915.69
458.93	7971.86
459.11	8013.99
459.29	7967.18
459.48	7801.01
459.66	8067.83
459.84	8093.57
460.03	8262.09
460.21	8191.88
460.39	7999.95
460.57	8189.53
460.76	8107.62
460.94	8259.75
461.12	8395.50
461.31	8070.17
461.49	8514.87
461.67	8241.03
461.85	8421.25
462.04	8641.26
462.22	8681.05
462.40	8489.12
462.59	8521.89
462.77	8610.83
462.95	8805.10
463.13	8674.03
463.32	8603.81
463.50	8805.10
463.68	8557.00
463.86	8760.63
464.05	8723.18
464.23	8706.79
464.41	9036.81
464.59	8561.68
464.78	8879.99
464.96	8692.75
465.14	8990.00
465.32	8915.10
465.50	9001.70
465.69	9179.58
465.87	9027.45
466.05	9231.07
466.23	8987.66
466.41	9050.85
466.60	9212.35
466.78	9128.09
466.96	8978.30
467.14	9013.40
467.32	9268.52
467.51	9259.16
467.69	9004.04
467.87	9116.39
468.05	9125.75
468.23	9233.41
468.41	9235.75
468.60	9289.59
468.78	9593.86
468.96	9210.01
469.14	9509.60
469.32	9540.02
469.50	9418.32
469.69	9722.59
469.87	9696.84
470.05	9703.86
470.23	9685.14
470.41	9816.21
470.59	9912.17
470.77	9591.52
470.95	9998.77
471.14	9982.38
471.32	9760.03
471.50	10118.14
471.68	10207.08
471.86	10167.29
472.04	10298.36
472.22	10441.13
472.40	10012.81
472.58	10417.72
472.77	10370.91
472.95	10506.66
473.13	10766.46
473.31	10347.51
473.49	10427.09
473.67	10647.10
473.85	10473.90
474.03	10916.26
474.21	10729.02
474.39	10616.67
474.57	11007.54
474.75	11026.26
474.93	10995.84
475.12	10949.03
475.30	11044.99
475.48	11054.35
475.66	11265.00
475.84	11372.66
476.02	11419.47
476.20	11545.86
476.38	11768.21
476.56	11770.55
476.74	11719.06
476.92	11651.19
477.10	11695.66
477.28	11857.15
477.46	11878.22
477.64	12004.61
477.82	12351.01
478.00	12503.14
478.18	12571.02
478.36	12351.01
478.54	12573.36
478.72	12732.51
478.90	12692.73
479.08	13001.68
479.26	13104.66
479.44	13088.28
479.62	12982.95
479.80	13359.78
479.98	13343.39
480.16	13671.07
480.34	13720.22
480.52	13881.72
480.70	13855.97
480.88	13624.26
481.06	13823.20
481.24	13961.30
481.41	14141.52
481.59	14417.70
481.77	14424.72
481.95	14359.19
482.13	14581.54
482.31	14534.73
482.49	14984.11
482.67	14949.00
482.85	15028.58
483.03	15356.25
483.21	15482.64
483.39	15618.39
483.57	15405.41
483.74	15592.65
483.92	15969.48
484.10	15964.79
484.28	16147.36
484.46	16475.03
484.64	16318.22
484.82	16332.26
485.00	16362.69
485.18	16643.55
485.35	17198.26
485.53	16994.63
485.71	16917.39
485.89	17500.19
486.07	17188.89
486.25	17481.46
486.43	17575.08
486.61	17923.82
486.78	17830.20
486.96	17872.33
487.14	18143.83
487.32	18487.89
487.50	18113.41
487.68	18569.81
487.85	18778.12
488.03	18869.40
488.21	18831.95
488.39	19215.80
488.57	19314.10
488.75	19829.02
488.92	19749.44
489.10	19679.22
489.28	20009.24
489.46	20149.67
489.64	19906.26
489.81	20603.74
489.99	20645.87
490.17	20685.65
490.35	21003.97
490.53	20751.19
490.70	21003.97
490.88	20952.48
491.06	21577.40
491.24	21181.85
491.41	21502.50
491.59	22068.91
491.77	21876.99
491.95	22160.19
492.13	22071.25
492.30	22111.04
492.48	22497.23
492.66	22347.44
492.84	22712.56
493.01	22918.53
493.19	22881.08
493.37	23103.43
493.54	23304.71
493.72	23257.90
493.90	23850.06
494.08	23709.63
494.25	23931.98
494.43	23868.78
494.61	24229.23
494.79	23957.72
494.96	24189.44
495.14	24336.89
495.32	24493.71
495.49	24622.44
495.67	24868.19
495.85	25039.05
496.02	24964.15
496.20	25343.32
496.38	25104.59
496.55	25420.56
496.73	26272.51
496.91	25490.77
497.09	25914.41
497.26	26103.99
497.44	26228.04
497.62	26312.30
497.79	26874.03
497.97	26639.98
498.14	26920.84
498.32	26885.73
498.50	26864.67
498.67	26859.99
498.85	27058.93
499.03	27276.60
499.20	27524.70
499.38	27466.19
499.56	27765.78
499.73	27929.61
499.91	27445.12
500.08	27878.12
500.26	28140.26
500.44	28107.49
500.61	28308.78
500.79	28280.69
500.97	28371.97
501.14	28678.58
501.32	28851.78
501.49	28849.44
501.67	29151.37
501.84	28858.81
502.02	29223.93
502.20	29191.16
502.37	29355.00
502.55	29453.30
502.72	29067.11
502.90	29432.24
503.07	29593.73
503.25	29703.74
503.43	30005.67
503.60	29949.50
503.78	30052.48
503.95	30026.73
504.13	30457.39
504.30	30321.64
504.48	30375.47
504.65	30363.77
504.83	30841.24
505.01	31108.06
505.18	30654.00
505.36	31115.08
505.53	31094.02
505.71	30848.26
505.88	31487.23
506.06	31583.19
506.23	31735.32
506.41	31398.29
506.58	31344.45
506.76	31541.06
506.93	31676.81
507.11	31398.29
507.28	32313.44
507.46	32268.97
507.63	32257.26
507.81	32507.70
507.98	32041.93
508.16	32390.67
508.33	32606.00
508.50	32610.68
508.68	32807.29
508.85	33102.20
509.03	32879.85
509.20	32666.86
509.38	33336.25
509.55	33432.21
509.73	33090.49
509.90	33024.96
510.08	33521.15
510.25	33757.55
510.42	33736.48
510.60	33787.97
510.77	33919.04
510.95	34160.12
511.12	33748.18
511.30	34443.32
511.47	34534.60
511.64	34576.73
511.82	34651.63
511.99	34550.99
512.17	34553.33
512.34	34691.42
512.51	35131.44
512.69	35175.91
512.86	34916.11
513.04	35276.55
513.21	35136.12
513.38	35601.89
513.56	35033.14
513.73	35133.78
513.90	35796.15
514.08	35784.45
514.25	35931.90
514.43	36327.45
514.60	36133.19
514.77	36051.27
514.95	36046.59
515.12	36027.87
515.29	36091.06
515.47	36519.38
515.64	36992.17
515.81	36730.03
515.99	36652.79
516.16	36938.33
516.33	36713.64
516.51	36842.37
516.68	36917.27
516.85	37240.26
517.03	37317.50
517.20	37310.48
517.37	37364.31
517.54	37324.52
517.72	37092.81
517.89	37415.80
518.06	37762.20
518.24	37895.61
518.41	38183.50
518.58	38204.56
518.75	37942.42
518.93	37883.91
519.10	37834.76
519.27	38277.12
519.45	38045.41
519.62	38560.33
519.79	38595.43
519.96	39203.97
520.14	39229.72
520.31	38511.17
520.48	39049.50
520.65	38981.62
520.83	38909.07
521.00	39419.30
521.17	39323.34
521.34	39175.89
521.52	39552.71
521.69	39374.83
521.86	39138.44
522.03	39700.17
522.20	40025.50
522.38	40067.63
522.55	39962.31
522.72	39737.62
522.89	39936.56
523.07	40311.05
523.24	39714.21
523.41	39463.77
523.58	40144.87
523.75	40367.22
523.92	40002.10
524.10	40006.78
524.27	40851.71
524.44	40765.11
524.61	40662.13
524.78	40568.51
524.96	40790.86
525.13	40947.67
525.30	41525.78
525.47	41558.55
525.64	41144.28
525.81	41408.76
525.98	41111.51
526.16	41289.39
526.33	41635.79
526.50	41656.85
526.67	41808.99
526.84	42139.00
527.01	41483.66
527.18	41893.25
527.36	42274.76
527.53	41687.28
527.70	42312.20
527.87	42178.79
528.04	42307.52
528.21	42209.22
528.38	42478.38
528.55	42447.96
528.72	42586.05
528.89	42050.06
529.07	42010.28
529.24	42354.33
529.41	42312.20
529.58	42380.08
529.75	42738.18
529.92	42712.44
530.09	42937.13
530.26	42988.62
530.43	43131.39
530.60	42887.98
530.77	43152.46
530.94	43126.71
531.11	43199.27
531.28	43405.23
531.46	43468.43
531.63	43316.29
531.80	43934.20
531.97	43611.20
532.14	43901.43
532.31	43711.84
532.48	43885.04
532.65	43686.10
532.82	43646.31
532.99	44039.52
533.16	43973.98
533.33	43901.43
533.50	44325.07
533.67	44102.71
533.84	43611.20
534.01	43863.98
534.18	44186.97
534.35	44601.25
534.52	44643.38
534.69	44641.04
534.86	44795.51
535.03	44289.96
535.20	44271.23
535.37	44612.95
535.54	45139.57
535.71	44704.23
535.88	45095.10
536.05	44982.76
536.22	45537.46
536.38	45373.63
536.55	45162.98
536.72	45305.75
536.89	44444.43
537.06	44816.58
537.23	45593.64
537.40	45387.67
537.57	45282.34
537.74	45612.36
537.91	45794.92
538.08	45549.17
538.25	45492.99
538.42	45656.83
538.59	45928.33
538.75	45741.09
538.92	46117.92
539.09	46181.11
539.26	45837.05
539.43	45715.34
539.60	46281.75
539.77	45888.54
539.94	46045.36
540.11	46188.13
540.28	46344.95
540.44	46335.59
540.61	46422.19
540.78	46223.24
540.95	46581.34
541.12	46639.86
541.29	46295.80
541.46	46272.39
541.62	46337.93
541.79	46426.87
541.96	46623.47
542.13	46649.22
542.30	47276.48
542.47	47136.05
542.63	46796.67
542.80	46600.07
542.97	47114.98
543.14	47416.91
543.31	47400.53
543.48	47653.31
543.64	47686.07
543.81	47777.36
543.98	48072.26
544.15	47721.18
544.32	47959.92
544.48	47952.90
544.65	47707.14
544.82	47400.53
544.99	47180.52
545.16	47461.38
545.32	48095.67
545.49	48133.12
545.66	48376.53
545.83	47805.44
546.00	48140.14
546.16	48275.89
546.33	47653.31
546.50	47590.11
546.67	48423.34
546.83	47910.77
547.00	48095.67
547.17	47936.51
547.34	48329.72
547.50	47908.43
547.67	48233.76
547.84	48332.06
548.00	48533.35
548.17	48797.83
548.34	48451.43
548.51	48760.38
548.67	48889.11
548.84	48718.25
549.01	48292.27
549.18	48699.53
549.34	48149.50
549.51	48641.01
549.68	48830.60
549.84	48694.85
550.01	49069.33
550.18	48828.26
550.34	48945.28
550.51	49223.81
550.68	49003.80
550.84	48589.52
551.01	48870.39
551.18	48615.27
551.34	49581.91
551.51	49275.30
551.68	49223.81
551.84	49614.68
552.01	49233.17
552.18	48727.61
552.34	48959.33
552.51	49205.08
552.68	49083.37
552.84	49401.69
553.01	49661.49
553.18	49928.31
553.34	49661.49
553.51	49401.69
553.67	49275.30
553.84	49715.32
554.01	49364.24
554.17	49970.44
554.34	49811.28
554.51	50368.33
554.67	50019.59
554.84	49698.94
555.00	50260.66
555.17	50181.09
555.33	49476.58
555.50	49687.23
555.67	49635.74
555.83	49673.19
556.00	50078.10
556.16	50464.29
556.33	50246.62
556.50	50347.26
556.66	50487.70
556.83	50106.19
556.99	50354.29
557.16	50150.66
557.32	50042.99
557.49	50461.95
557.65	50017.25
557.82	50300.45
557.98	50335.56
558.15	50567.27
558.32	50328.54
558.48	50417.48
558.65	50153.00
558.81	50274.71
558.98	50195.13
559.14	50450.25
559.31	50461.95
559.47	50468.97
559.64	50728.77
559.80	51030.70
559.97	50995.59
560.13	50494.72
560.30	50504.08
560.46	50780.26
560.63	50747.50
560.79	50504.08
560.96	50923.04
561.12	51030.70
561.29	51229.65
561.45	51070.49
561.61	50911.33
561.78	50864.52
561.94	50696.00
562.11	50738.13
562.27	50384.71
562.44	50616.43
562.60	51196.88
562.77	51201.56
562.93	50983.89
563.10	51208.58
563.26	50988.57
563.42	51187.52
563.59	50880.91
563.75	50876.22
563.92	51049.42
564.08	50969.85
564.24	51330.29
564.41	51477.74
564.57	51126.66
564.74	51166.45
564.90	51274.12
565.07	50834.10
565.23	51150.07
565.39	50955.80
565.56	51299.86
565.72	51210.92
565.88	51318.59
566.05	51550.30
566.21	51388.80
566.38	51248.37
566.54	51281.14
566.70	51676.69
566.87	51384.12
567.03	51166.45
567.19	51480.08
567.36	51161.77
567.52	51166.45
567.68	51454.34
567.85	51452.00
568.01	51414.55
568.17	51428.59
568.34	51283.48
568.50	51208.58
568.66	51180.49
568.83	51526.89
568.99	51346.67
569.15	51210.92
569.32	51470.72
569.48	51381.78
569.64	51522.21
569.81	51611.15
569.97	51576.04
570.13	51952.87
570.30	51339.65
570.46	51498.81
570.62	51140.71
570.78	51356.03
570.95	51363.06
571.11	51564.34
571.27	51222.62
571.43	51793.71
571.60	51814.78
571.76	51461.36
571.92	51512.85
572.09	51341.99
572.25	51683.71
572.41	51540.94
572.57	51798.40
572.74	51959.89
572.90	51576.04
573.06	52334.38
573.22	51924.78
573.38	51831.16
573.55	51697.75
573.71	51667.33
573.87	51868.61
574.03	51641.58
574.20	51948.19
574.36	51405.19
574.52	51838.18
574.68	51943.51
574.84	52086.28
575.01	52229.05
575.17	52081.60
575.33	51791.37
575.49	51711.80
575.65	51384.12
575.82	52053.51
575.98	51875.63
576.14	52060.54
576.30	51990.32
576.46	52097.98
576.62	51845.21
576.79	52020.75
576.95	52126.07
577.11	51826.48
577.27	51716.48
577.43	51934.15
577.59	51725.84
577.75	51847.55
577.92	51529.23
578.08	52046.49
578.24	52147.14
578.40	51805.42
578.56	51798.40
578.72	51877.97
578.88	51863.93
579.04	51906.06
579.21	51976.28
579.37	51959.89
579.53	51739.88
579.69	51672.01
579.85	51852.23
580.01	52128.41
580.17	52013.73
580.33	52116.71
580.49	51629.88
580.65	51676.69
580.82	52060.54
580.98	51728.18
581.14	51978.62
581.30	52067.56
581.46	51819.46
581.62	51782.01
581.78	51770.31
581.94	52360.12
582.10	51849.89
582.26	51952.87
582.42	51828.82
582.58	51934.15
582.74	51810.10
582.90	51913.08
583.06	51948.19
583.22	51976.28
583.38	52243.10
583.54	52545.03
583.70	52530.98
583.86	52428.00
584.02	52046.49
584.18	52037.13
584.34	51992.66
584.50	52219.69
584.66	51959.89
584.82	52135.43
584.98	52500.56
585.14	52177.56
585.30	52004.36
585.46	52299.27
585.62	51936.49
585.78	52329.70
585.94	51908.40
586.10	52076.92
586.26	51742.22
586.42	51969.26
586.58	52048.83
586.74	51917.76
586.90	51957.55
587.06	52097.98
587.22	52575.45
587.38	52250.12
587.54	52465.45
587.70	52697.16
587.86	52095.64
588.02	52147.14
588.18	52320.34
588.34	52301.61
588.49	52264.16
588.65	52182.24
588.81	52268.84
588.97	52786.10
589.13	52325.02
589.29	52350.76
589.45	52631.63
589.61	52652.69
589.77	52224.37
589.93	52404.59
590.08	52222.03
590.24	52760.36
590.40	52430.34
