SpectraSuite Data File
++++++++++++++++++++++++++++++++++++
Date: Fri Oct 04 11:39:43 GMT-05:00 2013
User: price-jones
Dark Spectrum Present: No
Reference Spectrum Present: No
Number of Sampled Component Spectra: 1
Spectrometers: USB2+H05261
Integration Time (usec): 100000 (USB2+H05261)
Spectra Averaged: 1 (USB2+H05261)
Boxcar Smoothing: 0 (USB2+H05261)
Correct for Electrical Dark: No (USB2+H05261)
Strobe/Lamp Enabled: No (USB2+H05261)
Correct for Detector Non-linearity: No (USB2+H05261)
Correct for Stray Light: No (USB2+H05261)
Number of Pixels in Processed Spectrum: 2048
>>>>>Begin Processed Spectral Data<<<<<
365.73	93.62
365.92	93.62
366.12	93.62
366.32	11.70
366.52	0.00
366.72	9.36
366.91	0.00
367.11	0.00
367.31	0.00
367.51	0.00
367.70	0.00
367.90	0.00
368.10	0.00
368.30	0.00
368.49	0.00
368.69	0.00
368.89	0.00
369.09	4.68
369.28	0.00
369.48	0.00
369.68	0.00
369.87	0.00
370.07	0.00
370.27	23.41
370.47	70.22
370.66	110.01
370.86	67.88
371.06	133.41
371.25	168.52
371.45	135.75
371.65	163.84
371.84	142.77
372.04	142.77
372.24	121.71
372.44	184.90
372.63	187.24
372.83	194.26
373.03	212.99
373.22	175.54
373.42	98.30
373.62	177.88
373.81	189.58
374.01	208.31
374.21	184.90
374.40	170.86
374.60	163.84
374.79	187.24
374.99	156.82
375.19	124.05
375.38	128.73
375.58	121.71
375.78	222.35
375.97	175.54
376.17	278.52
376.37	168.52
376.56	175.54
376.76	105.32
376.95	220.01
377.15	212.99
377.35	163.84
377.54	180.22
377.74	147.45
377.93	119.37
378.13	152.13
378.33	208.31
378.52	180.22
378.72	166.18
378.91	201.29
379.11	163.84
379.31	238.73
379.50	156.82
379.70	210.65
379.89	177.88
380.09	182.56
380.28	168.52
380.48	163.84
380.68	191.92
380.87	135.75
381.07	154.48
381.26	196.60
381.46	152.13
381.65	154.48
381.85	201.29
382.04	173.20
382.24	231.71
382.43	191.92
382.63	105.32
382.83	173.20
383.02	201.29
383.22	203.63
383.41	149.79
383.61	234.05
383.80	210.65
384.00	142.77
384.19	236.39
384.39	210.65
384.58	210.65
384.78	173.20
384.97	194.26
385.17	168.52
385.36	250.44
385.56	264.48
385.75	117.03
385.95	156.82
386.14	201.29
386.34	201.29
386.53	196.60
386.72	156.82
386.92	269.16
387.11	187.24
387.31	234.05
387.50	114.69
387.70	201.29
387.89	196.60
388.09	177.88
388.28	212.99
388.48	189.58
388.67	259.80
388.86	166.18
389.06	280.86
389.25	264.48
389.45	299.59
389.64	271.50
389.84	231.71
390.03	245.76
390.22	201.29
390.42	238.73
390.61	191.92
390.81	259.80
391.00	273.84
391.19	203.63
391.39	248.10
391.58	177.88
391.78	161.50
391.97	208.31
392.16	250.44
392.36	252.78
392.55	285.55
392.75	231.71
392.94	252.78
393.13	273.84
393.33	166.18
393.52	241.08
393.71	280.86
393.91	238.73
394.10	227.03
394.29	297.25
394.49	205.97
394.68	222.35
394.88	353.42
395.07	348.74
395.26	269.16
395.46	367.46
395.65	306.61
395.84	353.42
396.04	308.95
396.23	212.99
396.42	220.01
396.62	313.63
396.81	332.36
397.00	266.82
397.19	353.42
397.39	292.57
397.58	367.46
397.77	285.55
397.97	351.08
398.16	383.85
398.35	320.65
398.55	327.68
398.74	351.08
398.93	278.52
399.12	332.36
399.32	383.85
399.51	311.29
399.70	433.00
399.90	388.53
400.09	369.80
400.28	475.13
400.47	325.33
400.67	397.89
400.86	367.46
401.05	447.04
401.24	414.27
401.44	423.64
401.63	374.49
401.82	468.11
402.01	425.98
402.21	489.17
402.40	423.64
402.59	468.11
402.78	400.23
402.97	414.27
403.17	381.51
403.36	458.74
403.55	507.90
403.74	489.17
403.93	557.05
404.13	564.07
404.32	578.11
404.51	578.11
404.70	526.62
404.89	458.74
405.09	557.05
405.28	526.62
405.47	547.69
405.66	603.86
405.85	596.84
406.05	594.50
406.24	535.98
406.43	524.28
406.62	547.69
406.81	613.22
407.00	603.86
407.20	645.99
407.39	638.97
407.58	624.92
407.77	669.39
407.96	697.48
408.15	627.26
408.34	697.48
408.54	643.65
408.73	791.10
408.92	746.63
409.11	695.14
409.30	751.31
409.49	744.29
409.68	734.93
409.87	685.78
410.07	734.93
410.26	779.40
410.45	741.95
410.64	795.78
410.83	887.06
411.02	880.04
411.21	856.64
411.40	805.14
411.59	720.88
411.78	793.44
411.98	786.42
412.17	875.36
412.36	870.68
412.55	873.02
412.74	901.11
412.93	1064.94
413.12	875.36
413.31	1041.54
413.50	990.05
413.69	933.87
413.88	1029.84
414.07	987.71
414.26	1029.84
414.45	1076.65
414.64	1067.28
414.83	1029.84
415.02	1078.99
415.22	1015.79
415.41	1146.86
415.60	1041.54
415.79	1078.99
415.98	1177.29
416.17	1114.10
416.36	1137.50
416.55	1078.99
416.74	1268.57
416.93	1179.63
417.12	1135.16
417.31	1196.01
417.50	1188.99
417.69	1350.49
417.88	1289.64
418.07	1289.64
418.26	1287.29
418.45	1207.72
418.64	1308.36
418.83	1327.08
419.02	1352.83
419.21	1355.17
419.39	1380.92
419.58	1308.36
419.77	1259.21
419.96	1488.58
420.15	1448.79
420.34	1413.68
420.53	1352.83
420.72	1320.06
420.91	1575.18
421.10	1336.45
421.29	1467.52
421.48	1441.77
421.67	1472.20
421.86	1469.86
422.05	1535.39
422.24	1448.79
422.43	1542.41
422.61	1521.35
422.80	1519.01
422.99	1430.07
423.18	1523.69
423.37	1535.39
423.56	1643.06
423.75	1593.90
423.94	1488.58
424.13	1469.86
424.32	1423.05
424.50	1654.76
424.69	1432.41
424.88	1666.46
425.07	1483.90
425.26	1570.50
425.45	1633.69
425.64	1547.09
425.83	1577.52
426.01	1565.82
426.20	1614.97
426.39	1568.16
426.58	1570.50
426.77	1547.09
426.96	1687.53
427.15	1528.37
427.33	1687.53
427.52	1612.63
427.71	1645.40
427.90	1736.68
428.09	1544.75
428.28	1570.50
428.46	1694.55
428.65	1746.04
428.84	1778.81
429.03	1645.40
429.22	1671.14
429.40	1657.10
429.59	1706.25
429.78	1600.93
429.97	1610.29
430.16	1748.38
430.34	1762.42
430.53	1891.15
430.72	1675.82
430.91	1762.42
431.10	1750.72
431.28	1729.66
431.47	1753.06
431.66	1891.15
431.85	1795.19
432.03	1778.81
432.22	1879.45
432.41	1860.73
432.60	1893.49
432.79	1944.99
432.97	1900.52
433.16	1827.96
433.35	2031.58
433.54	1886.47
433.72	1872.43
433.91	1923.92
434.10	1928.60
434.28	1900.52
434.47	2010.52
434.66	1949.67
434.85	1928.60
435.03	2071.37
435.22	2200.10
435.41	2555.86
435.59	2420.11
435.78	2370.96
435.97	2153.29
436.16	2157.97
436.34	2080.74
436.53	2001.16
436.72	2139.25
436.90	2015.20
437.09	2118.18
437.28	2024.56
437.46	2108.82
437.65	2157.97
437.84	2134.57
438.02	2155.63
438.21	2125.21
438.40	2139.25
438.58	2272.66
438.77	2305.43
438.96	2223.51
439.14	2277.34
439.33	2317.13
439.52	2242.23
439.70	2235.21
439.89	2377.98
440.08	2275.00
440.26	2305.43
440.45	2190.74
440.63	2361.60
440.82	2342.88
441.01	2413.09
441.19	2480.97
441.38	2502.03
441.57	2506.71
441.75	2546.50
441.94	2626.08
442.12	2499.69
442.31	2518.42
442.50	2574.59
442.68	2452.88
442.87	2609.70
443.05	2562.89
443.24	2532.46
443.43	2597.99
443.61	2614.38
443.80	2693.96
443.98	2558.21
444.17	2621.40
444.35	2558.21
444.54	2586.29
444.73	2471.61
444.91	2736.09
445.10	2649.49
445.28	2651.83
445.47	2569.91
445.65	2516.08
445.84	2689.28
446.02	2764.17
446.21	2640.12
446.39	2677.57
446.58	2665.87
446.77	2836.73
446.95	2619.06
447.14	2787.58
447.32	2719.70
447.51	2654.17
447.69	2710.34
447.88	2693.96
448.06	2677.57
448.25	2745.45
448.43	2712.68
448.62	2644.81
448.80	2724.38
448.99	2693.96
449.17	2738.43
449.36	2775.88
449.54	2764.17
449.73	2813.32
449.91	2944.39
450.10	2853.11
450.28	2782.90
450.46	2925.67
450.65	2960.78
450.83	2916.31
451.02	2904.60
451.20	2885.88
451.39	2881.20
451.57	2930.35
451.76	2904.60
451.94	2876.52
452.13	3016.95
452.31	2913.97
452.49	2916.31
452.68	2881.20
452.86	2909.29
453.05	2965.46
453.23	3016.95
453.42	2832.05
453.60	2904.60
453.78	3038.02
453.97	3012.27
454.15	2881.20
454.34	2916.31
454.52	2932.69
454.70	3110.57
454.89	3038.02
455.07	3122.27
455.26	3038.02
455.44	2993.55
455.62	3094.19
455.81	3199.51
455.99	3098.87
456.17	3084.83
456.36	2988.86
456.54	3262.71
456.73	3286.11
456.91	3169.09
457.09	3272.07
457.28	3456.97
457.46	3290.79
457.64	3349.31
457.83	3124.62
458.01	3187.81
458.19	3344.63
458.38	3215.90
458.56	3342.28
458.74	3358.67
458.93	3337.60
459.11	3384.41
459.29	3274.41
459.48	3293.13
459.66	3372.71
459.84	3440.59
460.03	3449.95
460.21	3475.70
460.39	3456.97
460.57	3375.05
460.76	3438.25
460.94	3463.99
461.12	3499.10
461.31	3405.48
461.49	3384.41
461.67	3428.88
461.85	3590.38
462.04	3520.17
462.22	3999.98
462.40	3658.26
462.59	3665.28
462.77	3740.18
462.95	3641.87
463.13	3599.74
463.32	3709.75
463.50	3595.06
463.68	3632.51
463.86	3702.73
464.05	3576.34
464.23	3557.61
464.41	3585.70
464.59	3440.59
464.78	3754.22
464.96	3702.73
465.14	3684.00
465.32	3768.26
465.50	3714.43
465.69	3754.22
465.87	3721.45
466.05	3726.13
466.23	3789.33
466.41	3763.58
466.60	3812.73
466.78	3803.37
466.96	3871.25
467.14	3749.54
467.32	3829.12
467.51	3913.38
467.69	3765.92
467.87	3934.44
468.05	3857.20
468.23	3789.33
468.41	3901.67
468.60	3824.44
468.78	3808.05
468.96	3967.21
469.14	3964.87
469.32	3992.95
469.50	3899.33
469.69	4091.26
469.87	4044.45
470.05	4107.64
470.23	3889.97
470.41	4028.06
470.59	4042.11
470.77	4077.21
470.95	4187.22
471.14	4112.32
471.32	4016.36
471.50	4353.40
471.68	4170.83
471.86	4255.09
472.04	4184.88
472.22	4159.13
472.40	4184.88
472.58	4170.83
472.77	4372.12
472.95	4299.56
473.13	4379.14
473.31	4184.88
473.49	4437.66
473.67	4550.00
473.85	4353.40
474.03	4528.94
474.21	4449.36
474.39	4571.07
474.57	4564.04
474.75	4568.73
474.93	4587.45
475.12	4547.66
475.30	4606.17
475.48	4674.05
475.66	4842.57
475.84	4739.58
476.02	4514.89
476.20	4652.98
476.38	4814.48
476.56	4971.30
476.74	4830.87
476.92	4819.16
477.10	4971.30
477.28	4952.57
477.46	4774.69
477.64	4929.17
477.82	5032.15
478.00	5252.16
478.18	5195.99
478.36	5025.13
478.54	5177.26
478.72	5268.55
478.90	5282.59
479.08	5343.44
479.26	5472.17
479.44	5261.52
479.62	5416.00
479.80	5514.30
479.98	5479.19
480.16	5448.77
480.34	5490.90
480.52	5423.02
480.70	5750.70
480.88	5544.73
481.06	5734.31
481.24	5633.67
481.41	5753.04
481.59	5905.17
481.77	5933.26
481.95	6094.76
482.13	6064.33
482.31	5968.37
482.49	6099.44
482.67	6136.88
482.85	6211.78
483.03	6342.85
483.21	6274.98
483.39	6462.22
483.57	6253.91
483.74	6377.96
483.92	6516.05
484.10	6525.41
484.28	6637.76
484.46	6686.91
484.64	6871.81
484.82	6567.54
485.00	6796.92
485.18	6801.60
485.35	6867.13
485.53	6899.90
485.71	6913.94
485.89	7213.53
486.07	6946.71
486.25	7155.02
486.43	7222.89
486.61	7178.42
486.78	7328.22
486.96	7229.91
487.14	7510.78
487.32	7365.67
487.50	7454.61
487.68	7485.03
487.85	7707.38
488.03	7683.98
488.21	7812.71
488.39	7700.36
488.57	7761.22
488.75	7885.26
488.92	7964.84
489.10	7981.23
489.28	7971.86
489.46	8243.37
489.64	8306.56
489.81	8238.69
489.99	8407.20
490.17	8463.38
490.35	8348.69
490.53	8301.88
490.70	8622.53
490.88	8528.91
491.06	8606.15
491.24	8753.60
491.41	8620.19
491.59	8758.28
491.77	8760.63
491.95	9085.96
492.13	8748.92
492.30	9018.08
492.48	8947.87
492.66	8879.99
492.84	9118.73
493.01	9231.07
493.19	8851.91
493.37	9383.21
493.54	9343.42
493.72	9104.68
493.90	9547.05
494.08	9404.27
494.25	9357.46
494.43	9558.75
494.61	9612.58
494.79	9612.58
494.96	9619.60
495.14	9785.78
495.32	9825.57
495.49	9916.85
495.67	9956.64
495.85	9816.21
496.02	10106.43
496.20	9914.51
496.38	10113.45
496.55	10211.76
496.73	10164.95
496.91	10277.29
497.09	10354.53
497.26	10450.49
497.44	10289.00
497.62	10525.39
497.79	10684.55
497.97	10391.98
498.14	10637.73
498.32	10637.73
498.50	10752.42
498.67	10787.53
498.85	10651.78
499.03	10721.99
499.20	10780.51
499.38	10902.22
499.56	10998.18
499.73	10890.51
499.91	11021.58
500.08	11248.61
500.26	10970.09
500.44	11054.35
500.61	11145.63
500.79	11171.38
500.97	11194.78
501.14	11541.18
501.32	11342.24
501.49	11272.02
501.67	11325.85
501.84	11475.65
502.02	11669.91
502.20	11552.88
502.37	11616.08
502.55	11454.58
502.72	11620.76
502.90	11726.08
503.07	11693.32
503.25	11583.31
503.43	11651.19
503.60	11566.93
503.78	11836.09
503.95	12212.92
504.13	12053.76
504.30	12140.36
504.48	12116.95
504.65	12079.50
504.83	12322.92
505.01	12248.02
505.18	12180.15
505.36	12456.33
505.53	12152.06
505.71	12428.24
505.88	12299.52
506.06	12238.66
506.23	12807.41
506.41	12533.57
506.58	12381.43
506.76	12732.51
506.93	12484.42
507.11	12521.87
507.28	12580.38
507.46	12620.17
507.63	12936.14
507.81	12898.69
507.98	12903.37
508.16	12978.27
508.33	12760.60
508.50	12741.88
508.68	13071.89
508.85	13083.59
509.03	12912.74
509.20	13165.51
509.38	13074.23
509.55	13282.54
509.73	13179.56
509.90	13429.99
510.08	13298.92
510.25	13593.83
510.42	13453.40
510.60	13586.81
510.77	13458.08
510.95	14031.51
511.12	13378.50
511.30	13458.08
511.47	13675.75
511.64	13743.63
511.82	13752.99
511.99	13703.84
512.17	13802.14
512.34	13788.10
512.51	14052.58
512.69	13722.56
512.86	13902.78
513.04	14237.48
513.21	14017.47
513.38	14083.00
513.56	14480.89
513.73	13933.21
513.90	14036.19
514.08	13703.84
514.25	14169.60
514.43	14143.86
514.60	14375.57
514.77	14513.66
514.95	14452.81
515.12	14417.70
515.29	14455.15
515.47	14434.08
515.64	14759.42
515.81	14595.58
515.99	14719.63
516.16	14595.58
516.33	14766.44
516.51	14717.29
516.68	14906.87
516.85	14530.05
517.03	14728.99
517.20	14796.87
517.37	15016.88
517.54	15014.54
517.72	14775.80
517.89	14878.79
518.06	15042.62
518.24	15056.67
518.41	14944.32
518.58	15241.57
518.75	15035.60
518.93	15131.56
519.10	15328.17
519.27	15206.46
519.45	15073.05
519.62	15084.75
519.79	15171.35
519.96	15377.32
520.14	15325.83
520.31	15428.81
520.48	15672.23
520.65	15590.31
520.83	15482.64
521.00	15470.94
521.17	15494.35
521.34	15573.92
521.52	15665.21
521.69	15641.80
521.86	15831.38
522.03	15826.70
522.20	15728.40
522.38	15826.70
522.55	15934.37
522.72	15927.35
522.89	15915.64
523.07	16053.73
523.24	15721.38
523.41	16027.99
523.58	15798.62
523.75	16032.67
523.92	16079.48
524.10	16219.91
524.27	16030.33
524.44	16212.89
524.61	16444.60
524.78	16425.88
524.96	16245.66
525.13	16496.10
525.30	16329.92
525.47	16224.59
525.64	16280.77
525.81	16578.01
525.98	16166.08
526.16	16311.19
526.33	16446.94
526.50	16624.83
526.67	16585.04
526.84	16400.13
527.01	16402.47
527.18	16624.83
527.36	17088.25
527.53	16748.87
527.70	16912.71
527.87	17043.78
528.04	16929.09
528.21	16664.61
528.38	16748.87
528.55	16964.20
528.72	16938.46
528.89	16905.69
529.07	17146.76
529.24	17081.23
529.41	16903.35
529.58	16901.01
529.75	16940.80
529.92	17263.79
530.09	16779.30
530.26	17338.69
530.43	17348.05
530.60	17128.04
530.77	16905.69
530.94	17130.38
531.11	17254.43
531.28	17238.05
531.46	17338.69
531.63	17074.21
531.80	17549.34
531.97	17483.80
532.14	17383.16
532.31	17563.38
532.48	17708.49
532.65	17525.93
532.82	17544.66
532.99	17427.63
533.16	17348.05
533.33	17647.64
533.50	17926.16
533.67	17816.16
533.84	17301.24
534.01	17827.86
534.18	17554.02
534.35	17804.46
534.52	17762.33
534.69	17872.33
534.86	17891.06
535.03	17724.88
535.20	17781.05
535.37	17951.91
535.54	17965.95
535.71	17743.60
535.88	18036.17
536.05	18033.83
536.22	18108.72
536.38	18277.24
536.55	18136.81
536.72	18136.81
536.89	17874.67
537.06	18167.24
537.23	18321.71
537.40	18387.25
537.57	18001.06
537.74	18022.12
537.91	18441.08
538.08	18190.64
538.25	18279.58
538.42	18349.80
538.59	18565.13
538.75	18033.83
538.92	18249.16
539.09	18534.70
539.26	18656.41
539.43	18501.93
539.60	18724.29
539.77	18670.45
539.94	18567.47
540.11	18745.35
540.28	18532.36
540.44	18834.29
540.61	18843.65
540.78	18703.22
540.95	18796.84
541.12	19136.22
541.29	19033.24
541.46	18918.55
541.62	19000.47
541.79	18813.23
541.96	19037.92
542.13	18850.67
542.30	19178.35
542.47	19183.03
542.63	18984.09
542.80	19140.90
542.97	19499.00
543.14	19381.98
543.31	19274.31
543.48	19536.45
543.64	19571.56
543.81	19484.96
543.98	19552.84
544.15	19412.40
544.32	19704.97
544.48	19585.60
544.65	19358.57
544.82	19363.25
544.99	19204.10
545.16	19307.08
545.32	19391.34
545.49	20100.52
545.66	20706.72
545.83	20556.93
546.00	20531.18
546.16	20077.12
546.33	19609.01
546.50	19337.51
546.67	19503.68
546.83	19559.86
547.00	19473.26
547.17	19711.99
547.34	19721.35
547.50	19606.67
547.67	19625.39
547.84	19845.40
548.00	19833.70
548.17	19714.33
548.34	19618.37
548.51	19791.57
548.67	19707.31
548.84	19824.34
549.01	20058.39
549.18	19826.68
549.34	19889.87
549.51	20084.14
549.68	20056.05
549.84	20191.80
550.01	19548.15
550.18	19714.33
550.34	19658.16
550.51	19866.47
550.68	19770.51
550.84	20023.28
551.01	19798.59
551.18	19447.51
551.34	19822.00
551.51	19941.36
551.68	19859.45
551.84	19866.47
552.01	19775.19
552.18	20135.63
552.34	19690.93
552.51	20053.71
552.68	19824.34
552.84	19480.28
553.01	19807.95
553.18	20175.42
553.34	19971.79
553.51	20009.24
553.67	20123.93
553.84	20051.37
554.01	20042.01
554.17	20484.37
554.34	20292.44
554.51	20273.72
554.67	20011.58
554.84	20060.73
555.00	20044.35
555.17	19901.58
555.33	20643.52
555.50	19892.21
555.67	20400.11
555.83	20184.78
556.00	20247.97
556.16	20313.51
556.33	20088.82
556.50	20219.89
556.66	20472.67
556.83	20381.38
556.99	20198.82
557.16	20428.20
557.32	20460.96
557.49	20484.37
557.65	20217.55
557.82	20058.39
557.98	20301.81
558.15	20095.84
558.32	20304.15
558.48	20198.82
558.65	20421.17
558.81	20449.26
558.98	20540.54
559.14	19936.68
559.31	20180.10
559.47	20514.80
559.64	20273.72
559.80	20421.17
559.97	20460.96
560.13	20119.24
560.30	20257.34
560.46	20236.27
560.63	20397.77
560.79	20184.78
560.96	20369.68
561.12	20315.85
561.29	20400.11
561.45	20287.76
561.61	20463.30
561.78	20683.31
561.94	20458.62
562.11	20566.29
562.27	20793.32
562.44	20615.44
562.60	20470.33
562.77	20648.21
562.93	20503.09
563.10	20718.42
563.26	20325.21
563.42	20833.11
563.59	20634.16
563.75	20610.76
563.92	20655.23
564.08	20449.26
564.24	20393.09
564.41	20482.03
564.57	20458.62
564.74	20783.96
564.90	20601.40
565.07	20589.69
565.23	20589.69
565.39	20830.77
565.56	20505.43
565.72	20659.91
565.88	20798.00
566.05	20430.54
566.21	20362.66
566.38	20592.03
566.54	20257.34
566.70	20519.48
566.87	20706.72
567.03	20753.53
567.19	20680.97
567.36	20603.74
567.52	20491.39
567.68	20908.01
567.85	20627.14
568.01	20556.93
568.17	20486.71
568.34	20449.26
568.50	20793.32
568.66	20697.36
568.83	20695.02
568.99	20800.34
569.15	20910.35
569.32	20400.11
569.48	20601.40
569.64	21146.74
569.81	20919.71
569.97	20737.15
570.13	20744.17
570.30	20603.74
570.46	20959.50
570.62	20807.36
570.78	20807.36
570.95	20411.81
571.11	20758.21
571.27	20379.04
571.43	20823.75
571.60	20760.55
571.76	20821.41
571.92	20919.71
572.09	20538.20
572.25	20865.88
572.41	20720.76
572.57	20404.79
572.74	20790.98
572.90	20786.30
573.06	20833.11
573.22	20919.71
573.38	20868.22
573.55	20837.79
573.71	20828.43
573.87	21085.89
574.03	20547.56
574.20	20835.45
574.36	20627.14
574.52	20629.48
574.68	20638.84
574.84	20732.47
575.01	21120.99
575.17	20716.08
575.33	20596.71
575.49	20517.14
575.65	20999.29
575.82	20840.13
575.98	20739.49
576.14	21132.70
576.30	20732.47
576.46	20793.32
576.62	21380.79
576.79	20634.16
576.95	20793.32
577.11	21198.23
577.27	20783.96
577.43	20802.68
577.59	20765.23
577.75	20676.29
577.92	20547.56
578.08	20650.55
578.24	20528.84
578.40	20891.62
578.56	21369.09
578.72	20769.91
578.88	21233.34
579.04	21092.91
579.21	20912.69
579.37	21186.53
579.53	20783.96
579.69	20788.64
579.85	20774.60
580.01	20961.84
580.17	20870.56
580.33	21095.25
580.49	20769.91
580.65	21029.71
580.82	20950.14
580.98	20922.05
581.14	20952.48
581.30	20987.58
581.46	20863.54
581.62	20973.54
581.78	20840.13
581.94	21111.63
582.10	20823.75
582.26	20961.84
582.42	20793.32
582.58	21046.10
582.74	21027.37
582.90	20847.15
583.06	21179.51
583.22	21179.51
583.38	20924.39
583.54	20919.71
583.70	20767.57
583.86	20996.95
584.02	20680.97
584.18	21081.21
584.34	21092.91
584.50	21317.60
584.66	20952.48
584.82	20676.29
584.98	20688.00
585.14	20772.25
585.30	20669.27
585.46	21074.18
585.62	21249.72
585.78	20854.17
585.94	20835.45
586.10	21209.93
586.26	20821.41
586.42	20996.95
586.58	21113.97
586.74	21301.22
586.90	20908.01
587.06	20889.28
587.22	20940.77
587.38	20828.43
587.54	21268.45
587.70	21301.22
587.86	21195.89
588.02	21074.18
588.18	21268.45
588.34	21062.48
588.49	21053.12
588.65	20908.01
588.81	20788.64
588.97	20790.98
589.13	20744.17
589.29	20968.86
589.45	21142.06
589.61	21135.04
589.77	21336.32
589.93	20936.09
590.08	21214.62
590.24	21298.88
590.40	21364.41
590.56	21198.23
590.72	20793.32
590.88	20940.77
591.04	20863.54
591.20	21324.62
591.35	21268.45
591.51	21160.78
591.67	21493.14
591.83	21221.64
591.99	21029.71
592.15	21333.98
592.31	21111.63
592.46	21284.83
592.62	21135.04
592.78	21439.31
