SpectraSuite Data File
++++++++++++++++++++++++++++++++++++
Date: Fri Oct 04 11:39:18 GMT-05:00 2013
User: price-jones
Dark Spectrum Present: No
Reference Spectrum Present: No
Number of Sampled Component Spectra: 1
Spectrometers: USB2+H05261
Integration Time (usec): 100000 (USB2+H05261)
Spectra Averaged: 1 (USB2+H05261)
Boxcar Smoothing: 0 (USB2+H05261)
Correct for Electrical Dark: No (USB2+H05261)
Strobe/Lamp Enabled: No (USB2+H05261)
Correct for Detector Non-linearity: No (USB2+H05261)
Correct for Stray Light: No (USB2+H05261)
Number of Pixels in Processed Spectrum: 2048
>>>>>Begin Processed Spectral Data<<<<<
365.73	9.36
365.92	9.36
366.12	9.36
366.32	0.00
366.52	0.00
366.72	0.00
366.91	0.00
367.11	0.00
367.31	0.00
367.51	0.00
367.70	0.00
367.90	0.00
368.10	0.00
368.30	0.00
368.49	0.00
368.69	0.00
368.89	4.68
369.09	0.00
369.28	0.00
369.48	0.00
369.68	0.00
369.87	25.75
370.07	0.00
370.27	37.45
370.47	63.19
370.66	196.60
370.86	177.88
371.06	332.36
371.25	313.63
371.45	250.44
371.65	301.93
371.84	248.10
372.04	245.76
372.24	313.63
372.44	269.16
372.63	269.16
372.83	372.15
373.03	379.17
373.22	304.27
373.42	334.70
373.62	411.93
373.81	358.10
374.01	337.04
374.21	376.83
374.40	372.15
374.60	404.91
374.79	407.25
374.99	421.30
375.19	486.83
375.38	374.49
375.58	379.17
375.78	430.66
375.97	397.89
376.17	379.17
376.37	390.87
376.56	379.17
376.76	383.85
376.95	367.46
377.15	383.85
377.35	433.00
377.54	400.23
377.74	449.38
377.93	442.36
378.13	409.59
378.33	500.87
378.52	425.98
378.72	491.51
378.91	430.66
379.11	325.33
379.31	390.87
379.50	404.91
379.70	381.51
379.89	479.81
380.09	402.57
380.28	444.70
380.48	425.98
380.68	468.11
380.87	456.40
381.07	489.17
381.26	435.34
381.46	477.47
381.65	416.62
381.85	500.87
382.04	472.79
382.24	447.04
382.43	491.51
382.63	456.40
382.83	433.00
383.02	482.15
383.22	486.83
383.41	475.13
383.61	472.79
383.80	568.75
384.00	489.17
384.19	472.79
384.39	451.72
384.58	456.40
384.78	496.19
384.97	510.24
385.17	538.32
385.36	575.77
385.56	519.60
385.75	535.98
385.95	454.06
386.14	561.73
386.34	578.11
386.53	667.05
386.72	538.32
386.92	603.86
387.11	512.58
387.31	587.47
387.50	601.52
387.70	603.86
387.89	543.00
388.09	568.75
388.28	505.56
388.48	531.30
388.67	697.48
388.86	648.33
389.06	667.05
389.25	727.91
389.45	716.20
389.64	589.82
389.84	683.44
390.03	674.07
390.22	660.03
390.42	627.26
390.61	552.37
390.81	688.12
391.00	594.50
391.19	713.86
391.39	688.12
391.58	683.44
391.78	704.50
391.97	758.33
392.16	688.12
392.36	816.85
392.55	723.23
392.75	697.48
392.94	690.46
393.13	723.23
393.33	709.18
393.52	685.78
393.71	657.69
393.91	758.33
394.10	744.29
394.29	821.53
394.49	758.33
394.68	802.80
394.88	755.99
395.07	763.01
395.26	758.33
395.46	753.65
395.65	819.19
395.84	798.12
396.04	863.66
396.23	880.04
396.42	842.59
396.62	767.70
396.81	891.74
397.00	877.70
397.19	947.92
397.39	844.93
397.58	896.43
397.77	926.85
397.97	901.11
398.16	919.83
398.35	973.66
398.55	938.55
398.74	915.15
398.93	954.94
399.12	952.60
399.32	997.07
399.51	987.71
399.70	1039.20
399.90	1064.94
400.09	1020.47
400.28	1081.33
400.47	1032.18
400.67	1008.77
400.86	1071.97
401.05	1032.18
401.24	1004.09
401.44	1123.46
401.63	1081.33
401.82	1153.88
402.01	1104.73
402.21	1086.01
402.40	1090.69
402.59	1196.01
402.78	1153.88
402.97	1224.10
403.17	1207.72
403.36	1259.21
403.55	1233.46
403.74	1186.65
403.93	1240.48
404.13	1263.89
404.32	1383.26
404.51	1268.57
404.70	1299.00
404.89	1242.82
405.09	1409.00
405.28	1317.72
405.47	1310.70
405.66	1301.34
405.85	1352.83
406.05	1315.38
406.24	1369.21
406.43	1469.86
406.62	1474.54
406.81	1516.67
407.00	1425.39
407.20	1451.13
407.39	1476.88
407.58	1397.30
407.77	1509.65
407.96	1537.73
408.15	1582.20
408.34	1460.49
408.54	1624.33
408.73	1600.93
408.92	1451.13
409.11	1519.01
409.30	1577.52
409.49	1612.63
409.68	1626.67
409.87	1694.55
410.07	1750.72
410.26	1760.08
410.45	1636.03
410.64	1689.87
410.83	1795.19
411.02	1703.91
411.21	1797.53
411.40	1713.27
411.59	1886.47
411.78	1895.83
411.98	1830.30
412.17	1785.83
412.36	1870.09
412.55	1842.00
412.74	2026.90
412.93	1961.37
413.12	1919.24
413.31	2083.08
413.50	2001.16
413.69	2076.06
413.88	2104.14
414.07	2120.53
414.26	2059.67
414.45	2190.74
414.64	2141.59
414.83	2239.89
415.02	2099.46
415.22	2209.47
415.41	2303.09
415.60	2286.70
415.79	2401.39
415.98	2345.22
416.17	2457.56
416.36	2370.96
416.55	2394.37
416.74	2452.88
416.93	2380.32
417.12	2513.74
417.31	2457.56
417.50	2588.63
417.69	2431.82
417.88	2459.90
418.07	2499.69
418.26	2462.24
418.45	2551.18
418.64	2738.43
418.83	2693.96
419.02	2665.87
419.21	2827.37
419.39	2738.43
419.58	2658.85
419.77	2668.21
419.96	2750.13
420.15	2867.16
420.34	2876.52
420.53	2846.09
420.72	2888.22
420.91	2843.75
421.10	2974.82
421.29	3012.27
421.48	2853.11
421.67	2951.42
421.86	2937.37
422.05	2995.89
422.24	2904.60
422.43	2916.31
422.61	2820.35
422.80	2970.14
422.99	3052.06
423.18	3033.33
423.37	3056.74
423.56	3122.27
423.75	3122.27
423.94	3005.25
424.13	2972.48
424.32	2911.63
424.50	2993.55
424.69	3145.68
424.88	2998.23
425.07	3016.95
425.26	2979.50
425.45	2986.52
425.64	3112.91
425.83	3014.61
426.01	3206.53
426.20	3082.49
426.39	3248.66
426.58	3054.40
426.77	3080.14
426.96	3035.67
427.15	3133.98
427.33	3227.60
427.52	3016.95
427.71	3206.53
427.90	3180.79
428.09	3351.65
428.28	3222.92
428.46	3344.63
428.65	3225.26
428.84	3314.20
429.03	3386.76
429.22	3246.32
429.40	3379.73
429.59	3389.10
429.78	3208.87
429.97	3300.16
430.16	3314.20
430.34	3386.76
430.53	3473.36
430.72	3503.78
430.91	3368.03
431.10	3428.88
431.28	3426.54
431.47	3590.38
431.66	3655.92
431.85	3445.27
432.03	3698.05
432.22	3585.70
432.41	3602.08
432.60	3693.37
432.79	3716.77
432.97	3637.19
433.16	3791.67
433.35	3796.35
433.54	3899.33
433.72	3850.18
433.91	3698.05
434.10	3815.07
434.28	3705.07
434.47	3812.73
434.66	3875.93
434.85	3831.46
435.03	3934.44
435.22	4168.49
435.41	4332.33
435.59	4374.46
435.78	4180.20
435.97	3995.29
436.16	4037.42
436.34	3999.98
436.53	4053.81
436.72	4269.14
436.90	3976.57
437.09	4135.73
437.28	4095.94
437.46	4147.43
437.65	4100.62
437.84	4191.90
438.02	4138.07
438.21	4189.56
438.40	4180.20
438.58	4308.93
438.77	4374.46
438.96	4276.16
439.14	4395.53
439.33	4428.29
439.52	4498.51
439.70	4617.88
439.89	4557.02
440.08	4491.49
440.26	4739.58
440.45	4526.60
440.63	4631.92
440.82	4596.81
441.01	4746.61
441.19	4641.28
441.38	4713.84
441.57	4854.27
441.75	4779.37
441.94	4840.23
442.12	4924.49
442.31	4954.91
442.50	5043.85
442.68	4828.53
442.87	4990.02
443.05	4964.28
443.24	5083.64
443.43	5001.72
443.61	5046.20
443.80	5160.88
443.98	5125.77
444.17	4905.76
444.35	5006.41
444.54	5217.05
444.73	5231.10
444.91	5076.62
445.10	5085.98
445.28	5252.16
445.47	5078.96
445.65	5116.41
445.84	5298.97
446.02	5179.61
446.21	4992.36
446.39	5238.12
446.58	5310.68
446.77	5160.88
446.95	5039.17
447.14	5266.21
447.32	5252.16
447.51	5313.02
447.69	5376.21
447.88	5313.02
448.06	5392.59
448.25	5334.08
448.43	5210.03
448.62	5378.55
448.80	5256.84
448.99	5338.76
449.17	5366.85
449.36	5355.15
449.54	5533.03
449.73	5563.45
449.91	5556.43
450.10	5341.10
450.28	5598.56
450.46	5685.16
450.65	5715.59
450.83	5556.43
451.02	5710.91
451.20	5446.43
451.39	5743.67
451.57	5598.56
451.76	5668.78
451.94	5837.30
452.13	5879.43
452.31	5785.80
452.49	5717.93
452.68	5834.96
452.86	5989.43
453.05	5825.59
453.23	5893.47
453.42	5879.43
453.60	5888.79
453.78	5921.56
453.97	5799.85
454.15	5914.53
454.34	5858.36
454.52	6064.33
454.70	5863.04
454.89	6026.88
455.07	6129.86
455.26	6106.46
455.44	6043.26
455.62	6101.78
455.81	6071.35
455.99	6148.59
456.17	6010.50
456.36	6197.74
456.54	6424.77
456.73	6436.47
456.91	6537.12
457.09	6588.61
457.28	6616.69
457.46	6499.67
457.64	6530.09
457.83	6502.01
458.01	6392.00
458.19	6588.61
458.38	6567.54
458.56	6555.84
458.74	6537.12
458.93	6635.42
459.11	6586.27
459.29	6541.80
459.48	6600.31
459.66	6562.86
459.84	6775.85
460.03	6803.94
460.21	7016.93
460.39	6885.86
460.57	6759.47
460.76	6846.07
460.94	6963.09
461.12	6951.39
461.31	6925.65
461.49	6836.70
461.67	6722.02
461.85	6988.84
462.04	7110.55
462.22	7588.02
462.40	7063.74
462.59	7016.93
462.77	7183.10
462.95	7211.19
463.13	7255.66
463.32	7082.46
463.50	7089.48
463.68	7260.34
463.86	7403.11
464.05	7316.51
464.23	7353.96
464.41	7445.24
464.59	7297.79
464.78	7463.97
464.96	7365.67
465.14	7129.27
465.32	7496.74
465.50	7559.93
465.69	7435.88
465.87	7428.86
466.05	7337.58
466.23	7445.24
466.41	7761.22
466.60	7747.17
466.78	7571.63
466.96	7588.02
467.14	7737.81
467.32	7513.12
467.51	7793.98
467.69	7578.65
467.87	7770.58
468.05	7815.05
468.23	7691.00
468.41	7740.15
468.60	7866.54
468.78	7737.81
468.96	7889.95
469.14	7934.42
469.32	7903.99
469.50	7815.05
469.69	7990.59
469.87	8030.38
470.05	8011.65
470.23	8013.99
470.41	8126.34
470.59	8121.66
470.77	8098.25
470.95	8107.62
471.14	8308.90
471.32	8201.24
471.50	8468.06
471.68	8273.79
471.86	8414.23
472.04	8461.04
472.22	8636.58
472.40	8404.86
472.58	8477.42
472.77	8486.78
472.95	8802.75
473.13	8858.93
473.31	8655.30
473.49	8636.58
473.67	8854.25
473.85	8690.41
474.03	8978.30
474.21	8879.99
474.39	9004.04
474.57	9041.49
474.75	9165.54
474.93	8952.55
475.12	9048.51
475.30	9282.56
475.48	9266.18
475.66	9343.42
475.84	9352.78
476.02	9490.87
476.20	9383.21
476.38	9554.07
476.56	9720.24
476.74	9682.80
476.92	9570.45
477.10	9572.79
477.28	9846.63
477.46	9888.76
477.64	10001.11
477.82	10204.74
478.00	10513.69
478.18	10335.81
478.36	10429.43
478.54	10401.34
478.72	10438.79
478.90	10726.68
479.08	10689.23
479.26	10719.65
479.44	10782.85
479.62	10846.04
479.80	10848.38
479.98	11054.35
480.16	11166.70
480.34	11260.32
480.52	11407.77
480.70	11447.56
480.88	11293.08
481.06	11470.97
481.24	11494.37
481.41	11709.70
481.59	11772.89
481.77	11941.41
481.95	11988.22
482.13	12065.46
482.31	12215.26
482.49	12308.88
482.67	12255.04
482.85	12442.29
483.03	12503.14
483.21	12863.58
483.39	12821.45
483.57	12802.73
483.74	12954.87
483.92	13085.94
484.10	13067.21
484.28	13074.23
484.46	13540.00
484.64	13855.97
484.82	13596.17
485.00	13685.11
485.18	13891.08
485.35	13806.82
485.53	14157.90
485.71	13944.91
485.89	14483.24
486.07	14155.56
486.25	14284.29
486.43	14382.59
486.61	14654.09
486.78	14710.27
486.96	14689.20
487.14	15194.76
487.32	15178.37
487.50	15372.64
487.68	15328.17
487.85	15627.76
488.03	15683.93
488.21	16219.91
488.39	15955.43
488.57	15932.03
488.75	16084.16
488.92	16250.34
489.10	16299.49
489.28	16301.83
489.46	16451.63
489.64	16463.33
489.81	17057.82
489.99	16940.80
490.17	16844.84
490.35	17076.55
490.53	17394.86
490.70	17652.32
490.88	17561.04
491.06	17729.56
491.24	17675.73
491.41	17530.61
491.59	18059.57
491.77	18068.94
491.95	18134.47
492.13	18237.45
492.30	18326.39
492.48	18438.74
492.66	18373.21
492.84	18604.92
493.01	18637.69
493.19	18785.14
493.37	18995.79
493.54	19276.65
493.72	19447.51
493.90	19206.44
494.08	19236.86
494.25	19426.45
494.43	19927.32
494.61	19826.68
494.79	19637.09
494.96	19899.23
495.14	19819.66
495.32	20435.22
495.49	20507.77
495.67	20313.51
495.85	20781.62
496.02	20533.52
496.20	20772.25
496.38	20966.52
496.55	20858.85
496.73	21282.49
496.91	21137.38
497.09	21530.59
497.26	21284.83
497.44	21481.44
497.62	21830.18
497.79	21788.05
497.97	21680.38
498.14	21963.59
498.32	22122.74
498.50	22054.87
498.67	22363.82
498.85	22342.75
499.03	22696.17
499.20	22740.64
499.38	22609.58
499.56	22778.09
499.73	22693.83
499.91	23012.15
500.08	23452.17
500.26	22864.69
500.44	22965.34
500.61	22855.33
500.79	23152.58
500.97	23384.29
501.14	23812.61
501.32	23220.45
501.49	23817.29
501.67	23674.52
501.84	23484.94
502.02	23920.28
502.20	23861.76
502.37	24170.71
502.55	23950.70
502.72	24254.97
502.90	24107.52
503.07	24341.57
503.25	24573.28
503.43	24016.24
503.60	24746.48
503.78	24723.08
503.95	24580.31
504.13	24851.81
504.30	25034.37
504.48	24769.89
504.65	25095.22
504.83	25111.61
505.01	25673.34
505.18	25179.48
505.36	25678.02
505.53	25448.64
505.71	25532.90
505.88	25497.80
506.06	25448.64
506.23	26366.13
506.41	25935.48
506.58	26085.27
506.76	25621.84
506.93	25848.88
507.11	25944.84
507.28	25930.80
507.46	26309.96
507.63	26494.86
507.81	26747.64
507.98	26106.34
508.16	26607.21
508.33	26565.08
508.50	26820.20
508.68	27117.45
508.85	27009.78
509.03	26864.67
509.20	26799.13
509.38	27447.46
509.55	27381.93
509.73	27454.48
509.90	27587.89
510.08	27555.13
510.25	27524.70
510.42	27747.05
510.60	28166.01
510.77	27957.70
510.95	28147.28
511.12	28158.99
511.30	27770.46
511.47	28074.73
511.64	28407.08
511.82	28795.61
511.99	28479.64
512.17	28552.20
512.34	28217.50
512.51	28891.57
512.69	28919.66
512.86	28898.59
513.04	28966.47
513.21	29525.86
513.38	29408.83
513.56	29050.73
513.73	29127.97
513.90	29467.34
514.08	29476.71
514.25	29773.95
514.43	29675.65
514.60	29397.13
514.77	29750.55
514.95	30061.84
515.12	29488.41
515.29	29465.00
515.47	30125.04
515.64	30110.99
515.81	29912.05
515.99	30494.84
516.16	30494.84
516.33	30555.69
516.51	30480.80
516.68	30513.56
516.85	30246.74
517.03	30438.67
517.20	30595.48
517.37	30511.22
517.54	30974.65
517.72	30848.26
517.89	30705.49
518.06	30698.47
518.24	30948.90
518.41	31054.23
518.58	30888.05
518.75	31154.87
518.93	31522.34
519.10	31325.73
519.27	31445.10
519.45	30930.18
519.62	31452.12
519.79	31323.39
519.96	31299.98
520.14	31943.63
520.31	31730.64
520.48	31971.72
520.65	32034.91
520.83	31962.36
521.00	32201.09
521.17	31931.93
521.34	32407.06
521.52	32568.55
521.69	32697.28
521.86	32554.51
522.03	32833.04
522.20	32783.88
522.38	32849.42
522.55	32858.78
522.72	32882.19
522.89	32882.19
523.07	33254.33
523.24	33120.92
523.41	33230.93
523.58	33149.01
523.75	33586.69
523.92	33020.28
524.10	33235.61
524.27	33408.81
524.44	33558.60
524.61	33881.60
524.78	33762.23
524.96	33998.62
525.13	33610.09
525.30	33729.46
525.47	33743.50
525.64	34059.48
525.81	33888.62
525.98	34085.22
526.16	33813.72
526.33	34213.95
526.50	34321.62
526.67	33790.31
526.84	34466.73
527.01	34171.82
527.18	34618.86
527.36	34597.80
527.53	34869.30
527.70	34855.26
527.87	34742.91
528.04	34445.66
528.21	34560.35
528.38	34579.07
528.55	34930.16
528.72	35103.35
528.89	34892.71
529.07	34965.26
529.24	35208.68
529.41	35475.50
529.58	35086.97
529.75	34827.17
529.92	34869.30
530.09	35178.25
530.26	35583.16
530.43	35559.76
530.60	35695.51
530.77	35747.00
530.94	35866.37
531.11	35709.55
531.28	35786.79
531.46	35655.72
531.63	36121.49
531.80	35908.50
531.97	36481.93
532.14	35995.10
532.31	35842.96
532.48	36177.66
532.65	36187.02
532.82	36027.87
532.99	36191.70
533.16	36030.21
533.33	36465.55
533.50	36554.49
533.67	36278.30
533.84	36397.67
534.01	36247.88
534.18	36273.62
534.35	36526.40
534.52	36531.08
534.69	36978.12
534.86	37076.43
535.03	36638.75
535.20	37179.41
535.37	37132.60
535.54	37305.80
535.71	37172.39
535.88	37186.43
536.05	37322.18
536.22	36919.61
536.38	37598.37
536.55	37284.73
536.72	37146.64
536.89	37116.22
537.06	37593.68
537.23	37542.19
537.40	37509.43
537.57	37708.37
537.74	37387.72
537.91	38134.35
538.08	37736.46
538.25	37621.77
538.42	38113.28
538.59	38478.41
538.75	37762.20
538.92	37947.11
539.09	38064.13
539.26	37897.95
539.43	38347.34
539.60	38527.56
539.77	38525.22
539.94	38831.83
540.11	38490.11
540.28	38614.16
540.44	38487.77
540.61	38506.49
540.78	38352.02
540.95	38803.74
541.12	38880.98
541.29	39339.72
541.46	38848.21
541.62	38941.83
541.79	39335.04
541.96	38586.07
542.13	38888.00
542.30	39019.07
542.47	39332.70
542.63	39477.82
542.80	39246.10
542.97	39641.65
543.14	39625.27
543.31	39620.59
543.48	39548.03
543.64	39772.72
543.81	40123.80
543.98	39983.37
544.15	40271.26
544.32	40282.96
544.48	40098.06
544.65	40030.18
544.82	39587.82
544.99	39435.69
545.16	40196.36
545.32	39988.05
545.49	40772.13
545.66	40512.33
545.83	41294.07
546.00	41708.35
546.16	40769.79
546.33	40053.59
546.50	39737.62
546.67	40535.74
546.83	40105.08
547.00	40336.79
547.17	40460.84
547.34	40610.64
547.50	40641.06
547.67	41214.49
547.84	40601.27
548.00	40758.09
548.17	41001.50
548.34	40282.96
548.51	41160.66
548.67	41174.70
548.84	40823.62
549.01	41125.55
549.18	41221.52
549.34	41113.85
549.51	41062.36
549.68	40634.04
549.84	41092.79
550.01	41029.59
550.18	41097.47
550.34	40987.46
550.51	40854.05
550.68	41010.87
550.84	40692.55
551.01	40919.59
551.18	40835.33
551.34	41160.66
551.51	40968.74
551.68	41188.75
551.84	41448.55
552.01	41375.99
552.18	41565.57
552.34	41495.36
552.51	41432.16
552.68	41488.34
552.84	41441.53
553.01	41631.11
553.18	41457.91
553.34	41488.34
553.51	41652.17
553.67	41858.14
553.84	42031.34
554.01	42080.49
554.17	41825.37
554.34	41628.77
554.51	41457.91
554.67	42155.39
554.84	42136.66
555.00	41879.21
555.17	42244.33
555.33	42265.39
555.50	42094.53
555.67	42473.70
555.83	41429.82
556.00	42157.73
556.16	42148.37
556.33	42258.37
556.50	42337.95
556.66	42281.78
556.83	42131.98
556.99	42209.22
557.16	42398.80
557.32	42370.72
557.49	42234.97
557.65	41642.81
557.82	42555.62
557.98	42237.31
558.15	42241.99
558.32	42555.62
558.48	42127.30
558.65	42749.88
558.81	42532.22
558.98	42625.84
559.14	42705.41
559.31	42513.49
559.47	42424.55
559.64	42979.26
559.80	42883.30
559.97	42869.25
560.13	42796.70
560.30	42960.53
560.46	42660.94
560.63	42904.36
560.79	42920.74
560.96	42838.83
561.12	42635.20
561.29	42799.04
561.45	42946.49
561.61	42993.30
561.78	43068.20
561.94	42564.98
562.11	42906.70
562.27	43185.22
562.44	43098.62
562.60	42780.31
562.77	43316.29
562.93	43381.83
563.10	43550.35
563.26	42480.72
563.42	43419.28
563.59	43356.08
563.75	43269.48
563.92	43342.04
564.08	43040.11
564.24	43082.24
564.41	43091.60
564.57	43065.86
564.74	43241.40
564.90	43313.95
565.07	43445.02
565.23	43477.79
565.39	43098.62
565.56	43096.28
565.72	42948.83
565.88	43524.60
566.05	43063.52
566.21	42953.51
566.38	43430.98
566.54	43660.35
566.70	44163.57
566.87	43971.64
567.03	43503.54
567.19	43859.30
567.36	43351.40
567.52	42864.57
567.68	43529.28
567.85	43189.91
568.01	43625.25
568.17	43313.95
568.34	43597.16
568.50	44006.75
568.66	43276.51
568.83	43791.42
568.99	43484.81
569.15	43538.65
569.32	43414.60
569.48	43487.15
569.64	43695.46
569.81	43559.71
569.97	43639.29
570.13	44165.91
570.30	43529.28
570.46	43812.49
570.62	43807.81
570.78	43725.89
570.95	43466.09
571.11	43655.67
571.27	43924.83
571.43	43489.49
571.60	43833.55
571.76	43826.53
571.92	44123.78
572.09	44142.50
572.25	43646.31
572.41	44041.86
572.57	43636.95
572.74	43896.75
572.90	43737.59
573.06	43690.78
573.22	43861.64
573.38	44259.53
573.55	43981.01
573.71	44392.94
573.87	43831.21
574.03	43997.39
574.20	44062.93
574.36	43545.67
574.52	43744.61
574.68	43894.41
574.84	44392.94
575.01	43826.53
575.17	43814.83
575.33	43772.70
575.49	43641.63
575.65	44051.22
575.82	44250.17
575.98	43878.02
576.14	44673.81
576.30	43718.87
576.46	43896.75
576.62	44055.90
576.79	44329.75
576.95	43562.05
577.11	44631.68
577.27	44294.64
577.43	44236.12
577.59	44456.14
577.75	44280.60
577.92	44304.00
578.08	43945.90
578.24	44189.31
578.40	43700.14
578.56	44346.13
578.72	43985.69
578.88	44362.51
579.04	44676.15
579.21	44353.15
579.37	44037.18
579.53	44463.16
579.69	44287.62
579.85	44453.79
580.01	43955.26
580.17	43976.33
580.33	44341.45
580.49	44369.54
580.65	44240.81
580.82	44694.87
580.98	44194.00
581.14	44219.74
581.30	44402.30
581.46	44376.56
581.62	44025.48
581.78	43995.05
581.94	44229.10
582.10	44048.88
582.26	44102.71
582.42	44208.04
582.58	44264.21
582.74	44404.64
582.90	44418.69
583.06	44636.36
583.22	44072.29
583.38	44800.19
583.54	44444.43
583.70	44713.59
583.86	44383.58
584.02	44456.14
584.18	44664.44
584.34	44465.50
584.50	44381.24
584.66	44722.96
584.82	44201.02
584.98	44390.60
585.14	44538.05
585.30	44224.42
585.46	44252.51
585.62	44622.31
585.78	44301.66
585.94	44252.51
586.10	44687.85
586.26	44626.99
586.42	44692.53
586.58	44491.24
586.74	44275.91
586.90	44456.14
587.06	44371.88
587.22	44722.96
587.38	44467.84
587.54	44760.40
587.70	45057.65
587.86	44722.96
588.02	45174.68
588.18	45036.59
588.34	44580.18
588.49	44701.89
588.65	44388.26
588.81	44601.25
588.97	44486.56
589.13	44531.03
589.29	45148.93
589.45	44676.15
589.61	44996.80
589.77	45364.26
589.93	44877.43
590.08	44935.95
590.24	45090.42
590.40	45301.07
590.56	45256.60
590.72	44769.77
590.88	45078.72
591.04	44680.83
