SpectraSuite Data File
++++++++++++++++++++++++++++++++++++
Date: Fri Oct 04 11:39:44 GMT-05:00 2013
User: price-jones
Dark Spectrum Present: No
Reference Spectrum Present: No
Number of Sampled Component Spectra: 1
Spectrometers: USB2+H05261
Integration Time (usec): 100000 (USB2+H05261)
Spectra Averaged: 1 (USB2+H05261)
Boxcar Smoothing: 0 (USB2+H05261)
Correct for Electrical Dark: No (USB2+H05261)
Strobe/Lamp Enabled: No (USB2+H05261)
Correct for Detector Non-linearity: No (USB2+H05261)
Correct for Stray Light: No (USB2+H05261)
Number of Pixels in Processed Spectrum: 2048
>>>>>Begin Processed Spectral Data<<<<<
365.73	93.62
365.92	93.62
366.12	93.62
366.32	0.00
366.52	0.00
366.72	21.06
366.91	25.75
367.11	16.38
367.31	0.00
367.51	0.00
367.70	0.00
367.90	0.00
368.10	0.00
368.30	0.00
368.49	0.00
368.69	0.00
368.89	39.79
369.09	0.00
369.28	0.00
369.48	0.00
369.68	23.41
369.87	0.00
370.07	0.00
370.27	67.88
370.47	124.05
370.66	355.76
370.86	472.79
371.06	456.40
371.25	489.17
371.45	479.81
371.65	484.49
371.84	489.17
372.04	489.17
372.24	498.53
372.44	465.77
372.63	561.73
372.83	599.18
373.03	557.05
373.22	496.19
373.42	491.51
373.62	610.88
373.81	615.56
374.01	669.39
374.21	601.52
374.40	585.13
374.60	681.10
374.79	645.99
374.99	627.26
375.19	636.63
375.38	629.60
375.58	664.71
375.78	645.99
375.97	690.46
376.17	730.25
376.37	653.01
376.56	732.59
376.76	678.76
376.95	774.72
377.15	699.82
377.35	760.67
377.54	695.14
377.74	746.63
377.93	699.82
378.13	737.27
378.33	739.61
378.52	741.95
378.72	767.70
378.91	798.12
379.11	704.50
379.31	781.74
379.50	718.54
379.70	791.10
379.89	816.85
380.09	802.80
380.28	711.52
380.48	760.67
380.68	807.48
380.87	765.36
381.07	746.63
381.26	922.17
381.46	863.66
381.65	830.89
381.85	917.49
382.04	903.45
382.24	954.94
382.43	889.40
382.63	821.53
382.83	910.47
383.02	903.45
383.22	915.15
383.41	884.72
383.61	954.94
383.80	915.15
384.00	866.00
384.19	973.66
384.39	976.00
384.58	1039.20
384.78	1067.28
384.97	966.64
385.17	1008.77
385.36	1088.35
385.56	978.34
385.75	903.45
385.95	959.62
386.14	997.07
386.34	1015.79
386.53	999.41
386.72	1022.81
386.92	1111.75
387.11	1069.62
387.31	1109.41
387.50	1050.90
387.70	1114.10
387.89	1067.28
388.09	1067.28
388.28	1095.37
388.48	1027.50
388.67	1090.69
388.86	1067.28
389.06	1144.52
389.25	1252.19
389.45	1116.44
389.64	1200.69
389.84	1299.00
390.03	1165.59
390.22	1289.64
390.42	1149.20
390.61	1144.52
390.81	1198.35
391.00	1242.82
391.19	1303.68
391.39	1249.85
391.58	1226.44
391.78	1233.46
391.97	1313.04
392.16	1233.46
392.36	1331.76
392.55	1359.85
392.75	1413.68
392.94	1392.62
393.13	1390.28
393.33	1327.08
393.52	1399.64
393.71	1373.89
393.91	1490.92
394.10	1404.32
394.29	1427.73
394.49	1366.87
394.68	1488.58
394.88	1394.96
395.07	1511.99
395.26	1495.60
395.46	1521.35
395.65	1486.24
395.84	1603.27
396.04	1561.14
396.23	1544.75
396.42	1488.58
396.62	1607.95
396.81	1507.30
397.00	1591.56
397.19	1591.56
397.39	1734.34
397.58	1797.53
397.77	1596.25
397.97	1727.32
398.16	1774.13
398.35	1717.95
398.55	1666.46
398.74	1820.94
398.93	1942.64
399.12	1792.85
399.32	1750.72
399.51	1736.68
399.70	1849.02
399.90	1921.58
400.09	1888.81
400.28	1891.15
400.47	1811.57
400.67	1877.11
400.86	1863.07
401.05	1909.88
401.24	1926.26
401.44	1980.09
401.63	2026.90
401.82	2111.16
402.01	2003.50
402.21	1996.48
402.40	2066.69
402.59	2057.33
402.78	2125.21
402.97	2101.80
403.17	2150.95
403.36	2036.27
403.55	2062.01
403.74	2176.70
403.93	2282.02
404.13	2289.04
404.32	2394.37
404.51	2235.21
404.70	2408.41
404.89	2211.81
405.09	2298.41
405.28	2251.60
405.47	2401.39
405.66	2373.30
405.85	2436.50
406.05	2408.41
406.24	2452.88
406.43	2401.39
406.62	2457.56
406.81	2562.89
407.00	2462.24
407.20	2504.37
407.39	2607.36
407.58	2581.61
407.77	2600.34
407.96	2663.53
408.15	2523.10
408.34	2612.04
408.54	2640.12
408.73	2754.81
408.92	2703.32
409.11	2712.68
409.30	2628.42
409.49	2747.79
409.68	2782.90
409.87	2803.96
410.07	2876.52
410.26	2963.12
410.45	3009.93
410.64	2848.43
410.83	2949.08
411.02	2937.37
411.21	2993.55
411.40	3045.04
411.59	3028.65
411.78	3038.02
411.98	3126.96
412.17	3229.94
412.36	3185.47
412.55	3279.09
412.74	3274.41
412.93	3363.35
413.12	3300.16
413.31	3524.85
413.50	3375.05
413.69	3506.12
413.88	3463.99
414.07	3564.64
414.26	3719.11
414.45	3590.38
414.64	3637.19
414.83	3873.59
415.02	3679.32
415.22	3939.12
415.41	3908.69
415.60	3906.35
415.79	4018.70
415.98	3946.14
416.17	4028.06
416.36	3960.19
416.55	3957.85
416.74	4044.45
416.93	4049.13
417.12	4196.58
417.31	4161.47
417.50	4128.70
417.69	4393.19
417.88	4287.86
418.07	4334.67
418.26	4294.88
418.45	4458.72
418.64	4542.98
418.83	4449.36
419.02	4432.97
419.21	4456.38
419.39	4568.73
419.58	4470.42
419.77	4615.54
419.96	4690.43
420.15	4760.65
420.34	4664.69
420.53	4741.93
420.72	4762.99
420.91	4648.30
421.10	4865.97
421.29	4943.21
421.48	4723.20
421.67	4959.60
421.86	4840.23
422.05	4912.78
422.24	4798.10
422.43	4835.55
422.61	4943.21
422.80	5102.37
422.99	5048.54
423.18	4894.06
423.37	5132.79
423.56	4950.23
423.75	4957.25
423.94	5172.58
424.13	4592.13
424.32	4870.65
424.50	5046.20
424.69	5172.58
424.88	5212.37
425.07	5053.22
425.26	4880.02
425.45	5088.32
425.64	5107.05
425.83	5198.33
426.01	5181.95
426.20	5032.15
426.39	5177.26
426.58	5228.76
426.77	5219.39
426.96	5301.31
427.15	5448.77
427.33	5301.31
427.52	5193.65
427.71	5425.36
427.90	5359.83
428.09	5313.02
428.28	5462.81
428.46	5561.11
428.65	5563.45
428.84	5598.56
429.03	5624.31
429.22	5385.57
429.40	5586.86
429.59	5617.29
429.78	5416.00
429.97	5378.55
430.16	5507.28
430.34	5689.84
430.53	5806.87
430.72	5682.82
430.91	5636.01
431.10	5827.93
431.28	5947.30
431.47	5898.15
431.66	6019.86
431.85	5998.79
432.03	6071.35
432.22	6263.27
432.41	6148.59
432.60	6230.51
432.79	6181.35
432.97	6307.74
433.16	6146.25
433.35	6282.00
433.54	6307.74
433.72	6363.92
433.91	6303.06
434.10	6471.58
434.28	6274.98
434.47	6354.55
434.66	6413.07
434.85	6562.86
435.03	6445.84
435.22	6593.29
435.41	7089.48
435.59	6885.86
435.78	6813.30
435.97	6764.15
436.16	6787.55
436.34	6590.95
436.53	7023.95
436.72	6904.58
436.90	6677.55
437.09	6745.42
437.28	6736.06
437.46	6700.95
437.65	6895.22
437.84	6993.52
438.02	6855.43
438.21	6918.62
438.40	7082.46
438.58	7138.63
438.77	7283.75
438.96	7115.23
439.14	7573.97
439.33	7363.33
439.52	7623.12
439.70	7360.98
439.89	7639.51
440.08	7747.17
440.26	7613.76
440.45	7599.72
440.63	7943.78
440.82	7798.66
441.01	7693.34
441.19	7812.71
441.38	8107.62
441.57	7964.84
441.75	8065.49
441.94	7934.42
442.12	8229.32
442.31	8294.86
442.50	8435.29
442.68	8224.64
442.87	8498.49
443.05	8514.87
443.24	8533.59
443.43	8475.08
443.61	8393.16
443.80	8769.99
443.98	8383.80
444.17	8283.16
444.35	8617.85
444.54	8725.52
444.73	8587.43
444.91	8571.04
445.10	8704.45
445.28	8674.03
445.47	8739.56
445.65	8744.24
445.84	8692.75
446.02	8777.01
446.21	8659.98
446.39	8746.58
446.58	8748.92
446.77	8837.86
446.95	8725.52
447.14	8990.00
447.32	8964.25
447.51	8847.22
447.69	8720.84
447.88	9027.45
448.06	8851.91
448.25	8784.03
448.43	8936.17
448.62	8760.63
448.80	8952.55
448.99	8826.16
449.17	9018.08
449.36	8919.78
449.54	9132.77
449.73	9202.99
449.91	9516.62
450.10	9359.80
450.28	9423.00
450.46	9298.95
450.65	9497.89
450.83	9432.36
451.02	9495.55
451.20	9476.83
451.39	9813.87
451.57	9558.75
451.76	9570.45
451.94	9509.60
452.13	9818.55
452.31	9666.41
452.49	9788.12
452.68	9699.18
452.86	9544.70
453.05	9891.10
453.23	9886.42
453.42	9963.66
453.60	9635.99
453.78	9860.68
453.97	9860.68
454.15	10012.81
454.34	9830.25
454.52	9837.27
454.70	10228.14
454.89	10178.99
455.07	10090.05
455.26	9865.36
455.44	10108.77
455.62	10256.23
455.81	10139.20
455.99	10413.04
456.17	10604.97
456.36	10452.83
456.54	10527.73
456.73	10698.59
456.91	10721.99
457.09	10890.51
457.28	11077.76
457.46	10796.89
457.64	10956.05
457.83	11112.86
458.01	10572.20
458.19	11140.95
458.38	10930.30
458.56	11344.58
458.74	11215.85
458.93	11061.37
459.11	11059.03
459.29	11302.45
459.48	11257.98
459.66	11375.00
459.84	11424.15
460.03	11520.12
460.21	11424.15
460.39	11470.97
460.57	11492.03
460.76	11421.81
460.94	11873.54
461.12	11410.11
461.31	11543.52
461.49	11658.21
461.67	11733.11
461.85	11742.47
462.04	11932.05
462.22	12355.69
462.40	11946.09
462.59	11964.82
462.77	12212.92
462.95	12233.98
463.13	12154.40
463.32	12297.17
463.50	12252.70
463.68	12264.41
463.86	12383.77
464.05	12351.01
464.23	12170.79
464.41	12613.15
464.59	12201.21
464.78	12837.84
464.96	12468.03
465.14	12395.48
465.32	12732.51
465.50	12748.90
465.69	12774.64
465.87	12666.98
466.05	12697.41
466.23	12784.01
466.41	12877.63
466.60	13254.45
466.78	12655.28
466.96	12809.75
467.14	12908.05
467.32	12922.10
467.51	13125.72
467.69	12748.90
467.87	13011.04
468.05	13158.49
468.23	13004.02
468.41	13181.90
468.60	13235.73
468.78	13373.82
468.96	13252.11
469.14	13305.95
469.32	13352.76
469.50	13104.66
469.69	13575.11
469.87	13771.71
470.05	14012.79
470.23	13783.41
470.41	13701.50
470.59	13954.27
470.77	13710.86
470.95	14120.45
471.14	13879.38
471.32	13928.53
471.50	14267.91
471.68	14097.05
471.86	14122.79
472.04	14445.79
472.22	14429.40
472.40	14384.93
472.58	14431.74
472.77	14597.92
472.95	14750.06
473.13	15257.95
473.31	14841.34
473.49	15002.83
473.67	15131.56
473.85	15028.58
474.03	15417.11
474.21	15503.71
474.39	15403.07
474.57	15470.94
474.75	15721.38
474.93	15859.47
475.12	15602.01
475.30	15999.90
475.48	15936.71
475.66	16229.27
475.84	16084.16
476.02	16549.93
476.20	16205.87
476.38	16709.08
476.56	16397.79
476.74	16980.59
476.92	16589.72
477.10	16683.34
477.28	17001.65
477.46	16734.83
477.64	17128.04
477.82	17385.50
478.00	17923.82
478.18	17752.96
478.36	17706.15
478.54	18052.55
478.72	18099.36
478.90	18200.01
479.08	18335.76
479.26	18539.38
479.44	18583.85
479.62	18918.55
479.80	19012.17
479.98	18902.17
480.16	19412.40
480.34	19283.67
480.52	19784.55
480.70	19491.98
480.88	19456.87
481.06	19758.80
481.24	19484.96
481.41	20554.58
481.59	20166.06
481.77	20577.99
481.95	20720.76
482.13	20826.09
482.31	20540.54
482.49	21020.35
482.67	21315.26
482.85	21659.32
483.03	21975.29
483.21	22136.79
483.39	22178.92
483.57	22335.73
483.74	22583.83
483.92	22478.50
484.10	22457.44
484.28	22693.83
484.46	23225.14
484.64	23618.35
484.82	23253.22
485.00	23564.51
485.18	23875.80
485.35	24332.21
485.53	24151.99
485.71	24205.82
485.89	24851.81
486.07	24638.82
486.25	24479.66
486.43	24783.93
486.61	25415.88
486.78	25467.37
486.96	25783.34
487.14	26146.12
487.32	26073.57
487.50	26096.97
487.68	26244.43
487.85	26829.56
488.03	27180.64
488.21	27002.76
488.39	26824.88
488.57	27358.52
488.75	27775.14
488.92	28051.32
489.10	28566.24
489.28	28573.26
489.46	28968.81
489.64	28386.02
489.81	29057.75
489.99	28994.56
490.17	29493.09
490.35	29633.52
490.53	29689.70
490.70	30099.29
490.88	30031.41
491.06	30752.30
491.24	30185.89
491.41	30581.44
491.59	30874.01
491.77	30864.64
491.95	31662.77
492.13	31447.44
492.30	31915.54
492.48	31400.63
492.66	32224.50
492.84	32163.64
493.01	32708.99
493.19	32582.60
493.37	32818.99
493.54	32697.28
493.72	32999.21
493.90	33420.51
494.08	33888.62
494.25	34066.50
494.43	34370.77
494.61	34623.54
494.79	34590.78
494.96	34415.24
495.14	34569.71
495.32	35147.82
495.49	34768.66
495.67	35292.94
495.85	35761.05
496.02	35608.91
496.20	35915.52
496.38	35922.54
496.55	35871.05
496.73	36968.76
496.91	36318.09
497.09	36608.32
497.26	36746.41
497.44	37008.55
497.62	37261.33
497.79	37481.34
497.97	37591.34
498.14	38110.94
498.32	38139.03
498.50	37975.19
498.67	38506.49
498.85	38230.31
499.03	38742.89
499.20	38637.56
499.38	39115.03
499.56	39194.61
499.73	39580.80
499.91	39419.30
500.08	39641.65
500.26	39639.31
500.44	39845.28
500.61	39889.75
500.79	40121.46
500.97	40374.24
501.14	40898.52
501.32	40671.49
501.49	40694.89
501.67	40999.16
501.84	40856.39
502.02	41055.34
502.20	41422.80
502.37	41745.80
502.55	41638.13
502.72	41694.30
502.90	41656.85
503.07	41612.38
503.25	42258.37
503.43	42066.45
503.60	42220.92
503.78	42412.85
503.95	42078.15
504.13	42204.54
504.30	42548.60
504.48	42497.11
504.65	43014.37
504.83	43246.08
505.01	43428.64
505.18	42923.08
505.36	43812.49
505.53	43487.15
505.71	43529.28
505.88	43826.53
506.06	44189.31
506.23	44254.85
506.41	44266.55
506.58	44793.17
506.76	44301.66
506.93	44624.65
507.11	44533.37
507.28	44697.21
507.46	44683.17
507.63	45059.99
507.81	45537.46
507.98	45120.85
508.16	45139.57
508.33	45226.17
508.50	45429.80
508.68	45373.63
508.85	46305.16
509.03	46110.89
509.20	46274.73
509.38	46665.60
509.55	46506.44
509.73	46574.32
509.90	46527.51
510.08	46632.83
510.25	46864.55
510.42	47002.64
510.60	47590.11
510.77	47489.47
510.95	47442.66
511.12	46937.10
511.30	47384.15
511.47	47711.82
511.64	48023.11
511.82	48154.18
511.99	47887.36
512.17	48371.85
512.34	48212.70
512.51	48250.14
512.69	48474.84
512.86	48292.27
513.04	48584.84
513.21	49116.14
513.38	48982.73
513.56	48898.47
513.73	48842.30
513.90	49022.52
514.08	48996.77
514.25	49462.54
514.43	49324.45
514.60	49591.27
514.77	49436.80
514.95	49794.90
515.12	49932.99
515.29	49488.29
515.47	49830.01
515.64	50042.99
515.81	49970.44
515.99	50141.30
516.16	50827.07
516.33	50150.66
516.51	50768.56
516.68	50553.23
516.85	50335.56
517.03	50653.87
517.20	50735.79
517.37	51213.26
517.54	50808.35
517.72	51093.89
517.89	51147.73
518.06	51323.27
518.24	50979.21
518.41	51241.35
518.58	51077.51
518.75	51234.33
518.93	51695.41
519.10	51543.28
519.27	51798.40
519.45	51557.32
519.62	51901.38
519.79	51880.31
519.96	51835.84
520.14	52224.37
520.31	52186.92
520.48	52289.91
520.65	52144.80
520.83	52598.86
521.00	52594.18
521.17	52313.31
521.34	52217.35
521.52	52390.55
521.69	52528.64
521.86	52753.33
522.03	53050.58
522.20	52987.39
522.38	53059.94
522.55	52999.09
522.72	52942.92
522.89	53151.23
523.07	53375.92
523.24	53041.22
523.41	53359.53
523.58	53167.61
523.75	53738.70
523.92	53542.10
524.10	53560.82
524.27	53645.08
524.44	53815.94
524.61	54075.74
524.78	53813.60
524.96	53928.28
525.13	54143.61
525.30	54260.64
525.47	54293.41
525.64	54047.65
525.81	53991.48
525.98	54206.81
526.16	54181.06
526.33	54574.27
526.50	54719.38
526.67	54405.75
526.84	54672.57
527.01	54440.86
527.18	54712.36
527.36	54805.98
527.53	55089.19
527.70	55089.19
527.87	55061.10
528.04	54918.33
528.21	54923.01
528.38	55164.09
528.55	55159.41
528.72	55103.23
528.89	55271.75
529.07	55229.62
529.24	55173.45
529.41	55704.75
529.58	55276.43
529.75	55196.85
529.92	55561.98
530.09	54986.21
530.26	55681.34
530.43	55583.04
530.60	55625.17
530.77	55709.43
530.94	55845.18
531.11	55833.48
531.28	55442.61
531.46	55737.52
531.63	55964.55
531.80	56016.04
531.97	56142.43
532.14	56116.68
532.31	56100.30
532.48	56186.90
532.65	56137.75
532.82	55985.61
532.99	56172.86
533.16	56088.60
533.33	56437.34
533.50	56788.42
533.67	56416.27
533.84	56404.57
534.01	56397.55
534.18	56395.21
534.35	56584.79
534.52	56367.12
534.69	56725.22
534.86	56945.23
535.03	56776.72
535.20	56884.38
535.37	56987.36
535.54	56825.87
535.71	56750.97
535.88	57024.81
536.05	57006.09
536.22	56853.95
536.38	57104.39
536.55	57144.18
536.72	56954.60
536.89	57130.14
537.06	57209.71
537.23	57031.83
537.40	57036.51
537.57	57198.01
537.74	57270.57
537.91	57499.94
538.08	57783.15
538.25	57221.42
538.42	57558.45
538.59	57616.97
538.75	57256.53
538.92	57588.88
539.09	57551.43
539.26	57525.69
539.43	57755.06
539.60	57839.32
539.77	57748.04
539.94	58127.20
540.11	57862.72
540.28	57925.92
540.44	58096.78
540.61	57818.25
540.78	58047.63
540.95	58071.03
541.12	58117.84
541.29	58258.27
541.46	58227.85
541.62	58078.05
541.79	58365.94
541.96	57925.92
542.13	57968.05
542.30	58195.08
542.47	58398.71
542.63	58307.43
542.80	58651.48
542.97	58712.34
543.14	58759.15
543.31	58497.01
543.48	58665.53
543.64	58815.32
543.81	58932.35
543.98	59065.76
544.15	58911.28
544.32	58955.75
544.48	59152.36
544.65	59035.33
544.82	58829.37
544.99	58812.98
545.16	58801.28
545.32	58927.67
545.49	59157.04
545.66	59423.86
545.83	59641.53
546.00	59604.08
546.16	59386.41
546.33	59044.69
546.50	58899.58
546.67	59164.06
546.83	59004.91
547.00	58972.14
547.17	59133.63
547.34	59456.63
547.50	59423.86
547.67	59590.04
547.84	59629.83
548.00	59360.67
548.17	59545.57
548.34	59304.49
548.51	59643.87
548.67	59814.73
548.84	59503.44
549.01	59604.08
549.18	59437.90
549.34	59552.59
549.51	59531.53
549.68	59650.89
549.84	59442.59
550.01	59742.17
550.18	59557.27
550.34	59695.36
550.51	59971.55
550.68	59992.61
550.84	59707.07
551.01	59952.82
551.18	59557.27
551.34	59746.86
551.51	60009.00
551.68	60018.36
551.84	59772.60
552.01	59971.55
552.18	60280.50
552.34	60006.65
552.51	60224.32
552.68	59894.31
552.84	60102.62
553.01	60097.94
553.18	59936.44
553.34	60383.48
553.51	60100.28
553.67	60172.83
553.84	60397.52
554.01	60238.37
554.17	60310.92
554.34	60348.37
554.51	60186.88
554.67	60481.78
554.84	60214.96
555.00	60547.32
555.17	60500.51
555.33	60629.24
555.50	60395.18
555.67	60214.96
555.83	60240.71
556.00	60402.21
556.16	60631.58
556.33	60533.28
556.50	60507.53
556.66	60652.64
556.83	60507.53
556.99	60697.11
557.16	60842.23
557.32	60594.13
557.49	60741.58
557.65	60659.66
557.82	60734.56
557.98	60587.11
558.15	60725.20
558.32	60956.91
558.48	60795.42
558.65	60839.89
558.81	60795.42
558.98	60846.91
559.14	60835.20
559.31	60692.43
559.47	60917.12
559.64	60872.65
559.80	60893.72
559.97	61176.92
560.13	60849.25
560.30	61034.15
560.46	61008.40
560.63	60853.93
560.79	61106.71
560.96	61160.54
561.12	61052.87
561.29	60956.91
561.45	61226.07
561.61	61254.16
561.78	61169.90
561.94	61296.29
562.11	61439.06
562.27	61080.96
562.44	61233.10
562.60	61029.47
562.77	60963.93
562.93	61148.84
563.10	61371.19
563.26	61027.13
563.42	61352.46
563.59	61322.04
563.75	61268.20
563.92	61492.89
564.08	61181.60
564.24	61193.31
564.41	61200.33
564.57	61469.49
564.74	61399.27
564.90	61254.16
565.07	61392.25
565.23	61310.33
565.39	61406.30
565.56	61432.04
565.72	61305.65
565.88	61303.31
566.05	61329.06
566.21	61322.04
566.38	61495.24
566.54	61354.80
566.70	61645.03
566.87	61705.88
567.03	61544.39
567.19	61591.20
567.36	61418.00
567.52	61418.00
567.68	61600.56
567.85	61525.66
568.01	61471.83
568.17	61654.39
568.34	61689.50
568.50	61708.22
568.66	61689.50
568.83	61588.86
568.99	61535.02
569.15	61584.18
569.32	61556.09
569.48	61595.88
569.64	61654.39
569.81	61560.77
569.97	61530.34
570.13	61780.78
570.30	61513.96
570.46	61808.87
570.62	61670.78
570.78	61544.39
570.95	61532.68
571.11	61745.67
571.27	61462.47
571.43	61450.77
571.60	61740.99
571.76	61619.28
571.92	61722.27
572.09	61869.72
572.25	61806.53
572.41	61609.92
572.57	61841.63
572.74	61888.45
572.90	61684.82
573.06	61752.69
573.22	61647.37
573.38	61755.03
573.55	61984.41
573.71	61949.30
573.87	61956.32
574.03	61886.10
574.20	61846.32
574.36	61855.68
574.52	61902.49
574.68	61951.64
574.84	62010.15
575.01	62040.58
575.17	61932.92
575.33	61932.92
575.49	61649.71
575.65	62073.35
575.82	61979.73
575.98	61719.93
576.14	61860.36
576.30	62045.26
576.46	61951.64
576.62	61895.47
576.79	61907.17
576.95	61834.61
577.11	61890.79
577.27	62049.94
577.43	62003.13
577.59	61928.23
577.75	62127.18
577.92	61682.48
578.08	61921.21
578.24	61986.75
578.40	61989.09
578.56	62106.12
578.72	62122.50
578.88	62286.34
579.04	62302.72
579.21	62164.63
579.37	61937.60
579.53	62213.78
579.69	61855.68
579.85	61963.34
580.01	62078.03
580.17	61986.75
580.33	62035.90
580.49	62012.49
580.65	62066.33
580.82	62134.20
580.98	62068.67
581.14	62061.64
581.30	62190.37
581.46	61895.47
581.62	61970.36
581.78	62042.92
581.94	62269.95
582.10	62042.92
582.26	62255.91
582.42	62269.95
582.58	62192.72
582.74	62269.95
582.90	62394.00
583.06	62323.78
583.22	62127.18
583.38	62129.52
583.54	62040.58
583.70	61998.45
583.86	61956.32
584.02	62017.17
584.18	62403.36
584.34	62185.69
584.50	62234.84
584.66	62199.74
584.82	62031.22
584.98	62181.01
585.14	62216.12
585.30	62080.37
585.46	62113.14
585.62	62178.67
585.78	62269.95
585.94	61972.70
586.10	62227.82
586.26	62192.72
586.42	62464.22
586.58	62365.91
586.74	62143.56
586.90	62075.69
587.06	62096.75
587.22	62314.42
587.38	62113.14
587.54	62408.04
587.70	62438.47
587.86	62223.14
588.02	62410.38
588.18	62468.90
588.34	62372.94
588.49	62564.86
588.65	62155.27
588.81	62253.57
588.97	62307.40
