SpectraSuite Data File
++++++++++++++++++++++++++++++++++++
Date: Fri Oct 04 11:39:36 GMT-05:00 2013
User: price-jones
Dark Spectrum Present: No
Reference Spectrum Present: No
Number of Sampled Component Spectra: 1
Spectrometers: USB2+H05261
Integration Time (usec): 100000 (USB2+H05261)
Spectra Averaged: 1 (USB2+H05261)
Boxcar Smoothing: 0 (USB2+H05261)
Correct for Electrical Dark: No (USB2+H05261)
Strobe/Lamp Enabled: No (USB2+H05261)
Correct for Detector Non-linearity: No (USB2+H05261)
Correct for Stray Light: No (USB2+H05261)
Number of Pixels in Processed Spectrum: 2048
>>>>>Begin Processed Spectral Data<<<<<
365.73	46.81
365.92	46.81
366.12	46.81
366.32	0.00
366.52	0.00
366.72	39.79
366.91	0.00
367.11	0.00
367.31	0.00
367.51	0.00
367.70	0.00
367.90	11.70
368.10	0.00
368.30	0.00
368.49	0.00
368.69	0.00
368.89	0.00
369.09	0.00
369.28	0.00
369.48	0.00
369.68	0.00
369.87	21.06
370.07	21.06
370.27	124.05
370.47	79.58
370.66	212.99
370.86	327.68
371.06	322.99
371.25	360.44
371.45	266.82
371.65	287.89
371.84	292.57
372.04	348.74
372.24	266.82
372.44	390.87
372.63	390.87
372.83	358.10
373.03	374.49
373.22	355.76
373.42	376.83
373.62	435.34
373.81	397.89
374.01	505.56
374.21	374.49
374.40	430.66
374.60	402.57
374.79	404.91
374.99	402.57
375.19	454.06
375.38	503.22
375.58	376.83
375.78	442.36
375.97	524.28
376.17	526.62
376.37	543.00
376.56	425.98
376.76	409.59
376.95	409.59
377.15	517.26
377.35	447.04
377.54	491.51
377.74	428.32
377.93	493.85
378.13	540.66
378.33	571.09
378.52	456.40
378.72	512.58
378.91	531.30
379.11	484.49
379.31	496.19
379.50	538.32
379.70	620.24
379.89	547.69
380.09	470.45
380.28	475.13
380.48	535.98
380.68	468.11
380.87	514.92
381.07	578.11
381.26	603.86
381.46	566.41
381.65	615.56
381.85	580.45
382.04	557.05
382.24	531.30
382.43	573.43
382.63	559.39
382.83	559.39
383.02	671.73
383.22	585.13
383.41	571.09
383.61	599.18
383.80	596.84
384.00	566.41
384.19	552.37
384.39	655.35
384.58	587.47
384.78	561.73
384.97	704.50
385.17	709.18
385.36	629.60
385.56	662.37
385.75	660.03
385.95	706.84
386.14	629.60
386.34	657.69
386.53	671.73
386.72	643.65
386.92	720.88
387.11	720.88
387.31	587.47
387.50	699.82
387.70	755.99
387.89	615.56
388.09	678.76
388.28	732.59
388.48	671.73
388.67	702.16
388.86	697.48
389.06	725.57
389.25	662.37
389.45	704.50
389.64	751.31
389.84	791.10
390.03	791.10
390.22	767.70
390.42	861.32
390.61	709.18
390.81	723.23
391.00	812.17
391.19	842.59
391.39	786.42
391.58	765.36
391.78	816.85
391.97	837.91
392.16	758.33
392.36	870.68
392.55	844.93
392.75	919.83
392.94	891.74
393.13	863.66
393.33	727.91
393.52	898.77
393.71	950.26
393.91	821.53
394.10	802.80
394.29	976.00
394.49	837.91
394.68	887.06
394.88	936.21
395.07	992.39
395.26	983.02
395.46	983.02
395.65	905.79
395.84	1036.86
396.04	1118.78
396.23	997.07
396.42	994.73
396.62	973.66
396.81	973.66
397.00	1029.84
397.19	1118.78
397.39	1013.45
397.58	1111.75
397.77	1100.05
397.97	1132.82
398.16	1029.84
398.35	1137.50
398.55	1041.54
398.74	1071.97
398.93	1163.25
399.12	1057.92
399.32	1135.16
399.51	1151.54
399.70	1107.07
399.90	1156.22
400.09	1184.31
400.28	1296.66
400.47	1240.48
400.67	1214.74
400.86	1240.48
401.05	1233.46
401.24	1217.08
401.44	1268.57
401.63	1296.66
401.82	1322.40
402.01	1369.21
402.21	1263.89
402.40	1373.89
402.59	1287.29
402.78	1430.07
402.97	1373.89
403.17	1294.32
403.36	1359.85
403.55	1430.07
403.74	1481.56
403.93	1542.41
404.13	1488.58
404.32	1500.28
404.51	1535.39
404.70	1537.73
404.89	1460.49
405.09	1575.18
405.28	1458.15
405.47	1460.49
405.66	1584.54
405.85	1605.61
406.05	1535.39
406.24	1563.48
406.43	1600.93
406.62	1561.14
406.81	1732.00
407.00	1629.01
407.20	1680.50
407.39	1664.12
407.58	1589.22
407.77	1739.02
407.96	1928.60
408.15	1870.09
408.34	1792.85
408.54	1699.23
408.73	1736.68
408.92	1802.21
409.11	1895.83
409.30	1870.09
409.49	1900.52
409.68	1975.41
409.87	1874.77
410.07	1907.54
410.26	1954.35
410.45	1928.60
410.64	2062.01
410.83	2019.88
411.02	2087.76
411.21	2148.61
411.40	2143.93
411.59	2174.36
411.78	2118.18
411.98	2139.25
412.17	2291.38
412.36	2216.49
412.55	2246.91
412.74	2293.72
412.93	2279.68
413.12	2225.85
413.31	2448.20
413.50	2333.51
413.69	2450.54
413.88	2513.74
414.07	2551.18
414.26	2499.69
414.45	2532.46
414.64	2448.20
414.83	2600.34
415.02	2607.36
415.22	2502.03
415.41	2600.34
415.60	2642.46
415.79	2640.12
415.98	2857.79
416.17	2785.24
416.36	2808.64
416.55	2752.47
416.74	2855.45
416.93	2775.88
417.12	2937.37
417.31	2890.56
417.50	2984.18
417.69	3066.10
417.88	3138.66
418.07	2970.14
418.26	2958.44
418.45	2963.12
418.64	3021.63
418.83	3054.40
419.02	3150.36
419.21	3157.38
419.39	3253.34
419.58	3225.26
419.77	3000.57
419.96	3136.32
420.15	3213.56
420.34	3283.77
420.53	3260.37
420.72	3393.78
420.91	3316.54
421.10	3318.88
421.29	3461.65
421.48	3227.60
421.67	3531.87
421.86	3410.16
422.05	3487.40
422.24	3398.46
422.43	3405.48
422.61	3466.33
422.80	3527.19
422.99	3494.42
423.18	3538.89
423.37	3548.25
423.56	3620.81
423.75	3569.32
423.94	3571.66
424.13	3398.46
424.32	3337.60
424.50	3620.81
424.69	3492.08
424.88	3552.93
425.07	3407.82
425.26	3531.87
425.45	3478.04
425.64	3733.15
425.83	3644.21
426.01	3686.34
426.20	3707.41
426.39	3817.41
426.58	3728.47
426.77	3522.51
426.96	3756.56
427.15	3744.86
427.33	3798.69
427.52	3705.07
427.71	3857.20
427.90	3726.13
428.09	3805.71
428.28	3936.78
428.46	3892.31
428.65	3826.78
428.84	3843.16
429.03	3840.82
429.22	3796.35
429.40	3985.93
429.59	4058.49
429.78	3756.56
429.97	3669.96
430.16	3901.67
430.34	3962.53
430.53	4079.55
430.72	3997.64
430.91	4046.79
431.10	4049.13
431.28	4014.02
431.47	4203.60
431.66	4285.52
431.85	4189.56
432.03	4367.44
432.22	4355.74
432.41	4320.63
432.60	4212.96
432.79	4259.78
432.97	4325.31
433.16	4311.27
433.35	4386.16
433.54	4437.66
433.72	4365.10
433.91	4418.93
434.10	4423.61
434.28	4432.97
434.47	4550.00
434.66	4610.86
434.85	4503.19
435.03	4662.35
435.22	4681.07
435.41	5036.83
435.59	4840.23
435.78	4805.12
435.97	4627.24
436.16	4734.90
436.34	4587.45
436.53	4716.18
436.72	4788.74
436.90	4786.40
437.09	4650.64
437.28	4788.74
437.46	4758.31
437.65	4847.25
437.84	4828.53
438.02	4833.21
438.21	4901.08
438.40	4954.91
438.58	5097.69
438.77	5018.11
438.96	4924.49
439.14	5034.49
439.33	5195.99
439.52	5139.82
439.70	5315.36
439.89	5305.99
440.08	5348.12
440.26	5294.29
440.45	5214.71
440.63	5444.09
440.82	5535.37
441.01	5511.96
441.19	5348.12
441.38	5664.10
441.57	5554.09
441.75	5563.45
441.94	5523.66
442.12	5638.35
442.31	5790.49
442.50	5795.17
442.68	5696.86
442.87	5785.80
443.05	5874.74
443.24	5898.15
443.43	6087.73
443.61	6104.12
443.80	6122.84
443.98	5834.96
444.17	5650.05
444.35	6040.92
444.54	6054.97
444.73	6108.80
444.91	6106.46
445.10	5956.66
445.28	6015.18
445.47	5802.19
445.65	5860.70
445.84	5963.68
446.02	6181.35
446.21	6078.37
446.39	6045.60
446.58	6031.56
446.77	6022.20
446.95	6019.86
447.14	6171.99
447.32	6066.67
447.51	5914.53
447.69	5984.75
447.88	6115.82
448.06	6029.22
448.25	6195.40
448.43	6120.50
448.62	6066.67
448.80	6080.71
448.99	6399.02
449.17	6214.12
449.36	6221.14
449.54	6399.02
449.73	6342.85
449.91	6326.47
450.10	6415.41
450.28	6396.68
450.46	6431.79
450.65	6445.84
450.83	6448.18
451.02	6476.26
451.20	6640.10
451.39	6677.55
451.57	6480.94
451.76	6511.37
451.94	6604.99
452.13	6754.79
452.31	6626.06
452.49	6504.35
452.68	6612.01
452.86	6642.44
453.05	6822.66
453.23	6923.30
453.42	6642.44
453.60	6715.00
453.78	6848.41
453.97	6780.53
454.15	6607.33
454.34	6839.05
454.52	6892.88
454.70	6843.73
454.89	6857.77
455.07	7122.25
455.26	6827.34
455.44	7204.17
455.62	7087.14
455.81	6974.80
455.99	7143.32
456.17	7159.70
456.36	7155.02
456.54	7353.96
456.73	7192.47
456.91	7325.88
457.09	7314.17
457.28	7393.75
457.46	7527.16
457.64	7721.43
457.83	7456.95
458.01	7314.17
458.19	7475.67
458.38	7368.01
458.56	7707.38
458.74	7707.38
458.93	7545.89
459.11	7592.70
459.29	7550.57
459.48	7644.19
459.66	7665.25
459.84	7606.74
460.03	7882.92
460.21	7793.98
460.39	7875.90
460.57	7791.64
460.76	7679.30
460.94	7964.84
461.12	7721.43
461.31	7852.50
461.49	7826.75
461.67	7880.58
461.85	8112.30
462.04	7960.16
462.22	8231.66
462.40	8187.19
462.59	8149.75
462.77	8196.56
462.95	8320.60
463.13	8163.79
463.32	8341.67
463.50	8266.77
463.68	8191.88
463.86	8341.67
464.05	8285.50
464.23	8311.24
464.41	8652.96
464.59	8308.90
464.78	8437.63
464.96	8549.98
465.14	8255.07
465.32	8575.72
465.50	8510.19
465.69	8622.53
465.87	8549.98
466.05	8507.85
466.23	8538.27
466.41	8442.31
466.60	8662.32
466.78	8561.68
466.96	8627.21
467.14	8564.02
467.32	8746.58
467.51	8659.98
467.69	8669.34
467.87	8627.21
468.05	8936.17
468.23	8774.67
468.41	8748.92
468.60	9163.20
468.78	9186.60
468.96	8781.69
469.14	8929.14
469.32	9074.26
469.50	8922.12
469.69	8999.36
469.87	9247.46
470.05	9186.60
470.23	9439.38
470.41	9324.69
470.59	9301.29
470.77	9008.72
470.95	9334.06
471.14	9493.21
471.32	9191.28
471.50	9621.94
471.68	9455.76
471.86	9500.23
472.04	9537.68
472.22	9703.86
472.40	9542.36
472.58	9963.66
472.77	9839.61
472.95	9596.20
473.13	10225.80
473.31	10017.49
473.49	9870.04
473.67	9830.25
473.85	10064.30
474.03	10279.63
474.21	9987.07
474.39	10406.02
474.57	10242.18
474.75	10274.95
474.93	10380.28
475.12	10228.14
475.30	10560.50
475.48	10576.88
475.66	10689.23
475.84	10698.59
476.02	11009.88
476.20	10714.97
476.38	11073.07
476.56	11129.25
476.74	11147.97
476.92	10963.07
477.10	11154.99
477.28	11211.17
477.46	11241.59
477.64	11391.39
477.82	11379.68
478.00	11662.89
478.18	11557.57
478.36	11798.64
478.54	12030.35
478.72	12039.72
478.90	11793.96
479.08	12170.79
479.26	12084.19
479.44	12355.69
479.62	12444.63
479.80	12610.81
479.98	12498.46
480.16	12819.11
480.34	12655.28
480.52	12669.32
480.70	12973.59
480.88	12830.82
481.06	12823.80
481.24	12945.50
481.41	13385.52
481.59	13575.11
481.77	13544.68
481.95	13507.23
482.13	13839.59
482.31	13642.98
482.49	14104.07
482.67	14043.21
482.85	14108.75
483.03	14295.99
483.21	14654.09
483.39	14504.30
483.57	14527.71
483.74	14560.47
483.92	14916.23
484.10	14726.65
484.28	14796.87
484.46	15021.56
484.64	15428.81
484.82	15351.57
485.00	15414.77
485.18	15681.59
485.35	15850.11
485.53	15831.38
485.71	15995.22
485.89	16343.96
486.07	16135.65
486.25	16343.96
486.43	16163.74
486.61	16528.86
486.78	16561.63
486.96	16975.91
487.14	17139.74
487.32	17104.64
487.50	17099.95
487.68	17341.03
487.85	17619.55
488.03	17605.51
488.21	17649.98
488.39	17874.67
488.57	18174.26
488.75	18071.28
488.92	18317.03
489.10	18696.20
489.28	18843.65
489.46	18724.29
489.64	19021.53
489.81	19105.79
489.99	19307.08
490.17	19014.51
490.35	19545.81
490.53	19662.84
490.70	19695.61
490.88	19391.34
491.06	19513.05
491.24	19901.58
491.41	20098.18
491.59	19861.79
491.77	20421.17
491.95	20650.55
492.13	20666.93
492.30	20903.32
492.48	20739.49
492.66	20556.93
492.84	21156.10
493.01	21245.04
493.19	21401.86
493.37	21436.97
493.54	21303.56
493.72	21633.57
493.90	21818.47
494.08	21348.03
494.25	22309.99
494.43	22085.30
494.61	22459.78
494.79	22658.73
494.96	22167.21
495.14	22431.69
495.32	22710.22
495.49	22719.58
495.67	22967.68
495.85	23080.02
496.02	23342.16
496.20	23112.79
496.38	23398.34
496.55	23569.19
496.73	23805.59
496.91	23674.52
497.09	24144.97
497.26	24114.54
497.44	23990.49
497.62	23896.87
497.79	24350.93
497.97	24261.99
498.14	24805.00
498.32	24587.33
498.50	25032.03
498.67	25273.10
498.85	25184.16
499.03	25207.57
499.20	25331.62
499.38	25371.41
499.56	25563.33
499.73	25495.46
499.91	25781.00
500.08	26059.52
500.26	25158.42
500.44	25809.09
500.61	26111.02
500.79	26218.68
500.97	26249.11
501.14	26398.90
501.32	26441.03
501.49	26757.00
501.67	26735.94
501.84	26747.64
502.02	26878.71
502.20	27096.38
502.37	26871.69
502.55	27140.85
502.72	27157.24
502.90	27410.01
503.07	27091.70
503.25	27370.22
503.43	27288.31
503.60	27697.90
503.78	27410.01
503.95	27197.02
504.13	27435.76
504.30	27538.74
504.48	27585.55
504.65	27859.40
504.83	28257.29
505.01	28531.13
505.18	28566.24
505.36	28591.98
505.53	28788.59
505.71	28430.49
505.88	28547.51
506.06	28613.05
506.23	29060.09
506.41	28891.57
506.58	28931.36
506.76	29015.62
506.93	29532.88
507.11	28877.53
507.28	28943.06
507.46	29116.26
507.63	29685.01
507.81	29556.28
507.98	29525.86
508.16	29687.36
508.33	29912.05
508.50	29846.51
508.68	29820.77
508.85	30033.75
509.03	30101.63
509.20	30295.89
509.38	30583.78
509.55	30546.33
509.73	30775.70
509.90	30548.67
510.08	30455.05
510.25	30625.91
510.42	31374.88
510.60	30976.99
510.77	31061.25
510.95	31360.84
511.12	31136.15
511.30	31030.82
511.47	30981.67
511.64	31765.75
511.82	31559.78
511.99	31344.45
512.17	31835.97
512.34	31791.50
512.51	31634.68
512.69	32437.48
512.86	32233.86
513.04	32055.98
513.21	32423.44
513.38	32299.39
513.56	32322.80
513.73	32233.86
513.90	32261.94
514.08	32554.51
514.25	32601.32
514.43	32744.09
514.60	33102.20
514.77	32938.36
514.95	33158.37
515.12	32973.47
515.29	32779.20
515.47	32975.81
515.64	33612.43
515.81	33392.42
515.99	33607.75
516.16	33649.88
516.33	33933.09
516.51	33809.04
516.68	33900.32
516.85	33453.28
517.03	33724.78
517.20	34277.15
517.37	33989.26
517.54	34349.70
517.72	34146.08
517.89	34536.94
518.06	34066.50
518.24	34464.39
518.41	34197.57
518.58	34682.06
518.75	34139.05
518.93	34792.06
519.10	34590.78
519.27	34946.54
519.45	34714.83
519.62	34836.53
519.79	34789.72
519.96	35145.48
520.14	35414.65
520.31	35145.48
520.48	35442.73
520.65	35007.39
520.83	35622.95
521.00	35339.75
521.17	35959.99
521.34	35419.33
521.52	35901.48
521.69	35625.29
521.86	36336.82
522.03	36439.80
522.20	35889.77
522.38	36360.22
522.55	36346.18
522.72	36135.53
522.89	35976.37
523.07	36596.62
523.24	36137.87
523.41	36657.47
523.58	36575.55
523.75	36825.99
523.92	36280.64
524.10	36680.88
524.27	36535.76
524.44	37109.19
524.61	37081.11
524.78	37289.42
524.96	37006.21
525.13	37181.75
525.30	37198.13
525.47	37481.34
525.64	37340.91
525.81	37422.83
525.98	37684.97
526.16	37493.04
526.33	37528.15
526.50	37991.58
526.67	37663.90
526.84	37677.94
527.01	37589.00
527.18	38174.14
527.36	37979.87
527.53	38106.26
527.70	38190.52
527.87	38183.50
528.04	37984.55
528.21	38150.73
528.38	38529.90
528.55	38302.87
528.72	38263.08
528.89	38267.76
529.07	39040.14
529.24	38756.93
529.41	38672.67
529.58	38672.67
529.75	38780.34
529.92	38630.54
530.09	38768.63
530.26	38925.45
530.43	38925.45
530.60	38724.16
530.77	38712.46
530.94	38841.19
531.11	39196.95
531.28	38721.82
531.46	38827.15
531.63	39381.85
531.80	39503.56
531.97	39672.08
532.14	39452.07
532.31	39409.94
532.48	39435.69
532.65	39636.97
532.82	39597.18
532.99	39615.91
533.16	39531.65
533.33	39892.09
533.50	40182.32
533.67	40034.86
533.84	40074.65
534.01	39849.96
534.18	39775.06
534.35	40238.49
534.52	40250.19
534.69	40463.18
534.86	40502.97
535.03	40065.29
535.20	40566.16
535.37	40486.59
535.54	40545.10
535.71	40156.57
535.88	40601.27
536.05	40563.82
536.22	41006.19
536.38	40842.35
536.55	41153.64
536.72	40950.01
536.89	41106.83
537.06	40882.14
537.23	41493.02
537.40	40697.24
537.57	41446.21
537.74	41258.96
537.91	41202.79
538.08	41394.71
538.25	40987.46
538.42	41703.67
538.59	41429.82
538.75	41076.40
538.92	41383.01
539.09	41464.93
539.26	41715.37
539.43	41823.03
539.60	41860.48
539.77	41535.15
539.94	41553.87
540.11	41766.86
540.28	41687.28
540.44	41790.27
540.61	41841.76
540.78	42045.38
540.95	42567.32
541.12	42160.07
541.29	42546.26
541.46	42679.67
541.62	42160.07
541.79	42534.56
541.96	41876.86
542.13	41904.95
542.30	42466.68
542.47	42763.93
542.63	42916.06
542.80	42628.18
542.97	42871.59
543.14	43161.82
543.31	42705.41
543.48	42766.27
543.64	42981.60
543.81	43302.25
543.98	43370.13
544.15	43679.08
544.32	42925.42
544.48	43709.50
544.65	43665.03
544.82	43351.40
544.99	42859.89
545.16	43299.91
545.32	43342.04
545.49	44062.93
545.66	44535.71
545.83	44715.93
546.00	44533.37
546.16	43793.76
546.33	43550.35
546.50	43470.77
546.67	43587.80
546.83	43473.11
547.00	44020.80
547.17	43496.52
547.34	43880.36
547.50	43988.03
547.67	43629.93
547.84	43849.94
548.00	44121.44
548.17	43908.45
548.34	44037.18
548.51	43798.44
548.67	43997.39
548.84	43859.30
549.01	44240.81
549.18	43863.98
549.34	43973.98
549.51	43962.28
549.68	44114.42
549.84	43875.68
550.01	43971.64
550.18	44502.95
550.34	44325.07
550.51	44561.46
550.68	44320.38
550.84	44032.50
551.01	44072.29
551.18	44259.53
551.34	43805.47
551.51	44336.77
551.68	44502.95
551.84	44706.57
552.01	44470.18
552.18	44704.23
552.34	44659.76
552.51	44933.60
552.68	44477.20
552.84	44383.58
553.01	44676.15
553.18	44821.26
553.34	44711.25
553.51	44729.98
553.67	44868.07
553.84	44940.63
554.01	45062.33
554.17	44617.63
554.34	44783.81
554.51	45003.82
554.67	44835.30
554.84	45059.99
555.00	45158.30
555.17	45022.54
555.33	44893.82
555.50	45160.64
555.67	45008.50
555.83	44957.01
556.00	44542.74
556.16	45378.31
556.33	45263.62
556.50	45446.18
556.66	45041.27
556.83	45123.19
556.99	45439.16
557.16	45656.83
557.32	45549.17
557.49	45649.81
557.65	44926.58
557.82	45275.32
557.98	45074.04
558.15	45340.86
558.32	45797.26
558.48	45500.01
558.65	45380.65
558.81	45158.30
558.98	45495.33
559.14	45511.72
559.31	45762.15
559.47	45511.72
559.64	45617.04
559.80	45876.84
559.97	45638.11
560.13	45399.37
560.30	45631.08
560.46	45741.09
560.63	45305.75
560.79	46241.96
560.96	46213.88
561.12	45900.25
561.29	45645.13
561.45	45762.15
561.61	46092.17
561.78	45823.01
561.94	46021.95
562.11	46518.15
562.27	45750.45
562.44	45640.45
562.60	45528.10
562.77	45399.37
562.93	45797.26
563.10	46122.60
563.26	46183.45
563.42	46270.05
563.59	46110.89
563.75	45790.24
563.92	46546.23
564.08	45680.24
564.24	46279.41
564.41	45804.28
564.57	46012.59
564.74	46241.96
564.90	46232.60
565.07	46075.79
565.23	46625.81
565.39	46380.06
565.56	46246.65
565.72	45900.25
565.88	45890.88
566.05	46110.89
566.21	45944.72
566.38	46167.07
566.54	46237.28
566.70	46373.03
566.87	46356.65
567.03	46064.08
567.19	46569.64
567.36	46447.93
567.52	46171.75
567.68	46263.03
567.85	45830.03
568.01	45933.01
568.17	45823.01
568.34	46499.42
568.50	46239.62
568.66	46408.14
568.83	46256.01
568.99	46548.57
569.15	46028.98
569.32	46447.93
569.48	45837.05
569.64	46050.04
569.81	46263.03
569.97	45916.63
570.13	46288.77
570.30	46253.67
570.46	46600.07
570.62	46253.67
570.78	46433.89
570.95	46052.38
571.11	46232.60
571.27	45982.16
571.43	46157.70
571.60	46204.52
571.76	46309.84
571.92	46316.86
572.09	46120.26
572.25	46698.37
572.41	46398.78
572.57	46284.09
572.74	46368.35
572.90	45984.51
573.06	46581.34
573.22	46206.86
573.38	46457.29
573.55	46691.35
573.71	47040.09
573.87	46454.95
574.03	46333.24
574.20	46773.27
574.36	45942.38
574.52	46628.15
574.68	45977.48
574.84	46796.67
575.01	46232.60
575.17	46756.88
575.33	46377.72
575.49	46199.83
575.65	46433.89
575.82	46829.44
575.98	46363.67
576.14	46272.39
576.30	46260.69
576.46	46363.67
576.62	46424.53
576.79	46579.00
576.95	46415.16
577.11	46490.06
577.27	46822.42
577.43	46656.24
577.59	46719.43
577.75	46808.37
577.92	46087.49
578.08	46836.46
578.24	46454.95
578.40	46450.27
578.56	46759.22
578.72	46396.44
578.88	46726.46
579.04	46726.46
579.21	46557.94
579.37	46689.01
579.53	46677.30
579.69	45956.42
579.85	46447.93
580.01	46974.55
580.17	46314.52
580.33	46190.47
580.49	46478.36
580.65	46621.13
580.82	47035.41
580.98	46864.55
581.14	46717.09
581.30	46520.49
581.46	46571.98
581.62	46660.92
581.78	46497.08
581.94	46717.09
582.10	46382.40
582.26	46471.34
582.42	46312.18
582.58	46298.14
582.74	46876.25
582.90	46930.08
583.06	46902.00
583.22	46450.27
583.38	46227.92
583.54	46784.97
583.70	46518.15
583.86	46623.47
584.02	46569.64
584.18	46782.63
584.34	46822.42
584.50	46684.33
584.66	47007.32
584.82	46461.97
584.98	46398.78
585.14	46731.14
585.30	46375.37
585.46	46593.04
585.62	46609.43
585.78	46728.80
585.94	45911.95
586.10	47009.66
586.26	46752.20
586.42	46644.54
586.58	46988.60
586.74	46656.24
586.90	46160.05
587.06	46625.81
587.22	46614.11
587.38	47033.07
587.54	46597.73
587.70	46794.33
587.86	47014.34
588.02	46644.54
588.18	46632.83
588.34	46569.64
588.49	46815.40
588.65	46307.50
588.81	46590.70
588.97	46417.50
589.13	46728.80
589.29	46719.43
589.45	46920.72
589.61	47154.77
589.77	46965.19
589.93	47126.69
590.08	46857.52
590.24	47208.61
590.40	46909.02
590.56	46972.21
