SpectraSuite Data File
++++++++++++++++++++++++++++++++++++
Date: Fri Oct 04 11:39:18 GMT-05:00 2013
User: price-jones
Dark Spectrum Present: No
Reference Spectrum Present: No
Number of Sampled Component Spectra: 1
Spectrometers: USB2+H05261
Integration Time (usec): 100000 (USB2+H05261)
Spectra Averaged: 1 (USB2+H05261)
Boxcar Smoothing: 0 (USB2+H05261)
Correct for Electrical Dark: No (USB2+H05261)
Strobe/Lamp Enabled: No (USB2+H05261)
Correct for Detector Non-linearity: No (USB2+H05261)
Correct for Stray Light: No (USB2+H05261)
Number of Pixels in Processed Spectrum: 2048
>>>>>Begin Processed Spectral Data<<<<<
365.73	79.58
365.92	79.58
366.12	79.58
366.32	4.68
366.52	0.00
366.72	0.00
366.91	0.00
367.11	0.00
367.31	0.00
367.51	0.00
367.70	0.00
367.90	0.00
368.10	0.00
368.30	0.00
368.49	0.00
368.69	0.00
368.89	0.00
369.09	0.00
369.28	9.36
369.48	0.00
369.68	0.00
369.87	0.00
370.07	0.00
370.27	0.00
370.47	79.58
370.66	184.90
370.86	231.71
371.06	297.25
371.25	299.59
371.45	358.10
371.65	308.95
371.84	238.73
372.04	360.44
372.24	332.36
372.44	315.97
372.63	332.36
372.83	322.99
373.03	367.46
373.22	395.55
373.42	299.59
373.62	334.70
373.81	360.44
374.01	365.12
374.21	442.36
374.40	362.78
374.60	395.55
374.79	334.70
374.99	337.04
375.19	376.83
375.38	402.57
375.58	416.62
375.78	418.96
375.97	517.26
376.17	433.00
376.37	409.59
376.56	435.34
376.76	372.15
376.95	418.96
377.15	421.30
377.35	395.55
377.54	479.81
377.74	367.46
377.93	376.83
378.13	428.32
378.33	407.25
378.52	353.42
378.72	365.12
378.91	444.70
379.11	433.00
379.31	379.17
379.50	456.40
379.70	514.92
379.89	482.15
380.09	491.51
380.28	425.98
380.48	484.49
380.68	454.06
380.87	528.96
381.07	477.47
381.26	517.26
381.46	503.22
381.65	372.15
381.85	458.74
382.04	566.41
382.24	547.69
382.43	505.56
382.63	477.47
382.83	526.62
383.02	533.64
383.22	552.37
383.41	472.79
383.61	512.58
383.80	449.38
384.00	524.28
384.19	484.49
384.39	484.49
384.58	512.58
384.78	477.47
384.97	465.77
385.17	475.13
385.36	486.83
385.56	580.45
385.75	479.81
385.95	585.13
386.14	557.05
386.34	599.18
386.53	547.69
386.72	528.96
386.92	554.71
387.11	550.03
387.31	629.60
387.50	615.56
387.70	561.73
387.89	599.18
388.09	615.56
388.28	587.47
388.48	613.22
388.67	697.48
388.86	608.54
389.06	629.60
389.25	629.60
389.45	585.13
389.64	613.22
389.84	643.65
390.03	676.41
390.22	589.82
390.42	655.35
390.61	683.44
390.81	692.80
391.00	617.90
391.19	690.46
391.39	683.44
391.58	746.63
391.78	709.18
391.97	653.01
392.16	634.29
392.36	837.91
392.55	744.29
392.75	706.84
392.94	678.76
393.13	713.86
393.33	798.12
393.52	760.67
393.71	788.76
393.91	713.86
394.10	805.14
394.29	674.07
394.49	784.08
394.68	837.91
394.88	847.27
395.07	840.25
395.26	767.70
395.46	814.51
395.65	819.19
395.84	791.10
396.04	849.61
396.23	826.21
396.42	896.43
396.62	903.45
396.81	854.30
397.00	896.43
397.19	873.02
397.39	858.98
397.58	828.55
397.77	896.43
397.97	861.32
398.16	997.07
398.35	980.68
398.55	875.36
398.74	973.66
398.93	990.05
399.12	976.00
399.32	945.58
399.51	933.87
399.70	1093.03
399.90	1039.20
400.09	1088.35
400.28	1083.67
400.47	1004.09
400.67	1046.22
400.86	1067.28
401.05	1177.29
401.24	1083.67
401.44	1146.86
401.63	1029.84
401.82	1111.75
402.01	1214.74
402.21	1196.01
402.40	1217.08
402.59	1107.07
402.78	1200.69
402.97	1217.08
403.17	1266.23
403.36	1156.22
403.55	1219.42
403.74	1160.91
403.93	1343.47
404.13	1322.40
404.32	1303.68
404.51	1130.48
404.70	1331.76
404.89	1341.13
405.09	1341.13
405.28	1238.14
405.47	1275.59
405.66	1406.66
405.85	1385.60
406.05	1350.49
406.24	1357.51
406.43	1306.02
406.62	1446.45
406.81	1586.88
407.00	1406.66
407.20	1441.77
407.39	1357.51
407.58	1472.20
407.77	1523.69
407.96	1568.16
408.15	1509.65
408.34	1528.37
408.54	1516.67
408.73	1619.65
408.92	1488.58
409.11	1617.31
409.30	1626.67
409.49	1748.38
409.68	1673.48
409.87	1668.80
410.07	1607.95
410.26	1689.87
410.45	1671.14
410.64	1694.55
410.83	1692.21
411.02	1762.42
411.21	1886.47
411.40	1832.64
411.59	1825.62
411.78	1858.39
411.98	1834.98
412.17	1872.43
412.36	1851.36
412.55	1900.52
412.74	1970.73
412.93	1970.73
413.12	1982.43
413.31	2111.16
413.50	2129.89
413.69	2120.53
413.88	2066.69
414.07	2017.54
414.26	2059.67
414.45	2092.44
414.64	2188.40
414.83	2260.96
415.02	2251.60
415.22	2359.26
415.41	2443.52
415.60	2363.94
415.79	2408.41
415.98	2466.92
416.17	2305.43
416.36	2352.24
416.55	2406.07
416.74	2345.22
416.93	2527.78
417.12	2438.84
417.31	2490.33
417.50	2490.33
417.69	2595.65
417.88	2560.55
418.07	2602.68
418.26	2504.37
418.45	2520.76
418.64	2759.49
418.83	2586.29
419.02	2600.34
419.21	2616.72
419.39	2846.09
419.58	2647.15
419.77	2715.02
419.96	2897.58
420.15	2806.30
420.34	2766.51
420.53	2757.15
420.72	2920.99
420.91	2925.67
421.10	2754.81
421.29	2963.12
421.48	2937.37
421.67	2871.84
421.86	2974.82
422.05	2820.35
422.24	2979.50
422.43	2991.20
422.61	2953.76
422.80	3091.85
422.99	3122.27
423.18	3038.02
423.37	3101.21
423.56	3012.27
423.75	3070.78
423.94	2899.92
424.13	2766.51
424.32	2836.73
424.50	3087.17
424.69	3119.93
424.88	3110.57
425.07	2991.20
425.26	3105.89
425.45	3002.91
425.64	3059.08
425.83	3030.99
426.01	3148.02
426.20	3026.31
426.39	3124.62
426.58	3089.51
426.77	3211.22
426.96	3190.15
427.15	3234.62
427.33	3234.62
427.52	3246.32
427.71	3229.94
427.90	3290.79
428.09	3260.37
428.28	3260.37
428.46	3365.69
428.65	3339.94
428.84	3400.80
429.03	3361.01
429.22	3281.43
429.40	3201.85
429.59	3485.06
429.78	3363.35
429.97	3211.22
430.16	3323.56
430.34	3520.17
430.53	3632.51
430.72	3595.06
430.91	3391.44
431.10	3489.74
431.28	3637.19
431.47	3604.42
431.66	3667.62
431.85	3611.45
432.03	3667.62
432.22	3679.32
432.41	3588.04
432.60	3672.30
432.79	3723.79
432.97	3798.69
433.16	3721.45
433.35	3651.24
433.54	3894.65
433.72	3955.51
433.91	3798.69
434.10	3901.67
434.28	3908.69
434.47	3810.39
434.66	3899.33
434.85	3889.97
435.03	4014.02
435.22	4140.41
435.41	4243.39
435.59	4231.69
435.78	4212.96
435.97	4156.79
436.16	4037.42
436.34	3866.56
436.53	4184.88
436.72	4147.43
436.90	3887.63
437.09	4215.30
437.28	4114.66
437.46	4159.13
437.65	4196.58
437.84	4266.80
438.02	4248.07
438.21	4337.01
438.40	4290.20
438.58	4283.18
438.77	4367.44
438.96	4358.08
439.14	4435.32
439.33	4533.62
439.52	4601.49
439.70	4472.76
439.89	4587.45
440.08	4608.51
440.26	4573.41
440.45	4578.09
440.63	4699.80
440.82	4814.48
441.01	4641.28
441.19	4770.01
441.38	4903.42
441.57	4903.42
441.75	4870.65
441.94	4929.17
442.12	4835.55
442.31	4868.31
442.50	4887.04
442.68	5069.60
442.87	5001.72
443.05	5069.60
443.24	5050.88
443.43	5125.77
443.61	5167.90
443.80	5296.63
443.98	5022.79
444.17	5036.83
444.35	5207.69
444.54	5359.83
444.73	5118.75
444.91	5329.40
445.10	5160.88
445.28	5156.20
445.47	5416.00
445.65	5210.03
445.84	5247.48
446.02	5186.63
446.21	5224.08
446.39	5376.21
446.58	5291.95
446.77	5394.93
446.95	5144.50
447.14	5210.03
447.32	5203.01
447.51	5476.85
447.69	5296.63
447.88	5327.06
448.06	5373.87
448.25	5336.42
448.43	5160.88
448.62	5298.97
448.80	5476.85
448.99	5486.22
449.17	5394.93
449.36	5528.35
449.54	5521.32
449.73	5474.51
449.91	5598.56
450.10	5610.26
450.28	5825.59
450.46	5703.89
450.65	5668.78
450.83	5799.85
451.02	5621.97
451.20	5788.14
451.39	5586.86
451.57	5760.06
451.76	5703.89
451.94	5912.19
452.13	5912.19
452.31	5762.40
452.49	5785.80
452.68	5699.20
452.86	5870.06
453.05	5797.51
453.23	5956.66
453.42	5865.38
453.60	5867.72
453.78	5944.96
453.97	5944.96
454.15	5881.77
454.34	6054.97
454.52	6143.91
454.70	6085.39
454.89	6303.06
455.07	6164.97
455.26	6141.57
455.44	6321.79
455.62	6225.82
455.81	6122.84
455.99	6232.85
456.17	6279.66
456.36	6239.87
456.54	6473.92
456.73	6502.01
456.91	6464.56
457.09	6459.88
457.28	6635.42
457.46	6562.86
457.64	6452.86
457.83	6417.75
458.01	6516.05
458.19	6693.93
458.38	6506.69
458.56	6738.40
458.74	6754.79
458.93	6766.49
459.11	6942.03
459.29	6684.57
459.48	6612.01
459.66	6637.76
459.84	6876.49
460.03	6616.69
460.21	6822.66
460.39	7016.93
460.57	7082.46
460.76	6829.68
460.94	6902.24
461.12	6876.49
461.31	6979.48
461.49	6956.07
461.67	6883.52
461.85	7103.53
462.04	7138.63
462.22	7639.51
462.40	7272.04
462.59	7225.23
462.77	7155.02
462.95	7215.87
463.13	7417.16
463.32	7180.76
463.50	7337.58
463.68	7445.24
463.86	7426.52
464.05	7267.36
464.23	7222.89
464.41	7470.99
464.59	7316.51
464.78	7536.52
464.96	7571.63
465.14	7349.28
465.32	7510.78
465.50	7599.72
465.69	7686.32
465.87	7356.30
466.05	7576.31
466.23	7625.47
466.41	7660.57
466.60	7840.79
466.78	7517.80
466.96	7683.98
467.14	7662.91
467.32	7852.50
467.51	7817.39
467.69	7686.32
467.87	7758.88
468.05	7779.94
468.23	7681.64
468.41	7639.51
468.60	7969.52
468.78	8004.63
468.96	7793.98
469.14	7960.16
469.32	7934.42
469.50	7735.47
469.69	8142.72
469.87	8116.98
470.05	8299.54
470.23	8212.94
470.41	8009.31
470.59	8131.02
470.77	8154.43
470.95	8236.35
471.14	8358.05
471.32	8257.41
471.50	8336.99
471.68	8418.91
471.86	8311.24
472.04	8528.91
472.22	8699.77
472.40	8531.25
472.58	8774.67
472.77	8648.28
472.95	8713.81
473.13	8964.25
473.31	8777.01
473.49	8908.08
473.67	8830.84
473.85	9015.74
474.03	9081.28
474.21	8947.87
474.39	9090.64
474.57	9163.20
474.75	9303.63
474.93	9479.17
475.12	9172.56
475.30	9462.79
475.48	9380.87
475.66	9446.40
475.84	9394.91
476.02	9603.22
476.20	9502.58
476.38	9619.60
476.56	9799.82
476.74	9839.61
476.92	9680.46
477.10	9954.30
477.28	10033.88
477.46	10186.01
477.64	10136.86
477.82	10303.04
478.00	10525.39
478.18	10567.52
478.36	10462.19
478.54	10579.22
478.72	10649.44
478.90	10780.51
479.08	10860.09
479.26	11047.33
479.44	11094.14
479.62	11199.46
479.80	11183.08
479.98	11440.54
480.16	11499.05
480.34	11386.71
480.52	11580.97
480.70	11620.76
480.88	11555.22
481.06	11653.53
481.24	11744.81
481.41	11808.00
481.59	12142.70
481.77	12212.92
481.95	12264.41
482.13	12149.72
482.31	12255.04
482.49	12252.70
482.67	12290.15
482.85	12599.10
483.03	12886.99
483.21	13064.87
483.39	13067.21
483.57	12945.50
483.74	12989.97
483.92	13282.54
484.10	13261.48
484.28	13561.06
484.46	13727.24
484.64	13886.40
484.82	13532.98
485.00	13809.16
485.18	13827.88
485.35	14162.58
485.53	14113.43
485.71	14328.76
485.89	14572.18
486.07	14501.96
486.25	14654.09
486.43	14576.86
486.61	14803.89
486.78	14993.47
486.96	15028.58
487.14	15550.52
487.32	15110.50
487.50	15206.46
487.68	15590.31
487.85	15693.29
488.03	15922.66
488.21	15990.54
488.39	15681.59
488.57	16325.24
488.75	16123.95
488.92	16622.48
489.10	16491.41
489.28	16348.64
489.46	16959.52
489.64	16753.55
489.81	17238.05
489.99	17170.17
490.17	17064.85
490.35	17474.44
490.53	17329.33
490.70	17603.17
490.88	17853.61
491.06	17584.44
491.24	18022.12
491.41	17984.68
491.59	18260.86
491.77	18120.43
491.95	18281.92
492.13	18597.90
492.30	18527.68
492.48	18501.93
492.66	18682.16
492.84	19035.58
493.01	19199.41
493.19	19028.56
493.37	19232.18
493.54	19197.07
493.72	19431.13
493.90	19536.45
494.08	19669.86
494.25	20093.50
494.43	19971.79
494.61	19915.62
494.79	20313.51
494.96	20196.48
495.14	20343.94
495.32	20262.02
495.49	20313.51
495.67	20442.24
495.85	20891.62
496.02	20828.43
496.20	21113.97
496.38	20926.73
496.55	21160.78
496.73	21610.17
496.91	21256.75
497.09	21465.05
497.26	21736.56
497.44	21696.77
497.62	21933.16
497.79	22309.99
497.97	22127.42
498.14	21970.61
498.32	22298.28
498.50	22665.75
498.67	22778.09
498.85	22558.08
499.03	22649.36
499.20	22792.14
499.38	23180.67
499.56	23065.98
499.73	23353.87
499.91	23115.13
500.08	23590.26
500.26	23335.14
500.44	23236.84
500.61	23271.95
500.79	23484.94
500.97	23648.77
501.14	23974.11
501.32	23969.43
501.49	23496.64
501.67	23618.35
501.84	23821.97
502.02	24039.64
502.20	24414.13
502.37	24556.90
502.55	24486.68
502.72	24444.56
502.90	24767.55
503.07	24645.84
503.25	24730.10
503.43	24669.25
503.60	25151.40
503.78	25142.03
503.95	25186.50
504.13	25200.55
504.30	25106.93
504.48	24994.58
504.65	25233.32
504.83	25422.90
505.01	25455.67
505.18	25577.37
505.36	25600.78
505.53	25879.30
505.71	25493.12
505.88	25933.14
506.06	25820.79
506.23	25919.09
506.41	26106.34
506.58	26345.07
506.76	26085.27
506.93	26382.52
507.11	26338.05
507.28	26473.80
507.46	26567.42
507.63	26864.67
507.81	26923.18
507.98	26670.40
508.16	26684.45
508.33	27082.34
508.50	26778.07
508.68	27110.43
508.85	27641.73
509.03	27218.09
509.20	27693.22
509.38	27700.24
509.55	27557.47
509.73	27786.84
509.90	27648.75
510.08	27704.92
510.25	28114.52
510.42	27913.23
510.60	28669.22
510.77	28601.35
510.95	28278.35
511.12	28357.93
511.30	28060.68
511.47	28945.41
511.64	28180.05
511.82	28802.63
511.99	28577.94
512.17	28807.31
512.34	28924.34
512.51	29137.33
512.69	29113.92
512.86	29158.39
513.04	29738.85
513.21	29514.16
513.38	29776.30
513.56	29834.81
513.73	29591.39
513.90	29607.78
514.08	29539.90
514.25	29596.07
514.43	29958.86
514.60	29865.24
514.77	29823.11
514.95	30300.58
515.12	29970.56
515.29	29439.26
515.47	30700.81
515.64	30597.82
515.81	30483.14
515.99	30515.90
516.16	30822.51
516.33	30618.89
516.51	30679.74
516.68	30380.15
516.85	30363.77
517.03	31250.83
517.20	30827.20
517.37	31274.24
517.54	31117.42
517.72	31000.40
517.89	31021.46
518.06	31087.00
518.24	31367.86
518.41	31208.70
518.58	31456.80
518.75	31491.91
518.93	31295.30
519.10	31414.67
519.27	31976.40
519.45	31519.99
519.62	31962.36
519.79	31964.70
519.96	32250.24
520.14	32320.46
520.31	31896.82
520.48	32297.05
520.65	32266.63
520.83	32648.13
521.00	32762.82
521.17	32292.37
521.34	32533.45
521.52	32652.81
521.69	32404.72
521.86	32950.06
522.03	33088.15
522.20	33111.56
522.38	33053.05
522.55	33050.70
522.72	32786.22
522.89	33139.65
523.07	33383.06
523.24	33574.98
523.41	33565.62
523.58	33462.64
523.75	33757.55
523.92	33158.37
524.10	33888.62
524.27	33652.22
524.44	33968.19
524.61	34099.26
524.78	34115.65
524.96	34237.36
525.13	33989.26
525.30	34642.27
525.47	34263.10
525.64	34115.65
525.81	34157.78
525.98	34539.29
526.16	34536.94
526.33	34309.91
526.50	34719.51
526.67	34532.26
526.84	34651.63
527.01	34129.69
527.18	35072.93
527.36	34630.57
527.53	35140.80
527.70	35704.87
527.87	35131.44
528.04	35145.48
528.21	35187.61
528.38	34944.20
528.55	35644.02
528.72	35365.49
528.89	35662.74
529.07	35597.21
529.24	35435.71
529.41	35548.06
529.58	35311.66
529.75	35559.76
529.92	35391.24
530.09	35651.04
530.26	35845.30
530.43	35997.44
530.60	35786.79
530.77	35622.95
530.94	36074.68
531.11	35999.78
531.28	36030.21
531.46	36215.11
531.63	36847.05
531.80	36591.94
531.97	36528.74
532.14	36444.48
532.31	36430.44
532.48	36304.05
532.65	37027.28
532.82	36156.60
532.99	36727.69
533.16	36947.70
533.33	36847.05
533.50	37422.83
533.67	36727.69
533.84	36680.88
534.01	36510.02
534.18	36821.31
534.35	36921.95
534.52	37226.22
534.69	37347.93
534.86	37376.01
535.03	37331.54
535.20	37298.78
535.37	37539.85
535.54	37523.47
535.71	37495.38
535.88	37460.27
536.05	37455.59
536.22	37708.37
536.38	37893.27
536.55	38305.21
536.72	38071.15
536.89	37816.04
537.06	38047.75
537.23	38459.68
537.40	38155.41
537.57	37727.10
537.74	38230.31
537.91	38796.72
538.08	38438.62
538.25	38429.26
538.42	38483.09
538.59	38607.14
538.75	38412.87
538.92	38277.12
539.09	38478.41
539.26	38447.98
539.43	38679.69
539.60	39150.14
539.77	38691.40
539.94	39201.63
540.11	38733.53
540.28	39007.37
540.44	38873.96
540.61	38501.81
540.78	39154.82
540.95	38923.11
541.12	39196.95
541.29	39395.90
541.46	39414.62
541.62	39555.05
541.79	39562.08
541.96	39072.90
542.13	39374.83
542.30	39459.09
542.47	40161.25
542.63	39501.22
542.80	39896.77
542.97	40210.40
543.14	40268.92
543.31	40285.30
543.48	39690.80
543.64	40346.15
543.81	40385.94
543.98	40636.38
544.15	40741.71
544.32	40910.22
544.48	40774.47
544.65	40151.89
544.82	40477.22
544.99	40011.46
545.16	40587.23
545.32	40264.24
545.49	41284.71
545.66	41790.27
545.83	41563.23
546.00	41841.76
546.16	41069.38
546.33	40470.20
546.50	40404.67
546.67	40676.17
546.83	40715.96
547.00	40758.09
547.17	40720.64
547.34	40875.12
547.50	40629.36
547.67	41450.89
547.84	40966.40
548.00	41010.87
548.17	40767.45
548.34	41200.45
548.51	41317.48
548.67	41574.94
548.84	41755.16
549.01	41766.86
549.18	41242.58
549.34	41333.86
549.51	41544.51
549.68	41619.41
549.84	41493.02
550.01	41436.84
550.18	41308.11
550.34	41659.20
550.51	41605.36
550.68	41406.42
550.84	41371.31
551.01	41486.00
551.18	41446.21
551.34	41666.22
551.51	41783.24
551.68	41619.41
551.84	42000.91
552.01	41965.81
552.18	41937.72
552.34	41631.11
552.51	42164.75
552.68	41872.18
552.84	42197.52
553.01	42146.03
553.18	42256.03
553.34	42227.95
553.51	41773.88
553.67	42506.47
553.84	42106.24
554.01	42813.08
554.17	42127.30
554.34	42504.13
554.51	42337.95
554.67	42373.06
554.84	42220.92
555.00	42309.86
555.17	42279.44
555.33	42834.14
555.50	42433.91
555.67	43065.86
555.83	42300.50
556.00	42597.75
556.16	42880.95
556.33	42604.77
556.50	42527.53
556.66	42408.17
556.83	42408.17
556.99	42710.10
557.16	43208.63
557.32	43056.50
557.49	43264.80
557.65	42689.03
557.82	42653.92
557.98	42429.23
558.15	42768.61
558.32	43040.11
558.48	42499.45
558.65	43012.02
558.81	43086.92
558.98	43276.51
559.14	43236.72
559.31	42822.44
559.47	43168.84
559.64	42777.97
559.80	43526.94
559.97	43129.05
560.13	43466.09
560.30	43562.05
560.46	43639.29
560.63	43360.76
560.79	43814.83
560.96	43606.52
561.12	43035.43
561.29	43236.72
561.45	43416.94
561.61	43379.49
561.78	43267.14
561.94	43311.61
562.11	43737.59
562.27	43796.10
562.44	43356.08
562.60	43587.80
562.77	43704.82
562.93	43091.60
563.10	43882.70
563.26	43393.53
563.42	43512.90
563.59	43515.24
563.75	43679.08
563.92	44046.54
564.08	43393.53
564.24	43173.52
564.41	43693.12
564.57	43571.41
564.74	43887.39
564.90	43875.68
565.07	43943.56
565.23	44006.75
565.39	43665.03
565.56	43791.42
565.72	43676.74
565.88	43962.28
566.05	43454.39
566.21	43803.13
566.38	43854.62
566.54	44247.83
566.70	44355.49
566.87	44137.82
567.03	43955.26
567.19	44062.93
567.36	43557.37
567.52	43573.75
567.68	44257.19
567.85	43945.90
568.01	44020.80
568.17	43957.60
568.34	44186.97
568.50	43976.33
568.66	44367.20
568.83	44341.45
568.99	44308.68
569.15	44238.47
569.32	44238.47
569.48	43985.69
569.64	43889.73
569.81	44053.56
569.97	44098.03
570.13	44502.95
570.30	44748.70
570.46	44294.64
570.62	44055.90
570.78	44266.55
570.95	44217.40
571.11	44245.49
571.27	43995.05
571.43	43831.21
571.60	44245.49
571.76	44191.65
571.92	44765.09
572.09	44790.83
572.25	44163.57
572.41	44542.74
572.57	44622.31
572.74	44151.87
572.90	44313.36
573.06	44170.59
573.22	44039.52
573.38	44442.09
573.55	44568.48
573.71	44844.66
573.87	44772.11
574.03	44308.68
574.20	44594.23
574.36	44320.38
574.52	44130.80
574.68	44397.62
574.84	44364.85
575.01	44542.74
575.17	44397.62
575.33	44292.30
575.49	44580.18
575.65	44701.89
575.82	44584.86
575.98	44973.39
576.14	44617.63
576.30	44701.89
576.46	44163.57
576.62	44596.57
576.79	44638.70
576.95	44165.91
577.11	44458.48
577.27	44774.45
577.43	44877.43
577.59	44605.93
577.75	44526.35
577.92	44650.40
578.08	44793.17
578.24	44460.82
578.40	44713.59
578.56	44605.93
578.72	44350.81
578.88	45092.76
579.04	45141.91
579.21	44760.40
579.37	45155.96
579.53	45195.74
579.69	45069.36
579.85	44669.12
580.01	44456.14
580.17	44708.91
580.33	44266.55
580.49	45041.27
580.65	44882.11
580.82	44765.09
580.98	44753.38
581.14	44734.66
581.30	45104.46
581.46	44816.58
581.62	45511.72
581.78	44348.47
581.94	45170.00
582.10	44362.51
582.26	44748.70
582.42	44809.56
582.58	44786.15
582.74	45113.83
582.90	45038.93
583.06	44935.95
583.22	44903.18
583.38	44409.32
583.54	45041.27
583.70	45097.44
583.86	45153.62
584.02	44924.24
584.18	45071.70
584.34	45588.95
584.50	45324.47
584.66	44947.65
584.82	44968.71
584.98	44919.56
585.14	44947.65
585.30	44701.89
585.46	44549.76
585.62	44711.25
585.78	45221.49
585.94	44694.87
586.10	44999.14
586.26	44715.93
586.42	45041.27
586.58	44952.33
586.74	45191.06
586.90	44959.35
587.06	44919.56
587.22	44832.96
587.38	44734.66
587.54	45193.40
587.70	45497.67
587.86	45333.84
588.02	45022.54
588.18	45727.05
588.34	44973.39
588.49	45720.02
588.65	44896.16
588.81	45006.16
588.97	44825.94
589.13	45422.78
589.29	44917.22
589.45	45186.38
589.61	45106.80
589.77	45619.38
589.93	45413.41
590.08	45570.23
590.24	45631.08
590.40	45312.77
590.56	45329.16
590.72	45495.33
590.88	45308.09
