SpectraSuite Data File
++++++++++++++++++++++++++++++++++++
Date: Fri Oct 04 11:39:47 GMT-05:00 2013
User: price-jones
Dark Spectrum Present: No
Reference Spectrum Present: No
Number of Sampled Component Spectra: 1
Spectrometers: USB2+H05261
Integration Time (usec): 100000 (USB2+H05261)
Spectra Averaged: 1 (USB2+H05261)
Boxcar Smoothing: 0 (USB2+H05261)
Correct for Electrical Dark: No (USB2+H05261)
Strobe/Lamp Enabled: No (USB2+H05261)
Correct for Detector Non-linearity: No (USB2+H05261)
Correct for Stray Light: No (USB2+H05261)
Number of Pixels in Processed Spectrum: 2048
>>>>>Begin Processed Spectral Data<<<<<
365.73	0.00
365.92	0.00
366.12	0.00
366.32	39.79
366.52	0.00
366.72	35.11
366.91	0.00
367.11	0.00
367.31	0.00
367.51	0.00
367.70	0.00
367.90	0.00
368.10	0.00
368.30	0.00
368.49	0.00
368.69	0.00
368.89	0.00
369.09	0.00
369.28	0.00
369.48	0.00
369.68	0.00
369.87	0.00
370.07	0.00
370.27	0.00
370.47	114.69
370.66	463.43
370.86	425.98
371.06	566.41
371.25	613.22
371.45	465.77
371.65	571.09
371.84	587.47
372.04	596.84
372.24	669.39
372.44	655.35
372.63	615.56
372.83	601.52
373.03	627.26
373.22	669.39
373.42	777.06
373.62	706.84
373.81	720.88
374.01	683.44
374.21	704.50
374.40	725.57
374.60	725.57
374.79	653.01
374.99	667.05
375.19	746.63
375.38	793.44
375.58	758.33
375.78	758.33
375.97	784.08
376.17	800.46
376.37	741.95
376.56	788.76
376.76	755.99
376.95	779.40
377.15	842.59
377.35	840.25
377.54	830.89
377.74	798.12
377.93	823.87
378.13	880.04
378.33	896.43
378.52	887.06
378.72	882.38
378.91	854.30
379.11	873.02
379.31	898.77
379.50	847.27
379.70	973.66
379.89	950.26
380.09	863.66
380.28	908.13
380.48	905.79
380.68	999.41
380.87	992.39
381.07	954.94
381.26	959.62
381.46	952.60
381.65	957.28
381.85	903.45
382.04	1018.13
382.24	964.30
382.43	985.37
382.63	1036.86
382.83	1004.09
383.02	1064.94
383.22	1102.39
383.41	1102.39
383.61	1128.14
383.80	1142.18
384.00	1043.88
384.19	1025.15
384.39	1034.52
384.58	1027.50
384.78	1032.18
384.97	1167.93
385.17	1151.54
385.36	1097.71
385.56	1200.69
385.75	1163.25
385.95	1048.56
386.14	1198.35
386.34	1163.25
386.53	1156.22
386.72	1249.85
386.92	1252.19
387.11	1299.00
387.31	1240.48
387.50	1186.65
387.70	1153.88
387.89	1259.21
388.09	1240.48
388.28	1306.02
388.48	1275.59
388.67	1275.59
388.86	1341.13
389.06	1369.21
389.25	1357.51
389.45	1371.55
389.64	1406.66
389.84	1380.92
390.03	1441.77
390.22	1380.92
390.42	1329.42
390.61	1364.53
390.81	1418.36
391.00	1427.73
391.19	1453.47
391.39	1465.18
391.58	1495.60
391.78	1507.30
391.97	1448.79
392.16	1472.20
392.36	1598.59
392.55	1444.11
392.75	1544.75
392.94	1579.86
393.13	1633.69
393.33	1556.46
393.52	1614.97
393.71	1713.27
393.91	1600.93
394.10	1624.33
394.29	1678.16
394.49	1636.03
394.68	1699.23
394.88	1659.44
395.07	1743.70
395.26	1802.21
395.46	1778.81
395.65	1858.39
395.84	1671.14
396.04	1790.51
396.23	1837.32
396.42	1834.98
396.62	1830.30
396.81	1771.79
397.00	1937.96
397.19	1963.71
397.39	1888.81
397.58	1900.52
397.77	1909.88
397.97	1982.43
398.16	1891.15
398.35	2001.16
398.55	1937.96
398.74	2097.12
398.93	1947.33
399.12	1797.53
399.32	2069.03
399.51	2005.84
399.70	2104.14
399.90	2029.24
400.09	2160.31
400.28	2176.70
400.47	2282.02
400.67	2284.36
400.86	2197.76
401.05	2150.95
401.24	2235.21
401.44	2265.64
401.63	2197.76
401.82	2232.87
402.01	2298.41
402.21	2197.76
402.40	2267.98
402.59	2326.49
402.78	2370.96
402.97	2403.73
403.17	2338.20
403.36	2427.14
403.55	2487.99
403.74	2518.42
403.93	2579.27
404.13	2499.69
404.32	2583.95
404.51	2576.93
404.70	2567.57
404.89	2560.55
405.09	2700.98
405.28	2539.48
405.47	2747.79
405.66	2640.12
405.85	2792.26
406.05	2785.24
406.24	2670.55
406.43	2724.38
406.62	2925.67
406.81	3000.57
407.00	2897.58
407.20	2810.98
407.39	2775.88
407.58	2925.67
407.77	2998.23
407.96	2958.44
408.15	2977.16
408.34	3007.59
408.54	2981.84
408.73	3009.93
408.92	3038.02
409.11	3077.80
409.30	3248.66
409.49	3173.77
409.68	3089.51
409.87	3108.23
410.07	3372.71
410.26	3302.50
410.45	3283.77
410.64	3262.71
410.83	3323.56
411.02	3382.07
411.21	3595.06
411.40	3487.40
411.59	3555.27
411.78	3510.80
411.98	3496.76
412.17	3588.04
412.36	3555.27
412.55	3789.33
412.74	3847.84
412.93	3798.69
413.12	3590.38
413.31	3868.91
413.50	3868.91
413.69	3819.75
413.88	3971.89
414.07	3999.98
414.26	4002.32
414.45	4009.34
414.64	4084.23
414.83	4241.05
415.02	4147.43
415.22	4360.42
415.41	4381.48
415.60	4306.59
415.79	4367.44
415.98	4390.84
416.17	4411.91
416.36	4369.78
416.55	4472.76
416.74	4484.47
416.93	4634.26
417.12	4601.49
417.31	4596.81
417.50	4601.49
417.69	4931.51
417.88	4800.44
418.07	4767.67
418.26	4917.47
418.45	4847.25
418.64	4901.08
418.83	5006.41
419.02	4980.66
419.21	4908.10
419.39	5097.69
419.58	5118.75
419.77	4975.98
419.96	5233.44
420.15	5210.03
420.34	5085.98
420.53	5245.14
420.72	5289.61
420.91	5186.63
421.10	5235.78
421.29	5582.18
421.48	5266.21
421.67	5383.23
421.86	5352.81
422.05	5500.26
422.24	5352.81
422.43	5427.70
422.61	5551.75
422.80	5614.95
422.99	5673.46
423.18	5682.82
423.37	5507.28
423.56	5540.05
423.75	5619.63
423.94	5467.49
424.13	5308.34
424.32	5350.46
424.50	5640.69
424.69	5830.27
424.88	5795.17
425.07	5509.62
425.26	5504.94
425.45	5727.29
425.64	5626.65
425.83	5643.03
426.01	5612.60
426.20	5717.93
426.39	5767.08
426.58	5806.87
426.77	5668.78
426.96	5820.91
427.15	5706.23
427.33	5982.41
427.52	5877.09
427.71	5884.11
427.90	5914.53
428.09	6054.97
428.28	6225.82
428.46	6232.85
428.65	6061.99
428.84	6277.32
429.03	6230.51
429.22	6017.52
429.40	6326.47
429.59	6335.83
429.78	6143.91
429.97	6001.13
430.16	6181.35
430.34	6300.72
430.53	6469.24
430.72	6424.77
430.91	6431.79
431.10	6389.66
431.28	6525.41
431.47	6534.78
431.66	6843.73
431.85	6630.74
432.03	6775.85
432.22	6946.71
432.41	6885.86
432.60	6944.37
432.79	6724.36
432.97	6707.98
433.16	6745.42
433.35	6670.53
433.54	6932.67
433.72	6981.82
433.91	7016.93
434.10	7000.54
434.28	6906.92
434.47	6984.16
434.66	7040.33
434.85	7204.17
435.03	7314.17
435.22	7459.29
435.41	7859.52
435.59	7742.49
435.78	7492.05
435.97	7517.80
436.16	7456.95
436.34	7288.43
436.53	7417.16
436.72	7669.94
436.90	7276.73
437.09	7431.20
437.28	7520.14
437.46	7492.05
437.65	7751.85
437.84	7595.04
438.02	7583.34
438.21	7686.32
438.40	7796.32
438.58	7864.20
438.77	8013.99
438.96	8084.21
439.14	7964.84
439.33	8177.83
439.52	8250.39
439.70	8430.61
439.89	8161.45
440.08	8571.04
440.26	8472.74
440.45	8500.83
440.63	8454.02
440.82	8711.47
441.01	8496.14
441.19	8709.13
441.38	9013.40
441.57	9085.96
441.75	9078.94
441.94	9057.87
442.12	9245.12
442.31	9100.00
442.50	9270.86
442.68	9102.34
442.87	9256.82
443.05	9458.10
443.24	9465.13
443.43	9444.06
443.61	9605.56
443.80	9870.04
443.98	9195.96
444.17	9151.49
444.35	9493.21
444.54	9647.69
444.73	9472.15
444.91	9708.54
445.10	9673.43
445.28	9345.76
445.47	9554.07
445.65	9659.39
445.84	9624.28
446.02	9776.42
446.21	9654.71
446.39	9483.85
446.58	9872.38
446.77	9724.93
446.95	9469.81
447.14	9556.41
447.32	9832.59
447.51	9919.19
447.69	9535.34
447.88	9788.12
448.06	10019.83
448.25	9788.12
448.43	10047.92
448.62	10167.29
448.80	9872.38
448.99	9994.09
449.17	10207.08
449.36	10015.15
449.54	10349.85
449.73	10471.56
449.91	10422.41
450.10	10317.08
450.28	10431.77
450.46	10494.96
450.65	10427.09
450.83	10590.92
451.02	10579.22
451.20	10492.62
451.39	10600.29
451.57	10452.83
451.76	10448.15
451.94	10747.74
452.13	10862.43
452.31	10675.18
452.49	10576.88
452.68	10911.58
452.86	10583.90
453.05	10906.90
453.23	11096.48
453.42	10841.36
453.60	10895.19
453.78	10974.77
453.97	10817.96
454.15	11070.73
454.34	10913.92
454.52	11351.60
454.70	11164.36
454.89	11272.02
455.07	11094.14
455.26	11454.58
455.44	11529.48
455.62	11379.68
455.81	11440.54
455.99	11590.33
456.17	11515.44
456.36	11719.06
456.54	11665.23
456.73	11726.08
456.91	12135.68
457.09	12023.33
457.28	12346.33
457.46	12044.40
457.64	12135.68
457.83	12182.49
458.01	12173.13
458.19	12365.05
458.38	12194.19
458.56	12566.34
458.74	12461.01
458.93	12416.54
459.11	12713.79
459.29	12393.14
459.48	12624.85
459.66	12463.35
459.84	12655.28
460.03	12912.74
460.21	12723.15
460.39	12521.87
460.57	12772.30
460.76	12809.75
460.94	13109.34
461.12	12875.29
461.31	13137.43
461.49	12924.44
461.67	12910.40
461.85	13369.14
462.04	13163.17
462.22	13975.34
462.40	13514.25
462.59	13397.23
462.77	13284.88
462.95	13589.15
463.13	13439.36
463.32	13469.78
463.50	13645.32
463.68	13837.25
463.86	13680.43
464.05	13511.91
464.23	13565.74
464.41	13846.61
464.59	13514.25
464.78	14214.07
464.96	13776.39
465.14	13701.50
465.32	14164.92
465.50	14176.62
465.69	14160.24
465.87	14204.71
466.05	14209.39
466.23	14136.84
466.41	14422.38
466.60	14656.43
466.78	14209.39
466.96	14017.47
467.14	14307.69
467.32	14511.32
467.51	14796.87
467.69	14005.77
467.87	14333.44
468.05	14831.97
468.23	14604.94
468.41	14693.88
468.60	14644.73
468.78	15173.69
468.96	14626.01
469.14	15091.77
469.32	14944.32
469.50	14668.14
469.69	15213.48
469.87	15309.44
470.05	15304.76
470.23	15323.49
470.41	15482.64
470.59	15669.89
470.77	15445.20
470.95	15374.98
471.14	15721.38
471.32	15440.51
471.50	15866.49
471.68	16035.01
471.86	16070.12
472.04	16004.58
472.22	16360.34
472.40	16119.27
472.58	16166.08
472.77	16381.41
472.95	16491.41
473.13	16856.54
473.31	16662.27
473.49	16479.71
473.67	16753.55
473.85	16716.11
474.03	17050.80
474.21	17060.16
474.39	17298.90
474.57	17722.54
474.75	17659.34
474.93	17935.53
475.12	17530.61
475.30	17736.58
475.48	17930.84
475.66	17867.65
475.84	18087.66
476.02	18127.45
476.20	18157.88
476.38	18354.48
476.56	18855.36
476.74	18677.48
476.92	18480.87
477.10	18923.23
477.28	19300.06
477.46	18857.70
477.64	19295.38
477.82	19325.80
478.00	19756.46
478.18	19775.19
478.36	20051.37
478.54	20168.40
478.72	20297.13
478.90	20367.34
479.08	20357.98
479.26	20802.68
479.44	20776.94
479.62	20652.89
479.80	21497.82
479.98	21305.90
480.16	21408.88
480.34	21495.48
480.52	22115.72
480.70	21731.87
480.88	21532.93
481.06	22101.68
481.24	21991.67
481.41	22637.66
481.59	23187.69
481.77	23023.85
481.95	22963.00
482.13	23417.06
482.31	23379.61
482.49	23625.37
482.67	23630.05
482.85	24009.22
483.03	24552.22
483.21	24404.77
483.39	24484.34
483.57	24772.23
483.74	24938.41
483.92	25160.76
484.10	25317.57
484.28	25006.28
484.46	25954.20
484.64	26368.48
484.82	26129.74
485.00	26403.58
485.18	26766.37
485.35	27044.89
485.53	26813.18
485.71	27030.85
485.89	27896.85
486.07	27473.21
486.25	27763.43
486.43	27648.75
486.61	28044.30
486.78	28435.17
486.96	28540.49
487.14	29024.98
487.32	28919.66
487.50	29275.42
487.68	29532.88
487.85	29603.10
488.03	30024.39
488.21	30675.06
488.39	30426.96
488.57	30735.92
488.75	30607.19
488.92	31578.51
489.10	31353.82
489.28	31796.18
489.46	31985.76
489.64	32105.13
489.81	32797.93
489.99	32769.84
490.17	33022.62
490.35	33057.73
490.53	33090.49
490.70	33460.30
490.88	33905.00
491.06	33975.22
491.24	33551.58
491.41	34026.71
491.59	34349.70
491.77	34506.52
491.95	35072.93
492.13	34892.71
492.30	35229.74
492.48	35332.73
492.66	35524.65
492.84	35955.31
493.01	36275.96
493.19	36437.46
493.37	36453.84
493.54	36741.73
493.72	37064.72
493.90	37001.53
494.08	37315.16
494.25	37612.41
494.43	37610.07
494.61	38274.78
494.79	38211.59
494.96	38199.88
495.14	38775.66
495.32	38976.94
495.49	39330.36
495.67	39288.23
495.85	39861.66
496.02	39934.22
496.20	40023.16
496.38	40346.15
496.55	40177.64
496.73	41474.29
496.91	40266.58
497.09	41280.03
497.26	41139.60
497.44	40807.24
497.62	41642.81
497.79	41846.44
497.97	41619.41
498.14	42225.60
498.32	43056.50
498.50	42635.20
498.67	42646.90
498.85	43002.66
499.03	42679.67
499.20	43157.14
499.38	43517.58
499.56	43213.31
499.73	43681.42
499.91	43964.62
500.08	44659.76
500.26	43887.39
500.44	44374.22
500.61	44271.23
500.79	44732.32
500.97	44814.24
501.14	45249.58
501.32	45380.65
501.49	45029.57
501.67	45120.85
501.84	45055.31
502.02	45172.34
502.20	45509.38
502.37	45876.84
502.55	45935.35
502.72	46073.45
502.90	46499.42
503.07	46012.59
503.25	46094.51
503.43	46520.49
503.60	46787.31
503.78	47161.79
503.95	47051.79
504.13	46866.89
504.30	47405.21
504.48	47058.81
504.65	47725.86
504.83	47849.91
505.01	48376.53
505.18	47737.57
505.36	48512.28
505.53	48165.88
505.71	48406.96
505.88	48495.90
506.06	48039.50
506.23	48891.45
506.41	48652.72
506.58	48912.52
506.76	49027.20
506.93	49205.08
507.11	48905.49
507.28	49485.95
507.46	49134.87
507.63	49673.19
507.81	49925.97
507.98	49289.34
508.16	49696.59
508.33	49656.81
508.50	49750.43
508.68	50003.20
508.85	50445.57
509.03	50494.72
509.20	50705.37
509.38	50927.72
509.55	50908.99
509.73	51124.32
509.90	50983.89
510.08	50653.87
510.25	50923.04
510.42	51292.84
510.60	51578.39
510.77	51578.39
510.95	51456.68
511.12	51489.45
511.30	51650.94
511.47	51629.88
511.64	51969.26
511.82	51966.91
511.99	52023.09
512.17	52212.67
512.34	52182.24
512.51	52280.55
512.69	52603.54
512.86	52512.26
513.04	52924.19
513.21	52807.17
513.38	53057.60
513.56	52849.30
513.73	52750.99
513.90	52781.42
514.08	52886.74
514.25	53153.57
514.43	53621.67
514.60	53396.98
514.77	53485.92
514.95	53860.41
515.12	53399.32
515.29	53350.17
515.47	53476.56
515.64	53757.42
515.81	53907.22
515.99	54174.04
516.16	54279.36
516.33	54185.74
516.51	54281.70
516.68	54251.28
516.85	54265.32
517.03	54380.01
517.20	54602.36
517.37	54550.87
517.54	54686.62
517.72	54798.96
517.89	54794.28
518.06	54724.07
518.24	54803.64
518.41	54677.25
518.58	55299.84
518.75	54965.14
518.93	55082.17
519.10	55187.49
519.27	55407.50
519.45	55051.74
519.62	55229.62
519.79	55285.79
519.96	55599.43
520.14	55356.01
520.31	55594.74
520.48	55723.47
520.65	55686.03
520.83	55826.46
521.00	55774.97
521.17	56009.02
521.34	55877.95
521.52	56053.49
521.69	56034.77
521.86	56320.31
522.03	56107.32
522.20	56460.74
522.38	56329.67
522.55	56205.62
522.72	56390.53
522.89	56320.31
523.07	56755.65
523.24	56690.12
523.41	56975.66
523.58	56678.41
523.75	56896.08
523.92	56715.86
524.10	56844.59
524.27	57069.28
524.44	56992.04
524.61	57317.38
524.78	56919.49
524.96	57162.90
525.13	57214.40
525.30	57326.74
525.47	57467.17
525.64	57336.10
525.81	57408.66
525.98	57719.95
526.16	57689.52
526.33	57441.43
526.50	57752.72
526.67	57626.33
526.84	57677.82
527.01	57748.04
527.18	57872.09
527.36	58110.82
527.53	57956.35
527.70	58286.36
527.87	58419.77
528.04	58052.31
528.21	58176.36
528.38	58232.53
528.55	58192.74
528.72	58192.74
528.89	58361.26
529.07	58433.81
529.24	58321.47
529.41	58457.22
529.58	58253.59
529.75	58365.94
529.92	58756.81
530.09	58417.43
530.26	58674.89
530.43	58543.82
530.60	58468.92
530.77	58581.27
530.94	58976.82
531.11	58630.42
531.28	58677.23
531.46	58969.80
531.63	58997.88
531.80	59402.80
531.97	59196.83
532.14	59173.42
532.31	59030.65
532.48	59206.19
532.65	59103.21
532.82	59255.34
532.99	59360.67
533.16	59271.73
533.33	59468.33
533.50	59676.64
533.67	59702.38
533.84	59449.61
534.01	59295.13
534.18	59386.41
534.35	59547.91
534.52	59433.22
534.69	59903.67
534.86	59821.75
535.03	59653.23
535.20	59852.18
535.37	59849.84
535.54	59695.36
535.71	59788.98
535.88	59791.33
536.05	59810.05
536.22	60081.55
536.38	60081.55
536.55	60123.68
536.72	60271.14
536.89	59962.18
537.06	60100.28
537.23	60168.15
537.40	60182.19
537.57	60200.92
537.74	60280.50
537.91	60650.30
538.08	60364.76
538.25	60313.26
538.42	60310.92
538.59	60570.72
538.75	60310.92
538.92	60430.29
539.09	60449.02
539.26	60622.22
539.43	60673.71
539.60	60753.29
539.77	60582.43
539.94	60704.13
540.11	60874.99
540.28	60774.35
540.44	60673.71
540.61	60687.75
540.78	60809.46
540.95	60959.25
541.12	60853.93
541.29	61193.31
541.46	61193.31
541.62	60999.04
541.79	60835.20
541.96	61083.30
542.13	61139.47
542.30	61174.58
542.47	61293.95
542.63	61333.74
542.80	61474.17
542.97	61530.34
543.14	61673.12
543.31	61343.10
543.48	61499.92
543.64	61551.41
543.81	61652.05
543.98	61825.25
544.15	61893.13
544.32	61799.50
544.48	62038.24
544.65	61769.08
544.82	61897.81
544.99	61647.37
545.16	61867.38
545.32	61801.85
545.49	62129.52
545.66	62316.76
545.83	62391.66
546.00	62269.95
546.16	62284.00
546.33	62007.81
546.50	61858.02
546.67	62059.30
546.83	61900.15
547.00	61979.73
547.17	62049.94
547.34	62237.19
547.50	62267.61
547.67	62307.40
547.84	62344.85
548.00	62295.70
548.17	62284.00
548.34	62150.59
548.51	62419.75
548.67	62475.92
548.84	62461.88
549.01	62564.86
549.18	62501.67
549.34	62314.42
549.51	62274.63
549.68	62398.68
549.84	62251.23
550.01	62499.33
550.18	62461.88
550.34	62775.51
550.51	62532.09
550.68	62791.89
550.84	62452.51
551.01	62574.22
551.18	62504.01
551.34	62665.50
551.51	62763.81
551.68	62754.44
551.84	63058.71
552.01	62649.12
552.18	63030.63
552.34	62721.68
552.51	63042.33
552.68	62628.05
552.84	62733.38
553.01	62812.96
553.18	62937.01
553.34	63021.26
553.51	63023.61
553.67	63370.00
553.84	63421.50
554.01	63110.20
554.17	63206.17
554.34	63051.69
554.51	63096.16
554.67	63353.62
554.84	63215.53
555.00	63142.97
555.17	63140.63
555.33	63311.49
555.50	63245.96
555.67	63501.07
555.83	63402.77
556.00	63238.93
556.16	63437.88
556.33	63112.55
556.50	63236.59
556.66	63426.18
556.83	63264.68
556.99	63707.04
557.16	63646.19
557.32	63395.75
557.49	63566.61
557.65	63435.54
557.82	63618.10
557.98	63480.01
558.15	63526.82
558.32	63737.47
558.48	63690.66
558.65	63898.97
558.81	63653.21
558.98	63622.78
559.14	63746.83
559.31	63592.36
559.47	63505.76
559.64	63723.43
559.80	63561.93
559.97	63882.58
560.13	63732.79
560.30	63739.81
560.46	63915.35
560.63	63941.10
560.79	63847.47
560.96	64032.38
561.12	63774.92
561.29	63681.30
561.45	63880.24
561.61	63889.60
561.78	64020.67
561.94	64245.36
562.11	64135.36
562.27	64086.21
562.44	64137.70
562.60	63884.92
562.77	63980.88
562.93	64107.27
563.10	64287.49
563.26	64008.97
563.42	64364.73
563.59	64299.20
563.75	64142.38
563.92	64179.83
564.08	64065.14
564.24	63978.54
564.41	64020.67
564.57	63999.61
564.74	64207.92
564.90	64278.13
565.07	64236.00
565.23	64250.05
565.39	64067.48
565.56	64395.16
565.72	64196.21
565.88	64346.01
566.05	64285.15
566.21	64072.17
566.38	64072.17
566.54	64254.73
566.70	64341.33
566.87	64596.45
567.03	64418.56
567.19	64549.63
567.36	64343.67
567.52	64416.22
567.68	64491.12
567.85	64015.99
568.01	64357.71
568.17	64245.36
568.34	64493.46
568.50	64521.55
568.66	64395.16
568.83	64603.47
568.99	64491.12
569.15	64338.99
569.32	64507.50
569.48	64245.36
569.64	64430.27
569.81	64427.93
569.97	64441.97
570.13	64523.89
570.30	64460.69
570.46	64673.68
570.62	64493.46
570.78	64479.42
570.95	64324.94
571.11	64530.91
571.27	64486.44
571.43	64512.19
571.60	64633.89
571.76	64472.40
571.92	64594.10
572.09	64776.67
572.25	64683.04
572.41	64694.75
572.57	64661.98
572.74	64687.73
572.90	64608.15
573.06	64654.96
573.22	64470.06
573.38	64622.19
573.55	64750.92
573.71	64910.08
573.87	64755.60
574.03	64727.52
574.20	64729.86
574.36	64652.62
574.52	64612.83
574.68	64479.42
574.84	64591.76
575.01	64816.46
575.17	64764.96
575.33	64582.40
575.49	64823.48
575.65	64846.88
575.82	64926.46
575.98	64645.60
576.14	64774.33
576.30	64797.73
576.46	64790.71
576.62	64615.17
576.79	64992.00
576.95	64500.48
577.11	64837.52
577.27	64907.74
577.43	64755.60
577.59	64811.77
577.75	64839.86
577.92	64680.70
578.08	64790.71
578.24	64846.88
578.40	64741.56
578.56	65006.04
578.72	64825.82
578.88	65055.19
579.04	64839.86
579.21	64872.63
579.37	64982.63
579.53	65029.44
579.69	64659.64
579.85	64860.93
580.01	64769.64
580.17	64797.73
580.33	64992.00
580.49	64984.97
580.65	64933.48
580.82	65097.32
580.98	65029.44
581.14	64999.02
581.30	65052.85
581.46	64818.80
581.62	64905.40
581.78	65003.70
581.94	65244.77
582.10	64800.07
582.26	65174.56
582.42	65216.69
582.58	64956.89
582.74	65027.10
582.90	65256.48
583.06	65144.13
583.22	64893.69
583.38	65076.26
583.54	64987.31
583.70	64893.69
583.86	65057.53
584.02	64872.63
584.18	65176.90
584.34	65137.11
584.50	65120.73
584.66	65130.09
584.82	64877.31
584.98	65132.43
585.14	64992.00
585.30	64853.90
585.46	65062.21
585.62	64891.35
585.78	65181.58
585.94	64788.37
586.10	65036.47
586.26	65186.26
586.42	65085.62
586.58	65113.70
586.74	65144.13
586.90	64968.59
587.06	65029.44
587.22	65139.45
587.38	64966.25
587.54	65275.20
587.70	65298.61
587.86	65144.13
588.02	65195.62
588.18	65233.07
588.34	65113.70
588.49	65448.40
