SpectraSuite Data File
++++++++++++++++++++++++++++++++++++
Date: Fri Oct 04 11:39:25 GMT-05:00 2013
User: price-jones
Dark Spectrum Present: No
Reference Spectrum Present: No
Number of Sampled Component Spectra: 1
Spectrometers: USB2+H05261
Integration Time (usec): 100000 (USB2+H05261)
Spectra Averaged: 1 (USB2+H05261)
Boxcar Smoothing: 0 (USB2+H05261)
Correct for Electrical Dark: No (USB2+H05261)
Strobe/Lamp Enabled: No (USB2+H05261)
Correct for Detector Non-linearity: No (USB2+H05261)
Correct for Stray Light: No (USB2+H05261)
Number of Pixels in Processed Spectrum: 2048
>>>>>Begin Processed Spectral Data<<<<<
365.73	65.54
365.92	65.54
366.12	65.54
366.32	25.75
366.52	0.00
366.72	0.00
366.91	0.00
367.11	0.00
367.31	0.00
367.51	0.00
367.70	0.00
367.90	0.00
368.10	0.00
368.30	0.00
368.49	0.00
368.69	0.00
368.89	0.00
369.09	0.00
369.28	0.00
369.48	0.00
369.68	0.00
369.87	0.00
370.07	0.00
370.27	56.17
370.47	74.90
370.66	147.45
370.86	280.86
371.06	325.33
371.25	292.57
371.45	264.48
371.65	292.57
371.84	311.29
372.04	271.50
372.24	252.78
372.44	304.27
372.63	255.12
372.83	355.76
373.03	332.36
373.22	269.16
373.42	220.01
373.62	313.63
373.81	341.72
374.01	287.89
374.21	311.29
374.40	297.25
374.60	381.51
374.79	355.76
374.99	353.42
375.19	297.25
375.38	325.33
375.58	332.36
375.78	388.53
375.97	416.62
376.17	409.59
376.37	327.68
376.56	341.72
376.76	285.55
376.95	322.99
377.15	369.80
377.35	351.08
377.54	315.97
377.74	353.42
377.93	402.57
378.13	400.23
378.33	442.36
378.52	404.91
378.72	369.80
378.91	425.98
379.11	423.64
379.31	383.85
379.50	376.83
379.70	344.06
379.89	390.87
380.09	290.23
380.28	381.51
380.48	367.46
380.68	374.49
380.87	400.23
381.07	433.00
381.26	425.98
381.46	437.68
381.65	341.72
381.85	451.72
382.04	414.27
382.24	468.11
382.43	400.23
382.63	433.00
382.83	362.78
383.02	470.45
383.22	437.68
383.41	442.36
383.61	409.59
383.80	395.55
384.00	524.28
384.19	395.55
384.39	339.38
384.58	411.93
384.78	482.15
384.97	409.59
385.17	489.17
385.36	425.98
385.56	493.85
385.75	496.19
385.95	470.45
386.14	510.24
386.34	479.81
386.53	449.38
386.72	472.79
386.92	578.11
387.11	547.69
387.31	512.58
387.50	519.60
387.70	470.45
387.89	484.49
388.09	442.36
388.28	535.98
388.48	498.53
388.67	500.87
388.86	533.64
389.06	557.05
389.25	552.37
389.45	512.58
389.64	505.56
389.84	638.97
390.03	589.82
390.22	580.45
390.42	547.69
390.61	552.37
390.81	545.34
391.00	538.32
391.19	678.76
391.39	557.05
391.58	585.13
391.78	538.32
391.97	552.37
392.16	608.54
392.36	622.58
392.55	589.82
392.75	645.99
392.94	603.86
393.13	613.22
393.33	524.28
393.52	620.24
393.71	648.33
393.91	615.56
394.10	592.16
394.29	622.58
394.49	650.67
394.68	699.82
394.88	699.82
395.07	685.78
395.26	730.25
395.46	636.63
395.65	692.80
395.84	758.33
396.04	770.04
396.23	638.97
396.42	737.27
396.62	786.42
396.81	770.04
397.00	727.91
397.19	774.72
397.39	760.67
397.58	763.01
397.77	791.10
397.97	802.80
398.16	875.36
398.35	819.19
398.55	807.48
398.74	816.85
398.93	903.45
399.12	910.47
399.32	812.17
399.51	823.87
399.70	903.45
399.90	833.23
400.09	861.32
400.28	891.74
400.47	898.77
400.67	997.07
400.86	933.87
401.05	997.07
401.24	957.28
401.44	1015.79
401.63	1013.45
401.82	1036.86
402.01	999.41
402.21	959.62
402.40	1071.97
402.59	1013.45
402.78	1053.24
402.97	1081.33
403.17	1158.57
403.36	1029.84
403.55	1086.01
403.74	1081.33
403.93	1109.41
404.13	1210.06
404.32	1090.69
404.51	1076.65
404.70	1203.04
404.89	1116.44
405.09	1165.59
405.28	1212.40
405.47	1151.54
405.66	1212.40
405.85	1320.06
406.05	1221.76
406.24	1233.46
406.43	1299.00
406.62	1301.34
406.81	1313.04
407.00	1228.78
407.20	1249.85
407.39	1394.96
407.58	1469.86
407.77	1437.09
407.96	1343.47
408.15	1357.51
408.34	1401.98
408.54	1458.15
408.73	1481.56
408.92	1533.05
409.11	1533.05
409.30	1394.96
409.49	1439.43
409.68	1467.52
409.87	1462.83
410.07	1535.39
410.26	1584.54
410.45	1652.42
410.64	1633.69
410.83	1647.74
411.02	1540.07
411.21	1659.44
411.40	1657.10
411.59	1687.53
411.78	1746.04
411.98	1790.51
412.17	1626.67
412.36	1727.32
412.55	1863.07
412.74	1827.96
412.93	1879.45
413.12	1783.49
413.31	1905.20
413.50	1921.58
413.69	1914.56
413.88	1900.52
414.07	1909.88
414.26	2062.01
414.45	1994.14
414.64	2066.69
414.83	2054.99
415.02	2125.21
415.22	2078.40
415.41	2040.95
415.60	2228.19
415.79	2167.34
415.98	2195.42
416.17	2165.00
416.36	2202.44
416.55	2317.13
416.74	2335.85
416.93	2363.94
417.12	2289.04
417.31	2375.64
417.50	2347.56
417.69	2436.50
417.88	2548.84
418.07	2452.88
418.26	2480.97
418.45	2422.45
418.64	2558.21
418.83	2630.76
419.02	2548.84
419.21	2541.82
419.39	2661.19
419.58	2619.06
419.77	2541.82
419.96	2534.80
420.15	2736.09
420.34	2597.99
420.53	2665.87
420.72	2747.79
420.91	2686.94
421.10	2920.99
421.29	2759.49
421.48	2710.34
421.67	2867.16
421.86	2806.30
422.05	2853.11
422.24	2787.58
422.43	2839.07
422.61	2848.43
422.80	2855.45
422.99	2825.03
423.18	3000.57
423.37	2895.24
423.56	2993.55
423.75	2829.71
423.94	2916.31
424.13	2691.62
424.32	2752.47
424.50	2944.39
424.69	2953.76
424.88	2972.48
425.07	2935.03
425.26	2918.65
425.45	2913.97
425.64	2981.84
425.83	3026.31
426.01	3019.29
426.20	3023.97
426.39	3042.70
426.58	2995.89
426.77	2995.89
426.96	3124.62
427.15	3028.65
427.33	3246.32
427.52	3063.76
427.71	3087.17
427.90	3190.15
428.09	3084.83
428.28	3110.57
428.46	3229.94
428.65	3220.58
428.84	3279.09
429.03	3241.64
429.22	3246.32
429.40	3220.58
429.59	3274.41
429.78	3318.88
429.97	3265.05
430.16	3162.06
430.34	3353.99
430.53	3435.91
430.72	3407.82
430.91	3248.66
431.10	3351.65
431.28	3363.35
431.47	3534.21
431.66	3559.95
431.85	3487.40
432.03	3398.46
432.22	3541.23
432.41	3527.19
432.60	3602.08
432.79	3489.74
432.97	3508.46
433.16	3676.98
433.35	3688.68
433.54	3520.17
433.72	3639.53
433.91	3592.72
434.10	3550.59
434.28	3641.87
434.47	3665.28
434.66	3707.41
434.85	3695.71
435.03	3936.78
435.22	3918.06
435.41	4189.56
435.59	4287.86
435.78	4058.49
435.97	3981.25
436.16	4135.73
436.34	3765.92
436.53	3922.74
436.72	3936.78
436.90	3840.82
437.09	3955.51
437.28	4021.04
437.46	3983.59
437.65	3997.64
437.84	3992.95
438.02	4007.00
438.21	3925.08
438.40	4023.38
438.58	4124.02
438.77	4257.43
438.96	4236.37
439.14	4243.39
439.33	4201.26
439.52	4278.50
439.70	4447.02
439.89	4294.88
440.08	4313.61
440.26	4430.63
440.45	4355.74
440.63	4381.48
440.82	4510.21
441.01	4461.06
441.19	4704.48
441.38	4610.86
441.57	4580.43
441.75	4435.32
441.94	4833.21
442.12	4770.01
442.31	4894.06
442.50	4844.91
442.68	4636.60
442.87	4894.06
443.05	4847.25
443.24	4975.98
443.43	4840.23
443.61	4983.00
443.80	5097.69
443.98	5004.07
444.17	4711.50
444.35	5039.17
444.54	4954.91
444.73	4929.17
444.91	5062.58
445.10	5046.20
445.28	4844.91
445.47	4898.74
445.65	5041.51
445.84	4964.28
446.02	5114.07
446.21	5022.79
446.39	4994.70
446.58	5221.74
446.77	5118.75
446.95	4971.30
447.14	5158.54
447.32	5125.77
447.51	5057.90
447.69	5172.58
447.88	5240.46
448.06	5195.99
448.25	5158.54
448.43	5116.41
448.62	4938.53
448.80	5128.11
448.99	5195.99
449.17	5238.12
449.36	5210.03
449.54	5263.86
449.73	5263.86
449.91	5338.76
450.10	5376.21
450.28	5535.37
450.46	5509.62
450.65	5378.55
450.83	5528.35
451.02	5547.07
451.20	5345.78
451.39	5350.46
451.57	5425.36
451.76	5479.19
451.94	5467.49
452.13	5582.18
452.31	5533.03
452.49	5589.20
452.68	5626.65
452.86	5507.28
453.05	5521.32
453.23	5678.14
453.42	5591.54
453.60	5542.39
453.78	5720.27
453.97	5680.48
454.15	5481.53
454.34	5825.59
454.52	5849.00
454.70	5703.89
454.89	5926.24
455.07	5776.44
455.26	5872.40
455.44	5937.94
455.62	5870.06
455.81	5963.68
455.99	5909.85
456.17	6071.35
456.36	5930.92
456.54	5968.37
456.73	6010.50
456.91	6127.52
457.09	6267.95
457.28	6321.79
457.46	6038.58
457.64	6171.99
457.83	6408.39
458.01	6244.55
458.19	6361.58
458.38	6272.64
458.56	6445.84
458.74	6548.82
458.93	6368.60
459.11	6520.73
459.29	6326.47
459.48	6392.00
459.66	6569.88
459.84	6595.63
460.03	6586.27
460.21	6487.96
460.39	6548.82
460.57	6698.61
460.76	6534.78
460.94	6572.22
461.12	6595.63
461.31	6684.57
461.49	6651.80
461.67	6506.69
461.85	6794.58
462.04	6754.79
462.22	6949.05
462.40	6607.33
462.59	6998.20
462.77	6670.53
462.95	6825.00
463.13	6836.70
463.32	6942.03
463.50	7005.22
463.68	6956.07
463.86	6946.71
464.05	6822.66
464.23	6864.79
464.41	7073.10
464.59	6974.80
464.78	7019.27
464.96	7019.27
465.14	7164.38
465.32	7234.60
465.50	7307.15
465.69	7178.42
465.87	7279.07
466.05	7150.34
466.23	7246.30
466.41	7360.98
466.60	7475.67
466.78	7309.49
466.96	7159.70
467.14	7183.10
467.32	7236.94
467.51	7414.82
467.69	7227.57
467.87	7375.03
468.05	7562.27
468.23	7602.06
468.41	7375.03
468.60	7492.05
468.78	7702.70
468.96	7421.84
469.14	7676.96
469.32	7632.49
469.50	7569.29
469.69	7691.00
469.87	7651.21
470.05	7772.92
470.23	7761.22
470.41	7840.79
470.59	7822.07
470.77	7733.13
470.95	7852.50
471.14	8135.70
471.32	8063.15
471.50	8070.17
471.68	8002.29
471.86	8009.31
472.04	8039.74
472.22	8332.31
472.40	8135.70
472.58	8114.64
472.77	8264.43
472.95	8201.24
473.13	8592.11
473.31	8414.23
473.49	8381.46
473.67	8294.86
473.85	8325.29
474.03	8596.79
474.21	8521.89
474.39	8690.41
474.57	8781.69
474.75	8681.05
474.93	8931.48
475.12	8999.36
475.30	8959.57
475.48	8821.48
475.66	8954.89
475.84	9114.05
476.02	9280.22
476.20	9270.86
476.38	9163.20
476.56	9420.66
476.74	9277.88
476.92	9252.14
477.10	9472.15
477.28	9518.96
477.46	9514.28
477.64	9666.41
477.82	9764.72
478.00	10005.79
478.18	9870.04
478.36	9933.23
478.54	10237.50
478.72	10171.97
478.90	10232.82
479.08	10178.99
479.26	10263.25
479.44	10368.57
479.62	10457.51
479.80	10520.71
479.98	10569.86
480.16	10775.83
480.34	11012.22
480.52	10803.91
480.70	10965.41
480.88	10782.85
481.06	11126.91
481.24	10883.49
481.41	11059.03
481.59	11489.69
481.77	11435.86
481.95	11400.75
482.13	11611.40
482.31	11372.66
482.49	11758.85
482.67	11775.24
482.85	11922.69
483.03	12140.36
483.21	12241.00
483.39	12301.86
483.57	12152.06
483.74	12531.23
483.92	12554.63
484.10	12386.12
484.28	12634.21
484.46	12924.44
484.64	13074.23
484.82	12617.83
485.00	13088.28
485.18	12894.01
485.35	13462.76
485.53	13399.57
485.71	13504.89
485.89	13762.35
486.07	13734.26
486.25	13771.71
486.43	13935.55
486.61	13968.32
486.78	14363.87
486.96	14249.18
487.14	14396.64
487.32	14630.69
487.50	14480.89
487.68	14490.26
487.85	14829.63
488.03	15234.55
488.21	14977.09
488.39	15126.88
488.57	15147.95
488.75	15370.30
488.92	15861.81
489.10	15496.69
489.28	15630.10
489.46	15812.66
489.64	15784.57
489.81	16046.71
489.99	16374.39
490.17	15997.56
490.35	16248.00
490.53	16322.90
490.70	16596.74
490.88	16739.51
491.06	16718.45
491.24	16772.28
491.41	16957.18
491.59	16980.59
491.77	16959.52
491.95	17462.74
492.13	17338.69
492.30	17507.21
492.48	17500.19
492.66	17467.42
492.84	17551.68
493.01	18059.57
493.19	17774.03
493.37	18153.20
493.54	18312.35
493.72	18387.25
493.90	18551.09
494.08	18420.02
494.25	18625.98
494.43	18499.59
494.61	19232.18
494.79	18827.27
494.96	19208.78
495.14	18867.06
495.32	19215.80
495.49	19311.76
495.67	19499.00
495.85	19681.56
496.02	19845.40
496.20	19709.65
496.38	19571.56
496.55	19838.38
496.73	20006.90
496.91	20210.53
497.09	20173.08
497.26	20484.37
497.44	20219.89
497.62	20393.09
497.79	20603.74
497.97	20573.31
498.14	20854.17
498.32	21296.53
498.50	20996.95
498.67	21441.65
498.85	21280.15
499.03	21029.71
499.20	21406.54
499.38	21694.43
499.56	21724.85
499.73	21921.46
499.91	21928.48
500.08	21654.64
500.26	21453.35
500.44	22148.49
500.61	22108.70
500.79	21909.75
500.97	22448.08
501.14	22377.86
501.32	22471.48
501.49	22628.30
501.67	22410.63
501.84	22595.53
502.02	22904.48
502.20	22881.08
502.37	22719.58
502.55	22773.41
502.72	22764.05
502.90	23124.49
503.07	23101.09
503.25	23103.43
503.43	23426.42
503.60	23594.94
503.78	23386.63
503.95	23702.61
504.13	23466.21
504.30	23711.97
504.48	23559.83
504.65	23833.68
504.83	23807.93
505.01	24212.84
505.18	23931.98
505.36	24271.36
505.53	23985.81
505.71	24264.33
505.88	24599.03
506.06	24170.71
506.23	24411.79
506.41	24341.57
506.58	24676.27
506.76	24652.86
506.93	24776.91
507.11	24755.85
507.28	25010.96
507.46	25039.05
507.63	24982.88
507.81	25350.34
507.98	24779.25
508.16	25221.61
508.33	25146.72
508.50	25385.45
508.68	25724.83
508.85	25699.08
509.03	25647.59
509.20	25891.01
509.38	26080.59
509.55	26431.67
509.73	26265.49
509.90	25930.80
510.08	25781.00
510.25	26171.87
510.42	26459.76
510.60	26335.71
510.77	27122.13
510.95	26714.87
511.12	26567.42
511.30	26651.68
511.47	26618.91
511.64	26553.38
511.82	26684.45
511.99	26726.58
512.17	27309.37
512.34	27084.68
512.51	26785.09
512.69	27220.43
512.86	27613.64
513.04	27402.99
513.21	27711.94
513.38	27285.97
513.56	27580.87
513.73	27639.39
513.90	27733.01
514.08	27683.86
514.25	27821.95
514.43	28119.20
514.60	28046.64
514.77	28025.57
514.95	28411.76
515.12	28163.67
515.29	27910.89
515.47	28254.95
515.64	28634.11
515.81	28519.43
515.99	28720.71
516.16	29111.58
516.33	28912.64
516.51	28936.04
516.68	28526.45
516.85	28620.07
517.03	29223.93
517.20	28973.49
517.37	29263.72
517.54	29244.99
517.72	28945.41
517.89	29156.05
518.06	29060.09
518.24	29563.31
518.41	29532.88
518.58	29404.15
518.75	29425.22
518.93	29890.98
519.10	29731.83
519.27	29902.68
519.45	30167.16
519.62	29696.72
519.79	29919.07
519.96	30134.40
520.14	30345.05
520.31	30022.05
520.48	30251.42
520.65	29963.54
520.83	30377.81
521.00	30480.80
521.17	30646.97
521.34	30558.03
521.52	30986.35
521.69	30689.10
521.86	30761.66
522.03	30958.27
522.20	31309.35
522.38	30735.92
522.55	31030.82
522.72	30792.09
522.89	31112.74
523.07	31328.07
523.24	31143.17
523.41	31250.83
523.58	30911.46
523.75	31496.59
523.92	31239.13
524.10	31578.51
524.27	31667.45
524.44	31732.98
524.61	32063.00
524.78	31952.99
524.96	31723.62
525.13	31693.19
525.30	31789.16
525.47	31936.61
525.64	31880.44
525.81	32121.51
525.98	32589.62
526.16	32156.62
526.33	32304.07
526.50	32360.25
526.67	32187.05
526.84	32362.59
527.01	32341.52
527.18	32465.57
527.36	32264.28
527.53	32687.92
527.70	32884.53
527.87	33193.48
528.04	32994.53
528.21	32617.71
528.38	33057.73
528.55	33088.15
528.72	32804.95
528.89	33228.59
529.07	32723.03
529.24	33216.88
529.41	33329.23
529.58	32807.29
529.75	33181.77
529.92	33324.55
530.09	33488.38
530.26	33350.29
530.43	33493.07
530.60	33479.02
530.77	33413.49
530.94	33464.98
531.11	33549.24
531.28	33834.78
531.46	33848.83
531.63	33926.07
531.80	33642.86
531.97	34155.44
532.14	34005.64
532.31	34026.71
532.48	34396.51
532.65	34618.86
532.82	34267.78
532.99	34181.18
533.16	34284.17
533.33	34029.05
533.50	34696.10
533.67	34541.63
533.84	34389.49
534.01	34197.57
534.18	34249.06
534.35	34696.10
534.52	34459.71
534.69	34703.12
534.86	35175.91
535.03	34574.39
535.20	35131.44
535.37	34946.54
535.54	34869.30
535.71	34560.35
535.88	35035.48
536.05	35150.17
536.22	35613.59
536.38	35316.34
536.55	35484.86
536.72	35379.54
536.89	35033.14
537.06	35302.30
537.23	35297.62
537.40	35133.78
537.57	35592.53
537.74	35323.36
537.91	36238.51
538.08	35529.33
538.25	35276.55
538.42	35761.05
538.59	35847.64
538.75	35028.46
538.92	36030.21
539.09	36034.89
539.26	35803.17
539.43	36378.95
539.60	36355.54
539.77	35915.52
539.94	36315.75
540.11	36348.52
540.28	36247.88
540.44	36119.15
540.61	36446.82
540.78	36126.17
540.95	36531.08
541.12	36875.14
541.29	36704.28
541.46	36741.73
541.62	36879.82
541.79	36708.96
541.96	36458.52
542.13	36943.02
542.30	36809.61
542.47	37090.47
542.63	37127.92
542.80	37371.33
542.97	37457.93
543.14	37963.49
543.31	37837.10
543.48	37371.33
543.64	37841.78
543.81	37837.10
543.98	37907.32
544.15	37792.63
544.32	37834.76
544.48	37741.14
544.65	37764.54
544.82	37823.06
544.99	37710.71
545.16	37914.34
545.32	37682.62
545.49	38658.63
545.66	38632.88
545.83	38761.61
546.00	38632.88
546.16	38625.86
546.33	37935.40
546.50	37727.10
546.67	37867.53
546.83	37769.22
547.00	37799.65
547.17	38396.49
547.34	38213.93
547.50	38543.94
547.67	38337.98
547.84	37930.72
548.00	37867.53
548.17	38452.66
548.34	38192.86
548.51	38536.92
548.67	38703.10
548.84	38679.69
549.01	38291.16
549.18	38263.08
549.34	38389.47
549.51	38199.88
549.68	38251.38
549.84	38429.26
550.01	38752.25
550.18	38576.71
550.34	38878.64
550.51	38665.65
550.68	38707.78
550.84	38459.68
551.01	38506.49
551.18	38726.50
551.34	38417.55
551.51	38618.84
551.68	38939.49
551.84	38780.34
552.01	38864.60
552.18	39044.82
552.34	38904.38
552.51	39243.76
552.68	38733.53
552.84	38703.10
553.01	39042.48
553.18	39175.89
553.34	39019.07
553.51	38972.26
553.67	39295.25
553.84	39304.62
554.01	39627.61
554.17	39388.88
554.34	39147.80
554.51	38927.79
554.67	39283.55
554.84	39445.05
555.00	39147.80
555.17	39222.70
555.33	39358.45
555.50	39180.57
555.67	39150.14
555.83	39290.57
556.00	39269.51
556.16	39306.96
556.33	39428.66
556.50	39278.87
556.66	39367.81
556.83	39021.41
556.99	39463.77
557.16	39601.86
557.32	40030.18
557.49	39990.39
557.65	39456.75
557.82	39917.84
557.98	39613.57
558.15	39707.19
558.32	39709.53
558.48	39594.84
558.65	40051.25
558.81	39735.27
558.98	40287.64
559.14	39707.19
559.31	39573.78
559.47	39276.53
559.64	40304.02
559.80	40301.68
559.97	39952.94
560.13	40013.80
560.30	40280.62
560.46	39770.38
560.63	40603.61
560.79	40467.86
560.96	40112.10
561.12	39875.71
561.29	40069.97
561.45	40196.36
561.61	40355.52
561.78	40044.23
561.94	40542.76
562.11	40348.50
562.27	40172.96
562.44	40165.93
562.60	39976.35
562.77	40383.60
562.93	40233.81
563.10	40830.65
563.26	40184.66
563.42	40825.96
563.59	40306.37
563.75	40018.48
563.92	40477.22
564.08	40442.12
564.24	40552.12
564.41	40081.67
564.57	40065.29
564.74	40257.21
564.90	40397.65
565.07	40451.48
565.23	40711.28
565.39	40231.47
565.56	40392.97
565.72	40215.08
565.88	40404.67
566.05	40289.98
566.21	40086.36
566.38	40481.91
566.54	40196.36
566.70	40886.82
566.87	40662.13
567.03	40353.18
567.19	40659.79
567.36	40914.90
567.52	40130.83
567.68	40821.28
567.85	40369.56
568.01	40325.09
568.17	40605.95
568.34	41013.21
568.50	40891.50
568.66	40591.91
568.83	40526.38
568.99	40350.84
569.15	40479.57
569.32	40194.02
569.48	40341.47
569.64	40715.96
569.81	40671.49
569.97	40566.16
570.13	40886.82
570.30	40329.77
570.46	40605.95
570.62	40566.16
570.78	40154.23
570.95	40334.45
571.11	40517.01
571.27	40285.30
571.43	40360.20
571.60	40898.52
571.76	40610.64
571.92	40715.96
572.09	40842.35
572.25	41050.66
572.41	40601.27
572.57	40877.46
572.74	40886.82
572.90	40996.82
573.06	40573.19
573.22	40643.40
573.38	40872.78
573.55	40917.25
573.71	41076.40
573.87	41127.89
574.03	40966.40
574.20	40868.09
574.36	40622.34
574.52	40877.46
574.68	40727.66
574.84	40795.54
575.01	40896.18
575.17	41113.85
575.33	40964.06
575.49	41160.66
575.65	41106.83
575.82	40865.75
575.98	41053.00
576.14	41024.91
576.30	40737.02
576.46	40772.13
576.62	40627.02
576.79	40870.43
576.95	41256.62
577.11	41127.89
577.27	40886.82
577.43	41099.81
577.59	40690.21
577.75	40722.98
577.92	40594.25
578.08	40627.02
578.24	41064.70
578.40	40919.59
578.56	41408.76
578.72	41029.59
578.88	41694.30
579.04	41251.94
579.21	40966.40
579.37	41013.21
579.53	40748.73
579.69	40851.71
579.85	40886.82
580.01	40863.41
580.17	40907.88
580.33	40924.27
580.49	41041.29
580.65	41436.84
580.82	41053.00
580.98	41118.53
581.14	40914.90
581.30	41359.61
581.46	40905.54
581.62	40872.78
581.78	40921.93
581.94	40992.14
582.10	40776.81
582.26	41373.65
582.42	41071.72
582.58	41177.04
582.74	41151.30
582.90	41186.41
583.06	40959.38
583.22	40739.36
583.38	40781.49
583.54	40952.35
583.70	41062.36
583.86	41141.94
584.02	40772.13
584.18	41701.32
584.34	41418.12
584.50	41336.20
584.66	41406.42
584.82	40856.39
584.98	41277.69
585.14	40975.76
585.30	41067.04
585.46	41090.44
585.62	40636.38
585.78	41031.93
585.94	40772.13
586.10	41434.50
586.26	41310.46
586.42	41605.36
586.58	40954.69
586.74	40823.62
586.90	41064.70
587.06	40690.21
587.22	41434.50
587.38	40676.17
587.54	41329.18
587.70	41682.60
587.86	41188.75
588.02	41450.89
588.18	41603.02
588.34	41652.17
588.49	41411.10
588.65	40671.49
588.81	41380.67
588.97	41085.76
589.13	41305.77
589.29	40804.90
589.45	41205.13
589.61	41607.70
589.77	41373.65
589.93	41605.36
590.08	41778.56
590.24	41764.52
590.40	41631.11
590.56	41368.97
590.72	41263.64
590.88	41256.62
591.04	41043.63
