SpectraSuite Data File
++++++++++++++++++++++++++++++++++++
Date: Fri Oct 04 11:39:22 GMT-05:00 2013
User: price-jones
Dark Spectrum Present: No
Reference Spectrum Present: No
Number of Sampled Component Spectra: 1
Spectrometers: USB2+H05261
Integration Time (usec): 100000 (USB2+H05261)
Spectra Averaged: 1 (USB2+H05261)
Boxcar Smoothing: 0 (USB2+H05261)
Correct for Electrical Dark: No (USB2+H05261)
Strobe/Lamp Enabled: No (USB2+H05261)
Correct for Detector Non-linearity: No (USB2+H05261)
Correct for Stray Light: No (USB2+H05261)
Number of Pixels in Processed Spectrum: 2048
>>>>>Begin Processed Spectral Data<<<<<
365.73	51.49
365.92	51.49
366.12	51.49
366.32	0.00
366.52	0.00
366.72	0.00
366.91	0.00
367.11	0.00
367.31	0.00
367.51	0.00
367.70	0.00
367.90	0.00
368.10	0.00
368.30	0.00
368.49	0.00
368.69	0.00
368.89	0.00
369.09	0.00
369.28	42.13
369.48	2.34
369.68	2.34
369.87	0.00
370.07	0.00
370.27	4.68
370.47	93.62
370.66	194.26
370.86	168.52
371.06	248.10
371.25	276.18
371.45	224.69
371.65	313.63
371.84	205.97
372.04	341.72
372.24	262.14
372.44	353.42
372.63	388.53
372.83	409.59
373.03	358.10
373.22	315.97
373.42	339.38
373.62	320.65
373.81	390.87
374.01	304.27
374.21	428.32
374.40	449.38
374.60	437.68
374.79	330.02
374.99	332.36
375.19	411.93
375.38	402.57
375.58	425.98
375.78	390.87
375.97	369.80
376.17	423.64
376.37	393.21
376.56	449.38
376.76	367.46
376.95	386.19
377.15	421.30
377.35	449.38
377.54	369.80
377.74	479.81
377.93	428.32
378.13	498.53
378.33	451.72
378.52	444.70
378.72	449.38
378.91	407.25
379.11	379.17
379.31	411.93
379.50	315.97
379.70	498.53
379.89	493.85
380.09	454.06
380.28	500.87
380.48	440.02
380.68	355.76
380.87	367.46
381.07	505.56
381.26	524.28
381.46	456.40
381.65	500.87
381.85	397.89
382.04	468.11
382.24	472.79
382.43	421.30
382.63	383.85
382.83	454.06
383.02	491.51
383.22	557.05
383.41	489.17
383.61	535.98
383.80	524.28
384.00	491.51
384.19	543.00
384.39	484.49
384.58	489.17
384.78	550.03
384.97	491.51
385.17	610.88
385.36	559.39
385.56	521.94
385.75	519.60
385.95	564.07
386.14	521.94
386.34	512.58
386.53	571.09
386.72	484.49
386.92	540.66
387.11	596.84
387.31	510.24
387.50	582.79
387.70	557.05
387.89	545.34
388.09	545.34
388.28	617.90
388.48	587.47
388.67	615.56
388.86	578.11
389.06	624.92
389.25	664.71
389.45	617.90
389.64	606.20
389.84	664.71
390.03	629.60
390.22	650.67
390.42	564.07
390.61	624.92
390.81	561.73
391.00	557.05
391.19	685.78
391.39	676.41
391.58	777.06
391.78	580.45
391.97	678.76
392.16	610.88
392.36	784.08
392.55	718.54
392.75	636.63
392.94	615.56
393.13	653.01
393.33	720.88
393.52	758.33
393.71	674.07
393.91	770.04
394.10	685.78
394.29	697.48
394.49	753.65
394.68	795.78
394.88	833.23
395.07	837.91
395.26	727.91
395.46	840.25
395.65	800.46
395.84	770.04
396.04	903.45
396.23	842.59
396.42	861.32
396.62	814.51
396.81	842.59
397.00	791.10
397.19	873.02
397.39	828.55
397.58	905.79
397.77	894.08
397.97	877.70
398.16	882.38
398.35	936.21
398.55	901.11
398.74	994.73
398.93	1022.81
399.12	931.53
399.32	1008.77
399.51	933.87
399.70	940.90
399.90	994.73
400.09	987.71
400.28	1011.11
400.47	1018.13
400.67	1032.18
400.86	1069.62
401.05	1029.84
401.24	983.02
401.44	1123.46
401.63	1029.84
401.82	1095.37
402.01	1125.80
402.21	1053.24
402.40	1170.27
402.59	1074.31
402.78	1156.22
402.97	1179.63
403.17	1076.65
403.36	1116.44
403.55	1142.18
403.74	1163.25
403.93	1277.93
404.13	1364.53
404.32	1273.25
404.51	1355.17
404.70	1380.92
404.89	1259.21
405.09	1348.15
405.28	1348.15
405.47	1268.57
405.66	1338.79
405.85	1376.24
406.05	1336.45
406.24	1376.24
406.43	1469.86
406.62	1465.18
406.81	1458.15
407.00	1423.05
407.20	1437.09
407.39	1467.52
407.58	1483.90
407.77	1504.96
407.96	1472.20
408.15	1533.05
408.34	1596.25
408.54	1586.88
408.73	1673.48
408.92	1605.61
409.11	1621.99
409.30	1514.33
409.49	1619.65
409.68	1612.63
409.87	1652.42
410.07	1734.34
410.26	1652.42
410.45	1757.74
410.64	1830.30
410.83	1823.28
411.02	1699.23
411.21	1853.70
411.40	1741.36
411.59	1886.47
411.78	1853.70
411.98	1790.51
412.17	1926.26
412.36	1944.99
412.55	2106.48
412.74	1989.46
412.93	1970.73
413.12	1926.26
413.31	2099.46
413.50	1984.77
413.69	2050.31
413.88	2129.89
414.07	2083.08
414.26	2258.62
414.45	2183.72
414.64	2150.95
414.83	2375.64
415.02	2272.66
415.22	2298.41
415.41	2282.02
415.60	2324.15
415.79	2420.11
415.98	2270.32
416.17	2436.50
416.36	2335.85
416.55	2473.95
416.74	2443.52
416.93	2534.80
417.12	2590.97
417.31	2544.16
417.50	2630.76
417.69	2647.15
417.88	2656.51
418.07	2457.56
418.26	2602.68
418.45	2633.10
418.64	2785.24
418.83	2689.28
419.02	2630.76
419.21	2764.17
419.39	2761.83
419.58	2736.09
419.77	2752.47
419.96	2930.35
420.15	2960.78
420.34	2825.03
420.53	2895.24
420.72	3056.74
420.91	2878.86
421.10	2970.14
421.29	3002.91
421.48	2965.46
421.67	3038.02
421.86	3066.10
422.05	2981.84
422.24	3007.59
422.43	3066.10
422.61	3056.74
422.80	3089.51
422.99	3157.38
423.18	3131.64
423.37	3173.77
423.56	3075.46
423.75	3232.28
423.94	3115.25
424.13	3019.29
424.32	2995.89
424.50	3169.09
424.69	3178.45
424.88	3276.75
425.07	3218.24
425.26	3192.49
425.45	3152.70
425.64	3253.34
425.83	3173.77
426.01	3180.79
426.20	3232.28
426.39	3222.92
426.58	3094.19
426.77	3253.34
426.96	3201.85
427.15	3155.04
427.33	3255.69
427.52	3190.15
427.71	3169.09
427.90	3279.09
428.09	3213.56
428.28	3396.12
428.46	3309.52
428.65	3393.78
428.84	3508.46
429.03	3506.12
429.22	3459.31
429.40	3419.52
429.59	3543.57
429.78	3438.25
429.97	3349.31
430.16	3393.78
430.34	3595.06
430.53	3618.47
430.72	3456.97
430.91	3527.19
431.10	3599.74
431.28	3599.74
431.47	3653.58
431.66	3627.83
431.85	3602.08
432.03	3845.50
432.22	3838.48
432.41	3768.26
432.60	3878.27
432.79	3648.90
432.97	3824.44
433.16	3777.62
433.35	3889.97
433.54	3847.84
433.72	3953.16
433.91	3864.22
434.10	3920.40
434.28	3796.35
434.47	3932.10
434.66	3992.95
434.85	4109.98
435.03	4126.36
435.22	4105.30
435.41	4559.36
435.59	4447.02
435.78	4360.42
435.97	4248.07
436.16	4170.83
436.34	4182.54
436.53	4231.69
436.72	4091.26
436.90	4283.18
437.09	4283.18
437.28	4126.36
437.46	4180.20
437.65	4332.33
437.84	4315.95
438.02	4245.73
438.21	4234.03
438.40	4194.24
438.58	4362.76
438.77	4465.74
438.96	4372.12
439.14	4533.62
439.33	4573.41
439.52	4650.64
439.70	4660.01
439.89	4664.69
440.08	4624.90
440.26	4711.50
440.45	4713.84
440.63	4716.18
440.82	4734.90
441.01	4720.86
441.19	4964.28
441.38	5125.77
441.57	5008.75
441.75	4940.87
441.94	5139.82
442.12	5128.11
442.31	5128.11
442.50	5069.60
442.68	5053.22
442.87	5151.52
443.05	5165.56
443.24	5114.07
443.43	5284.93
443.61	5198.33
443.80	5275.57
443.98	5055.56
444.17	5062.58
444.35	5266.21
444.54	5427.70
444.73	5336.42
444.91	5392.59
445.10	5350.46
445.28	5235.78
445.47	5298.97
445.65	5357.49
445.84	5495.58
446.02	5437.06
446.21	5203.01
446.39	5359.83
446.58	5371.53
446.77	5490.90
446.95	5355.15
447.14	5420.68
447.32	5537.71
447.51	5455.79
447.69	5383.23
447.88	5628.99
448.06	5460.47
448.25	5327.06
448.43	5596.22
448.62	5549.41
448.80	5432.38
448.99	5401.96
449.17	5551.75
449.36	5526.00
449.54	5851.34
449.73	5708.57
449.91	5717.93
450.10	5701.54
450.28	6012.84
450.46	5776.44
450.65	5727.29
450.83	5830.27
451.02	5727.29
451.20	5748.36
451.39	6059.65
451.57	5830.27
451.76	5858.36
451.94	5919.21
452.13	6005.81
452.31	6045.60
452.49	5832.62
452.68	6080.71
452.86	6120.50
453.05	6134.54
453.23	5991.77
453.42	5994.11
453.60	5966.03
453.78	6022.20
453.97	6050.28
454.15	5844.32
454.34	6010.50
454.52	6239.87
454.70	6129.86
454.89	6228.17
455.07	6267.95
455.26	6401.37
455.44	6375.62
455.62	6354.55
455.81	6277.32
455.99	6370.94
456.17	6270.30
456.36	6394.34
456.54	6487.96
456.73	6621.38
456.91	6656.48
457.09	6719.68
457.28	6736.06
457.46	6614.35
457.64	6677.55
457.83	6530.09
458.01	6682.23
458.19	6766.49
458.38	6656.48
458.56	6745.42
458.74	6815.64
458.93	6731.38
459.11	6930.33
459.29	6722.02
459.48	6998.20
459.66	6764.15
459.84	7045.01
460.03	7117.57
460.21	7119.91
460.39	6937.35
460.57	6899.90
460.76	6979.48
460.94	7140.97
461.12	6995.86
461.31	7066.08
461.49	6995.86
461.67	7023.95
461.85	7225.23
462.04	7152.68
462.22	7726.11
462.40	7379.71
462.59	7316.51
462.77	7407.80
462.95	7353.96
463.13	7206.51
463.32	7283.75
463.50	7440.56
463.68	7400.77
463.86	7463.97
464.05	7473.33
464.23	7531.84
464.41	7494.40
464.59	7431.20
464.78	7737.81
464.96	7522.48
465.14	7581.00
465.32	7758.88
465.50	7864.20
465.69	7826.75
465.87	7686.32
466.05	7775.26
466.23	7747.17
466.41	7763.56
466.60	7824.41
466.78	7632.49
466.96	7616.10
467.14	7707.38
467.32	7728.45
467.51	8177.83
467.69	7707.38
467.87	7859.52
468.05	7915.69
468.23	7871.22
468.41	7932.08
468.60	7922.71
468.78	8287.84
468.96	7939.10
469.14	8116.98
469.32	8135.70
469.50	7880.58
469.69	8138.04
469.87	8266.77
470.05	8334.65
470.23	8135.70
470.41	8334.65
470.59	8294.86
470.77	8369.76
470.95	8308.90
471.14	8507.85
471.32	8454.02
471.50	8739.56
471.68	8692.75
471.86	8545.30
472.04	8596.79
472.22	8826.16
472.40	8767.65
472.58	8685.73
472.77	8894.04
472.95	9025.11
473.13	9064.89
473.31	8957.23
473.49	8929.14
473.67	8982.98
473.85	8894.04
474.03	9121.07
474.21	9205.33
474.39	9270.86
474.57	9238.09
474.75	9390.23
474.93	9387.89
475.12	9408.95
475.30	9511.94
475.48	9385.55
475.66	9628.96
475.84	9664.07
476.02	9682.80
476.20	9750.67
476.38	9858.34
476.56	10066.64
476.74	10033.88
476.92	10167.29
477.10	9963.66
477.28	10291.34
477.46	10092.39
477.64	10319.42
477.82	10345.17
478.00	10640.08
478.18	10590.92
478.36	10743.06
478.54	10684.55
478.72	11176.06
478.90	10970.09
479.08	11026.26
479.26	11150.31
479.44	11101.16
479.62	11246.27
479.80	11499.05
479.98	11517.78
480.16	11644.17
480.34	11477.99
480.52	11667.57
480.70	11548.20
480.88	11564.59
481.06	11655.87
481.24	11859.49
481.41	12131.00
481.59	12170.79
481.77	12322.92
481.95	12402.50
482.13	12273.77
482.31	12334.62
482.49	12613.15
482.67	12662.30
482.85	12727.83
483.03	12802.73
483.21	13245.09
483.39	12971.25
483.57	13041.46
483.74	13429.99
483.92	13465.10
484.10	13343.39
484.28	13390.20
484.46	13942.57
484.64	13968.32
484.82	13816.18
485.00	13797.46
485.18	14394.29
485.35	14251.52
485.53	14387.27
485.71	14420.04
485.89	14902.19
486.07	14789.85
486.25	14850.70
486.43	14548.77
486.61	15147.95
486.78	15103.48
486.96	15246.25
487.14	15501.37
487.32	15386.68
487.50	15634.78
487.68	15602.01
487.85	16210.55
488.03	16081.82
488.21	16105.23
488.39	16196.51
488.57	16563.97
488.75	16444.60
488.92	16823.77
489.10	17092.93
489.28	16961.86
489.46	16926.75
489.64	16917.39
489.81	17170.17
489.99	17371.46
490.17	17668.70
490.35	17486.14
490.53	17596.15
490.70	17954.25
490.88	18125.11
491.06	18204.69
491.24	18082.98
491.41	18026.81
491.59	18333.42
491.77	18436.40
491.95	18352.14
492.13	18534.70
492.30	18773.44
492.48	18686.84
492.66	19183.03
492.84	19119.84
493.01	19281.33
493.19	19508.37
493.37	19613.69
493.54	19667.52
493.72	19948.39
493.90	19599.65
494.08	20187.12
494.25	20063.07
494.43	20135.63
494.61	20503.09
494.79	20393.09
494.96	20673.95
495.14	20603.74
495.32	21003.97
495.49	20833.11
495.67	20999.29
495.85	21081.21
496.02	21207.59
496.20	21397.18
496.38	21415.90
496.55	21252.06
496.73	21820.81
496.91	21619.53
497.09	21853.58
497.26	22209.34
497.44	21783.37
497.62	22251.47
497.79	22387.22
497.97	22377.86
498.14	22738.30
498.32	22644.68
498.50	22768.73
498.67	22747.67
498.85	22661.07
499.03	22761.71
499.20	23019.17
499.38	23183.01
499.56	23428.76
499.73	23138.54
499.91	23676.86
500.08	23770.48
500.26	23269.61
500.44	23620.69
500.61	23775.16
500.79	23634.73
500.97	23962.40
501.14	24250.29
501.32	24357.96
501.49	24163.69
501.67	24261.99
501.84	24151.99
502.02	24814.36
502.20	24582.65
502.37	24718.40
502.55	24809.68
502.72	24442.21
502.90	24687.97
503.07	24868.19
503.25	25125.65
503.43	24931.39
503.60	25095.22
503.78	25296.51
503.95	25153.74
504.13	25415.88
504.30	25429.92
504.48	25495.46
504.65	25537.59
504.83	25809.09
505.01	26389.54
505.18	25551.63
505.36	26478.48
505.53	26132.08
505.71	26281.88
505.88	26080.59
506.06	26300.60
506.23	26710.19
506.41	26520.61
506.58	26632.96
506.76	26939.57
506.93	26761.69
507.11	26555.72
507.28	26703.17
507.46	26995.74
507.63	27087.02
507.81	27463.85
507.98	27159.58
508.16	27201.71
508.33	27356.18
508.50	27321.07
508.68	27580.87
508.85	27559.81
509.03	27878.12
509.20	27974.08
509.38	27859.40
509.55	28591.98
509.73	28549.85
509.90	28130.90
510.08	28093.45
510.25	28163.67
510.42	28341.55
510.60	28514.75
510.77	28657.52
510.95	28720.71
511.12	28613.05
511.30	28580.28
511.47	29228.61
511.64	28886.89
511.82	29043.71
511.99	29235.63
512.17	28987.53
512.34	29235.63
512.51	29504.79
512.69	29457.98
512.86	29387.77
513.04	29589.05
513.21	29488.41
513.38	29317.55
513.56	29659.27
513.73	29516.50
513.90	29785.66
514.08	29692.04
514.25	30242.06
514.43	30403.56
514.60	30218.66
514.77	30623.57
514.95	30457.39
515.12	30146.10
515.29	30185.89
515.47	30377.81
515.64	30644.63
515.81	30871.67
515.99	31000.40
516.16	30976.99
516.33	30869.33
516.51	31454.46
516.68	30916.14
516.85	30759.32
517.03	31559.78
517.20	31225.09
517.37	31681.49
517.54	31578.51
517.72	31695.53
517.89	31756.39
518.06	31353.82
518.24	31468.50
518.41	31409.99
518.58	32016.19
518.75	31634.68
518.93	32126.19
519.10	31871.07
519.27	31985.76
519.45	32297.05
519.62	32032.57
519.79	32271.31
519.96	32470.25
520.14	33048.36
520.31	32367.27
520.48	32664.52
520.65	32627.07
520.83	32613.02
521.00	33116.24
521.17	32563.87
521.34	32837.72
521.52	32781.54
521.69	33031.98
521.86	33090.49
522.03	33401.79
522.20	33354.97
522.38	33434.55
522.55	33731.80
522.72	33525.83
522.89	33619.46
523.07	33935.43
523.24	33703.71
523.41	33862.87
523.58	33769.25
523.75	34082.88
523.92	33549.24
524.10	34143.74
524.27	34539.29
524.44	34506.52
524.61	34487.79
524.78	34244.38
524.96	34443.32
525.13	34480.77
525.30	34483.11
525.47	34773.34
525.64	34623.54
525.81	35108.04
525.98	35037.82
526.16	34588.44
526.33	34710.14
526.50	35243.79
526.67	34398.85
526.84	34948.88
527.01	34911.43
527.18	35035.48
527.36	35171.23
527.53	35140.80
527.70	35569.12
527.87	35494.22
528.04	35222.72
528.21	35398.26
528.38	35452.09
528.55	35964.67
528.72	35576.14
528.89	35810.20
529.07	35931.90
529.24	35587.85
529.41	36027.87
529.58	35709.55
529.75	35512.95
529.92	35943.61
530.09	35847.64
530.26	36133.19
530.43	35948.29
530.60	35831.26
530.77	36367.24
530.94	36491.29
531.11	36119.15
531.28	36465.55
531.46	36715.98
531.63	36367.24
531.80	36891.52
531.97	36844.71
532.14	36795.56
532.31	36711.30
532.48	36650.45
532.65	36907.91
532.82	36900.89
532.99	36924.29
533.16	36980.46
533.33	37179.41
533.50	37560.92
533.67	37258.99
533.84	37390.06
534.01	37504.74
534.18	37076.43
534.35	37242.60
534.52	37273.03
534.69	37628.79
534.86	37820.72
535.03	37717.73
535.20	37937.74
535.37	37778.59
535.54	37867.53
535.71	37666.24
535.88	38014.98
536.05	37689.65
536.22	37947.11
536.38	38712.46
536.55	38256.06
536.72	38043.07
536.89	38057.11
537.06	37984.55
537.23	38281.80
537.40	37949.45
537.57	37886.25
537.74	38237.33
537.91	39086.95
538.08	38852.89
538.25	38473.73
538.42	38527.56
538.59	38679.69
538.75	38616.50
538.92	38686.71
539.09	38714.80
539.26	38827.15
539.43	38918.43
539.60	39278.87
539.77	39370.15
539.94	39505.90
540.11	38986.30
540.28	39559.73
540.44	39213.34
540.61	39412.28
540.78	39438.03
540.95	39150.14
541.12	39498.88
541.29	39826.56
541.46	39917.84
541.62	39323.34
541.79	39807.83
541.96	39721.23
542.13	39643.99
542.30	39849.96
542.47	40048.91
542.63	40165.93
542.80	40261.90
542.97	40357.86
543.14	40627.02
543.31	40488.93
543.48	40531.06
543.64	40610.64
543.81	40549.78
543.98	40559.14
544.15	40655.11
544.32	40861.07
544.48	40786.18
544.65	40601.27
544.82	40706.60
544.99	40552.12
545.16	40477.22
545.32	40730.00
545.49	41593.66
545.66	42351.99
545.83	42162.41
546.00	42246.67
546.16	41535.15
546.33	41315.14
546.50	40568.51
546.67	40861.07
546.83	40233.81
547.00	41076.40
547.17	40699.58
547.34	41294.07
547.50	41200.45
547.67	41530.47
547.84	41071.72
548.00	41628.77
548.17	41422.80
548.34	41233.22
548.51	41603.02
548.67	41663.88
548.84	41514.08
549.01	41366.63
549.18	41415.78
549.34	41502.38
549.51	41247.26
549.68	41825.37
549.84	41785.58
550.01	41656.85
550.18	41689.62
550.34	41808.99
550.51	42064.11
550.68	42176.45
550.84	42115.60
551.01	42080.49
551.18	41684.94
551.34	41329.18
551.51	41375.99
551.68	41998.57
551.84	41832.39
552.01	41825.37
552.18	41956.44
552.34	41970.49
552.51	41895.59
552.68	42038.36
552.84	41738.77
553.01	42080.49
553.18	41806.65
553.34	42071.13
553.51	42188.16
553.67	42190.50
553.84	42316.89
554.01	42745.20
554.17	42550.94
554.34	42333.27
554.51	42286.46
554.67	42040.70
554.84	42548.60
555.00	42497.11
555.17	42452.64
555.33	42513.49
555.50	42466.68
555.67	42850.53
555.83	42548.60
556.00	42546.26
556.16	43463.75
556.33	42483.06
556.50	42483.06
556.66	43091.60
556.83	42843.51
556.99	42988.62
557.16	43007.34
557.32	42827.12
557.49	43210.97
557.65	42607.11
557.82	42632.86
557.98	42480.72
558.15	42380.08
558.32	43232.04
558.48	43028.41
558.65	43098.62
558.81	43157.14
558.98	43023.73
559.14	43143.09
559.31	42712.44
559.47	42955.85
559.64	42878.61
559.80	43082.24
559.97	43344.38
560.13	43042.45
560.30	43414.60
560.46	43564.39
560.63	43885.04
560.79	43154.80
560.96	43447.36
561.12	43124.37
561.29	43269.48
561.45	43627.59
561.61	43487.15
561.78	43756.32
561.94	43590.14
562.11	43973.98
562.27	43323.32
562.44	43515.24
562.60	43466.09
562.77	43168.84
562.93	43639.29
563.10	43501.20
563.26	43409.92
563.42	44240.81
563.59	43924.83
563.75	44109.74
563.92	43735.25
564.08	43473.11
564.24	43533.96
564.41	43370.13
564.57	43599.50
564.74	43672.06
564.90	44016.11
565.07	43756.32
565.23	43948.24
565.39	43655.67
565.56	43695.46
565.72	43676.74
565.88	43540.99
566.05	43913.13
566.21	43658.01
566.38	43866.32
566.54	44151.87
566.70	44304.00
566.87	44062.93
567.03	43885.04
567.19	44112.08
567.36	44254.85
567.52	43732.91
567.68	44023.14
567.85	43863.98
568.01	44013.77
568.17	44009.09
568.34	44086.33
568.50	44095.69
568.66	43854.62
568.83	44208.04
568.99	43601.84
569.15	43910.79
569.32	44355.49
569.48	43995.05
569.64	44091.01
569.81	43948.24
569.97	43786.74
570.13	43948.24
570.30	44123.78
570.46	44247.83
570.62	44376.56
570.78	43737.59
570.95	43873.34
571.11	44219.74
571.27	43915.47
571.43	43812.49
571.60	43854.62
571.76	44133.14
571.92	44088.67
572.09	44472.52
572.25	44491.24
572.41	44706.57
572.57	43992.71
572.74	44442.09
572.90	44156.55
573.06	44053.56
573.22	44339.11
573.38	44037.18
573.55	44273.57
573.71	44713.59
573.87	44472.52
574.03	44135.48
574.20	44161.23
574.36	44196.34
574.52	44121.44
574.68	44364.85
574.84	44507.63
575.01	44500.61
575.17	44165.91
575.33	44203.36
575.49	44095.69
575.65	44418.69
575.82	44521.67
575.98	44430.39
576.14	44376.56
576.30	43908.45
576.46	44762.75
576.62	44025.48
576.79	44645.72
576.95	44261.87
577.11	44655.08
577.27	44685.51
577.43	44886.79
577.59	44287.62
577.75	44378.90
577.92	44074.63
578.08	44179.95
578.24	44353.15
578.40	44533.37
578.56	44313.36
578.72	44680.83
578.88	45116.17
579.04	44949.99
579.21	44648.06
579.37	44566.14
579.53	44910.20
579.69	44217.40
579.85	44795.51
580.01	44086.33
580.17	44222.08
580.33	44437.41
580.49	44367.20
580.65	44477.20
580.82	44575.50
580.98	44582.52
581.14	44334.43
581.30	44755.72
581.46	44992.12
581.62	44491.24
581.78	44404.64
581.94	44531.03
582.10	44538.05
582.26	44421.03
582.42	44580.18
582.58	44825.94
582.74	44610.61
582.90	44388.26
583.06	44999.14
583.22	44404.64
583.38	44526.35
583.54	44722.96
583.70	44495.92
583.86	44638.70
584.02	44320.38
584.18	44318.04
584.34	44924.24
584.50	45127.87
584.66	44500.61
584.82	44430.39
584.98	44287.62
585.14	44701.89
585.30	44385.92
585.46	44699.55
585.62	44556.78
585.78	44708.91
585.94	44669.12
586.10	44898.50
586.26	44423.37
586.42	45209.79
586.58	45064.67
586.74	44435.07
586.90	44378.90
587.06	44341.45
587.22	44861.05
587.38	44547.42
587.54	44861.05
587.70	45001.48
587.86	44919.56
588.02	44720.62
588.18	45233.19
588.34	45177.02
588.49	45006.16
588.65	44886.79
588.81	44931.26
588.97	45347.88
589.13	44554.44
589.29	44666.78
589.45	44900.84
589.61	45125.53
589.77	45394.69
589.93	45139.57
590.08	44971.05
590.24	44914.88
590.40	45251.92
590.56	45038.93
590.72	44741.68
590.88	44545.08
