SpectraSuite Data File
++++++++++++++++++++++++++++++++++++
Date: Fri Oct 04 11:39:15 GMT-05:00 2013
User: price-jones
Dark Spectrum Present: No
Reference Spectrum Present: No
Number of Sampled Component Spectra: 1
Spectrometers: USB2+H05261
Integration Time (usec): 100000 (USB2+H05261)
Spectra Averaged: 1 (USB2+H05261)
Boxcar Smoothing: 0 (USB2+H05261)
Correct for Electrical Dark: No (USB2+H05261)
Strobe/Lamp Enabled: No (USB2+H05261)
Correct for Detector Non-linearity: No (USB2+H05261)
Correct for Stray Light: No (USB2+H05261)
Number of Pixels in Processed Spectrum: 2048
>>>>>Begin Processed Spectral Data<<<<<
365.73	88.94
365.92	88.94
366.12	88.94
366.32	42.13
366.52	0.00
366.72	7.02
366.91	0.00
367.11	0.00
367.31	0.00
367.51	0.00
367.70	0.00
367.90	0.00
368.10	0.00
368.30	0.00
368.49	0.00
368.69	0.00
368.89	0.00
369.09	0.00
369.28	0.00
369.48	0.00
369.68	0.00
369.87	0.00
370.07	0.00
370.27	152.13
370.47	72.56
370.66	149.79
370.86	217.67
371.06	308.95
371.25	308.95
371.45	189.58
371.65	194.26
371.84	271.50
372.04	229.37
372.24	252.78
372.44	294.91
372.63	250.44
372.83	344.06
373.03	278.52
373.22	243.42
373.42	285.55
373.62	271.50
373.81	367.46
374.01	393.21
374.21	332.36
374.40	332.36
374.60	381.51
374.79	327.68
374.99	327.68
375.19	379.17
375.38	430.66
375.58	351.08
375.78	365.12
375.97	318.31
376.17	414.27
376.37	290.23
376.56	325.33
376.76	280.86
376.95	280.86
377.15	374.49
377.35	404.91
377.54	301.93
377.74	348.74
377.93	308.95
378.13	353.42
378.33	386.19
378.52	339.38
378.72	351.08
378.91	430.66
379.11	390.87
379.31	315.97
379.50	372.15
379.70	390.87
379.89	390.87
380.09	386.19
380.28	372.15
380.48	414.27
380.68	365.12
380.87	358.10
381.07	423.64
381.26	360.44
381.46	362.78
381.65	397.89
381.85	430.66
382.04	409.59
382.24	491.51
382.43	458.74
382.63	404.91
382.83	353.42
383.02	416.62
383.22	423.64
383.41	381.51
383.61	454.06
383.80	388.53
384.00	421.30
384.19	470.45
384.39	496.19
384.58	400.23
384.78	496.19
384.97	421.30
385.17	435.34
385.36	411.93
385.56	486.83
385.75	440.02
385.95	461.09
386.14	498.53
386.34	475.13
386.53	503.22
386.72	510.24
386.92	524.28
387.11	482.15
387.31	526.62
387.50	507.90
387.70	477.47
387.89	440.02
388.09	496.19
388.28	470.45
388.48	547.69
388.67	554.71
388.86	547.69
389.06	587.47
389.25	573.43
389.45	557.05
389.64	547.69
389.84	524.28
390.03	521.94
390.22	585.13
390.42	606.20
390.61	571.09
390.81	521.94
391.00	580.45
391.19	592.16
391.39	559.39
391.58	554.71
391.78	571.09
391.97	603.86
392.16	589.82
392.36	601.52
392.55	697.48
392.75	587.47
392.94	533.64
393.13	603.86
393.33	552.37
393.52	575.77
393.71	603.86
393.91	599.18
394.10	620.24
394.29	638.97
394.49	580.45
394.68	634.29
394.88	617.90
395.07	657.69
395.26	674.07
395.46	664.71
395.65	636.63
395.84	709.18
396.04	760.67
396.23	716.20
396.42	688.12
396.62	692.80
396.81	746.63
397.00	713.86
397.19	627.26
397.39	702.16
397.58	648.33
397.77	699.82
397.97	713.86
398.16	809.83
398.35	770.04
398.55	711.52
398.74	688.12
398.93	755.99
399.12	674.07
399.32	755.99
399.51	816.85
399.70	821.53
399.90	748.97
400.09	821.53
400.28	861.32
400.47	896.43
400.67	837.91
400.86	802.80
401.05	901.11
401.24	891.74
401.44	842.59
401.63	931.53
401.82	863.66
402.01	833.23
402.21	994.73
402.40	828.55
402.59	912.81
402.78	894.08
402.97	961.96
403.17	1020.47
403.36	875.36
403.55	1046.22
403.74	1018.13
403.93	980.68
404.13	1029.84
404.32	1074.31
404.51	1053.24
404.70	1027.50
404.89	976.00
405.09	1088.35
405.28	1064.94
405.47	1083.67
405.66	1074.31
405.85	1186.65
406.05	1064.94
406.24	1095.37
406.43	1217.08
406.62	1137.50
406.81	1212.40
407.00	1050.90
407.20	1048.56
407.39	1184.31
407.58	1149.20
407.77	1259.21
407.96	1254.53
408.15	1299.00
408.34	1165.59
408.54	1132.82
408.73	1270.91
408.92	1273.25
409.11	1235.80
409.30	1350.49
409.49	1294.32
409.68	1259.21
409.87	1327.08
410.07	1352.83
410.26	1434.75
410.45	1380.92
410.64	1310.70
410.83	1390.28
411.02	1392.62
411.21	1451.13
411.40	1430.07
411.59	1434.75
411.78	1425.39
411.98	1460.49
412.17	1511.99
412.36	1488.58
412.55	1535.39
412.74	1589.22
412.93	1514.33
413.12	1497.94
413.31	1741.36
413.50	1654.76
413.69	1619.65
413.88	1687.53
414.07	1664.12
414.26	1799.87
414.45	1680.50
414.64	1797.53
414.83	1696.89
415.02	1750.72
415.22	1689.87
415.41	1797.53
415.60	1753.06
415.79	1825.62
415.98	1872.43
416.17	1858.39
416.36	1914.56
416.55	1874.77
416.74	2022.22
416.93	1858.39
417.12	1863.07
417.31	1863.07
417.50	1940.30
417.69	1998.82
417.88	1975.41
418.07	2104.14
418.26	2005.84
418.45	2064.35
418.64	2120.53
418.83	2141.59
419.02	2017.54
419.21	2172.02
419.39	2155.63
419.58	2111.16
419.77	1987.11
419.96	2214.15
420.15	2263.30
420.34	2235.21
420.53	2218.83
420.72	2162.66
420.91	2204.78
421.10	2237.55
421.29	2263.30
421.48	2232.87
421.67	2258.62
421.86	2204.78
422.05	2293.72
422.24	2284.36
422.43	2204.78
422.61	2275.00
422.80	2286.70
422.99	2279.68
423.18	2300.75
423.37	2331.17
423.56	2284.36
423.75	2333.51
423.94	2417.77
424.13	2307.77
424.32	2249.25
424.50	2363.94
424.69	2331.17
424.88	2392.03
425.07	2314.79
425.26	2483.31
425.45	2373.30
425.64	2427.14
425.83	2333.51
426.01	2408.41
426.20	2401.39
426.39	2413.09
426.58	2420.11
426.77	2424.80
426.96	2450.54
427.15	2523.10
427.33	2509.05
427.52	2399.05
427.71	2431.82
427.90	2441.18
428.09	2511.39
428.28	2640.12
428.46	2590.97
428.65	2565.23
428.84	2689.28
429.03	2679.91
429.22	2518.42
429.40	2609.70
429.59	2644.81
429.78	2363.94
429.97	2497.35
430.16	2565.23
430.34	2686.94
430.53	2717.36
430.72	2731.41
430.91	2609.70
431.10	2759.49
431.28	2775.88
431.47	2759.49
431.66	2925.67
431.85	2677.57
432.03	2792.26
432.22	2759.49
432.41	2932.69
432.60	2920.99
432.79	2935.03
432.97	2850.77
433.16	2878.86
433.35	2829.71
433.54	2911.63
433.72	2944.39
433.91	3035.67
434.10	2902.26
434.28	2949.08
434.47	2977.16
434.66	3054.40
434.85	3054.40
435.03	3199.51
435.22	3148.02
435.41	3370.37
435.59	3578.68
435.78	3274.41
435.97	3141.00
436.16	3218.24
436.34	3063.76
436.53	3150.36
436.72	3166.74
436.90	3133.98
437.09	3082.49
437.28	3026.31
437.46	3112.91
437.65	3178.45
437.84	3204.19
438.02	3204.19
438.21	3265.05
438.40	3211.22
438.58	3328.24
438.77	3279.09
438.96	3321.22
439.14	3400.80
439.33	3370.37
439.52	3368.03
439.70	3522.51
439.89	3536.55
440.08	3555.27
440.26	3597.40
440.45	3452.29
440.63	3688.68
440.82	3646.55
441.01	3576.34
441.19	3765.92
441.38	3684.00
441.57	3679.32
441.75	3768.26
441.94	3786.99
442.12	3815.07
442.31	3960.19
442.50	3875.93
442.68	3889.97
442.87	3810.39
443.05	3777.62
443.24	3852.52
443.43	3831.46
443.61	3969.55
443.80	3990.61
443.98	3737.84
444.17	3901.67
444.35	3934.44
444.54	3995.29
444.73	4002.32
444.91	3969.55
445.10	4025.72
445.28	4021.04
445.47	4011.68
445.65	4028.06
445.84	4037.42
446.02	4166.15
446.21	4021.04
446.39	4095.94
446.58	4046.79
446.77	4046.79
446.95	4049.13
447.14	4100.62
447.32	4063.17
447.51	4138.07
447.69	4025.72
447.88	3960.19
448.06	4145.09
448.25	4119.34
448.43	4205.94
448.62	4032.74
448.80	4189.56
448.99	4203.60
449.17	4227.01
449.36	4177.86
449.54	4145.09
449.73	4278.50
449.91	4325.31
450.10	4180.20
450.28	4320.63
450.46	4393.19
450.65	4444.68
450.83	4449.36
451.02	4435.32
451.20	4299.56
451.39	4493.83
451.57	4346.37
451.76	4442.34
451.94	4344.03
452.13	4524.26
452.31	4547.66
452.49	4266.80
452.68	4493.83
452.86	4489.15
453.05	4589.79
453.23	4482.13
453.42	4500.85
453.60	4320.63
453.78	4660.01
453.97	4498.51
454.15	4678.73
454.34	4519.57
454.52	4486.81
454.70	4538.30
454.89	4671.71
455.07	4587.45
455.26	4652.98
455.44	4606.17
455.62	4858.95
455.81	4835.55
455.99	4688.09
456.17	4734.90
456.36	4706.82
456.54	4908.10
456.73	4884.70
456.91	5001.72
457.09	4964.28
457.28	4997.04
457.46	4987.68
457.64	5027.47
457.83	5036.83
458.01	5022.79
458.19	4975.98
458.38	5020.45
458.56	5114.07
458.74	5097.69
458.93	5111.73
459.11	5191.31
459.29	5188.97
459.48	5221.74
459.66	5128.11
459.84	5203.01
460.03	5385.57
460.21	5273.23
460.39	5205.35
460.57	5078.96
460.76	5177.26
460.94	5277.91
461.12	5308.34
461.31	5425.36
461.49	5584.52
461.67	5331.74
461.85	5495.58
462.04	5320.04
462.22	5572.82
462.40	5455.79
462.59	5411.32
462.77	5425.36
462.95	5481.53
463.13	5425.36
463.32	5565.79
463.50	5523.66
463.68	5493.24
463.86	5657.07
464.05	5514.30
464.23	5654.73
464.41	5767.08
464.59	5596.22
464.78	5645.37
464.96	5729.63
465.14	5661.76
465.32	5654.73
465.50	5678.14
465.69	5720.27
465.87	5652.39
466.05	5727.29
466.23	5764.74
466.41	5919.21
466.60	5834.96
466.78	5790.49
466.96	5790.49
467.14	5856.02
467.32	5900.49
467.51	5970.71
467.69	5792.83
467.87	5912.19
468.05	5937.94
468.23	5926.24
468.41	6001.13
468.60	5954.32
468.78	6155.61
468.96	6069.01
469.14	5928.58
469.32	6059.65
469.50	5788.14
469.69	6026.88
469.87	6186.04
470.05	6256.25
470.23	6141.57
470.41	6186.04
470.59	6162.63
470.77	6122.84
470.95	6361.58
471.14	6291.36
471.32	6207.10
471.50	6464.56
471.68	6387.32
471.86	6532.44
472.04	6502.01
472.22	6511.37
472.40	6494.99
472.58	6560.52
472.77	6782.87
472.95	6569.88
473.13	6897.56
473.31	6719.68
473.49	6670.53
473.67	6820.32
473.85	6609.67
474.03	6869.47
474.21	6766.49
474.39	6944.37
474.57	6944.37
474.75	7155.02
474.93	7098.84
475.12	7302.47
475.30	7178.42
475.48	6972.46
475.66	7222.89
475.84	7199.49
476.02	7302.47
476.20	7232.26
476.38	7377.37
476.56	7552.91
476.74	7400.77
476.92	7459.29
477.10	7581.00
477.28	7669.94
477.46	7630.15
477.64	7669.94
477.82	7840.79
478.00	7934.42
478.18	7822.07
478.36	8060.80
478.54	7978.89
478.72	8067.83
478.90	8023.36
479.08	8318.26
479.26	8329.97
479.44	8372.10
479.62	8468.06
479.80	8425.93
479.98	8482.10
480.16	8575.72
480.34	8482.10
480.52	8697.43
480.70	8798.07
480.88	8594.45
481.06	8819.14
481.24	8828.50
481.41	8760.63
481.59	8933.82
481.77	9245.12
481.95	9039.15
482.13	9165.54
482.31	9160.86
482.49	9490.87
482.67	9408.95
482.85	9659.39
483.03	9666.41
483.21	9837.27
483.39	9895.78
483.57	9860.68
483.74	9832.59
483.92	9966.00
484.10	10029.20
484.28	10127.50
484.46	10340.49
484.64	10551.14
484.82	10303.04
485.00	10436.45
485.18	10590.92
485.35	10775.83
485.53	10745.40
485.71	10569.86
485.89	11044.99
486.07	10775.83
486.25	11016.90
486.43	10984.13
486.61	11316.49
486.78	11382.03
486.96	11321.17
487.14	11499.05
487.32	11485.01
487.50	11337.56
487.68	11548.20
487.85	11829.07
488.03	12063.12
488.21	12107.59
488.39	12210.57
488.57	12210.57
488.75	12098.23
488.92	12472.71
489.10	12559.31
489.28	12519.53
489.46	12629.53
489.64	12578.04
489.81	12807.41
489.99	12964.23
490.17	12917.42
490.35	13228.71
490.53	13064.87
490.70	13076.57
490.88	13205.30
491.06	13582.13
491.24	13369.14
491.41	13722.56
491.59	13745.97
491.77	13547.02
491.95	13696.82
492.13	14120.45
492.30	13738.94
492.48	13930.87
492.66	14120.45
492.84	14036.19
493.01	14300.67
493.19	14548.77
493.37	14253.86
493.54	14593.24
493.72	14506.64
493.90	14810.91
494.08	15009.86
494.25	15318.81
494.43	15169.01
494.61	15091.77
494.79	15262.63
494.96	15171.35
495.14	15204.12
495.32	15463.92
495.49	15367.96
495.67	15653.50
495.85	15587.97
496.02	15777.55
496.20	16163.74
496.38	15765.85
496.55	15798.62
496.73	16205.87
496.91	15946.07
497.09	16098.20
497.26	16133.31
497.44	16166.08
497.62	16149.70
497.79	16372.05
497.97	16671.64
498.14	16542.91
498.32	16802.71
498.50	17018.04
498.67	16833.13
498.85	16903.35
499.03	17050.80
499.20	17123.36
499.38	17294.22
499.56	17270.81
499.73	17617.21
499.91	17652.32
500.08	17579.76
500.26	17408.90
500.44	17664.02
500.61	17717.86
500.79	17673.39
500.97	17776.37
501.14	17898.08
501.32	18101.70
501.49	17879.35
501.67	18029.15
501.84	18389.59
502.02	18310.01
502.20	18127.45
502.37	18604.92
502.55	18492.57
502.72	18623.64
502.90	18216.39
503.07	18342.78
503.25	18483.21
503.43	18773.44
503.60	18728.97
503.78	18761.73
503.95	18817.91
504.13	19180.69
504.30	19021.53
504.48	18857.70
504.65	19037.92
504.83	19168.99
505.01	19482.62
505.18	19405.38
505.36	19428.79
505.53	19318.78
505.71	19405.38
505.88	19606.67
506.06	19555.18
506.23	19676.88
506.41	19672.20
506.58	19644.12
506.76	19665.18
506.93	19782.21
507.11	19763.48
507.28	19847.74
507.46	19861.79
507.63	20070.09
507.81	20294.79
507.98	20149.67
508.16	20126.27
508.33	20470.33
508.50	20320.53
508.68	20690.34
508.85	20868.22
509.03	20716.08
509.20	20769.91
509.38	20875.24
509.55	20900.98
509.73	21071.84
509.90	21144.40
510.08	20994.61
510.25	20812.04
510.42	20711.40
510.60	21226.32
510.77	21369.09
510.95	21343.35
511.12	21142.06
511.30	21434.63
511.47	21380.79
511.64	21579.74
511.82	21668.68
511.99	21652.30
512.17	21717.83
512.34	21380.79
512.51	22026.78
512.69	21792.73
512.86	21844.22
513.04	22017.42
513.21	22178.92
513.38	22438.72
513.56	22628.30
513.73	21956.57
513.90	22450.42
514.08	22230.41
514.25	22403.61
514.43	22197.64
514.60	22281.90
514.77	22632.98
514.95	22808.52
515.12	22462.12
515.29	22443.40
515.47	22995.76
515.64	23073.00
515.81	22843.63
515.99	23204.07
516.16	23070.66
516.33	23192.37
516.51	23021.51
516.68	23183.01
516.85	23164.28
517.03	23309.40
517.20	23250.88
517.37	23391.31
517.54	23482.59
517.72	23520.04
517.89	23601.96
518.06	23637.07
518.24	23145.56
518.41	23487.28
518.58	23700.26
518.75	23812.61
518.93	23903.89
519.10	23983.47
519.27	24100.50
519.45	23740.05
519.62	23770.48
519.79	24254.97
519.96	23866.44
520.14	24210.50
520.31	24259.65
520.48	24254.97
520.65	24287.74
520.83	24634.14
521.00	24666.91
521.17	24510.09
521.34	24170.71
521.52	24524.13
521.69	24933.73
521.86	24933.73
522.03	25057.78
522.20	24797.98
522.38	25118.63
522.55	25125.65
522.72	24739.46
522.89	25495.46
523.07	25172.46
523.24	25277.79
523.41	25378.43
523.58	25214.59
523.75	25348.00
523.92	25263.74
524.10	25333.96
524.27	25493.12
524.44	25399.49
524.61	25818.45
524.78	25671.00
524.96	25937.82
525.13	25741.21
525.30	26022.08
525.47	25804.41
525.64	25977.61
525.81	26134.42
525.98	26099.31
526.16	25879.30
526.33	26029.10
526.50	26164.85
526.67	26345.07
526.84	25841.85
527.01	25818.45
527.18	26375.50
527.36	26361.45
527.53	26504.23
527.70	26749.98
527.87	26464.44
528.04	26368.48
528.21	26677.43
528.38	26867.01
528.55	26747.64
528.72	26745.30
528.89	26419.97
529.07	26757.00
529.24	26948.93
529.41	27063.61
529.58	26682.11
529.75	26529.97
529.92	26984.04
530.09	27080.00
530.26	26855.31
530.43	26934.88
530.60	26969.99
530.77	27087.02
530.94	27126.81
531.11	27358.52
531.28	27192.34
531.46	27407.67
531.63	27353.84
531.80	27494.27
531.97	27850.03
532.14	27737.69
532.31	27445.12
532.48	27913.23
532.65	27379.59
532.82	27414.69
532.99	27386.61
533.16	27676.83
533.33	27700.24
533.50	27901.53
533.67	28203.46
533.84	28009.19
534.01	27611.30
534.18	28166.01
534.35	28238.56
534.52	27955.36
534.69	28308.78
534.86	28259.63
535.03	27931.95
535.20	28250.27
535.37	28528.79
535.54	27995.15
535.71	28180.05
535.88	28369.63
536.05	28489.00
536.22	28425.81
536.38	28685.61
536.55	28809.65
536.72	28657.52
536.89	28608.37
537.06	28821.36
537.23	28746.46
537.40	28809.65
537.57	28926.68
537.74	28797.95
537.91	28929.02
538.08	29200.52
538.25	28666.88
538.42	29020.30
538.59	29343.30
538.75	28587.30
538.92	29284.78
539.09	29062.43
539.26	29282.44
539.43	29567.99
539.60	29240.31
539.77	29205.20
539.94	29724.80
540.11	29291.80
540.28	29532.88
540.44	29699.06
540.61	29158.39
540.78	29502.45
540.95	29734.17
541.12	29462.66
541.29	29479.05
541.46	30237.38
541.62	29731.83
541.79	30281.85
541.96	29626.50
542.13	29928.43
542.30	30323.98
542.47	30649.32
542.63	30204.61
542.80	30527.61
542.97	30342.70
543.14	30384.83
543.31	30426.96
543.48	30632.93
543.64	30464.41
543.81	30759.32
543.98	30738.26
544.15	30749.96
544.32	30799.11
544.48	31061.25
544.65	30775.70
544.82	30689.10
544.99	30560.37
545.16	30719.53
545.32	30892.73
545.49	31084.65
545.66	31908.52
545.83	31723.62
546.00	32039.59
546.16	31573.83
546.33	30881.03
546.50	30991.03
546.67	30981.67
546.83	30691.44
547.00	30670.38
547.17	31009.76
547.34	31527.02
547.50	31124.44
547.67	31292.96
547.84	31225.09
548.00	31129.12
548.17	31173.60
548.34	31229.77
548.51	31222.75
548.67	31761.07
548.84	31292.96
549.01	31119.76
549.18	31180.62
549.34	31356.16
549.51	31307.01
549.68	31178.28
549.84	31225.09
550.01	31702.56
550.18	31608.93
550.34	31683.83
550.51	31690.85
550.68	31887.46
550.84	31084.65
551.01	31522.34
551.18	31377.22
551.34	31395.95
551.51	31641.70
551.68	31578.51
551.84	31744.69
552.01	31772.77
552.18	32105.13
552.34	31655.75
552.51	31948.31
552.68	31501.27
552.84	31557.44
553.01	31850.01
553.18	31545.74
553.34	32219.81
553.51	32161.30
553.67	32034.91
553.84	32465.57
554.01	32128.53
554.17	32280.67
554.34	32053.64
554.51	31974.06
554.67	32636.43
554.84	32245.56
555.00	32587.28
555.17	31660.43
555.33	32247.90
555.50	32376.63
555.67	32500.68
555.83	31964.70
556.00	32322.80
556.16	32708.99
556.33	32460.89
556.50	32067.68
556.66	32378.97
556.83	32095.77
556.99	32940.70
557.16	32615.37
557.32	32554.51
557.49	32594.30
557.65	32622.39
557.82	32645.79
557.98	32446.85
558.15	32912.61
558.32	32732.39
558.48	32397.70
558.65	32708.99
558.81	33048.36
558.98	32566.21
559.14	32828.35
559.31	32566.21
559.47	32858.78
559.64	32898.57
559.80	33331.57
559.97	33273.06
560.13	32882.19
560.30	32835.38
560.46	33015.60
560.63	33027.30
560.79	32275.99
560.96	33160.71
561.12	32980.49
561.29	32865.80
561.45	33127.94
561.61	33221.56
561.78	33130.28
561.94	33144.33
562.11	32856.44
562.27	32982.83
562.44	32821.33
562.60	32673.88
562.77	33331.57
562.93	32905.59
563.10	32776.86
563.26	33219.22
563.42	33413.49
563.59	33380.72
563.75	33326.89
563.92	33275.40
564.08	32936.02
564.24	33137.30
564.41	32996.87
564.57	33249.65
564.74	33287.10
564.90	33223.90
565.07	33097.52
565.23	33352.63
565.39	33525.83
565.56	33684.99
565.72	33401.79
565.88	33413.49
566.05	33469.66
566.21	33521.15
566.38	33462.64
566.54	33729.46
566.70	33521.15
566.87	33900.32
567.03	33780.95
567.19	34019.69
567.36	33373.70
567.52	33319.87
567.68	33298.80
567.85	33605.41
568.01	33495.41
568.17	33205.18
568.34	33713.08
568.50	33766.91
568.66	33809.04
568.83	33769.25
568.99	33500.09
569.15	33715.42
569.32	33525.83
569.48	33795.00
569.64	34082.88
569.81	33586.69
569.97	33413.49
570.13	33722.44
570.30	33474.34
570.46	33795.00
570.62	34054.79
570.78	33549.24
570.95	33565.62
571.11	33479.02
571.27	33867.55
571.43	33589.03
571.60	33624.14
571.76	33696.69
571.92	33989.26
572.09	33752.87
572.25	33647.54
572.41	33865.21
572.57	33787.97
572.74	33872.23
572.90	33479.02
573.06	33525.83
573.22	33895.64
573.38	34548.65
573.55	33766.91
573.71	33968.19
573.87	34398.85
574.03	34197.57
574.20	33972.88
574.36	33670.95
574.52	34019.69
574.68	33841.81
574.84	33979.90
575.01	34171.82
575.17	33872.23
575.33	33972.88
575.49	33593.71
575.65	34235.02
575.82	34068.84
575.98	33970.54
576.14	34153.10
576.30	33860.53
576.46	33640.52
576.62	34169.48
576.79	34237.36
576.95	33699.03
577.11	34057.14
577.27	34071.18
577.43	34096.92
577.59	34555.67
577.75	33881.60
577.92	33769.25
578.08	33928.41
578.24	33687.33
578.40	34059.48
578.56	34134.37
578.72	33734.14
578.88	34195.23
579.04	34171.82
579.21	34080.54
579.37	34345.02
579.53	34548.65
579.69	34270.12
579.85	33998.62
580.01	34150.76
580.17	34347.36
580.33	34015.01
580.49	34120.33
580.65	34436.30
580.82	34553.33
580.98	34218.63
581.14	34389.49
581.30	34288.85
581.46	34047.77
581.62	34230.33
581.78	33692.01
581.94	34059.48
582.10	34291.19
582.26	34185.86
582.42	34223.31
582.58	34340.34
582.74	33844.15
582.90	34277.15
583.06	34684.40
583.22	33989.26
583.38	34213.95
583.54	34389.49
583.70	34010.32
583.86	34452.69
584.02	34258.42
584.18	34532.26
584.34	34342.68
584.50	34326.30
584.66	33912.02
584.82	34548.65
584.98	34529.92
585.14	34225.65
585.30	34092.24
585.46	34342.68
585.62	34066.50
585.78	34288.85
585.94	34349.70
586.10	34314.59
586.26	34286.51
586.42	34094.58
586.58	34649.29
586.74	34450.35
586.90	33935.43
587.06	34288.85
587.22	34653.97
587.38	33930.75
587.54	34670.36
587.70	34703.12
587.86	34263.10
588.02	34686.74
588.18	34766.32
588.34	34387.15
588.49	34462.05
588.65	34139.05
588.81	34300.55
588.97	34319.28
589.13	34213.95
589.29	34220.97
589.45	34494.82
589.61	34747.59
589.77	34354.38
589.93	34927.81
590.08	34918.45
590.24	34632.91
590.40	34408.22
590.56	34855.26
590.72	34778.02
590.88	34703.12
591.04	34754.61
591.20	34801.43
591.35	34668.02
591.51	35070.59
