SpectraSuite Data File
++++++++++++++++++++++++++++++++++++
Date: Fri Oct 04 11:39:35 GMT-05:00 2013
User: price-jones
Dark Spectrum Present: No
Reference Spectrum Present: No
Number of Sampled Component Spectra: 1
Spectrometers: USB2+H05261
Integration Time (usec): 100000 (USB2+H05261)
Spectra Averaged: 1 (USB2+H05261)
Boxcar Smoothing: 0 (USB2+H05261)
Correct for Electrical Dark: No (USB2+H05261)
Strobe/Lamp Enabled: No (USB2+H05261)
Correct for Detector Non-linearity: No (USB2+H05261)
Correct for Stray Light: No (USB2+H05261)
Number of Pixels in Processed Spectrum: 2048
>>>>>Begin Processed Spectral Data<<<<<
365.73	72.56
365.92	72.56
366.12	72.56
366.32	0.00
366.52	0.00
366.72	0.00
366.91	30.43
367.11	0.00
367.31	0.00
367.51	0.00
367.70	0.00
367.90	0.00
368.10	0.00
368.30	0.00
368.49	0.00
368.69	0.00
368.89	25.75
369.09	0.00
369.28	7.02
369.48	0.00
369.68	53.83
369.87	23.41
370.07	93.62
370.27	9.36
370.47	30.43
370.66	189.58
370.86	168.52
371.06	196.60
371.25	257.46
371.45	215.33
371.65	248.10
371.84	241.08
372.04	245.76
372.24	210.65
372.44	250.44
372.63	220.01
372.83	259.80
373.03	285.55
373.22	292.57
373.42	278.52
373.62	308.95
373.81	311.29
374.01	301.93
374.21	315.97
374.40	262.14
374.60	287.89
374.79	301.93
374.99	308.95
375.19	285.55
375.38	290.23
375.58	276.18
375.78	297.25
375.97	252.78
376.17	292.57
376.37	315.97
376.56	353.42
376.76	372.15
376.95	325.33
377.15	362.78
377.35	320.65
377.54	299.59
377.74	346.40
377.93	351.08
378.13	222.35
378.33	374.49
378.52	299.59
378.72	355.76
378.91	320.65
379.11	276.18
379.31	379.17
379.50	287.89
379.70	325.33
379.89	320.65
380.09	285.55
380.28	315.97
380.48	299.59
380.68	358.10
380.87	355.76
381.07	353.42
381.26	346.40
381.46	372.15
381.65	402.57
381.85	306.61
382.04	383.85
382.24	404.91
382.43	430.66
382.63	337.04
382.83	362.78
383.02	383.85
383.22	383.85
383.41	313.63
383.61	341.72
383.80	379.17
384.00	418.96
384.19	318.31
384.39	414.27
384.58	423.64
384.78	425.98
384.97	461.09
385.17	388.53
385.36	444.70
385.56	416.62
385.75	407.25
385.95	418.96
386.14	479.81
386.34	386.19
386.53	393.21
386.72	390.87
386.92	486.83
387.11	456.40
387.31	447.04
387.50	458.74
387.70	383.85
387.89	416.62
388.09	496.19
388.28	400.23
388.48	484.49
388.67	433.00
388.86	390.87
389.06	437.68
389.25	425.98
389.45	416.62
389.64	472.79
389.84	493.85
390.03	505.56
390.22	442.36
390.42	535.98
390.61	418.96
390.81	472.79
391.00	510.24
391.19	538.32
391.39	587.47
391.58	564.07
391.78	521.94
391.97	557.05
392.16	447.04
392.36	613.22
392.55	461.09
392.75	575.77
392.94	533.64
393.13	500.87
393.33	599.18
393.52	582.79
393.71	594.50
393.91	641.31
394.10	592.16
394.29	547.69
394.49	564.07
394.68	592.16
394.88	603.86
395.07	571.09
395.26	645.99
395.46	641.31
395.65	629.60
395.84	716.20
396.04	685.78
396.23	641.31
396.42	645.99
396.62	709.18
396.81	702.16
397.00	704.50
397.19	564.07
397.39	725.57
397.58	702.16
397.77	744.29
397.97	699.82
398.16	748.97
398.35	788.76
398.55	812.17
398.74	704.50
398.93	746.63
399.12	751.31
399.32	774.72
399.51	746.63
399.70	774.72
399.90	861.32
400.09	849.61
400.28	880.04
400.47	793.44
400.67	830.89
400.86	868.34
401.05	823.87
401.24	940.90
401.44	936.21
401.63	950.26
401.82	894.08
402.01	870.68
402.21	950.26
402.40	870.68
402.59	950.26
402.78	954.94
402.97	947.92
403.17	1004.09
403.36	1011.11
403.55	1029.84
403.74	1022.81
403.93	1088.35
404.13	1095.37
404.32	1076.65
404.51	1116.44
404.70	1196.01
404.89	1069.62
405.09	1170.27
405.28	1111.75
405.47	1160.91
405.66	1214.74
405.85	1179.63
406.05	1170.27
406.24	1245.16
406.43	1156.22
406.62	1301.34
406.81	1359.85
407.00	1191.33
407.20	1247.51
407.39	1219.42
407.58	1352.83
407.77	1348.15
407.96	1380.92
408.15	1432.41
408.34	1336.45
408.54	1357.51
408.73	1455.81
408.92	1317.72
409.11	1390.28
409.30	1558.80
409.49	1523.69
409.68	1511.99
409.87	1430.07
410.07	1598.59
410.26	1511.99
410.45	1526.03
410.64	1596.25
410.83	1519.01
411.02	1661.78
411.21	1694.55
411.40	1643.06
411.59	1762.42
411.78	1785.83
411.98	1743.70
412.17	1727.32
412.36	1720.29
412.55	1900.52
412.74	1907.54
412.93	1844.34
413.12	1874.77
413.31	2036.27
413.50	1905.20
413.69	1963.71
413.88	1921.58
414.07	2001.16
414.26	2172.02
414.45	1933.28
414.64	2015.20
414.83	2113.50
415.02	2054.99
415.22	2218.83
415.41	2282.02
415.60	2202.44
415.79	2204.78
415.98	2277.34
416.17	2249.25
416.36	2275.00
416.55	2270.32
416.74	2385.01
416.93	2312.45
417.12	2478.63
417.31	2368.62
417.50	2385.01
417.69	2455.22
417.88	2579.27
418.07	2548.84
418.26	2677.57
418.45	2476.29
418.64	2672.89
418.83	2700.98
419.02	2661.19
419.21	2686.94
419.39	2759.49
419.58	2708.00
419.77	2724.38
419.96	2789.92
420.15	2860.13
420.34	2759.49
420.53	2768.85
420.72	2888.22
420.91	2967.80
421.10	2827.37
421.29	2939.71
421.48	2775.88
421.67	2895.24
421.86	3030.99
422.05	3040.36
422.24	2904.60
422.43	2946.73
422.61	3073.12
422.80	3009.93
422.99	2916.31
423.18	3117.59
423.37	3042.70
423.56	3129.30
423.75	3098.87
423.94	3005.25
424.13	2925.67
424.32	2918.65
424.50	3117.59
424.69	3258.03
424.88	3232.28
425.07	3021.63
425.26	3091.85
425.45	3143.34
425.64	3096.53
425.83	3089.51
426.01	3199.51
426.20	3110.57
426.39	3145.68
426.58	3091.85
426.77	3239.30
426.96	3272.07
427.15	3159.72
427.33	3229.94
427.52	3328.24
427.71	3180.79
427.90	3293.13
428.09	3239.30
428.28	3265.05
428.46	3478.04
428.65	3279.09
428.84	3506.12
429.03	3592.72
429.22	3222.92
429.40	3410.16
429.59	3494.42
429.78	3344.63
429.97	3337.60
430.16	3426.54
430.34	3433.57
430.53	3503.78
430.72	3426.54
430.91	3588.04
431.10	3431.23
431.28	3520.17
431.47	3627.83
431.66	3723.79
431.85	3597.40
432.03	3786.99
432.22	3850.18
432.41	3747.20
432.60	3709.75
432.79	3817.41
432.97	3653.58
433.16	3758.90
433.35	3665.28
433.54	3768.26
433.72	3854.86
433.91	3889.97
434.10	3838.48
434.28	3892.31
434.47	3901.67
434.66	3957.85
434.85	3948.48
435.03	3894.65
435.22	4138.07
435.41	4437.66
435.59	4428.29
435.78	4346.37
435.97	4086.58
436.16	4191.90
436.34	4079.55
436.53	4161.47
436.72	4166.15
436.90	4126.36
437.09	4159.13
437.28	4067.85
437.46	4133.39
437.65	4191.90
437.84	4327.65
438.02	4365.10
438.21	4353.40
438.40	4311.27
438.58	4348.72
438.77	4414.25
438.96	4301.90
439.14	4484.47
439.33	4526.60
439.52	4535.96
439.70	4472.76
439.89	4709.16
440.08	4652.98
440.26	4589.79
440.45	4730.22
440.63	4727.88
440.82	4873.00
441.01	4669.37
441.19	4805.12
441.38	4861.29
441.57	4854.27
441.75	4828.53
441.94	5088.32
442.12	4971.30
442.31	5032.15
442.50	5071.94
442.68	5100.03
442.87	5060.24
443.05	5029.81
443.24	5205.35
443.43	5128.11
443.61	5221.74
443.80	5441.75
443.98	5069.60
444.17	5053.22
444.35	5301.31
444.54	5359.83
444.73	5423.02
444.91	5193.65
445.10	5181.95
445.28	5245.14
445.47	5298.97
445.65	5116.41
445.84	5226.42
446.02	5289.61
446.21	5210.03
446.39	5284.93
446.58	5439.40
446.77	5352.81
446.95	5263.86
447.14	5303.65
447.32	5455.79
447.51	5362.17
447.69	5448.77
447.88	5387.91
448.06	5378.55
448.25	5453.45
448.43	5488.56
448.62	5345.78
448.80	5455.79
448.99	5455.79
449.17	5509.62
449.36	5528.35
449.54	5413.66
449.73	5706.23
449.91	5535.37
450.10	5795.17
450.28	5776.44
450.46	5731.97
450.65	5753.04
450.83	5666.44
451.02	5678.14
451.20	5832.62
451.39	5886.45
451.57	5717.93
451.76	5720.27
451.94	5839.64
452.13	5940.28
452.31	5724.95
452.49	5858.36
452.68	5914.53
452.86	5881.77
453.05	5832.62
453.23	5933.26
453.42	5865.38
453.60	5942.62
453.78	5928.58
453.97	5879.43
454.15	5970.71
454.34	6108.80
454.52	6129.86
454.70	6197.74
454.89	5989.43
455.07	6136.88
455.26	6193.06
455.44	6310.08
455.62	6134.54
455.81	6314.77
455.99	6352.21
456.17	6387.32
456.36	6260.93
456.54	6480.94
456.73	6466.90
456.91	6506.69
457.09	6487.96
457.28	6768.83
457.46	6333.49
457.64	6658.82
457.83	6750.10
458.01	6480.94
458.19	6740.74
458.38	6443.49
458.56	6916.28
458.74	6817.98
458.93	6689.25
459.11	6665.85
459.29	6750.10
459.48	6736.06
459.66	6705.63
459.84	6792.23
460.03	7000.54
460.21	6752.45
460.39	6775.85
460.57	6885.86
460.76	6883.52
460.94	7098.84
461.12	7077.78
461.31	6904.58
461.49	7101.19
461.67	7087.14
461.85	7148.00
462.04	7098.84
462.22	7482.69
462.40	7178.42
462.59	7332.90
462.77	7087.14
462.95	7176.08
463.13	7225.23
463.32	7136.29
463.50	7412.48
463.68	7290.77
463.86	7311.83
464.05	7370.35
464.23	7225.23
464.41	7417.16
464.59	7360.98
464.78	7681.64
464.96	7552.91
465.14	7335.24
465.32	7522.48
465.50	7714.41
465.69	7583.34
465.87	7510.78
466.05	7688.66
466.23	7564.61
466.41	7648.87
466.60	7698.02
466.78	7538.87
466.96	7548.23
467.14	7662.91
467.32	7660.57
467.51	7894.63
467.69	7634.83
467.87	7730.79
468.05	7801.01
468.23	7840.79
468.41	7822.07
468.60	7927.39
468.78	7967.18
468.96	7793.98
469.14	8056.12
469.32	8138.04
469.50	7761.22
469.69	8226.98
469.87	8147.40
470.05	8189.53
470.23	7943.78
470.41	8219.96
470.59	8177.83
470.77	8212.94
470.95	8058.46
471.14	8355.71
471.32	8121.66
471.50	8407.20
471.68	8397.84
471.86	8458.70
472.04	8578.06
472.22	8533.59
472.40	8500.83
472.58	8758.28
472.77	8711.47
472.95	8870.63
473.13	9076.60
473.31	8690.41
473.49	8643.60
473.67	8835.52
473.85	8662.32
474.03	9195.96
474.21	8990.00
474.39	9174.90
474.57	9029.79
474.75	9062.55
474.93	9137.45
475.12	9181.92
475.30	9357.46
475.48	9013.40
475.66	9291.93
475.84	9455.76
476.02	9282.56
476.20	9390.23
476.38	9738.97
476.56	10003.45
476.74	9907.49
476.92	9603.22
477.10	9561.09
477.28	10169.63
477.46	9919.19
477.64	10225.80
477.82	10223.46
478.00	10424.75
478.18	10466.88
478.36	10431.77
478.54	10436.45
478.72	10637.73
478.90	10518.37
479.08	10752.42
479.26	10752.42
479.44	11023.92
479.62	10707.95
479.80	11084.78
479.98	10970.09
480.16	11187.76
480.34	11229.89
480.52	11328.19
480.70	11337.56
480.88	11386.71
481.06	11389.05
481.24	11452.24
481.41	11375.00
481.59	11988.22
481.77	11854.81
481.95	11941.41
482.13	11976.52
482.31	11936.73
482.49	12547.61
482.67	12421.22
482.85	12353.35
483.03	12732.51
483.21	12837.84
483.39	12575.70
483.57	12662.30
483.74	12959.55
483.92	13167.85
484.10	12999.34
484.28	13235.73
484.46	13542.34
484.64	13654.69
484.82	13341.05
485.00	13628.94
485.18	13956.61
485.35	14047.90
485.53	14019.81
485.71	14029.17
485.89	14398.98
486.07	14410.68
486.25	14457.49
486.43	14523.02
486.61	14567.49
486.78	14876.44
486.96	14714.95
487.14	15000.49
487.32	15218.16
487.50	15119.86
487.68	15150.29
487.85	15545.84
488.03	15896.92
488.21	15819.68
488.39	16116.93
488.57	15873.51
488.75	15950.75
488.92	16397.79
489.10	16374.39
489.28	16486.73
489.46	16676.32
489.64	16397.79
489.81	16931.44
489.99	17090.59
490.17	16924.41
490.35	17507.21
490.53	17331.67
490.70	17394.86
490.88	17341.03
491.06	17521.25
491.24	17516.57
491.41	17593.81
491.59	17647.64
491.77	17816.16
491.95	18258.52
492.13	18281.92
492.30	18335.76
492.48	18373.21
492.66	18485.55
492.84	18305.33
493.01	18466.83
493.19	18698.54
493.37	19131.54
493.54	19009.83
493.72	18857.70
493.90	19381.98
494.08	19477.94
494.25	19293.04
494.43	19215.80
494.61	19618.37
494.79	19903.92
494.96	19885.19
495.14	19999.88
495.32	20393.09
495.49	20086.48
495.67	20332.23
495.85	20397.77
496.02	20589.69
496.20	20589.69
496.38	20446.92
496.55	20816.72
496.73	21378.45
496.91	20870.56
497.09	21104.61
497.26	21329.30
497.44	21261.43
497.62	21401.86
497.79	21757.62
497.97	21514.20
498.14	22052.53
498.32	21975.29
498.50	21979.97
498.67	22178.92
498.85	22087.64
499.03	22118.06
499.20	22228.07
499.38	22490.21
499.56	22307.65
499.73	22836.61
499.91	22759.37
500.08	22621.28
500.26	22560.42
500.44	22768.73
500.61	22810.86
500.79	22876.40
500.97	23129.17
501.14	23208.75
501.32	23459.19
501.49	23379.61
501.67	23396.00
501.84	23566.85
502.02	23515.36
502.20	23716.65
502.37	23894.53
502.55	23850.06
502.72	24088.79
502.90	23981.13
503.07	24084.11
503.25	24053.69
503.43	23936.66
503.60	24163.69
503.78	24561.58
503.95	24592.01
504.13	24479.66
504.30	24402.43
504.48	24505.41
504.65	24886.92
504.83	24823.72
505.01	25188.85
505.18	25174.80
505.36	25322.26
505.53	25013.31
505.71	25518.86
505.88	25249.70
506.06	25043.73
506.23	25771.64
506.41	25319.92
506.58	25673.34
506.76	25909.73
506.93	25528.22
507.11	25521.20
507.28	26024.42
507.46	25951.86
507.63	26272.51
507.81	26181.23
507.98	26003.35
508.16	26466.78
508.33	26426.99
508.50	26214.00
508.68	26539.33
508.85	26829.56
509.03	26864.67
509.20	26831.90
509.38	27257.88
509.55	27089.36
509.73	26911.48
509.90	26857.65
510.08	27250.86
510.25	27250.86
510.42	27307.03
510.60	27800.88
510.77	27517.68
510.95	27587.89
511.12	27527.04
511.30	27494.27
511.47	27798.54
511.64	27805.56
511.82	27906.21
511.99	28224.52
512.17	28400.06
512.34	28425.81
512.51	28748.80
512.69	28692.63
512.86	28582.62
513.04	28814.34
513.21	28687.95
513.38	28884.55
513.56	28804.97
513.73	28521.77
513.90	28891.57
514.08	28741.78
514.25	28819.02
514.43	29350.32
514.60	28739.44
514.77	29378.40
514.95	29415.85
515.12	29120.95
515.29	29340.96
515.47	29504.79
515.64	29839.49
515.81	29481.39
515.99	29942.47
516.16	29893.32
516.33	29888.64
516.51	30129.72
516.68	29706.08
516.85	29771.61
517.03	30143.76
517.20	30230.36
517.37	30389.52
517.54	30513.56
517.72	30728.89
517.89	30436.33
518.06	30712.51
518.24	30628.25
518.41	30274.83
518.58	30543.99
518.75	30661.02
518.93	31068.27
519.10	30829.54
519.27	31372.54
519.45	31112.74
519.62	31356.16
519.79	31367.86
519.96	31215.72
520.14	31510.63
520.31	31124.44
520.48	31541.06
520.65	31730.64
520.83	31702.56
521.00	31543.40
521.17	31644.04
521.34	31915.54
521.52	31503.61
521.69	32027.89
521.86	32505.36
522.03	31988.10
522.20	31889.80
522.38	32360.25
522.55	32018.53
522.72	32456.21
522.89	32716.01
523.07	32580.26
523.24	32238.54
523.41	32594.30
523.58	32662.18
523.75	32678.56
523.92	32664.52
524.10	32858.78
524.27	32634.09
524.44	33294.12
524.61	33188.80
524.78	33043.68
524.96	33111.56
525.13	33420.51
525.30	33137.30
525.47	33312.84
525.64	33270.72
525.81	33722.44
525.98	33748.18
526.16	33795.00
526.33	33951.81
526.50	33525.83
526.67	33345.61
526.84	33900.32
527.01	33762.23
527.18	33724.78
527.36	34146.08
527.53	33844.15
527.70	34312.25
527.87	34855.26
528.04	34015.01
528.21	34394.17
528.38	34424.60
528.55	34148.42
528.72	34480.77
528.89	34749.93
529.07	34492.47
529.24	34251.40
529.41	34939.52
529.58	34656.31
529.75	34902.07
529.92	34806.11
530.09	34450.35
530.26	34958.24
530.43	35077.61
530.60	34522.90
530.77	34951.22
530.94	34948.88
531.11	34588.44
531.28	34817.81
531.46	35321.02
531.63	35037.82
531.80	35496.56
531.97	35674.45
532.14	35571.46
532.31	34974.63
532.48	35529.33
532.65	35667.42
532.82	35569.12
532.99	35419.33
533.16	35585.50
533.33	36098.08
533.50	35889.77
533.67	36168.30
533.84	35543.38
534.01	35646.36
534.18	35885.09
534.35	35812.54
534.52	35882.75
534.69	36657.47
534.86	36348.52
535.03	36308.73
535.20	35896.80
535.37	36217.45
535.54	36507.68
535.71	36203.41
535.88	36746.41
536.05	36472.57
536.22	36187.02
536.38	36671.51
536.55	36704.28
536.72	36725.35
536.89	36444.48
537.06	36744.07
537.23	36835.35
537.40	36613.00
537.57	36844.71
537.74	36985.15
537.91	37020.25
538.08	37090.47
538.25	37282.39
538.42	36547.47
538.59	37247.29
538.75	36863.44
538.92	36947.70
539.09	37193.45
539.26	37324.52
539.43	37254.31
539.60	37532.83
539.77	37455.59
539.94	37368.99
540.11	37816.04
540.28	37865.19
540.44	37525.81
540.61	37790.29
540.78	37947.11
540.95	37778.59
541.12	37993.92
541.29	37778.59
541.46	37792.63
541.62	37998.60
541.79	38031.36
541.96	38029.02
542.13	37867.53
542.30	38340.32
542.47	38408.19
542.63	38792.04
542.80	38410.53
542.97	38754.59
543.14	38770.97
543.31	38579.05
543.48	38541.60
543.64	39012.05
543.81	39302.28
543.98	39037.80
544.15	38960.56
544.32	38768.63
544.48	39323.34
544.65	38995.67
544.82	39035.45
544.99	38333.29
545.16	38822.47
545.32	38981.62
545.49	39999.76
545.66	40126.14
545.83	40259.55
546.00	40184.66
546.16	39222.70
546.33	39365.47
546.50	39166.52
546.67	39283.55
546.83	39079.92
547.00	39290.57
547.17	39196.95
547.34	39548.03
547.50	39512.92
547.67	39824.22
547.84	39335.04
548.00	39667.40
548.17	39725.91
548.34	39728.25
548.51	39651.02
548.67	39882.73
548.84	39564.42
549.01	39732.93
549.18	39791.45
549.34	39702.51
549.51	39821.87
549.68	39604.20
549.84	39599.52
550.01	39777.40
550.18	39922.52
550.34	40020.82
550.51	39754.00
550.68	39842.94
550.84	39920.18
551.01	40243.17
551.18	39739.96
551.34	39737.62
551.51	40048.91
551.68	39913.16
551.84	40098.06
552.01	40025.50
552.18	39913.16
552.34	39749.32
552.51	40065.29
552.68	40187.00
552.84	39686.12
553.01	40327.43
553.18	39990.39
553.34	40495.95
553.51	40381.26
553.67	40662.13
553.84	41132.57
554.01	40863.41
554.17	40414.03
554.34	40795.54
554.51	40645.74
554.67	40655.11
554.84	40950.01
555.00	40341.47
555.17	40519.35
555.33	40428.07
555.50	40348.50
555.67	40786.18
555.83	40287.64
556.00	40168.27
556.16	40725.32
556.33	40760.43
556.50	40650.42
556.66	40849.37
556.83	40762.77
556.99	41013.21
557.16	40751.07
557.32	40961.72
557.49	40903.20
557.65	40507.65
557.82	40542.76
557.98	40664.47
558.15	40973.42
558.32	41226.20
558.48	40641.06
558.65	41233.22
558.81	41006.19
558.98	40790.86
559.14	40964.06
559.31	40645.74
559.47	40832.99
559.64	41268.33
559.80	41280.03
559.97	41392.37
560.13	40935.97
560.30	40659.79
560.46	41481.31
560.63	40973.42
560.79	41434.50
560.96	41132.57
561.12	41228.54
561.29	41368.97
561.45	41478.97
561.61	41383.01
561.78	41354.93
561.94	41256.62
562.11	41425.14
562.27	41099.81
562.44	41563.23
562.60	40842.35
562.77	41060.02
562.93	41041.29
563.10	41731.75
563.26	41010.87
563.42	41722.39
563.59	41532.81
563.75	41258.96
563.92	41698.98
564.08	41361.95
564.24	41296.41
564.41	41373.65
564.57	41191.09
564.74	41467.27
564.90	41298.75
565.07	41322.16
565.23	41317.48
565.39	41626.43
565.56	41422.80
565.72	40964.06
565.88	41167.68
566.05	41429.82
566.21	41296.41
566.38	41010.87
566.54	41715.37
566.70	42010.28
566.87	41223.86
567.03	41755.16
567.19	42241.99
567.36	41710.69
567.52	41659.20
567.68	41720.05
567.85	41148.96
568.01	41565.57
568.17	41289.39
568.34	41860.48
568.50	41696.64
568.66	41642.81
568.83	41626.43
568.99	41280.03
569.15	41628.77
569.32	41256.62
569.48	41378.33
569.64	41804.31
569.81	41532.81
569.97	41750.48
570.13	41893.25
570.30	41837.08
570.46	41888.57
570.62	41808.99
570.78	41862.82
570.95	41570.25
571.11	41289.39
571.27	41343.22
571.43	41621.75
571.60	41701.32
571.76	41921.34
571.92	41612.38
572.09	41886.23
572.25	41834.74
572.41	41553.87
572.57	41687.28
572.74	41631.11
572.90	41848.78
573.06	41933.04
573.22	41549.19
573.38	41874.52
573.55	42019.64
573.71	41743.45
573.87	42473.70
574.03	41415.78
574.20	41640.47
574.36	41486.00
574.52	41904.95
574.68	41717.71
574.84	41778.56
575.01	41612.38
575.17	41778.56
575.33	41579.62
575.49	41516.42
575.65	42150.71
575.82	42099.22
575.98	41656.85
576.14	42202.20
576.30	41986.87
576.46	41883.89
576.62	41516.42
576.79	41961.12
576.95	41766.86
577.11	41799.63
577.27	41682.60
577.43	41698.98
577.59	41808.99
577.75	41865.16
577.92	41490.68
578.08	41897.93
578.24	41703.67
578.40	41993.89
578.56	42096.88
578.72	42003.25
578.88	42204.54
579.04	42263.05
579.21	41846.44
579.37	42396.46
579.53	42227.95
579.69	41909.63
579.85	42092.19
580.01	41518.76
580.17	41724.73
580.33	41958.78
580.49	41801.97
580.65	41951.76
580.82	41926.02
580.98	41963.46
581.14	41937.72
581.30	42405.83
581.46	41771.54
581.62	41420.46
581.78	41907.29
581.94	41577.28
582.10	41481.31
582.26	41638.13
582.42	42010.28
582.58	42089.85
582.74	41614.72
582.90	41757.50
583.06	42302.84
583.22	42155.39
583.38	41848.78
583.54	42241.99
583.70	42003.25
583.86	41834.74
584.02	41551.53
584.18	42176.45
584.34	42270.08
584.50	42197.52
584.66	42281.78
584.82	41305.77
584.98	42342.63
585.14	41869.84
585.30	41755.16
585.46	41666.22
585.62	41975.17
585.78	42073.47
585.94	41785.58
586.10	42150.71
586.26	42082.83
586.42	42616.47
586.58	42344.97
586.74	41860.48
586.90	41467.27
587.06	41972.83
587.22	41933.04
587.38	41706.01
587.54	42419.87
587.70	42153.05
587.86	42380.08
588.02	42026.66
588.18	42333.27
588.34	42150.71
588.49	42089.85
588.65	41979.85
588.81	41979.85
588.97	41610.04
589.13	41766.86
589.29	42459.66
589.45	42129.64
589.61	42656.26
589.77	42520.51
589.93	42677.33
590.08	42131.98
590.24	42824.78
590.40	42209.22
590.56	42316.89
590.72	41888.57
590.88	41895.59
591.04	42005.59
