SpectraSuite Data File
++++++++++++++++++++++++++++++++++++
Date: Fri Oct 04 11:39:29 GMT-05:00 2013
User: price-jones
Dark Spectrum Present: No
Reference Spectrum Present: No
Number of Sampled Component Spectra: 1
Spectrometers: USB2+H05261
Integration Time (usec): 100000 (USB2+H05261)
Spectra Averaged: 1 (USB2+H05261)
Boxcar Smoothing: 0 (USB2+H05261)
Correct for Electrical Dark: No (USB2+H05261)
Strobe/Lamp Enabled: No (USB2+H05261)
Correct for Detector Non-linearity: No (USB2+H05261)
Correct for Stray Light: No (USB2+H05261)
Number of Pixels in Processed Spectrum: 2048
>>>>>Begin Processed Spectral Data<<<<<
365.73	44.47
365.92	44.47
366.12	44.47
366.32	49.15
366.52	0.00
366.72	0.00
366.91	0.00
367.11	0.00
367.31	0.00
367.51	0.00
367.70	0.00
367.90	0.00
368.10	0.00
368.30	0.00
368.49	0.00
368.69	4.68
368.89	0.00
369.09	0.00
369.28	4.68
369.48	0.00
369.68	0.00
369.87	28.09
370.07	0.00
370.27	25.75
370.47	16.38
370.66	98.30
370.86	81.92
371.06	124.05
371.25	201.29
371.45	44.47
371.65	124.05
371.84	114.69
372.04	121.71
372.24	163.84
372.44	121.71
372.63	194.26
372.83	84.26
373.03	140.43
373.22	217.67
373.42	189.58
373.62	166.18
373.81	191.92
374.01	159.16
374.21	257.46
374.40	170.86
374.60	180.22
374.79	163.84
374.99	266.82
375.19	248.10
375.38	187.24
375.58	117.03
375.78	203.63
375.97	191.92
376.17	138.09
376.37	112.35
376.56	208.31
376.76	194.26
376.95	161.50
377.15	257.46
377.35	215.33
377.54	196.60
377.74	215.33
377.93	203.63
378.13	147.45
378.33	156.82
378.52	224.69
378.72	248.10
378.91	156.82
379.11	140.43
379.31	182.56
379.50	133.41
379.70	191.92
379.89	198.95
380.09	166.18
380.28	208.31
380.48	215.33
380.68	180.22
380.87	133.41
381.07	238.73
381.26	276.18
381.46	184.90
381.65	217.67
381.85	184.90
382.04	159.16
382.24	149.79
382.43	189.58
382.63	187.24
382.83	161.50
383.02	248.10
383.22	203.63
383.41	81.92
383.61	248.10
383.80	201.29
384.00	149.79
384.19	175.54
384.39	175.54
384.58	187.24
384.78	191.92
384.97	234.05
385.17	210.65
385.36	182.56
385.56	191.92
385.75	243.42
385.95	215.33
386.14	308.95
386.34	191.92
386.53	250.44
386.72	222.35
386.92	297.25
387.11	224.69
387.31	257.46
387.50	175.54
387.70	210.65
387.89	236.39
388.09	208.31
388.28	278.52
388.48	227.03
388.67	255.12
388.86	259.80
389.06	299.59
389.25	271.50
389.45	231.71
389.64	264.48
389.84	238.73
390.03	196.60
390.22	250.44
390.42	255.12
390.61	205.97
390.81	252.78
391.00	217.67
391.19	311.29
391.39	276.18
391.58	271.50
391.78	231.71
391.97	231.71
392.16	198.95
392.36	313.63
392.55	325.33
392.75	273.84
392.94	285.55
393.13	315.97
393.33	402.57
393.52	255.12
393.71	330.02
393.91	318.31
394.10	313.63
394.29	311.29
394.49	306.61
394.68	269.16
394.88	337.04
395.07	313.63
395.26	320.65
395.46	332.36
395.65	337.04
395.84	393.21
396.04	421.30
396.23	337.04
396.42	318.31
396.62	362.78
396.81	348.74
397.00	365.12
397.19	402.57
397.39	334.70
397.58	407.25
397.77	372.15
397.97	458.74
398.16	362.78
398.35	421.30
398.55	332.36
398.74	472.79
398.93	435.34
399.12	482.15
399.32	423.64
399.51	315.97
399.70	482.15
399.90	447.04
400.09	461.09
400.28	486.83
400.47	486.83
400.67	484.49
400.86	456.40
401.05	461.09
401.24	512.58
401.44	564.07
401.63	545.34
401.82	489.17
402.01	451.72
402.21	454.06
402.40	599.18
402.59	517.26
402.78	510.24
402.97	531.30
403.17	482.15
403.36	543.00
403.55	559.39
403.74	634.29
403.93	622.58
404.13	704.50
404.32	643.65
404.51	592.16
404.70	629.60
404.89	596.84
405.09	629.60
405.28	592.16
405.47	638.97
405.66	681.10
405.85	713.86
406.05	706.84
406.24	695.14
406.43	704.50
406.62	704.50
406.81	748.97
407.00	746.63
407.20	702.16
407.39	697.48
407.58	758.33
407.77	784.08
407.96	720.88
408.15	844.93
408.34	861.32
408.54	816.85
408.73	828.55
408.92	723.23
409.11	821.53
409.30	856.64
409.49	844.93
409.68	765.36
409.87	847.27
410.07	840.25
410.26	964.30
410.45	863.66
410.64	861.32
410.83	999.41
411.02	957.28
411.21	924.51
411.40	983.02
411.59	1032.18
411.78	976.00
411.98	1034.52
412.17	936.21
412.36	1060.26
412.55	1006.43
412.74	1078.99
412.93	1107.07
413.12	1062.60
413.31	1111.75
413.50	1111.75
413.69	1203.04
413.88	1245.16
414.07	1212.40
414.26	1240.48
414.45	1130.48
414.64	1203.04
414.83	1188.99
415.02	1261.55
415.22	1355.17
415.41	1348.15
415.60	1392.62
415.79	1294.32
415.98	1313.04
416.17	1306.02
416.36	1390.28
416.55	1362.19
416.74	1364.53
416.93	1413.68
417.12	1364.53
417.31	1315.38
417.50	1416.02
417.69	1472.20
417.88	1521.35
418.07	1472.20
418.26	1507.30
418.45	1397.30
418.64	1570.50
418.83	1621.99
419.02	1600.93
419.21	1547.09
419.39	1535.39
419.58	1563.48
419.77	1572.84
419.96	1614.97
420.15	1614.97
420.34	1558.80
420.53	1647.74
420.72	1626.67
420.91	1678.16
421.10	1706.25
421.29	1741.36
421.48	1636.03
421.67	1717.95
421.86	1746.04
422.05	1703.91
422.24	1703.91
422.43	1664.12
422.61	1645.40
422.80	1720.29
422.99	1816.26
423.18	1680.50
423.37	1792.85
423.56	1760.08
423.75	1825.62
423.94	1806.89
424.13	1650.08
424.32	1582.20
424.50	1895.83
424.69	1879.45
424.88	1863.07
425.07	1839.66
425.26	1790.51
425.45	1842.00
425.64	1757.74
425.83	1739.02
426.01	1895.83
426.20	1849.02
426.39	1863.07
426.58	1788.17
426.77	1900.52
426.96	2012.86
427.15	1914.56
427.33	1884.13
427.52	1935.62
427.71	1940.30
427.90	1902.86
428.09	1987.11
428.28	1947.33
428.46	1956.69
428.65	1944.99
428.84	2155.63
429.03	1930.94
429.22	1905.20
429.40	2115.84
429.59	1933.28
429.78	1991.80
429.97	2022.22
430.16	1977.75
430.34	1919.24
430.53	2069.03
430.72	2085.42
430.91	2052.65
431.10	2134.57
431.28	2232.87
431.47	2193.08
431.66	2218.83
431.85	2087.76
432.03	2216.49
432.22	2267.98
432.41	2216.49
432.60	2188.40
432.79	2162.66
432.97	2092.44
433.16	2296.07
433.35	2097.12
433.54	2211.81
433.72	2326.49
433.91	2228.19
434.10	2132.23
434.28	2298.41
434.47	2289.04
434.66	2265.64
434.85	2375.64
435.03	2359.26
435.22	2562.89
435.41	2799.28
435.59	2696.30
435.78	2654.17
435.97	2448.20
436.16	2424.80
436.34	2452.88
436.53	2370.96
436.72	2504.37
436.90	2420.11
437.09	2537.14
437.28	2420.11
437.46	2417.77
437.65	2487.99
437.84	2495.01
438.02	2438.84
438.21	2497.35
438.40	2417.77
438.58	2518.42
438.77	2588.63
438.96	2607.36
439.14	2668.21
439.33	2691.62
439.52	2745.45
439.70	2665.87
439.89	2691.62
440.08	2754.81
440.26	2635.44
440.45	2640.12
440.63	2698.64
440.82	2925.67
441.01	2815.66
441.19	2808.64
441.38	2827.37
441.57	2829.71
441.75	2974.82
441.94	2951.42
442.12	2897.58
442.31	3016.95
442.50	3012.27
442.68	2963.12
442.87	2967.80
443.05	3007.59
443.24	2972.48
443.43	3087.17
443.61	3082.49
443.80	3096.53
443.98	3176.11
444.17	2993.55
444.35	2981.84
444.54	3190.15
444.73	3084.83
444.91	3103.55
445.10	3075.46
445.28	3115.25
445.47	3068.44
445.65	3012.27
445.84	3056.74
446.02	3229.94
446.21	3131.64
446.39	3155.04
446.58	3206.53
446.77	3129.30
446.95	3208.87
447.14	3173.77
447.32	3185.47
447.51	3185.47
447.69	3021.63
447.88	3122.27
448.06	3089.51
448.25	3126.96
448.43	3211.22
448.62	3157.38
448.80	3171.43
448.99	3152.70
449.17	3225.26
449.36	3286.11
449.54	3391.44
449.73	3361.01
449.91	3302.50
450.10	3279.09
450.28	3358.67
450.46	3351.65
450.65	3316.54
450.83	3435.91
451.02	3382.07
451.20	3461.65
451.39	3438.25
451.57	3272.07
451.76	3438.25
451.94	3396.12
452.13	3447.61
452.31	3449.95
452.49	3433.57
452.68	3442.93
452.86	3440.59
453.05	3424.20
453.23	3459.31
453.42	3471.01
453.60	3426.54
453.78	3574.00
453.97	3480.38
454.15	3414.84
454.34	3686.34
454.52	3501.44
454.70	3641.87
454.89	3583.36
455.07	3592.72
455.26	3639.53
455.44	3716.77
455.62	3667.62
455.81	3583.36
455.99	3644.21
456.17	3688.68
456.36	3763.58
456.54	3698.05
456.73	3861.88
456.91	3857.20
457.09	3688.68
457.28	3735.50
457.46	3805.71
457.64	3964.87
457.83	3861.88
458.01	3843.16
458.19	4053.81
458.38	3915.72
458.56	3840.82
458.74	3929.76
458.93	3894.65
459.11	3880.61
459.29	3939.12
459.48	3871.25
459.66	3974.23
459.84	3941.46
460.03	4201.26
460.21	4018.70
460.39	4039.76
460.57	4067.85
460.76	4025.72
460.94	4018.70
461.12	4032.74
461.31	3997.64
461.49	4032.74
461.67	4100.62
461.85	4109.98
462.04	4189.56
462.22	4264.46
462.40	4259.78
462.59	4229.35
462.77	3997.64
462.95	4208.28
463.13	4210.62
463.32	4294.88
463.50	4461.06
463.68	4362.76
463.86	4273.82
464.05	4131.05
464.23	4241.05
464.41	4337.01
464.59	4196.58
464.78	4376.80
464.96	4301.90
465.14	4166.15
465.32	4550.00
465.50	4458.72
465.69	4484.47
465.87	4393.19
466.05	4271.48
466.23	4411.91
466.41	4437.66
466.60	4660.01
466.78	4430.63
466.96	4423.61
467.14	4273.82
467.32	4348.72
467.51	4589.79
467.69	4360.42
467.87	4660.01
468.05	4613.20
468.23	4559.36
468.41	4737.24
468.60	4510.21
468.78	4552.34
468.96	4430.63
469.14	4723.20
469.32	4557.02
469.50	4617.88
469.69	4641.28
469.87	4765.33
470.05	4772.35
470.23	4772.35
470.41	4819.16
470.59	4762.99
470.77	4669.37
470.95	4947.89
471.14	4875.34
471.32	4580.43
471.50	4999.38
471.68	4835.55
471.86	4896.40
472.04	4851.93
472.22	5060.24
472.40	4938.53
472.58	4975.98
472.77	4971.30
472.95	5095.35
473.13	5289.61
473.31	5123.43
473.49	5172.58
473.67	5179.61
473.85	5046.20
474.03	5282.59
474.21	5329.40
474.39	5376.21
474.57	5406.64
474.75	5383.23
474.93	5322.38
475.12	5336.42
475.30	5254.50
475.48	5488.56
475.66	5516.64
475.84	5582.18
476.02	5540.05
476.20	5451.11
476.38	5603.24
476.56	5809.21
476.74	5652.39
476.92	5657.07
477.10	5731.97
477.28	5757.72
477.46	5841.98
477.64	5785.80
477.82	5886.45
478.00	5994.11
478.18	5989.43
478.36	5930.92
478.54	6167.31
478.72	6097.10
478.90	6221.14
479.08	6235.19
479.26	6317.11
479.44	6319.45
479.62	6413.07
479.80	6375.62
479.98	6415.41
480.16	6572.22
480.34	6476.26
480.52	6609.67
480.70	6621.38
480.88	6527.75
481.06	6736.06
481.24	6775.85
481.41	6794.58
481.59	6794.58
481.77	6949.05
481.95	7030.97
482.13	7110.55
482.31	6923.30
482.49	7206.51
482.67	7005.22
482.85	7281.41
483.03	7276.73
483.21	7487.37
483.39	7517.80
483.57	7386.73
483.74	7564.61
483.92	7496.74
484.10	7707.38
484.28	7756.54
484.46	7826.75
484.64	7915.69
484.82	7927.39
485.00	7838.45
485.18	8060.80
485.35	8283.16
485.53	8131.02
485.71	8205.92
485.89	8231.66
486.07	8203.58
486.25	8351.03
486.43	8458.70
486.61	8351.03
486.78	8503.17
486.96	8697.43
487.14	8812.12
487.32	8847.22
487.50	8805.10
487.68	8877.65
487.85	8994.68
488.03	9193.62
488.21	9277.88
488.39	9125.75
488.57	9238.09
488.75	9111.71
488.92	9591.52
489.10	9451.08
489.28	9628.96
489.46	9502.58
489.64	9734.29
489.81	9633.64
489.99	9982.38
490.17	9879.40
490.35	10111.11
490.53	9790.46
490.70	10033.88
490.88	9968.34
491.06	10097.07
491.24	10204.74
491.41	10017.49
491.59	10230.48
491.77	10401.34
491.95	10583.90
492.13	10466.88
492.30	10560.50
492.48	10506.66
492.66	10602.63
492.84	10649.44
493.01	10761.78
493.19	10883.49
493.37	10911.58
493.54	10972.43
493.72	11150.31
493.90	10930.30
494.08	11110.52
494.25	11173.72
494.43	11367.98
494.61	11389.05
494.79	11304.79
494.96	11550.54
495.14	11332.87
495.32	11531.82
495.49	11658.21
495.67	11681.61
495.85	11800.98
496.02	11651.19
496.20	11747.15
496.38	12044.40
496.55	11754.17
496.73	12219.94
496.91	11927.37
497.09	12400.16
497.26	12306.54
497.44	12348.67
497.62	12463.35
497.79	12278.45
497.97	12276.11
498.14	12463.35
498.32	12781.67
498.50	12732.51
498.67	12924.44
498.85	12655.28
499.03	12685.70
499.20	12903.37
499.38	12917.42
499.56	13008.70
499.73	13385.52
499.91	13205.30
500.08	13167.85
500.26	12774.64
500.44	12828.48
500.61	13359.78
500.79	13135.09
500.97	13495.53
501.14	13284.88
501.32	13579.79
501.49	13357.44
501.67	13465.10
501.84	13586.81
502.02	13422.97
502.20	13650.00
502.37	13895.76
502.55	13743.63
502.72	13568.09
502.90	13834.91
503.07	13832.57
503.25	14083.00
503.43	13860.65
503.60	14272.59
503.78	14157.90
503.95	14286.63
504.13	13991.72
504.30	14279.61
504.48	14064.28
504.65	14352.16
504.83	14611.96
505.01	14403.66
505.18	14324.08
505.36	14520.68
505.53	14389.61
505.71	14527.71
505.88	14663.46
506.06	14576.86
506.23	14370.89
506.41	14822.61
506.58	14733.67
506.76	14974.75
506.93	14796.87
507.11	14848.36
507.28	15112.84
507.46	14913.89
507.63	15335.19
507.81	15344.55
507.98	14906.87
508.16	15267.31
508.33	15358.60
508.50	15344.55
508.68	15384.34
508.85	15414.77
509.03	15503.71
509.20	15557.54
509.38	15527.11
509.55	15431.15
509.73	15473.28
509.90	15875.85
510.08	15941.39
510.25	15985.86
510.42	15864.15
510.60	15765.85
510.77	15934.37
510.95	15878.19
511.12	15756.49
511.30	15819.68
511.47	16116.93
511.64	15999.90
511.82	16159.06
511.99	15885.22
512.17	16334.60
512.34	16561.63
512.51	16358.00
512.69	16276.09
512.86	16201.19
513.04	16641.21
513.21	16809.73
513.38	16547.59
513.56	16395.45
513.73	16582.70
513.90	16751.21
514.08	16798.02
514.25	16992.29
514.43	17057.82
514.60	16774.62
514.77	16889.31
514.95	17418.27
515.12	17013.35
515.29	16926.75
515.47	17231.02
515.64	17160.81
515.81	17160.81
515.99	17357.41
516.16	17401.88
516.33	17488.48
516.51	17198.26
516.68	17451.03
516.85	17334.01
517.03	17743.60
517.20	17675.73
517.37	17638.28
517.54	17621.89
517.72	17537.63
517.89	17666.36
518.06	17720.20
518.24	17703.81
518.41	17689.77
518.58	17977.65
518.75	17928.50
518.93	17785.73
519.10	17858.29
519.27	18139.15
519.45	18127.45
519.62	18099.36
519.79	17944.89
519.96	18101.70
520.14	18251.50
520.31	18150.85
520.48	17994.04
520.65	18256.18
520.83	18279.58
521.00	18412.99
521.17	18104.04
521.34	18092.34
521.52	18354.48
521.69	18614.28
521.86	18434.06
522.03	18829.61
522.20	18705.56
522.38	18689.18
522.55	18640.03
522.72	18576.83
522.89	18948.98
523.07	19087.07
523.24	18920.89
523.41	18553.43
523.58	18904.51
523.75	19190.05
523.92	18817.91
524.10	19087.07
524.27	19007.49
524.44	18963.02
524.61	19248.57
524.78	19468.58
524.96	19257.93
525.13	19520.07
525.30	19590.28
525.47	19440.49
525.64	19295.38
525.81	19637.09
525.98	19531.77
526.16	19590.28
526.33	19379.64
526.50	19454.53
526.67	19360.91
526.84	19667.52
527.01	19499.00
527.18	19522.41
527.36	19866.47
527.53	19880.51
527.70	19744.76
527.87	19845.40
528.04	19948.39
528.21	20030.30
528.38	20191.80
528.55	19749.44
528.72	20039.67
528.89	19955.41
529.07	19953.07
529.24	20042.01
529.41	20114.56
529.58	20224.57
529.75	20053.71
529.92	20245.63
530.09	20217.55
530.26	19836.04
530.43	20240.95
530.60	20011.58
530.77	20418.83
530.94	20395.43
531.11	20545.22
531.28	20147.33
531.46	20133.29
531.63	20428.20
531.80	20423.51
531.97	20779.28
532.14	20662.25
532.31	20636.50
532.48	20505.43
532.65	20690.34
532.82	20463.30
532.99	20505.43
533.16	20592.03
533.33	20807.36
533.50	20912.69
533.67	20854.17
533.84	20783.96
534.01	20727.78
534.18	20774.60
534.35	21177.17
534.52	21163.12
534.69	21275.47
534.86	21207.59
535.03	20996.95
535.20	21057.80
535.37	21390.16
535.54	21223.98
535.71	20886.94
535.88	21195.89
536.05	21104.61
536.22	21172.49
536.38	21378.45
536.55	21792.73
536.72	21525.91
536.89	21324.62
537.06	21408.88
537.23	21612.51
537.40	21348.03
537.57	21333.98
537.74	21427.60
537.91	21820.81
538.08	21886.35
538.25	21563.36
538.42	21759.96
538.59	21851.24
538.75	21404.20
538.92	21561.02
539.09	21546.97
539.26	21893.37
539.43	21874.65
539.60	21837.20
539.77	21809.11
539.94	22036.14
540.11	22160.19
540.28	22115.72
540.44	21895.71
540.61	21734.21
540.78	22298.28
540.95	22324.03
541.12	22211.68
541.29	22471.48
541.46	22382.54
541.62	22579.15
541.79	22726.60
541.96	22317.01
542.13	22609.58
542.30	22562.76
542.47	22471.48
542.63	22888.10
542.80	22820.22
542.97	22782.77
543.14	23000.44
543.31	22902.14
543.48	22747.67
543.64	23255.56
543.81	22963.00
543.98	22803.84
544.15	22916.19
544.32	23150.24
544.48	23250.88
544.65	23094.07
544.82	22867.03
544.99	22572.13
545.16	22993.42
545.32	23016.83
545.49	23461.53
545.66	24074.75
545.83	24002.19
546.00	24011.56
546.16	23681.54
546.33	23316.42
546.50	23178.33
546.67	23175.98
546.83	23087.04
547.00	23398.34
547.17	22979.38
547.34	23403.02
547.50	22913.84
547.67	23281.31
547.84	23206.41
548.00	23070.66
548.17	23482.59
548.34	23183.01
548.51	23552.81
548.67	23124.49
548.84	23227.48
549.01	23360.89
549.18	23293.01
549.34	23075.34
549.51	23337.48
549.68	23173.64
549.84	23103.43
550.01	23255.56
550.18	23140.88
550.34	23484.94
550.51	23459.19
550.68	23503.66
550.84	23243.86
551.01	23459.19
551.18	23218.11
551.34	23007.47
551.51	23311.74
551.68	23756.44
551.84	23644.09
552.01	23379.61
552.18	23515.36
552.34	23620.69
552.51	23473.23
552.68	23269.61
552.84	23786.86
553.01	23735.37
553.18	23782.18
553.34	23557.49
553.51	23623.03
553.67	23749.42
553.84	23784.52
554.01	23576.22
554.17	23630.05
554.34	23798.57
554.51	23646.43
554.67	23672.18
554.84	23955.38
555.00	23669.84
555.17	23599.62
555.33	23889.85
555.50	23637.07
555.67	23931.98
555.83	23733.03
556.00	23693.24
556.16	24243.27
556.33	23419.40
556.50	23772.82
556.66	23843.04
556.83	24463.28
556.99	23789.20
557.16	24219.86
557.32	23651.11
557.49	23730.69
557.65	23611.32
557.82	24006.87
557.98	23871.12
558.15	24032.62
558.32	23896.87
558.48	24339.23
558.65	24159.01
558.81	24044.32
558.98	24126.24
559.14	24168.37
559.31	23962.40
559.47	24194.12
559.64	24276.04
559.80	24034.96
559.97	24437.53
560.13	23950.70
560.30	24056.03
560.46	23997.51
560.63	24166.03
560.79	24105.18
560.96	24070.07
561.12	24041.98
561.29	24212.84
561.45	24023.26
561.61	24098.16
561.78	24339.23
561.94	24280.72
562.11	24245.61
562.27	24121.56
562.44	24304.12
562.60	23833.68
562.77	24163.69
562.93	24046.66
563.10	24236.25
563.26	24133.26
563.42	24524.13
563.59	24271.36
563.75	24362.64
563.92	24435.19
564.08	24465.62
564.24	24528.81
564.41	24226.89
564.57	24180.07
564.74	24046.66
564.90	24671.59
565.07	24526.47
565.23	24720.74
565.39	24264.33
565.56	24404.77
565.72	24428.17
565.88	24601.37
566.05	24451.58
566.21	24140.29
566.38	24081.77
566.54	24329.87
566.70	24327.53
566.87	24645.84
567.03	23997.51
567.19	24477.32
567.36	24467.96
567.52	24261.99
567.68	24524.13
567.85	24367.32
568.01	24601.37
568.17	24444.56
568.34	24402.43
568.50	24276.04
568.66	24467.96
568.83	24744.14
568.99	24301.78
569.15	24252.63
569.32	24261.99
569.48	24126.24
569.64	24325.19
569.81	24702.01
569.97	24517.11
570.13	24346.25
570.30	24463.28
570.46	25078.84
570.62	24524.13
570.78	24507.75
570.95	24584.99
571.11	24533.50
571.27	24320.51
571.43	24301.78
571.60	24477.32
571.76	24482.00
571.92	24285.40
572.09	24683.29
572.25	24865.85
572.41	24577.97
572.57	24561.58
572.74	24474.98
572.90	24500.73
573.06	24414.13
573.22	24386.04
573.38	24580.31
573.55	24238.59
573.71	24514.77
573.87	24624.78
574.03	24306.46
574.20	24402.43
574.36	24484.34
574.52	24542.86
574.68	24484.34
574.84	24266.67
575.01	24858.83
575.17	24173.05
575.33	24737.12
575.49	24332.21
575.65	24568.60
575.82	24669.25
575.98	24411.79
576.14	24552.22
576.30	24472.64
576.46	24676.27
576.62	24465.62
576.79	25013.31
576.95	24531.15
577.11	24659.88
577.27	24664.57
577.43	24687.97
577.59	24521.79
577.75	24360.30
577.92	24425.83
578.08	24470.30
578.24	24599.03
578.40	24568.60
578.56	24594.35
578.72	24889.26
578.88	24915.00
579.04	25106.93
579.21	24634.14
579.37	25064.80
579.53	24580.31
579.69	24650.52
579.85	24765.21
580.01	24753.51
580.17	24842.45
580.33	24961.81
580.49	24713.72
580.65	24793.29
580.82	24987.56
580.98	24575.62
581.14	24842.45
581.30	24961.81
581.46	24435.19
581.62	24395.40
581.78	24603.71
581.94	24823.72
582.10	24599.03
582.26	24739.46
582.42	24856.49
582.58	24865.85
582.74	24805.00
582.90	24915.00
583.06	24872.87
583.22	24575.62
583.38	24692.65
583.54	24781.59
583.70	24657.54
583.86	24896.28
584.02	24325.19
584.18	24828.40
584.34	24898.62
584.50	25017.99
584.66	25242.68
584.82	24613.07
584.98	24994.58
585.14	24856.49
585.30	24592.01
585.46	24437.53
585.62	24540.52
585.78	24835.42
585.94	24435.19
586.10	24854.15
586.26	24893.94
586.42	25219.27
586.58	24933.73
586.74	24673.93
586.90	24727.76
587.06	24608.39
587.22	24971.18
587.38	24762.87
587.54	24774.57
587.70	25020.33
587.86	24734.78
588.02	25151.40
588.18	25156.08
588.34	25111.61
588.49	24664.57
588.65	24566.26
588.81	24854.15
588.97	24697.33
589.13	24617.75
589.29	24741.80
589.45	24950.11
589.61	24896.28
589.77	25010.96
589.93	24882.24
590.08	25017.99
590.24	25282.47
590.40	24940.75
590.56	25074.16
590.72	24755.85
590.88	24474.98
591.04	24912.66
591.20	25057.78
591.35	25209.91
591.51	25057.78
591.67	24907.98
591.83	25034.37
591.99	24975.86
592.15	24966.49
592.31	24900.96
