SpectraSuite Data File
++++++++++++++++++++++++++++++++++++
Date: Fri Oct 04 11:39:28 GMT-05:00 2013
User: price-jones
Dark Spectrum Present: No
Reference Spectrum Present: No
Number of Sampled Component Spectra: 1
Spectrometers: USB2+H05261
Integration Time (usec): 100000 (USB2+H05261)
Spectra Averaged: 1 (USB2+H05261)
Boxcar Smoothing: 0 (USB2+H05261)
Correct for Electrical Dark: No (USB2+H05261)
Strobe/Lamp Enabled: No (USB2+H05261)
Correct for Detector Non-linearity: No (USB2+H05261)
Correct for Stray Light: No (USB2+H05261)
Number of Pixels in Processed Spectrum: 2048
>>>>>Begin Processed Spectral Data<<<<<
365.73	56.17
365.92	56.17
366.12	56.17
366.32	0.00
366.52	0.00
366.72	0.00
366.91	0.00
367.11	53.83
367.31	0.00
367.51	0.00
367.70	0.00
367.90	0.00
368.10	0.00
368.30	0.00
368.49	0.00
368.69	0.00
368.89	0.00
369.09	0.00
369.28	7.02
369.48	0.00
369.68	2.34
369.87	16.38
370.07	49.15
370.27	65.54
370.47	70.22
370.66	39.79
370.86	126.39
371.06	257.46
371.25	194.26
371.45	145.11
371.65	180.22
371.84	138.09
372.04	88.94
372.24	166.18
372.44	133.41
372.63	205.97
372.83	220.01
373.03	119.37
373.22	227.03
373.42	250.44
373.62	163.84
373.81	205.97
374.01	189.58
374.21	245.76
374.40	189.58
374.60	238.73
374.79	180.22
374.99	187.24
375.19	262.14
375.38	227.03
375.58	264.48
375.78	280.86
375.97	252.78
376.17	182.56
376.37	229.37
376.56	227.03
376.76	236.39
376.95	217.67
377.15	205.97
377.35	201.29
377.54	196.60
377.74	224.69
377.93	224.69
378.13	180.22
378.33	220.01
378.52	166.18
378.72	212.99
378.91	191.92
379.11	154.48
379.31	250.44
379.50	212.99
379.70	271.50
379.89	248.10
380.09	220.01
380.28	145.11
380.48	170.86
380.68	205.97
380.87	255.12
381.07	248.10
381.26	205.97
381.46	205.97
381.65	161.50
381.85	187.24
382.04	191.92
382.24	210.65
382.43	222.35
382.63	170.86
382.83	224.69
383.02	332.36
383.22	243.42
383.41	159.16
383.61	175.54
383.80	252.78
384.00	271.50
384.19	318.31
384.39	294.91
384.58	271.50
384.78	320.65
384.97	269.16
385.17	294.91
385.36	212.99
385.56	241.08
385.75	294.91
385.95	208.31
386.14	290.23
386.34	234.05
386.53	257.46
386.72	278.52
386.92	198.95
387.11	264.48
387.31	266.82
387.50	287.89
387.70	318.31
387.89	266.82
388.09	285.55
388.28	191.92
388.48	360.44
388.67	374.49
388.86	285.55
389.06	292.57
389.25	273.84
389.45	285.55
389.64	255.12
389.84	341.72
390.03	269.16
390.22	236.39
390.42	276.18
390.61	299.59
390.81	327.68
391.00	264.48
391.19	381.51
391.39	283.20
391.58	315.97
391.78	332.36
391.97	285.55
392.16	259.80
392.36	409.59
392.55	351.08
392.75	334.70
392.94	308.95
393.13	327.68
393.33	311.29
393.52	327.68
393.71	360.44
393.91	311.29
394.10	327.68
394.29	327.68
394.49	362.78
394.68	308.95
394.88	376.83
395.07	365.12
395.26	433.00
395.46	299.59
395.65	407.25
395.84	327.68
396.04	440.02
396.23	414.27
396.42	447.04
396.62	362.78
396.81	454.06
397.00	428.32
397.19	416.62
397.39	379.17
397.58	517.26
397.77	442.36
397.97	411.93
398.16	463.43
398.35	475.13
398.55	447.04
398.74	484.49
398.93	507.90
399.12	461.09
399.32	458.74
399.51	372.15
399.70	437.68
399.90	465.77
400.09	477.47
400.28	500.87
400.47	545.34
400.67	578.11
400.86	538.32
401.05	533.64
401.24	451.72
401.44	524.28
401.63	531.30
401.82	566.41
402.01	547.69
402.21	550.03
402.40	517.26
402.59	550.03
402.78	610.88
402.97	617.90
403.17	550.03
403.36	575.77
403.55	592.16
403.74	641.31
403.93	634.29
404.13	697.48
404.32	655.35
404.51	615.56
404.70	734.93
404.89	699.82
405.09	800.46
405.28	664.71
405.47	716.20
405.66	774.72
405.85	723.23
406.05	734.93
406.24	711.52
406.43	734.93
406.62	816.85
406.81	854.30
407.00	772.38
407.20	791.10
407.39	826.21
407.58	877.70
407.77	791.10
407.96	854.30
408.15	912.81
408.34	833.23
408.54	905.79
408.73	884.72
408.92	954.94
409.11	933.87
409.30	971.32
409.49	870.68
409.68	945.58
409.87	973.66
410.07	957.28
410.26	1034.52
410.45	1022.81
410.64	1039.20
410.83	1039.20
411.02	1015.79
411.21	1128.14
411.40	1151.54
411.59	1078.99
411.78	1151.54
411.98	1144.52
412.17	1165.59
412.36	1114.10
412.55	1123.46
412.74	1224.10
412.93	1193.67
413.12	1196.01
413.31	1385.60
413.50	1308.36
413.69	1301.34
413.88	1345.81
414.07	1313.04
414.26	1334.11
414.45	1357.51
414.64	1369.21
414.83	1418.36
415.02	1448.79
415.22	1380.92
415.41	1469.86
415.60	1380.92
415.79	1390.28
415.98	1511.99
416.17	1359.85
416.36	1547.09
416.55	1533.05
416.74	1598.59
416.93	1514.33
417.12	1596.25
417.31	1640.72
417.50	1629.01
417.69	1776.47
417.88	1710.93
418.07	1720.29
418.26	1720.29
418.45	1727.32
418.64	1717.95
418.83	1781.15
419.02	1657.10
419.21	1774.13
419.39	1769.44
419.58	1806.89
419.77	1778.81
419.96	1905.20
420.15	1926.26
420.34	1757.74
420.53	1867.75
420.72	1926.26
420.91	1797.53
421.10	1905.20
421.29	1860.73
421.48	1849.02
421.67	1963.71
421.86	1881.79
422.05	2036.27
422.24	1914.56
422.43	1895.83
422.61	2003.50
422.80	2069.03
422.99	1956.69
423.18	1952.01
423.37	2017.54
423.56	1956.69
423.75	1989.46
423.94	1863.07
424.13	1849.02
424.32	1874.77
424.50	2099.46
424.69	2120.53
424.88	2085.42
425.07	1935.62
425.26	1977.75
425.45	1947.33
425.64	2024.56
425.83	2094.78
426.01	2080.74
426.20	2143.93
426.39	2129.89
426.58	1982.43
426.77	2097.12
426.96	2097.12
427.15	2127.55
427.33	2146.27
427.52	2129.89
427.71	2078.40
427.90	2165.00
428.09	2085.42
428.28	2115.84
428.46	2179.04
428.65	2134.57
428.84	2251.60
429.03	2319.47
429.22	2202.44
429.40	2204.78
429.59	2174.36
429.78	2115.84
429.97	2101.80
430.16	2223.51
430.34	2312.45
430.53	2272.66
430.72	2377.98
430.91	2368.62
431.10	2232.87
431.28	2375.64
431.47	2415.43
431.66	2445.86
431.85	2401.39
432.03	2497.35
432.22	2497.35
432.41	2480.97
432.60	2375.64
432.79	2375.64
432.97	2436.50
433.16	2445.86
433.35	2459.90
433.54	2448.20
433.72	2546.50
433.91	2427.14
434.10	2499.69
434.28	2534.80
434.47	2668.21
434.66	2511.39
434.85	2551.18
435.03	2675.23
435.22	2766.51
435.41	3033.33
435.59	3066.10
435.78	2846.09
435.97	2764.17
436.16	2597.99
436.34	2612.04
436.53	2705.66
436.72	2775.88
436.90	2553.52
437.09	2708.00
437.28	2761.83
437.46	2766.51
437.65	2764.17
437.84	2759.49
438.02	2820.35
438.21	2764.17
438.40	2796.94
438.58	2836.73
438.77	2977.16
438.96	2932.69
439.14	2981.84
439.33	2986.52
439.52	2923.33
439.70	2939.71
439.89	3019.29
440.08	3173.77
440.26	3089.51
440.45	3148.02
440.63	3166.74
440.82	3094.19
441.01	3148.02
441.19	3243.98
441.38	3276.75
441.57	3267.39
441.75	3255.69
441.94	3311.86
442.12	3255.69
442.31	3356.33
442.50	3295.47
442.68	3375.05
442.87	3290.79
443.05	3239.30
443.24	3368.03
443.43	3468.67
443.61	3349.31
443.80	3536.55
443.98	3258.03
444.17	3325.90
444.35	3513.14
444.54	3410.16
444.73	3463.99
444.91	3494.42
445.10	3358.67
445.28	3389.10
445.47	3302.50
445.65	3365.69
445.84	3538.89
446.02	3632.51
446.21	3506.12
446.39	3412.50
446.58	3620.81
446.77	3585.70
446.95	3253.34
447.14	3508.46
447.32	3475.70
447.51	3517.83
447.69	3445.27
447.88	3510.80
448.06	3609.11
448.25	3431.23
448.43	3634.85
448.62	3473.36
448.80	3641.87
448.99	3740.18
449.17	3634.85
449.36	3543.57
449.54	3590.38
449.73	3740.18
449.91	3576.34
450.10	3679.32
450.28	3878.27
450.46	3772.94
450.65	3686.34
450.83	3763.58
451.02	3662.94
451.20	3880.61
451.39	3894.65
451.57	3815.07
451.76	3756.56
451.94	3707.41
452.13	3925.08
452.31	3948.48
452.49	3765.92
452.68	3871.25
452.86	3913.38
453.05	3847.84
453.23	3850.18
453.42	3840.82
453.60	3864.22
453.78	3969.55
453.97	3974.23
454.15	3941.46
454.34	3894.65
454.52	3918.06
454.70	4023.38
454.89	4173.18
455.07	3878.27
455.26	4035.08
455.44	4191.90
455.62	4100.62
455.81	4161.47
455.99	4227.01
456.17	4196.58
456.36	4152.11
456.54	4252.75
456.73	4156.79
456.91	4287.86
457.09	4294.88
457.28	4397.87
457.46	4315.95
457.64	4432.97
457.83	4189.56
458.01	4196.58
458.19	4379.14
458.38	4318.29
458.56	4456.38
458.74	4369.78
458.93	4269.14
459.11	4407.23
459.29	4395.53
459.48	4425.95
459.66	4493.83
459.84	4643.62
460.03	4594.47
460.21	4566.39
460.39	4395.53
460.57	4608.51
460.76	4510.21
460.94	4498.51
461.12	4589.79
461.31	4589.79
461.49	4624.90
461.67	4470.42
461.85	4723.20
462.04	4596.81
462.22	4746.61
462.40	4910.44
462.59	4765.33
462.77	4805.12
462.95	4779.37
463.13	4816.82
463.32	4940.87
463.50	4718.52
463.68	4931.51
463.86	4882.36
464.05	4844.91
464.23	4709.16
464.41	4880.02
464.59	4685.75
464.78	4870.65
464.96	4985.34
465.14	4863.63
465.32	4865.97
465.50	4814.48
465.69	4952.57
465.87	4917.47
466.05	5043.85
466.23	4873.00
466.41	5018.11
466.60	5107.05
466.78	4961.94
466.96	4971.30
467.14	5053.22
467.32	5107.05
467.51	5039.17
467.69	5137.48
467.87	4887.04
468.05	5041.51
468.23	5111.73
468.41	5078.96
468.60	5177.26
468.78	5261.52
468.96	5195.99
469.14	5195.99
469.32	5305.99
469.50	5207.69
469.69	5348.12
469.87	5462.81
470.05	5233.44
470.23	5245.14
470.41	5380.89
470.59	5462.81
470.77	5348.12
470.95	5446.43
471.14	5549.41
471.32	5369.19
471.50	5636.01
471.68	5568.13
471.86	5605.58
472.04	5757.72
472.22	5774.10
472.40	5619.63
472.58	5547.07
472.77	5764.74
472.95	5624.31
473.13	5933.26
473.31	5617.29
473.49	5666.44
473.67	5549.41
473.85	5837.30
474.03	5837.30
474.21	6031.56
474.39	5989.43
474.57	6090.07
474.75	5867.72
474.93	6153.27
475.12	5980.07
475.30	6054.97
475.48	5961.34
475.66	6305.40
475.84	6036.24
476.02	6218.80
476.20	6314.77
476.38	6239.87
476.56	6417.75
476.74	6431.79
476.92	6305.40
477.10	6558.18
477.28	6490.31
477.46	6270.30
477.64	6677.55
477.82	6757.13
478.00	6836.70
478.18	6939.69
478.36	6862.45
478.54	6883.52
478.72	6820.32
478.90	7042.67
479.08	7030.97
479.26	7091.82
479.44	7288.43
479.62	7145.66
479.80	7283.75
479.98	7342.26
480.16	7250.98
480.34	7279.07
480.52	7588.02
480.70	7475.67
480.88	7410.14
481.06	7426.52
481.24	7529.50
481.41	7555.25
481.59	7676.96
481.77	7913.35
481.95	7995.27
482.13	7999.95
482.31	7824.41
482.49	8205.92
482.67	8325.29
482.85	8126.34
483.03	8416.57
483.21	8238.69
483.39	8505.51
483.57	8425.93
483.74	8318.26
483.92	8732.54
484.10	8374.44
484.28	8699.77
484.46	8872.97
484.64	8922.12
484.82	8842.54
485.00	8856.59
485.18	9083.62
485.35	9013.40
485.53	9181.92
485.71	9259.16
485.89	9254.48
486.07	9121.07
486.25	9334.06
486.43	9453.42
486.61	9682.80
486.78	9509.60
486.96	9898.13
487.14	9844.29
487.32	9877.06
487.50	9673.43
487.68	9844.29
487.85	10127.50
488.03	10115.80
488.21	10204.74
488.39	10415.38
488.57	10314.74
488.75	10494.96
488.92	10839.02
489.10	10609.65
489.28	10525.39
489.46	10593.26
489.64	10843.70
489.81	10972.43
489.99	11063.71
490.17	11262.66
490.35	11199.46
490.53	11262.66
490.70	11349.26
490.88	11115.20
491.06	11346.92
491.24	11300.11
491.41	11330.53
491.59	11672.25
491.77	11506.07
491.95	11604.38
492.13	12046.74
492.30	11815.02
492.48	11688.64
492.66	12175.47
492.84	11957.80
493.01	12343.99
493.19	11969.50
493.37	12411.86
493.54	12205.89
493.72	12343.99
493.90	12444.63
494.08	12437.61
494.25	12587.40
494.43	12446.97
494.61	12975.93
494.79	12940.82
494.96	12807.41
495.14	12903.37
495.32	12854.22
495.49	13137.43
495.67	13226.37
495.85	13418.29
496.02	13053.17
496.20	13319.99
496.38	13207.64
496.55	13537.66
496.73	13675.75
496.91	13713.20
497.09	13762.35
497.26	14090.02
497.44	13757.67
497.62	13774.05
497.79	14054.92
497.97	13902.78
498.14	14094.71
498.32	14097.05
498.50	14307.69
498.67	14298.33
498.85	14527.71
499.03	14436.42
499.20	14626.01
499.38	14420.04
499.56	14757.08
499.73	14572.18
499.91	14745.38
500.08	14726.65
500.26	14841.34
500.44	14707.93
500.61	14651.75
500.79	15222.84
500.97	15222.84
501.14	15096.46
501.32	14944.32
501.49	15424.13
501.67	15173.69
501.84	15452.22
502.02	15440.51
502.20	15492.01
502.37	15398.38
502.55	15648.82
502.72	15435.83
502.90	15613.71
503.07	15655.84
503.25	15903.94
503.43	15653.50
503.60	15908.62
503.78	15864.15
503.95	15861.81
504.13	15934.37
504.30	16032.67
504.48	15822.02
504.65	16119.27
504.83	16233.96
505.01	16276.09
505.18	16360.34
505.36	16353.32
505.53	16477.37
505.71	16456.31
505.88	16545.25
506.06	16397.79
506.23	16791.00
506.41	16657.59
506.58	16786.32
506.76	16809.73
506.93	16629.51
507.11	16725.47
507.28	16936.12
507.46	17027.40
507.63	16910.37
507.81	17383.16
507.98	17034.42
508.16	17188.89
508.33	17224.00
508.50	17228.68
508.68	17188.89
508.85	17336.35
509.03	17170.17
509.20	17462.74
509.38	17467.42
509.55	17715.51
509.73	17818.50
509.90	17867.65
510.08	17603.17
510.25	17860.63
510.42	17935.53
510.60	17956.59
510.77	17724.88
510.95	17951.91
511.12	17980.00
511.30	17851.27
511.47	18192.98
511.64	18125.11
511.82	18232.77
511.99	18232.77
512.17	18565.13
512.34	18396.61
512.51	18466.83
512.69	18368.52
512.86	18427.04
513.04	18719.60
513.21	18548.75
513.38	19190.05
513.56	18602.58
513.73	18436.40
513.90	18675.13
514.08	18487.89
514.25	19166.65
514.43	18747.69
514.60	19260.27
514.77	18946.64
514.95	19417.08
515.12	18993.45
515.29	19000.47
515.47	19440.49
515.64	19445.17
515.81	19288.35
515.99	19372.61
516.16	19674.54
516.33	19520.07
516.51	19852.42
516.68	19747.10
516.85	19665.18
517.03	19667.52
517.20	19758.80
517.37	19953.07
517.54	19761.14
517.72	19772.85
517.89	19819.66
518.06	19924.98
518.24	19992.86
518.41	19964.77
518.58	20039.67
518.75	20177.76
518.93	20276.06
519.10	20175.42
519.27	20320.53
519.45	20456.28
519.62	20161.37
519.79	19957.75
519.96	20425.86
520.14	20486.71
520.31	20243.29
520.48	20524.16
520.65	20549.90
520.83	20732.47
521.00	20617.78
521.17	20517.14
521.34	20645.87
521.52	20400.11
521.69	20585.01
521.86	21146.74
522.03	20748.85
522.20	21156.10
522.38	21057.80
522.55	20987.58
522.72	21060.14
522.89	21085.89
523.07	21474.42
523.24	21282.49
523.41	21319.94
523.58	21596.12
523.75	21460.37
523.92	21401.86
524.10	21455.69
524.27	21465.05
524.44	21734.21
524.61	21685.06
524.78	21502.50
524.96	21713.15
525.13	21537.61
525.30	22064.23
525.47	22181.26
525.64	21722.51
525.81	21844.22
525.98	21860.60
526.16	21968.27
526.33	22005.72
526.50	22059.55
526.67	21724.85
526.84	21867.63
527.01	22047.85
527.18	21745.92
527.36	22293.60
527.53	22328.71
527.70	22560.42
527.87	22342.75
528.04	22586.17
528.21	22160.19
528.38	22632.98
528.55	22490.21
528.72	22480.85
528.89	22609.58
529.07	22534.68
529.24	22604.89
529.41	22569.79
529.58	22572.13
529.75	22792.14
529.92	22663.41
530.09	22719.58
530.26	22796.82
530.43	22665.75
530.60	22443.40
530.77	22890.44
530.94	22871.72
531.11	22689.15
531.28	22986.40
531.46	22852.99
531.63	23112.79
531.80	23147.90
531.97	23330.46
532.14	23098.75
532.31	23297.69
532.48	22909.16
532.65	23358.55
532.82	23068.32
532.99	23051.94
533.16	23159.60
533.33	23513.02
533.50	23756.44
533.67	23536.43
533.84	23421.74
534.01	23653.45
534.18	23033.21
534.35	23487.28
534.52	23548.13
534.69	23899.21
534.86	23709.63
535.03	23611.32
535.20	23686.22
535.37	23737.71
535.54	24051.34
535.71	23742.39
535.88	23737.71
536.05	23730.69
536.22	23704.95
536.38	24388.38
536.55	24020.92
536.72	24137.94
536.89	24203.48
537.06	23854.74
537.23	24159.01
537.40	24205.82
537.57	24320.51
537.74	23997.51
537.91	24163.69
538.08	24451.58
538.25	24247.95
538.42	24582.65
538.59	24205.82
538.75	24245.61
538.92	24620.10
539.09	24456.26
539.26	24872.87
539.43	24556.90
539.60	24631.80
539.77	24376.68
539.94	24655.20
540.11	24814.36
540.28	24524.13
540.44	24751.17
540.61	24879.89
540.78	25310.55
540.95	25113.95
541.12	25127.99
541.29	25366.73
541.46	25195.87
541.62	25357.36
541.79	25376.09
541.96	25144.38
542.13	24924.36
542.30	25193.53
542.47	25425.24
542.63	25319.92
542.80	25326.94
542.97	25867.60
543.14	25560.99
543.31	25102.25
543.48	25308.21
543.64	25813.77
543.81	25867.60
543.98	25802.07
544.15	25563.33
544.32	25703.76
544.48	25535.24
544.65	25895.69
544.82	25649.93
544.99	25642.91
545.16	25832.49
545.32	26174.21
545.49	26314.64
545.66	26939.57
545.83	27168.94
546.00	26773.39
546.16	26445.71
546.33	26232.72
546.50	25736.53
546.67	26143.78
546.83	25708.44
547.00	25949.52
547.17	25582.06
547.34	26272.51
547.50	26373.16
547.67	26115.70
547.84	25853.56
548.00	26054.84
548.17	26338.05
548.34	25921.43
548.51	26403.58
548.67	26298.26
548.84	26221.02
549.01	26127.40
549.18	26221.02
549.34	26717.22
549.51	26167.19
549.68	26199.96
549.84	26176.55
550.01	26064.21
550.18	26192.94
550.34	26522.95
550.51	26735.94
550.68	26565.08
550.84	26298.26
551.01	26579.12
551.18	26342.73
551.34	26199.96
551.51	26429.33
551.68	26438.69
551.84	26504.23
552.01	26342.73
552.18	26675.09
552.34	26415.29
552.51	26544.02
552.68	26270.17
552.84	26312.30
553.01	26665.72
553.18	26230.38
553.34	26455.08
553.51	26911.48
553.67	27035.53
553.84	26892.76
554.01	26967.65
554.17	26658.70
554.34	26611.89
554.51	26862.33
554.67	26993.40
554.84	26742.96
555.00	27051.91
555.17	26972.33
555.33	26848.29
555.50	26719.56
555.67	26307.62
555.83	26604.87
556.00	26520.61
556.16	26923.18
556.33	26738.28
556.50	26876.37
556.66	26649.34
556.83	26656.36
556.99	27332.78
557.16	27271.92
557.32	26703.17
557.49	27211.07
557.65	26897.44
557.82	26583.80
557.98	26656.36
558.15	26794.45
558.32	27054.25
558.48	27234.47
558.65	27145.53
558.81	26991.06
558.98	27225.11
559.14	26885.73
559.31	27012.12
559.47	26972.33
559.64	27049.57
559.80	27393.63
559.97	27407.67
560.13	26749.98
560.30	27393.63
560.46	26981.70
560.63	27290.65
560.79	27477.89
560.96	27096.38
561.12	26925.52
561.29	27133.83
561.45	27122.13
561.61	26904.46
561.78	27438.10
561.94	27517.68
562.11	27213.41
562.27	27300.01
562.44	27002.76
562.60	27276.60
562.77	27229.79
562.93	27023.83
563.10	27222.77
563.26	27466.19
563.42	27660.45
563.59	27311.71
563.75	27014.46
563.92	27295.33
564.08	27108.08
564.24	27262.56
564.41	26867.01
564.57	26918.50
564.74	27599.60
564.90	27222.77
565.07	27391.29
565.23	27257.88
565.39	27297.67
565.56	27407.67
565.72	27026.17
565.88	27367.88
566.05	27325.75
566.21	27447.46
566.38	27384.27
566.54	27367.88
566.70	27613.64
566.87	27887.48
567.03	27372.57
567.19	27517.68
567.36	27580.87
567.52	27321.07
567.68	27688.54
567.85	27498.95
568.01	27477.89
568.17	27592.58
568.34	27805.56
568.50	27536.40
568.66	27138.51
568.83	27604.28
568.99	27491.93
569.15	27901.53
569.32	27779.82
569.48	27349.16
569.64	27758.75
569.81	27686.20
569.97	27548.11
570.13	27585.55
570.30	27201.71
570.46	27402.99
570.62	27552.79
570.78	27517.68
570.95	27283.62
571.11	27599.60
571.27	27173.62
571.43	27438.10
571.60	27852.38
571.76	27819.61
571.92	27714.28
572.09	27491.93
572.25	27566.83
572.41	27733.01
572.57	27735.35
572.74	27707.26
572.90	27360.86
573.06	27571.51
573.22	27473.21
573.38	27718.96
573.55	27620.66
573.71	27793.86
573.87	28004.51
574.03	27606.62
574.20	27599.60
574.36	27548.11
574.52	27513.00
574.68	27859.40
574.84	27662.79
575.01	27960.04
575.17	27562.15
575.33	27847.69
575.49	27791.52
575.65	27658.11
575.82	27768.12
575.98	27281.28
576.14	27672.15
576.30	27718.96
576.46	27627.68
576.62	27957.70
576.79	27688.54
576.95	27707.26
577.11	27744.71
577.27	27866.42
577.43	27882.80
577.59	28030.26
577.75	27538.74
577.92	27232.13
578.08	27477.89
578.24	27236.81
578.40	27978.76
578.56	28032.60
578.72	27988.13
578.88	28074.73
579.04	28299.42
579.21	27817.27
579.37	27920.25
579.53	27491.93
579.69	27599.60
579.85	27700.24
580.01	27592.58
580.17	27938.97
580.33	27714.28
580.49	27812.59
580.65	27826.63
580.82	27807.90
580.98	27630.02
581.14	27871.10
581.30	28065.36
581.46	27660.45
581.62	27522.36
581.78	27405.33
581.94	27992.81
582.10	27639.39
582.26	28219.84
582.42	27747.05
582.58	28037.28
582.74	27995.15
582.90	27807.90
583.06	27835.99
583.22	27992.81
583.38	27861.74
583.54	27953.02
583.70	27513.00
583.86	27887.48
584.02	27662.79
584.18	28210.48
584.34	27924.93
584.50	27997.49
584.66	27927.27
584.82	27768.12
584.98	28095.79
585.14	27468.53
585.30	27541.08
585.46	27845.35
585.62	27924.93
585.78	27871.10
585.94	27751.73
586.10	27899.19
586.26	27931.95
586.42	27807.90
586.58	27974.08
586.74	27976.42
586.90	28004.51
587.06	27723.65
587.22	27716.62
587.38	27812.59
587.54	28046.64
587.70	27913.23
587.86	27793.86
588.02	27901.53
588.18	28135.58
588.34	27843.01
588.49	28084.09
588.65	27770.46
588.81	27655.77
588.97	28219.84
589.13	27871.10
589.29	27880.46
589.45	28114.52
589.61	27814.93
589.77	27763.43
589.93	27843.01
590.08	27693.22
590.24	28123.88
590.40	28016.21
590.56	28023.23
590.72	27936.63
590.88	27946.00
591.04	27946.00
591.20	28308.78
591.35	28212.82
591.51	28041.96
591.67	28196.43
591.83	28603.69
591.99	28299.42
