SpectraSuite Data File
++++++++++++++++++++++++++++++++++++
Date: Fri Oct 04 11:39:20 GMT-05:00 2013
User: price-jones
Dark Spectrum Present: No
Reference Spectrum Present: No
Number of Sampled Component Spectra: 1
Spectrometers: USB2+H05261
Integration Time (usec): 100000 (USB2+H05261)
Spectra Averaged: 1 (USB2+H05261)
Boxcar Smoothing: 0 (USB2+H05261)
Correct for Electrical Dark: No (USB2+H05261)
Strobe/Lamp Enabled: No (USB2+H05261)
Correct for Detector Non-linearity: No (USB2+H05261)
Correct for Stray Light: No (USB2+H05261)
Number of Pixels in Processed Spectrum: 2048
>>>>>Begin Processed Spectral Data<<<<<
365.73	79.58
365.92	79.58
366.12	79.58
366.32	7.02
366.52	0.00
366.72	0.00
366.91	0.00
367.11	0.00
367.31	0.00
367.51	14.04
367.70	0.00
367.90	0.00
368.10	23.41
368.30	0.00
368.49	0.00
368.69	0.00
368.89	0.00
369.09	0.00
369.28	0.00
369.48	0.00
369.68	30.43
369.87	9.36
370.07	0.00
370.27	93.62
370.47	95.96
370.66	210.65
370.86	273.84
371.06	287.89
371.25	337.04
371.45	250.44
371.65	301.93
371.84	269.16
372.04	287.89
372.24	325.33
372.44	243.42
372.63	351.08
372.83	365.12
373.03	358.10
373.22	325.33
373.42	337.04
373.62	304.27
373.81	353.42
374.01	374.49
374.21	442.36
374.40	346.40
374.60	425.98
374.79	292.57
374.99	369.80
375.19	362.78
375.38	454.06
375.58	358.10
375.78	505.56
375.97	418.96
376.17	430.66
376.37	444.70
376.56	395.55
376.76	454.06
376.95	468.11
377.15	505.56
377.35	381.51
377.54	540.66
377.74	388.53
377.93	388.53
378.13	358.10
378.33	456.40
378.52	491.51
378.72	496.19
378.91	463.43
379.11	519.60
379.31	496.19
379.50	442.36
379.70	510.24
379.89	458.74
380.09	447.04
380.28	428.32
380.48	435.34
380.68	463.43
380.87	491.51
381.07	514.92
381.26	472.79
381.46	512.58
381.65	531.30
381.85	428.32
382.04	557.05
382.24	486.83
382.43	524.28
382.63	528.96
382.83	521.94
383.02	587.47
383.22	564.07
383.41	554.71
383.61	568.75
383.80	500.87
384.00	559.39
384.19	580.45
384.39	531.30
384.58	554.71
384.78	559.39
384.97	559.39
385.17	524.28
385.36	550.03
385.56	660.03
385.75	589.82
385.95	521.94
386.14	524.28
386.34	596.84
386.53	645.99
386.72	620.24
386.92	699.82
387.11	634.29
387.31	662.37
387.50	601.52
387.70	624.92
387.89	603.86
388.09	580.45
388.28	622.58
388.48	746.63
388.67	685.78
388.86	718.54
389.06	660.03
389.25	617.90
389.45	711.52
389.64	706.84
389.84	760.67
390.03	704.50
390.22	674.07
390.42	688.12
390.61	699.82
390.81	683.44
391.00	676.41
391.19	662.37
391.39	706.84
391.58	805.14
391.78	788.76
391.97	765.36
392.16	748.97
392.36	779.40
392.55	774.72
392.75	767.70
392.94	873.02
393.13	755.99
393.33	791.10
393.52	760.67
393.71	798.12
393.91	744.29
394.10	814.51
394.29	851.96
394.49	772.38
394.68	858.98
394.88	798.12
395.07	844.93
395.26	926.85
395.46	788.76
395.65	877.70
395.84	861.32
396.04	1011.11
396.23	894.08
396.42	809.83
396.62	936.21
396.81	990.05
397.00	896.43
397.19	940.90
397.39	873.02
397.58	1006.43
397.77	978.34
397.97	971.32
398.16	924.51
398.35	1097.71
398.55	1076.65
398.74	1025.15
398.93	1048.56
399.12	1102.39
399.32	1074.31
399.51	1102.39
399.70	1062.60
399.90	1074.31
400.09	1027.50
400.28	1123.46
400.47	1093.03
400.67	1109.41
400.86	1050.90
401.05	1067.28
401.24	1184.31
401.44	1151.54
401.63	1074.31
401.82	1144.52
402.01	1158.57
402.21	1172.61
402.40	1177.29
402.59	1135.16
402.78	1235.80
402.97	1299.00
403.17	1289.64
403.36	1277.93
403.55	1275.59
403.74	1284.95
403.93	1373.89
404.13	1376.24
404.32	1404.32
404.51	1427.73
404.70	1338.79
404.89	1310.70
405.09	1390.28
405.28	1523.69
405.47	1301.34
405.66	1448.79
405.85	1404.32
406.05	1404.32
406.24	1441.77
406.43	1497.94
406.62	1366.87
406.81	1586.88
407.00	1500.28
407.20	1439.43
407.39	1535.39
407.58	1530.71
407.77	1659.44
407.96	1619.65
408.15	1624.33
408.34	1605.61
408.54	1619.65
408.73	1717.95
408.92	1617.31
409.11	1722.63
409.30	1703.91
409.49	1732.00
409.68	1715.61
409.87	1769.44
410.07	1750.72
410.26	1825.62
410.45	1823.28
410.64	1792.85
410.83	1764.76
411.02	1837.32
411.21	1872.43
411.40	1898.17
411.59	1940.30
411.78	1963.71
411.98	2005.84
412.17	1975.41
412.36	1923.92
412.55	1989.46
412.74	2101.80
412.93	2183.72
413.12	2040.95
413.31	2225.85
413.50	2090.10
413.69	2099.46
413.88	2207.13
414.07	2267.98
414.26	2207.13
414.45	2225.85
414.64	2260.96
414.83	2392.03
415.02	2326.49
415.22	2424.80
415.41	2492.67
415.60	2429.48
415.79	2551.18
415.98	2457.56
416.17	2492.67
416.36	2471.61
416.55	2527.78
416.74	2497.35
416.93	2427.14
417.12	2560.55
417.31	2640.12
417.50	2698.64
417.69	2689.28
417.88	2663.53
418.07	2586.29
418.26	2719.70
418.45	2785.24
418.64	2862.48
418.83	2832.05
419.02	2820.35
419.21	2876.52
419.39	2841.41
419.58	2904.60
419.77	2853.11
419.96	2822.69
420.15	2967.80
420.34	2890.56
420.53	3042.70
420.72	3087.17
420.91	3052.06
421.10	3110.57
421.29	3145.68
421.48	3009.93
421.67	3061.42
421.86	3098.87
422.05	3066.10
422.24	3068.44
422.43	3166.74
422.61	3131.64
422.80	3187.81
422.99	3119.93
423.18	3157.38
423.37	3267.39
423.56	3133.98
423.75	3239.30
423.94	3148.02
424.13	3007.59
424.32	3047.38
424.50	3133.98
424.69	3311.86
424.88	3248.66
425.07	3105.89
425.26	3049.72
425.45	3262.71
425.64	3276.75
425.83	3323.56
426.01	3129.30
426.20	3201.85
426.39	3311.86
426.58	3162.06
426.77	3337.60
426.96	3293.13
427.15	3183.13
427.33	3328.24
427.52	3372.71
427.71	3407.82
427.90	3410.16
428.09	3419.52
428.28	3407.82
428.46	3602.08
428.65	3463.99
428.84	3616.13
429.03	3602.08
429.22	3489.74
429.40	3522.51
429.59	3559.95
429.78	3368.03
429.97	3445.27
430.16	3592.72
430.34	3590.38
430.53	3744.86
430.72	3609.11
430.91	3632.51
431.10	3740.18
431.28	3719.11
431.47	3733.15
431.66	3737.84
431.85	3709.75
432.03	3939.12
432.22	3911.04
432.41	3882.95
432.60	3904.01
432.79	3866.56
432.97	3854.86
433.16	3896.99
433.35	3920.40
433.54	4004.66
433.72	3992.95
433.91	4023.38
434.10	3999.98
434.28	3920.40
434.47	4145.09
434.66	4042.11
434.85	4222.33
435.03	4212.96
435.22	4322.97
435.41	4582.77
435.59	4557.02
435.78	4369.78
435.97	4245.73
436.16	4322.97
436.34	4217.65
436.53	4292.54
436.72	4234.03
436.90	4259.78
437.09	4315.95
437.28	4212.96
437.46	4287.86
437.65	4416.59
437.84	4257.43
438.02	4449.36
438.21	4430.63
438.40	4355.74
438.58	4482.13
438.77	4524.26
438.96	4500.85
439.14	4688.09
439.33	4580.43
439.52	4667.03
439.70	4758.31
439.89	4840.23
440.08	4915.12
440.26	4882.36
440.45	4840.23
440.63	4905.76
440.82	4947.89
441.01	4898.74
441.19	4870.65
441.38	5060.24
441.57	5224.08
441.75	5067.26
441.94	5013.43
442.12	5116.41
442.31	5231.10
442.50	5174.92
442.68	5221.74
442.87	5261.52
443.05	5193.65
443.24	5343.44
443.43	5453.45
443.61	5427.70
443.80	5561.11
443.98	5458.13
444.17	5261.52
444.35	5493.24
444.54	5514.30
444.73	5535.37
444.91	5514.30
445.10	5352.81
445.28	5511.96
445.47	5399.62
445.65	5483.88
445.84	5507.28
446.02	5570.48
446.21	5458.13
446.39	5654.73
446.58	5678.14
446.77	5628.99
446.95	5476.85
447.14	5617.29
447.32	5790.49
447.51	5694.52
447.69	5533.03
447.88	5575.16
448.06	5596.22
448.25	5516.64
448.43	5526.00
448.62	5509.62
448.80	5586.86
448.99	5703.89
449.17	5650.05
449.36	5631.33
449.54	5849.00
449.73	5823.25
449.91	5841.98
450.10	5827.93
450.28	6127.52
450.46	5870.06
450.65	5884.11
450.83	5853.68
451.02	5912.19
451.20	5975.39
451.39	6108.80
451.57	6022.20
451.76	6012.84
451.94	6019.86
452.13	6057.31
452.31	6017.52
452.49	5973.05
452.68	6188.38
452.86	6099.44
453.05	6218.80
453.23	6129.86
453.42	6054.97
453.60	6071.35
453.78	6188.38
453.97	6312.42
454.15	6176.67
454.34	6197.74
454.52	6296.04
454.70	6310.08
454.89	6504.35
455.07	6448.18
455.26	6513.71
455.44	6483.28
455.62	6373.28
455.81	6633.08
455.99	6518.39
456.17	6621.38
456.36	6436.47
456.54	6658.82
456.73	6740.74
456.91	6906.92
457.09	6883.52
457.28	7009.90
457.46	6839.05
457.64	6850.75
457.83	6918.62
458.01	6782.87
458.19	6951.39
458.38	6984.16
458.56	7164.38
458.74	6909.26
458.93	7012.24
459.11	6909.26
459.29	6935.01
459.48	7119.91
459.66	7148.00
459.84	7157.36
460.03	7368.01
460.21	7229.91
460.39	7187.79
460.57	7173.74
460.76	7314.17
460.94	7297.79
461.12	7272.04
461.31	7222.89
461.49	7344.60
461.67	7468.65
461.85	7431.20
462.04	7602.06
462.22	7859.52
462.40	7571.63
462.59	7466.31
462.77	7447.58
462.95	7747.17
463.13	7545.89
463.32	7756.54
463.50	7548.23
463.68	7669.94
463.86	7723.77
464.05	7768.24
464.23	7644.19
464.41	7885.26
464.59	7702.70
464.78	7761.22
464.96	7803.35
465.14	7695.68
465.32	7882.92
465.50	7976.55
465.69	7911.01
465.87	7969.52
466.05	7957.82
466.23	7880.58
466.41	8070.17
466.60	8367.42
466.78	7971.86
466.96	8065.49
467.14	7857.18
467.32	8145.06
467.51	8109.96
467.69	7861.86
467.87	8299.54
468.05	8079.53
468.23	8161.45
468.41	8266.77
468.60	8166.13
468.78	8329.97
468.96	8124.00
469.14	8215.28
469.32	8355.71
469.50	8248.05
469.69	8659.98
469.87	8587.43
470.05	8730.20
470.23	8669.34
470.41	8287.84
470.59	8631.90
470.77	8734.88
470.95	8676.37
471.14	8751.26
471.32	8566.36
471.50	8879.99
471.68	8863.61
471.86	8861.27
472.04	8915.10
472.22	9069.58
472.40	8954.89
472.58	9109.36
472.77	9050.85
472.95	9156.18
473.13	9371.50
473.31	9245.12
473.49	9142.13
473.67	9315.33
473.85	9423.00
474.03	9542.36
474.21	9568.11
474.39	9537.68
474.57	9738.97
474.75	9865.36
474.93	9853.66
475.12	9612.58
475.30	9717.90
475.48	9621.94
475.66	9970.68
475.84	9834.93
476.02	9832.59
476.20	9921.53
476.38	10033.88
476.56	10359.21
476.74	10307.72
476.92	10380.28
477.10	10326.44
477.28	10684.55
477.46	10611.99
477.64	10317.08
477.82	10607.31
478.00	11117.54
478.18	10960.73
478.36	11119.89
478.54	11265.00
478.72	11112.86
478.90	11288.40
479.08	11604.38
479.26	11662.89
479.44	11658.21
479.62	11421.81
479.80	11723.74
479.98	11948.43
480.16	11679.27
480.34	12023.33
480.52	12091.21
480.70	12273.77
480.88	12170.79
481.06	12231.64
481.24	12011.63
481.41	12493.78
481.59	12407.18
481.77	12571.02
481.95	12793.37
482.13	12678.68
482.31	12870.61
482.49	12919.76
482.67	13149.13
482.85	13385.52
483.03	13350.42
483.21	13558.72
483.39	13554.04
483.57	13518.93
483.74	13795.12
483.92	13788.10
484.10	13930.87
484.28	14281.95
484.46	14111.09
484.64	14647.07
484.82	14263.22
485.00	14408.34
485.18	14724.31
485.35	14579.20
485.53	14883.47
485.71	15157.31
485.89	15414.77
486.07	15084.75
486.25	15232.21
486.43	15236.89
486.61	15351.57
486.78	15496.69
486.96	15861.81
487.14	16079.48
487.32	15817.34
487.50	16191.83
487.68	16173.10
487.85	16175.44
488.03	16837.81
488.21	16870.58
488.39	16837.81
488.57	16987.61
488.75	17319.96
488.92	17401.88
489.10	17284.86
489.28	17532.95
489.46	17642.96
489.64	17659.34
489.81	18185.96
489.99	18061.91
490.17	18270.22
490.35	18347.46
490.53	18239.79
490.70	18253.84
490.88	18672.79
491.06	18504.28
491.24	18448.10
491.41	18705.56
491.59	18984.09
491.77	19257.93
491.95	19166.65
492.13	19751.78
492.30	19569.22
492.48	19484.96
492.66	19536.45
492.84	19854.76
493.01	19990.52
493.19	20329.89
493.37	20250.32
493.54	20400.11
493.72	20311.17
493.90	20540.54
494.08	20622.46
494.25	20636.50
494.43	21097.59
494.61	21097.59
494.79	21048.44
494.96	21406.54
495.14	21270.79
495.32	21362.07
495.49	21493.14
495.67	21715.49
495.85	21994.01
496.02	22052.53
496.20	21942.52
496.38	22324.03
496.55	22279.56
496.73	22555.74
496.91	22417.65
497.09	22607.23
497.26	23271.95
497.44	22590.85
497.62	23058.96
497.79	23215.77
497.97	23047.26
498.14	23583.24
498.32	23185.35
498.50	23529.41
498.67	23892.19
498.85	23520.04
499.03	23487.28
499.20	23599.62
499.38	23948.36
499.56	23896.87
499.73	24563.92
499.91	24121.56
500.08	24484.34
500.26	24299.44
500.44	24444.56
500.61	24467.96
500.79	24552.22
500.97	24926.71
501.14	24793.29
501.32	24912.66
501.49	24694.99
501.67	25127.99
501.84	25385.45
502.02	25493.12
502.20	25802.07
502.37	25617.16
502.55	25930.80
502.72	25598.44
502.90	25830.15
503.07	25668.66
503.25	26059.52
503.43	25879.30
503.60	26345.07
503.78	26279.54
503.95	26391.88
504.13	26384.86
504.30	26382.52
504.48	26649.34
504.65	26682.11
504.83	26806.16
505.01	27103.40
505.18	27117.45
505.36	27035.53
505.53	26808.50
505.71	27300.01
505.88	27225.11
506.06	27271.92
506.23	27789.18
506.41	27541.08
506.58	27470.87
506.76	27173.62
506.93	27557.47
507.11	27562.15
507.28	27969.40
507.46	27700.24
507.63	27843.01
507.81	28428.15
507.98	27988.13
508.16	28198.77
508.33	28173.03
508.50	28683.27
508.68	28610.71
508.85	28884.55
509.03	28570.92
509.20	28568.58
509.38	28987.53
509.55	29448.62
509.73	29032.00
509.90	29050.73
510.08	29036.69
510.25	29071.79
510.42	29415.85
510.60	29596.07
510.77	29619.48
510.95	29972.90
511.12	29436.92
511.30	29469.69
511.47	30068.86
511.64	29926.09
511.82	30169.51
511.99	30141.42
512.17	30347.39
512.34	30366.11
512.51	30424.62
512.69	30642.29
512.86	30501.86
513.04	30588.46
513.21	30405.90
513.38	30953.58
513.56	31077.63
513.73	30897.41
513.90	30955.93
514.08	30792.09
514.25	31604.25
514.43	31442.76
514.60	31349.14
514.77	31594.89
514.95	31873.42
515.12	31578.51
515.29	31372.54
515.47	31723.62
515.64	31445.10
515.81	31857.03
515.99	32322.80
516.16	32458.55
516.33	31948.31
516.51	32470.25
516.68	31751.71
516.85	32367.27
517.03	32596.64
517.20	32374.29
517.37	32561.53
517.54	32545.15
517.72	32474.93
517.89	32680.90
518.06	32470.25
518.24	32676.22
518.41	32898.57
518.58	32779.20
518.75	32905.59
518.93	33464.98
519.10	32767.50
519.27	33261.35
519.45	33113.90
519.62	32980.49
519.79	33270.72
519.96	33640.52
520.14	34113.31
520.31	33326.89
520.48	33453.28
520.65	33582.01
520.83	33593.71
521.00	34293.53
521.17	33530.51
521.34	34291.19
521.52	34368.43
521.69	33977.56
521.86	34513.54
522.03	34220.97
522.20	34518.22
522.38	34824.83
522.55	34574.39
522.72	34644.61
522.89	34614.18
523.07	35168.89
523.24	35049.52
523.41	35054.20
523.58	35110.38
523.75	35349.11
523.92	35618.27
524.10	35070.59
524.27	35562.10
524.44	35550.40
524.61	35838.28
524.78	35400.60
524.96	35679.13
525.13	35758.70
525.30	35835.94
525.47	35758.70
525.64	35922.54
525.81	36282.98
525.98	36013.82
526.16	36187.02
526.33	36388.31
526.50	36889.18
526.67	35959.99
526.84	36062.97
527.01	36175.32
527.18	36697.26
527.36	36620.02
527.53	36631.72
527.70	37689.65
527.87	36739.39
528.04	36833.01
528.21	37242.60
528.38	36870.46
528.55	37380.70
528.72	36870.46
528.89	36933.65
529.07	37111.53
529.24	36905.57
529.41	37439.21
529.58	37247.29
529.75	37067.06
529.92	37361.97
530.09	37659.22
530.26	37493.04
530.43	37654.54
530.60	37530.49
530.77	37509.43
530.94	37794.97
531.11	37888.59
531.28	37869.87
531.46	37853.48
531.63	37919.02
531.80	38174.14
531.97	38031.36
532.14	38171.80
532.31	38162.43
532.48	38361.38
532.65	38440.96
532.82	37975.19
532.99	38106.26
533.16	38305.21
533.33	38749.91
533.50	39049.50
533.67	38813.10
533.84	38527.56
534.01	38314.57
534.18	38356.70
534.35	39220.36
534.52	38169.46
534.69	39136.10
534.86	38866.94
535.03	38920.77
535.20	39269.51
535.37	39126.74
535.54	39292.91
535.71	39068.22
535.88	38913.75
536.05	39288.23
536.22	39517.60
536.38	39679.10
536.55	39707.19
536.72	39882.73
536.89	39541.01
537.06	39632.29
537.23	39585.48
537.40	39555.05
537.57	39648.68
537.74	40100.40
537.91	40217.43
538.08	40179.98
538.25	39569.10
538.42	40261.90
538.59	40247.85
538.75	40257.21
538.92	40048.91
539.09	40048.91
539.26	40086.36
539.43	40364.88
539.60	40123.80
539.77	40744.05
539.94	40610.64
540.11	40470.20
540.28	40884.48
540.44	40924.27
540.61	40378.92
540.78	40481.91
540.95	40912.56
541.12	41237.90
541.29	40858.73
541.46	41223.86
541.62	41062.36
541.79	41132.57
541.96	41001.50
542.13	40790.86
542.30	41579.62
542.47	41607.70
542.63	41914.31
542.80	41820.69
542.97	41581.96
543.14	42354.33
543.31	42068.79
543.48	41556.21
543.64	42188.16
543.81	42171.77
543.98	41951.76
544.15	42234.97
544.32	42078.15
544.48	42740.52
544.65	42281.78
544.82	42026.66
544.99	41977.51
545.16	41790.27
545.32	42188.16
545.49	42902.02
545.66	43517.58
545.83	43459.07
546.00	43323.32
546.16	42934.79
546.33	42469.02
546.50	42171.77
546.67	42689.03
546.83	42122.62
547.00	42464.34
547.17	42684.35
547.34	42838.83
547.50	42705.41
547.67	42944.15
547.84	42831.80
548.00	42689.03
548.17	42955.85
548.34	42857.55
548.51	43185.22
548.67	43222.67
548.84	43489.49
549.01	43117.35
549.18	42698.39
549.34	43138.41
549.51	42923.08
549.68	43328.00
549.84	43098.62
550.01	43304.59
550.18	43274.16
550.34	43157.14
550.51	43545.67
550.68	43676.74
550.84	42976.92
551.01	44079.31
551.18	43365.45
551.34	43419.28
551.51	43459.07
551.68	43880.36
551.84	43669.72
552.01	43643.97
552.18	43601.84
552.34	43686.10
552.51	43515.24
552.68	43845.26
552.84	43927.17
553.01	44423.37
553.18	43913.13
553.34	44072.29
553.51	44060.58
553.67	43978.67
553.84	44233.78
554.01	44421.03
554.17	43992.71
554.34	44039.52
554.51	44098.03
554.67	44037.18
554.84	44086.33
555.00	44027.82
555.17	44516.99
555.33	44662.10
555.50	44215.06
555.67	44194.00
555.83	44079.31
556.00	44027.82
556.16	44814.24
556.33	44421.03
556.50	44353.15
556.66	44657.42
556.83	44699.55
556.99	44952.33
557.16	45151.27
557.32	44744.02
557.49	45193.40
557.65	44304.00
557.82	44460.82
557.98	44418.69
558.15	44807.22
558.32	44528.69
558.48	44624.65
558.65	44608.27
558.81	45160.64
558.98	45118.51
559.14	44683.17
559.31	44896.16
559.47	44765.09
559.64	45186.38
559.80	44903.18
559.97	45633.42
560.13	45043.61
560.30	45354.90
560.46	45268.30
560.63	45436.82
560.79	44891.48
560.96	45303.41
561.12	45031.91
561.29	44947.65
561.45	45104.46
561.61	45165.32
561.78	45331.50
561.94	45518.74
562.11	45404.05
562.27	45287.03
562.44	45167.66
562.60	45675.55
562.77	45237.87
562.93	45553.85
563.10	45394.69
563.26	45436.82
563.42	45642.79
563.59	45530.44
563.75	45904.93
563.92	45663.85
564.08	44980.42
564.24	45425.12
564.41	45694.28
564.57	45373.63
564.74	45397.03
564.90	46108.55
565.07	45525.76
565.23	45497.67
565.39	45605.34
565.56	46190.47
565.72	45333.84
565.88	45610.02
566.05	45256.60
566.21	46014.93
566.38	45467.25
566.54	45888.54
566.70	46073.45
566.87	46188.13
567.03	46260.69
567.19	45984.51
567.36	45900.25
567.52	45474.27
567.68	45855.78
567.85	45595.98
568.01	45776.20
568.17	45481.29
568.34	46127.28
568.50	45865.14
568.66	46073.45
568.83	46314.52
568.99	46136.64
569.15	45797.26
569.32	45656.83
569.48	45387.67
569.64	45808.96
569.81	46068.76
569.97	46267.71
570.13	46078.13
570.30	45979.82
570.46	46146.00
570.62	46101.53
570.78	45717.68
570.95	46281.75
571.11	46754.54
571.27	45902.59
571.43	45610.02
571.60	45820.67
571.76	46045.36
571.92	46408.14
572.09	46548.57
572.25	45989.19
572.41	46532.19
572.57	46136.64
572.74	46328.56
572.90	46057.06
573.06	46064.08
573.22	46127.28
573.38	46354.31
573.55	46213.88
573.71	46953.49
573.87	46717.09
574.03	46099.19
574.20	46466.66
574.36	46143.66
574.52	45984.51
574.68	45918.97
574.84	46274.73
575.01	46300.48
575.17	46220.90
575.33	46286.43
575.49	45996.21
575.65	46443.25
575.82	46525.17
575.98	46548.57
576.14	46646.88
576.30	46536.87
576.46	46143.66
576.62	46096.85
576.79	46443.25
576.95	46181.11
577.11	46167.07
577.27	46452.61
577.43	46284.09
577.59	46241.96
577.75	46679.64
577.92	46454.95
578.08	46490.06
578.24	45984.51
578.40	46403.46
578.56	46319.20
578.72	46602.41
578.88	46813.05
579.04	46857.52
579.21	46934.76
579.37	46667.94
579.53	47093.92
579.69	46225.58
579.85	46616.45
580.01	46621.13
580.17	46354.31
580.33	46703.05
580.49	46457.29
580.65	46492.40
580.82	46541.55
580.98	46658.58
581.14	46527.51
581.30	46375.37
581.46	46719.43
581.62	46281.75
581.78	46010.25
581.94	46637.51
582.10	46515.81
582.26	46630.49
582.42	46241.96
582.58	46220.90
582.74	47033.07
582.90	46801.35
583.06	46806.03
583.22	46361.33
583.38	46660.92
583.54	47000.30
583.70	46773.27
583.86	46642.20
584.02	46527.51
584.18	46681.98
584.34	46621.13
584.50	47145.41
584.66	46899.65
584.82	46232.60
584.98	46548.57
585.14	46466.66
585.30	46349.63
585.46	46515.81
585.62	46466.66
585.78	46653.90
585.94	46780.29
586.10	46838.80
586.26	46513.47
586.42	47133.71
586.58	46925.40
586.74	46827.10
586.90	46731.14
587.06	46532.19
587.22	47217.97
587.38	46665.60
587.54	47262.44
587.70	47372.44
587.86	47224.99
588.02	46934.76
588.18	47126.69
588.34	47004.98
588.49	46784.97
588.65	46747.52
588.81	46405.80
588.97	46703.05
589.13	46618.79
589.29	47047.11
589.45	46745.18
589.61	46820.08
589.77	47297.55
589.93	47157.11
590.08	47344.36
590.24	47201.58
590.40	46883.27
590.56	47161.79
590.72	46841.14
