SpectraSuite Data File
++++++++++++++++++++++++++++++++++++
Date: Fri Oct 04 11:39:26 GMT-05:00 2013
User: price-jones
Dark Spectrum Present: No
Reference Spectrum Present: No
Number of Sampled Component Spectra: 1
Spectrometers: USB2+H05261
Integration Time (usec): 100000 (USB2+H05261)
Spectra Averaged: 1 (USB2+H05261)
Boxcar Smoothing: 0 (USB2+H05261)
Correct for Electrical Dark: No (USB2+H05261)
Strobe/Lamp Enabled: No (USB2+H05261)
Correct for Detector Non-linearity: No (USB2+H05261)
Correct for Stray Light: No (USB2+H05261)
Number of Pixels in Processed Spectrum: 2048
>>>>>Begin Processed Spectral Data<<<<<
365.73	56.17
365.92	56.17
366.12	56.17
366.32	0.00
366.52	0.00
366.72	25.75
366.91	0.00
367.11	0.00
367.31	0.00
367.51	0.00
367.70	25.75
367.90	0.00
368.10	0.00
368.30	0.00
368.49	0.00
368.69	0.00
368.89	0.00
369.09	25.75
369.28	18.72
369.48	0.00
369.68	0.00
369.87	0.00
370.07	4.68
370.27	56.17
370.47	124.05
370.66	156.82
370.86	184.90
371.06	224.69
371.25	250.44
371.45	227.03
371.65	290.23
371.84	189.58
372.04	184.90
372.24	252.78
372.44	231.71
372.63	248.10
372.83	325.33
373.03	241.08
373.22	220.01
373.42	220.01
373.62	215.33
373.81	210.65
374.01	341.72
374.21	266.82
374.40	273.84
374.60	266.82
374.79	318.31
374.99	320.65
375.19	276.18
375.38	266.82
375.58	238.73
375.78	337.04
375.97	297.25
376.17	322.99
376.37	220.01
376.56	271.50
376.76	301.93
376.95	252.78
377.15	273.84
377.35	255.12
377.54	299.59
377.74	358.10
377.93	308.95
378.13	330.02
378.33	278.52
378.52	337.04
378.72	334.70
378.91	318.31
379.11	308.95
379.31	273.84
379.50	257.46
379.70	283.20
379.89	311.29
380.09	304.27
380.28	318.31
380.48	322.99
380.68	290.23
380.87	318.31
381.07	383.85
381.26	280.86
381.46	273.84
381.65	308.95
381.85	337.04
382.04	280.86
382.24	330.02
382.43	259.80
382.63	390.87
382.83	325.33
383.02	348.74
383.22	339.38
383.41	299.59
383.61	332.36
383.80	351.08
384.00	365.12
384.19	304.27
384.39	475.13
384.58	362.78
384.78	418.96
384.97	252.78
385.17	285.55
385.36	374.49
385.56	414.27
385.75	409.59
385.95	381.51
386.14	407.25
386.34	372.15
386.53	365.12
386.72	442.36
386.92	411.93
387.11	418.96
387.31	404.91
387.50	304.27
387.70	407.25
387.89	407.25
388.09	376.83
388.28	351.08
388.48	433.00
388.67	428.32
388.86	468.11
389.06	477.47
389.25	510.24
389.45	404.91
389.64	418.96
389.84	461.09
390.03	465.77
390.22	470.45
390.42	435.34
390.61	435.34
390.81	360.44
391.00	552.37
391.19	479.81
391.39	421.30
391.58	517.26
391.78	510.24
391.97	517.26
392.16	472.79
392.36	477.47
392.55	533.64
392.75	503.22
392.94	491.51
393.13	638.97
393.33	524.28
393.52	475.13
393.71	512.58
393.91	510.24
394.10	526.62
394.29	514.92
394.49	543.00
394.68	620.24
394.88	517.26
395.07	596.84
395.26	587.47
395.46	573.43
395.65	594.50
395.84	622.58
396.04	648.33
396.23	617.90
396.42	575.77
396.62	620.24
396.81	535.98
397.00	653.01
397.19	636.63
397.39	631.94
397.58	645.99
397.77	636.63
397.97	596.84
398.16	671.73
398.35	655.35
398.55	657.69
398.74	678.76
398.93	669.39
399.12	713.86
399.32	702.16
399.51	627.26
399.70	816.85
399.90	669.39
400.09	713.86
400.28	751.31
400.47	774.72
400.67	725.57
400.86	767.70
401.05	802.80
401.24	767.70
401.44	812.17
401.63	793.44
401.82	844.93
402.01	809.83
402.21	784.08
402.40	835.57
402.59	931.53
402.78	844.93
402.97	915.15
403.17	826.21
403.36	912.81
403.55	908.13
403.74	835.57
403.93	959.62
404.13	997.07
404.32	1008.77
404.51	997.07
404.70	1006.43
404.89	1025.15
405.09	980.68
405.28	1020.47
405.47	1025.15
405.66	994.73
405.85	997.07
406.05	1158.57
406.24	1067.28
406.43	1083.67
406.62	1128.14
406.81	1158.57
407.00	1116.44
407.20	1090.69
407.39	1200.69
407.58	1111.75
407.77	1203.04
407.96	1172.61
408.15	1137.50
408.34	1144.52
408.54	1221.76
408.73	1273.25
408.92	1301.34
409.11	1348.15
409.30	1310.70
409.49	1196.01
409.68	1245.16
409.87	1327.08
410.07	1320.06
410.26	1427.73
410.45	1373.89
410.64	1294.32
410.83	1427.73
411.02	1427.73
411.21	1472.20
411.40	1462.83
411.59	1409.00
411.78	1458.15
411.98	1504.96
412.17	1441.77
412.36	1504.96
412.55	1430.07
412.74	1514.33
412.93	1596.25
413.12	1558.80
413.31	1647.74
413.50	1654.76
413.69	1657.10
413.88	1778.81
414.07	1724.97
414.26	1717.95
414.45	1750.72
414.64	1696.89
414.83	1860.73
415.02	1921.58
415.22	1870.09
415.41	1867.75
415.60	1858.39
415.79	1952.01
415.98	1851.36
416.17	1933.28
416.36	1926.26
416.55	2062.01
416.74	1966.05
416.93	2090.10
417.12	2115.84
417.31	2036.27
417.50	2059.67
417.69	2176.70
417.88	2244.57
418.07	2122.87
418.26	2211.81
418.45	2134.57
418.64	2125.21
418.83	2221.17
419.02	2186.06
419.21	2228.19
419.39	2277.34
419.58	2244.57
419.77	2167.34
419.96	2340.54
420.15	2321.81
420.34	2195.42
420.53	2429.48
420.72	2434.16
420.91	2464.58
421.10	2408.41
421.29	2408.41
421.48	2450.54
421.67	2452.88
421.86	2546.50
422.05	2487.99
422.24	2394.37
422.43	2525.44
422.61	2532.46
422.80	2445.86
422.99	2588.63
423.18	2495.01
423.37	2686.94
423.56	2593.31
423.75	2551.18
423.94	2504.37
424.13	2368.62
424.32	2478.63
424.50	2628.42
424.69	2698.64
424.88	2658.85
425.07	2572.25
425.26	2450.54
425.45	2518.42
425.64	2605.02
425.83	2595.65
426.01	2567.57
426.20	2583.95
426.39	2567.57
426.58	2605.02
426.77	2684.59
426.96	2647.15
427.15	2689.28
427.33	2759.49
427.52	2656.51
427.71	2684.59
427.90	2626.08
428.09	2710.34
428.28	2782.90
428.46	2782.90
428.65	2799.28
428.84	2935.03
429.03	2977.16
429.22	2670.55
429.40	2855.45
429.59	2930.35
429.78	2717.36
429.97	2787.58
430.16	2789.92
430.34	2904.60
430.53	2935.03
430.72	3021.63
430.91	2899.92
431.10	2906.95
431.28	3063.76
431.47	2956.10
431.66	3157.38
431.85	3002.91
432.03	3087.17
432.22	3122.27
432.41	3047.38
432.60	3141.00
432.79	3124.62
432.97	3162.06
433.16	3136.32
433.35	3187.81
433.54	3110.57
433.72	3314.20
433.91	3143.34
434.10	3241.64
434.28	3243.98
434.47	3297.81
434.66	3272.07
434.85	3393.78
435.03	3365.69
435.22	3508.46
435.41	3798.69
435.59	3768.26
435.78	3693.37
435.97	3480.38
436.16	3487.40
436.34	3463.99
436.53	3447.61
436.72	3527.19
436.90	3419.52
437.09	3440.59
437.28	3506.12
437.46	3536.55
437.65	3674.64
437.84	3723.79
438.02	3627.83
438.21	3520.17
438.40	3475.70
438.58	3641.87
438.77	3712.09
438.96	3693.37
439.14	3623.15
439.33	3740.18
439.52	3789.33
439.70	3831.46
439.89	3948.48
440.08	3899.33
440.26	3948.48
440.45	3911.04
440.63	4032.74
440.82	4009.34
441.01	4021.04
441.19	3976.57
441.38	4140.41
441.57	4081.89
441.75	4236.37
441.94	4290.20
442.12	4140.41
442.31	4124.02
442.50	4194.24
442.68	4084.23
442.87	4329.99
443.05	4203.60
443.24	4170.83
443.43	4306.59
443.61	4257.43
443.80	4418.93
443.98	4269.14
444.17	4313.61
444.35	4498.51
444.54	4477.44
444.73	4367.44
444.91	4400.21
445.10	4250.41
445.28	4407.23
445.47	4372.12
445.65	4332.33
445.84	4381.48
446.02	4493.83
446.21	4461.06
446.39	4393.19
446.58	4411.91
446.77	4528.94
446.95	4381.48
447.14	4369.78
447.32	4514.89
447.51	4486.81
447.69	4482.13
447.88	4461.06
448.06	4449.36
448.25	4526.60
448.43	4545.32
448.62	4379.14
448.80	4517.23
448.99	4681.07
449.17	4585.11
449.36	4470.42
449.54	4662.35
449.73	4713.84
449.91	4713.84
450.10	4596.81
450.28	4791.08
450.46	4575.75
450.65	4730.22
450.83	4807.46
451.02	4660.01
451.20	4896.40
451.39	4868.31
451.57	4631.92
451.76	4784.06
451.94	4894.06
452.13	4861.29
452.31	4755.97
452.49	4826.18
452.68	4947.89
452.86	5020.45
453.05	4954.91
453.23	4964.28
453.42	4926.83
453.60	4791.08
453.78	4978.32
453.97	4884.70
454.15	5018.11
454.34	4947.89
454.52	5135.14
454.70	4919.81
454.89	5165.56
455.07	5104.71
455.26	5046.20
455.44	5219.39
455.62	5186.63
455.81	5088.32
455.99	5294.29
456.17	5252.16
456.36	5205.35
456.54	5210.03
456.73	5366.85
456.91	5549.41
457.09	5331.74
457.28	5479.19
457.46	5441.75
457.64	5544.73
457.83	5453.45
458.01	5411.32
458.19	5542.39
458.38	5397.28
458.56	5551.75
458.74	5504.94
458.93	5556.43
459.11	5544.73
459.29	5640.69
459.48	5563.45
459.66	5675.80
459.84	5650.05
460.03	5720.27
460.21	5720.27
460.39	5762.40
460.57	5837.30
460.76	5778.78
460.94	5790.49
461.12	5720.27
461.31	5806.87
461.49	5853.68
461.67	5909.85
461.85	5989.43
462.04	6024.54
462.22	5949.64
462.40	5980.07
462.59	6001.13
462.77	5975.39
462.95	6129.86
463.13	6031.56
463.32	6176.67
463.50	6094.76
463.68	5991.77
463.86	6083.05
464.05	5951.98
464.23	6099.44
464.41	6274.98
464.59	6050.28
464.78	6258.59
464.96	6125.18
465.14	6057.31
465.32	6429.45
465.50	6235.19
465.69	6352.21
465.87	6289.02
466.05	6352.21
466.23	6429.45
466.41	6321.79
466.60	6392.00
466.78	6431.79
466.96	6380.30
467.14	6340.51
467.32	6387.32
467.51	6562.86
467.69	6431.79
467.87	6455.20
468.05	6293.70
468.23	6583.93
468.41	6520.73
468.60	6588.61
468.78	6525.41
468.96	6525.41
469.14	6562.86
469.32	6665.85
469.50	6478.60
469.69	6658.82
469.87	6878.83
470.05	6651.80
470.23	6799.26
470.41	6773.51
470.59	6951.39
470.77	6719.68
470.95	6806.28
471.14	6871.81
471.32	6740.74
471.50	7059.06
471.68	7063.74
471.86	7084.80
472.04	7049.69
472.22	7300.13
472.40	7047.35
472.58	7403.11
472.77	7211.19
472.95	7328.22
473.13	7463.97
473.31	7173.74
473.49	7325.88
473.67	7377.37
473.85	7445.24
474.03	7599.72
474.21	7576.31
474.39	7499.08
474.57	7475.67
474.75	7791.64
474.93	7599.72
475.12	7871.22
475.30	7894.63
475.48	7662.91
475.66	7889.95
475.84	7868.88
476.02	7918.03
476.20	7871.22
476.38	7939.10
476.56	8091.23
476.74	8128.68
476.92	8191.88
477.10	8311.24
477.28	8138.04
477.46	8334.65
477.64	8318.26
477.82	8425.93
478.00	8657.64
478.18	8507.85
478.36	8533.59
478.54	8652.96
478.72	8805.10
478.90	8898.72
479.08	8971.27
479.26	8903.40
479.44	9163.20
479.62	9305.97
479.80	9254.48
479.98	9312.99
480.16	9497.89
480.34	9418.32
480.52	9228.73
480.70	9303.63
480.88	9369.16
481.06	9586.83
481.24	9467.47
481.41	9753.01
481.59	9930.89
481.77	9879.40
481.95	9867.70
482.13	10008.13
482.31	9998.77
482.49	10197.71
482.67	10200.05
482.85	10345.17
483.03	10284.31
483.21	10761.78
483.39	10766.46
483.57	10691.57
483.74	10782.85
483.92	10822.64
484.10	10951.37
484.28	10888.17
484.46	10998.18
484.64	11314.15
484.82	11061.37
485.00	11288.40
485.18	11477.99
485.35	11719.06
485.53	11564.59
485.71	11690.98
485.89	11889.92
486.07	11758.85
486.25	11913.33
486.43	11871.20
486.61	12269.09
486.78	12320.58
486.96	12105.25
487.14	12500.80
487.32	12306.54
487.50	12449.31
487.68	12552.29
487.85	12638.89
488.03	13097.64
488.21	13074.23
488.39	12835.50
488.57	13385.52
488.75	13151.47
488.92	13713.20
489.10	13603.19
489.28	13657.03
489.46	13731.92
489.64	13650.00
489.81	14010.45
489.99	13994.06
490.17	13902.78
490.35	14073.64
490.53	14253.86
490.70	14258.54
490.88	14431.74
491.06	14377.91
491.24	14438.76
491.41	14986.45
491.59	14967.73
491.77	14846.02
491.95	15084.75
492.13	14869.42
492.30	15255.61
492.48	15201.78
492.66	15272.00
492.84	15426.47
493.01	15454.56
493.19	15679.25
493.37	15836.06
493.54	15800.96
493.72	16032.67
493.90	15700.31
494.08	16023.31
494.25	16149.70
494.43	16411.84
494.61	16231.62
494.79	16468.01
494.96	16329.92
495.14	16442.26
495.32	16430.56
495.49	16751.21
495.67	17067.19
495.85	17083.57
496.02	16978.25
496.20	16938.46
496.38	17198.26
496.55	17090.59
496.73	17310.60
496.91	17376.14
497.09	17385.50
497.26	17706.15
497.44	17439.33
497.62	17568.06
497.79	17757.64
497.97	17841.90
498.14	17940.21
498.32	18405.97
498.50	18326.39
498.67	18342.78
498.85	18260.86
499.03	18403.63
499.20	18448.10
499.38	18499.59
499.56	18782.80
499.73	18810.89
499.91	18885.78
500.08	18771.10
500.26	18778.12
500.44	19173.67
500.61	19208.78
500.79	18939.62
500.97	19257.93
501.14	19021.53
501.32	19339.85
501.49	19396.02
501.67	19225.16
501.84	19447.51
502.02	19466.24
502.20	19707.31
502.37	19690.93
502.55	19873.49
502.72	19812.63
502.90	19805.61
503.07	19775.19
503.25	19737.74
503.43	20114.56
503.60	20418.83
503.78	20439.90
503.95	20266.70
504.13	20208.19
504.30	20673.95
504.48	20453.94
504.65	20748.85
504.83	20407.13
505.01	20589.69
505.18	20510.11
505.36	21013.33
505.53	20856.51
505.71	20980.56
505.88	21099.93
506.06	20936.09
506.23	21453.35
506.41	21081.21
506.58	21305.90
506.76	21488.46
506.93	21362.07
507.11	21390.16
507.28	21383.13
507.46	21245.04
507.63	21568.04
507.81	21776.34
507.98	21467.39
508.16	21577.40
508.33	21921.46
508.50	22031.46
508.68	21757.62
508.85	22101.68
509.03	22235.09
509.20	22214.02
509.38	22293.60
509.55	22731.28
509.73	22473.82
509.90	22588.51
510.08	22391.91
510.25	22530.00
510.42	22815.54
510.60	23016.83
510.77	23346.84
510.95	22867.03
511.12	22869.37
511.30	22721.92
511.47	22897.46
511.64	23002.78
511.82	23351.52
511.99	23042.57
512.17	23295.35
512.34	23314.08
512.51	23768.14
512.69	23346.84
512.86	23475.57
513.04	23716.65
513.21	23786.86
513.38	23871.12
513.56	24009.22
513.73	23494.30
513.90	23929.64
514.08	23857.08
514.25	24189.44
514.43	24018.58
514.60	24137.94
514.77	24180.07
514.95	24669.25
515.12	24348.59
515.29	24135.60
515.47	24477.32
515.64	24793.29
515.81	24751.17
515.99	24858.83
516.16	24945.43
516.33	24999.26
516.51	24673.93
516.68	25092.88
516.85	24865.85
517.03	25240.34
517.20	24929.05
517.37	25429.92
517.54	25303.53
517.72	25493.12
517.89	25015.65
518.06	25209.91
518.24	25493.12
518.41	25338.64
518.58	25357.36
518.75	25722.49
518.93	25448.64
519.10	25638.23
519.27	25766.96
519.45	25535.24
519.62	25671.00
519.79	25708.44
519.96	25797.38
520.14	26073.57
520.31	26183.57
520.48	25919.09
520.65	26305.28
520.83	26253.79
521.00	26284.22
521.17	26242.09
521.34	26171.87
521.52	26387.20
521.69	26497.20
521.86	26740.62
522.03	26597.85
522.20	26541.68
522.38	26820.20
522.55	26651.68
522.72	26410.60
522.89	27030.85
523.07	26895.10
523.24	26869.35
523.41	27232.13
523.58	26902.12
523.75	27014.46
523.92	26792.11
524.10	27021.48
524.27	27557.47
524.44	27353.84
524.61	27494.27
524.78	27695.56
524.96	27351.50
525.13	27454.48
525.30	27611.30
525.47	27578.53
525.64	27269.58
525.81	27632.36
525.98	27810.25
526.16	27796.20
526.33	27854.72
526.50	28032.60
526.67	27667.47
526.84	27854.72
527.01	27821.95
527.18	27964.72
527.36	28140.26
527.53	28231.54
527.70	28680.92
527.87	28615.39
528.04	28545.17
528.21	28762.84
528.38	28261.97
528.55	28460.91
528.72	28397.72
528.89	28872.85
529.07	28428.15
529.24	28547.51
529.41	28800.29
529.58	28603.69
529.75	28566.24
529.92	28512.41
530.09	28589.64
530.26	28996.90
530.43	29259.04
530.60	28891.57
530.77	28903.28
530.94	29053.07
531.11	28954.77
531.28	29041.37
531.46	28914.98
531.63	29352.66
531.80	29186.48
531.97	29443.94
532.14	29553.94
532.31	29495.43
532.48	29397.13
532.65	29296.49
532.82	29301.17
532.99	29764.59
533.16	29069.45
533.33	29743.53
533.50	29872.26
533.67	29869.92
533.84	29624.16
534.01	29364.36
534.18	29645.23
534.35	29996.31
534.52	29806.72
534.69	30003.33
534.86	30316.96
535.03	29956.52
535.20	30213.98
535.37	30520.59
535.54	29996.31
535.71	29748.21
535.88	30110.99
536.05	30160.14
536.22	30080.56
536.38	30485.48
536.55	30813.15
536.72	30679.74
536.89	30483.14
537.06	30396.54
537.23	30728.89
537.40	30670.38
537.57	30593.14
537.74	30314.62
537.91	30904.43
538.08	30778.04
538.25	30588.46
538.42	30759.32
538.59	30670.38
538.75	30635.27
538.92	30632.93
539.09	30663.36
539.26	31103.38
539.43	31159.55
539.60	31351.48
539.77	31028.48
539.94	31033.16
540.11	31470.84
540.28	31702.56
540.44	31442.76
540.61	31512.97
540.78	31594.89
540.95	31461.48
541.12	31798.52
541.29	31894.48
541.46	31763.41
541.62	31660.43
541.79	31845.33
541.96	31435.74
542.13	31826.60
542.30	31604.25
542.47	32093.43
542.63	32065.34
542.80	32414.08
542.97	32460.89
543.14	32496.00
543.31	32098.11
543.48	32297.05
543.64	32844.74
543.81	32360.25
543.98	32704.31
544.15	32432.80
544.32	32739.41
544.48	32896.23
544.65	31992.78
544.82	32655.15
544.99	32388.33
545.16	32180.03
545.32	32929.00
545.49	33043.68
545.66	33490.73
545.83	33958.83
546.00	33970.54
546.16	33565.62
546.33	32662.18
546.50	32840.06
546.67	33078.79
546.83	32369.61
547.00	32802.61
547.17	32613.02
547.34	32727.71
547.50	32964.10
547.67	32900.91
547.84	33039.00
548.00	33046.02
548.17	32793.25
548.34	32847.08
548.51	33188.80
548.67	33226.24
548.84	32914.95
549.01	32952.40
549.18	33200.50
549.34	33071.77
549.51	32950.06
549.68	33165.39
549.84	33123.26
550.01	33144.33
550.18	33188.80
550.34	33057.73
550.51	33062.41
550.68	33472.00
550.84	33132.62
551.01	33406.47
551.18	32966.45
551.34	32809.63
551.51	33497.75
551.68	33497.75
551.84	33336.25
552.01	33284.76
552.18	33472.00
552.34	33181.77
552.51	33450.94
552.68	33350.29
552.84	33394.76
553.01	33834.78
553.18	33757.55
553.34	33619.46
553.51	33525.83
553.67	33741.16
553.84	33858.19
554.01	34162.46
554.17	34237.36
554.34	33827.76
554.51	33687.33
554.67	33851.17
554.84	33539.88
555.00	33888.62
555.17	34085.22
555.33	33745.84
555.50	33762.23
555.67	33954.15
555.83	34022.03
556.00	33469.66
556.16	34333.32
556.33	33933.09
556.50	33778.61
556.66	33893.30
556.83	33741.16
556.99	34263.10
557.16	33883.94
557.32	34253.74
557.49	34370.77
557.65	33942.45
557.82	34455.03
557.98	33949.47
558.15	33991.60
558.32	34492.47
558.48	34253.74
558.65	34230.33
558.81	34125.01
558.98	34000.96
559.14	34057.14
559.31	34267.78
559.47	34536.94
559.64	34314.59
559.80	33902.66
559.97	34368.43
560.13	34370.77
560.30	34696.10
560.46	34335.66
560.63	34375.45
560.79	34742.91
560.96	34913.77
561.12	34223.31
561.29	34728.87
561.45	34274.80
561.61	34604.82
561.78	34394.17
561.94	34462.05
562.11	34637.59
562.27	34574.39
562.44	34242.04
562.60	34541.63
562.77	34469.07
562.93	34445.66
563.10	34803.77
563.26	34604.82
563.42	34923.13
563.59	34749.93
563.75	34738.23
563.92	34677.38
564.08	34658.65
564.24	34642.27
564.41	34492.47
564.57	34621.20
564.74	34789.72
564.90	34773.34
565.07	34794.40
565.23	34946.54
565.39	34623.54
565.56	34906.75
565.72	34581.42
565.88	35023.78
566.05	34490.13
566.21	34527.58
566.38	34518.22
566.54	34792.06
566.70	34888.03
566.87	34653.97
567.03	34892.71
567.19	35189.95
567.36	34965.26
567.52	34426.94
567.68	35068.25
567.85	34536.94
568.01	34895.05
568.17	34799.08
568.34	34991.01
568.50	34822.49
568.66	35091.65
568.83	34660.99
568.99	34780.36
569.15	34548.65
569.32	34560.35
569.48	34859.94
569.64	35108.04
569.81	34946.54
569.97	34820.15
570.13	34682.06
570.30	34890.37
570.46	35288.26
570.62	35049.52
570.78	34806.11
570.95	34663.33
571.11	35026.12
571.27	34747.59
571.43	34934.84
571.60	35054.20
571.76	34895.05
571.92	34679.72
572.09	35292.94
572.25	34998.03
572.41	35122.08
572.57	35101.01
572.74	35103.35
572.90	34583.76
573.06	35009.73
573.22	34817.81
573.38	34815.47
573.55	34656.31
573.71	35402.94
573.87	35215.70
574.03	34815.47
574.20	34923.13
574.36	34785.04
574.52	34899.73
574.68	35007.39
574.84	34749.93
575.01	35304.64
575.17	35325.71
575.33	34712.49
575.49	35117.40
575.65	34981.65
575.82	35330.39
575.98	34895.05
576.14	35110.38
576.30	35030.80
576.46	34771.00
576.62	35005.05
576.79	35047.18
576.95	35112.72
577.11	35065.91
577.27	34836.53
577.43	35199.32
577.59	34991.01
577.75	34892.71
577.92	34646.95
578.08	34852.92
578.24	35075.27
578.40	34824.83
578.56	35079.95
578.72	35292.94
578.88	35594.87
579.04	35480.18
579.21	35000.37
579.37	35229.74
579.53	35386.56
579.69	34897.39
579.85	34646.95
580.01	34939.52
580.17	34660.99
580.33	35096.33
580.49	35304.64
580.65	35005.05
580.82	35168.89
580.98	35058.88
581.14	35201.66
581.30	35447.41
581.46	34834.19
581.62	35044.84
581.78	34827.17
581.94	35550.40
582.10	34969.94
582.26	35044.84
582.42	35136.12
582.58	35072.93
582.74	35463.80
582.90	35204.00
583.06	35309.32
583.22	34958.24
583.38	35208.68
583.54	35241.45
583.70	35264.85
583.86	34927.81
584.02	35161.87
584.18	35133.78
584.34	35185.27
584.50	35576.14
584.66	35136.12
584.82	35040.16
584.98	35501.25
585.14	35196.98
585.30	34965.26
585.46	34993.35
585.62	35232.08
585.78	35330.39
585.94	35112.72
586.10	35290.60
586.26	35328.05
586.42	35384.22
586.58	35077.61
586.74	35339.75
586.90	35026.12
587.06	35281.24
587.22	35501.25
587.38	34923.13
587.54	35452.09
587.70	35948.29
587.86	35042.50
588.02	35372.52
588.18	35278.89
588.34	35538.69
588.49	35257.83
588.65	35126.76
588.81	35187.61
588.97	35063.57
589.13	35269.53
589.29	35615.93
589.45	35662.74
589.61	34981.65
589.77	35803.17
589.93	35283.58
590.08	35325.71
590.24	36261.92
590.40	35761.05
590.56	35449.75
590.72	35077.61
590.88	35016.75
591.04	35601.89
591.20	35784.45
591.35	35309.32
591.51	36151.91
