SpectraSuite Data File
++++++++++++++++++++++++++++++++++++
Date: Fri Oct 04 11:42:25 GMT-05:00 2013
User: price-jones
Dark Spectrum Present: No
Reference Spectrum Present: No
Number of Sampled Component Spectra: 1
Spectrometers: USB2+H05261
Integration Time (usec): 100000 (USB2+H05261)
Spectra Averaged: 1 (USB2+H05261)
Boxcar Smoothing: 0 (USB2+H05261)
Correct for Electrical Dark: No (USB2+H05261)
Strobe/Lamp Enabled: No (USB2+H05261)
Correct for Detector Non-linearity: No (USB2+H05261)
Correct for Stray Light: No (USB2+H05261)
Number of Pixels in Processed Spectrum: 2048
>>>>>Begin Processed Spectral Data<<<<<
365.73	56.17
365.92	56.17
366.12	56.17
366.32	0.00
366.52	0.00
366.72	0.00
366.91	0.00
367.11	0.00
367.31	0.00
367.51	0.00
367.70	0.00
367.90	0.00
368.10	0.00
368.30	0.00
368.49	0.00
368.69	0.00
368.89	21.06
369.09	11.70
369.28	0.00
369.48	0.00
369.68	0.00
369.87	0.00
370.07	0.00
370.27	39.79
370.47	51.49
370.66	35.11
370.86	86.60
371.06	121.71
371.25	100.64
371.45	70.22
371.65	79.58
371.84	74.90
372.04	2.34
372.24	46.81
372.44	72.56
372.63	124.05
372.83	100.64
373.03	100.64
373.22	77.24
373.42	156.82
373.62	84.26
373.81	107.66
374.01	140.43
374.21	135.75
374.40	152.13
374.60	95.96
374.79	16.38
374.99	180.22
375.19	152.13
375.38	105.32
375.58	93.62
375.78	147.45
375.97	152.13
376.17	196.60
376.37	154.48
376.56	98.30
376.76	84.26
376.95	114.69
377.15	105.32
377.35	124.05
377.54	110.01
377.74	126.39
377.93	102.98
378.13	189.58
378.33	124.05
378.52	0.00
378.72	138.09
378.91	124.05
379.11	163.84
379.31	49.15
379.50	93.62
379.70	42.13
379.89	175.54
380.09	81.92
380.28	91.28
380.48	93.62
380.68	161.50
380.87	88.94
381.07	117.03
381.26	138.09
381.46	156.82
381.65	110.01
381.85	133.41
382.04	100.64
382.24	161.50
382.43	140.43
382.63	142.77
382.83	93.62
383.02	107.66
383.22	131.07
383.41	46.81
383.61	138.09
383.80	81.92
384.00	21.06
384.19	95.96
384.39	119.37
384.58	133.41
384.78	133.41
384.97	173.20
385.17	67.88
385.36	168.52
385.56	161.50
385.75	98.30
385.95	51.49
386.14	145.11
386.34	114.69
386.53	100.64
386.72	154.48
386.92	121.71
387.11	161.50
387.31	145.11
387.50	128.73
387.70	74.90
387.89	138.09
388.09	95.96
388.28	86.60
388.48	105.32
388.67	60.85
388.86	32.77
389.06	149.79
389.25	156.82
389.45	145.11
389.64	86.60
389.84	91.28
390.03	112.35
390.22	156.82
390.42	72.56
390.61	140.43
390.81	98.30
391.00	72.56
391.19	112.35
391.39	128.73
391.58	98.30
391.78	70.22
391.97	121.71
392.16	138.09
392.36	95.96
392.55	149.79
392.75	161.50
392.94	170.86
393.13	107.66
393.33	72.56
393.52	98.30
393.71	180.22
393.91	117.03
394.10	65.54
394.29	100.64
394.49	131.07
394.68	77.24
394.88	133.41
395.07	117.03
395.26	77.24
395.46	156.82
395.65	135.75
395.84	149.79
396.04	241.08
396.23	128.73
396.42	110.01
396.62	77.24
396.81	126.39
397.00	140.43
397.19	152.13
397.39	198.95
397.58	161.50
397.77	159.16
397.97	46.81
398.16	135.75
398.35	98.30
398.55	39.79
398.74	102.98
398.93	205.97
399.12	110.01
399.32	152.13
399.51	142.77
399.70	145.11
399.90	177.88
400.09	140.43
400.28	140.43
400.47	88.94
400.67	131.07
400.86	152.13
401.05	145.11
401.24	142.77
401.44	161.50
401.63	133.41
401.82	131.07
402.01	46.81
402.21	98.30
402.40	170.86
402.59	138.09
402.78	138.09
402.97	131.07
403.17	119.37
403.36	124.05
403.55	170.86
403.74	252.78
403.93	681.10
404.13	1387.94
404.32	2211.81
404.51	2071.37
404.70	1376.24
404.89	538.32
405.09	262.14
405.28	168.52
405.47	159.16
405.66	168.52
405.85	135.75
406.05	147.45
406.24	107.66
406.43	168.52
406.62	177.88
406.81	173.20
407.00	196.60
407.20	299.59
407.39	435.34
407.58	442.36
407.77	435.34
407.96	266.82
408.15	147.45
408.34	145.11
408.54	156.82
408.73	156.82
408.92	88.94
409.11	166.18
409.30	212.99
409.49	145.11
409.68	140.43
409.87	131.07
410.07	145.11
410.26	170.86
410.45	88.94
410.64	140.43
410.83	112.35
411.02	147.45
411.21	126.39
411.40	88.94
411.59	187.24
411.78	128.73
411.98	173.20
412.17	81.92
412.36	140.43
412.55	74.90
412.74	227.03
412.93	203.63
413.12	105.32
413.31	102.98
413.50	159.16
413.69	154.48
413.88	175.54
414.07	196.60
414.26	175.54
414.45	180.22
414.64	74.90
414.83	241.08
415.02	159.16
415.22	189.58
415.41	147.45
415.60	135.75
415.79	196.60
415.98	163.84
416.17	215.33
416.36	194.26
416.55	201.29
416.74	166.18
416.93	133.41
417.12	180.22
417.31	217.67
417.50	166.18
417.69	149.79
417.88	138.09
418.07	114.69
418.26	140.43
418.45	234.05
418.64	241.08
418.83	149.79
419.02	276.18
419.21	215.33
419.39	180.22
419.58	133.41
419.77	119.37
419.96	182.56
420.15	215.33
420.34	149.79
420.53	133.41
420.72	142.77
420.91	110.01
421.10	177.88
421.29	208.31
421.48	161.50
421.67	203.63
421.86	149.79
422.05	159.16
422.24	142.77
422.43	194.26
422.61	166.18
422.80	121.71
422.99	161.50
423.18	86.60
423.37	208.31
423.56	170.86
423.75	161.50
423.94	184.90
424.13	184.90
424.32	149.79
424.50	149.79
424.69	177.88
424.88	180.22
425.07	229.37
425.26	175.54
425.45	252.78
425.64	187.24
425.83	177.88
426.01	145.11
426.20	205.97
426.39	131.07
426.58	145.11
426.77	252.78
426.96	175.54
427.15	173.20
427.33	145.11
427.52	142.77
427.71	227.03
427.90	243.42
428.09	222.35
428.28	163.84
428.46	187.24
428.65	173.20
428.84	278.52
429.03	210.65
429.22	135.75
429.40	224.69
429.59	93.62
429.78	304.27
429.97	224.69
430.16	210.65
430.34	250.44
430.53	196.60
430.72	191.92
430.91	241.08
431.10	231.71
431.28	220.01
431.47	278.52
431.66	210.65
431.85	201.29
432.03	224.69
432.22	252.78
432.41	325.33
432.60	238.73
432.79	212.99
432.97	294.91
433.16	229.37
433.35	259.80
433.54	266.82
433.72	304.27
433.91	322.99
434.10	365.12
434.28	353.42
434.47	409.59
434.66	334.70
434.85	437.68
435.03	961.96
435.22	3066.10
435.41	7265.02
435.59	9458.10
435.78	6602.65
435.97	3337.60
436.16	1247.51
436.34	566.41
436.53	355.76
436.72	407.25
436.90	325.33
437.09	362.78
437.28	304.27
437.46	203.63
437.65	234.05
437.84	241.08
438.02	273.84
438.21	292.57
438.40	245.76
438.58	229.37
438.77	257.46
438.96	241.08
439.14	259.80
439.33	215.33
439.52	241.08
439.70	205.97
439.89	262.14
440.08	358.10
440.26	217.67
440.45	400.23
440.63	283.20
440.82	266.82
441.01	201.29
441.19	304.27
441.38	269.16
441.57	297.25
441.75	241.08
441.94	252.78
442.12	238.73
442.31	290.23
442.50	262.14
442.68	222.35
442.87	205.97
443.05	229.37
443.24	273.84
443.43	355.76
443.61	215.33
443.80	208.31
443.98	304.27
444.17	290.23
444.35	262.14
444.54	259.80
444.73	241.08
444.91	304.27
445.10	222.35
445.28	217.67
445.47	168.52
445.65	332.36
445.84	229.37
446.02	264.48
446.21	236.39
446.39	229.37
446.58	365.12
446.77	280.86
446.95	292.57
447.14	292.57
447.32	339.38
447.51	266.82
447.69	276.18
447.88	238.73
448.06	241.08
448.25	292.57
448.43	243.42
448.62	210.65
448.80	266.82
448.99	278.52
449.17	259.80
449.36	241.08
449.54	259.80
449.73	318.31
449.91	215.33
450.10	255.12
450.28	362.78
450.46	285.55
450.65	360.44
450.83	231.71
451.02	222.35
451.20	236.39
451.39	294.91
451.57	217.67
451.76	191.92
451.94	271.50
452.13	234.05
452.31	241.08
452.49	315.97
452.68	250.44
452.86	229.37
453.05	203.63
453.23	252.78
453.42	217.67
453.60	212.99
453.78	229.37
453.97	236.39
454.15	269.16
454.34	243.42
454.52	250.44
454.70	294.91
454.89	248.10
455.07	210.65
455.26	236.39
455.44	322.99
455.62	285.55
455.81	271.50
455.99	222.35
456.17	245.76
456.36	208.31
456.54	262.14
456.73	301.93
456.91	236.39
457.09	273.84
457.28	273.84
457.46	304.27
457.64	280.86
457.83	224.69
458.01	259.80
458.19	269.16
458.38	248.10
458.56	241.08
458.74	177.88
458.93	294.91
459.11	276.18
459.29	224.69
459.48	215.33
459.66	245.76
459.84	311.29
460.03	369.80
460.21	259.80
460.39	217.67
460.57	372.15
460.76	290.23
460.94	278.52
461.12	337.04
461.31	264.48
461.49	241.08
461.67	252.78
461.85	210.65
462.04	276.18
462.22	367.46
462.40	273.84
462.59	248.10
462.77	243.42
462.95	280.86
463.13	283.20
463.32	236.39
463.50	250.44
463.68	259.80
463.86	194.26
464.05	250.44
464.23	252.78
464.41	348.74
464.59	250.44
464.78	241.08
464.96	220.01
465.14	196.60
465.32	269.16
465.50	327.68
465.69	283.20
465.87	220.01
466.05	238.73
466.23	278.52
466.41	273.84
466.60	273.84
466.78	238.73
466.96	220.01
467.14	252.78
467.32	238.73
467.51	320.65
467.69	255.12
467.87	271.50
468.05	194.26
468.23	283.20
468.41	187.24
468.60	180.22
468.78	196.60
468.96	257.46
469.14	215.33
469.32	180.22
469.50	262.14
469.69	234.05
469.87	269.16
470.05	220.01
470.23	259.80
470.41	264.48
470.59	210.65
470.77	255.12
470.95	170.86
471.14	241.08
471.32	224.69
471.50	276.18
471.68	248.10
471.86	280.86
472.04	227.03
472.22	198.95
472.40	217.67
472.58	175.54
472.77	266.82
472.95	210.65
473.13	334.70
473.31	327.68
473.49	238.73
473.67	241.08
473.85	273.84
474.03	231.71
474.21	234.05
474.39	234.05
474.57	325.33
474.75	285.55
474.93	271.50
475.12	245.76
475.30	205.97
475.48	191.92
475.66	227.03
475.84	191.92
476.02	255.12
476.20	313.63
476.38	273.84
476.56	358.10
476.74	297.25
476.92	292.57
477.10	252.78
477.28	266.82
477.46	269.16
477.64	234.05
477.82	287.89
478.00	280.86
478.18	292.57
478.36	252.78
478.54	287.89
478.72	236.39
478.90	297.25
479.08	313.63
479.26	276.18
479.44	259.80
479.62	290.23
479.80	332.36
479.98	315.97
480.16	358.10
480.34	278.52
480.52	322.99
480.70	299.59
480.88	325.33
481.06	337.04
481.24	276.18
481.41	440.02
481.59	454.06
481.77	381.51
481.95	435.34
482.13	475.13
482.31	428.32
482.49	500.87
482.67	533.64
482.85	573.43
483.03	528.96
483.21	531.30
483.39	594.50
483.57	641.31
483.74	636.63
483.92	744.29
484.10	669.39
484.28	763.01
484.46	858.98
484.64	770.04
484.82	870.68
485.00	910.47
485.18	1032.18
485.35	1128.14
485.53	997.07
485.71	1102.39
485.89	1107.07
486.07	1081.33
486.25	1165.59
486.43	1177.29
486.61	1118.78
486.78	1186.65
486.96	1235.80
487.14	1228.78
487.32	1270.91
487.50	1263.89
487.68	1238.14
487.85	1158.57
488.03	1217.08
488.21	1217.08
488.39	1128.14
488.57	1256.87
488.75	1153.88
488.92	1441.77
489.10	1259.21
489.28	1177.29
489.46	1289.64
489.64	1259.21
489.81	1151.54
489.99	1156.22
490.17	1074.31
490.35	1207.72
490.53	1163.25
490.70	1153.88
490.88	1153.88
491.06	1139.84
491.24	1156.22
491.41	1357.51
491.59	1135.16
491.77	1156.22
491.95	1078.99
492.13	1008.77
492.30	1043.88
492.48	1011.11
492.66	990.05
492.84	884.72
493.01	1036.86
493.19	936.21
493.37	954.94
493.54	1039.20
493.72	1074.31
493.90	936.21
494.08	866.00
494.25	954.94
494.43	866.00
494.61	940.90
494.79	844.93
494.96	875.36
495.14	840.25
495.32	737.27
495.49	746.63
495.67	767.70
495.85	784.08
496.02	884.72
496.20	819.19
496.38	807.48
496.55	889.40
496.73	791.10
496.91	812.17
497.09	763.01
497.26	627.26
497.44	739.61
497.62	716.20
497.79	816.85
497.97	704.50
498.14	744.29
498.32	627.26
498.50	643.65
498.67	608.54
498.85	580.45
499.03	660.03
499.20	491.51
499.38	554.71
499.56	528.96
499.73	645.99
499.91	559.39
500.08	512.58
500.26	390.87
500.44	444.70
500.61	507.90
500.79	433.00
500.97	493.85
501.14	491.51
501.32	510.24
501.49	440.02
501.67	414.27
501.84	372.15
502.02	320.65
502.20	472.79
502.37	325.33
502.55	348.74
502.72	255.12
502.90	395.55
503.07	339.38
503.25	348.74
503.43	287.89
503.60	337.04
503.78	313.63
503.95	315.97
504.13	360.44
504.30	292.57
504.48	264.48
504.65	393.21
504.83	327.68
505.01	294.91
505.18	320.65
505.36	271.50
505.53	205.97
505.71	315.97
505.88	271.50
506.06	266.82
506.23	245.76
506.41	355.76
506.58	330.02
506.76	306.61
506.93	334.70
507.11	173.20
507.28	245.76
507.46	234.05
507.63	245.76
507.81	276.18
507.98	304.27
508.16	311.29
508.33	184.90
508.50	250.44
508.68	222.35
508.85	276.18
509.03	304.27
509.20	311.29
509.38	362.78
509.55	311.29
509.73	297.25
509.90	222.35
510.08	255.12
510.25	339.38
510.42	276.18
510.60	292.57
510.77	236.39
510.95	337.04
511.12	299.59
511.30	332.36
511.47	341.72
511.64	320.65
511.82	269.16
511.99	297.25
512.17	330.02
512.34	285.55
512.51	325.33
512.69	229.37
512.86	407.25
513.04	330.02
513.21	346.40
513.38	297.25
513.56	224.69
513.73	227.03
513.90	327.68
514.08	276.18
514.25	346.40
514.43	259.80
514.60	301.93
514.77	241.08
514.95	273.84
515.12	238.73
515.29	250.44
515.47	276.18
515.64	287.89
515.81	315.97
515.99	299.59
516.16	243.42
516.33	341.72
516.51	278.52
516.68	278.52
516.85	241.08
517.03	318.31
517.20	255.12
517.37	299.59
517.54	287.89
517.72	278.52
517.89	304.27
518.06	241.08
518.24	292.57
518.41	212.99
518.58	250.44
518.75	290.23
518.93	301.93
519.10	269.16
519.27	234.05
519.45	330.02
519.62	285.55
519.79	301.93
519.96	259.80
520.14	283.20
520.31	322.99
520.48	294.91
520.65	313.63
520.83	292.57
521.00	287.89
521.17	208.31
521.34	238.73
521.52	229.37
521.69	238.73
521.86	255.12
522.03	341.72
522.20	278.52
522.38	210.65
522.55	252.78
522.72	194.26
522.89	297.25
523.07	313.63
523.24	269.16
523.41	283.20
523.58	330.02
523.75	395.55
523.92	210.65
524.10	325.33
524.27	234.05
524.44	273.84
524.61	283.20
524.78	262.14
524.96	315.97
525.13	290.23
525.30	266.82
525.47	327.68
525.64	269.16
525.81	308.95
525.98	271.50
526.16	287.89
526.33	287.89
526.50	264.48
526.67	227.03
526.84	280.86
527.01	243.42
527.18	271.50
527.36	201.29
527.53	313.63
527.70	360.44
527.87	351.08
528.04	353.42
528.21	330.02
528.38	311.29
528.55	351.08
528.72	320.65
528.89	304.27
529.07	290.23
529.24	241.08
529.41	292.57
529.58	339.38
529.75	322.99
529.92	362.78
530.09	311.29
530.26	313.63
530.43	280.86
530.60	292.57
530.77	362.78
530.94	194.26
531.11	283.20
531.28	327.68
531.46	313.63
531.63	353.42
531.80	334.70
531.97	304.27
532.14	341.72
532.31	393.21
532.48	395.55
532.65	470.45
532.82	484.49
532.99	550.03
533.16	669.39
533.33	650.67
533.50	587.47
533.67	505.56
533.84	514.92
534.01	463.43
534.18	404.91
534.35	437.68
534.52	498.53
534.69	538.32
534.86	437.68
535.03	479.81
535.20	486.83
535.37	519.60
535.54	521.94
535.71	519.60
535.88	528.96
536.05	596.84
536.22	617.90
536.38	645.99
536.55	725.57
536.72	697.48
536.89	627.26
537.06	660.03
537.23	873.02
537.40	912.81
537.57	959.62
537.74	1095.37
537.91	1158.57
538.08	1320.06
538.25	1301.34
538.42	1448.79
538.59	1551.78
538.75	1483.90
538.92	1502.62
539.09	1549.43
539.26	1621.99
539.43	1863.07
539.60	1975.41
539.77	2230.53
539.94	2368.62
540.11	2502.03
540.28	2686.94
540.44	2780.56
540.61	2932.69
540.78	3213.56
540.95	3658.26
541.12	4074.87
541.29	4889.38
541.46	5453.45
541.62	6104.12
541.79	7136.29
541.96	8002.29
542.13	8575.72
542.30	8980.64
542.47	8664.66
542.63	8388.48
542.80	8423.59
542.97	8589.77
543.14	8788.71
543.31	9001.70
543.48	8947.87
543.64	8812.12
543.81	8711.47
543.98	8269.11
544.15	8173.15
544.32	8039.74
544.48	7857.18
544.65	7538.87
544.82	7124.59
544.99	6853.09
545.16	6693.93
545.32	6424.77
545.49	9128.09
545.66	15569.24
545.83	22101.68
546.00	19791.57
546.16	12161.42
546.33	8336.99
546.50	5799.85
546.67	4035.08
546.83	3297.81
547.00	3157.38
547.17	2895.24
547.34	2700.98
547.50	2642.46
547.67	2668.21
547.84	2541.82
548.00	2445.86
548.17	2593.31
548.34	2677.57
548.51	2752.47
548.67	2965.46
548.84	2806.30
549.01	2867.16
549.18	2822.69
549.34	2775.88
549.51	2754.81
549.68	2541.82
549.84	2303.09
550.01	2193.08
550.18	2270.32
550.34	2209.47
550.51	2036.27
550.68	2043.29
550.84	2012.86
551.01	1863.07
551.18	1827.96
551.34	1853.70
551.51	1834.98
551.68	1872.43
551.84	1884.13
552.01	1881.79
552.18	1827.96
552.34	1734.34
552.51	1743.70
552.68	1563.48
552.84	1528.37
553.01	1507.30
553.18	1427.73
553.34	1336.45
553.51	1240.48
553.67	1196.01
553.84	1055.58
554.01	954.94
554.17	875.36
554.34	866.00
554.51	877.70
554.67	758.33
554.84	660.03
555.00	641.31
555.17	599.18
555.33	571.09
555.50	540.66
555.67	521.94
555.83	575.77
556.00	554.71
556.16	655.35
556.33	573.43
556.50	465.77
556.66	554.71
556.83	411.93
556.99	416.62
557.16	390.87
557.32	472.79
557.49	451.72
557.65	395.55
557.82	472.79
557.98	468.11
558.15	397.89
558.32	362.78
558.48	404.91
558.65	449.38
558.81	383.85
558.98	353.42
559.14	369.80
559.31	337.04
559.47	379.17
559.64	332.36
559.80	447.04
559.97	353.42
560.13	332.36
560.30	404.91
560.46	386.19
560.63	414.27
560.79	322.99
560.96	346.40
561.12	517.26
561.29	339.38
561.45	390.87
561.61	322.99
561.78	477.47
561.94	318.31
562.11	271.50
562.27	322.99
562.44	259.80
562.60	271.50
562.77	320.65
562.93	407.25
563.10	362.78
563.26	397.89
563.42	365.12
563.59	313.63
563.75	283.20
563.92	418.96
564.08	311.29
564.24	320.65
564.41	414.27
564.57	283.20
564.74	301.93
564.90	355.76
565.07	301.93
565.23	290.23
565.39	304.27
565.56	388.53
565.72	278.52
565.88	308.95
566.05	257.46
566.21	348.74
566.38	280.86
566.54	297.25
566.70	327.68
566.87	280.86
567.03	285.55
567.19	285.55
567.36	301.93
567.52	257.46
567.68	362.78
567.85	341.72
568.01	325.33
568.17	301.93
568.34	325.33
568.50	374.49
568.66	299.59
568.83	379.17
568.99	220.01
569.15	339.38
569.32	299.59
569.48	234.05
569.64	266.82
569.81	313.63
569.97	236.39
570.13	315.97
570.30	381.51
570.46	376.83
570.62	196.60
570.78	285.55
570.95	222.35
571.11	238.73
571.27	292.57
571.43	259.80
571.60	320.65
571.76	320.65
571.92	311.29
572.09	313.63
572.25	332.36
572.41	292.57
572.57	341.72
572.74	332.36
572.90	395.55
573.06	390.87
573.22	348.74
573.38	337.04
573.55	400.23
573.71	367.46
573.87	301.93
574.03	315.97
574.20	430.66
574.36	458.74
574.52	411.93
574.68	374.49
574.84	325.33
575.01	369.80
575.17	458.74
575.33	351.08
575.49	472.79
575.65	404.91
575.82	472.79
575.98	472.79
576.14	433.00
576.30	751.31
576.46	1659.44
576.62	3054.40
576.79	3861.88
576.95	2946.73
577.11	1823.28
577.27	1259.21
577.43	983.02
577.59	706.84
577.75	601.52
577.92	545.34
578.08	514.92
578.24	552.37
578.40	737.27
578.56	1727.32
578.72	3119.93
578.88	3695.71
579.04	2822.69
579.21	2139.25
579.37	1713.27
579.53	1568.16
579.69	1387.94
579.85	1589.22
580.01	1933.28
580.17	1856.04
580.33	1739.02
580.49	1418.36
580.65	1362.19
580.82	1268.57
580.98	1214.74
581.14	1212.40
581.30	1235.80
581.46	1352.83
581.62	1273.25
581.78	1430.07
581.94	1378.58
582.10	1427.73
582.26	1537.73
582.42	1497.94
582.58	1657.10
582.74	1652.42
582.90	1701.57
583.06	1928.60
583.22	1926.26
583.38	1905.20
583.54	1998.82
583.70	2026.90
583.86	1991.80
584.02	1879.45
584.18	1963.71
584.34	1809.23
584.50	1804.55
584.66	1755.40
584.82	1666.46
584.98	1570.50
585.14	1579.86
585.30	1509.65
585.46	1537.73
585.62	1401.98
585.78	1600.93
585.94	1500.28
586.10	1467.52
586.26	1563.48
586.42	1713.27
586.58	1919.24
586.74	2223.51
586.90	2626.08
587.06	3061.42
587.22	3141.00
587.38	2918.65
587.54	2635.44
587.70	2370.96
587.86	2134.57
588.02	2001.16
588.18	1732.00
588.34	1666.46
588.49	1509.65
588.65	1427.73
588.81	1359.85
588.97	1320.06
589.13	1359.85
589.29	1315.38
589.45	1228.78
589.61	1336.45
589.77	1394.96
589.93	1181.97
590.08	1228.78
590.24	1212.40
590.40	1324.74
590.56	1240.48
590.72	1317.72
590.88	1184.31
591.04	1238.14
591.20	1118.78
591.35	1191.33
591.51	1160.91
591.67	1214.74
591.83	1160.91
591.99	1245.16
592.15	1322.40
592.31	1432.41
592.46	1563.48
592.62	1689.87
592.78	1710.93
592.94	1788.17
593.10	1806.89
593.26	1802.21
593.41	1586.88
593.57	1434.75
593.73	1320.06
593.89	1156.22
594.05	999.41
594.20	805.14
594.36	901.11
594.52	891.74
594.68	765.36
594.84	692.80
594.99	709.18
595.15	704.50
595.31	741.95
595.47	697.48
595.62	657.69
595.78	709.18
595.94	683.44
596.10	657.69
596.25	713.86
596.41	744.29
596.57	676.41
596.73	746.63
596.88	685.78
597.04	739.61
597.20	636.63
597.36	653.01
597.51	758.33
597.67	800.46
597.83	741.95
597.99	788.76
598.14	823.87
598.30	973.66
598.46	863.66
598.61	980.68
598.77	1027.50
598.93	1048.56
599.09	1121.12
599.24	1256.87
599.40	1193.67
599.56	1156.22
599.71	1090.69
599.87	997.07
600.03	964.30
600.18	873.02
600.34	915.15
600.50	814.51
600.65	816.85
600.81	739.61
600.97	683.44
601.12	552.37
601.28	650.67
601.44	599.18
601.59	582.79
601.75	514.92
601.91	580.45
602.06	543.00
602.22	624.92
602.37	500.87
602.53	498.53
602.69	561.73
602.84	568.75
603.00	489.17
603.16	521.94
603.31	475.13
603.47	538.32
603.62	526.62
603.78	503.22
603.94	615.56
604.09	650.67
604.25	667.05
604.40	599.18
604.56	575.77
604.71	561.73
604.87	636.63
605.03	559.39
605.18	653.01
605.34	678.76
605.49	557.05
605.65	629.60
605.80	674.07
605.96	690.46
606.12	692.80
606.27	760.67
606.43	734.93
606.58	826.21
606.74	837.91
606.89	779.40
607.05	837.91
607.20	875.36
607.36	903.45
607.51	999.41
607.67	1025.15
607.82	985.37
607.98	1081.33
608.13	1284.95
608.29	1350.49
