SpectraSuite Data File
++++++++++++++++++++++++++++++++++++
Date: Fri Oct 04 11:41:58 GMT-05:00 2013
User: price-jones
Dark Spectrum Present: No
Reference Spectrum Present: No
Number of Sampled Component Spectra: 1
Spectrometers: USB2+H05261
Integration Time (usec): 100000 (USB2+H05261)
Spectra Averaged: 1 (USB2+H05261)
Boxcar Smoothing: 0 (USB2+H05261)
Correct for Electrical Dark: No (USB2+H05261)
Strobe/Lamp Enabled: No (USB2+H05261)
Correct for Detector Non-linearity: No (USB2+H05261)
Correct for Stray Light: No (USB2+H05261)
Number of Pixels in Processed Spectrum: 2048
>>>>>Begin Processed Spectral Data<<<<<
365.73	0.00
365.92	0.00
366.12	0.00
366.32	0.00
366.52	0.00
366.72	9.36
366.91	0.00
367.11	0.00
367.31	0.00
367.51	0.00
367.70	0.00
367.90	0.00
368.10	0.00
368.30	28.09
368.49	0.00
368.69	0.00
368.89	0.00
369.09	0.00
369.28	0.00
369.48	0.00
369.68	25.75
369.87	0.00
370.07	0.00
370.27	18.72
370.47	0.00
370.66	0.00
370.86	18.72
371.06	14.04
371.25	133.41
371.45	74.90
371.65	74.90
371.84	25.75
372.04	35.11
372.24	74.90
372.44	135.75
372.63	53.83
372.83	159.16
373.03	126.39
373.22	121.71
373.42	128.73
373.62	102.98
373.81	145.11
374.01	95.96
374.21	173.20
374.40	128.73
374.60	159.16
374.79	72.56
374.99	142.77
375.19	131.07
375.38	142.77
375.58	46.81
375.78	124.05
375.97	163.84
376.17	184.90
376.37	135.75
376.56	145.11
376.76	138.09
376.95	72.56
377.15	121.71
377.35	93.62
377.54	180.22
377.74	119.37
377.93	107.66
378.13	102.98
378.33	110.01
378.52	126.39
378.72	154.48
378.91	138.09
379.11	156.82
379.31	74.90
379.50	147.45
379.70	212.99
379.89	140.43
380.09	131.07
380.28	119.37
380.48	107.66
380.68	117.03
380.87	107.66
381.07	131.07
381.26	184.90
381.46	110.01
381.65	46.81
381.85	98.30
382.04	91.28
382.24	84.26
382.43	88.94
382.63	67.88
382.83	91.28
383.02	154.48
383.22	201.29
383.41	107.66
383.61	149.79
383.80	107.66
384.00	170.86
384.19	119.37
384.39	161.50
384.58	131.07
384.78	133.41
384.97	135.75
385.17	91.28
385.36	98.30
385.56	128.73
385.75	100.64
385.95	131.07
386.14	126.39
386.34	102.98
386.53	114.69
386.72	98.30
386.92	91.28
387.11	121.71
387.31	119.37
387.50	114.69
387.70	98.30
387.89	133.41
388.09	84.26
388.28	133.41
388.48	67.88
388.67	100.64
388.86	63.19
389.06	138.09
389.25	138.09
389.45	175.54
389.64	175.54
389.84	145.11
390.03	138.09
390.22	95.96
390.42	163.84
390.61	131.07
390.81	95.96
391.00	152.13
391.19	133.41
391.39	107.66
391.58	110.01
391.78	79.58
391.97	121.71
392.16	60.85
392.36	100.64
392.55	100.64
392.75	187.24
392.94	58.51
393.13	107.66
393.33	161.50
393.52	74.90
393.71	95.96
393.91	203.63
394.10	79.58
394.29	128.73
394.49	112.35
394.68	107.66
394.88	154.48
395.07	135.75
395.26	177.88
395.46	177.88
395.65	145.11
395.84	147.45
396.04	166.18
396.23	110.01
396.42	182.56
396.62	63.19
396.81	95.96
397.00	166.18
397.19	156.82
397.39	114.69
397.58	189.58
397.77	100.64
397.97	147.45
398.16	184.90
398.35	159.16
398.55	84.26
398.74	121.71
398.93	152.13
399.12	205.97
399.32	121.71
399.51	145.11
399.70	145.11
399.90	131.07
400.09	114.69
400.28	152.13
400.47	128.73
400.67	166.18
400.86	152.13
401.05	227.03
401.24	180.22
401.44	250.44
401.63	142.77
401.82	180.22
402.01	224.69
402.21	201.29
402.40	194.26
402.59	126.39
402.78	205.97
402.97	208.31
403.17	166.18
403.36	224.69
403.55	301.93
403.74	592.16
403.93	1977.75
404.13	4580.43
404.32	6153.27
404.51	5067.26
404.70	3014.61
404.89	1217.08
405.09	418.96
405.28	241.08
405.47	163.84
405.66	205.97
405.85	259.80
406.05	212.99
406.24	198.95
406.43	170.86
406.62	227.03
406.81	203.63
407.00	334.70
407.20	617.90
407.39	882.38
407.58	873.02
407.77	650.67
407.96	358.10
408.15	229.37
408.34	161.50
408.54	126.39
408.73	182.56
408.92	191.92
409.11	126.39
409.30	245.76
409.49	140.43
409.68	175.54
409.87	241.08
410.07	163.84
410.26	126.39
410.45	182.56
410.64	231.71
410.83	168.52
411.02	140.43
411.21	203.63
411.40	201.29
411.59	177.88
411.78	114.69
411.98	168.52
412.17	133.41
412.36	191.92
412.55	105.32
412.74	184.90
412.93	217.67
413.12	217.67
413.31	231.71
413.50	168.52
413.69	229.37
413.88	287.89
414.07	238.73
414.26	210.65
414.45	149.79
414.64	187.24
414.83	241.08
415.02	161.50
415.22	142.77
415.41	217.67
415.60	212.99
415.79	196.60
415.98	252.78
416.17	205.97
416.36	196.60
416.55	220.01
416.74	250.44
416.93	250.44
417.12	217.67
417.31	252.78
417.50	198.95
417.69	257.46
417.88	276.18
418.07	245.76
418.26	210.65
418.45	208.31
418.64	252.78
418.83	287.89
419.02	217.67
419.21	276.18
419.39	257.46
419.58	266.82
419.77	259.80
419.96	212.99
420.15	287.89
420.34	266.82
420.53	273.84
420.72	236.39
420.91	217.67
421.10	227.03
421.29	271.50
421.48	262.14
421.67	290.23
421.86	210.65
422.05	173.20
422.24	220.01
422.43	217.67
422.61	266.82
422.80	278.52
422.99	210.65
423.18	290.23
423.37	299.59
423.56	297.25
423.75	325.33
423.94	252.78
424.13	313.63
424.32	259.80
424.50	287.89
424.69	266.82
424.88	353.42
425.07	243.42
425.26	304.27
425.45	264.48
425.64	327.68
425.83	266.82
426.01	294.91
426.20	313.63
426.39	320.65
426.58	285.55
426.77	227.03
426.96	327.68
427.15	287.89
427.33	285.55
427.52	266.82
427.71	229.37
427.90	362.78
428.09	280.86
428.28	276.18
428.46	337.04
428.65	379.17
428.84	367.46
429.03	313.63
429.22	304.27
429.40	255.12
429.59	271.50
429.78	325.33
429.97	346.40
430.16	351.08
430.34	341.72
430.53	355.76
430.72	358.10
430.91	362.78
431.10	313.63
431.28	346.40
431.47	414.27
431.66	374.49
431.85	355.76
432.03	367.46
432.22	397.89
432.41	330.02
432.60	447.04
432.79	449.38
432.97	407.25
433.16	423.64
433.35	489.17
433.54	510.24
433.72	561.73
433.91	538.32
434.10	582.79
434.28	784.08
434.47	851.96
434.66	777.06
434.85	1165.59
435.03	3084.83
435.22	12121.63
435.41	26553.38
435.59	26916.16
435.78	17539.97
435.97	8751.26
436.16	3192.49
436.34	1270.91
436.53	690.46
436.72	737.27
436.90	603.86
437.09	388.53
437.28	444.70
437.46	430.66
437.65	400.23
437.84	531.30
438.02	472.79
438.21	475.13
438.40	400.23
438.58	393.21
438.77	517.26
438.96	414.27
439.14	367.46
439.33	402.57
439.52	393.21
439.70	402.57
439.89	400.23
440.08	468.11
440.26	395.55
440.45	449.38
440.63	388.53
440.82	400.23
441.01	416.62
441.19	388.53
441.38	367.46
441.57	320.65
441.75	486.83
441.94	435.34
442.12	433.00
442.31	393.21
442.50	458.74
442.68	362.78
442.87	444.70
443.05	374.49
443.24	411.93
443.43	444.70
443.61	465.77
443.80	348.74
443.98	425.98
444.17	372.15
444.35	400.23
444.54	489.17
444.73	404.91
444.91	433.00
445.10	379.17
445.28	428.32
445.47	360.44
445.65	393.21
445.84	390.87
446.02	425.98
446.21	257.46
446.39	287.89
446.58	393.21
446.77	437.68
446.95	423.64
447.14	393.21
447.32	393.21
447.51	402.57
447.69	355.76
447.88	409.59
448.06	463.43
448.25	440.02
448.43	503.22
448.62	379.17
448.80	447.04
448.99	482.15
449.17	395.55
449.36	418.96
449.54	435.34
449.73	360.44
449.91	423.64
450.10	374.49
450.28	507.90
450.46	414.27
450.65	386.19
450.83	407.25
451.02	484.49
451.20	325.33
451.39	407.25
451.57	416.62
451.76	475.13
451.94	482.15
452.13	437.68
452.31	423.64
452.49	458.74
452.68	393.21
452.86	475.13
453.05	435.34
453.23	381.51
453.42	498.53
453.60	372.15
453.78	444.70
453.97	358.10
454.15	362.78
454.34	360.44
454.52	379.17
454.70	461.09
454.89	479.81
455.07	400.23
455.26	411.93
455.44	397.89
455.62	334.70
455.81	442.36
455.99	383.85
456.17	393.21
456.36	313.63
456.54	465.77
456.73	297.25
456.91	379.17
457.09	430.66
457.28	411.93
457.46	435.34
457.64	379.17
457.83	386.19
458.01	374.49
458.19	388.53
458.38	318.31
458.56	423.64
458.74	400.23
458.93	461.09
459.11	461.09
459.29	418.96
459.48	458.74
459.66	376.83
459.84	411.93
460.03	451.72
460.21	341.72
460.39	355.76
460.57	397.89
460.76	440.02
460.94	369.80
461.12	393.21
461.31	395.55
461.49	355.76
461.67	299.59
461.85	388.53
462.04	395.55
462.22	877.70
462.40	454.06
462.59	451.72
462.77	491.51
462.95	379.17
463.13	311.29
463.32	362.78
463.50	386.19
463.68	425.98
463.86	435.34
464.05	402.57
464.23	454.06
464.41	423.64
464.59	395.55
464.78	379.17
464.96	416.62
465.14	437.68
465.32	444.70
465.50	416.62
465.69	442.36
465.87	355.76
466.05	400.23
466.23	409.59
466.41	411.93
466.60	454.06
466.78	449.38
466.96	475.13
467.14	458.74
467.32	372.15
467.51	447.04
467.69	404.91
467.87	423.64
468.05	437.68
468.23	433.00
468.41	404.91
468.60	341.72
468.78	283.20
468.96	348.74
469.14	360.44
469.32	346.40
469.50	337.04
469.69	344.06
469.87	372.15
470.05	444.70
470.23	381.51
470.41	383.85
470.59	397.89
470.77	351.08
470.95	409.59
471.14	388.53
471.32	402.57
471.50	465.77
471.68	348.74
471.86	369.80
472.04	327.68
472.22	402.57
472.40	320.65
472.58	306.61
472.77	318.31
472.95	327.68
473.13	454.06
473.31	365.12
473.49	451.72
473.67	414.27
473.85	407.25
474.03	395.55
474.21	397.89
474.39	393.21
474.57	428.32
474.75	315.97
474.93	353.42
475.12	376.83
475.30	428.32
475.48	367.46
475.66	390.87
475.84	430.66
476.02	325.33
476.20	416.62
476.38	425.98
476.56	444.70
476.74	449.38
476.92	390.87
477.10	376.83
477.28	433.00
477.46	365.12
477.64	407.25
477.82	379.17
478.00	388.53
478.18	458.74
478.36	491.51
478.54	404.91
478.72	400.23
478.90	397.89
479.08	498.53
479.26	531.30
479.44	517.26
479.62	561.73
479.80	526.62
479.98	428.32
480.16	566.41
480.34	676.41
480.52	608.54
480.70	608.54
480.88	622.58
481.06	648.33
481.24	629.60
481.41	692.80
481.59	683.44
481.77	786.42
481.95	798.12
482.13	875.36
482.31	908.13
482.49	943.24
482.67	1041.54
482.85	1022.81
483.03	1212.40
483.21	1224.10
483.39	1235.80
483.57	1282.61
483.74	1441.77
483.92	1551.78
484.10	1584.54
484.28	1750.72
484.46	1877.11
484.64	1881.79
484.82	1970.73
485.00	2008.18
485.18	2209.47
485.35	2305.43
485.53	2375.64
485.71	2502.03
485.89	2607.36
486.07	2689.28
486.25	2661.19
486.43	2778.22
486.61	2775.88
486.78	2637.78
486.96	2733.75
487.14	2663.53
487.32	2644.81
487.50	2569.91
487.68	2633.10
487.85	2537.14
488.03	2670.55
488.21	2523.10
488.39	2495.01
488.57	2366.28
488.75	2230.53
488.92	2574.59
489.10	2197.76
489.28	2232.87
489.46	2134.57
489.64	2242.23
489.81	2127.55
489.99	2090.10
490.17	2106.48
490.35	2115.84
490.53	1996.48
490.70	2024.56
490.88	2066.69
491.06	2174.36
491.24	2356.92
491.41	2361.60
491.59	2122.87
491.77	1973.07
491.95	2029.24
492.13	1944.99
492.30	1851.36
492.48	1795.19
492.66	1788.17
492.84	1795.19
493.01	1790.51
493.19	1806.89
493.37	1827.96
493.54	1678.16
493.72	1783.49
493.90	1689.87
494.08	1617.31
494.25	1554.12
494.43	1671.14
494.61	1575.18
494.79	1509.65
494.96	1659.44
495.14	1551.78
495.32	1481.56
495.49	1528.37
495.67	1416.02
495.85	1486.24
496.02	1282.61
496.20	1423.05
496.38	1455.81
496.55	1343.47
496.73	1303.68
496.91	1359.85
497.09	1308.36
497.26	1334.11
497.44	1233.46
497.62	1238.14
497.79	1261.55
497.97	1270.91
498.14	1128.14
498.32	1198.35
498.50	1160.91
498.67	1135.16
498.85	1144.52
499.03	1043.88
499.20	983.02
499.38	912.81
499.56	987.71
499.73	973.66
499.91	1027.50
500.08	830.89
500.26	870.68
500.44	833.23
500.61	877.70
500.79	882.38
500.97	786.42
501.14	847.27
501.32	805.14
501.49	793.44
501.67	671.73
501.84	716.20
502.02	624.92
502.20	763.01
502.37	760.67
502.55	641.31
502.72	643.65
502.90	624.92
503.07	681.10
503.25	660.03
503.43	540.66
503.60	540.66
503.78	498.53
503.95	566.41
504.13	543.00
504.30	561.73
504.48	543.00
504.65	524.28
504.83	575.77
505.01	477.47
505.18	528.96
505.36	500.87
505.53	442.36
505.71	463.43
505.88	538.32
506.06	491.51
506.23	437.68
506.41	456.40
506.58	454.06
506.76	402.57
506.93	449.38
507.11	416.62
507.28	472.79
507.46	433.00
507.63	456.40
507.81	463.43
507.98	479.81
508.16	447.04
508.33	458.74
508.50	451.72
508.68	451.72
508.85	489.17
509.03	365.12
509.20	538.32
509.38	491.51
509.55	479.81
509.73	437.68
509.90	421.30
510.08	468.11
510.25	395.55
510.42	393.21
510.60	402.57
510.77	430.66
510.95	383.85
511.12	400.23
511.30	372.15
511.47	421.30
511.64	470.45
511.82	386.19
511.99	402.57
512.17	428.32
512.34	379.17
512.51	404.91
512.69	430.66
512.86	348.74
513.04	397.89
513.21	400.23
513.38	348.74
513.56	297.25
513.73	376.83
513.90	351.08
514.08	430.66
514.25	379.17
514.43	407.25
514.60	344.06
514.77	381.51
514.95	367.46
515.12	332.36
515.29	414.27
515.47	430.66
515.64	376.83
515.81	379.17
515.99	360.44
516.16	365.12
516.33	346.40
516.51	397.89
516.68	425.98
516.85	416.62
517.03	320.65
517.20	327.68
517.37	337.04
517.54	355.76
517.72	337.04
517.89	325.33
518.06	358.10
518.24	407.25
518.41	339.38
518.58	315.97
518.75	264.48
518.93	348.74
519.10	393.21
519.27	372.15
519.45	411.93
519.62	386.19
519.79	355.76
519.96	355.76
520.14	304.27
520.31	358.10
520.48	308.95
520.65	360.44
520.83	374.49
521.00	367.46
521.17	330.02
521.34	320.65
521.52	348.74
521.69	332.36
521.86	379.17
522.03	351.08
522.20	322.99
522.38	358.10
522.55	271.50
522.72	360.44
522.89	386.19
523.07	362.78
523.24	428.32
523.41	337.04
523.58	318.31
523.75	418.96
523.92	351.08
524.10	344.06
524.27	355.76
524.44	273.84
524.61	423.64
524.78	344.06
524.96	444.70
525.13	311.29
525.30	414.27
525.47	393.21
525.64	393.21
525.81	341.72
525.98	332.36
526.16	367.46
526.33	388.53
526.50	393.21
526.67	306.61
526.84	376.83
527.01	388.53
527.18	437.68
527.36	428.32
527.53	430.66
527.70	503.22
527.87	454.06
528.04	503.22
528.21	435.34
528.38	456.40
528.55	461.09
528.72	454.06
528.89	524.28
529.07	425.98
529.24	444.70
529.41	491.51
529.58	425.98
529.75	484.49
529.92	479.81
530.09	421.30
530.26	524.28
530.43	477.47
530.60	475.13
530.77	463.43
530.94	449.38
531.11	629.60
531.28	521.94
531.46	547.69
531.63	627.26
531.80	662.37
531.97	664.71
532.14	667.05
532.31	812.17
532.48	983.02
532.65	1069.62
532.82	1254.53
532.99	1458.15
533.16	1610.29
533.33	1668.80
533.50	1533.05
533.67	1469.86
533.84	1259.21
534.01	1048.56
534.18	940.90
534.35	1015.79
534.52	980.68
534.69	1013.45
534.86	1032.18
535.03	1013.45
535.20	1121.12
535.37	1247.51
535.54	1242.82
535.71	1266.23
535.88	1362.19
536.05	1486.24
536.22	1584.54
536.38	1699.23
536.55	1881.79
536.72	2237.55
536.89	2230.53
537.06	2560.55
537.23	2705.66
537.40	3059.08
537.57	3260.37
537.74	3398.46
537.91	3513.14
538.08	3674.64
538.25	3702.73
538.42	3719.11
538.59	3810.39
538.75	3791.67
538.92	4306.59
539.09	4514.89
539.26	5060.24
539.43	5614.95
539.60	6450.52
539.77	7241.62
539.94	7892.29
540.11	9078.94
540.28	9837.27
540.44	10548.79
540.61	11501.39
540.78	13429.99
540.95	16542.91
541.12	19468.58
541.29	21919.12
541.46	22988.74
541.62	22632.98
541.79	21848.90
541.96	20046.69
542.13	18466.83
542.30	17359.75
542.47	16449.28
542.63	15461.58
542.80	15250.93
542.97	15154.97
543.14	14827.29
543.31	14899.85
543.48	15131.56
543.64	15190.08
543.81	15389.02
543.98	15173.69
544.15	15470.94
544.32	15639.46
544.48	15637.12
544.65	15480.30
544.82	15295.40
544.99	15276.68
545.16	15482.64
545.32	16437.58
545.49	27859.40
545.66	51082.19
545.83	57003.75
546.00	50487.70
546.16	35622.95
546.33	26171.87
546.50	19990.52
546.67	15620.74
546.83	14022.15
547.00	13502.55
547.17	12748.90
547.34	12264.41
547.50	11604.38
547.67	11150.31
547.84	10740.72
548.00	10431.77
548.17	10092.39
548.34	9762.37
548.51	9521.30
548.67	8760.63
548.84	8259.75
549.01	7920.37
549.18	7735.47
549.34	7302.47
549.51	7075.44
549.68	6834.36
549.84	6363.92
550.01	6183.70
550.18	6031.56
550.34	5591.54
550.51	5537.71
550.68	5111.73
550.84	4901.08
551.01	4547.66
551.18	4442.34
551.34	4142.75
551.51	4107.64
551.68	3892.31
551.84	3831.46
552.01	3695.71
552.18	3438.25
552.34	3332.92
552.51	3199.51
552.68	3101.21
552.84	2897.58
553.01	2871.84
553.18	2726.72
553.34	2715.02
553.51	2583.95
553.67	2492.67
553.84	2422.45
554.01	2282.02
554.17	2188.40
554.34	2150.95
554.51	1781.15
554.67	1825.62
554.84	1720.29
555.00	1540.07
555.17	1598.59
555.33	1427.73
555.50	1413.68
555.67	1299.00
555.83	1294.32
556.00	1317.72
556.16	1462.83
556.33	1071.97
556.50	1095.37
556.66	1076.65
556.83	1048.56
556.99	1032.18
557.16	1015.79
557.32	1043.88
557.49	999.41
557.65	971.32
557.82	1039.20
557.98	954.94
558.15	821.53
558.32	917.49
558.48	880.04
558.65	919.83
558.81	891.74
558.98	739.61
559.14	835.57
559.31	779.40
559.47	835.57
559.64	706.84
559.80	723.23
559.97	655.35
560.13	734.93
560.30	713.86
560.46	704.50
560.63	713.86
560.79	716.20
560.96	706.84
561.12	697.48
561.29	702.16
561.45	580.45
561.61	688.12
561.78	807.48
561.94	641.31
562.11	660.03
562.27	739.61
562.44	662.37
562.60	704.50
562.77	697.48
562.93	730.25
563.10	681.10
563.26	669.39
563.42	650.67
563.59	622.58
563.75	578.11
563.92	589.82
564.08	592.16
564.24	575.77
564.41	620.24
564.57	674.07
564.74	641.31
564.90	671.73
565.07	636.63
565.23	482.15
565.39	517.26
565.56	631.94
565.72	613.22
565.88	503.22
566.05	580.45
566.21	489.17
566.38	587.47
566.54	585.13
566.70	543.00
566.87	615.56
567.03	477.47
567.19	564.07
567.36	554.71
567.52	517.26
567.68	622.58
567.85	564.07
568.01	608.54
568.17	533.64
568.34	634.29
568.50	667.05
568.66	608.54
568.83	657.69
568.99	557.05
569.15	631.94
569.32	543.00
569.48	543.00
569.64	465.77
569.81	543.00
569.97	465.77
570.13	547.69
570.30	491.51
570.46	402.57
570.62	458.74
570.78	444.70
570.95	428.32
571.11	409.59
571.27	449.38
571.43	472.79
571.60	472.79
571.76	425.98
571.92	444.70
572.09	456.40
572.25	461.09
572.41	465.77
572.57	414.27
572.74	472.79
572.90	465.77
573.06	423.64
573.22	440.02
573.38	496.19
573.55	418.96
573.71	489.17
573.87	503.22
574.03	435.34
574.20	463.43
574.36	500.87
574.52	461.09
574.68	477.47
574.84	575.77
575.01	596.84
575.17	638.97
575.33	629.60
575.49	767.70
575.65	746.63
575.82	725.57
575.98	791.10
576.14	943.24
576.30	1900.52
576.46	5785.80
576.62	10019.83
576.79	10677.52
576.95	7618.44
577.11	5118.75
577.27	3784.65
577.43	2480.97
577.59	1645.40
577.75	1334.11
577.92	1163.25
578.08	1062.60
578.24	1074.31
578.40	2094.78
578.56	5579.84
578.72	9109.36
578.88	10319.42
579.04	7478.01
579.21	4957.25
579.37	3847.84
579.53	3028.65
579.69	2925.67
579.85	3688.68
580.01	4025.72
580.17	3843.16
580.33	3321.22
580.49	2890.56
580.65	2532.46
580.82	2380.32
580.98	2237.55
581.14	2387.35
581.30	2478.63
581.46	2633.10
581.62	2855.45
581.78	3183.13
581.94	3208.87
582.10	3405.48
582.26	3536.55
582.42	3829.12
582.58	3911.04
582.74	3899.33
582.90	3873.59
583.06	4053.81
583.22	4072.53
583.38	4028.06
583.54	3801.03
583.70	3873.59
583.86	3857.20
584.02	3688.68
584.18	3634.85
584.34	3684.00
584.50	3655.92
584.66	3669.96
584.82	3499.10
584.98	3506.12
585.14	3384.41
585.30	3311.86
585.46	3398.46
585.62	3183.13
585.78	3262.71
585.94	3227.60
586.10	3295.47
586.26	3618.47
586.42	3922.74
586.58	4833.21
586.74	6104.12
586.90	7124.59
587.06	7775.26
587.22	7569.29
587.38	6855.43
587.54	6024.54
587.70	4912.78
587.86	4257.43
588.02	3627.83
588.18	3056.74
588.34	3000.57
588.49	2743.11
588.65	2443.52
588.81	2319.47
588.97	2202.44
589.13	2251.60
589.29	2118.18
589.45	2263.30
589.61	2078.40
589.77	2410.75
589.93	2265.64
590.08	2279.68
590.24	2499.69
590.40	2347.56
590.56	2385.01
590.72	2532.46
590.88	2506.71
591.04	2724.38
591.20	2733.75
591.35	2808.64
591.51	3148.02
591.67	3145.68
591.83	3339.94
591.99	3609.11
592.15	4032.74
592.31	4241.05
592.46	4685.75
592.62	5111.73
592.78	5392.59
592.94	5549.41
593.10	5451.11
593.26	5114.07
593.41	4692.77
593.57	4395.53
593.73	3817.41
593.89	3391.44
594.05	3040.36
594.20	2799.28
594.36	2569.91
594.52	2370.96
594.68	2129.89
594.84	2132.23
594.99	2190.74
595.15	2136.91
595.31	2099.46
595.47	2045.63
595.62	1905.20
595.78	1944.99
595.94	2003.50
596.10	2085.42
596.25	2005.84
596.41	1942.64
596.57	1907.54
596.73	1987.11
596.88	1961.37
597.04	2001.16
597.20	1998.82
597.36	2026.90
597.51	2108.82
597.67	2106.48
597.83	2244.57
597.99	2427.14
598.14	2588.63
598.30	2677.57
598.46	2881.20
598.61	2932.69
598.77	3098.87
598.93	3045.04
599.09	3309.52
599.24	3396.12
599.40	3288.45
599.56	3162.06
599.71	3126.96
599.87	2794.60
600.03	2834.39
600.18	2553.52
600.34	2370.96
600.50	2153.29
600.65	2195.42
600.81	2090.10
600.97	1952.01
601.12	1837.32
601.28	1722.63
601.44	1589.22
601.59	1523.69
601.75	1511.99
601.91	1526.03
602.06	1413.68
602.22	1537.73
602.37	1495.60
602.53	1364.53
602.69	1378.58
602.84	1270.91
603.00	1357.51
603.16	1387.94
603.31	1434.75
603.47	1430.07
603.62	1420.71
603.78	1497.94
603.94	1530.71
604.09	1467.52
604.25	1530.71
604.40	1565.82
604.56	1528.37
604.71	1657.10
604.87	1603.27
605.03	1664.12
605.18	1554.12
605.34	1706.25
605.49	1675.82
605.65	1781.15
