SpectraSuite Data File
++++++++++++++++++++++++++++++++++++
Date: Fri Oct 04 11:41:49 GMT-05:00 2013
User: price-jones
Dark Spectrum Present: No
Reference Spectrum Present: No
Number of Sampled Component Spectra: 1
Spectrometers: USB2+H05261
Integration Time (usec): 100000 (USB2+H05261)
Spectra Averaged: 1 (USB2+H05261)
Boxcar Smoothing: 0 (USB2+H05261)
Correct for Electrical Dark: No (USB2+H05261)
Strobe/Lamp Enabled: No (USB2+H05261)
Correct for Detector Non-linearity: No (USB2+H05261)
Correct for Stray Light: No (USB2+H05261)
Number of Pixels in Processed Spectrum: 2048
>>>>>Begin Processed Spectral Data<<<<<
365.73	56.17
365.92	56.17
366.12	56.17
366.32	0.00
366.52	0.00
366.72	0.00
366.91	0.00
367.11	0.00
367.31	0.00
367.51	0.00
367.70	0.00
367.90	0.00
368.10	0.00
368.30	0.00
368.49	0.00
368.69	0.00
368.89	0.00
369.09	0.00
369.28	0.00
369.48	0.00
369.68	0.00
369.87	0.00
370.07	0.00
370.27	0.00
370.47	21.06
370.66	0.00
370.86	138.09
371.06	51.49
371.25	42.13
371.45	28.09
371.65	65.54
371.84	112.35
372.04	112.35
372.24	53.83
372.44	110.01
372.63	147.45
372.83	140.43
373.03	161.50
373.22	81.92
373.42	175.54
373.62	138.09
373.81	67.88
374.01	149.79
374.21	159.16
374.40	114.69
374.60	220.01
374.79	187.24
374.99	88.94
375.19	187.24
375.38	177.88
375.58	159.16
375.78	128.73
375.97	131.07
376.17	170.86
376.37	93.62
376.56	198.95
376.76	95.96
376.95	102.98
377.15	145.11
377.35	135.75
377.54	152.13
377.74	128.73
377.93	131.07
378.13	121.71
378.33	135.75
378.52	154.48
378.72	166.18
378.91	133.41
379.11	215.33
379.31	180.22
379.50	133.41
379.70	110.01
379.89	149.79
380.09	112.35
380.28	166.18
380.48	182.56
380.68	131.07
380.87	152.13
381.07	163.84
381.26	112.35
381.46	131.07
381.65	229.37
381.85	74.90
382.04	124.05
382.24	95.96
382.43	159.16
382.63	154.48
382.83	86.60
383.02	180.22
383.22	208.31
383.41	74.90
383.61	100.64
383.80	110.01
384.00	112.35
384.19	77.24
384.39	135.75
384.58	91.28
384.78	177.88
384.97	119.37
385.17	147.45
385.36	117.03
385.56	166.18
385.75	107.66
385.95	117.03
386.14	166.18
386.34	44.47
386.53	163.84
386.72	124.05
386.92	142.77
387.11	170.86
387.31	168.52
387.50	14.04
387.70	42.13
387.89	95.96
388.09	51.49
388.28	105.32
388.48	91.28
388.67	88.94
388.86	135.75
389.06	117.03
389.25	128.73
389.45	93.62
389.64	175.54
389.84	168.52
390.03	105.32
390.22	145.11
390.42	72.56
390.61	131.07
390.81	152.13
391.00	145.11
391.19	133.41
391.39	138.09
391.58	102.98
391.78	140.43
391.97	182.56
392.16	100.64
392.36	184.90
392.55	220.01
392.75	194.26
392.94	105.32
393.13	147.45
393.33	140.43
393.52	152.13
393.71	163.84
393.91	175.54
394.10	124.05
394.29	126.39
394.49	126.39
394.68	191.92
394.88	156.82
395.07	142.77
395.26	126.39
395.46	224.69
395.65	175.54
395.84	147.45
396.04	194.26
396.23	138.09
396.42	133.41
396.62	187.24
396.81	124.05
397.00	140.43
397.19	180.22
397.39	135.75
397.58	184.90
397.77	112.35
397.97	117.03
398.16	187.24
398.35	166.18
398.55	156.82
398.74	203.63
398.93	196.60
399.12	154.48
399.32	159.16
399.51	191.92
399.70	177.88
399.90	191.92
400.09	159.16
400.28	203.63
400.47	138.09
400.67	198.95
400.86	163.84
401.05	128.73
401.24	201.29
401.44	248.10
401.63	238.73
401.82	205.97
402.01	170.86
402.21	248.10
402.40	266.82
402.59	187.24
402.78	241.08
402.97	280.86
403.17	276.18
403.36	304.27
403.55	388.53
403.74	695.14
403.93	2328.83
404.13	6015.18
404.32	10216.44
404.51	11229.89
404.70	7040.33
404.89	2607.36
405.09	730.25
405.28	442.36
405.47	278.52
405.66	205.97
405.85	290.23
406.05	271.50
406.24	250.44
406.43	215.33
406.62	262.14
406.81	290.23
407.00	470.45
407.20	765.36
407.39	1219.42
407.58	1577.52
407.77	1313.04
407.96	692.80
408.15	367.46
408.34	234.05
408.54	236.39
408.73	161.50
408.92	255.12
409.11	210.65
409.30	194.26
409.49	166.18
409.68	250.44
409.87	217.67
410.07	222.35
410.26	217.67
410.45	243.42
410.64	241.08
410.83	299.59
411.02	248.10
411.21	285.55
411.40	243.42
411.59	224.69
411.78	304.27
411.98	292.57
412.17	220.01
412.36	229.37
412.55	259.80
412.74	327.68
412.93	245.76
413.12	276.18
413.31	238.73
413.50	184.90
413.69	255.12
413.88	220.01
414.07	294.91
414.26	285.55
414.45	266.82
414.64	341.72
414.83	318.31
415.02	285.55
415.22	287.89
415.41	262.14
415.60	273.84
415.79	337.04
415.98	390.87
416.17	285.55
416.36	341.72
416.55	383.85
416.74	344.06
416.93	360.44
417.12	362.78
417.31	290.23
417.50	292.57
417.69	304.27
417.88	304.27
418.07	339.38
418.26	278.52
418.45	360.44
418.64	327.68
418.83	362.78
419.02	252.78
419.21	301.93
419.39	348.74
419.58	346.40
419.77	315.97
419.96	339.38
420.15	416.62
420.34	341.72
420.53	346.40
420.72	376.83
420.91	292.57
421.10	355.76
421.29	404.91
421.48	402.57
421.67	374.49
421.86	386.19
422.05	355.76
422.24	367.46
422.43	425.98
422.61	318.31
422.80	397.89
422.99	404.91
423.18	327.68
423.37	454.06
423.56	381.51
423.75	416.62
423.94	358.10
424.13	386.19
424.32	320.65
424.50	313.63
424.69	388.53
424.88	411.93
425.07	360.44
425.26	365.12
425.45	437.68
425.64	404.91
425.83	390.87
426.01	397.89
426.20	461.09
426.39	423.64
426.58	400.23
426.77	451.72
426.96	461.09
427.15	376.83
427.33	512.58
427.52	386.19
427.71	418.96
427.90	486.83
428.09	482.15
428.28	461.09
428.46	442.36
428.65	472.79
428.84	458.74
429.03	535.98
429.22	414.27
429.40	458.74
429.59	524.28
429.78	503.22
429.97	449.38
430.16	400.23
430.34	479.81
430.53	512.58
430.72	507.90
430.91	486.83
431.10	500.87
431.28	517.26
431.47	575.77
431.66	552.37
431.85	535.98
432.03	526.62
432.22	608.54
432.41	575.77
432.60	557.05
432.79	624.92
432.97	599.18
433.16	709.18
433.35	720.88
433.54	851.96
433.72	882.38
433.91	924.51
434.10	901.11
434.28	1261.55
434.47	1474.54
434.66	1530.71
434.85	1724.97
435.03	4119.34
435.22	14731.33
435.41	37502.40
435.59	52144.80
435.78	43709.50
435.97	18979.40
436.16	6939.69
436.34	2303.09
436.53	1282.61
436.72	983.02
436.90	887.06
437.09	835.57
437.28	755.99
437.46	725.57
437.65	645.99
437.84	732.59
438.02	650.67
438.21	741.95
438.40	657.69
438.58	648.33
438.77	641.31
438.96	645.99
439.14	589.82
439.33	615.56
439.52	631.94
439.70	713.86
439.89	638.97
440.08	624.92
440.26	653.01
440.45	741.95
440.63	561.73
440.82	685.78
441.01	564.07
441.19	662.37
441.38	657.69
441.57	641.31
441.75	664.71
441.94	596.84
442.12	697.48
442.31	657.69
442.50	615.56
442.68	615.56
442.87	690.46
443.05	627.26
443.24	610.88
443.43	620.24
443.61	669.39
443.80	669.39
443.98	615.56
444.17	648.33
444.35	631.94
444.54	620.24
444.73	610.88
444.91	606.20
445.10	582.79
445.28	568.75
445.47	564.07
445.65	594.50
445.84	636.63
446.02	608.54
446.21	662.37
446.39	648.33
446.58	629.60
446.77	617.90
446.95	608.54
447.14	543.00
447.32	608.54
447.51	596.84
447.69	608.54
447.88	580.45
448.06	615.56
448.25	589.82
448.43	559.39
448.62	655.35
448.80	552.37
448.99	566.41
449.17	638.97
449.36	601.52
449.54	631.94
449.73	620.24
449.91	601.52
450.10	596.84
450.28	664.71
450.46	617.90
450.65	645.99
450.83	559.39
451.02	547.69
451.20	594.50
451.39	669.39
451.57	667.05
451.76	547.69
451.94	550.03
452.13	599.18
452.31	603.86
452.49	526.62
452.68	528.96
452.86	676.41
453.05	664.71
453.23	587.47
453.42	634.29
453.60	545.34
453.78	634.29
453.97	610.88
454.15	608.54
454.34	617.90
454.52	620.24
454.70	603.86
454.89	561.73
455.07	636.63
455.26	592.16
455.44	636.63
455.62	571.09
455.81	643.65
455.99	608.54
456.17	561.73
456.36	545.34
456.54	545.34
456.73	601.52
456.91	620.24
457.09	547.69
457.28	730.25
457.46	678.76
457.64	575.77
457.83	608.54
458.01	543.00
458.19	606.20
458.38	566.41
458.56	587.47
458.74	568.75
458.93	557.05
459.11	660.03
459.29	585.13
459.48	585.13
459.66	601.52
459.84	617.90
460.03	746.63
460.21	720.88
460.39	550.03
460.57	575.77
460.76	528.96
460.94	629.60
461.12	688.12
461.31	638.97
461.49	543.00
461.67	507.90
461.85	505.56
462.04	533.64
462.22	952.60
462.40	692.80
462.59	669.39
462.77	578.11
462.95	582.79
463.13	585.13
463.32	603.86
463.50	641.31
463.68	608.54
463.86	535.98
464.05	629.60
464.23	610.88
464.41	634.29
464.59	578.11
464.78	720.88
464.96	648.33
465.14	587.47
465.32	571.09
465.50	610.88
465.69	606.20
465.87	535.98
466.05	505.56
466.23	566.41
466.41	592.16
466.60	667.05
466.78	711.52
466.96	685.78
467.14	578.11
467.32	575.77
467.51	594.50
467.69	627.26
467.87	582.79
468.05	585.13
468.23	531.30
468.41	606.20
468.60	496.19
468.78	500.87
468.96	596.84
469.14	559.39
469.32	524.28
469.50	526.62
469.69	582.79
469.87	550.03
470.05	514.92
470.23	512.58
470.41	571.09
470.59	507.90
470.77	582.79
470.95	561.73
471.14	498.53
471.32	503.22
471.50	601.52
471.68	587.47
471.86	561.73
472.04	627.26
472.22	524.28
472.40	566.41
472.58	519.60
472.77	657.69
472.95	585.13
473.13	688.12
473.31	566.41
473.49	587.47
473.67	482.15
473.85	606.20
474.03	554.71
474.21	564.07
474.39	566.41
474.57	645.99
474.75	594.50
474.93	589.82
475.12	594.50
475.30	603.86
475.48	566.41
475.66	573.43
475.84	552.37
476.02	578.11
476.20	557.05
476.38	554.71
476.56	664.71
476.74	507.90
476.92	433.00
477.10	601.52
477.28	634.29
477.46	554.71
477.64	608.54
477.82	620.24
478.00	557.05
478.18	622.58
478.36	596.84
478.54	622.58
478.72	653.01
478.90	603.86
479.08	720.88
479.26	748.97
479.44	725.57
479.62	809.83
479.80	699.82
479.98	821.53
480.16	889.40
480.34	866.00
480.52	903.45
480.70	854.30
480.88	866.00
481.06	933.87
481.24	1013.45
481.41	994.73
481.59	1123.46
481.77	1376.24
481.95	1327.08
482.13	1479.22
482.31	1394.96
482.49	1526.03
482.67	1664.12
482.85	1987.11
483.03	2031.58
483.21	2071.37
483.39	2125.21
483.57	2317.13
483.74	2548.84
483.92	2569.91
484.10	2731.41
484.28	2902.26
484.46	3133.98
484.64	3169.09
484.82	3379.73
485.00	3506.12
485.18	3691.02
485.35	4046.79
485.53	4117.00
485.71	4500.85
485.89	4521.92
486.07	4704.48
486.25	4681.07
486.43	4791.08
486.61	4786.40
486.78	4784.06
486.96	4702.14
487.14	4746.61
487.32	4774.69
487.50	4821.50
487.68	4643.62
487.85	4809.80
488.03	4631.92
488.21	4505.53
488.39	4472.76
488.57	4496.17
488.75	4292.54
488.92	4475.10
489.10	4011.68
489.28	4007.00
489.46	3936.78
489.64	3737.84
489.81	3786.99
489.99	3817.41
490.17	3651.24
490.35	3721.45
490.53	3616.13
490.70	3557.61
490.88	3543.57
491.06	3826.78
491.24	3985.93
491.41	4367.44
491.59	4063.17
491.77	3665.28
491.95	3386.76
492.13	3375.05
492.30	3372.71
492.48	3185.47
492.66	3265.05
492.84	3052.06
493.01	3075.46
493.19	3009.93
493.37	3056.74
493.54	2986.52
493.72	2883.54
493.90	2750.13
494.08	2832.05
494.25	2841.41
494.43	2808.64
494.61	2820.35
494.79	2717.36
494.96	2523.10
495.14	2544.16
495.32	2532.46
495.49	2597.99
495.67	2469.27
495.85	2403.73
496.02	2410.75
496.20	2293.72
496.38	2282.02
496.55	2275.00
496.73	2279.68
496.91	2165.00
497.09	2232.87
497.26	2186.06
497.44	2036.27
497.62	1968.39
497.79	2008.18
497.97	1933.28
498.14	1879.45
498.32	1804.55
498.50	1849.02
498.67	1788.17
498.85	1703.91
499.03	1750.72
499.20	1638.38
499.38	1598.59
499.56	1605.61
499.73	1577.52
499.91	1645.40
500.08	1593.90
500.26	1516.67
500.44	1404.32
500.61	1345.81
500.79	1226.44
500.97	1284.95
501.14	1263.89
501.32	1280.27
501.49	1219.42
501.67	1071.97
501.84	1153.88
502.02	1086.01
502.20	1165.59
502.37	1069.62
502.55	997.07
502.72	1050.90
502.90	997.07
503.07	908.13
503.25	966.64
503.43	898.77
503.60	884.72
503.78	877.70
503.95	856.64
504.13	816.85
504.30	800.46
504.48	795.78
504.65	912.81
504.83	807.48
505.01	727.91
505.18	788.76
505.36	711.52
505.53	716.20
505.71	706.84
505.88	664.71
506.06	683.44
506.23	697.48
506.41	660.03
506.58	706.84
506.76	648.33
506.93	653.01
507.11	613.22
507.28	610.88
507.46	603.86
507.63	617.90
507.81	643.65
507.98	559.39
508.16	559.39
508.33	643.65
508.50	561.73
508.68	629.60
508.85	739.61
509.03	713.86
509.20	613.22
509.38	603.86
509.55	634.29
509.73	657.69
509.90	638.97
510.08	540.66
510.25	486.83
510.42	550.03
510.60	641.31
510.77	571.09
510.95	543.00
511.12	491.51
511.30	564.07
511.47	545.34
511.64	601.52
511.82	645.99
511.99	482.15
512.17	578.11
512.34	566.41
512.51	526.62
512.69	585.13
512.86	543.00
513.04	543.00
513.21	585.13
513.38	491.51
513.56	571.09
513.73	596.84
513.90	472.79
514.08	444.70
514.25	538.32
514.43	475.13
514.60	447.04
514.77	538.32
514.95	458.74
515.12	465.77
515.29	393.21
515.47	475.13
515.64	507.90
515.81	489.17
515.99	454.06
516.16	496.19
516.33	601.52
516.51	531.30
516.68	435.34
516.85	475.13
517.03	451.72
517.20	444.70
517.37	496.19
517.54	496.19
517.72	498.53
517.89	440.02
518.06	425.98
518.24	388.53
518.41	482.15
518.58	500.87
518.75	404.91
518.93	477.47
519.10	451.72
519.27	411.93
519.45	423.64
519.62	449.38
519.79	442.36
519.96	386.19
520.14	430.66
520.31	454.06
520.48	374.49
520.65	472.79
520.83	463.43
521.00	444.70
521.17	423.64
521.34	407.25
521.52	496.19
521.69	348.74
521.86	372.15
522.03	468.11
522.20	442.36
522.38	395.55
522.55	395.55
522.72	404.91
522.89	505.56
523.07	395.55
523.24	393.21
523.41	461.09
523.58	449.38
523.75	395.55
523.92	390.87
524.10	414.27
524.27	416.62
524.44	475.13
524.61	374.49
524.78	416.62
524.96	475.13
525.13	456.40
525.30	510.24
525.47	503.22
525.64	566.41
525.81	510.24
525.98	477.47
526.16	421.30
526.33	388.53
526.50	428.32
526.67	491.51
526.84	472.79
527.01	554.71
527.18	631.94
527.36	641.31
527.53	727.91
527.70	594.50
527.87	601.52
528.04	631.94
528.21	594.50
528.38	692.80
528.55	575.77
528.72	596.84
528.89	517.26
529.07	566.41
529.24	634.29
529.41	660.03
529.58	697.48
529.75	521.94
529.92	627.26
530.09	624.92
530.26	734.93
530.43	662.37
530.60	634.29
530.77	660.03
530.94	697.48
531.11	786.42
531.28	760.67
531.46	753.65
531.63	828.55
531.80	891.74
531.97	901.11
532.14	1046.22
532.31	1334.11
532.48	1533.05
532.65	1748.38
532.82	2008.18
532.99	2413.09
533.16	2689.28
533.33	2963.12
533.50	2818.00
533.67	2207.13
533.84	1996.48
534.01	1799.87
534.18	1540.07
534.35	1582.20
534.52	1416.02
534.69	1654.76
534.86	1755.40
535.03	1717.95
535.20	1767.10
535.37	1930.94
535.54	2087.76
535.71	2078.40
535.88	2356.92
536.05	2410.75
536.22	2672.89
536.38	2663.53
536.55	3136.32
536.72	3414.84
536.89	3901.67
537.06	4224.67
537.23	4889.38
537.40	5188.97
537.57	5603.24
537.74	6195.40
537.91	6480.94
538.08	6553.50
538.25	6494.99
538.42	6595.63
538.59	6855.43
538.75	6899.90
538.92	7248.64
539.09	7871.22
539.26	8837.86
539.43	10019.83
539.60	11590.33
539.77	12833.16
539.94	14525.36
540.11	16067.78
540.28	17743.60
540.44	19168.99
540.61	21125.68
540.78	24091.13
540.95	29205.20
541.12	35346.77
541.29	40687.87
541.46	42604.77
541.62	42440.93
541.79	41116.19
541.96	37532.83
542.13	35000.37
542.30	32390.67
542.47	31047.21
542.63	29483.73
542.80	28484.32
542.97	28067.70
543.14	27688.54
543.31	27585.55
543.48	27662.79
543.64	28100.47
543.81	28334.53
543.98	28554.54
544.15	28589.64
544.32	28863.49
544.48	28760.50
544.65	28360.27
544.82	28510.07
544.99	27697.90
545.16	28709.01
545.32	29441.60
545.49	41757.50
545.66	61034.15
545.83	65535.00
546.00	65535.00
546.16	64212.60
546.33	48512.28
546.50	37556.24
546.67	29408.83
546.83	26015.05
547.00	25041.39
547.17	23522.38
547.34	22632.98
547.50	21858.26
547.67	21048.44
547.84	20226.91
548.00	19571.56
548.17	18434.06
548.34	17837.22
548.51	17308.26
548.67	16137.99
548.84	15688.61
549.01	14988.79
549.18	14118.11
549.34	13425.31
549.51	12987.63
549.68	12528.89
549.84	11826.73
550.01	11290.74
550.18	10827.32
550.34	10682.20
550.51	10033.88
550.68	9380.87
550.84	8945.53
551.01	8617.85
551.18	8119.32
551.34	7541.21
551.51	7091.82
551.68	7030.97
551.84	6853.09
552.01	6459.88
552.18	6160.29
552.34	5968.37
552.51	5659.42
552.68	5371.53
552.84	5355.15
553.01	5062.58
553.18	4851.93
553.34	4744.27
553.51	4547.66
553.67	4505.53
553.84	4379.14
554.01	4074.87
554.17	3791.67
554.34	3445.27
554.51	3141.00
554.67	3143.34
554.84	2860.13
555.00	2740.77
555.17	2647.15
555.33	2450.54
555.50	2427.14
555.67	2239.89
555.83	2183.72
556.00	2162.66
556.16	2286.70
556.33	1905.20
556.50	1905.20
556.66	1867.75
556.83	1811.57
556.99	1830.30
557.16	1685.19
557.32	1563.48
557.49	1565.82
557.65	1537.73
557.82	1551.78
557.98	1535.39
558.15	1460.49
558.32	1362.19
558.48	1334.11
558.65	1301.34
558.81	1306.02
558.98	1233.46
559.14	1235.80
559.31	1181.97
559.47	1174.95
559.64	1116.44
559.80	1188.99
559.97	1214.74
560.13	1160.91
560.30	1060.26
560.46	1095.37
560.63	1151.54
560.79	1100.05
560.96	1153.88
561.12	1078.99
561.29	1118.78
561.45	1041.54
561.61	1041.54
561.78	1135.16
561.94	1125.80
562.11	1057.92
562.27	1064.94
562.44	1083.67
562.60	1069.62
562.77	908.13
562.93	1083.67
563.10	1001.75
563.26	1053.24
563.42	1114.10
563.59	1004.09
563.75	985.37
563.92	966.64
564.08	894.08
564.24	912.81
564.41	912.81
564.57	856.64
564.74	919.83
564.90	908.13
565.07	882.38
565.23	833.23
565.39	791.10
565.56	837.91
565.72	812.17
565.88	781.74
566.05	833.23
566.21	800.46
566.38	828.55
566.54	744.29
566.70	858.98
566.87	755.99
567.03	844.93
567.19	842.59
567.36	842.59
567.52	924.51
567.68	819.19
567.85	856.64
568.01	851.96
568.17	901.11
568.34	931.53
568.50	873.02
568.66	924.51
568.83	844.93
568.99	805.14
569.15	723.23
569.32	788.76
569.48	800.46
569.64	692.80
569.81	781.74
569.97	662.37
570.13	650.67
570.30	624.92
570.46	641.31
570.62	606.20
570.78	629.60
570.95	615.56
571.11	585.13
571.27	636.63
571.43	571.09
571.60	599.18
571.76	641.31
571.92	543.00
572.09	650.67
572.25	613.22
572.41	660.03
572.57	683.44
572.74	695.14
572.90	653.01
573.06	660.03
573.22	636.63
573.38	662.37
573.55	683.44
573.71	645.99
573.87	734.93
574.03	627.26
574.20	622.58
574.36	760.67
574.52	772.38
574.68	786.42
574.84	800.46
575.01	905.79
575.17	858.98
575.33	889.40
575.49	1046.22
575.65	1160.91
575.82	1142.18
575.98	1277.93
576.14	1371.55
576.30	2537.14
576.46	7496.74
576.62	16159.06
576.79	24460.94
576.95	17076.55
577.11	9708.54
577.27	6633.08
577.43	4344.03
577.59	2771.19
577.75	2244.57
577.92	2001.16
578.08	1907.54
578.24	1914.56
578.40	2745.45
578.56	7096.50
578.72	14700.90
578.88	22705.54
579.04	16269.06
579.21	9504.92
579.37	6799.26
579.53	5207.69
579.69	4734.90
579.85	5748.36
580.01	7405.46
580.17	7370.35
580.33	6396.68
580.49	5350.46
580.65	4578.09
580.82	4102.96
580.98	3955.51
581.14	4035.08
581.30	4547.66
581.46	4535.96
581.62	5078.96
581.78	5296.63
581.94	5797.51
582.10	5853.68
582.26	6417.75
582.42	6782.87
582.58	6916.28
582.74	6995.86
582.90	7265.02
583.06	7213.53
583.22	7171.40
583.38	7232.26
583.54	7246.30
583.70	7108.21
583.86	7124.59
584.02	6796.92
584.18	6782.87
584.34	6855.43
584.50	6434.13
584.66	6569.88
584.82	6513.71
584.98	6197.74
585.14	6237.53
585.30	6150.93
585.46	5970.71
585.62	5851.34
585.78	5930.92
585.94	5746.02
586.10	6076.03
586.26	6317.11
586.42	7098.84
586.58	8285.50
586.74	10422.41
586.90	12507.82
587.06	14736.01
587.22	14675.16
587.38	13081.25
587.54	11136.27
587.70	9210.01
587.86	7531.84
588.02	6569.88
588.18	5830.27
588.34	5057.90
588.49	4847.25
588.65	4606.17
588.81	4210.62
588.97	4004.66
589.13	4030.40
589.29	3957.85
589.45	3803.37
589.61	3815.07
589.77	3815.07
589.93	4035.08
590.08	3985.93
590.24	4011.68
590.40	4318.29
590.56	4432.97
590.72	4575.75
590.88	4627.24
591.04	4678.73
591.20	5069.60
591.35	5198.33
591.51	5387.91
591.67	5596.22
591.83	5785.80
591.99	6513.71
592.15	7028.63
592.31	7822.07
592.46	8379.12
592.62	9046.17
592.78	9563.43
592.94	10162.61
593.10	10274.95
593.26	9657.05
593.41	8884.67
593.57	8018.68
593.73	7159.70
593.89	6413.07
594.05	5692.18
594.20	4926.83
594.36	4594.47
594.52	4222.33
594.68	3889.97
594.84	3815.07
594.99	3737.84
595.15	3534.21
595.31	3616.13
595.47	3405.48
595.62	3522.51
595.78	3447.61
595.94	3616.13
596.10	3447.61
596.25	3541.23
596.41	3478.04
596.57	3468.67
596.73	3468.67
596.88	3384.41
597.04	3353.99
597.20	3569.32
597.36	3552.93
597.51	3733.15
597.67	3782.31
597.83	3932.10
597.99	4252.75
598.14	4468.08
598.30	4784.06
598.46	4854.27
598.61	5277.91
598.77	5596.22
598.93	5811.55
599.09	5827.93
599.24	5996.45
599.40	6148.59
599.56	5998.79
599.71	5678.14
599.87	5320.04
600.03	4978.32
600.18	4678.73
600.34	4280.84
600.50	4205.94
600.65	3770.60
600.81	3625.49
600.97	3332.92
601.12	3288.45
601.28	3129.30
601.44	2991.20
601.59	2705.66
601.75	2621.40
601.91	2497.35
602.06	2356.92
602.22	2581.61
602.37	2300.75
602.53	2296.07
602.69	2263.30
602.84	2216.49
603.00	2097.12
603.16	2267.98
603.31	2312.45
603.47	2291.38
603.62	2457.56
603.78	2438.84
603.94	2436.50
604.09	2457.56
604.25	2644.81
