SpectraSuite Data File
++++++++++++++++++++++++++++++++++++
Date: Fri Oct 04 11:42:03 GMT-05:00 2013
User: price-jones
Dark Spectrum Present: No
Reference Spectrum Present: No
Number of Sampled Component Spectra: 1
Spectrometers: USB2+H05261
Integration Time (usec): 100000 (USB2+H05261)
Spectra Averaged: 1 (USB2+H05261)
Boxcar Smoothing: 0 (USB2+H05261)
Correct for Electrical Dark: No (USB2+H05261)
Strobe/Lamp Enabled: No (USB2+H05261)
Correct for Detector Non-linearity: No (USB2+H05261)
Correct for Stray Light: No (USB2+H05261)
Number of Pixels in Processed Spectrum: 2048
>>>>>Begin Processed Spectral Data<<<<<
365.73	37.45
365.92	37.45
366.12	37.45
366.32	0.00
366.52	0.00
366.72	11.70
366.91	0.00
367.11	0.00
367.31	0.00
367.51	0.00
367.70	0.00
367.90	0.00
368.10	0.00
368.30	0.00
368.49	0.00
368.69	0.00
368.89	0.00
369.09	0.00
369.28	0.00
369.48	0.00
369.68	0.00
369.87	0.00
370.07	0.00
370.27	0.00
370.47	2.34
370.66	72.56
370.86	67.88
371.06	184.90
371.25	91.28
371.45	44.47
371.65	128.73
371.84	44.47
372.04	112.35
372.24	114.69
372.44	140.43
372.63	135.75
372.83	175.54
373.03	105.32
373.22	110.01
373.42	58.51
373.62	65.54
373.81	173.20
374.01	114.69
374.21	189.58
374.40	88.94
374.60	128.73
374.79	131.07
374.99	107.66
375.19	67.88
375.38	126.39
375.58	168.52
375.78	147.45
375.97	84.26
376.17	156.82
376.37	53.83
376.56	100.64
376.76	119.37
376.95	114.69
377.15	138.09
377.35	159.16
377.54	203.63
377.74	117.03
377.93	105.32
378.13	184.90
378.33	175.54
378.52	163.84
378.72	166.18
378.91	194.26
379.11	131.07
379.31	159.16
379.50	177.88
379.70	205.97
379.89	175.54
380.09	173.20
380.28	119.37
380.48	161.50
380.68	161.50
380.87	128.73
381.07	177.88
381.26	184.90
381.46	170.86
381.65	166.18
381.85	152.13
382.04	30.43
382.24	105.32
382.43	212.99
382.63	152.13
382.83	114.69
383.02	124.05
383.22	175.54
383.41	114.69
383.61	131.07
383.80	37.45
384.00	156.82
384.19	168.52
384.39	173.20
384.58	105.32
384.78	154.48
384.97	100.64
385.17	114.69
385.36	140.43
385.56	154.48
385.75	107.66
385.95	126.39
386.14	124.05
386.34	79.58
386.53	138.09
386.72	175.54
386.92	184.90
387.11	93.62
387.31	154.48
387.50	56.17
387.70	117.03
387.89	131.07
388.09	107.66
388.28	84.26
388.48	126.39
388.67	156.82
388.86	107.66
389.06	88.94
389.25	168.52
389.45	107.66
389.64	177.88
389.84	184.90
390.03	149.79
390.22	205.97
390.42	170.86
390.61	163.84
390.81	117.03
391.00	142.77
391.19	166.18
391.39	117.03
391.58	74.90
391.78	67.88
391.97	105.32
392.16	107.66
392.36	117.03
392.55	133.41
392.75	91.28
392.94	187.24
393.13	145.11
393.33	135.75
393.52	91.28
393.71	163.84
393.91	170.86
394.10	93.62
394.29	140.43
394.49	175.54
394.68	124.05
394.88	180.22
395.07	100.64
395.26	91.28
395.46	142.77
395.65	166.18
395.84	138.09
396.04	208.31
396.23	194.26
396.42	98.30
396.62	212.99
396.81	86.60
397.00	74.90
397.19	126.39
397.39	121.71
397.58	131.07
397.77	100.64
397.97	107.66
398.16	145.11
398.35	189.58
398.55	95.96
398.74	140.43
398.93	224.69
399.12	191.92
399.32	180.22
399.51	128.73
399.70	133.41
399.90	180.22
400.09	166.18
400.28	168.52
400.47	140.43
400.67	126.39
400.86	234.05
401.05	175.54
401.24	163.84
401.44	117.03
401.63	177.88
401.82	227.03
402.01	156.82
402.21	154.48
402.40	168.52
402.59	194.26
402.78	208.31
402.97	163.84
403.17	271.50
403.36	355.76
403.55	320.65
403.74	648.33
403.93	2324.15
404.13	5846.66
404.32	9741.31
404.51	10118.14
404.70	6623.72
404.89	2434.16
405.09	671.73
405.28	311.29
405.47	257.46
405.66	203.63
405.85	208.31
406.05	248.10
406.24	173.20
406.43	184.90
406.62	266.82
406.81	283.20
407.00	407.25
407.20	683.44
407.39	1174.95
407.58	1523.69
407.77	1111.75
407.96	648.33
408.15	330.02
408.34	322.99
408.54	276.18
408.73	124.05
408.92	203.63
409.11	292.57
409.30	278.52
409.49	196.60
409.68	224.69
409.87	205.97
410.07	252.78
410.26	250.44
410.45	182.56
410.64	201.29
410.83	238.73
411.02	184.90
411.21	227.03
411.40	250.44
411.59	173.20
411.78	180.22
411.98	201.29
412.17	262.14
412.36	210.65
412.55	215.33
412.74	229.37
412.93	271.50
413.12	269.16
413.31	243.42
413.50	238.73
413.69	301.93
413.88	248.10
414.07	297.25
414.26	304.27
414.45	194.26
414.64	236.39
414.83	262.14
415.02	227.03
415.22	290.23
415.41	330.02
415.60	292.57
415.79	184.90
415.98	337.04
416.17	327.68
416.36	290.23
416.55	315.97
416.74	376.83
416.93	318.31
417.12	365.12
417.31	276.18
417.50	290.23
417.69	299.59
417.88	318.31
418.07	252.78
418.26	313.63
418.45	266.82
418.64	294.91
418.83	318.31
419.02	374.49
419.21	353.42
419.39	346.40
419.58	318.31
419.77	313.63
419.96	376.83
420.15	313.63
420.34	243.42
420.53	318.31
420.72	344.06
420.91	362.78
421.10	376.83
421.29	330.02
421.48	285.55
421.67	337.04
421.86	290.23
422.05	358.10
422.24	332.36
422.43	393.21
422.61	320.65
422.80	280.86
422.99	337.04
423.18	346.40
423.37	393.21
423.56	475.13
423.75	372.15
423.94	332.36
424.13	397.89
424.32	395.55
424.50	409.59
424.69	397.89
424.88	362.78
425.07	388.53
425.26	344.06
425.45	353.42
425.64	353.42
425.83	414.27
426.01	472.79
426.20	430.66
426.39	421.30
426.58	330.02
426.77	381.51
426.96	400.23
427.15	463.43
427.33	341.72
427.52	393.21
427.71	409.59
427.90	404.91
428.09	416.62
428.28	395.55
428.46	341.72
428.65	517.26
428.84	468.11
429.03	449.38
429.22	381.51
429.40	437.68
429.59	470.45
429.78	475.13
429.97	524.28
430.16	458.74
430.34	470.45
430.53	472.79
430.72	421.30
430.91	437.68
431.10	404.91
431.28	463.43
431.47	458.74
431.66	524.28
431.85	477.47
432.03	435.34
432.22	622.58
432.41	631.94
432.60	643.65
432.79	552.37
432.97	662.37
433.16	559.39
433.35	641.31
433.54	814.51
433.72	833.23
433.91	828.55
434.10	976.00
434.28	1107.07
434.47	1287.29
434.66	1437.09
434.85	1680.50
435.03	3878.27
435.22	13738.94
435.41	36065.31
435.59	49394.67
435.78	38216.27
435.97	16992.29
436.16	6216.46
436.34	2127.55
436.53	1273.25
436.72	952.60
436.90	748.97
437.09	739.61
437.28	702.16
437.46	578.11
437.65	610.88
437.84	557.05
438.02	589.82
438.21	648.33
438.40	592.16
438.58	664.71
438.77	622.58
438.96	653.01
439.14	589.82
439.33	671.73
439.52	580.45
439.70	636.63
439.89	636.63
440.08	547.69
440.26	624.92
440.45	557.05
440.63	571.09
440.82	580.45
441.01	653.01
441.19	580.45
441.38	587.47
441.57	592.16
441.75	585.13
441.94	664.71
442.12	634.29
442.31	559.39
442.50	653.01
442.68	589.82
442.87	599.18
443.05	505.56
443.24	603.86
443.43	648.33
443.61	645.99
443.80	697.48
443.98	622.58
444.17	465.77
444.35	613.22
444.54	641.31
444.73	580.45
444.91	603.86
445.10	596.84
445.28	552.37
445.47	510.24
445.65	547.69
445.84	557.05
446.02	517.26
446.21	456.40
446.39	603.86
446.58	638.97
446.77	510.24
446.95	566.41
447.14	578.11
447.32	578.11
447.51	531.30
447.69	535.98
447.88	568.75
448.06	606.20
448.25	631.94
448.43	596.84
448.62	592.16
448.80	561.73
448.99	610.88
449.17	594.50
449.36	582.79
449.54	596.84
449.73	550.03
449.91	552.37
450.10	557.05
450.28	580.45
450.46	568.75
450.65	603.86
450.83	571.09
451.02	531.30
451.20	603.86
451.39	580.45
451.57	566.41
451.76	540.66
451.94	587.47
452.13	596.84
452.31	582.79
452.49	531.30
452.68	564.07
452.86	554.71
453.05	575.77
453.23	608.54
453.42	594.50
453.60	566.41
453.78	580.45
453.97	510.24
454.15	622.58
454.34	524.28
454.52	575.77
454.70	589.82
454.89	543.00
455.07	613.22
455.26	524.28
455.44	636.63
455.62	573.43
455.81	552.37
455.99	519.60
456.17	643.65
456.36	557.05
456.54	566.41
456.73	454.06
456.91	585.13
457.09	585.13
457.28	620.24
457.46	557.05
457.64	568.75
457.83	554.71
458.01	524.28
458.19	603.86
458.38	531.30
458.56	631.94
458.74	479.81
458.93	568.75
459.11	535.98
459.29	592.16
459.48	613.22
459.66	557.05
459.84	624.92
460.03	622.58
460.21	578.11
460.39	505.56
460.57	582.79
460.76	561.73
460.94	561.73
461.12	571.09
461.31	599.18
461.49	571.09
461.67	533.64
461.85	472.79
462.04	496.19
462.22	1015.79
462.40	533.64
462.59	521.94
462.77	475.13
462.95	599.18
463.13	521.94
463.32	578.11
463.50	627.26
463.68	669.39
463.86	524.28
464.05	547.69
464.23	554.71
464.41	634.29
464.59	610.88
464.78	571.09
464.96	608.54
465.14	550.03
465.32	575.77
465.50	498.53
465.69	545.34
465.87	521.94
466.05	524.28
466.23	468.11
466.41	571.09
466.60	657.69
466.78	645.99
466.96	587.47
467.14	580.45
467.32	638.97
467.51	648.33
467.69	517.26
467.87	575.77
468.05	465.77
468.23	578.11
468.41	479.81
468.60	528.96
468.78	486.83
468.96	468.11
469.14	573.43
469.32	465.77
469.50	535.98
469.69	547.69
469.87	503.22
470.05	484.49
470.23	592.16
470.41	514.92
470.59	468.11
470.77	573.43
470.95	540.66
471.14	589.82
471.32	521.94
471.50	575.77
471.68	535.98
471.86	559.39
472.04	526.62
472.22	503.22
472.40	547.69
472.58	451.72
472.77	510.24
472.95	613.22
473.13	594.50
473.31	566.41
473.49	528.96
473.67	547.69
473.85	505.56
474.03	503.22
474.21	491.51
474.39	615.56
474.57	552.37
474.75	418.96
474.93	533.64
475.12	493.85
475.30	592.16
475.48	533.64
475.66	622.58
475.84	500.87
476.02	496.19
476.20	557.05
476.38	484.49
476.56	540.66
476.74	465.77
476.92	554.71
477.10	580.45
477.28	601.52
477.46	582.79
477.64	638.97
477.82	557.05
478.00	578.11
478.18	561.73
478.36	514.92
478.54	564.07
478.72	615.56
478.90	641.31
479.08	699.82
479.26	678.76
479.44	650.67
479.62	709.18
479.80	678.76
479.98	648.33
480.16	709.18
480.34	814.51
480.52	812.17
480.70	828.55
480.88	919.83
481.06	947.92
481.24	1020.47
481.41	1053.24
481.59	1057.92
481.77	1200.69
481.95	1128.14
482.13	1350.49
482.31	1366.87
482.49	1507.30
482.67	1526.03
482.85	1664.12
483.03	1757.74
483.21	1940.30
483.39	1912.22
483.57	2120.53
483.74	2279.68
483.92	2455.22
484.10	2551.18
484.28	2696.30
484.46	2881.20
484.64	2988.86
484.82	3016.95
485.00	3297.81
485.18	3548.25
485.35	3669.96
485.53	3700.39
485.71	4063.17
485.89	4152.11
486.07	4245.73
486.25	4461.06
486.43	4337.01
486.61	4447.02
486.78	4381.48
486.96	4390.84
487.14	4463.40
487.32	4283.18
487.50	4365.10
487.68	4290.20
487.85	4290.20
488.03	4219.99
488.21	4219.99
488.39	4074.87
488.57	3868.91
488.75	3866.56
488.92	4060.83
489.10	3728.47
489.28	3583.36
489.46	3510.80
489.64	3414.84
489.81	3396.12
489.99	3353.99
490.17	3337.60
490.35	3368.03
490.53	3407.82
490.70	3356.33
490.88	3201.85
491.06	3391.44
491.24	3789.33
491.41	3812.73
491.59	3637.19
491.77	3286.11
491.95	3180.79
492.13	3187.81
492.30	3096.53
492.48	2909.29
492.66	2953.76
492.84	2888.22
493.01	2871.84
493.19	2724.38
493.37	2822.69
493.54	2813.32
493.72	2675.23
493.90	2612.04
494.08	2504.37
494.25	2518.42
494.43	2492.67
494.61	2438.84
494.79	2340.54
494.96	2377.98
495.14	2476.29
495.32	2263.30
495.49	2214.15
495.67	2319.47
495.85	2202.44
496.02	2228.19
496.20	2317.13
496.38	2076.06
496.55	2106.48
496.73	2207.13
496.91	2047.97
497.09	2087.76
497.26	1970.73
497.44	1891.15
497.62	1874.77
497.79	1959.03
497.97	1966.05
498.14	1806.89
498.32	1776.47
498.50	1785.83
498.67	1715.61
498.85	1647.74
499.03	1607.95
499.20	1621.99
499.38	1565.82
499.56	1511.99
499.73	1453.47
499.91	1476.88
500.08	1416.02
500.26	1296.66
500.44	1334.11
500.61	1266.23
500.79	1217.08
500.97	1188.99
501.14	1191.33
501.32	1078.99
501.49	1114.10
501.67	1060.26
501.84	966.64
502.02	992.39
502.20	1025.15
502.37	980.68
502.55	910.47
502.72	1011.11
502.90	826.21
503.07	894.08
503.25	905.79
503.43	793.44
503.60	819.19
503.78	837.91
503.95	805.14
504.13	767.70
504.30	765.36
504.48	795.78
504.65	767.70
504.83	723.23
505.01	688.12
505.18	641.31
505.36	702.16
505.53	660.03
505.71	594.50
505.88	664.71
506.06	540.66
506.23	641.31
506.41	582.79
506.58	550.03
506.76	638.97
506.93	552.37
507.11	631.94
507.28	580.45
507.46	533.64
507.63	564.07
507.81	599.18
507.98	528.96
508.16	543.00
508.33	566.41
508.50	645.99
508.68	660.03
508.85	592.16
509.03	615.56
509.20	645.99
509.38	634.29
509.55	578.11
509.73	592.16
509.90	615.56
510.08	592.16
510.25	479.81
510.42	521.94
510.60	491.51
510.77	535.98
510.95	547.69
511.12	552.37
511.30	545.34
511.47	510.24
511.64	543.00
511.82	512.58
511.99	550.03
512.17	528.96
512.34	573.43
512.51	514.92
512.69	449.38
512.86	599.18
513.04	496.19
513.21	500.87
513.38	500.87
513.56	477.47
513.73	416.62
513.90	526.62
514.08	472.79
514.25	498.53
514.43	482.15
514.60	468.11
514.77	458.74
514.95	442.36
515.12	479.81
515.29	468.11
515.47	470.45
515.64	397.89
515.81	468.11
515.99	505.56
516.16	456.40
516.33	463.43
516.51	505.56
516.68	552.37
516.85	386.19
517.03	470.45
517.20	442.36
517.37	449.38
517.54	430.66
517.72	430.66
517.89	344.06
518.06	400.23
518.24	484.49
518.41	463.43
518.58	456.40
518.75	388.53
518.93	442.36
519.10	447.04
519.27	376.83
519.45	425.98
519.62	386.19
519.79	447.04
519.96	339.38
520.14	425.98
520.31	477.47
520.48	491.51
520.65	353.42
520.83	461.09
521.00	463.43
521.17	451.72
521.34	435.34
521.52	430.66
521.69	372.15
521.86	505.56
522.03	454.06
522.20	533.64
522.38	421.30
522.55	435.34
522.72	358.10
522.89	355.76
523.07	449.38
523.24	449.38
523.41	418.96
523.58	519.60
523.75	435.34
523.92	386.19
524.10	447.04
524.27	362.78
524.44	486.83
524.61	421.30
524.78	458.74
524.96	407.25
525.13	454.06
525.30	407.25
525.47	496.19
525.64	482.15
525.81	442.36
525.98	514.92
526.16	503.22
526.33	442.36
526.50	458.74
526.67	489.17
526.84	470.45
527.01	519.60
527.18	573.43
527.36	535.98
527.53	606.20
527.70	599.18
527.87	543.00
528.04	641.31
528.21	507.90
528.38	554.71
528.55	585.13
528.72	543.00
528.89	557.05
529.07	575.77
529.24	526.62
529.41	603.86
529.58	613.22
529.75	622.58
529.92	631.94
530.09	674.07
530.26	629.60
530.43	671.73
530.60	603.86
530.77	718.54
530.94	678.76
531.11	730.25
531.28	648.33
531.46	784.08
531.63	709.18
531.80	910.47
531.97	863.66
532.14	961.96
532.31	1170.27
532.48	1380.92
532.65	1582.20
532.82	1795.19
532.99	2169.68
533.16	2490.33
533.33	2665.87
533.50	2541.82
533.67	2104.14
533.84	1853.70
534.01	1586.88
534.18	1490.92
534.35	1409.00
534.52	1446.45
534.69	1507.30
534.86	1533.05
535.03	1600.93
535.20	1652.42
535.37	1870.09
535.54	1820.94
535.71	2026.90
535.88	2101.80
536.05	2172.02
536.22	2314.79
536.38	2607.36
536.55	2928.01
536.72	3246.32
536.89	3370.37
537.06	3946.14
537.23	4327.65
537.40	4739.58
537.57	5142.16
537.74	5474.51
537.91	5738.99
538.08	5638.35
538.25	5870.06
538.42	6122.84
538.59	6221.14
538.75	6363.92
538.92	6733.72
539.09	7332.90
539.26	7999.95
539.43	9006.38
539.60	10375.59
539.77	11609.06
539.94	13338.71
540.11	14759.42
540.28	15948.41
540.44	17390.18
540.61	19232.18
540.78	21685.06
540.95	26010.37
541.12	31419.35
541.29	36460.87
541.46	38831.83
541.62	38417.55
541.79	37111.53
541.96	34340.34
542.13	31754.05
542.30	29771.61
542.47	27758.75
542.63	26066.55
542.80	25785.68
542.97	24933.73
543.14	25214.59
543.31	25008.62
543.48	24833.08
543.64	25450.99
543.81	25373.75
543.98	25596.10
544.15	25671.00
544.32	26480.82
544.48	25720.15
544.65	25654.61
544.82	25102.25
544.99	25380.77
545.16	25895.69
545.32	27168.94
545.49	38852.89
545.66	59501.10
545.83	65535.00
546.00	65535.00
546.16	61696.52
546.33	44774.45
546.50	33853.51
546.67	26600.19
546.83	23548.13
547.00	22469.14
547.17	21392.50
547.34	20886.94
547.50	19700.29
547.67	18927.91
547.84	18178.94
548.00	17205.28
548.17	16863.56
548.34	16137.99
548.51	15716.70
548.67	14977.09
548.84	14092.37
549.01	13647.66
549.18	12622.51
549.34	12248.02
549.51	11737.79
549.68	11129.25
549.84	10691.57
550.01	10249.21
550.18	9844.29
550.34	9378.53
550.51	9060.21
550.68	8652.96
550.84	7953.14
551.01	7880.58
551.18	7267.36
551.34	6904.58
551.51	6663.51
551.68	6490.31
551.84	6169.65
552.01	5898.15
552.18	5701.54
552.34	5444.09
552.51	5184.29
552.68	4931.51
552.84	4704.48
553.01	4835.55
553.18	4493.83
553.34	4297.22
553.51	4301.90
553.67	3948.48
553.84	3981.25
554.01	3662.94
554.17	3407.82
554.34	3176.11
554.51	3056.74
554.67	2813.32
554.84	2696.30
555.00	2495.01
555.17	2354.58
555.33	2211.81
555.50	2209.47
555.67	2115.84
555.83	2017.54
556.00	1905.20
556.16	2059.67
556.33	1846.68
556.50	1748.38
556.66	1746.04
556.83	1631.35
556.99	1572.84
557.16	1591.56
557.32	1467.52
557.49	1533.05
557.65	1434.75
557.82	1406.66
557.98	1430.07
558.15	1263.89
558.32	1294.32
558.48	1270.91
558.65	1261.55
558.81	1277.93
558.98	1273.25
559.14	1210.06
559.31	1193.67
559.47	1095.37
559.64	1036.86
559.80	1128.14
559.97	1104.73
560.13	992.39
560.30	1027.50
560.46	1041.54
560.63	985.37
560.79	931.53
560.96	994.73
561.12	1041.54
561.29	966.64
561.45	1011.11
561.61	983.02
561.78	1064.94
561.94	999.41
562.11	957.28
562.27	990.05
562.44	1008.77
562.60	945.58
562.77	875.36
562.93	1062.60
563.10	931.53
563.26	1048.56
563.42	863.66
563.59	903.45
563.75	908.13
563.92	814.51
564.08	894.08
564.24	915.15
564.41	866.00
564.57	793.44
564.74	777.06
564.90	795.78
565.07	802.80
565.23	793.44
565.39	793.44
565.56	779.40
565.72	765.36
565.88	763.01
566.05	786.42
566.21	793.44
566.38	828.55
566.54	751.31
566.70	823.87
566.87	812.17
567.03	716.20
567.19	802.80
567.36	833.23
567.52	723.23
567.68	755.99
567.85	681.10
568.01	856.64
568.17	814.51
568.34	844.93
568.50	821.53
568.66	922.17
568.83	791.10
568.99	713.86
569.15	835.57
569.32	727.91
569.48	690.46
569.64	725.57
569.81	638.97
569.97	655.35
570.13	566.41
570.30	596.84
570.46	533.64
570.62	674.07
570.78	547.69
570.95	526.62
571.11	535.98
571.27	528.96
571.43	500.87
571.60	543.00
571.76	550.03
571.92	585.13
572.09	566.41
572.25	561.73
572.41	566.41
572.57	528.96
572.74	620.24
572.90	643.65
573.06	573.43
573.22	585.13
573.38	678.76
573.55	622.58
573.71	683.44
573.87	608.54
574.03	645.99
574.20	685.78
574.36	688.12
574.52	770.04
574.68	713.86
574.84	856.64
575.01	882.38
575.17	847.27
575.33	945.58
575.49	983.02
575.65	994.73
575.82	1090.69
575.98	1170.27
576.14	1313.04
576.30	2438.84
576.46	7648.87
576.62	14977.09
576.79	21570.38
576.95	14923.26
577.11	8901.06
577.27	6080.71
577.43	4028.06
577.59	2546.50
577.75	2087.76
577.92	1837.32
578.08	1755.40
578.24	1888.81
578.40	2579.27
578.56	6768.83
578.72	13982.36
578.88	19903.92
579.04	14520.68
579.21	8798.07
579.37	6162.63
579.53	4786.40
579.69	4374.46
579.85	5135.14
580.01	6682.23
580.17	6724.36
580.33	5614.95
580.49	4788.74
580.65	4093.60
580.82	3843.16
580.98	3562.30
581.14	3583.36
581.30	3815.07
581.46	4252.75
581.62	4538.30
581.78	4784.06
581.94	5104.71
582.10	5579.84
582.26	5678.14
582.42	5991.77
582.58	6169.65
582.74	6221.14
582.90	6331.15
583.06	6427.11
583.22	6469.24
583.38	6551.16
583.54	6555.84
583.70	6478.60
583.86	6305.40
584.02	6155.61
584.18	6132.20
584.34	6005.81
584.50	6026.88
584.66	5774.10
584.82	5823.25
584.98	5746.02
585.14	5568.13
585.30	5467.49
585.46	5518.98
585.62	5109.39
585.78	5427.70
585.94	5479.19
586.10	5455.79
586.26	5664.10
586.42	6277.32
586.58	7281.41
586.74	9191.28
586.90	11213.51
587.06	12926.78
587.22	13111.68
587.38	11742.47
587.54	10160.27
587.70	8259.75
587.86	7026.29
588.02	5954.32
588.18	5313.02
588.34	4833.21
588.49	4332.33
588.65	3843.16
588.81	3960.19
588.97	3662.94
589.13	3578.68
589.29	3705.07
589.45	3531.87
589.61	3456.97
589.77	3531.87
589.93	3569.32
590.08	3695.71
590.24	3817.41
590.40	3936.78
590.56	3976.57
590.72	4149.77
590.88	4231.69
591.04	4327.65
591.20	4517.23
591.35	4718.52
591.51	4894.06
591.67	5081.30
591.83	5444.09
591.99	5863.04
592.15	6448.18
592.31	7077.78
592.46	7566.95
592.62	8210.60
592.78	8971.27
592.94	9188.94
593.10	9102.34
593.26	8582.74
593.41	8112.30
593.57	7159.70
593.73	6420.09
593.89	5673.46
594.05	5081.30
594.20	4484.47
594.36	4126.36
594.52	3777.62
594.68	3379.73
594.84	3522.51
594.99	3501.44
595.15	3412.50
595.31	3173.77
595.47	3243.98
595.62	3173.77
595.78	3080.14
595.94	3166.74
596.10	3150.36
596.25	3115.25
596.41	3138.66
596.57	3185.47
596.73	3194.83
596.88	3094.19
597.04	3143.34
597.20	3159.72
597.36	3372.71
597.51	3290.79
597.67	3590.38
597.83	3772.94
597.99	3866.56
598.14	4053.81
598.30	4219.99
598.46	4393.19
598.61	4891.72
598.77	4961.94
598.93	5245.14
599.09	5331.74
599.24	5397.28
599.40	5282.59
599.56	5275.57
599.71	5177.26
599.87	4723.20
600.03	4470.42
600.18	4107.64
600.34	3950.82
600.50	3723.79
600.65	3400.80
600.81	3363.35
600.97	3112.91
601.12	2757.15
601.28	2700.98
601.44	2675.23
601.59	2553.52
601.75	2492.67
601.91	2328.83
602.06	2279.68
602.22	2317.13
602.37	2148.61
602.53	2005.84
602.69	2052.65
602.84	2003.50
603.00	2101.80
603.16	2033.93
603.31	2024.56
603.47	2207.13
603.62	2232.87
603.78	2209.47
603.94	2305.43
604.09	2342.88
604.25	2342.88
604.40	2417.77
604.56	2406.07
