SpectraSuite Data File
++++++++++++++++++++++++++++++++++++
Date: Fri Oct 04 11:41:45 GMT-05:00 2013
User: price-jones
Dark Spectrum Present: No
Reference Spectrum Present: No
Number of Sampled Component Spectra: 1
Spectrometers: USB2+H05261
Integration Time (usec): 100000 (USB2+H05261)
Spectra Averaged: 1 (USB2+H05261)
Boxcar Smoothing: 0 (USB2+H05261)
Correct for Electrical Dark: No (USB2+H05261)
Strobe/Lamp Enabled: No (USB2+H05261)
Correct for Detector Non-linearity: No (USB2+H05261)
Correct for Stray Light: No (USB2+H05261)
Number of Pixels in Processed Spectrum: 2048
>>>>>Begin Processed Spectral Data<<<<<
365.73	74.90
365.92	74.90
366.12	74.90
366.32	4.68
366.52	0.00
366.72	0.00
366.91	0.00
367.11	0.00
367.31	0.00
367.51	0.00
367.70	0.00
367.90	0.00
368.10	0.00
368.30	0.00
368.49	0.00
368.69	4.68
368.89	0.00
369.09	0.00
369.28	0.00
369.48	0.00
369.68	14.04
369.87	44.47
370.07	0.00
370.27	0.00
370.47	44.47
370.66	72.56
370.86	32.77
371.06	51.49
371.25	91.28
371.45	30.43
371.65	112.35
371.84	93.62
372.04	58.51
372.24	70.22
372.44	119.37
372.63	86.60
372.83	147.45
373.03	91.28
373.22	23.41
373.42	138.09
373.62	131.07
373.81	93.62
374.01	138.09
374.21	170.86
374.40	84.26
374.60	161.50
374.79	117.03
374.99	100.64
375.19	112.35
375.38	114.69
375.58	67.88
375.78	163.84
375.97	102.98
376.17	234.05
376.37	119.37
376.56	140.43
376.76	121.71
376.95	138.09
377.15	128.73
377.35	131.07
377.54	156.82
377.74	86.60
377.93	168.52
378.13	60.85
378.33	154.48
378.52	95.96
378.72	126.39
378.91	182.56
379.11	81.92
379.31	88.94
379.50	117.03
379.70	98.30
379.89	145.11
380.09	91.28
380.28	81.92
380.48	126.39
380.68	58.51
380.87	88.94
381.07	60.85
381.26	140.43
381.46	88.94
381.65	81.92
381.85	124.05
382.04	58.51
382.24	46.81
382.43	88.94
382.63	128.73
382.83	126.39
383.02	88.94
383.22	159.16
383.41	107.66
383.61	102.98
383.80	135.75
384.00	121.71
384.19	88.94
384.39	100.64
384.58	128.73
384.78	110.01
384.97	42.13
385.17	105.32
385.36	72.56
385.56	119.37
385.75	79.58
385.95	49.15
386.14	124.05
386.34	121.71
386.53	107.66
386.72	119.37
386.92	133.41
387.11	81.92
387.31	72.56
387.50	88.94
387.70	39.79
387.89	117.03
388.09	121.71
388.28	86.60
388.48	117.03
388.67	194.26
388.86	208.31
389.06	95.96
389.25	91.28
389.45	117.03
389.64	126.39
389.84	88.94
390.03	67.88
390.22	135.75
390.42	53.83
390.61	18.72
390.81	72.56
391.00	88.94
391.19	126.39
391.39	95.96
391.58	133.41
391.78	159.16
391.97	135.75
392.16	100.64
392.36	142.77
392.55	145.11
392.75	121.71
392.94	46.81
393.13	117.03
393.33	67.88
393.52	4.68
393.71	107.66
393.91	91.28
394.10	117.03
394.29	135.75
394.49	119.37
394.68	133.41
394.88	156.82
395.07	154.48
395.26	124.05
395.46	135.75
395.65	166.18
395.84	28.09
396.04	238.73
396.23	100.64
396.42	131.07
396.62	124.05
396.81	67.88
397.00	72.56
397.19	65.54
397.39	88.94
397.58	138.09
397.77	79.58
397.97	95.96
398.16	126.39
398.35	102.98
398.55	201.29
398.74	88.94
398.93	142.77
399.12	102.98
399.32	114.69
399.51	124.05
399.70	81.92
399.90	124.05
400.09	112.35
400.28	149.79
400.47	191.92
400.67	112.35
400.86	135.75
401.05	145.11
401.24	131.07
401.44	100.64
401.63	135.75
401.82	117.03
402.01	117.03
402.21	147.45
402.40	121.71
402.59	100.64
402.78	74.90
402.97	100.64
403.17	124.05
403.36	114.69
403.55	112.35
403.74	222.35
403.93	423.64
404.13	823.87
404.32	774.72
404.51	622.58
404.70	390.87
404.89	278.52
405.09	217.67
405.28	149.79
405.47	124.05
405.66	159.16
405.85	147.45
406.05	102.98
406.24	102.98
406.43	93.62
406.62	149.79
406.81	182.56
407.00	166.18
407.20	161.50
407.39	117.03
407.58	205.97
407.77	100.64
407.96	180.22
408.15	63.19
408.34	149.79
408.54	117.03
408.73	124.05
408.92	145.11
409.11	95.96
409.30	187.24
409.49	110.01
409.68	119.37
409.87	107.66
410.07	35.11
410.26	126.39
410.45	117.03
410.64	138.09
410.83	72.56
411.02	152.13
411.21	107.66
411.40	166.18
411.59	138.09
411.78	138.09
411.98	145.11
412.17	28.09
412.36	124.05
412.55	145.11
412.74	107.66
412.93	140.43
413.12	159.16
413.31	142.77
413.50	126.39
413.69	173.20
413.88	203.63
414.07	110.01
414.26	168.52
414.45	196.60
414.64	166.18
414.83	205.97
415.02	149.79
415.22	114.69
415.41	110.01
415.60	170.86
415.79	138.09
415.98	140.43
416.17	124.05
416.36	98.30
416.55	126.39
416.74	198.95
416.93	173.20
417.12	187.24
417.31	124.05
417.50	154.48
417.69	170.86
417.88	166.18
418.07	126.39
418.26	128.73
418.45	168.52
418.64	156.82
418.83	156.82
419.02	161.50
419.21	67.88
419.39	161.50
419.58	154.48
419.77	126.39
419.96	154.48
420.15	173.20
420.34	180.22
420.53	128.73
420.72	133.41
420.91	110.01
421.10	184.90
421.29	159.16
421.48	189.58
421.67	159.16
421.86	149.79
422.05	180.22
422.24	163.84
422.43	166.18
422.61	135.75
422.80	152.13
422.99	205.97
423.18	191.92
423.37	201.29
423.56	168.52
423.75	142.77
423.94	198.95
424.13	142.77
424.32	198.95
424.50	180.22
424.69	119.37
424.88	126.39
425.07	152.13
425.26	220.01
425.45	152.13
425.64	191.92
425.83	187.24
426.01	156.82
426.20	168.52
426.39	147.45
426.58	119.37
426.77	145.11
426.96	117.03
427.15	149.79
427.33	161.50
427.52	135.75
427.71	161.50
427.90	131.07
428.09	147.45
428.28	135.75
428.46	196.60
428.65	152.13
428.84	110.01
429.03	170.86
429.22	121.71
429.40	126.39
429.59	112.35
429.78	264.48
429.97	149.79
430.16	220.01
430.34	112.35
430.53	145.11
430.72	114.69
430.91	112.35
431.10	102.98
431.28	217.67
431.47	140.43
431.66	187.24
431.85	133.41
432.03	175.54
432.22	205.97
432.41	159.16
432.60	191.92
432.79	184.90
432.97	159.16
433.16	229.37
433.35	222.35
433.54	231.71
433.72	187.24
433.91	234.05
434.10	243.42
434.28	205.97
434.47	187.24
434.66	264.48
434.85	304.27
435.03	720.88
435.22	1989.46
435.41	2991.20
435.59	2754.81
435.78	1865.41
435.97	1015.79
436.16	451.72
436.34	248.10
436.53	156.82
436.72	220.01
436.90	243.42
437.09	191.92
437.28	131.07
437.46	220.01
437.65	180.22
437.84	224.69
438.02	152.13
438.21	166.18
438.40	205.97
438.58	184.90
438.77	198.95
438.96	220.01
439.14	215.33
439.33	297.25
439.52	208.31
439.70	208.31
439.89	212.99
440.08	198.95
440.26	163.84
440.45	224.69
440.63	224.69
440.82	203.63
441.01	121.71
441.19	191.92
441.38	203.63
441.57	152.13
441.75	196.60
441.94	269.16
442.12	182.56
442.31	203.63
442.50	227.03
442.68	194.26
442.87	161.50
443.05	149.79
443.24	224.69
443.43	138.09
443.61	217.67
443.80	210.65
443.98	210.65
444.17	175.54
444.35	215.33
444.54	168.52
444.73	210.65
444.91	145.11
445.10	126.39
445.28	175.54
445.47	255.12
445.65	269.16
445.84	189.58
446.02	124.05
446.21	189.58
446.39	180.22
446.58	95.96
446.77	170.86
446.95	91.28
447.14	182.56
447.32	208.31
447.51	135.75
447.69	168.52
447.88	147.45
448.06	222.35
448.25	156.82
448.43	194.26
448.62	138.09
448.80	147.45
448.99	177.88
449.17	147.45
449.36	110.01
449.54	163.84
449.73	170.86
449.91	222.35
450.10	177.88
450.28	231.71
450.46	231.71
450.65	189.58
450.83	222.35
451.02	184.90
451.20	236.39
451.39	138.09
451.57	196.60
451.76	147.45
451.94	135.75
452.13	184.90
452.31	147.45
452.49	170.86
452.68	210.65
452.86	149.79
453.05	224.69
453.23	208.31
453.42	224.69
453.60	177.88
453.78	180.22
453.97	161.50
454.15	222.35
454.34	159.16
454.52	194.26
454.70	217.67
454.89	173.20
455.07	182.56
455.26	138.09
455.44	177.88
455.62	236.39
455.81	175.54
455.99	222.35
456.17	220.01
456.36	166.18
456.54	182.56
456.73	166.18
456.91	203.63
457.09	156.82
457.28	269.16
457.46	224.69
457.64	231.71
457.83	180.22
458.01	210.65
458.19	191.92
458.38	182.56
458.56	166.18
458.74	159.16
458.93	156.82
459.11	102.98
459.29	250.44
459.48	175.54
459.66	182.56
459.84	269.16
460.03	318.31
460.21	191.92
460.39	161.50
460.57	110.01
460.76	220.01
460.94	227.03
461.12	271.50
461.31	231.71
461.49	147.45
461.67	180.22
461.85	196.60
462.04	175.54
462.22	334.70
462.40	196.60
462.59	215.33
462.77	236.39
462.95	126.39
463.13	203.63
463.32	149.79
463.50	173.20
463.68	201.29
463.86	184.90
464.05	126.39
464.23	170.86
464.41	201.29
464.59	210.65
464.78	177.88
464.96	166.18
465.14	205.97
465.32	208.31
465.50	210.65
465.69	201.29
465.87	147.45
466.05	238.73
466.23	177.88
466.41	224.69
466.60	212.99
466.78	184.90
466.96	194.26
467.14	208.31
467.32	208.31
467.51	255.12
467.69	248.10
467.87	210.65
468.05	203.63
468.23	208.31
468.41	161.50
468.60	210.65
468.78	245.76
468.96	299.59
469.14	210.65
469.32	180.22
469.50	227.03
469.69	163.84
469.87	135.75
470.05	170.86
470.23	173.20
470.41	133.41
470.59	147.45
470.77	205.97
470.95	149.79
471.14	196.60
471.32	236.39
471.50	224.69
471.68	184.90
471.86	175.54
472.04	229.37
472.22	189.58
472.40	163.84
472.58	215.33
472.77	128.73
472.95	196.60
473.13	276.18
473.31	231.71
473.49	163.84
473.67	161.50
473.85	238.73
474.03	220.01
474.21	255.12
474.39	187.24
474.57	173.20
474.75	229.37
474.93	121.71
475.12	107.66
475.30	203.63
475.48	191.92
475.66	238.73
475.84	224.69
476.02	234.05
476.20	222.35
476.38	184.90
476.56	285.55
476.74	262.14
476.92	126.39
477.10	222.35
477.28	245.76
477.46	149.79
477.64	252.78
477.82	152.13
478.00	222.35
478.18	191.92
478.36	222.35
478.54	156.82
478.72	159.16
478.90	248.10
479.08	201.29
479.26	222.35
479.44	285.55
479.62	184.90
479.80	201.29
479.98	175.54
480.16	205.97
480.34	203.63
480.52	189.58
480.70	222.35
480.88	163.84
481.06	259.80
481.24	191.92
481.41	269.16
481.59	266.82
481.77	236.39
481.95	262.14
482.13	306.61
482.31	339.38
482.49	220.01
482.67	325.33
482.85	245.76
483.03	255.12
483.21	304.27
483.39	252.78
483.57	257.46
483.74	367.46
483.92	290.23
484.10	330.02
484.28	334.70
484.46	404.91
484.64	358.10
484.82	304.27
485.00	400.23
485.18	425.98
485.35	374.49
485.53	388.53
485.71	512.58
485.89	421.30
486.07	418.96
486.25	477.47
486.43	374.49
486.61	400.23
486.78	374.49
486.96	449.38
487.14	404.91
487.32	468.11
487.50	395.55
487.68	500.87
487.85	402.57
488.03	500.87
488.21	393.21
488.39	463.43
488.57	372.15
488.75	435.34
488.92	671.73
489.10	416.62
489.28	505.56
489.46	322.99
489.64	320.65
489.81	334.70
489.99	435.34
490.17	372.15
490.35	468.11
490.53	411.93
490.70	365.12
490.88	425.98
491.06	407.25
491.24	468.11
491.41	421.30
491.59	379.17
491.77	330.02
491.95	362.78
492.13	425.98
492.30	374.49
492.48	367.46
492.66	353.42
492.84	353.42
493.01	348.74
493.19	416.62
493.37	369.80
493.54	320.65
493.72	376.83
493.90	393.21
494.08	287.89
494.25	313.63
494.43	400.23
494.61	339.38
494.79	397.89
494.96	294.91
495.14	430.66
495.32	294.91
495.49	388.53
495.67	360.44
495.85	294.91
496.02	222.35
496.20	299.59
496.38	330.02
496.55	334.70
496.73	299.59
496.91	234.05
497.09	388.53
497.26	353.42
497.44	301.93
497.62	320.65
497.79	294.91
497.97	351.08
498.14	360.44
498.32	337.04
498.50	292.57
498.67	322.99
498.85	322.99
499.03	238.73
499.20	271.50
499.38	301.93
499.56	341.72
499.73	383.85
499.91	369.80
500.08	334.70
500.26	257.46
500.44	330.02
500.61	287.89
500.79	287.89
500.97	273.84
501.14	292.57
501.32	236.39
501.49	308.95
501.67	241.08
501.84	252.78
502.02	198.95
502.20	315.97
502.37	245.76
502.55	257.46
502.72	311.29
502.90	212.99
503.07	243.42
503.25	250.44
503.43	224.69
503.60	262.14
503.78	283.20
503.95	227.03
504.13	222.35
504.30	278.52
504.48	346.40
504.65	266.82
504.83	257.46
505.01	203.63
505.18	283.20
505.36	266.82
505.53	238.73
505.71	189.58
505.88	255.12
506.06	248.10
506.23	344.06
506.41	222.35
506.58	236.39
506.76	262.14
506.93	259.80
507.11	243.42
507.28	257.46
507.46	311.29
507.63	217.67
507.81	294.91
507.98	264.48
508.16	231.71
508.33	271.50
508.50	271.50
508.68	205.97
508.85	334.70
509.03	210.65
509.20	177.88
509.38	306.61
509.55	259.80
509.73	271.50
509.90	308.95
510.08	191.92
510.25	255.12
510.42	278.52
510.60	147.45
510.77	215.33
510.95	285.55
511.12	252.78
511.30	227.03
511.47	285.55
511.64	304.27
511.82	252.78
511.99	273.84
512.17	220.01
512.34	259.80
512.51	187.24
512.69	280.86
512.86	304.27
513.04	238.73
513.21	245.76
513.38	313.63
513.56	234.05
513.73	220.01
513.90	252.78
514.08	217.67
514.25	234.05
514.43	224.69
514.60	252.78
514.77	259.80
514.95	294.91
515.12	245.76
515.29	229.37
515.47	273.84
515.64	287.89
515.81	243.42
515.99	196.60
516.16	238.73
516.33	212.99
516.51	257.46
516.68	271.50
516.85	269.16
517.03	152.13
517.20	224.69
517.37	276.18
517.54	259.80
517.72	210.65
517.89	208.31
518.06	191.92
518.24	294.91
518.41	339.38
518.58	306.61
518.75	222.35
518.93	243.42
519.10	236.39
519.27	182.56
519.45	287.89
519.62	236.39
519.79	325.33
519.96	259.80
520.14	241.08
520.31	231.71
520.48	210.65
520.65	241.08
520.83	191.92
521.00	236.39
521.17	280.86
521.34	252.78
521.52	222.35
521.69	250.44
521.86	297.25
522.03	292.57
522.20	332.36
522.38	217.67
522.55	215.33
522.72	208.31
522.89	255.12
523.07	252.78
523.24	229.37
523.41	205.97
523.58	266.82
523.75	250.44
523.92	205.97
524.10	278.52
524.27	243.42
524.44	250.44
524.61	283.20
524.78	271.50
524.96	322.99
525.13	210.65
525.30	264.48
525.47	322.99
525.64	220.01
525.81	297.25
525.98	271.50
526.16	353.42
526.33	304.27
526.50	280.86
526.67	259.80
526.84	248.10
527.01	248.10
527.18	278.52
527.36	236.39
527.53	205.97
527.70	170.86
527.87	271.50
528.04	376.83
528.21	245.76
528.38	360.44
528.55	252.78
528.72	285.55
528.89	278.52
529.07	304.27
529.24	318.31
529.41	266.82
529.58	283.20
529.75	212.99
529.92	276.18
530.09	273.84
530.26	273.84
530.43	245.76
530.60	187.24
530.77	318.31
530.94	259.80
531.11	325.33
531.28	292.57
531.46	304.27
531.63	292.57
531.80	257.46
531.97	273.84
532.14	318.31
532.31	332.36
532.48	369.80
532.65	334.70
532.82	334.70
532.99	292.57
533.16	421.30
533.33	339.38
533.50	388.53
533.67	341.72
533.84	327.68
534.01	322.99
534.18	325.33
534.35	327.68
534.52	358.10
534.69	386.19
534.86	313.63
535.03	353.42
535.20	325.33
535.37	355.76
535.54	358.10
535.71	299.59
535.88	369.80
536.05	388.53
536.22	404.91
536.38	369.80
536.55	411.93
536.72	360.44
536.89	390.87
537.06	461.09
537.23	472.79
537.40	505.56
537.57	552.37
537.74	526.62
537.91	554.71
538.08	571.09
538.25	517.26
538.42	552.37
538.59	648.33
538.75	599.18
538.92	638.97
539.09	596.84
539.26	695.14
539.43	720.88
539.60	816.85
539.77	882.38
539.94	908.13
540.11	1011.11
540.28	1128.14
540.44	1142.18
540.61	1200.69
540.78	1362.19
540.95	1657.10
541.12	1825.62
541.29	1975.41
541.46	2001.16
541.62	2092.44
541.79	2047.97
541.96	2097.12
542.13	1853.70
542.30	1797.53
542.47	1734.34
542.63	1650.08
542.80	1614.97
542.97	1675.82
543.14	1652.42
543.31	1563.48
543.48	1696.89
543.64	1696.89
543.81	1701.57
543.98	1647.74
544.15	1638.38
544.32	1659.44
544.48	1685.19
544.65	1582.20
544.82	1558.80
544.99	1582.20
545.16	1626.67
545.32	1696.89
545.49	3110.57
545.66	4542.98
545.83	5284.93
546.00	4440.00
546.16	3150.36
546.33	2216.49
546.50	1785.83
546.67	1558.80
546.83	1345.81
547.00	1315.38
547.17	1149.20
547.34	1174.95
547.50	1128.14
547.67	1193.67
547.84	1128.14
548.00	1036.86
548.17	1029.84
548.34	1039.20
548.51	1050.90
548.67	1036.86
548.84	980.68
549.01	861.32
549.18	894.08
549.34	978.34
549.51	889.40
549.68	798.12
549.84	784.08
550.01	777.06
550.18	807.48
550.34	765.36
550.51	709.18
550.68	744.29
550.84	636.63
551.01	592.16
551.18	667.05
551.34	606.20
551.51	631.94
551.68	671.73
551.84	533.64
552.01	540.66
552.18	543.00
552.34	587.47
552.51	517.26
552.68	552.37
552.84	512.58
553.01	486.83
553.18	503.22
553.34	491.51
553.51	442.36
553.67	470.45
553.84	521.94
554.01	440.02
554.17	463.43
554.34	425.98
554.51	393.21
554.67	430.66
554.84	353.42
555.00	447.04
555.17	330.02
555.33	344.06
555.50	376.83
555.67	365.12
555.83	320.65
556.00	332.36
556.16	454.06
556.33	348.74
556.50	365.12
556.66	252.78
556.83	308.95
556.99	306.61
557.16	362.78
557.32	287.89
557.49	320.65
557.65	259.80
557.82	285.55
557.98	266.82
558.15	353.42
558.32	372.15
558.48	327.68
558.65	269.16
558.81	250.44
558.98	234.05
559.14	276.18
559.31	306.61
559.47	257.46
559.64	241.08
559.80	273.84
559.97	259.80
560.13	332.36
560.30	196.60
560.46	315.97
560.63	346.40
560.79	264.48
560.96	229.37
561.12	220.01
561.29	341.72
561.45	259.80
561.61	327.68
561.78	447.04
561.94	290.23
562.11	250.44
562.27	311.29
562.44	220.01
562.60	220.01
562.77	234.05
562.93	334.70
563.10	262.14
563.26	203.63
563.42	266.82
563.59	191.92
563.75	170.86
563.92	355.76
564.08	234.05
564.24	334.70
564.41	308.95
564.57	196.60
564.74	259.80
564.90	220.01
565.07	320.65
565.23	290.23
565.39	325.33
565.56	227.03
565.72	252.78
565.88	315.97
566.05	259.80
566.21	236.39
566.38	250.44
566.54	273.84
566.70	203.63
566.87	217.67
567.03	215.33
567.19	241.08
567.36	337.04
567.52	222.35
567.68	278.52
567.85	313.63
568.01	241.08
568.17	241.08
568.34	290.23
568.50	285.55
568.66	299.59
568.83	325.33
568.99	140.43
569.15	318.31
569.32	280.86
569.48	262.14
569.64	234.05
569.81	308.95
569.97	184.90
570.13	238.73
570.30	248.10
570.46	238.73
570.62	184.90
570.78	222.35
570.95	231.71
571.11	320.65
571.27	271.50
571.43	194.26
571.60	252.78
571.76	220.01
571.92	238.73
572.09	273.84
572.25	278.52
572.41	264.48
572.57	203.63
572.74	351.08
572.90	269.16
573.06	259.80
573.22	241.08
573.38	252.78
573.55	243.42
573.71	283.20
573.87	332.36
574.03	173.20
574.20	245.76
574.36	257.46
574.52	283.20
574.68	243.42
574.84	234.05
575.01	187.24
575.17	259.80
575.33	257.46
575.49	259.80
575.65	243.42
575.82	299.59
575.98	346.40
576.14	229.37
576.30	395.55
576.46	826.21
576.62	1104.73
576.79	1069.62
576.95	814.51
577.11	566.41
577.27	456.40
577.43	477.47
577.59	360.44
577.75	339.38
577.92	386.19
578.08	341.72
578.24	334.70
578.40	458.74
578.56	854.30
578.72	952.60
578.88	933.87
579.04	809.83
579.21	653.01
579.37	507.90
579.53	472.79
579.69	552.37
579.85	531.30
580.01	514.92
580.17	447.04
580.33	540.66
580.49	425.98
580.65	447.04
580.82	444.70
580.98	496.19
581.14	435.34
581.30	524.28
581.46	568.75
581.62	498.53
581.78	482.15
581.94	575.77
582.10	533.64
582.26	547.69
582.42	512.58
582.58	543.00
582.74	601.52
582.90	496.19
583.06	596.84
583.22	613.22
583.38	603.86
583.54	571.09
583.70	603.86
583.86	561.73
584.02	519.60
584.18	521.94
584.34	638.97
584.50	510.24
584.66	484.49
584.82	470.45
584.98	528.96
585.14	482.15
585.30	484.49
585.46	491.51
585.62	507.90
585.78	449.38
585.94	517.26
586.10	533.64
586.26	540.66
586.42	580.45
586.58	571.09
586.74	704.50
586.90	751.31
587.06	896.43
587.22	765.36
587.38	725.57
587.54	664.71
587.70	674.07
587.86	573.43
588.02	482.15
588.18	447.04
588.34	505.56
588.49	461.09
588.65	425.98
588.81	400.23
588.97	388.53
589.13	463.43
589.29	379.17
589.45	514.92
589.61	402.57
589.77	372.15
589.93	367.46
590.08	430.66
590.24	346.40
590.40	353.42
590.56	416.62
590.72	374.49
590.88	458.74
591.04	381.51
591.20	428.32
591.35	491.51
591.51	395.55
591.67	421.30
591.83	440.02
591.99	454.06
592.15	505.56
592.31	613.22
592.46	550.03
592.62	664.71
592.78	622.58
592.94	662.37
593.10	617.90
593.26	521.94
593.41	566.41
593.57	571.09
593.73	454.06
593.89	482.15
594.05	409.59
594.20	428.32
594.36	451.72
594.52	414.27
594.68	344.06
594.84	308.95
594.99	395.55
595.15	369.80
595.31	355.76
595.47	444.70
595.62	315.97
595.78	393.21
595.94	409.59
596.10	353.42
596.25	372.15
596.41	344.06
596.57	383.85
596.73	362.78
596.88	327.68
597.04	285.55
597.20	390.87
597.36	407.25
597.51	332.36
597.67	334.70
597.83	339.38
597.99	435.34
598.14	404.91
598.30	430.66
598.46	367.46
598.61	379.17
598.77	493.85
598.93	484.49
599.09	524.28
599.24	475.13
599.40	531.30
599.56	470.45
599.71	451.72
599.87	430.66
600.03	423.64
600.18	409.59
600.34	315.97
600.50	367.46
600.65	332.36
600.81	344.06
600.97	311.29
601.12	341.72
601.28	367.46
601.44	362.78
601.59	299.59
601.75	311.29
601.91	367.46
602.06	341.72
602.22	395.55
602.37	348.74
602.53	334.70
602.69	325.33
602.84	220.01
603.00	287.89
603.16	360.44
603.31	318.31
603.47	285.55
603.62	248.10
603.78	330.02
603.94	320.65
604.09	245.76
604.25	313.63
604.40	344.06
604.56	297.25
604.71	367.46
604.87	252.78
605.03	301.93
605.18	337.04
605.34	334.70
605.49	346.40
605.65	339.38
605.80	266.82
605.96	283.20
606.12	351.08
606.27	318.31
606.43	327.68
606.58	416.62
606.74	425.98
606.89	393.21
607.05	379.17
607.20	344.06
607.36	393.21
607.51	409.59
607.67	327.68
607.82	355.76
607.98	510.24
608.13	552.37
608.29	491.51
608.44	552.37
608.60	573.43
608.75	613.22
608.91	741.95
609.06	751.31
609.22	744.29
609.37	788.76
609.53	863.66
609.68	1013.45
609.84	1165.59
609.99	1238.14
610.15	1406.66
610.30	1647.74
610.46	2054.99
610.61	2586.29
610.76	3241.64
