SpectraSuite Data File
++++++++++++++++++++++++++++++++++++
Date: Fri Oct 04 11:42:12 GMT-05:00 2013
User: price-jones
Dark Spectrum Present: No
Reference Spectrum Present: No
Number of Sampled Component Spectra: 1
Spectrometers: USB2+H05261
Integration Time (usec): 100000 (USB2+H05261)
Spectra Averaged: 1 (USB2+H05261)
Boxcar Smoothing: 0 (USB2+H05261)
Correct for Electrical Dark: No (USB2+H05261)
Strobe/Lamp Enabled: No (USB2+H05261)
Correct for Detector Non-linearity: No (USB2+H05261)
Correct for Stray Light: No (USB2+H05261)
Number of Pixels in Processed Spectrum: 2048
>>>>>Begin Processed Spectral Data<<<<<
365.73	35.11
365.92	35.11
366.12	35.11
366.32	0.00
366.52	0.00
366.72	0.00
366.91	0.00
367.11	0.00
367.31	0.00
367.51	0.00
367.70	0.00
367.90	0.00
368.10	0.00
368.30	0.00
368.49	0.00
368.69	39.79
368.89	0.00
369.09	0.00
369.28	0.00
369.48	0.00
369.68	0.00
369.87	0.00
370.07	0.00
370.27	16.38
370.47	11.70
370.66	0.00
370.86	56.17
371.06	49.15
371.25	70.22
371.45	86.60
371.65	74.90
371.84	0.00
372.04	0.00
372.24	81.92
372.44	60.85
372.63	91.28
372.83	198.95
373.03	74.90
373.22	114.69
373.42	81.92
373.62	117.03
373.81	149.79
374.01	217.67
374.21	189.58
374.40	131.07
374.60	117.03
374.79	121.71
374.99	191.92
375.19	77.24
375.38	159.16
375.58	81.92
375.78	175.54
375.97	159.16
376.17	117.03
376.37	135.75
376.56	56.17
376.76	131.07
376.95	79.58
377.15	131.07
377.35	133.41
377.54	51.49
377.74	100.64
377.93	86.60
378.13	121.71
378.33	79.58
378.52	98.30
378.72	133.41
378.91	67.88
379.11	128.73
379.31	124.05
379.50	100.64
379.70	142.77
379.89	152.13
380.09	140.43
380.28	124.05
380.48	117.03
380.68	107.66
380.87	56.17
381.07	74.90
381.26	145.11
381.46	142.77
381.65	91.28
381.85	72.56
382.04	86.60
382.24	138.09
382.43	81.92
382.63	114.69
382.83	102.98
383.02	72.56
383.22	168.52
383.41	140.43
383.61	32.77
383.80	67.88
384.00	16.38
384.19	79.58
384.39	84.26
384.58	154.48
384.78	124.05
384.97	98.30
385.17	110.01
385.36	140.43
385.56	131.07
385.75	100.64
385.95	79.58
386.14	117.03
386.34	77.24
386.53	149.79
386.72	93.62
386.92	135.75
387.11	133.41
387.31	88.94
387.50	114.69
387.70	121.71
387.89	81.92
388.09	74.90
388.28	60.85
388.48	128.73
388.67	102.98
388.86	105.32
389.06	91.28
389.25	107.66
389.45	119.37
389.64	114.69
389.84	135.75
390.03	138.09
390.22	63.19
390.42	72.56
390.61	60.85
390.81	65.54
391.00	138.09
391.19	203.63
391.39	131.07
391.58	81.92
391.78	58.51
391.97	95.96
392.16	131.07
392.36	142.77
392.55	79.58
392.75	119.37
392.94	32.77
393.13	70.22
393.33	128.73
393.52	77.24
393.71	110.01
393.91	86.60
394.10	117.03
394.29	60.85
394.49	133.41
394.68	152.13
394.88	135.75
395.07	182.56
395.26	161.50
395.46	93.62
395.65	117.03
395.84	138.09
396.04	124.05
396.23	138.09
396.42	63.19
396.62	72.56
396.81	117.03
397.00	140.43
397.19	119.37
397.39	84.26
397.58	145.11
397.77	102.98
397.97	128.73
398.16	72.56
398.35	133.41
398.55	107.66
398.74	154.48
398.93	112.35
399.12	93.62
399.32	140.43
399.51	175.54
399.70	93.62
399.90	63.19
400.09	44.47
400.28	142.77
400.47	58.51
400.67	154.48
400.86	91.28
401.05	112.35
401.24	124.05
401.44	95.96
401.63	147.45
401.82	152.13
402.01	95.96
402.21	154.48
402.40	135.75
402.59	107.66
402.78	117.03
402.97	100.64
403.17	105.32
403.36	105.32
403.55	184.90
403.74	161.50
403.93	227.03
404.13	341.72
404.32	437.68
404.51	304.27
404.70	248.10
404.89	182.56
405.09	163.84
405.28	105.32
405.47	93.62
405.66	110.01
405.85	135.75
406.05	175.54
406.24	91.28
406.43	128.73
406.62	170.86
406.81	131.07
407.00	128.73
407.20	140.43
407.39	114.69
407.58	124.05
407.77	168.52
407.96	105.32
408.15	102.98
408.34	51.49
408.54	114.69
408.73	154.48
408.92	135.75
409.11	135.75
409.30	173.20
409.49	117.03
409.68	156.82
409.87	191.92
410.07	84.26
410.26	117.03
410.45	95.96
410.64	77.24
410.83	0.00
411.02	110.01
411.21	173.20
411.40	133.41
411.59	180.22
411.78	58.51
411.98	142.77
412.17	51.49
412.36	100.64
412.55	110.01
412.74	102.98
412.93	180.22
413.12	77.24
413.31	140.43
413.50	175.54
413.69	131.07
413.88	121.71
414.07	187.24
414.26	117.03
414.45	74.90
414.64	201.29
414.83	175.54
415.02	159.16
415.22	229.37
415.41	105.32
415.60	128.73
415.79	163.84
415.98	173.20
416.17	147.45
416.36	128.73
416.55	184.90
416.74	159.16
416.93	98.30
417.12	105.32
417.31	84.26
417.50	124.05
417.69	163.84
417.88	159.16
418.07	74.90
418.26	163.84
418.45	110.01
418.64	126.39
418.83	154.48
419.02	88.94
419.21	72.56
419.39	152.13
419.58	65.54
419.77	114.69
419.96	119.37
420.15	168.52
420.34	128.73
420.53	175.54
420.72	201.29
420.91	102.98
421.10	198.95
421.29	149.79
421.48	159.16
421.67	126.39
421.86	98.30
422.05	72.56
422.24	112.35
422.43	140.43
422.61	163.84
422.80	159.16
422.99	245.76
423.18	149.79
423.37	140.43
423.56	182.56
423.75	126.39
423.94	60.85
424.13	81.92
424.32	159.16
424.50	145.11
424.69	53.83
424.88	140.43
425.07	133.41
425.26	140.43
425.45	154.48
425.64	77.24
425.83	163.84
426.01	93.62
426.20	112.35
426.39	128.73
426.58	86.60
426.77	79.58
426.96	110.01
427.15	100.64
427.33	74.90
427.52	117.03
427.71	175.54
427.90	93.62
428.09	100.64
428.28	133.41
428.46	196.60
428.65	105.32
428.84	138.09
429.03	217.67
429.22	145.11
429.40	142.77
429.59	189.58
429.78	203.63
429.97	112.35
430.16	217.67
430.34	126.39
430.53	74.90
430.72	65.54
430.91	161.50
431.10	93.62
431.28	255.12
431.47	133.41
431.66	191.92
431.85	18.72
432.03	105.32
432.22	187.24
432.41	65.54
432.60	163.84
432.79	131.07
432.97	180.22
433.16	133.41
433.35	191.92
433.54	194.26
433.72	266.82
433.91	191.92
434.10	163.84
434.28	196.60
434.47	222.35
434.66	212.99
434.85	278.52
435.03	367.46
435.22	943.24
435.41	1495.60
435.59	1476.88
435.78	1067.28
435.97	634.29
436.16	341.72
436.34	210.65
436.53	266.82
436.72	201.29
436.90	161.50
437.09	224.69
437.28	201.29
437.46	138.09
437.65	180.22
437.84	149.79
438.02	88.94
438.21	121.71
438.40	107.66
438.58	119.37
438.77	241.08
438.96	187.24
439.14	159.16
439.33	198.95
439.52	159.16
439.70	180.22
439.89	140.43
440.08	138.09
440.26	170.86
440.45	187.24
440.63	138.09
440.82	119.37
441.01	107.66
441.19	208.31
441.38	191.92
441.57	215.33
441.75	184.90
441.94	227.03
442.12	142.77
442.31	201.29
442.50	196.60
442.68	133.41
442.87	177.88
443.05	154.48
443.24	156.82
443.43	238.73
443.61	203.63
443.80	105.32
443.98	112.35
444.17	177.88
444.35	189.58
444.54	128.73
444.73	117.03
444.91	180.22
445.10	114.69
445.28	191.92
445.47	182.56
445.65	191.92
445.84	203.63
446.02	102.98
446.21	168.52
446.39	180.22
446.58	215.33
446.77	205.97
446.95	191.92
447.14	208.31
447.32	180.22
447.51	156.82
447.69	98.30
447.88	147.45
448.06	180.22
448.25	152.13
448.43	180.22
448.62	159.16
448.80	154.48
448.99	168.52
449.17	198.95
449.36	238.73
449.54	248.10
449.73	205.97
449.91	121.71
450.10	117.03
450.28	210.65
450.46	180.22
450.65	196.60
450.83	156.82
451.02	191.92
451.20	182.56
451.39	203.63
451.57	224.69
451.76	147.45
451.94	117.03
452.13	149.79
452.31	91.28
452.49	168.52
452.68	234.05
452.86	175.54
453.05	203.63
453.23	138.09
453.42	58.51
453.60	173.20
453.78	222.35
453.97	196.60
454.15	212.99
454.34	175.54
454.52	170.86
454.70	170.86
454.89	168.52
455.07	140.43
455.26	156.82
455.44	154.48
455.62	67.88
455.81	210.65
455.99	208.31
456.17	245.76
456.36	208.31
456.54	154.48
456.73	135.75
456.91	121.71
457.09	175.54
457.28	163.84
457.46	110.01
457.64	131.07
457.83	168.52
458.01	135.75
458.19	168.52
458.38	121.71
458.56	110.01
458.74	138.09
458.93	194.26
459.11	159.16
459.29	222.35
459.48	131.07
459.66	210.65
459.84	198.95
460.03	215.33
460.21	224.69
460.39	149.79
460.57	180.22
460.76	152.13
460.94	163.84
461.12	229.37
461.31	222.35
461.49	135.75
461.67	173.20
461.85	212.99
462.04	149.79
462.22	287.89
462.40	145.11
462.59	173.20
462.77	133.41
462.95	119.37
463.13	138.09
463.32	145.11
463.50	224.69
463.68	114.69
463.86	149.79
464.05	180.22
464.23	236.39
464.41	189.58
464.59	154.48
464.78	147.45
464.96	110.01
465.14	133.41
465.32	145.11
465.50	152.13
465.69	198.95
465.87	110.01
466.05	191.92
466.23	93.62
466.41	159.16
466.60	159.16
466.78	217.67
466.96	266.82
467.14	166.18
467.32	224.69
467.51	191.92
467.69	121.71
467.87	224.69
468.05	210.65
468.23	234.05
468.41	189.58
468.60	107.66
468.78	170.86
468.96	212.99
469.14	173.20
469.32	168.52
469.50	191.92
469.69	142.77
469.87	208.31
470.05	138.09
470.23	147.45
470.41	145.11
470.59	152.13
470.77	166.18
470.95	117.03
471.14	133.41
471.32	194.26
471.50	154.48
471.68	133.41
471.86	222.35
472.04	182.56
472.22	102.98
472.40	184.90
472.58	182.56
472.77	245.76
472.95	227.03
473.13	126.39
473.31	234.05
473.49	154.48
473.67	175.54
473.85	194.26
474.03	168.52
474.21	205.97
474.39	262.14
474.57	182.56
474.75	198.95
474.93	203.63
475.12	168.52
475.30	201.29
475.48	196.60
475.66	149.79
475.84	142.77
476.02	168.52
476.20	201.29
476.38	110.01
476.56	212.99
476.74	140.43
476.92	147.45
477.10	140.43
477.28	152.13
477.46	133.41
477.64	252.78
477.82	191.92
478.00	205.97
478.18	191.92
478.36	161.50
478.54	147.45
478.72	224.69
478.90	175.54
479.08	173.20
479.26	198.95
479.44	194.26
479.62	173.20
479.80	142.77
479.98	124.05
480.16	217.67
480.34	243.42
480.52	177.88
480.70	163.84
480.88	201.29
481.06	196.60
481.24	222.35
481.41	287.89
481.59	241.08
481.77	182.56
481.95	159.16
482.13	194.26
482.31	208.31
482.49	243.42
482.67	236.39
482.85	304.27
483.03	299.59
483.21	257.46
483.39	290.23
483.57	234.05
483.74	243.42
483.92	280.86
484.10	212.99
484.28	257.46
484.46	276.18
484.64	285.55
484.82	334.70
485.00	259.80
485.18	294.91
485.35	362.78
485.53	292.57
485.71	386.19
485.89	257.46
486.07	252.78
486.25	402.57
486.43	388.53
486.61	339.38
486.78	440.02
486.96	372.15
487.14	355.76
487.32	367.46
487.50	355.76
487.68	362.78
487.85	362.78
488.03	351.08
488.21	379.17
488.39	411.93
488.57	386.19
488.75	374.49
488.92	601.52
489.10	358.10
489.28	348.74
489.46	348.74
489.64	372.15
489.81	381.51
489.99	344.06
490.17	386.19
490.35	414.27
490.53	348.74
490.70	243.42
490.88	276.18
491.06	353.42
491.24	334.70
491.41	292.57
491.59	416.62
491.77	320.65
491.95	372.15
492.13	334.70
492.30	341.72
492.48	383.85
492.66	362.78
492.84	301.93
493.01	304.27
493.19	360.44
493.37	372.15
493.54	339.38
493.72	337.04
493.90	276.18
494.08	304.27
494.25	339.38
494.43	372.15
494.61	346.40
494.79	374.49
494.96	264.48
495.14	339.38
495.32	227.03
495.49	273.84
495.67	313.63
495.85	271.50
496.02	262.14
496.20	320.65
496.38	301.93
496.55	224.69
496.73	292.57
496.91	234.05
497.09	283.20
497.26	372.15
497.44	322.99
497.62	215.33
497.79	259.80
497.97	280.86
498.14	287.89
498.32	273.84
498.50	330.02
498.67	297.25
498.85	252.78
499.03	238.73
499.20	241.08
499.38	236.39
499.56	248.10
499.73	271.50
499.91	299.59
500.08	227.03
500.26	299.59
500.44	194.26
500.61	222.35
500.79	252.78
500.97	250.44
501.14	259.80
501.32	259.80
501.49	306.61
501.67	269.16
501.84	231.71
502.02	243.42
502.20	220.01
502.37	236.39
502.55	248.10
502.72	283.20
502.90	198.95
503.07	220.01
503.25	250.44
503.43	299.59
503.60	238.73
503.78	156.82
503.95	184.90
504.13	212.99
504.30	297.25
504.48	292.57
504.65	224.69
504.83	170.86
505.01	243.42
505.18	280.86
505.36	245.76
505.53	168.52
505.71	259.80
505.88	292.57
506.06	271.50
506.23	224.69
506.41	245.76
506.58	234.05
506.76	163.84
506.93	248.10
507.11	257.46
507.28	231.71
507.46	241.08
507.63	222.35
507.81	163.84
507.98	266.82
508.16	212.99
508.33	245.76
508.50	248.10
508.68	203.63
508.85	283.20
509.03	259.80
509.20	212.99
509.38	194.26
509.55	245.76
509.73	278.52
509.90	248.10
510.08	227.03
510.25	287.89
510.42	257.46
510.60	292.57
510.77	269.16
510.95	248.10
511.12	243.42
511.30	248.10
511.47	252.78
511.64	283.20
511.82	238.73
511.99	241.08
512.17	212.99
512.34	203.63
512.51	198.95
512.69	170.86
512.86	236.39
513.04	215.33
513.21	241.08
513.38	191.92
513.56	170.86
513.73	203.63
513.90	138.09
514.08	182.56
514.25	245.76
514.43	173.20
514.60	177.88
514.77	262.14
514.95	259.80
515.12	170.86
515.29	170.86
515.47	189.58
515.64	168.52
515.81	252.78
515.99	227.03
516.16	187.24
516.33	252.78
516.51	198.95
516.68	243.42
516.85	154.48
517.03	259.80
517.20	255.12
517.37	234.05
517.54	238.73
517.72	205.97
517.89	196.60
518.06	189.58
518.24	250.44
518.41	257.46
518.58	205.97
518.75	248.10
518.93	212.99
519.10	194.26
519.27	224.69
519.45	205.97
519.62	245.76
519.79	208.31
519.96	212.99
520.14	330.02
520.31	250.44
520.48	156.82
520.65	250.44
520.83	252.78
521.00	205.97
521.17	283.20
521.34	212.99
521.52	285.55
521.69	205.97
521.86	236.39
522.03	271.50
522.20	231.71
522.38	227.03
522.55	238.73
522.72	210.65
522.89	248.10
523.07	299.59
523.24	250.44
523.41	208.31
523.58	229.37
523.75	224.69
523.92	248.10
524.10	245.76
524.27	304.27
524.44	287.89
524.61	294.91
524.78	276.18
524.96	215.33
525.13	156.82
525.30	262.14
525.47	287.89
525.64	236.39
525.81	234.05
525.98	306.61
526.16	222.35
526.33	191.92
526.50	220.01
526.67	217.67
526.84	238.73
527.01	203.63
527.18	231.71
527.36	241.08
527.53	306.61
527.70	308.95
527.87	287.89
528.04	227.03
528.21	231.71
528.38	308.95
528.55	341.72
528.72	264.48
528.89	297.25
529.07	245.76
529.24	203.63
529.41	257.46
529.58	220.01
529.75	203.63
529.92	322.99
530.09	262.14
530.26	299.59
530.43	313.63
530.60	287.89
530.77	201.29
530.94	269.16
531.11	280.86
531.28	234.05
531.46	227.03
531.63	264.48
531.80	205.97
531.97	234.05
532.14	276.18
532.31	241.08
532.48	341.72
532.65	245.76
532.82	358.10
532.99	365.12
533.16	294.91
533.33	290.23
533.50	212.99
533.67	224.69
533.84	304.27
534.01	346.40
534.18	280.86
534.35	243.42
534.52	241.08
534.69	264.48
534.86	250.44
535.03	262.14
535.20	318.31
535.37	287.89
535.54	292.57
535.71	276.18
535.88	362.78
536.05	322.99
536.22	257.46
536.38	344.06
536.55	304.27
536.72	393.21
536.89	344.06
537.06	388.53
537.23	330.02
537.40	334.70
537.57	355.76
537.74	351.08
537.91	374.49
538.08	383.85
538.25	437.68
538.42	491.51
538.59	433.00
538.75	447.04
538.92	493.85
539.09	428.32
539.26	543.00
539.43	564.07
539.60	692.80
539.77	683.44
539.94	641.31
540.11	660.03
540.28	812.17
540.44	816.85
540.61	777.06
540.78	877.70
540.95	994.73
541.12	1219.42
541.29	1329.42
541.46	1404.32
541.62	1453.47
541.79	1514.33
541.96	1500.28
542.13	1509.65
542.30	1591.56
542.47	1486.24
542.63	1490.92
542.80	1404.32
542.97	1383.26
543.14	1486.24
543.31	1542.41
543.48	1528.37
543.64	1474.54
543.81	1425.39
543.98	1427.73
544.15	1392.62
544.32	1481.56
544.48	1352.83
544.65	1310.70
544.82	1303.68
544.99	1245.16
545.16	1364.53
545.32	1284.95
545.49	2012.86
545.66	3077.80
545.83	3583.36
546.00	2946.73
546.16	2165.00
546.33	1528.37
546.50	1158.57
546.67	997.07
546.83	910.47
547.00	833.23
547.17	877.70
547.34	835.57
547.50	774.72
547.67	788.76
547.84	725.57
548.00	753.65
548.17	699.82
548.34	704.50
548.51	767.70
548.67	692.80
548.84	653.01
549.01	692.80
549.18	723.23
549.34	706.84
549.51	690.46
549.68	627.26
549.84	573.43
550.01	582.79
550.18	638.97
550.34	573.43
550.51	568.75
550.68	603.86
550.84	526.62
551.01	547.69
551.18	475.13
551.34	517.26
551.51	451.72
551.68	456.40
551.84	484.49
552.01	454.06
552.18	496.19
552.34	463.43
552.51	447.04
552.68	475.13
552.84	458.74
553.01	472.79
553.18	451.72
553.34	402.57
553.51	313.63
553.67	372.15
553.84	447.04
554.01	372.15
554.17	362.78
554.34	294.91
554.51	353.42
554.67	395.55
554.84	320.65
555.00	332.36
555.17	369.80
555.33	332.36
555.50	299.59
555.67	273.84
555.83	297.25
556.00	236.39
556.16	456.40
556.33	339.38
556.50	322.99
556.66	259.80
556.83	311.29
556.99	280.86
557.16	301.93
557.32	285.55
557.49	283.20
557.65	285.55
557.82	311.29
557.98	220.01
558.15	301.93
558.32	128.73
558.48	210.65
558.65	220.01
558.81	285.55
558.98	290.23
559.14	264.48
559.31	283.20
559.47	280.86
559.64	194.26
559.80	252.78
559.97	264.48
560.13	276.18
560.30	236.39
560.46	182.56
560.63	189.58
560.79	341.72
560.96	287.89
561.12	198.95
561.29	238.73
561.45	252.78
561.61	327.68
561.78	344.06
561.94	194.26
562.11	259.80
562.27	208.31
562.44	320.65
562.60	290.23
562.77	290.23
562.93	339.38
563.10	283.20
563.26	276.18
563.42	248.10
563.59	306.61
563.75	285.55
563.92	259.80
564.08	217.67
564.24	322.99
564.41	294.91
564.57	257.46
564.74	168.52
564.90	327.68
565.07	322.99
565.23	236.39
565.39	208.31
565.56	227.03
565.72	208.31
565.88	201.29
566.05	191.92
566.21	236.39
566.38	191.92
566.54	222.35
566.70	257.46
566.87	245.76
567.03	184.90
567.19	269.16
567.36	245.76
567.52	292.57
567.68	285.55
567.85	245.76
568.01	203.63
568.17	285.55
568.34	313.63
568.50	203.63
568.66	250.44
568.83	231.71
568.99	166.18
569.15	238.73
569.32	231.71
569.48	245.76
569.64	241.08
569.81	215.33
569.97	245.76
570.13	217.67
570.30	287.89
570.46	262.14
570.62	229.37
570.78	245.76
570.95	187.24
571.11	222.35
571.27	212.99
571.43	301.93
571.60	241.08
571.76	248.10
571.92	252.78
572.09	245.76
572.25	285.55
572.41	177.88
572.57	140.43
572.74	280.86
572.90	280.86
573.06	276.18
573.22	292.57
573.38	259.80
573.55	220.01
573.71	257.46
573.87	285.55
574.03	271.50
574.20	208.31
574.36	208.31
574.52	241.08
574.68	234.05
574.84	245.76
575.01	236.39
575.17	210.65
575.33	203.63
575.49	250.44
575.65	318.31
575.82	250.44
575.98	269.16
576.14	285.55
576.30	339.38
576.46	519.60
576.62	699.82
576.79	819.19
576.95	664.71
577.11	545.34
577.27	355.76
577.43	339.38
577.59	372.15
577.75	348.74
577.92	278.52
578.08	248.10
578.24	248.10
578.40	454.06
578.56	627.26
578.72	760.67
578.88	748.97
579.04	699.82
579.21	468.11
579.37	407.25
579.53	395.55
579.69	475.13
579.85	440.02
580.01	608.54
580.17	444.70
580.33	414.27
580.49	386.19
580.65	379.17
580.82	386.19
580.98	365.12
581.14	386.19
581.30	402.57
581.46	409.59
581.62	437.68
581.78	379.17
581.94	416.62
582.10	362.78
582.26	465.77
582.42	400.23
582.58	449.38
582.74	493.85
582.90	496.19
583.06	475.13
583.22	531.30
583.38	465.77
583.54	447.04
583.70	575.77
583.86	477.47
584.02	463.43
584.18	517.26
584.34	433.00
584.50	454.06
584.66	482.15
584.82	461.09
584.98	491.51
585.14	346.40
585.30	433.00
585.46	440.02
585.62	388.53
585.78	463.43
585.94	444.70
586.10	430.66
586.26	463.43
586.42	519.60
586.58	519.60
586.74	580.45
586.90	706.84
587.06	683.44
587.22	643.65
587.38	601.52
587.54	624.92
587.70	631.94
587.86	442.36
588.02	421.30
588.18	442.36
588.34	397.89
588.49	447.04
588.65	379.17
588.81	383.85
588.97	304.27
589.13	315.97
589.29	332.36
589.45	367.46
589.61	404.91
589.77	330.02
589.93	341.72
590.08	416.62
590.24	341.72
590.40	365.12
590.56	313.63
590.72	318.31
590.88	344.06
591.04	353.42
591.20	353.42
591.35	327.68
591.51	353.42
591.67	360.44
591.83	325.33
591.99	440.02
592.15	421.30
592.31	418.96
592.46	430.66
592.62	477.47
592.78	461.09
592.94	510.24
593.10	531.30
593.26	440.02
593.41	430.66
593.57	381.51
593.73	367.46
593.89	404.91
594.05	393.21
594.20	330.02
594.36	290.23
594.52	255.12
594.68	264.48
594.84	348.74
594.99	351.08
595.15	299.59
595.31	318.31
595.47	339.38
595.62	285.55
595.78	341.72
595.94	327.68
596.10	337.04
596.25	341.72
596.41	344.06
596.57	299.59
596.73	159.16
596.88	353.42
597.04	320.65
597.20	297.25
597.36	301.93
597.51	294.91
597.67	276.18
597.83	355.76
597.99	337.04
598.14	339.38
598.30	393.21
598.46	320.65
598.61	386.19
598.77	290.23
598.93	383.85
599.09	360.44
599.24	341.72
599.40	351.08
599.56	353.42
599.71	351.08
599.87	337.04
600.03	341.72
600.18	278.52
600.34	393.21
600.50	330.02
600.65	301.93
600.81	285.55
600.97	264.48
601.12	236.39
601.28	325.33
601.44	322.99
601.59	292.57
601.75	273.84
601.91	266.82
602.06	224.69
602.22	299.59
602.37	280.86
602.53	262.14
602.69	308.95
602.84	205.97
603.00	285.55
603.16	351.08
603.31	287.89
603.47	285.55
603.62	234.05
603.78	278.52
603.94	337.04
604.09	264.48
604.25	283.20
604.40	283.20
604.56	304.27
604.71	278.52
604.87	276.18
605.03	248.10
605.18	325.33
605.34	285.55
605.49	238.73
605.65	266.82
605.80	337.04
605.96	287.89
606.12	353.42
606.27	320.65
606.43	306.61
606.58	355.76
606.74	348.74
606.89	355.76
607.05	367.46
607.20	308.95
607.36	269.16
607.51	294.91
607.67	344.06
607.82	369.80
607.98	402.57
608.13	411.93
608.29	409.59
608.44	444.70
608.60	461.09
608.75	498.53
608.91	620.24
609.06	566.41
609.22	671.73
609.37	493.85
609.53	655.35
609.68	702.16
609.84	727.91
609.99	842.59
610.15	1043.88
610.30	1203.04
610.46	1600.93
610.61	1872.43
610.76	2354.58
610.92	2818.00
611.07	3026.31
611.23	3108.23
611.38	2965.46
