SpectraSuite Data File
++++++++++++++++++++++++++++++++++++
Date: Fri Oct 04 11:42:12 GMT-05:00 2013
User: price-jones
Dark Spectrum Present: No
Reference Spectrum Present: No
Number of Sampled Component Spectra: 1
Spectrometers: USB2+H05261
Integration Time (usec): 100000 (USB2+H05261)
Spectra Averaged: 1 (USB2+H05261)
Boxcar Smoothing: 0 (USB2+H05261)
Correct for Electrical Dark: No (USB2+H05261)
Strobe/Lamp Enabled: No (USB2+H05261)
Correct for Detector Non-linearity: No (USB2+H05261)
Correct for Stray Light: No (USB2+H05261)
Number of Pixels in Processed Spectrum: 2048
>>>>>Begin Processed Spectral Data<<<<<
365.73	51.49
365.92	51.49
366.12	51.49
366.32	0.00
366.52	0.00
366.72	28.09
366.91	0.00
367.11	0.00
367.31	0.00
367.51	0.00
367.70	0.00
367.90	0.00
368.10	0.00
368.30	0.00
368.49	0.00
368.69	0.00
368.89	4.68
369.09	21.06
369.28	0.00
369.48	0.00
369.68	0.00
369.87	0.00
370.07	39.79
370.27	32.77
370.47	49.15
370.66	67.88
370.86	65.54
371.06	70.22
371.25	100.64
371.45	18.72
371.65	95.96
371.84	119.37
372.04	53.83
372.24	124.05
372.44	86.60
372.63	49.15
372.83	154.48
373.03	147.45
373.22	114.69
373.42	121.71
373.62	110.01
373.81	187.24
374.01	154.48
374.21	152.13
374.40	159.16
374.60	110.01
374.79	112.35
374.99	46.81
375.19	135.75
375.38	163.84
375.58	177.88
375.78	142.77
375.97	117.03
376.17	124.05
376.37	201.29
376.56	149.79
376.76	163.84
376.95	105.32
377.15	128.73
377.35	149.79
377.54	124.05
377.74	110.01
377.93	112.35
378.13	145.11
378.33	121.71
378.52	102.98
378.72	93.62
378.91	46.81
379.11	63.19
379.31	88.94
379.50	126.39
379.70	142.77
379.89	159.16
380.09	117.03
380.28	98.30
380.48	114.69
380.68	93.62
380.87	32.77
381.07	159.16
381.26	154.48
381.46	189.58
381.65	138.09
381.85	110.01
382.04	133.41
382.24	88.94
382.43	173.20
382.63	105.32
382.83	152.13
383.02	112.35
383.22	152.13
383.41	126.39
383.61	142.77
383.80	170.86
384.00	56.17
384.19	138.09
384.39	56.17
384.58	91.28
384.78	117.03
384.97	60.85
385.17	102.98
385.36	107.66
385.56	163.84
385.75	168.52
385.95	131.07
386.14	102.98
386.34	128.73
386.53	117.03
386.72	114.69
386.92	114.69
387.11	128.73
387.31	142.77
387.50	175.54
387.70	152.13
387.89	67.88
388.09	138.09
388.28	156.82
388.48	51.49
388.67	140.43
388.86	140.43
389.06	159.16
389.25	95.96
389.45	107.66
389.64	163.84
389.84	210.65
390.03	175.54
390.22	100.64
390.42	100.64
390.61	110.01
390.81	117.03
391.00	114.69
391.19	203.63
391.39	149.79
391.58	74.90
391.78	170.86
391.97	191.92
392.16	105.32
392.36	180.22
392.55	72.56
392.75	131.07
392.94	107.66
393.13	161.50
393.33	53.83
393.52	121.71
393.71	166.18
393.91	102.98
394.10	149.79
394.29	133.41
394.49	182.56
394.68	74.90
394.88	163.84
395.07	189.58
395.26	98.30
395.46	161.50
395.65	128.73
395.84	173.20
396.04	259.80
396.23	149.79
396.42	119.37
396.62	102.98
396.81	121.71
397.00	187.24
397.19	93.62
397.39	98.30
397.58	133.41
397.77	79.58
397.97	170.86
398.16	156.82
398.35	93.62
398.55	74.90
398.74	149.79
398.93	159.16
399.12	79.58
399.32	95.96
399.51	124.05
399.70	93.62
399.90	107.66
400.09	9.36
400.28	177.88
400.47	187.24
400.67	100.64
400.86	126.39
401.05	135.75
401.24	168.52
401.44	84.26
401.63	168.52
401.82	212.99
402.01	135.75
402.21	145.11
402.40	168.52
402.59	156.82
402.78	196.60
402.97	156.82
403.17	215.33
403.36	203.63
403.55	252.78
403.74	528.96
403.93	1703.91
404.13	3899.33
404.32	5320.04
404.51	4418.93
404.70	2761.83
404.89	1034.52
405.09	395.55
405.28	227.03
405.47	175.54
405.66	152.13
405.85	262.14
406.05	180.22
406.24	210.65
406.43	105.32
406.62	170.86
406.81	227.03
407.00	243.42
407.20	456.40
407.39	847.27
407.58	849.61
407.77	554.71
407.96	337.04
408.15	238.73
408.34	182.56
408.54	173.20
408.73	196.60
408.92	159.16
409.11	276.18
409.30	159.16
409.49	187.24
409.68	266.82
409.87	135.75
410.07	138.09
410.26	203.63
410.45	234.05
410.64	215.33
410.83	210.65
411.02	222.35
411.21	152.13
411.40	102.98
411.59	138.09
411.78	147.45
411.98	187.24
412.17	131.07
412.36	194.26
412.55	166.18
412.74	227.03
412.93	236.39
413.12	191.92
413.31	140.43
413.50	159.16
413.69	196.60
413.88	220.01
414.07	224.69
414.26	210.65
414.45	252.78
414.64	177.88
414.83	196.60
415.02	259.80
415.22	217.67
415.41	262.14
415.60	187.24
415.79	217.67
415.98	332.36
416.17	259.80
416.36	203.63
416.55	273.84
416.74	248.10
416.93	236.39
417.12	294.91
417.31	238.73
417.50	177.88
417.69	250.44
417.88	196.60
418.07	224.69
418.26	138.09
418.45	264.48
418.64	313.63
418.83	187.24
419.02	205.97
419.21	224.69
419.39	191.92
419.58	152.13
419.77	208.31
419.96	322.99
420.15	278.52
420.34	212.99
420.53	184.90
420.72	212.99
420.91	159.16
421.10	241.08
421.29	182.56
421.48	294.91
421.67	220.01
421.86	201.29
422.05	238.73
422.24	212.99
422.43	245.76
422.61	243.42
422.80	271.50
422.99	276.18
423.18	255.12
423.37	280.86
423.56	149.79
423.75	262.14
423.94	198.95
424.13	241.08
424.32	248.10
424.50	217.67
424.69	238.73
424.88	299.59
425.07	294.91
425.26	231.71
425.45	311.29
425.64	292.57
425.83	292.57
426.01	306.61
426.20	318.31
426.39	294.91
426.58	191.92
426.77	259.80
426.96	304.27
427.15	379.17
427.33	255.12
427.52	285.55
427.71	339.38
427.90	348.74
428.09	294.91
428.28	285.55
428.46	245.76
428.65	327.68
428.84	348.74
429.03	334.70
429.22	320.65
429.40	238.73
429.59	224.69
429.78	332.36
429.97	308.95
430.16	257.46
430.34	287.89
430.53	278.52
430.72	241.08
430.91	325.33
431.10	322.99
431.28	351.08
431.47	330.02
431.66	276.18
431.85	372.15
432.03	339.38
432.22	397.89
432.41	390.87
432.60	395.55
432.79	341.72
432.97	376.83
433.16	411.93
433.35	428.32
433.54	528.96
433.72	561.73
433.91	482.15
434.10	606.20
434.28	606.20
434.47	748.97
434.66	791.10
434.85	976.00
435.03	2679.91
435.22	9839.61
435.41	21596.12
435.59	23098.75
435.78	14764.10
435.97	7480.35
436.16	2888.22
436.34	1069.62
436.53	631.94
436.72	582.79
436.90	564.07
437.09	540.66
437.28	482.15
437.46	477.47
437.65	397.89
437.84	421.30
438.02	374.49
438.21	337.04
438.40	386.19
438.58	388.53
438.77	358.10
438.96	341.72
439.14	418.96
439.33	440.02
439.52	369.80
439.70	379.17
439.89	348.74
440.08	362.78
440.26	365.12
440.45	393.21
440.63	416.62
440.82	337.04
441.01	397.89
441.19	358.10
441.38	348.74
441.57	463.43
441.75	376.83
441.94	386.19
442.12	306.61
442.31	325.33
442.50	365.12
442.68	315.97
442.87	376.83
443.05	365.12
443.24	383.85
443.43	365.12
443.61	428.32
443.80	365.12
443.98	348.74
444.17	355.76
444.35	358.10
444.54	414.27
444.73	379.17
444.91	416.62
445.10	313.63
445.28	374.49
445.47	287.89
445.65	365.12
445.84	351.08
446.02	325.33
446.21	334.70
446.39	383.85
446.58	393.21
446.77	348.74
446.95	353.42
447.14	348.74
447.32	418.96
447.51	404.91
447.69	376.83
447.88	353.42
448.06	355.76
448.25	327.68
448.43	301.93
448.62	386.19
448.80	376.83
448.99	287.89
449.17	325.33
449.36	353.42
449.54	400.23
449.73	308.95
449.91	402.57
450.10	379.17
450.28	411.93
450.46	475.13
450.65	320.65
450.83	411.93
451.02	320.65
451.20	416.62
451.39	397.89
451.57	341.72
451.76	379.17
451.94	355.76
452.13	430.66
452.31	355.76
452.49	365.12
452.68	322.99
452.86	351.08
453.05	407.25
453.23	322.99
453.42	325.33
453.60	374.49
453.78	376.83
453.97	299.59
454.15	327.68
454.34	320.65
454.52	383.85
454.70	404.91
454.89	423.64
455.07	360.44
455.26	407.25
455.44	397.89
455.62	435.34
455.81	454.06
455.99	355.76
456.17	360.44
456.36	351.08
456.54	360.44
456.73	341.72
456.91	390.87
457.09	351.08
457.28	369.80
457.46	355.76
457.64	353.42
457.83	360.44
458.01	325.33
458.19	379.17
458.38	339.38
458.56	344.06
458.74	346.40
458.93	367.46
459.11	388.53
459.29	376.83
459.48	379.17
459.66	395.55
459.84	337.04
460.03	425.98
460.21	374.49
460.39	393.21
460.57	351.08
460.76	327.68
460.94	358.10
461.12	458.74
461.31	362.78
461.49	301.93
461.67	339.38
461.85	315.97
462.04	369.80
462.22	472.79
462.40	325.33
462.59	353.42
462.77	425.98
462.95	395.55
463.13	388.53
463.32	383.85
463.50	365.12
463.68	397.89
463.86	362.78
464.05	402.57
464.23	416.62
464.41	383.85
464.59	360.44
464.78	379.17
464.96	374.49
465.14	355.76
465.32	358.10
465.50	327.68
465.69	386.19
465.87	367.46
466.05	362.78
466.23	320.65
466.41	353.42
466.60	393.21
466.78	315.97
466.96	379.17
467.14	404.91
467.32	416.62
467.51	397.89
467.69	372.15
467.87	447.04
468.05	299.59
468.23	402.57
468.41	355.76
468.60	278.52
468.78	358.10
468.96	327.68
469.14	395.55
469.32	271.50
469.50	285.55
469.69	407.25
469.87	341.72
470.05	330.02
470.23	409.59
470.41	320.65
470.59	311.29
470.77	355.76
470.95	365.12
471.14	339.38
471.32	367.46
471.50	395.55
471.68	269.16
471.86	348.74
472.04	325.33
472.22	414.27
472.40	313.63
472.58	287.89
472.77	425.98
472.95	379.17
473.13	381.51
473.31	397.89
473.49	379.17
473.67	283.20
473.85	325.33
474.03	365.12
474.21	421.30
474.39	325.33
474.57	372.15
474.75	402.57
474.93	409.59
475.12	313.63
475.30	290.23
475.48	407.25
475.66	407.25
475.84	400.23
476.02	330.02
476.20	341.72
476.38	374.49
476.56	318.31
476.74	365.12
476.92	362.78
477.10	425.98
477.28	402.57
477.46	411.93
477.64	388.53
477.82	393.21
478.00	358.10
478.18	435.34
478.36	395.55
478.54	325.33
478.72	360.44
478.90	479.81
479.08	447.04
479.26	409.59
479.44	409.59
479.62	411.93
479.80	355.76
479.98	442.36
480.16	500.87
480.34	465.77
480.52	524.28
480.70	528.96
480.88	538.32
481.06	498.53
481.24	535.98
481.41	582.79
481.59	690.46
481.77	669.39
481.95	662.37
482.13	744.29
482.31	777.06
482.49	812.17
482.67	945.58
482.85	940.90
483.03	1022.81
483.21	1104.73
483.39	1224.10
483.57	1214.74
483.74	1320.06
483.92	1331.76
484.10	1355.17
484.28	1404.32
484.46	1558.80
484.64	1706.25
484.82	1654.76
485.00	1652.42
485.18	1755.40
485.35	1865.41
485.53	1991.80
485.71	2092.44
485.89	2148.61
486.07	2186.06
486.25	2228.19
486.43	2279.68
486.61	2396.71
486.78	2312.45
486.96	2235.21
487.14	2263.30
487.32	2256.28
487.50	2275.00
487.68	2242.23
487.85	2221.17
488.03	2157.97
488.21	2148.61
488.39	2080.74
488.57	2005.84
488.75	2045.63
488.92	2228.19
489.10	1966.05
489.28	1895.83
489.46	1956.69
489.64	1837.32
489.81	1806.89
489.99	1776.47
490.17	1746.04
490.35	1870.09
490.53	1797.53
490.70	1767.10
490.88	1722.63
491.06	1811.57
491.24	2059.67
491.41	2080.74
491.59	1860.73
491.77	1830.30
491.95	1614.97
492.13	1699.23
492.30	1664.12
492.48	1549.43
492.66	1537.73
492.84	1516.67
493.01	1533.05
493.19	1469.86
493.37	1502.62
493.54	1511.99
493.72	1439.43
493.90	1392.62
494.08	1411.34
494.25	1404.32
494.43	1378.58
494.61	1380.92
494.79	1343.47
494.96	1404.32
495.14	1355.17
495.32	1287.29
495.49	1320.06
495.67	1315.38
495.85	1179.63
496.02	1196.01
496.20	1212.40
496.38	1128.14
496.55	1193.67
496.73	1203.04
496.91	1076.65
497.09	1022.81
497.26	1006.43
497.44	1039.20
497.62	1116.44
497.79	1053.24
497.97	1076.65
498.14	1125.80
498.32	922.17
498.50	964.30
498.67	964.30
498.85	891.74
499.03	826.21
499.20	877.70
499.38	901.11
499.56	830.89
499.73	800.46
499.91	828.55
500.08	809.83
500.26	844.93
500.44	753.65
500.61	758.33
500.79	711.52
500.97	765.36
501.14	765.36
501.32	669.39
501.49	648.33
501.67	660.03
501.84	620.24
502.02	571.09
502.20	603.86
502.37	594.50
502.55	566.41
502.72	643.65
502.90	660.03
503.07	496.19
503.25	566.41
503.43	589.82
503.60	505.56
503.78	503.22
503.95	517.26
504.13	547.69
504.30	557.05
504.48	554.71
504.65	533.64
504.83	512.58
505.01	477.47
505.18	491.51
505.36	414.27
505.53	477.47
505.71	440.02
505.88	437.68
506.06	498.53
506.23	479.81
506.41	409.59
506.58	388.53
506.76	416.62
506.93	353.42
507.11	353.42
507.28	416.62
507.46	458.74
507.63	491.51
507.81	407.25
507.98	381.51
508.16	418.96
508.33	379.17
508.50	358.10
508.68	449.38
508.85	423.64
509.03	402.57
509.20	383.85
509.38	479.81
509.55	423.64
509.73	433.00
509.90	437.68
510.08	353.42
510.25	423.64
510.42	351.08
510.60	367.46
510.77	388.53
510.95	423.64
511.12	325.33
511.30	358.10
511.47	411.93
511.64	374.49
511.82	304.27
511.99	337.04
512.17	435.34
512.34	362.78
512.51	337.04
512.69	428.32
512.86	376.83
513.04	330.02
513.21	351.08
513.38	369.80
513.56	433.00
513.73	341.72
513.90	365.12
514.08	355.76
514.25	393.21
514.43	348.74
514.60	346.40
514.77	358.10
514.95	348.74
515.12	327.68
515.29	344.06
515.47	416.62
515.64	259.80
515.81	285.55
515.99	383.85
516.16	411.93
516.33	423.64
516.51	290.23
516.68	266.82
516.85	320.65
517.03	358.10
517.20	334.70
517.37	322.99
517.54	337.04
517.72	341.72
517.89	290.23
518.06	262.14
518.24	374.49
518.41	355.76
518.58	397.89
518.75	262.14
518.93	388.53
519.10	351.08
519.27	369.80
519.45	297.25
519.62	301.93
519.79	346.40
519.96	287.89
520.14	311.29
520.31	362.78
520.48	290.23
520.65	257.46
520.83	362.78
521.00	292.57
521.17	351.08
521.34	362.78
521.52	362.78
521.69	393.21
521.86	341.72
522.03	304.27
522.20	449.38
522.38	351.08
522.55	325.33
522.72	344.06
522.89	351.08
523.07	353.42
523.24	325.33
523.41	313.63
523.58	318.31
523.75	351.08
523.92	348.74
524.10	381.51
524.27	348.74
524.44	348.74
524.61	353.42
524.78	325.33
524.96	304.27
525.13	339.38
525.30	393.21
525.47	334.70
525.64	404.91
525.81	463.43
525.98	308.95
526.16	315.97
526.33	248.10
526.50	330.02
526.67	369.80
526.84	379.17
527.01	409.59
527.18	365.12
527.36	430.66
527.53	442.36
527.70	430.66
527.87	484.49
528.04	416.62
528.21	447.04
528.38	423.64
528.55	456.40
528.72	444.70
528.89	369.80
529.07	418.96
529.24	360.44
529.41	475.13
529.58	421.30
529.75	404.91
529.92	442.36
530.09	461.09
530.26	444.70
530.43	428.32
530.60	477.47
530.77	486.83
530.94	535.98
531.11	500.87
531.28	578.11
531.46	512.58
531.63	463.43
531.80	531.30
531.97	538.32
532.14	580.45
532.31	784.08
532.48	903.45
532.65	978.34
532.82	1069.62
532.99	1240.48
533.16	1423.05
533.33	1516.67
533.50	1280.27
533.67	1151.54
533.84	1032.18
534.01	933.87
534.18	833.23
534.35	940.90
534.52	898.77
534.69	971.32
534.86	940.90
535.03	863.66
535.20	1036.86
535.37	1090.69
535.54	1083.67
535.71	1149.20
535.88	1249.85
536.05	1355.17
536.22	1401.98
536.38	1455.81
536.55	1561.14
536.72	1834.98
536.89	1898.17
537.06	2174.36
537.23	2317.13
537.40	2607.36
537.57	2712.68
537.74	2810.98
537.91	2998.23
538.08	2932.69
538.25	3141.00
538.42	3103.55
538.59	3262.71
538.75	3279.09
538.92	3534.21
539.09	3850.18
539.26	4159.13
539.43	4753.63
539.60	5327.06
539.77	5888.79
539.94	6670.53
540.11	7393.75
540.28	8088.89
540.44	8762.97
540.61	9834.93
540.78	11077.76
540.95	13357.44
541.12	16065.44
541.29	17668.70
541.46	18565.13
541.62	18541.72
541.79	17884.03
541.96	16526.52
542.13	15428.81
542.30	14511.32
542.47	13687.45
542.63	12903.37
542.80	12182.49
542.97	12362.71
543.14	12208.23
543.31	12381.43
543.48	12442.29
543.64	12402.50
543.81	12528.89
543.98	12578.04
544.15	12695.07
544.32	12765.28
544.48	12741.88
544.65	12564.00
544.82	12542.93
544.99	12402.50
545.16	12891.67
545.32	13851.29
545.49	22721.92
545.66	42190.50
545.83	51285.82
546.00	44666.78
546.16	29879.28
546.33	21418.24
546.50	16102.89
546.67	12936.14
546.83	11386.71
547.00	10862.43
547.17	10317.08
547.34	9914.51
547.50	9238.09
547.67	9172.56
547.84	8795.73
548.00	8496.14
548.17	8236.35
548.34	7955.48
548.51	7681.64
548.67	7328.22
548.84	6817.98
549.01	6628.40
549.18	6284.34
549.34	6169.65
549.51	5802.19
549.68	5830.27
549.84	5547.07
550.01	5242.80
550.18	5022.79
550.34	4814.48
550.51	4475.10
550.68	4264.46
550.84	4063.17
551.01	3957.85
551.18	3770.60
551.34	3606.77
551.51	3508.46
551.68	3283.77
551.84	3253.34
552.01	3056.74
552.18	2974.82
552.34	2733.75
552.51	2679.91
552.68	2595.65
552.84	2385.01
553.01	2356.92
553.18	2319.47
553.34	2270.32
553.51	2218.83
553.67	2202.44
553.84	2097.12
554.01	1877.11
554.17	1856.04
554.34	1748.38
554.51	1596.25
554.67	1579.86
554.84	1476.88
555.00	1355.17
555.17	1345.81
555.33	1394.96
555.50	1167.93
555.67	1170.27
555.83	1153.88
556.00	1041.54
556.16	1181.97
556.33	968.98
556.50	933.87
556.66	983.02
556.83	870.68
556.99	915.15
557.16	915.15
557.32	788.76
557.49	819.19
557.65	819.19
557.82	725.57
557.98	830.89
558.15	692.80
558.32	758.33
558.48	753.65
558.65	725.57
558.81	748.97
558.98	734.93
559.14	624.92
559.31	709.18
559.47	573.43
559.64	676.41
559.80	657.69
559.97	706.84
560.13	671.73
560.30	643.65
560.46	638.97
560.63	603.86
560.79	655.35
560.96	578.11
561.12	599.18
561.29	641.31
561.45	634.29
561.61	601.52
561.78	653.01
561.94	624.92
562.11	624.92
562.27	592.16
562.44	660.03
562.60	559.39
562.77	662.37
562.93	601.52
563.10	617.90
563.26	573.43
563.42	587.47
563.59	540.66
563.75	613.22
563.92	638.97
564.08	477.47
564.24	599.18
564.41	564.07
564.57	557.05
564.74	477.47
564.90	564.07
565.07	489.17
565.23	543.00
565.39	528.96
565.56	507.90
565.72	519.60
565.88	493.85
566.05	479.81
566.21	505.56
566.38	416.62
566.54	500.87
566.70	519.60
566.87	463.43
567.03	449.38
567.19	568.75
567.36	617.90
567.52	507.90
567.68	484.49
567.85	475.13
568.01	550.03
568.17	538.32
568.34	503.22
568.50	517.26
568.66	540.66
568.83	594.50
568.99	550.03
569.15	550.03
569.32	437.68
569.48	444.70
569.64	461.09
569.81	442.36
569.97	407.25
570.13	388.53
570.30	416.62
570.46	341.72
570.62	414.27
570.78	344.06
570.95	404.91
571.11	447.04
571.27	425.98
571.43	404.91
571.60	369.80
571.76	479.81
571.92	449.38
572.09	318.31
572.25	400.23
572.41	423.64
572.57	430.66
572.74	416.62
572.90	449.38
573.06	477.47
573.22	475.13
573.38	418.96
573.55	451.72
573.71	444.70
573.87	451.72
574.03	402.57
574.20	451.72
574.36	524.28
574.52	339.38
574.68	458.74
574.84	517.26
575.01	493.85
575.17	519.60
575.33	561.73
575.49	702.16
575.65	674.07
575.82	627.26
575.98	662.37
576.14	781.74
576.30	1568.16
576.46	5039.17
576.62	8437.63
576.79	8950.21
576.95	6359.24
577.11	4215.30
577.27	3014.61
577.43	2022.22
577.59	1359.85
577.75	1123.46
577.92	1043.88
578.08	992.39
578.24	1041.54
578.40	1729.66
578.56	4662.35
578.72	7873.56
578.88	8496.14
579.04	6040.92
579.21	4114.66
579.37	3243.98
579.53	2464.58
579.69	2495.01
579.85	2906.95
580.01	3403.14
580.17	3201.85
580.33	2857.79
580.49	2438.84
580.65	2197.76
580.82	2008.18
580.98	1968.39
581.14	1858.39
581.30	1991.80
581.46	2183.72
581.62	2380.32
581.78	2553.52
581.94	2593.31
582.10	2857.79
582.26	2981.84
582.42	3117.59
582.58	3227.60
582.74	3213.56
582.90	3363.35
583.06	3332.92
583.22	3293.13
583.38	3276.75
583.54	3239.30
583.70	3269.73
583.86	3169.09
584.02	3105.89
584.18	3183.13
584.34	3016.95
584.50	2991.20
584.66	2967.80
584.82	2850.77
584.98	2913.97
585.14	2803.96
585.30	2768.85
585.46	2757.15
585.62	2794.60
585.78	2715.02
585.94	2766.51
586.10	2766.51
586.26	3026.31
586.42	3468.67
586.58	4004.66
586.74	4889.38
586.90	5703.89
587.06	6305.40
587.22	6298.38
587.38	5633.67
587.54	4765.33
587.70	3950.82
587.86	3447.61
588.02	2951.42
588.18	2658.85
588.34	2485.65
588.49	2319.47
588.65	2050.31
588.81	2043.29
588.97	1954.35
589.13	1963.71
589.29	1884.13
589.45	1837.32
589.61	1879.45
589.77	1874.77
589.93	1914.56
590.08	1928.60
590.24	2073.71
590.40	2022.22
590.56	2106.48
590.72	2050.31
590.88	2104.14
591.04	2277.34
591.20	2307.77
591.35	2415.43
591.51	2480.97
591.67	2700.98
591.83	2841.41
591.99	2949.08
592.15	3269.73
592.31	3494.42
592.46	3887.63
592.62	4250.41
592.78	4372.12
592.94	4528.94
593.10	4547.66
593.26	4203.60
593.41	3913.38
593.57	3475.70
593.73	3084.83
593.89	2684.59
594.05	2464.58
594.20	2221.17
594.36	2113.50
594.52	1776.47
594.68	1811.57
594.84	1846.68
594.99	1830.30
595.15	1732.00
595.31	1652.42
595.47	1739.02
595.62	1668.80
595.78	1729.66
595.94	1612.63
596.10	1820.94
596.25	1614.97
596.41	1755.40
596.57	1668.80
596.73	1689.87
596.88	1685.19
597.04	1706.25
597.20	1668.80
597.36	1806.89
597.51	1846.68
597.67	1895.83
597.83	1818.60
597.99	1884.13
598.14	2157.97
598.30	2230.53
598.46	2403.73
598.61	2401.39
598.77	2661.19
598.93	2726.72
599.09	2775.88
599.24	2778.22
599.40	2740.77
599.56	2715.02
599.71	2558.21
599.87	2420.11
600.03	2275.00
600.18	2202.44
600.34	1998.82
600.50	1870.09
600.65	1724.97
600.81	1678.16
600.97	1500.28
601.12	1575.18
601.28	1481.56
601.44	1355.17
601.59	1390.28
601.75	1334.11
601.91	1205.38
602.06	1268.57
602.22	1287.29
602.37	1198.35
602.53	1193.67
602.69	1240.48
602.84	1219.42
603.00	1163.25
603.16	1219.42
603.31	1078.99
603.47	1196.01
603.62	1294.32
603.78	1287.29
603.94	1226.44
604.09	1277.93
604.25	1254.53
604.40	1345.81
604.56	1184.31
604.71	1336.45
604.87	1352.83
605.03	1294.32
605.18	1441.77
605.34	1366.87
605.49	1500.28
605.65	1544.75
605.80	1458.15
605.96	1519.01
