SpectraSuite Data File
++++++++++++++++++++++++++++++++++++
Date: Fri Oct 04 11:42:00 GMT-05:00 2013
User: price-jones
Dark Spectrum Present: No
Reference Spectrum Present: No
Number of Sampled Component Spectra: 1
Spectrometers: USB2+H05261
Integration Time (usec): 100000 (USB2+H05261)
Spectra Averaged: 1 (USB2+H05261)
Boxcar Smoothing: 0 (USB2+H05261)
Correct for Electrical Dark: No (USB2+H05261)
Strobe/Lamp Enabled: No (USB2+H05261)
Correct for Detector Non-linearity: No (USB2+H05261)
Correct for Stray Light: No (USB2+H05261)
Number of Pixels in Processed Spectrum: 2048
>>>>>Begin Processed Spectral Data<<<<<
365.73	32.77
365.92	32.77
366.12	32.77
366.32	0.00
366.52	0.00
366.72	0.00
366.91	0.00
367.11	0.00
367.31	0.00
367.51	0.00
367.70	0.00
367.90	0.00
368.10	0.00
368.30	0.00
368.49	0.00
368.69	9.36
368.89	0.00
369.09	0.00
369.28	0.00
369.48	42.13
369.68	0.00
369.87	4.68
370.07	0.00
370.27	58.51
370.47	21.06
370.66	23.41
370.86	28.09
371.06	126.39
371.25	74.90
371.45	37.45
371.65	110.01
371.84	107.66
372.04	53.83
372.24	110.01
372.44	121.71
372.63	131.07
372.83	170.86
373.03	140.43
373.22	140.43
373.42	56.17
373.62	119.37
373.81	119.37
374.01	112.35
374.21	159.16
374.40	140.43
374.60	135.75
374.79	63.19
374.99	149.79
375.19	119.37
375.38	110.01
375.58	110.01
375.78	210.65
375.97	119.37
376.17	203.63
376.37	191.92
376.56	131.07
376.76	128.73
376.95	182.56
377.15	135.75
377.35	189.58
377.54	208.31
377.74	74.90
377.93	187.24
378.13	110.01
378.33	142.77
378.52	166.18
378.72	138.09
378.91	77.24
379.11	173.20
379.31	112.35
379.50	126.39
379.70	187.24
379.89	145.11
380.09	196.60
380.28	112.35
380.48	112.35
380.68	147.45
380.87	14.04
381.07	180.22
381.26	231.71
381.46	128.73
381.65	184.90
381.85	140.43
382.04	91.28
382.24	44.47
382.43	156.82
382.63	100.64
382.83	128.73
383.02	152.13
383.22	105.32
383.41	88.94
383.61	114.69
383.80	217.67
384.00	88.94
384.19	177.88
384.39	46.81
384.58	79.58
384.78	163.84
384.97	77.24
385.17	63.19
385.36	93.62
385.56	124.05
385.75	154.48
385.95	53.83
386.14	84.26
386.34	107.66
386.53	159.16
386.72	140.43
386.92	133.41
387.11	203.63
387.31	166.18
387.50	84.26
387.70	102.98
387.89	142.77
388.09	23.41
388.28	149.79
388.48	102.98
388.67	168.52
388.86	77.24
389.06	117.03
389.25	84.26
389.45	91.28
389.64	140.43
389.84	107.66
390.03	147.45
390.22	93.62
390.42	93.62
390.61	110.01
390.81	126.39
391.00	168.52
391.19	161.50
391.39	161.50
391.58	149.79
391.78	100.64
391.97	105.32
392.16	184.90
392.36	159.16
392.55	177.88
392.75	124.05
392.94	131.07
393.13	117.03
393.33	86.60
393.52	117.03
393.71	51.49
393.91	110.01
394.10	102.98
394.29	140.43
394.49	119.37
394.68	205.97
394.88	189.58
395.07	154.48
395.26	140.43
395.46	93.62
395.65	196.60
395.84	166.18
396.04	236.39
396.23	156.82
396.42	98.30
396.62	135.75
396.81	189.58
397.00	110.01
397.19	182.56
397.39	156.82
397.58	215.33
397.77	236.39
397.97	124.05
398.16	81.92
398.35	147.45
398.55	140.43
398.74	133.41
398.93	170.86
399.12	145.11
399.32	191.92
399.51	131.07
399.70	135.75
399.90	191.92
400.09	159.16
400.28	147.45
400.47	142.77
400.67	44.47
400.86	147.45
401.05	147.45
401.24	217.67
401.44	182.56
401.63	147.45
401.82	175.54
402.01	198.95
402.21	194.26
402.40	173.20
402.59	175.54
402.78	203.63
402.97	117.03
403.17	124.05
403.36	187.24
403.55	283.20
403.74	596.84
403.93	1949.67
404.13	4669.37
404.32	6389.66
404.51	5664.10
404.70	3272.07
404.89	1186.65
405.09	543.00
405.28	257.46
405.47	187.24
405.66	229.37
405.85	266.82
406.05	166.18
406.24	135.75
406.43	201.29
406.62	212.99
406.81	173.20
407.00	313.63
407.20	587.47
407.39	861.32
407.58	922.17
407.77	692.80
407.96	423.64
408.15	308.95
408.34	140.43
408.54	156.82
408.73	159.16
408.92	180.22
409.11	194.26
409.30	196.60
409.49	220.01
409.68	154.48
409.87	149.79
410.07	205.97
410.26	140.43
410.45	119.37
410.64	182.56
410.83	205.97
411.02	189.58
411.21	154.48
411.40	198.95
411.59	180.22
411.78	205.97
411.98	126.39
412.17	217.67
412.36	159.16
412.55	217.67
412.74	234.05
412.93	191.92
413.12	189.58
413.31	238.73
413.50	145.11
413.69	133.41
413.88	273.84
414.07	201.29
414.26	154.48
414.45	238.73
414.64	156.82
414.83	180.22
415.02	198.95
415.22	208.31
415.41	290.23
415.60	229.37
415.79	245.76
415.98	271.50
416.17	217.67
416.36	236.39
416.55	184.90
416.74	215.33
416.93	227.03
417.12	269.16
417.31	243.42
417.50	210.65
417.69	280.86
417.88	210.65
418.07	259.80
418.26	269.16
418.45	248.10
418.64	346.40
418.83	184.90
419.02	245.76
419.21	259.80
419.39	266.82
419.58	264.48
419.77	180.22
419.96	234.05
420.15	280.86
420.34	220.01
420.53	271.50
420.72	273.84
420.91	252.78
421.10	273.84
421.29	301.93
421.48	287.89
421.67	320.65
421.86	283.20
422.05	212.99
422.24	217.67
422.43	248.10
422.61	234.05
422.80	304.27
422.99	278.52
423.18	304.27
423.37	306.61
423.56	304.27
423.75	266.82
423.94	245.76
424.13	250.44
424.32	250.44
424.50	313.63
424.69	320.65
424.88	393.21
425.07	250.44
425.26	383.85
425.45	266.82
425.64	313.63
425.83	259.80
426.01	362.78
426.20	376.83
426.39	290.23
426.58	215.33
426.77	318.31
426.96	276.18
427.15	341.72
427.33	283.20
427.52	259.80
427.71	301.93
427.90	320.65
428.09	283.20
428.28	334.70
428.46	325.33
428.65	360.44
428.84	393.21
429.03	301.93
429.22	287.89
429.40	330.02
429.59	414.27
429.78	358.10
429.97	311.29
430.16	320.65
430.34	397.89
430.53	252.78
430.72	271.50
430.91	348.74
431.10	365.12
431.28	465.77
431.47	367.46
431.66	367.46
431.85	407.25
432.03	318.31
432.22	428.32
432.41	395.55
432.60	360.44
432.79	393.21
432.97	416.62
433.16	447.04
433.35	498.53
433.54	514.92
433.72	543.00
433.91	575.77
434.10	615.56
434.28	777.06
434.47	856.64
434.66	959.62
434.85	1249.85
435.03	3328.24
435.22	12233.98
435.41	26773.39
435.59	28950.09
435.78	18356.82
435.97	8901.06
436.16	3550.59
436.34	1299.00
436.53	784.08
436.72	678.76
436.90	603.86
437.09	477.47
437.28	528.96
437.46	470.45
437.65	519.60
437.84	505.56
438.02	517.26
438.21	540.66
438.40	444.70
438.58	451.72
438.77	437.68
438.96	468.11
439.14	440.02
439.33	482.15
439.52	461.09
439.70	449.38
439.89	440.02
440.08	407.25
440.26	435.34
440.45	411.93
440.63	400.23
440.82	475.13
441.01	440.02
441.19	477.47
441.38	325.33
441.57	411.93
441.75	362.78
441.94	430.66
442.12	416.62
442.31	379.17
442.50	395.55
442.68	379.17
442.87	493.85
443.05	433.00
443.24	409.59
443.43	465.77
443.61	500.87
443.80	374.49
443.98	505.56
444.17	458.74
444.35	407.25
444.54	416.62
444.73	418.96
444.91	496.19
445.10	397.89
445.28	442.36
445.47	428.32
445.65	449.38
445.84	468.11
446.02	376.83
446.21	383.85
446.39	393.21
446.58	402.57
446.77	381.51
446.95	388.53
447.14	468.11
447.32	493.85
447.51	332.36
447.69	360.44
447.88	449.38
448.06	402.57
448.25	402.57
448.43	379.17
448.62	407.25
448.80	411.93
448.99	482.15
449.17	425.98
449.36	402.57
449.54	360.44
449.73	423.64
449.91	404.91
450.10	416.62
450.28	505.56
450.46	472.79
450.65	386.19
450.83	416.62
451.02	437.68
451.20	395.55
451.39	411.93
451.57	334.70
451.76	440.02
451.94	386.19
452.13	433.00
452.31	418.96
452.49	442.36
452.68	341.72
452.86	519.60
453.05	409.59
453.23	416.62
453.42	369.80
453.60	416.62
453.78	442.36
453.97	369.80
454.15	454.06
454.34	421.30
454.52	390.87
454.70	421.30
454.89	332.36
455.07	463.43
455.26	409.59
455.44	421.30
455.62	461.09
455.81	395.55
455.99	444.70
456.17	341.72
456.36	456.40
456.54	409.59
456.73	463.43
456.91	409.59
457.09	433.00
457.28	447.04
457.46	388.53
457.64	449.38
457.83	393.21
458.01	376.83
458.19	433.00
458.38	425.98
458.56	414.27
458.74	386.19
458.93	390.87
459.11	442.36
459.29	447.04
459.48	362.78
459.66	543.00
459.84	479.81
460.03	500.87
460.21	337.04
460.39	447.04
460.57	430.66
460.76	383.85
460.94	428.32
461.12	503.22
461.31	465.77
461.49	367.46
461.67	425.98
461.85	503.22
462.04	372.15
462.22	779.40
462.40	430.66
462.59	461.09
462.77	395.55
462.95	451.72
463.13	414.27
463.32	454.06
463.50	355.76
463.68	393.21
463.86	379.17
464.05	372.15
464.23	425.98
464.41	430.66
464.59	423.64
464.78	526.62
464.96	421.30
465.14	461.09
465.32	421.30
465.50	381.51
465.69	374.49
465.87	304.27
466.05	346.40
466.23	400.23
466.41	407.25
466.60	435.34
466.78	468.11
466.96	386.19
467.14	390.87
467.32	454.06
467.51	430.66
467.69	414.27
467.87	416.62
468.05	388.53
468.23	397.89
468.41	381.51
468.60	360.44
468.78	358.10
468.96	402.57
469.14	456.40
469.32	402.57
469.50	332.36
469.69	402.57
469.87	374.49
470.05	374.49
470.23	400.23
470.41	409.59
470.59	418.96
470.77	400.23
470.95	348.74
471.14	430.66
471.32	383.85
471.50	463.43
471.68	386.19
471.86	407.25
472.04	379.17
472.22	348.74
472.40	407.25
472.58	397.89
472.77	458.74
472.95	367.46
473.13	409.59
473.31	456.40
473.49	362.78
473.67	404.91
473.85	451.72
474.03	376.83
474.21	435.34
474.39	463.43
474.57	423.64
474.75	369.80
474.93	383.85
475.12	325.33
475.30	360.44
475.48	414.27
475.66	489.17
475.84	369.80
476.02	404.91
476.20	411.93
476.38	428.32
476.56	454.06
476.74	376.83
476.92	454.06
477.10	376.83
477.28	465.77
477.46	451.72
477.64	442.36
477.82	440.02
478.00	423.64
478.18	386.19
478.36	355.76
478.54	435.34
478.72	486.83
478.90	477.47
479.08	554.71
479.26	449.38
479.44	456.40
479.62	458.74
479.80	533.64
479.98	512.58
480.16	540.66
480.34	493.85
480.52	592.16
480.70	571.09
480.88	617.90
481.06	671.73
481.24	716.20
481.41	779.40
481.59	727.91
481.77	727.91
481.95	814.51
482.13	835.57
482.31	912.81
482.49	973.66
482.67	1078.99
482.85	1081.33
483.03	1247.51
483.21	1249.85
483.39	1373.89
483.57	1406.66
483.74	1521.35
483.92	1633.69
484.10	1633.69
484.28	1713.27
484.46	1984.77
484.64	1994.14
484.82	2050.31
485.00	2183.72
485.18	2223.51
485.35	2473.95
485.53	2506.71
485.71	2677.57
485.89	2689.28
486.07	2719.70
486.25	2815.66
486.43	2883.54
486.61	2890.56
486.78	2960.78
486.96	2827.37
487.14	2885.88
487.32	2930.35
487.50	2771.19
487.68	2799.28
487.85	2773.53
488.03	2691.62
488.21	2696.30
488.39	2483.31
488.57	2537.14
488.75	2546.50
488.92	2715.02
489.10	2380.32
489.28	2396.71
489.46	2375.64
489.64	2237.55
489.81	2303.09
489.99	2277.34
490.17	2225.85
490.35	2183.72
490.53	2143.93
490.70	2120.53
490.88	2204.78
491.06	2242.23
491.24	2345.22
491.41	2471.61
491.59	2298.41
491.77	2181.38
491.95	2092.44
492.13	1963.71
492.30	2071.37
492.48	1909.88
492.66	1984.77
492.84	1884.13
493.01	1820.94
493.19	1825.62
493.37	1914.56
493.54	1783.49
493.72	1722.63
493.90	1771.79
494.08	1666.46
494.25	1741.36
494.43	1661.78
494.61	1638.38
494.79	1647.74
494.96	1675.82
495.14	1619.65
495.32	1528.37
495.49	1596.25
495.67	1507.30
495.85	1589.22
496.02	1460.49
496.20	1696.89
496.38	1439.43
496.55	1441.77
496.73	1472.20
496.91	1404.32
497.09	1371.55
497.26	1345.81
497.44	1261.55
497.62	1359.85
497.79	1273.25
497.97	1249.85
498.14	1268.57
498.32	1212.40
498.50	1165.59
498.67	1097.71
498.85	1064.94
499.03	1046.22
499.20	1011.11
499.38	1008.77
499.56	1043.88
499.73	1060.26
499.91	1013.45
500.08	1011.11
500.26	947.92
500.44	889.40
500.61	901.11
500.79	858.98
500.97	849.61
501.14	809.83
501.32	795.78
501.49	739.61
501.67	774.72
501.84	816.85
502.02	781.74
502.20	727.91
502.37	770.04
502.55	624.92
502.72	702.16
502.90	641.31
503.07	615.56
503.25	631.94
503.43	648.33
503.60	636.63
503.78	641.31
503.95	599.18
504.13	587.47
504.30	531.30
504.48	587.47
504.65	538.32
504.83	650.67
505.01	559.39
505.18	564.07
505.36	500.87
505.53	547.69
505.71	514.92
505.88	496.19
506.06	477.47
506.23	510.24
506.41	454.06
506.58	493.85
506.76	435.34
506.93	421.30
507.11	430.66
507.28	435.34
507.46	491.51
507.63	435.34
507.81	472.79
507.98	447.04
508.16	449.38
508.33	545.34
508.50	512.58
508.68	486.83
508.85	498.53
509.03	491.51
509.20	472.79
509.38	489.17
509.55	479.81
509.73	418.96
509.90	526.62
510.08	550.03
510.25	447.04
510.42	421.30
510.60	390.87
510.77	278.52
510.95	404.91
511.12	376.83
511.30	346.40
511.47	379.17
511.64	531.30
511.82	404.91
511.99	315.97
512.17	402.57
512.34	395.55
512.51	444.70
512.69	400.23
512.86	503.22
513.04	381.51
513.21	395.55
513.38	397.89
513.56	409.59
513.73	369.80
513.90	414.27
514.08	294.91
514.25	381.51
514.43	374.49
514.60	346.40
514.77	311.29
514.95	376.83
515.12	299.59
515.29	397.89
515.47	402.57
515.64	400.23
515.81	341.72
515.99	376.83
516.16	407.25
516.33	395.55
516.51	390.87
516.68	369.80
516.85	322.99
517.03	330.02
517.20	374.49
517.37	381.51
517.54	437.68
517.72	397.89
517.89	322.99
518.06	409.59
518.24	390.87
518.41	351.08
518.58	379.17
518.75	313.63
518.93	407.25
519.10	416.62
519.27	393.21
519.45	337.04
519.62	404.91
519.79	390.87
519.96	330.02
520.14	306.61
520.31	414.27
520.48	458.74
520.65	372.15
520.83	273.84
521.00	395.55
521.17	393.21
521.34	278.52
521.52	344.06
521.69	369.80
521.86	348.74
522.03	360.44
522.20	390.87
522.38	374.49
522.55	285.55
522.72	308.95
522.89	369.80
523.07	311.29
523.24	388.53
523.41	348.74
523.58	355.76
523.75	348.74
523.92	325.33
524.10	301.93
524.27	390.87
524.44	365.12
524.61	355.76
524.78	318.31
524.96	318.31
525.13	390.87
525.30	440.02
525.47	376.83
525.64	383.85
525.81	437.68
525.98	428.32
526.16	327.68
526.33	313.63
526.50	465.77
526.67	362.78
526.84	407.25
527.01	386.19
527.18	437.68
527.36	435.34
527.53	500.87
527.70	486.83
527.87	418.96
528.04	489.17
528.21	449.38
528.38	503.22
528.55	386.19
528.72	430.66
528.89	437.68
529.07	465.77
529.24	463.43
529.41	496.19
529.58	430.66
529.75	489.17
529.92	461.09
530.09	535.98
530.26	491.51
530.43	454.06
530.60	521.94
530.77	573.43
530.94	634.29
531.11	496.19
531.28	592.16
531.46	592.16
531.63	636.63
531.80	641.31
531.97	699.82
532.14	788.76
532.31	917.49
532.48	999.41
532.65	1179.63
532.82	1252.19
532.99	1535.39
533.16	1701.57
533.33	1802.21
533.50	1589.22
533.67	1399.64
533.84	1214.74
534.01	1118.78
534.18	954.94
534.35	1046.22
534.52	1036.86
534.69	1100.05
534.86	1095.37
535.03	976.00
535.20	1081.33
535.37	1291.98
535.54	1266.23
535.71	1338.79
535.88	1551.78
536.05	1495.60
536.22	1551.78
536.38	1760.08
536.55	1937.96
536.72	2115.84
536.89	2347.56
537.06	2637.78
537.23	2951.42
537.40	3194.83
537.57	3459.31
537.74	3679.32
537.91	3864.22
538.08	3861.88
538.25	3864.22
538.42	3915.72
538.59	3992.95
538.75	4131.05
538.92	4454.04
539.09	4674.05
539.26	5270.89
539.43	6043.26
539.60	6883.52
539.77	7669.94
539.94	8526.57
540.11	9418.32
540.28	10494.96
540.44	11229.89
540.61	12526.55
540.78	14387.27
540.95	17341.03
541.12	20589.69
541.29	23314.08
541.46	24566.26
541.62	24119.22
541.79	23243.86
541.96	21270.79
542.13	19697.95
542.30	18504.28
542.47	17486.14
542.63	16624.83
542.80	16194.17
542.97	15887.56
543.14	15634.78
543.31	15744.78
543.48	15634.78
543.64	16098.20
543.81	16248.00
543.98	15779.89
544.15	16348.64
544.32	16666.95
544.48	16383.75
544.65	16166.08
544.82	16093.52
544.99	16109.91
545.16	16449.28
545.32	17387.84
545.49	29495.43
545.66	52498.22
545.83	58740.42
546.00	53593.59
546.16	38930.13
546.33	28126.22
546.50	21163.12
546.67	16657.59
546.83	14424.72
547.00	13731.92
547.17	13214.66
547.34	12842.52
547.50	12215.26
547.67	11758.85
547.84	11178.40
548.00	11082.44
548.17	10740.72
548.34	10115.80
548.51	9802.16
548.67	9462.79
548.84	8968.93
549.01	8472.74
549.18	8081.87
549.34	7606.74
549.51	7494.40
549.68	7105.87
549.84	6883.52
550.01	6616.69
550.18	6223.48
550.34	6120.50
550.51	5837.30
550.68	5490.90
550.84	5235.78
551.01	4992.36
551.18	4695.11
551.34	4472.76
551.51	4454.04
551.68	4065.51
551.84	3995.29
552.01	3756.56
552.18	3754.22
552.34	3485.06
552.51	3318.88
552.68	3246.32
552.84	3070.78
553.01	2993.55
553.18	2974.82
553.34	2911.63
553.51	2712.68
553.67	2672.89
553.84	2600.34
554.01	2413.09
554.17	2207.13
554.34	2069.03
554.51	1966.05
554.67	1853.70
554.84	1888.81
555.00	1708.59
555.17	1729.66
555.33	1551.78
555.50	1530.71
555.67	1497.94
555.83	1254.53
556.00	1296.66
556.16	1387.94
556.33	1299.00
556.50	1186.65
556.66	1245.16
556.83	1116.44
556.99	1135.16
557.16	997.07
557.32	997.07
557.49	1022.81
557.65	1001.75
557.82	957.28
557.98	971.32
558.15	873.02
558.32	938.55
558.48	842.59
558.65	896.43
558.81	830.89
558.98	772.38
559.14	812.17
559.31	697.48
559.47	760.67
559.64	826.21
559.80	786.42
559.97	739.61
560.13	676.41
560.30	734.93
560.46	786.42
560.63	730.25
560.79	767.70
560.96	734.93
561.12	690.46
561.29	866.00
561.45	765.36
561.61	697.48
561.78	802.80
561.94	720.88
562.11	685.78
562.27	781.74
562.44	732.59
562.60	582.79
562.77	777.06
562.93	791.10
563.10	720.88
563.26	695.14
563.42	674.07
563.59	601.52
563.75	678.76
563.92	599.18
564.08	613.22
564.24	653.01
564.41	664.71
564.57	622.58
564.74	638.97
564.90	657.69
565.07	610.88
565.23	592.16
565.39	599.18
565.56	589.82
565.72	596.84
565.88	603.86
566.05	592.16
566.21	566.41
566.38	615.56
566.54	557.05
566.70	657.69
566.87	620.24
567.03	627.26
567.19	653.01
567.36	613.22
567.52	543.00
567.68	468.11
567.85	620.24
568.01	535.98
568.17	561.73
568.34	580.45
568.50	683.44
568.66	592.16
568.83	690.46
568.99	606.20
569.15	561.73
569.32	554.71
569.48	533.64
569.64	484.49
569.81	468.11
569.97	503.22
570.13	498.53
570.30	451.72
570.46	528.96
570.62	440.02
570.78	425.98
570.95	425.98
571.11	461.09
571.27	435.34
571.43	400.23
571.60	440.02
571.76	416.62
571.92	421.30
572.09	463.43
572.25	458.74
572.41	496.19
572.57	524.28
572.74	521.94
572.90	470.45
573.06	489.17
573.22	484.49
573.38	547.69
573.55	521.94
573.71	500.87
573.87	564.07
574.03	500.87
574.20	559.39
574.36	531.30
574.52	493.85
574.68	545.34
574.84	603.86
575.01	615.56
575.17	664.71
575.33	603.86
575.49	709.18
575.65	788.76
575.82	779.40
575.98	887.06
576.14	1001.75
576.30	1949.67
576.46	6111.14
576.62	10785.19
576.79	12229.30
576.95	8463.38
577.11	5488.56
577.27	3967.21
577.43	2520.76
577.59	1753.06
577.75	1357.51
577.92	1144.52
578.08	1238.14
578.24	1212.40
578.40	2033.93
578.56	5781.12
578.72	9811.53
578.88	10614.33
579.04	7880.58
579.21	5430.04
579.37	4046.79
579.53	3126.96
579.69	3101.21
579.85	3768.26
580.01	4208.28
580.17	3974.23
580.33	3578.68
580.49	3129.30
580.65	2799.28
580.82	2541.82
580.98	2424.80
581.14	2427.14
581.30	2593.31
581.46	2747.79
581.62	2984.18
581.78	3112.91
581.94	3485.06
582.10	3747.20
582.26	3707.41
582.42	4039.76
582.58	4210.62
582.74	4074.87
582.90	4046.79
583.06	4217.65
583.22	4320.63
583.38	4159.13
583.54	4180.20
583.70	4180.20
583.86	4039.76
584.02	4208.28
584.18	3929.76
584.34	3889.97
584.50	3819.75
584.66	3756.56
584.82	3819.75
584.98	3552.93
585.14	3714.43
585.30	3630.17
585.46	3501.44
585.62	3386.76
585.78	3356.33
585.94	3522.51
586.10	3571.66
586.26	3630.17
586.42	4465.74
586.58	5018.11
586.74	6167.31
586.90	7414.82
587.06	8102.93
587.22	7985.91
587.38	7129.27
587.54	6279.66
587.70	5207.69
587.86	4411.91
588.02	3829.12
588.18	3356.33
588.34	3070.78
588.49	2885.88
588.65	2506.71
588.81	2534.80
588.97	2394.37
589.13	2392.03
589.29	2319.47
589.45	2340.54
589.61	2324.15
589.77	2420.11
589.93	2361.60
590.08	2518.42
590.24	2605.02
590.40	2633.10
590.56	2637.78
590.72	2703.32
590.88	2626.08
591.04	2752.47
591.20	3084.83
591.35	3157.38
591.51	3162.06
591.67	3393.78
591.83	3527.19
591.99	3981.25
592.15	4187.22
592.31	4465.74
592.46	4844.91
592.62	5343.44
592.78	5640.69
592.94	5968.37
593.10	5867.72
593.26	5437.06
593.41	5146.84
593.57	4521.92
593.73	4046.79
593.89	3611.45
594.05	3307.18
594.20	2883.54
594.36	2558.21
594.52	2424.80
594.68	2394.37
594.84	2200.10
594.99	2221.17
595.15	2127.55
595.31	2193.08
595.47	2101.80
595.62	2113.50
595.78	2071.37
595.94	2097.12
596.10	2188.40
596.25	2106.48
596.41	2218.83
596.57	2003.50
596.73	2097.12
596.88	2129.89
597.04	2064.35
597.20	2165.00
597.36	2172.02
597.51	2202.44
597.67	2232.87
597.83	2497.35
597.99	2555.86
598.14	2651.83
598.30	2778.22
598.46	3049.72
598.61	3061.42
598.77	3318.88
598.93	3330.58
599.09	3508.46
599.24	3599.74
599.40	3428.88
599.56	3400.80
599.71	3260.37
599.87	3171.43
600.03	2920.99
600.18	2738.43
600.34	2583.95
600.50	2312.45
600.65	2190.74
600.81	2078.40
600.97	1961.37
601.12	1912.22
601.28	1947.33
601.44	1710.93
601.59	1652.42
601.75	1689.87
601.91	1579.86
602.06	1465.18
602.22	1401.98
602.37	1462.83
602.53	1306.02
602.69	1416.02
602.84	1418.36
603.00	1406.66
603.16	1462.83
603.31	1493.26
603.47	1369.21
603.62	1481.56
603.78	1565.82
603.94	1579.86
604.09	1561.14
604.25	1589.22
604.40	1689.87
604.56	1614.97
604.71	1535.39
604.87	1565.82
605.03	1708.59
605.18	1694.55
605.34	1762.42
605.49	1802.21
