SpectraSuite Data File
++++++++++++++++++++++++++++++++++++
Date: Fri Oct 04 11:42:04 GMT-05:00 2013
User: price-jones
Dark Spectrum Present: No
Reference Spectrum Present: No
Number of Sampled Component Spectra: 1
Spectrometers: USB2+H05261
Integration Time (usec): 100000 (USB2+H05261)
Spectra Averaged: 1 (USB2+H05261)
Boxcar Smoothing: 0 (USB2+H05261)
Correct for Electrical Dark: No (USB2+H05261)
Strobe/Lamp Enabled: No (USB2+H05261)
Correct for Detector Non-linearity: No (USB2+H05261)
Correct for Stray Light: No (USB2+H05261)
Number of Pixels in Processed Spectrum: 2048
>>>>>Begin Processed Spectral Data<<<<<
365.73	25.75
365.92	25.75
366.12	25.75
366.32	0.00
366.52	0.00
366.72	0.00
366.91	0.00
367.11	0.00
367.31	0.00
367.51	0.00
367.70	0.00
367.90	0.00
368.10	0.00
368.30	0.00
368.49	0.00
368.69	0.00
368.89	0.00
369.09	4.68
369.28	21.06
369.48	0.00
369.68	0.00
369.87	0.00
370.07	9.36
370.27	60.85
370.47	0.00
370.66	9.36
370.86	98.30
371.06	93.62
371.25	84.26
371.45	23.41
371.65	86.60
371.84	95.96
372.04	72.56
372.24	175.54
372.44	152.13
372.63	145.11
372.83	212.99
373.03	91.28
373.22	142.77
373.42	119.37
373.62	91.28
373.81	142.77
374.01	170.86
374.21	133.41
374.40	126.39
374.60	175.54
374.79	135.75
374.99	175.54
375.19	91.28
375.38	140.43
375.58	98.30
375.78	212.99
375.97	166.18
376.17	180.22
376.37	131.07
376.56	168.52
376.76	173.20
376.95	175.54
377.15	166.18
377.35	215.33
377.54	159.16
377.74	114.69
377.93	180.22
378.13	234.05
378.33	161.50
378.52	138.09
378.72	170.86
378.91	112.35
379.11	156.82
379.31	159.16
379.50	187.24
379.70	180.22
379.89	231.71
380.09	131.07
380.28	168.52
380.48	133.41
380.68	67.88
380.87	121.71
381.07	266.82
381.26	182.56
381.46	168.52
381.65	124.05
381.85	138.09
382.04	198.95
382.24	187.24
382.43	145.11
382.63	58.51
382.83	88.94
383.02	231.71
383.22	184.90
383.41	156.82
383.61	119.37
383.80	93.62
384.00	191.92
384.19	187.24
384.39	191.92
384.58	191.92
384.78	81.92
384.97	196.60
385.17	161.50
385.36	180.22
385.56	163.84
385.75	140.43
385.95	140.43
386.14	210.65
386.34	147.45
386.53	191.92
386.72	201.29
386.92	257.46
387.11	224.69
387.31	182.56
387.50	126.39
387.70	145.11
387.89	112.35
388.09	159.16
388.28	138.09
388.48	154.48
388.67	159.16
388.86	182.56
389.06	168.52
389.25	184.90
389.45	166.18
389.64	227.03
389.84	121.71
390.03	180.22
390.22	196.60
390.42	102.98
390.61	149.79
390.81	187.24
391.00	205.97
391.19	231.71
391.39	100.64
391.58	227.03
391.78	121.71
391.97	149.79
392.16	112.35
392.36	152.13
392.55	166.18
392.75	107.66
392.94	126.39
393.13	67.88
393.33	173.20
393.52	173.20
393.71	191.92
393.91	175.54
394.10	128.73
394.29	196.60
394.49	196.60
394.68	93.62
394.88	196.60
395.07	191.92
395.26	187.24
395.46	166.18
395.65	234.05
395.84	238.73
396.04	201.29
396.23	131.07
396.42	166.18
396.62	138.09
396.81	98.30
397.00	100.64
397.19	203.63
397.39	145.11
397.58	229.37
397.77	224.69
397.97	152.13
398.16	220.01
398.35	222.35
398.55	234.05
398.74	252.78
398.93	238.73
399.12	238.73
399.32	217.67
399.51	189.58
399.70	262.14
399.90	306.61
400.09	243.42
400.28	245.76
400.47	161.50
400.67	168.52
400.86	271.50
401.05	234.05
401.24	301.93
401.44	250.44
401.63	273.84
401.82	203.63
402.01	280.86
402.21	220.01
402.40	222.35
402.59	191.92
402.78	290.23
402.97	175.54
403.17	173.20
403.36	304.27
403.55	234.05
403.74	175.54
403.93	344.06
404.13	327.68
404.32	355.76
404.51	360.44
404.70	325.33
404.89	273.84
405.09	245.76
405.28	236.39
405.47	266.82
405.66	315.97
405.85	273.84
406.05	175.54
406.24	210.65
406.43	241.08
406.62	294.91
406.81	234.05
407.00	231.71
407.20	241.08
407.39	250.44
407.58	278.52
407.77	245.76
407.96	278.52
408.15	376.83
408.34	348.74
408.54	292.57
408.73	327.68
408.92	337.04
409.11	236.39
409.30	287.89
409.49	250.44
409.68	229.37
409.87	259.80
410.07	236.39
410.26	290.23
410.45	297.25
410.64	287.89
410.83	224.69
411.02	290.23
411.21	248.10
411.40	196.60
411.59	301.93
411.78	276.18
411.98	224.69
412.17	327.68
412.36	280.86
412.55	252.78
412.74	243.42
412.93	332.36
413.12	250.44
413.31	257.46
413.50	327.68
413.69	271.50
413.88	320.65
414.07	283.20
414.26	285.55
414.45	243.42
414.64	229.37
414.83	337.04
415.02	278.52
415.22	320.65
415.41	301.93
415.60	234.05
415.79	290.23
415.98	308.95
416.17	301.93
416.36	325.33
416.55	259.80
416.74	259.80
416.93	271.50
417.12	311.29
417.31	234.05
417.50	308.95
417.69	264.48
417.88	198.95
418.07	245.76
418.26	231.71
418.45	238.73
418.64	372.15
418.83	315.97
419.02	276.18
419.21	259.80
419.39	280.86
419.58	266.82
419.77	337.04
419.96	273.84
420.15	252.78
420.34	287.89
420.53	325.33
420.72	301.93
420.91	351.08
421.10	334.70
421.29	318.31
421.48	306.61
421.67	327.68
421.86	337.04
422.05	262.14
422.24	217.67
422.43	278.52
422.61	266.82
422.80	255.12
422.99	322.99
423.18	306.61
423.37	269.16
423.56	299.59
423.75	339.38
423.94	290.23
424.13	344.06
424.32	266.82
424.50	292.57
424.69	205.97
424.88	297.25
425.07	355.76
425.26	229.37
425.45	313.63
425.64	318.31
425.83	285.55
426.01	285.55
426.20	337.04
426.39	259.80
426.58	273.84
426.77	278.52
426.96	315.97
427.15	262.14
427.33	322.99
427.52	320.65
427.71	264.48
427.90	360.44
428.09	313.63
428.28	315.97
428.46	304.27
428.65	294.91
428.84	278.52
429.03	285.55
429.22	266.82
429.40	203.63
429.59	271.50
429.78	236.39
429.97	259.80
430.16	201.29
430.34	194.26
430.53	168.52
430.72	278.52
430.91	262.14
431.10	311.29
431.28	294.91
431.47	360.44
431.66	327.68
431.85	294.91
432.03	308.95
432.22	271.50
432.41	322.99
432.60	273.84
432.79	365.12
432.97	315.97
433.16	297.25
433.35	290.23
433.54	238.73
433.72	372.15
433.91	257.46
434.10	255.12
434.28	346.40
434.47	306.61
434.66	348.74
434.85	297.25
435.03	416.62
435.22	833.23
435.41	1174.95
435.59	1275.59
435.78	826.21
435.97	660.03
436.16	470.45
436.34	262.14
436.53	346.40
436.72	353.42
436.90	367.46
437.09	313.63
437.28	264.48
437.46	285.55
437.65	369.80
437.84	318.31
438.02	362.78
438.21	262.14
438.40	334.70
438.58	287.89
438.77	250.44
438.96	273.84
439.14	351.08
439.33	386.19
439.52	255.12
439.70	360.44
439.89	402.57
440.08	269.16
440.26	306.61
440.45	353.42
440.63	304.27
440.82	369.80
441.01	355.76
441.19	320.65
441.38	346.40
441.57	374.49
441.75	362.78
441.94	358.10
442.12	341.72
442.31	423.64
442.50	313.63
442.68	388.53
442.87	348.74
443.05	311.29
443.24	388.53
443.43	311.29
443.61	369.80
443.80	395.55
443.98	376.83
444.17	351.08
444.35	351.08
444.54	379.17
444.73	379.17
444.91	344.06
445.10	294.91
445.28	339.38
445.47	311.29
445.65	367.46
445.84	376.83
446.02	376.83
446.21	365.12
446.39	353.42
446.58	367.46
446.77	397.89
446.95	372.15
447.14	332.36
447.32	381.51
447.51	358.10
447.69	290.23
447.88	421.30
448.06	383.85
448.25	304.27
448.43	332.36
448.62	339.38
448.80	379.17
448.99	437.68
449.17	383.85
449.36	334.70
449.54	372.15
449.73	388.53
449.91	414.27
450.10	397.89
450.28	484.49
450.46	444.70
450.65	451.72
450.83	421.30
451.02	393.21
451.20	435.34
451.39	337.04
451.57	414.27
451.76	318.31
451.94	372.15
452.13	400.23
452.31	386.19
452.49	390.87
452.68	313.63
452.86	383.85
453.05	425.98
453.23	290.23
453.42	404.91
453.60	402.57
453.78	425.98
453.97	374.49
454.15	369.80
454.34	308.95
454.52	348.74
454.70	440.02
454.89	372.15
455.07	393.21
455.26	369.80
455.44	397.89
455.62	353.42
455.81	442.36
455.99	369.80
456.17	425.98
456.36	337.04
456.54	369.80
456.73	348.74
456.91	461.09
457.09	440.02
457.28	411.93
457.46	423.64
457.64	421.30
457.83	411.93
458.01	292.57
458.19	369.80
458.38	418.96
458.56	369.80
458.74	332.36
458.93	365.12
459.11	423.64
459.29	421.30
459.48	425.98
459.66	409.59
459.84	351.08
460.03	435.34
460.21	416.62
460.39	341.72
460.57	463.43
460.76	472.79
460.94	311.29
461.12	528.96
461.31	454.06
461.49	400.23
461.67	358.10
461.85	355.76
462.04	386.19
462.22	868.34
462.40	397.89
462.59	468.11
462.77	449.38
462.95	355.76
463.13	381.51
463.32	379.17
463.50	461.09
463.68	395.55
463.86	313.63
464.05	290.23
464.23	327.68
464.41	397.89
464.59	416.62
464.78	355.76
464.96	395.55
465.14	369.80
465.32	341.72
465.50	388.53
465.69	362.78
465.87	390.87
466.05	454.06
466.23	376.83
466.41	379.17
466.60	425.98
466.78	365.12
466.96	369.80
467.14	372.15
467.32	451.72
467.51	381.51
467.69	390.87
467.87	423.64
468.05	423.64
468.23	454.06
468.41	379.17
468.60	379.17
468.78	365.12
468.96	440.02
469.14	433.00
469.32	348.74
469.50	407.25
469.69	367.46
469.87	465.77
470.05	416.62
470.23	365.12
470.41	353.42
470.59	369.80
470.77	400.23
470.95	458.74
471.14	430.66
471.32	330.02
471.50	390.87
471.68	465.77
471.86	423.64
472.04	379.17
472.22	414.27
472.40	393.21
472.58	369.80
472.77	344.06
472.95	315.97
473.13	334.70
473.31	369.80
473.49	404.91
473.67	367.46
473.85	428.32
474.03	444.70
474.21	400.23
474.39	374.49
474.57	458.74
474.75	390.87
474.93	355.76
475.12	430.66
475.30	421.30
475.48	358.10
475.66	486.83
475.84	435.34
476.02	416.62
476.20	416.62
476.38	416.62
476.56	472.79
476.74	442.36
476.92	423.64
477.10	397.89
477.28	418.96
477.46	465.77
477.64	489.17
477.82	414.27
478.00	521.94
478.18	447.04
478.36	430.66
478.54	360.44
478.72	395.55
478.90	458.74
479.08	461.09
479.26	444.70
479.44	475.13
479.62	498.53
479.80	468.11
479.98	447.04
480.16	409.59
480.34	510.24
480.52	519.60
480.70	533.64
480.88	442.36
481.06	498.53
481.24	472.79
481.41	510.24
481.59	554.71
481.77	524.28
481.95	500.87
482.13	526.62
482.31	500.87
482.49	550.03
482.67	535.98
482.85	514.92
483.03	557.05
483.21	559.39
483.39	491.51
483.57	524.28
483.74	477.47
483.92	550.03
484.10	482.15
484.28	545.34
484.46	571.09
484.64	568.75
484.82	500.87
485.00	578.11
485.18	486.83
485.35	601.52
485.53	475.13
485.71	514.92
485.89	482.15
486.07	528.96
486.25	561.73
486.43	620.24
486.61	615.56
486.78	561.73
486.96	575.77
487.14	561.73
487.32	566.41
487.50	603.86
487.68	557.05
487.85	538.32
488.03	648.33
488.21	671.73
488.39	566.41
488.57	615.56
488.75	592.16
488.92	887.06
489.10	683.44
489.28	653.01
489.46	657.69
489.64	613.22
489.81	641.31
489.99	727.91
490.17	695.14
490.35	669.39
490.53	671.73
490.70	596.84
490.88	594.50
491.06	681.10
491.24	690.46
491.41	636.63
491.59	608.54
491.77	594.50
491.95	627.26
492.13	564.07
492.30	653.01
492.48	638.97
492.66	737.27
492.84	704.50
493.01	648.33
493.19	615.56
493.37	627.26
493.54	657.69
493.72	695.14
493.90	648.33
494.08	643.65
494.25	627.26
494.43	725.57
494.61	603.86
494.79	667.05
494.96	716.20
495.14	718.54
495.32	748.97
495.49	636.63
495.67	566.41
495.85	669.39
496.02	688.12
496.20	674.07
496.38	678.76
496.55	615.56
496.73	821.53
496.91	711.52
497.09	713.86
497.26	697.48
497.44	678.76
497.62	573.43
497.79	571.09
497.97	671.73
498.14	599.18
498.32	631.94
498.50	688.12
498.67	653.01
498.85	627.26
499.03	641.31
499.20	676.41
499.38	755.99
499.56	601.52
499.73	695.14
499.91	657.69
500.08	655.35
500.26	580.45
500.44	664.71
500.61	627.26
500.79	582.79
500.97	631.94
501.14	730.25
501.32	631.94
501.49	648.33
501.67	638.97
501.84	594.50
502.02	606.20
502.20	617.90
502.37	580.45
502.55	634.29
502.72	660.03
502.90	723.23
503.07	631.94
503.25	627.26
503.43	571.09
503.60	599.18
503.78	636.63
503.95	575.77
504.13	657.69
504.30	655.35
504.48	662.37
504.65	681.10
504.83	688.12
505.01	685.78
505.18	606.20
505.36	657.69
505.53	650.67
505.71	613.22
505.88	695.14
506.06	704.50
506.23	566.41
506.41	664.71
506.58	674.07
506.76	582.79
506.93	627.26
507.11	608.54
507.28	636.63
507.46	629.60
507.63	641.31
507.81	599.18
507.98	603.86
508.16	660.03
508.33	587.47
508.50	671.73
508.68	660.03
508.85	667.05
509.03	613.22
509.20	631.94
509.38	620.24
509.55	692.80
509.73	760.67
509.90	699.82
510.08	669.39
510.25	737.27
510.42	631.94
510.60	664.71
510.77	669.39
510.95	704.50
511.12	676.41
511.30	664.71
511.47	671.73
511.64	716.20
511.82	674.07
511.99	667.05
512.17	657.69
512.34	634.29
512.51	613.22
512.69	664.71
512.86	697.48
513.04	676.41
513.21	697.48
513.38	592.16
513.56	610.88
513.73	636.63
513.90	636.63
514.08	643.65
514.25	641.31
514.43	662.37
514.60	641.31
514.77	678.76
514.95	624.92
515.12	603.86
515.29	594.50
515.47	732.59
515.64	683.44
515.81	641.31
515.99	653.01
516.16	608.54
516.33	613.22
516.51	643.65
516.68	571.09
516.85	519.60
517.03	568.75
517.20	713.86
517.37	638.97
517.54	664.71
517.72	631.94
517.89	571.09
518.06	645.99
518.24	713.86
518.41	702.16
518.58	645.99
518.75	650.67
518.93	718.54
519.10	662.37
519.27	622.58
519.45	667.05
519.62	636.63
519.79	674.07
519.96	615.56
520.14	685.78
520.31	634.29
520.48	610.88
520.65	613.22
520.83	718.54
521.00	699.82
521.17	692.80
521.34	608.54
521.52	678.76
521.69	662.37
521.86	688.12
522.03	664.71
522.20	695.14
522.38	603.86
522.55	660.03
522.72	676.41
522.89	727.91
523.07	669.39
523.24	603.86
523.41	683.44
523.58	772.38
523.75	681.10
523.92	624.92
524.10	683.44
524.27	613.22
524.44	608.54
524.61	676.41
524.78	704.50
524.96	601.52
525.13	702.16
525.30	688.12
525.47	613.22
525.64	638.97
525.81	718.54
525.98	737.27
526.16	622.58
526.33	629.60
526.50	704.50
526.67	564.07
526.84	634.29
527.01	620.24
527.18	669.39
527.36	606.20
527.53	627.26
527.70	690.46
527.87	697.48
528.04	812.17
528.21	594.50
528.38	676.41
528.55	688.12
528.72	816.85
528.89	842.59
529.07	685.78
529.24	711.52
529.41	812.17
529.58	706.84
529.75	704.50
529.92	725.57
530.09	657.69
530.26	713.86
530.43	695.14
530.60	713.86
530.77	676.41
530.94	702.16
531.11	781.74
531.28	720.88
531.46	702.16
531.63	697.48
531.80	713.86
531.97	681.10
532.14	688.12
532.31	669.39
532.48	697.48
532.65	608.54
532.82	734.93
532.99	805.14
533.16	725.57
533.33	823.87
533.50	795.78
533.67	692.80
533.84	690.46
534.01	758.33
534.18	678.76
534.35	690.46
534.52	753.65
534.69	779.40
534.86	669.39
535.03	748.97
535.20	685.78
535.37	791.10
535.54	739.61
535.71	744.29
535.88	748.97
536.05	786.42
536.22	755.99
536.38	695.14
536.55	702.16
536.72	767.70
536.89	674.07
537.06	758.33
537.23	807.48
537.40	727.91
537.57	795.78
537.74	751.31
537.91	734.93
538.08	828.55
538.25	854.30
538.42	774.72
538.59	854.30
538.75	823.87
538.92	805.14
539.09	851.96
539.26	943.24
539.43	919.83
539.60	1022.81
539.77	922.17
539.94	919.83
540.11	1013.45
540.28	985.37
540.44	1025.15
540.61	1191.33
540.78	1097.71
540.95	1320.06
541.12	1519.01
541.29	1535.39
541.46	1598.59
541.62	1624.33
541.79	1558.80
541.96	1474.54
542.13	1460.49
542.30	1458.15
542.47	1460.49
542.63	1336.45
542.80	1348.15
542.97	1301.34
543.14	1355.17
543.31	1439.43
543.48	1364.53
543.64	1399.64
543.81	1394.96
543.98	1359.85
544.15	1376.24
544.32	1350.49
544.48	1385.60
544.65	1355.17
544.82	1317.72
544.99	1355.17
545.16	1345.81
545.32	1310.70
545.49	1893.49
545.66	2750.13
545.83	3150.36
546.00	2984.18
546.16	2169.68
546.33	1778.81
546.50	1411.34
546.67	1359.85
546.83	1186.65
547.00	1142.18
547.17	1053.24
547.34	1210.06
547.50	1137.50
547.67	1130.48
547.84	1100.05
548.00	1081.33
548.17	1128.14
548.34	1027.50
548.51	1050.90
548.67	1048.56
548.84	1043.88
549.01	997.07
549.18	1032.18
549.34	1004.09
549.51	877.70
549.68	870.68
549.84	896.43
550.01	952.60
550.18	999.41
550.34	997.07
550.51	959.62
550.68	887.06
550.84	851.96
551.01	830.89
551.18	875.36
551.34	861.32
551.51	847.27
551.68	779.40
551.84	739.61
552.01	828.55
552.18	812.17
552.34	795.78
552.51	753.65
552.68	730.25
552.84	800.46
553.01	856.64
553.18	866.00
553.34	821.53
553.51	753.65
553.67	718.54
553.84	812.17
554.01	692.80
554.17	730.25
554.34	662.37
554.51	727.91
554.67	744.29
554.84	627.26
555.00	676.41
555.17	713.86
555.33	711.52
555.50	702.16
555.67	748.97
555.83	678.76
556.00	709.18
556.16	917.49
556.33	711.52
556.50	671.73
556.66	674.07
556.83	655.35
556.99	664.71
557.16	601.52
557.32	629.60
557.49	671.73
557.65	645.99
557.82	751.31
557.98	615.56
558.15	699.82
558.32	730.25
558.48	545.34
558.65	573.43
558.81	636.63
558.98	711.52
559.14	634.29
559.31	615.56
559.47	667.05
559.64	613.22
559.80	718.54
559.97	683.44
560.13	664.71
560.30	559.39
560.46	681.10
560.63	678.76
560.79	702.16
560.96	692.80
561.12	624.92
561.29	596.84
561.45	592.16
561.61	596.84
561.78	727.91
561.94	596.84
562.11	571.09
562.27	540.66
562.44	655.35
562.60	617.90
562.77	638.97
562.93	671.73
563.10	664.71
563.26	582.79
563.42	636.63
563.59	603.86
563.75	517.26
563.92	650.67
564.08	690.46
564.24	631.94
564.41	699.82
564.57	683.44
564.74	568.75
564.90	734.93
565.07	692.80
565.23	657.69
565.39	566.41
565.56	559.39
565.72	557.05
565.88	594.50
566.05	629.60
566.21	610.88
566.38	636.63
566.54	697.48
566.70	678.76
566.87	615.56
567.03	615.56
567.19	617.90
567.36	610.88
567.52	622.58
567.68	603.86
567.85	582.79
568.01	535.98
568.17	557.05
568.34	491.51
568.50	550.03
568.66	601.52
568.83	631.94
568.99	582.79
569.15	634.29
569.32	587.47
569.48	573.43
569.64	573.43
569.81	559.39
569.97	587.47
570.13	470.45
570.30	505.56
570.46	517.26
570.62	564.07
570.78	550.03
570.95	559.39
571.11	657.69
571.27	538.32
571.43	641.31
571.60	554.71
571.76	531.30
571.92	482.15
572.09	547.69
572.25	578.11
572.41	610.88
572.57	568.75
572.74	610.88
572.90	477.47
573.06	594.50
573.22	613.22
573.38	610.88
573.55	592.16
573.71	601.52
573.87	622.58
574.03	594.50
574.20	482.15
574.36	631.94
574.52	559.39
574.68	589.82
574.84	528.96
575.01	550.03
575.17	573.43
575.33	512.58
575.49	552.37
575.65	671.73
575.82	540.66
575.98	571.09
576.14	589.82
576.30	585.13
576.46	777.06
576.62	863.66
576.79	919.83
576.95	882.38
577.11	671.73
577.27	681.10
577.43	645.99
577.59	606.20
577.75	589.82
577.92	547.69
578.08	533.64
578.24	533.64
578.40	685.78
578.56	758.33
578.72	954.94
578.88	933.87
579.04	847.27
579.21	713.86
579.37	727.91
579.53	683.44
579.69	751.31
579.85	709.18
580.01	706.84
580.17	650.67
580.33	713.86
580.49	627.26
580.65	753.65
580.82	706.84
580.98	702.16
581.14	716.20
581.30	704.50
581.46	751.31
581.62	636.63
581.78	645.99
581.94	697.48
582.10	711.52
582.26	692.80
582.42	716.20
582.58	697.48
582.74	767.70
582.90	730.25
583.06	821.53
583.22	704.50
583.38	746.63
583.54	791.10
583.70	685.78
583.86	645.99
584.02	711.52
584.18	748.97
584.34	699.82
584.50	744.29
584.66	748.97
584.82	737.27
584.98	655.35
585.14	725.57
585.30	704.50
585.46	662.37
585.62	744.29
585.78	589.82
585.94	674.07
586.10	627.26
586.26	629.60
586.42	793.44
586.58	798.12
586.74	770.04
586.90	931.53
587.06	863.66
587.22	891.74
587.38	880.04
587.54	772.38
587.70	667.05
587.86	657.69
588.02	676.41
588.18	664.71
588.34	613.22
588.49	566.41
588.65	543.00
588.81	543.00
588.97	479.81
589.13	543.00
589.29	510.24
589.45	608.54
589.61	524.28
589.77	580.45
589.93	543.00
590.08	592.16
590.24	498.53
590.40	603.86
590.56	608.54
590.72	575.77
590.88	674.07
591.04	587.47
591.20	603.86
591.35	622.58
591.51	613.22
591.67	645.99
591.83	521.94
591.99	589.82
592.15	692.80
592.31	706.84
592.46	737.27
592.62	674.07
592.78	657.69
592.94	774.72
593.10	699.82
593.26	678.76
593.41	667.05
593.57	610.88
593.73	589.82
593.89	601.52
594.05	533.64
594.20	545.34
594.36	496.19
594.52	608.54
594.68	519.60
594.84	500.87
594.99	540.66
595.15	470.45
595.31	580.45
595.47	615.56
595.62	517.26
595.78	589.82
595.94	528.96
596.10	561.73
596.25	587.47
596.41	524.28
596.57	589.82
596.73	519.60
596.88	599.18
597.04	475.13
597.20	461.09
597.36	571.09
597.51	543.00
597.67	524.28
597.83	559.39
597.99	622.58
598.14	547.69
598.30	641.31
598.46	594.50
598.61	636.63
598.77	641.31
598.93	582.79
599.09	655.35
599.24	594.50
599.40	678.76
599.56	641.31
599.71	645.99
599.87	615.56
600.03	645.99
600.18	601.52
600.34	578.11
600.50	547.69
600.65	564.07
600.81	638.97
600.97	493.85
601.12	524.28
601.28	510.24
601.44	589.82
601.59	500.87
601.75	507.90
601.91	531.30
602.06	512.58
602.22	648.33
602.37	503.22
602.53	475.13
602.69	538.32
602.84	554.71
603.00	578.11
603.16	643.65
603.31	594.50
603.47	538.32
603.62	458.74
603.78	582.79
603.94	524.28
604.09	498.53
604.25	554.71
604.40	596.84
604.56	528.96
604.71	505.56
604.87	517.26
605.03	554.71
605.18	468.11
605.34	573.43
605.49	521.94
605.65	545.34
605.80	503.22
605.96	545.34
606.12	580.45
606.27	543.00
606.43	449.38
606.58	582.79
606.74	568.75
606.89	580.45
607.05	533.64
607.20	500.87
607.36	650.67
607.51	493.85
607.67	566.41
607.82	622.58
607.98	685.78
608.13	613.22
608.29	688.12
608.44	676.41
608.60	664.71
608.75	709.18
608.91	777.06
609.06	770.04
609.22	737.27
609.37	786.42
609.53	870.68
609.68	919.83
609.84	947.92
609.99	964.30
610.15	1118.78
