SpectraSuite Data File
++++++++++++++++++++++++++++++++++++
Date: Fri Oct 04 11:42:18 GMT-05:00 2013
User: price-jones
Dark Spectrum Present: No
Reference Spectrum Present: No
Number of Sampled Component Spectra: 1
Spectrometers: USB2+H05261
Integration Time (usec): 100000 (USB2+H05261)
Spectra Averaged: 1 (USB2+H05261)
Boxcar Smoothing: 0 (USB2+H05261)
Correct for Electrical Dark: No (USB2+H05261)
Strobe/Lamp Enabled: No (USB2+H05261)
Correct for Detector Non-linearity: No (USB2+H05261)
Correct for Stray Light: No (USB2+H05261)
Number of Pixels in Processed Spectrum: 2048
>>>>>Begin Processed Spectral Data<<<<<
365.73	67.88
365.92	67.88
366.12	67.88
366.32	0.00
366.52	0.00
366.72	18.72
366.91	0.00
367.11	0.00
367.31	0.00
367.51	0.00
367.70	0.00
367.90	0.00
368.10	0.00
368.30	0.00
368.49	0.00
368.69	0.00
368.89	0.00
369.09	0.00
369.28	0.00
369.48	0.00
369.68	28.09
369.87	4.68
370.07	0.00
370.27	23.41
370.47	35.11
370.66	65.54
370.86	49.15
371.06	100.64
371.25	67.88
371.45	74.90
371.65	77.24
371.84	28.09
372.04	2.34
372.24	98.30
372.44	119.37
372.63	30.43
372.83	142.77
373.03	138.09
373.22	105.32
373.42	79.58
373.62	77.24
373.81	126.39
374.01	145.11
374.21	126.39
374.40	168.52
374.60	187.24
374.79	140.43
374.99	51.49
375.19	131.07
375.38	128.73
375.58	133.41
375.78	149.79
375.97	117.03
376.17	147.45
376.37	88.94
376.56	70.22
376.76	79.58
376.95	93.62
377.15	112.35
377.35	145.11
377.54	119.37
377.74	72.56
377.93	112.35
378.13	138.09
378.33	177.88
378.52	177.88
378.72	191.92
378.91	135.75
379.11	110.01
379.31	133.41
379.50	156.82
379.70	135.75
379.89	180.22
380.09	53.83
380.28	117.03
380.48	119.37
380.68	67.88
380.87	163.84
381.07	215.33
381.26	163.84
381.46	177.88
381.65	121.71
381.85	180.22
382.04	166.18
382.24	152.13
382.43	145.11
382.63	117.03
382.83	138.09
383.02	177.88
383.22	180.22
383.41	110.01
383.61	133.41
383.80	105.32
384.00	147.45
384.19	133.41
384.39	119.37
384.58	135.75
384.78	142.77
384.97	81.92
385.17	138.09
385.36	84.26
385.56	159.16
385.75	175.54
385.95	182.56
386.14	161.50
386.34	93.62
386.53	124.05
386.72	37.45
386.92	98.30
387.11	124.05
387.31	110.01
387.50	93.62
387.70	124.05
387.89	231.71
388.09	79.58
388.28	86.60
388.48	124.05
388.67	91.28
388.86	126.39
389.06	105.32
389.25	65.54
389.45	154.48
389.64	180.22
389.84	177.88
390.03	126.39
390.22	135.75
390.42	191.92
390.61	102.98
390.81	53.83
391.00	77.24
391.19	196.60
391.39	128.73
391.58	154.48
391.78	117.03
391.97	149.79
392.16	156.82
392.36	133.41
392.55	163.84
392.75	98.30
392.94	112.35
393.13	77.24
393.33	142.77
393.52	117.03
393.71	184.90
393.91	117.03
394.10	84.26
394.29	88.94
394.49	117.03
394.68	175.54
394.88	140.43
395.07	147.45
395.26	142.77
395.46	145.11
395.65	124.05
395.84	121.71
396.04	201.29
396.23	138.09
396.42	170.86
396.62	147.45
396.81	166.18
397.00	201.29
397.19	135.75
397.39	170.86
397.58	205.97
397.77	147.45
397.97	173.20
398.16	70.22
398.35	159.16
398.55	159.16
398.74	114.69
398.93	131.07
399.12	180.22
399.32	110.01
399.51	156.82
399.70	114.69
399.90	105.32
400.09	217.67
400.28	133.41
400.47	198.95
400.67	210.65
400.86	220.01
401.05	121.71
401.24	166.18
401.44	229.37
401.63	135.75
401.82	189.58
402.01	212.99
402.21	208.31
402.40	229.37
402.59	191.92
402.78	224.69
402.97	210.65
403.17	252.78
403.36	318.31
403.55	308.95
403.74	657.69
403.93	1984.77
404.13	4863.63
404.32	7524.82
404.51	6956.07
404.70	4421.27
404.89	1720.29
405.09	620.24
405.28	243.42
405.47	264.48
405.66	224.69
405.85	163.84
406.05	229.37
406.24	208.31
406.43	201.29
406.62	149.79
406.81	327.68
407.00	416.62
407.20	662.37
407.39	889.40
407.58	1146.86
407.77	840.25
407.96	531.30
408.15	283.20
408.34	250.44
408.54	168.52
408.73	166.18
408.92	161.50
409.11	182.56
409.30	177.88
409.49	142.77
409.68	152.13
409.87	229.37
410.07	135.75
410.26	149.79
410.45	278.52
410.64	259.80
410.83	238.73
411.02	170.86
411.21	149.79
411.40	208.31
411.59	173.20
411.78	152.13
411.98	231.71
412.17	215.33
412.36	231.71
412.55	187.24
412.74	266.82
412.93	212.99
413.12	215.33
413.31	283.20
413.50	238.73
413.69	227.03
413.88	301.93
414.07	283.20
414.26	231.71
414.45	252.78
414.64	224.69
414.83	266.82
415.02	217.67
415.22	290.23
415.41	266.82
415.60	196.60
415.79	210.65
415.98	222.35
416.17	191.92
416.36	231.71
416.55	229.37
416.74	301.93
416.93	322.99
417.12	341.72
417.31	220.01
417.50	264.48
417.69	339.38
417.88	205.97
418.07	229.37
418.26	257.46
418.45	142.77
418.64	266.82
418.83	255.12
419.02	330.02
419.21	299.59
419.39	294.91
419.58	241.08
419.77	234.05
419.96	311.29
420.15	313.63
420.34	238.73
420.53	299.59
420.72	271.50
420.91	360.44
421.10	229.37
421.29	374.49
421.48	301.93
421.67	257.46
421.86	257.46
422.05	306.61
422.24	318.31
422.43	276.18
422.61	306.61
422.80	229.37
422.99	234.05
423.18	269.16
423.37	280.86
423.56	255.12
423.75	339.38
423.94	255.12
424.13	334.70
424.32	245.76
424.50	348.74
424.69	280.86
424.88	287.89
425.07	330.02
425.26	358.10
425.45	358.10
425.64	306.61
425.83	332.36
426.01	367.46
426.20	327.68
426.39	374.49
426.58	353.42
426.77	353.42
426.96	388.53
427.15	332.36
427.33	339.38
427.52	299.59
427.71	362.78
427.90	355.76
428.09	315.97
428.28	332.36
428.46	376.83
428.65	334.70
428.84	465.77
429.03	449.38
429.22	358.10
429.40	369.80
429.59	311.29
429.78	430.66
429.97	344.06
430.16	327.68
430.34	348.74
430.53	313.63
430.72	411.93
430.91	376.83
431.10	360.44
431.28	381.51
431.47	489.17
431.66	465.77
431.85	404.91
432.03	411.93
432.22	557.05
432.41	444.70
432.60	554.71
432.79	496.19
432.97	524.28
433.16	543.00
433.35	573.43
433.54	716.20
433.72	704.50
433.91	627.26
434.10	681.10
434.28	903.45
434.47	1081.33
434.66	1078.99
434.85	1380.92
435.03	3353.99
435.22	12418.88
435.41	30728.89
435.59	37699.01
435.78	24587.33
435.97	11761.19
436.16	4582.77
436.34	1572.84
436.53	919.83
436.72	730.25
436.90	685.78
437.09	596.84
437.28	622.58
437.46	540.66
437.65	524.28
437.84	496.19
438.02	535.98
438.21	493.85
438.40	510.24
438.58	486.83
438.77	526.62
438.96	486.83
439.14	507.90
439.33	470.45
439.52	463.43
439.70	510.24
439.89	477.47
440.08	470.45
440.26	543.00
440.45	524.28
440.63	444.70
440.82	503.22
441.01	512.58
441.19	433.00
441.38	484.49
441.57	484.49
441.75	479.81
441.94	493.85
442.12	512.58
442.31	458.74
442.50	416.62
442.68	454.06
442.87	458.74
443.05	440.02
443.24	524.28
443.43	503.22
443.61	521.94
443.80	472.79
443.98	486.83
444.17	425.98
444.35	507.90
444.54	456.40
444.73	451.72
444.91	500.87
445.10	430.66
445.28	423.64
445.47	521.94
445.65	416.62
445.84	440.02
446.02	503.22
446.21	468.11
446.39	402.57
446.58	491.51
446.77	489.17
446.95	479.81
447.14	514.92
447.32	365.12
447.51	454.06
447.69	433.00
447.88	407.25
448.06	543.00
448.25	449.38
448.43	484.49
448.62	517.26
448.80	477.47
448.99	456.40
449.17	435.34
449.36	423.64
449.54	472.79
449.73	503.22
449.91	510.24
450.10	475.13
450.28	550.03
450.46	531.30
450.65	531.30
450.83	449.38
451.02	465.77
451.20	430.66
451.39	449.38
451.57	477.47
451.76	463.43
451.94	418.96
452.13	512.58
452.31	505.56
452.49	512.58
452.68	463.43
452.86	482.15
453.05	545.34
453.23	491.51
453.42	465.77
453.60	456.40
453.78	531.30
453.97	475.13
454.15	367.46
454.34	444.70
454.52	491.51
454.70	528.96
454.89	440.02
455.07	454.06
455.26	456.40
455.44	557.05
455.62	449.38
455.81	484.49
455.99	454.06
456.17	463.43
456.36	409.59
456.54	416.62
456.73	491.51
456.91	470.45
457.09	512.58
457.28	470.45
457.46	451.72
457.64	479.81
457.83	463.43
458.01	433.00
458.19	482.15
458.38	449.38
458.56	472.79
458.74	477.47
458.93	578.11
459.11	449.38
459.29	430.66
459.48	512.58
459.66	514.92
459.84	456.40
460.03	519.60
460.21	505.56
460.39	400.23
460.57	463.43
460.76	491.51
460.94	510.24
461.12	540.66
461.31	458.74
461.49	465.77
461.67	383.85
461.85	425.98
462.04	447.04
462.22	624.92
462.40	451.72
462.59	561.73
462.77	379.17
462.95	528.96
463.13	486.83
463.32	482.15
463.50	477.47
463.68	528.96
463.86	411.93
464.05	449.38
464.23	526.62
464.41	416.62
464.59	479.81
464.78	507.90
464.96	550.03
465.14	425.98
465.32	463.43
465.50	449.38
465.69	456.40
465.87	456.40
466.05	479.81
466.23	435.34
466.41	444.70
466.60	496.19
466.78	482.15
466.96	470.45
467.14	437.68
467.32	489.17
467.51	519.60
467.69	463.43
467.87	477.47
468.05	423.64
468.23	550.03
468.41	456.40
468.60	444.70
468.78	416.62
468.96	428.32
469.14	386.19
469.32	463.43
469.50	477.47
469.69	484.49
469.87	449.38
470.05	461.09
470.23	456.40
470.41	430.66
470.59	430.66
470.77	451.72
470.95	449.38
471.14	423.64
471.32	442.36
471.50	479.81
471.68	423.64
471.86	500.87
472.04	402.57
472.22	437.68
472.40	379.17
472.58	418.96
472.77	489.17
472.95	330.02
473.13	411.93
473.31	458.74
473.49	444.70
473.67	486.83
473.85	409.59
474.03	503.22
474.21	465.77
474.39	470.45
474.57	470.45
474.75	435.34
474.93	397.89
475.12	421.30
475.30	414.27
475.48	486.83
475.66	430.66
475.84	376.83
476.02	381.51
476.20	376.83
476.38	437.68
476.56	557.05
476.74	489.17
476.92	451.72
477.10	435.34
477.28	489.17
477.46	521.94
477.64	475.13
477.82	496.19
478.00	531.30
478.18	545.34
478.36	437.68
478.54	575.77
478.72	503.22
478.90	496.19
479.08	491.51
479.26	610.88
479.44	526.62
479.62	561.73
479.80	601.52
479.98	615.56
480.16	610.88
480.34	657.69
480.52	657.69
480.70	755.99
480.88	678.76
481.06	748.97
481.24	657.69
481.41	823.87
481.59	840.25
481.77	931.53
481.95	1004.09
482.13	1027.50
482.31	1123.46
482.49	1036.86
482.67	1266.23
482.85	1259.21
483.03	1453.47
483.21	1490.92
483.39	1549.43
483.57	1633.69
483.74	1776.47
483.92	1881.79
484.10	1996.48
484.28	2019.88
484.46	2282.02
484.64	2356.92
484.82	2363.94
485.00	2490.33
485.18	2822.69
485.35	2972.48
485.53	2972.48
485.71	3096.53
485.89	3234.62
486.07	3335.26
486.25	3316.54
486.43	3290.79
486.61	3424.20
486.78	3379.73
486.96	3342.28
487.14	3283.77
487.32	3351.65
487.50	3279.09
487.68	3239.30
487.85	3246.32
488.03	3283.77
488.21	3309.52
488.39	3056.74
488.57	3059.08
488.75	3007.59
488.92	3304.84
489.10	2733.75
489.28	2733.75
489.46	2726.72
489.64	2581.61
489.81	2567.57
489.99	2605.02
490.17	2495.01
490.35	2483.31
490.53	2532.46
490.70	2537.14
490.88	2495.01
491.06	2733.75
491.24	2799.28
491.41	2857.79
491.59	2689.28
491.77	2459.90
491.95	2361.60
492.13	2181.38
492.30	2260.96
492.48	2256.28
492.66	2317.13
492.84	2183.72
493.01	2183.72
493.19	2136.91
493.37	2211.81
493.54	2141.59
493.72	2172.02
493.90	1991.80
494.08	1863.07
494.25	2024.56
494.43	1987.11
494.61	2010.52
494.79	1830.30
494.96	1844.34
495.14	1811.57
495.32	1830.30
495.49	1734.34
495.67	1713.27
495.85	1741.36
496.02	1633.69
496.20	1689.87
496.38	1596.25
496.55	1607.95
496.73	1621.99
496.91	1586.88
497.09	1544.75
497.26	1568.16
497.44	1490.92
497.62	1556.46
497.79	1394.96
497.97	1451.13
498.14	1521.35
498.32	1385.60
498.50	1322.40
498.67	1301.34
498.85	1242.82
499.03	1287.29
499.20	1165.59
499.38	1170.27
499.56	1179.63
499.73	1224.10
499.91	1203.04
500.08	1097.71
500.26	1062.60
500.44	1015.79
500.61	1013.45
500.79	978.34
500.97	985.37
501.14	952.60
501.32	877.70
501.49	854.30
501.67	816.85
501.84	819.19
502.02	826.21
502.20	851.96
502.37	781.74
502.55	772.38
502.72	734.93
502.90	744.29
503.07	697.48
503.25	697.48
503.43	645.99
503.60	667.05
503.78	699.82
503.95	624.92
504.13	631.94
504.30	636.63
504.48	596.84
504.65	641.31
504.83	594.50
505.01	587.47
505.18	589.82
505.36	662.37
505.53	578.11
505.71	533.64
505.88	526.62
506.06	447.04
506.23	524.28
506.41	524.28
506.58	482.15
506.76	531.30
506.93	519.60
507.11	468.11
507.28	447.04
507.46	489.17
507.63	521.94
507.81	440.02
507.98	503.22
508.16	491.51
508.33	493.85
508.50	531.30
508.68	461.09
508.85	482.15
509.03	514.92
509.20	496.19
509.38	585.13
509.55	517.26
509.73	444.70
509.90	463.43
510.08	390.87
510.25	477.47
510.42	463.43
510.60	435.34
510.77	512.58
510.95	435.34
511.12	456.40
511.30	477.47
511.47	456.40
511.64	444.70
511.82	449.38
511.99	475.13
512.17	362.78
512.34	376.83
512.51	390.87
512.69	388.53
512.86	486.83
513.04	454.06
513.21	437.68
513.38	470.45
513.56	433.00
513.73	486.83
513.90	402.57
514.08	496.19
514.25	486.83
514.43	451.72
514.60	299.59
514.77	421.30
514.95	442.36
515.12	365.12
515.29	411.93
515.47	374.49
515.64	367.46
515.81	423.64
515.99	493.85
516.16	421.30
516.33	400.23
516.51	397.89
516.68	416.62
516.85	451.72
517.03	411.93
517.20	348.74
517.37	414.27
517.54	407.25
517.72	397.89
517.89	287.89
518.06	341.72
518.24	390.87
518.41	503.22
518.58	435.34
518.75	435.34
518.93	325.33
519.10	402.57
519.27	339.38
519.45	381.51
519.62	353.42
519.79	360.44
519.96	447.04
520.14	351.08
520.31	376.83
520.48	372.15
520.65	386.19
520.83	395.55
521.00	376.83
521.17	285.55
521.34	440.02
521.52	292.57
521.69	397.89
521.86	465.77
522.03	407.25
522.20	503.22
522.38	430.66
522.55	393.21
522.72	458.74
522.89	397.89
523.07	393.21
523.24	402.57
523.41	395.55
523.58	433.00
523.75	386.19
523.92	327.68
524.10	388.53
524.27	353.42
524.44	341.72
524.61	463.43
524.78	306.61
524.96	411.93
525.13	369.80
525.30	451.72
525.47	433.00
525.64	402.57
525.81	402.57
525.98	416.62
526.16	454.06
526.33	337.04
526.50	395.55
526.67	334.70
526.84	390.87
527.01	449.38
527.18	521.94
527.36	493.85
527.53	524.28
527.70	477.47
527.87	404.91
528.04	512.58
528.21	505.56
528.38	482.15
528.55	505.56
528.72	437.68
528.89	533.64
529.07	498.53
529.24	468.11
529.41	526.62
529.58	519.60
529.75	547.69
529.92	493.85
530.09	578.11
530.26	482.15
530.43	524.28
530.60	503.22
530.77	589.82
530.94	550.03
531.11	585.13
531.28	601.52
531.46	662.37
531.63	643.65
531.80	734.93
531.97	760.67
532.14	856.64
532.31	940.90
532.48	1036.86
532.65	1282.61
532.82	1401.98
532.99	1666.46
533.16	1830.30
533.33	2078.40
533.50	1886.47
533.67	1621.99
533.84	1458.15
534.01	1280.27
534.18	1114.10
534.35	1207.72
534.52	1273.25
534.69	1242.82
534.86	1266.23
535.03	1259.21
535.20	1350.49
535.37	1451.13
535.54	1568.16
535.71	1614.97
535.88	1710.93
536.05	1708.59
536.22	1907.54
536.38	1973.07
536.55	2267.98
536.72	2429.48
536.89	2750.13
537.06	3098.87
537.23	3428.88
537.40	3625.49
537.57	3974.23
537.74	4177.86
537.91	4414.25
538.08	4344.03
538.25	4507.87
538.42	4575.75
538.59	4676.39
538.75	4755.97
538.92	5090.67
539.09	5481.53
539.26	6054.97
539.43	6956.07
539.60	7793.98
539.77	8910.42
539.94	9703.86
540.11	10850.72
540.28	11978.86
540.44	13186.58
540.61	14539.41
540.78	16430.56
540.95	19714.33
541.12	23917.93
541.29	27119.79
541.46	28622.41
541.62	28458.57
541.79	27625.34
541.96	25694.40
542.13	23316.42
542.30	21855.92
542.47	21062.48
542.63	19625.39
542.80	19108.13
542.97	18707.90
543.14	18569.81
543.31	18284.26
543.48	18565.13
543.64	18909.19
543.81	18618.96
543.98	19232.18
544.15	19281.33
544.32	19412.40
544.48	19126.86
544.65	18834.29
544.82	19126.86
544.99	19016.85
545.16	19433.47
545.32	20166.06
545.49	31969.38
545.66	54396.39
545.83	63061.05
546.00	60615.19
546.16	47112.64
546.33	34129.69
546.50	25476.73
546.67	20056.05
546.83	17561.04
547.00	16407.16
547.17	15925.00
547.34	15246.25
547.50	14810.91
547.67	14207.05
547.84	13380.84
548.00	12884.65
548.17	12592.08
548.34	11740.13
548.51	11550.54
548.67	11143.29
548.84	10518.37
549.01	10019.83
549.18	9493.21
549.34	9334.06
549.51	8784.03
549.68	8617.85
549.84	8334.65
550.01	7655.89
550.18	7229.91
550.34	7197.15
550.51	6860.11
550.68	6417.75
550.84	5921.56
551.01	5863.04
551.18	5469.83
551.34	5228.76
551.51	4985.34
551.68	4744.27
551.84	4685.75
552.01	4486.81
552.18	4437.66
552.34	4086.58
552.51	3997.64
552.68	3772.94
552.84	3557.61
553.01	3552.93
553.18	3426.54
553.34	3293.13
553.51	3199.51
553.67	3105.89
553.84	2988.86
554.01	2731.41
554.17	2717.36
554.34	2499.69
554.51	2408.41
554.67	2193.08
554.84	2104.14
555.00	1970.73
555.17	1806.89
555.33	1827.96
555.50	1706.25
555.67	1631.35
555.83	1523.69
556.00	1486.24
556.16	1596.25
556.33	1493.26
556.50	1383.26
556.66	1322.40
556.83	1242.82
556.99	1137.50
557.16	1329.42
557.32	1177.29
557.49	1095.37
557.65	1090.69
557.82	1139.84
557.98	1086.01
558.15	980.68
558.32	987.71
558.48	945.58
558.65	1034.52
558.81	931.53
558.98	877.70
559.14	926.85
559.31	873.02
559.47	880.04
559.64	884.72
559.80	882.38
559.97	898.77
560.13	840.25
560.30	954.94
560.46	854.30
560.63	856.64
560.79	746.63
560.96	877.70
561.12	788.76
561.29	826.21
561.45	805.14
561.61	798.12
561.78	800.46
561.94	770.04
562.11	793.44
562.27	737.27
562.44	828.55
562.60	755.99
562.77	882.38
562.93	973.66
563.10	786.42
563.26	690.46
563.42	812.17
563.59	678.76
563.75	751.31
563.92	784.08
564.08	704.50
564.24	718.54
564.41	734.93
564.57	667.05
564.74	702.16
564.90	667.05
565.07	681.10
565.23	664.71
565.39	660.03
565.56	620.24
565.72	634.29
565.88	638.97
566.05	648.33
566.21	627.26
566.38	599.18
566.54	587.47
566.70	718.54
566.87	620.24
567.03	622.58
567.19	678.76
567.36	662.37
567.52	613.22
567.68	674.07
567.85	634.29
568.01	674.07
568.17	634.29
568.34	713.86
568.50	685.78
568.66	629.60
568.83	667.05
568.99	657.69
569.15	655.35
569.32	702.16
569.48	524.28
569.64	500.87
569.81	585.13
569.97	561.73
570.13	601.52
570.30	472.79
570.46	416.62
570.62	528.96
570.78	468.11
570.95	470.45
571.11	540.66
571.27	489.17
571.43	500.87
571.60	503.22
571.76	470.45
571.92	400.23
572.09	454.06
572.25	554.71
572.41	465.77
572.57	411.93
572.74	512.58
572.90	528.96
573.06	491.51
573.22	521.94
573.38	524.28
573.55	533.64
573.71	587.47
573.87	554.71
574.03	510.24
574.20	528.96
574.36	704.50
574.52	650.67
574.68	660.03
574.84	667.05
575.01	681.10
575.17	690.46
575.33	702.16
575.49	809.83
575.65	805.14
575.82	833.23
575.98	997.07
576.14	1048.56
576.30	1844.34
576.46	5856.02
576.62	11508.41
576.79	14813.25
576.95	10483.26
577.11	6546.48
577.27	4613.20
577.43	3218.24
577.59	1959.03
577.75	1537.73
577.92	1397.30
578.08	1366.87
578.24	1364.53
578.40	2176.70
578.56	5802.19
578.72	11330.53
578.88	13699.16
579.04	10052.60
579.21	6382.64
579.37	4634.26
579.53	3602.08
579.69	3356.33
579.85	4259.78
580.01	5076.62
580.17	4968.96
580.33	4093.60
580.49	3585.70
580.65	3288.45
580.82	2904.60
580.98	2862.48
581.14	2810.98
581.30	3075.46
581.46	3089.51
581.62	3396.12
581.78	3693.37
581.94	4077.21
582.10	4072.53
582.26	4463.40
582.42	4491.49
582.58	4669.37
582.74	4741.93
582.90	4786.40
583.06	4819.16
583.22	4959.60
583.38	4704.48
583.54	4795.76
583.70	4779.37
583.86	4753.63
584.02	4758.31
584.18	4606.17
584.34	4404.89
584.50	4463.40
584.66	4322.97
584.82	4189.56
584.98	4365.10
585.14	4168.49
585.30	4187.22
585.46	4028.06
585.62	3854.86
585.78	3906.35
585.94	4032.74
586.10	4107.64
586.26	4397.87
586.42	4980.66
586.58	5865.38
586.74	6946.71
586.90	8491.46
587.06	9631.30
587.22	9497.89
587.38	8351.03
587.54	7290.77
587.70	6155.61
587.86	5170.24
588.02	4493.83
588.18	4011.68
588.34	3648.90
588.49	3180.79
588.65	3016.95
588.81	2972.48
588.97	2801.62
589.13	2782.90
589.29	2736.09
589.45	2569.91
589.61	2588.63
589.77	2623.74
589.93	2785.24
590.08	2822.69
590.24	2782.90
590.40	2963.12
590.56	3026.31
590.72	3054.40
590.88	3211.22
591.04	3267.39
591.20	3445.27
591.35	3574.00
591.51	3548.25
591.67	3920.40
591.83	4074.87
591.99	4262.12
592.15	4880.02
592.31	5219.39
592.46	5603.24
592.62	6008.16
592.78	6567.54
592.94	6710.32
593.10	6520.73
593.26	6492.65
593.41	6043.26
593.57	5357.49
593.73	4786.40
593.89	4145.09
594.05	3772.94
594.20	3316.54
594.36	3014.61
594.52	2813.32
594.68	2761.83
594.84	2504.37
594.99	2525.44
595.15	2506.71
595.31	2534.80
595.47	2504.37
595.62	2387.35
595.78	2326.49
595.94	2399.05
596.10	2457.56
596.25	2448.20
596.41	2511.39
596.57	2417.77
596.73	2389.69
596.88	2373.30
597.04	2401.39
597.20	2436.50
597.36	2647.15
597.51	2679.91
597.67	2663.53
597.83	2780.56
597.99	2829.71
598.14	3056.74
598.30	3288.45
598.46	3227.60
598.61	3609.11
598.77	3728.47
598.93	3985.93
599.09	4077.21
599.24	4030.40
599.40	4121.68
599.56	3915.72
599.71	3744.86
599.87	3705.07
600.03	3438.25
600.18	3300.16
600.34	2988.86
600.50	2717.36
600.65	2520.76
600.81	2553.52
600.97	2373.30
601.12	2230.53
601.28	2143.93
601.44	1937.96
601.59	2062.01
601.75	1888.81
601.91	1827.96
602.06	1748.38
602.22	1703.91
602.37	1579.86
602.53	1631.35
602.69	1586.88
602.84	1659.44
603.00	1577.52
603.16	1519.01
603.31	1682.85
603.47	1673.48
603.62	1675.82
603.78	1678.16
603.94	1858.39
604.09	1664.12
604.25	1832.64
604.40	1891.15
604.56	1727.32
604.71	1893.49
604.87	1895.83
605.03	1912.22
605.18	2059.67
