SpectraSuite Data File
++++++++++++++++++++++++++++++++++++
Date: Fri Oct 04 11:41:49 GMT-05:00 2013
User: price-jones
Dark Spectrum Present: No
Reference Spectrum Present: No
Number of Sampled Component Spectra: 1
Spectrometers: USB2+H05261
Integration Time (usec): 100000 (USB2+H05261)
Spectra Averaged: 1 (USB2+H05261)
Boxcar Smoothing: 0 (USB2+H05261)
Correct for Electrical Dark: No (USB2+H05261)
Strobe/Lamp Enabled: No (USB2+H05261)
Correct for Detector Non-linearity: No (USB2+H05261)
Correct for Stray Light: No (USB2+H05261)
Number of Pixels in Processed Spectrum: 2048
>>>>>Begin Processed Spectral Data<<<<<
365.73	67.88
365.92	67.88
366.12	67.88
366.32	0.00
366.52	0.00
366.72	0.00
366.91	18.72
367.11	0.00
367.31	0.00
367.51	0.00
367.70	0.00
367.90	32.77
368.10	0.00
368.30	0.00
368.49	0.00
368.69	0.00
368.89	0.00
369.09	0.00
369.28	0.00
369.48	0.00
369.68	0.00
369.87	0.00
370.07	14.04
370.27	11.70
370.47	2.34
370.66	46.81
370.86	72.56
371.06	100.64
371.25	117.03
371.45	21.06
371.65	105.32
371.84	67.88
372.04	119.37
372.24	152.13
372.44	121.71
372.63	117.03
372.83	201.29
373.03	138.09
373.22	46.81
373.42	81.92
373.62	110.01
373.81	131.07
374.01	154.48
374.21	194.26
374.40	147.45
374.60	135.75
374.79	173.20
374.99	163.84
375.19	114.69
375.38	159.16
375.58	159.16
375.78	248.10
375.97	112.35
376.17	131.07
376.37	98.30
376.56	138.09
376.76	161.50
376.95	126.39
377.15	175.54
377.35	182.56
377.54	117.03
377.74	74.90
377.93	112.35
378.13	121.71
378.33	133.41
378.52	126.39
378.72	173.20
378.91	140.43
379.11	65.54
379.31	149.79
379.50	91.28
379.70	142.77
379.89	124.05
380.09	117.03
380.28	114.69
380.48	102.98
380.68	65.54
380.87	95.96
381.07	189.58
381.26	250.44
381.46	180.22
381.65	124.05
381.85	149.79
382.04	159.16
382.24	114.69
382.43	184.90
382.63	159.16
382.83	51.49
383.02	163.84
383.22	131.07
383.41	79.58
383.61	201.29
383.80	124.05
384.00	170.86
384.19	98.30
384.39	44.47
384.58	114.69
384.78	112.35
384.97	138.09
385.17	145.11
385.36	91.28
385.56	159.16
385.75	131.07
385.95	138.09
386.14	161.50
386.34	138.09
386.53	35.11
386.72	110.01
386.92	156.82
387.11	145.11
387.31	98.30
387.50	121.71
387.70	74.90
387.89	119.37
388.09	124.05
388.28	93.62
388.48	170.86
388.67	147.45
388.86	156.82
389.06	161.50
389.25	163.84
389.45	107.66
389.64	117.03
389.84	196.60
390.03	163.84
390.22	201.29
390.42	81.92
390.61	128.73
390.81	95.96
391.00	147.45
391.19	142.77
391.39	135.75
391.58	154.48
391.78	67.88
391.97	126.39
392.16	105.32
392.36	182.56
392.55	191.92
392.75	163.84
392.94	84.26
393.13	163.84
393.33	44.47
393.52	152.13
393.71	184.90
393.91	154.48
394.10	79.58
394.29	149.79
394.49	63.19
394.68	180.22
394.88	161.50
395.07	201.29
395.26	133.41
395.46	114.69
395.65	142.77
395.84	159.16
396.04	140.43
396.23	114.69
396.42	100.64
396.62	138.09
396.81	102.98
397.00	142.77
397.19	156.82
397.39	159.16
397.58	208.31
397.77	95.96
397.97	152.13
398.16	159.16
398.35	138.09
398.55	159.16
398.74	95.96
398.93	110.01
399.12	86.60
399.32	84.26
399.51	72.56
399.70	138.09
399.90	184.90
400.09	175.54
400.28	180.22
400.47	107.66
400.67	95.96
400.86	112.35
401.05	168.52
401.24	259.80
401.44	227.03
401.63	205.97
401.82	154.48
402.01	117.03
402.21	135.75
402.40	184.90
402.59	184.90
402.78	196.60
402.97	138.09
403.17	238.73
403.36	299.59
403.55	353.42
403.74	819.19
403.93	2319.47
404.13	5736.65
404.32	8821.48
404.51	8535.93
404.70	5483.88
404.89	2022.22
405.09	610.88
405.28	271.50
405.47	294.91
405.66	168.52
405.85	238.73
406.05	243.42
406.24	278.52
406.43	250.44
406.62	177.88
406.81	348.74
407.00	395.55
407.20	671.73
407.39	1100.05
407.58	1320.06
407.77	964.30
407.96	610.88
408.15	315.97
408.34	208.31
408.54	205.97
408.73	203.63
408.92	208.31
409.11	220.01
409.30	152.13
409.49	217.67
409.68	159.16
409.87	322.99
410.07	191.92
410.26	248.10
410.45	203.63
410.64	208.31
410.83	220.01
411.02	175.54
411.21	271.50
411.40	189.58
411.59	166.18
411.78	194.26
411.98	264.48
412.17	205.97
412.36	262.14
412.55	245.76
412.74	196.60
412.93	238.73
413.12	259.80
413.31	241.08
413.50	201.29
413.69	229.37
413.88	220.01
414.07	259.80
414.26	212.99
414.45	227.03
414.64	241.08
414.83	212.99
415.02	306.61
415.22	339.38
415.41	308.95
415.60	227.03
415.79	161.50
415.98	301.93
416.17	301.93
416.36	248.10
416.55	299.59
416.74	299.59
416.93	255.12
417.12	269.16
417.31	292.57
417.50	245.76
417.69	325.33
417.88	245.76
418.07	287.89
418.26	320.65
418.45	339.38
418.64	304.27
418.83	280.86
419.02	320.65
419.21	287.89
419.39	231.71
419.58	287.89
419.77	238.73
419.96	376.83
420.15	299.59
420.34	376.83
420.53	252.78
420.72	390.87
420.91	276.18
421.10	395.55
421.29	369.80
421.48	332.36
421.67	313.63
421.86	273.84
422.05	304.27
422.24	304.27
422.43	327.68
422.61	362.78
422.80	320.65
422.99	402.57
423.18	334.70
423.37	444.70
423.56	278.52
423.75	276.18
423.94	332.36
424.13	358.10
424.32	351.08
424.50	346.40
424.69	283.20
424.88	346.40
425.07	355.76
425.26	353.42
425.45	351.08
425.64	358.10
425.83	358.10
426.01	463.43
426.20	308.95
426.39	334.70
426.58	341.72
426.77	388.53
426.96	330.02
427.15	376.83
427.33	311.29
427.52	411.93
427.71	337.04
427.90	414.27
428.09	440.02
428.28	433.00
428.46	360.44
428.65	407.25
428.84	365.12
429.03	381.51
429.22	388.53
429.40	468.11
429.59	334.70
429.78	472.79
429.97	346.40
430.16	428.32
430.34	411.93
430.53	404.91
430.72	409.59
430.91	463.43
431.10	437.68
431.28	437.68
431.47	463.43
431.66	444.70
431.85	461.09
432.03	435.34
432.22	596.84
432.41	547.69
432.60	582.79
432.79	433.00
432.97	528.96
433.16	566.41
433.35	627.26
433.54	699.82
433.72	744.29
433.91	786.42
434.10	765.36
434.28	1027.50
434.47	1282.61
434.66	1268.57
434.85	1612.63
435.03	3796.35
435.22	14129.81
435.41	34927.81
435.59	44453.79
435.78	30604.84
435.97	14427.06
436.16	5682.82
436.34	1825.62
436.53	1043.88
436.72	791.10
436.90	706.84
437.09	681.10
437.28	596.84
437.46	615.56
437.65	587.47
437.84	638.97
438.02	580.45
438.21	662.37
438.40	601.52
438.58	606.20
438.77	547.69
438.96	566.41
439.14	526.62
439.33	566.41
439.52	557.05
439.70	545.34
439.89	531.30
440.08	568.75
440.26	641.31
440.45	622.58
440.63	564.07
440.82	596.84
441.01	519.60
441.19	524.28
441.38	531.30
441.57	505.56
441.75	613.22
441.94	578.11
442.12	585.13
442.31	573.43
442.50	592.16
442.68	547.69
442.87	554.71
443.05	580.45
443.24	547.69
443.43	554.71
443.61	538.32
443.80	599.18
443.98	507.90
444.17	552.37
444.35	566.41
444.54	601.52
444.73	538.32
444.91	526.62
445.10	531.30
445.28	500.87
445.47	538.32
445.65	547.69
445.84	533.64
446.02	498.53
446.21	528.96
446.39	493.85
446.58	543.00
446.77	557.05
446.95	578.11
447.14	587.47
447.32	592.16
447.51	557.05
447.69	475.13
447.88	519.60
448.06	601.52
448.25	507.90
448.43	505.56
448.62	517.26
448.80	531.30
448.99	489.17
449.17	528.96
449.36	489.17
449.54	599.18
449.73	503.22
449.91	545.34
450.10	552.37
450.28	507.90
450.46	585.13
450.65	538.32
450.83	507.90
451.02	528.96
451.20	552.37
451.39	528.96
451.57	566.41
451.76	524.28
451.94	540.66
452.13	601.52
452.31	528.96
452.49	554.71
452.68	550.03
452.86	533.64
453.05	535.98
453.23	519.60
453.42	503.22
453.60	545.34
453.78	552.37
453.97	496.19
454.15	535.98
454.34	493.85
454.52	507.90
454.70	599.18
454.89	528.96
455.07	566.41
455.26	559.39
455.44	533.64
455.62	592.16
455.81	582.79
455.99	622.58
456.17	613.22
456.36	526.62
456.54	533.64
456.73	575.77
456.91	491.51
457.09	498.53
457.28	500.87
457.46	557.05
457.64	526.62
457.83	491.51
458.01	456.40
458.19	496.19
458.38	564.07
458.56	500.87
458.74	482.15
458.93	521.94
459.11	496.19
459.29	575.77
459.48	503.22
459.66	564.07
459.84	486.83
460.03	653.01
460.21	514.92
460.39	533.64
460.57	521.94
460.76	465.77
460.94	482.15
461.12	557.05
461.31	568.75
461.49	465.77
461.67	519.60
461.85	566.41
462.04	580.45
462.22	917.49
462.40	514.92
462.59	491.51
462.77	512.58
462.95	472.79
463.13	592.16
463.32	568.75
463.50	510.24
463.68	507.90
463.86	512.58
464.05	482.15
464.23	557.05
464.41	552.37
464.59	519.60
464.78	627.26
464.96	538.32
465.14	425.98
465.32	594.50
465.50	578.11
465.69	503.22
465.87	442.36
466.05	503.22
466.23	503.22
466.41	585.13
466.60	620.24
466.78	489.17
466.96	580.45
467.14	507.90
467.32	610.88
467.51	493.85
467.69	477.47
467.87	486.83
468.05	500.87
468.23	484.49
468.41	552.37
468.60	458.74
468.78	456.40
468.96	449.38
469.14	449.38
469.32	437.68
469.50	416.62
469.69	454.06
469.87	491.51
470.05	477.47
470.23	458.74
470.41	498.53
470.59	437.68
470.77	517.26
470.95	447.04
471.14	500.87
471.32	524.28
471.50	521.94
471.68	514.92
471.86	526.62
472.04	440.02
472.22	538.32
472.40	425.98
472.58	465.77
472.77	458.74
472.95	531.30
473.13	622.58
473.31	615.56
473.49	475.13
473.67	510.24
473.85	547.69
474.03	512.58
474.21	571.09
474.39	521.94
474.57	543.00
474.75	433.00
474.93	496.19
475.12	491.51
475.30	484.49
475.48	526.62
475.66	524.28
475.84	500.87
476.02	470.45
476.20	578.11
476.38	486.83
476.56	531.30
476.74	493.85
476.92	461.09
477.10	514.92
477.28	662.37
477.46	461.09
477.64	580.45
477.82	540.66
478.00	573.43
478.18	486.83
478.36	524.28
478.54	564.07
478.72	615.56
478.90	599.18
479.08	601.52
479.26	641.31
479.44	585.13
479.62	645.99
479.80	697.48
479.98	648.33
480.16	690.46
480.34	802.80
480.52	741.95
480.70	751.31
480.88	929.19
481.06	889.40
481.24	954.94
481.41	983.02
481.59	940.90
481.77	1132.82
481.95	1097.71
482.13	1158.57
482.31	1233.46
482.49	1291.98
482.67	1483.90
482.85	1516.67
483.03	1673.48
483.21	1753.06
483.39	1891.15
483.57	1792.85
483.74	2111.16
483.92	2296.07
484.10	2193.08
484.28	2457.56
484.46	2649.49
484.64	2738.43
484.82	2871.84
485.00	3014.61
485.18	3087.17
485.35	3428.88
485.53	3473.36
485.71	3763.58
485.89	3932.10
486.07	3920.40
486.25	4030.40
486.43	3934.44
486.61	3957.85
486.78	3925.08
486.96	3943.80
487.14	3960.19
487.32	3974.23
487.50	3948.48
487.68	3838.48
487.85	3936.78
488.03	3873.59
488.21	3733.15
488.39	3618.47
488.57	3679.32
488.75	3550.59
488.92	3751.88
489.10	3375.05
489.28	3304.84
489.46	3330.58
489.64	3138.66
489.81	3108.23
489.99	3049.72
490.17	2942.05
490.35	3056.74
490.53	3030.99
490.70	2932.69
490.88	3021.63
491.06	3030.99
491.24	3342.28
491.41	3676.98
491.59	3307.18
491.77	2895.24
491.95	2899.92
492.13	2829.71
492.30	2710.34
492.48	2729.06
492.66	2686.94
492.84	2651.83
493.01	2590.97
493.19	2478.63
493.37	2511.39
493.54	2490.33
493.72	2389.69
493.90	2380.32
494.08	2399.05
494.25	2251.60
494.43	2354.58
494.61	2389.69
494.79	2122.87
494.96	2045.63
495.14	2216.49
495.32	2054.99
495.49	2125.21
495.67	2050.31
495.85	2043.29
496.02	1982.43
496.20	1959.03
496.38	1998.82
496.55	1884.13
496.73	1928.60
496.91	1863.07
497.09	1799.87
497.26	1884.13
497.44	1813.92
497.62	1741.36
497.79	1734.34
497.97	1607.95
498.14	1671.14
498.32	1530.71
498.50	1607.95
498.67	1533.05
498.85	1502.62
499.03	1497.94
499.20	1404.32
499.38	1500.28
499.56	1392.62
499.73	1331.76
499.91	1369.21
500.08	1308.36
500.26	1191.33
500.44	1069.62
500.61	1034.52
500.79	1029.84
500.97	1048.56
501.14	1034.52
501.32	1163.25
501.49	1093.03
501.67	1020.47
501.84	954.94
502.02	898.77
502.20	966.64
502.37	964.30
502.55	877.70
502.72	922.17
502.90	858.98
503.07	774.72
503.25	828.55
503.43	723.23
503.60	777.06
503.78	844.93
503.95	770.04
504.13	697.48
504.30	737.27
504.48	727.91
504.65	657.69
504.83	653.01
505.01	645.99
505.18	596.84
505.36	662.37
505.53	704.50
505.71	627.26
505.88	608.54
506.06	528.96
506.23	592.16
506.41	557.05
506.58	641.31
506.76	645.99
506.93	519.60
507.11	582.79
507.28	589.82
507.46	505.56
507.63	552.37
507.81	489.17
507.98	503.22
508.16	538.32
508.33	578.11
508.50	601.52
508.68	599.18
508.85	594.50
509.03	589.82
509.20	571.09
509.38	575.77
509.55	519.60
509.73	545.34
509.90	564.07
510.08	435.34
510.25	458.74
510.42	526.62
510.60	547.69
510.77	505.56
510.95	517.26
511.12	433.00
511.30	449.38
511.47	461.09
511.64	573.43
511.82	566.41
511.99	479.81
512.17	451.72
512.34	524.28
512.51	517.26
512.69	440.02
512.86	461.09
513.04	489.17
513.21	444.70
513.38	526.62
513.56	547.69
513.73	470.45
513.90	484.49
514.08	519.60
514.25	444.70
514.43	435.34
514.60	454.06
514.77	449.38
514.95	367.46
515.12	449.38
515.29	479.81
515.47	421.30
515.64	468.11
515.81	404.91
515.99	472.79
516.16	430.66
516.33	500.87
516.51	510.24
516.68	421.30
516.85	372.15
517.03	388.53
517.20	435.34
517.37	409.59
517.54	423.64
517.72	437.68
517.89	402.57
518.06	376.83
518.24	395.55
518.41	437.68
518.58	402.57
518.75	482.15
518.93	430.66
519.10	454.06
519.27	379.17
519.45	369.80
519.62	404.91
519.79	404.91
519.96	395.55
520.14	416.62
520.31	475.13
520.48	447.04
520.65	416.62
520.83	444.70
521.00	339.38
521.17	402.57
521.34	376.83
521.52	362.78
521.69	451.72
521.86	430.66
522.03	447.04
522.20	355.76
522.38	390.87
522.55	344.06
522.72	365.12
522.89	397.89
523.07	393.21
523.24	374.49
523.41	430.66
523.58	344.06
523.75	421.30
523.92	346.40
524.10	409.59
524.27	365.12
524.44	409.59
524.61	383.85
524.78	365.12
524.96	418.96
525.13	416.62
525.30	418.96
525.47	475.13
525.64	447.04
525.81	404.91
525.98	535.98
526.16	442.36
526.33	437.68
526.50	463.43
526.67	390.87
526.84	475.13
527.01	468.11
527.18	519.60
527.36	622.58
527.53	568.75
527.70	498.53
527.87	496.19
528.04	547.69
528.21	507.90
528.38	510.24
528.55	458.74
528.72	465.77
528.89	587.47
529.07	442.36
529.24	564.07
529.41	512.58
529.58	557.05
529.75	503.22
529.92	498.53
530.09	575.77
530.26	599.18
530.43	631.94
530.60	589.82
530.77	643.65
530.94	746.63
531.11	671.73
531.28	702.16
531.46	690.46
531.63	746.63
531.80	791.10
531.97	903.45
532.14	891.74
532.31	1184.31
532.48	1280.27
532.65	1437.09
532.82	1746.04
532.99	1856.04
533.16	2310.11
533.33	2445.86
533.50	2275.00
533.67	1940.30
533.84	1617.31
534.01	1481.56
534.18	1348.15
534.35	1362.19
534.52	1394.96
534.69	1401.98
534.86	1472.20
535.03	1441.77
535.20	1521.35
535.37	1554.12
535.54	1640.72
535.71	1788.17
535.88	1872.43
536.05	2104.14
536.22	2214.15
536.38	2286.70
536.55	2658.85
536.72	2745.45
536.89	3243.98
537.06	3595.06
537.23	4021.04
537.40	4315.95
537.57	4755.97
537.74	5130.45
537.91	5275.57
538.08	5439.40
538.25	5364.51
538.42	5434.72
538.59	5612.60
538.75	5881.77
538.92	6033.90
539.09	6764.15
539.26	7236.94
539.43	8299.54
539.60	9423.00
539.77	10752.42
539.94	11772.89
540.11	13219.35
540.28	14445.79
540.44	16126.29
540.61	17596.15
540.78	19798.59
540.95	24144.97
541.12	28549.85
541.29	33120.92
541.46	34838.87
541.62	34408.22
541.79	33123.26
541.96	30864.64
542.13	28732.42
542.30	26232.72
542.47	25202.89
542.63	23564.51
542.80	22991.08
542.97	22340.41
543.14	22195.30
543.31	21930.82
543.48	22207.00
543.64	22775.75
543.81	22972.36
543.98	23454.51
544.15	23379.61
544.32	23597.28
544.48	23400.68
544.65	23573.88
544.82	23192.37
544.99	23276.63
545.16	23660.48
545.32	24229.23
545.49	37497.72
545.66	58880.86
545.83	65535.00
546.00	65535.00
546.16	53659.12
546.33	41549.19
546.50	31274.24
546.67	24018.58
546.83	21116.31
547.00	20304.15
547.17	19424.11
547.34	18511.30
547.50	17612.53
547.67	16943.14
547.84	16463.33
548.00	15880.53
548.17	15051.99
548.34	14808.57
548.51	14174.28
548.67	13200.62
548.84	12556.97
549.01	12098.23
549.18	11606.72
549.34	11033.29
549.51	10562.84
549.68	10277.29
549.84	10136.86
550.01	9303.63
550.18	9071.92
550.34	8596.79
550.51	8276.13
550.68	7782.28
550.84	7382.05
551.01	6846.07
551.18	6672.87
551.34	6361.58
551.51	6066.67
551.68	5839.64
551.84	5589.20
552.01	5221.74
552.18	4999.38
552.34	4828.53
552.51	4730.22
552.68	4601.49
552.84	4337.01
553.01	4180.20
553.18	3964.87
553.34	3918.06
553.51	3822.09
553.67	3665.28
553.84	3714.43
554.01	3316.54
554.17	3045.04
554.34	2902.26
554.51	2658.85
554.67	2670.55
554.84	2562.89
555.00	2235.21
555.17	2223.51
555.33	2050.31
555.50	1968.39
555.67	1844.34
555.83	1881.79
556.00	1732.00
556.16	1856.04
556.33	1657.10
556.50	1652.42
556.66	1500.28
556.83	1493.26
556.99	1472.20
557.16	1467.52
557.32	1455.81
557.49	1364.53
557.65	1214.74
557.82	1313.04
557.98	1254.53
558.15	1273.25
558.32	1139.84
558.48	1242.82
558.65	1121.12
558.81	1060.26
558.98	1067.28
559.14	1022.81
559.31	999.41
559.47	1027.50
559.64	992.39
559.80	1041.54
559.97	896.43
560.13	959.62
560.30	999.41
560.46	1006.43
560.63	870.68
560.79	994.73
560.96	961.96
561.12	971.32
561.29	936.21
561.45	957.28
561.61	896.43
561.78	1057.92
561.94	947.92
562.11	987.71
562.27	896.43
562.44	936.21
562.60	943.24
562.77	868.34
562.93	1011.11
563.10	884.72
563.26	889.40
563.42	866.00
563.59	746.63
563.75	784.08
563.92	894.08
564.08	788.76
564.24	805.14
564.41	709.18
564.57	786.42
564.74	765.36
564.90	814.51
565.07	779.40
565.23	699.82
565.39	650.67
565.56	748.97
565.72	781.74
565.88	692.80
566.05	746.63
566.21	727.91
566.38	699.82
566.54	753.65
566.70	667.05
566.87	734.93
567.03	725.57
567.19	805.14
567.36	720.88
567.52	688.12
567.68	755.99
567.85	760.67
568.01	697.48
568.17	774.72
568.34	688.12
568.50	821.53
568.66	739.61
568.83	748.97
568.99	711.52
569.15	681.10
569.32	648.33
569.48	706.84
569.64	657.69
569.81	603.86
569.97	643.65
570.13	634.29
570.30	580.45
570.46	543.00
570.62	503.22
570.78	524.28
570.95	498.53
571.11	484.49
571.27	603.86
571.43	496.19
571.60	608.54
571.76	573.43
571.92	559.39
572.09	484.49
572.25	561.73
572.41	545.34
572.57	484.49
572.74	566.41
572.90	477.47
573.06	552.37
573.22	589.82
573.38	587.47
573.55	564.07
573.71	585.13
573.87	571.09
574.03	664.71
574.20	634.29
574.36	692.80
574.52	683.44
574.68	697.48
574.84	690.46
575.01	655.35
575.17	793.44
575.33	812.17
575.49	858.98
575.65	1025.15
575.82	1029.84
575.98	1149.20
576.14	1193.67
576.30	2026.90
576.46	6670.53
576.62	14546.43
576.79	19225.16
576.95	13472.12
577.11	7995.27
577.27	5582.18
577.43	3700.39
577.59	2284.36
577.75	1879.45
577.92	1689.87
578.08	1577.52
578.24	1659.44
578.40	2532.46
578.56	6602.65
578.72	13479.15
578.88	16999.31
579.04	12402.50
579.21	7850.16
579.37	5603.24
579.53	4198.92
579.69	4119.34
579.85	5067.26
580.01	5937.94
580.17	6094.76
580.33	5167.90
580.49	4470.42
580.65	3747.20
580.82	3501.44
580.98	3330.58
581.14	3234.62
581.30	3562.30
581.46	3798.69
581.62	4044.45
581.78	4306.59
581.94	4762.99
582.10	5111.73
582.26	5313.02
582.42	5448.77
582.58	5738.99
582.74	5727.29
582.90	5874.74
583.06	5846.66
583.22	6008.16
583.38	5916.87
583.54	5816.23
583.70	5823.25
583.86	5614.95
584.02	5591.54
584.18	5577.50
584.34	5345.78
584.50	5373.87
584.66	5282.59
584.82	5224.08
584.98	5200.67
585.14	5102.37
585.30	5055.56
585.46	4844.91
585.62	4711.50
585.78	4842.57
585.94	4854.27
586.10	5090.67
586.26	5394.93
586.42	5806.87
586.58	6909.26
586.74	8372.10
586.90	10101.75
587.06	11365.64
587.22	11349.26
587.38	10097.07
587.54	9193.62
587.70	7475.67
587.86	6359.24
588.02	5493.24
588.18	4830.87
588.34	4107.64
588.49	3948.48
588.65	3749.54
588.81	3316.54
588.97	3370.37
589.13	3389.10
589.29	3281.43
589.45	3290.79
589.61	3211.22
589.77	3194.83
589.93	3157.38
590.08	3262.71
590.24	3459.31
590.40	3627.83
590.56	3639.53
590.72	3641.87
590.88	3779.97
591.04	3990.61
591.20	4109.98
591.35	4369.78
591.51	4510.21
591.67	4704.48
591.83	4884.70
591.99	5336.42
592.15	5804.53
592.31	6392.00
592.46	6906.92
592.62	7506.10
592.78	7843.14
592.94	8231.66
593.10	8205.92
593.26	7999.95
593.41	7400.77
593.57	6509.03
593.73	5811.55
593.89	5235.78
594.05	4510.21
594.20	4105.30
594.36	3728.47
594.52	3442.93
594.68	3220.58
594.84	3243.98
594.99	3220.58
595.15	2984.18
595.31	2836.73
595.47	2850.77
595.62	2803.96
595.78	2923.33
595.94	2794.60
596.10	3054.40
596.25	2850.77
596.41	2813.32
596.57	2892.90
596.73	2899.92
596.88	2843.75
597.04	2871.84
597.20	2977.16
597.36	2932.69
597.51	3023.97
597.67	3157.38
597.83	3370.37
597.99	3461.65
598.14	3840.82
598.30	4053.81
598.46	4088.92
598.61	4404.89
598.77	4573.41
598.93	4657.67
599.09	4884.70
599.24	4922.15
599.40	5053.22
599.56	4870.65
599.71	4599.15
599.87	4407.23
600.03	4273.82
600.18	3672.30
600.34	3665.28
600.50	3337.60
600.65	3012.27
600.81	3009.93
600.97	2726.72
601.12	2616.72
601.28	2593.31
601.44	2406.07
601.59	2296.07
601.75	2043.29
601.91	2022.22
602.06	2111.16
602.22	1991.80
602.37	1944.99
602.53	1898.17
602.69	1893.49
602.84	1898.17
603.00	1893.49
603.16	2003.50
603.31	1872.43
603.47	1881.79
603.62	2026.90
603.78	2071.37
603.94	2059.67
604.09	2066.69
604.25	2221.17
604.40	2008.18
604.56	2115.84
604.71	2314.79
