SpectraSuite Data File
++++++++++++++++++++++++++++++++++++
Date: Fri Oct 04 11:41:49 GMT-05:00 2013
User: price-jones
Dark Spectrum Present: No
Reference Spectrum Present: No
Number of Sampled Component Spectra: 1
Spectrometers: USB2+H05261
Integration Time (usec): 100000 (USB2+H05261)
Spectra Averaged: 1 (USB2+H05261)
Boxcar Smoothing: 0 (USB2+H05261)
Correct for Electrical Dark: No (USB2+H05261)
Strobe/Lamp Enabled: No (USB2+H05261)
Correct for Detector Non-linearity: No (USB2+H05261)
Correct for Stray Light: No (USB2+H05261)
Number of Pixels in Processed Spectrum: 2048
>>>>>Begin Processed Spectral Data<<<<<
365.73	51.49
365.92	51.49
366.12	51.49
366.32	58.51
366.52	0.00
366.72	0.00
366.91	0.00
367.11	0.00
367.31	0.00
367.51	0.00
367.70	0.00
367.90	16.38
368.10	0.00
368.30	0.00
368.49	0.00
368.69	0.00
368.89	0.00
369.09	0.00
369.28	0.00
369.48	0.00
369.68	0.00
369.87	0.00
370.07	18.72
370.27	18.72
370.47	35.11
370.66	37.45
370.86	49.15
371.06	14.04
371.25	93.62
371.45	110.01
371.65	180.22
371.84	44.47
372.04	126.39
372.24	138.09
372.44	124.05
372.63	161.50
372.83	215.33
373.03	105.32
373.22	126.39
373.42	63.19
373.62	135.75
373.81	138.09
374.01	152.13
374.21	88.94
374.40	147.45
374.60	227.03
374.79	182.56
374.99	65.54
375.19	133.41
375.38	93.62
375.58	140.43
375.78	117.03
375.97	180.22
376.17	166.18
376.37	133.41
376.56	152.13
376.76	166.18
376.95	231.71
377.15	212.99
377.35	133.41
377.54	128.73
377.74	154.48
377.93	56.17
378.13	88.94
378.33	112.35
378.52	138.09
378.72	159.16
378.91	194.26
379.11	65.54
379.31	159.16
379.50	102.98
379.70	140.43
379.89	131.07
380.09	67.88
380.28	98.30
380.48	110.01
380.68	152.13
380.87	117.03
381.07	119.37
381.26	220.01
381.46	117.03
381.65	119.37
381.85	114.69
382.04	56.17
382.24	142.77
382.43	84.26
382.63	42.13
382.83	98.30
383.02	161.50
383.22	173.20
383.41	121.71
383.61	114.69
383.80	105.32
384.00	182.56
384.19	81.92
384.39	159.16
384.58	105.32
384.78	149.79
384.97	161.50
385.17	117.03
385.36	86.60
385.56	86.60
385.75	58.51
385.95	142.77
386.14	140.43
386.34	140.43
386.53	79.58
386.72	117.03
386.92	184.90
387.11	145.11
387.31	133.41
387.50	86.60
387.70	124.05
387.89	117.03
388.09	65.54
388.28	65.54
388.48	152.13
388.67	128.73
388.86	149.79
389.06	170.86
389.25	156.82
389.45	180.22
389.64	124.05
389.84	222.35
390.03	39.79
390.22	140.43
390.42	112.35
390.61	102.98
390.81	131.07
391.00	152.13
391.19	93.62
391.39	119.37
391.58	131.07
391.78	102.98
391.97	121.71
392.16	138.09
392.36	149.79
392.55	135.75
392.75	67.88
392.94	126.39
393.13	159.16
393.33	91.28
393.52	107.66
393.71	215.33
393.91	170.86
394.10	149.79
394.29	88.94
394.49	18.72
394.68	138.09
394.88	105.32
395.07	175.54
395.26	84.26
395.46	138.09
395.65	208.31
395.84	189.58
396.04	161.50
396.23	138.09
396.42	110.01
396.62	124.05
396.81	203.63
397.00	138.09
397.19	196.60
397.39	117.03
397.58	173.20
397.77	67.88
397.97	149.79
398.16	173.20
398.35	196.60
398.55	168.52
398.74	124.05
398.93	114.69
399.12	72.56
399.32	159.16
399.51	138.09
399.70	182.56
399.90	180.22
400.09	147.45
400.28	175.54
400.47	208.31
400.67	168.52
400.86	184.90
401.05	191.92
401.24	264.48
401.44	182.56
401.63	180.22
401.82	154.48
402.01	173.20
402.21	227.03
402.40	250.44
402.59	212.99
402.78	114.69
402.97	182.56
403.17	196.60
403.36	330.02
403.55	290.23
403.74	784.08
403.93	2237.55
404.13	5577.50
404.32	8980.64
404.51	8428.27
404.70	5303.65
404.89	2015.20
405.09	578.11
405.28	379.17
405.47	273.84
405.66	248.10
405.85	236.39
406.05	229.37
406.24	145.11
406.43	198.95
406.62	152.13
406.81	341.72
407.00	365.12
407.20	674.07
407.39	1114.10
407.58	1315.38
407.77	1029.84
407.96	564.07
408.15	255.12
408.34	191.92
408.54	163.84
408.73	222.35
408.92	154.48
409.11	236.39
409.30	252.78
409.49	177.88
409.68	187.24
409.87	191.92
410.07	189.58
410.26	194.26
410.45	236.39
410.64	187.24
410.83	245.76
411.02	198.95
411.21	278.52
411.40	203.63
411.59	229.37
411.78	250.44
411.98	142.77
412.17	184.90
412.36	194.26
412.55	215.33
412.74	252.78
412.93	348.74
413.12	210.65
413.31	262.14
413.50	248.10
413.69	203.63
413.88	299.59
414.07	241.08
414.26	217.67
414.45	241.08
414.64	250.44
414.83	332.36
415.02	259.80
415.22	332.36
415.41	344.06
415.60	280.86
415.79	320.65
415.98	252.78
416.17	210.65
416.36	210.65
416.55	259.80
416.74	292.57
416.93	276.18
417.12	264.48
417.31	290.23
417.50	273.84
417.69	308.95
417.88	304.27
418.07	248.10
418.26	327.68
418.45	327.68
418.64	332.36
418.83	278.52
419.02	290.23
419.21	325.33
419.39	278.52
419.58	220.01
419.77	271.50
419.96	346.40
420.15	344.06
420.34	262.14
420.53	344.06
420.72	386.19
420.91	248.10
421.10	372.15
421.29	339.38
421.48	341.72
421.67	351.08
421.86	330.02
422.05	269.16
422.24	386.19
422.43	313.63
422.61	332.36
422.80	397.89
422.99	351.08
423.18	250.44
423.37	294.91
423.56	236.39
423.75	362.78
423.94	271.50
424.13	304.27
424.32	365.12
424.50	353.42
424.69	304.27
424.88	362.78
425.07	308.95
425.26	346.40
425.45	437.68
425.64	325.33
425.83	379.17
426.01	344.06
426.20	390.87
426.39	308.95
426.58	367.46
426.77	330.02
426.96	472.79
427.15	339.38
427.33	404.91
427.52	449.38
427.71	374.49
427.90	365.12
428.09	372.15
428.28	308.95
428.46	433.00
428.65	472.79
428.84	400.23
429.03	465.77
429.22	362.78
429.40	409.59
429.59	379.17
429.78	411.93
429.97	348.74
430.16	451.72
430.34	435.34
430.53	430.66
430.72	416.62
430.91	411.93
431.10	381.51
431.28	463.43
431.47	503.22
431.66	444.70
431.85	458.74
432.03	468.11
432.22	524.28
432.41	454.06
432.60	512.58
432.79	498.53
432.97	550.03
433.16	561.73
433.35	512.58
433.54	767.70
433.72	833.23
433.91	746.63
434.10	915.15
434.28	1043.88
434.47	1210.06
434.66	1301.34
434.85	1404.32
435.03	3679.32
435.22	13879.38
435.41	34941.86
435.59	42995.64
435.78	29883.96
435.97	14450.47
436.16	5430.04
436.34	1795.19
436.53	1041.54
436.72	891.74
436.90	739.61
437.09	685.78
437.28	627.26
437.46	580.45
437.65	620.24
437.84	587.47
438.02	592.16
438.21	573.43
438.40	573.43
438.58	585.13
438.77	554.71
438.96	566.41
439.14	500.87
439.33	524.28
439.52	578.11
439.70	533.64
439.89	566.41
440.08	517.26
440.26	517.26
440.45	620.24
440.63	547.69
440.82	451.72
441.01	510.24
441.19	510.24
441.38	559.39
441.57	524.28
441.75	550.03
441.94	543.00
442.12	433.00
442.31	463.43
442.50	528.96
442.68	447.04
442.87	461.09
443.05	592.16
443.24	524.28
443.43	521.94
443.61	512.58
443.80	617.90
443.98	519.60
444.17	507.90
444.35	545.34
444.54	435.34
444.73	507.90
444.91	573.43
445.10	533.64
445.28	505.56
445.47	526.62
445.65	599.18
445.84	615.56
446.02	580.45
446.21	606.20
446.39	535.98
446.58	489.17
446.77	514.92
446.95	491.51
447.14	514.92
447.32	552.37
447.51	550.03
447.69	496.19
447.88	451.72
448.06	540.66
448.25	524.28
448.43	531.30
448.62	554.71
448.80	521.94
448.99	543.00
449.17	500.87
449.36	535.98
449.54	505.56
449.73	535.98
449.91	571.09
450.10	486.83
450.28	578.11
450.46	594.50
450.65	528.96
450.83	578.11
451.02	437.68
451.20	510.24
451.39	507.90
451.57	507.90
451.76	550.03
451.94	543.00
452.13	543.00
452.31	557.05
452.49	496.19
452.68	507.90
452.86	512.58
453.05	606.20
453.23	531.30
453.42	599.18
453.60	566.41
453.78	571.09
453.97	451.72
454.15	470.45
454.34	500.87
454.52	531.30
454.70	472.79
454.89	545.34
455.07	482.15
455.26	594.50
455.44	561.73
455.62	510.24
455.81	458.74
455.99	538.32
456.17	517.26
456.36	465.77
456.54	477.47
456.73	552.37
456.91	493.85
457.09	624.92
457.28	634.29
457.46	505.56
457.64	538.32
457.83	514.92
458.01	517.26
458.19	568.75
458.38	526.62
458.56	559.39
458.74	500.87
458.93	587.47
459.11	514.92
459.29	528.96
459.48	489.17
459.66	507.90
459.84	524.28
460.03	606.20
460.21	500.87
460.39	486.83
460.57	568.75
460.76	552.37
460.94	559.39
461.12	585.13
461.31	482.15
461.49	451.72
461.67	571.09
461.85	535.98
462.04	489.17
462.22	980.68
462.40	533.64
462.59	493.85
462.77	503.22
462.95	498.53
463.13	475.13
463.32	510.24
463.50	599.18
463.68	507.90
463.86	404.91
464.05	519.60
464.23	613.22
464.41	531.30
464.59	547.69
464.78	491.51
464.96	442.36
465.14	468.11
465.32	440.02
465.50	552.37
465.69	580.45
465.87	369.80
466.05	521.94
466.23	454.06
466.41	526.62
466.60	610.88
466.78	507.90
466.96	528.96
467.14	547.69
467.32	535.98
467.51	608.54
467.69	486.83
467.87	514.92
468.05	496.19
468.23	468.11
468.41	461.09
468.60	461.09
468.78	414.27
468.96	444.70
469.14	444.70
469.32	475.13
469.50	395.55
469.69	437.68
469.87	491.51
470.05	566.41
470.23	500.87
470.41	418.96
470.59	461.09
470.77	498.53
470.95	482.15
471.14	517.26
471.32	531.30
471.50	538.32
471.68	468.11
471.86	564.07
472.04	463.43
472.22	493.85
472.40	496.19
472.58	561.73
472.77	564.07
472.95	512.58
473.13	608.54
473.31	430.66
473.49	491.51
473.67	608.54
473.85	465.77
474.03	566.41
474.21	486.83
474.39	500.87
474.57	470.45
474.75	543.00
474.93	451.72
475.12	456.40
475.30	428.32
475.48	484.49
475.66	564.07
475.84	482.15
476.02	550.03
476.20	540.66
476.38	510.24
476.56	489.17
476.74	505.56
476.92	493.85
477.10	526.62
477.28	503.22
477.46	519.60
477.64	615.56
477.82	519.60
478.00	561.73
478.18	566.41
478.36	580.45
478.54	521.94
478.72	622.58
478.90	552.37
479.08	582.79
479.26	660.03
479.44	613.22
479.62	540.66
479.80	664.71
479.98	662.37
480.16	734.93
480.34	739.61
480.52	779.40
480.70	816.85
480.88	866.00
481.06	833.23
481.24	793.44
481.41	903.45
481.59	971.32
481.77	1078.99
481.95	1114.10
482.13	1247.51
482.31	1231.12
482.49	1343.47
482.67	1409.00
482.85	1563.48
483.03	1764.76
483.21	1771.79
483.39	1795.19
483.57	1961.37
483.74	2167.34
483.92	2150.95
484.10	2375.64
484.28	2469.27
484.46	2607.36
484.64	2637.78
484.82	2874.18
485.00	2920.99
485.18	3030.99
485.35	3251.00
485.53	3527.19
485.71	3611.45
485.89	3911.04
486.07	3875.93
486.25	3988.27
486.43	4060.83
486.61	3894.65
486.78	3934.44
486.96	4018.70
487.14	4063.17
487.32	3840.82
487.50	3915.72
487.68	3953.16
487.85	3932.10
488.03	3740.18
488.21	3770.60
488.39	3625.49
488.57	3384.41
488.75	3592.72
488.92	3693.37
489.10	3246.32
489.28	3258.03
489.46	3124.62
489.64	3253.34
489.81	3124.62
489.99	3033.33
490.17	2951.42
490.35	2991.20
490.53	2995.89
490.70	2923.33
490.88	2951.42
491.06	3215.90
491.24	3145.68
491.41	3487.40
491.59	3281.43
491.77	2883.54
491.95	2825.03
492.13	2792.26
492.30	2722.04
492.48	2654.17
492.66	2677.57
492.84	2595.65
493.01	2628.42
493.19	2548.84
493.37	2506.71
493.54	2431.82
493.72	2495.01
493.90	2333.51
494.08	2406.07
494.25	2300.75
494.43	2284.36
494.61	2183.72
494.79	2228.19
494.96	2183.72
495.14	2162.66
495.32	2101.80
495.49	2045.63
495.67	2066.69
495.85	1933.28
496.02	1977.75
496.20	1905.20
496.38	1942.64
496.55	1966.05
496.73	1928.60
496.91	1839.66
497.09	1942.64
497.26	1703.91
497.44	1746.04
497.62	1689.87
497.79	1785.83
497.97	1757.74
498.14	1629.01
498.32	1636.03
498.50	1603.27
498.67	1500.28
498.85	1411.34
499.03	1376.24
499.20	1472.20
499.38	1427.73
499.56	1359.85
499.73	1348.15
499.91	1252.19
500.08	1345.81
500.26	1240.48
500.44	1123.46
500.61	1238.14
500.79	1128.14
500.97	1057.92
501.14	1057.92
501.32	1048.56
501.49	1027.50
501.67	880.04
501.84	936.21
502.02	877.70
502.20	938.55
502.37	1004.09
502.55	919.83
502.72	847.27
502.90	772.38
503.07	833.23
503.25	849.61
503.43	713.86
503.60	781.74
503.78	784.08
503.95	678.76
504.13	723.23
504.30	655.35
504.48	678.76
504.65	730.25
504.83	709.18
505.01	664.71
505.18	615.56
505.36	587.47
505.53	594.50
505.71	615.56
505.88	669.39
506.06	603.86
506.23	629.60
506.41	571.09
506.58	585.13
506.76	629.60
506.93	538.32
507.11	589.82
507.28	512.58
507.46	465.77
507.63	552.37
507.81	573.43
507.98	599.18
508.16	573.43
508.33	552.37
508.50	500.87
508.68	482.15
508.85	521.94
509.03	638.97
509.20	543.00
509.38	564.07
509.55	484.49
509.73	603.86
509.90	575.77
510.08	554.71
510.25	538.32
510.42	496.19
510.60	585.13
510.77	519.60
510.95	596.84
511.12	517.26
511.30	442.36
511.47	512.58
511.64	592.16
511.82	456.40
511.99	498.53
512.17	475.13
512.34	601.52
512.51	435.34
512.69	566.41
512.86	484.49
513.04	503.22
513.21	472.79
513.38	411.93
513.56	470.45
513.73	564.07
513.90	489.17
514.08	435.34
514.25	468.11
514.43	425.98
514.60	390.87
514.77	404.91
514.95	381.51
515.12	423.64
515.29	428.32
515.47	407.25
515.64	430.66
515.81	407.25
515.99	458.74
516.16	451.72
516.33	440.02
516.51	449.38
516.68	442.36
516.85	411.93
517.03	374.49
517.20	397.89
517.37	360.44
517.54	409.59
517.72	315.97
517.89	381.51
518.06	351.08
518.24	397.89
518.41	404.91
518.58	344.06
518.75	386.19
518.93	418.96
519.10	402.57
519.27	320.65
519.45	461.09
519.62	409.59
519.79	430.66
519.96	374.49
520.14	369.80
520.31	362.78
520.48	360.44
520.65	369.80
520.83	423.64
521.00	433.00
521.17	358.10
521.34	409.59
521.52	402.57
521.69	353.42
521.86	374.49
522.03	451.72
522.20	409.59
522.38	437.68
522.55	395.55
522.72	409.59
522.89	362.78
523.07	463.43
523.24	477.47
523.41	374.49
523.58	435.34
523.75	386.19
523.92	475.13
524.10	470.45
524.27	358.10
524.44	463.43
524.61	461.09
524.78	322.99
524.96	472.79
525.13	376.83
525.30	503.22
525.47	461.09
525.64	479.81
525.81	430.66
525.98	409.59
526.16	397.89
526.33	435.34
526.50	425.98
526.67	442.36
526.84	416.62
527.01	493.85
527.18	552.37
527.36	538.32
527.53	582.79
527.70	528.96
527.87	557.05
528.04	533.64
528.21	472.79
528.38	447.04
528.55	414.27
528.72	517.26
528.89	547.69
529.07	543.00
529.24	461.09
529.41	554.71
529.58	561.73
529.75	564.07
529.92	629.60
530.09	585.13
530.26	538.32
530.43	535.98
530.60	622.58
530.77	524.28
530.94	643.65
531.11	688.12
531.28	695.14
531.46	662.37
531.63	678.76
531.80	741.95
531.97	910.47
532.14	877.70
532.31	1074.31
532.48	1240.48
532.65	1542.41
532.82	1624.33
532.99	1909.88
533.16	2204.78
533.33	2373.30
533.50	2307.77
533.67	2059.67
533.84	1598.59
534.01	1479.22
534.18	1294.32
534.35	1315.38
534.52	1256.87
534.69	1472.20
534.86	1486.24
535.03	1486.24
535.20	1502.62
535.37	1706.25
535.54	1858.39
535.71	1736.68
535.88	1902.86
536.05	1991.80
536.22	2113.50
536.38	2401.39
536.55	2623.74
536.72	2984.18
536.89	3159.72
537.06	3590.38
537.23	3889.97
537.40	4180.20
537.57	4592.13
537.74	5121.09
537.91	5170.24
538.08	5214.71
538.25	5401.96
538.42	5387.91
538.59	5685.16
538.75	5682.82
538.92	6026.88
539.09	6630.74
539.26	7236.94
539.43	8016.33
539.60	9334.06
539.77	10593.26
539.94	11419.47
540.11	12908.05
540.28	14640.05
540.44	15953.09
540.61	17582.10
540.78	19714.33
540.95	23641.75
541.12	28383.68
541.29	32545.15
541.46	33851.17
541.62	33956.49
541.79	32416.42
541.96	29902.68
542.13	28166.01
542.30	26230.38
542.47	24662.22
542.63	23365.57
542.80	22766.39
542.97	22274.88
543.14	21715.49
543.31	22141.47
543.48	21785.71
543.64	22036.14
543.81	22642.34
543.98	22806.18
544.15	23285.99
544.32	23157.26
544.48	23278.97
544.65	22829.59
544.82	22750.01
544.99	23005.13
545.16	23346.84
545.32	24582.65
545.49	37237.92
545.66	58805.96
545.83	65535.00
546.00	65275.20
546.16	53043.56
546.33	40748.73
546.50	30525.27
546.67	24074.75
546.83	21268.45
547.00	19693.27
547.17	19037.92
547.34	18054.89
547.50	17523.59
547.67	16791.00
547.84	16383.75
548.00	15815.00
548.17	15154.97
548.34	14487.92
548.51	13682.77
548.67	13319.99
548.84	12456.33
549.01	11899.28
549.18	11576.29
549.34	10913.92
549.51	10396.66
549.68	10113.45
549.84	9844.29
550.01	9301.29
550.18	8865.95
550.34	8659.98
550.51	7976.55
550.68	7681.64
550.84	7267.36
551.01	6988.84
551.18	6604.99
551.34	6349.87
551.51	5849.00
551.68	5682.82
551.84	5523.66
552.01	5214.71
552.18	5153.86
552.34	4858.95
552.51	4645.96
552.68	4393.19
552.84	4264.46
553.01	4311.27
553.18	4077.21
553.34	3901.67
553.51	3803.37
553.67	3592.72
553.84	3496.76
554.01	3361.01
554.17	3030.99
554.34	2871.84
554.51	2616.72
554.67	2541.82
554.84	2427.14
555.00	2354.58
555.17	2282.02
555.33	1966.05
555.50	1949.67
555.67	1846.68
555.83	1701.57
556.00	1806.89
556.16	1884.13
556.33	1645.40
556.50	1619.65
556.66	1563.48
556.83	1502.62
556.99	1425.39
557.16	1446.45
557.32	1343.47
557.49	1366.87
557.65	1210.06
557.82	1343.47
557.98	1294.32
558.15	1207.72
558.32	1214.74
558.48	1123.46
558.65	1116.44
558.81	1116.44
558.98	1083.67
559.14	1022.81
559.31	1036.86
559.47	980.68
559.64	1043.88
559.80	954.94
559.97	905.79
560.13	896.43
560.30	877.70
560.46	945.58
560.63	908.13
560.79	891.74
560.96	940.90
561.12	912.81
561.29	954.94
561.45	976.00
561.61	966.64
561.78	1001.75
561.94	994.73
562.11	912.81
562.27	912.81
562.44	940.90
562.60	950.26
562.77	901.11
562.93	959.62
563.10	973.66
563.26	856.64
563.42	877.70
563.59	905.79
563.75	884.72
563.92	828.55
564.08	779.40
564.24	826.21
564.41	861.32
564.57	737.27
564.74	704.50
564.90	739.61
565.07	739.61
565.23	777.06
565.39	631.94
565.56	678.76
565.72	695.14
565.88	685.78
566.05	713.86
566.21	690.46
566.38	751.31
566.54	641.31
566.70	676.41
566.87	774.72
567.03	716.20
567.19	683.44
567.36	751.31
567.52	725.57
567.68	730.25
567.85	702.16
568.01	683.44
568.17	720.88
568.34	706.84
568.50	784.08
568.66	753.65
568.83	772.38
568.99	638.97
569.15	741.95
569.32	624.92
569.48	603.86
569.64	550.03
569.81	592.16
569.97	655.35
570.13	575.77
570.30	521.94
570.46	566.41
570.62	564.07
570.78	470.45
570.95	571.09
571.11	566.41
571.27	564.07
571.43	510.24
571.60	578.11
571.76	472.79
571.92	531.30
572.09	559.39
572.25	533.64
572.41	578.11
572.57	517.26
572.74	561.73
572.90	510.24
573.06	521.94
573.22	561.73
573.38	596.84
573.55	596.84
573.71	641.31
573.87	627.26
574.03	568.75
574.20	571.09
574.36	638.97
574.52	655.35
574.68	695.14
574.84	763.01
575.01	748.97
575.17	774.72
575.33	720.88
575.49	915.15
575.65	924.51
575.82	1062.60
575.98	1034.52
576.14	1252.19
576.30	2125.21
576.46	6752.45
576.62	14567.49
576.79	19073.03
576.95	13048.49
577.11	7896.97
577.27	5495.58
577.43	3485.06
577.59	2410.75
577.75	1872.43
577.92	1640.72
578.08	1610.29
578.24	1671.14
578.40	2555.86
578.56	6534.78
578.72	13231.05
578.88	16606.10
579.04	12248.02
579.21	7571.63
579.37	5694.52
579.53	4355.74
579.69	4063.17
579.85	4812.14
580.01	5942.62
580.17	5643.03
580.33	5015.77
580.49	4290.20
580.65	3794.01
580.82	3389.10
580.98	3321.22
581.14	3351.65
581.30	3592.72
581.46	3791.67
581.62	4161.47
581.78	4407.23
581.94	4793.42
582.10	4947.89
582.26	5298.97
582.42	5472.17
582.58	5568.13
582.74	5483.88
582.90	5664.10
583.06	5722.61
583.22	5783.46
583.38	5935.60
583.54	5652.39
583.70	5863.04
583.86	5540.05
584.02	5490.90
584.18	5476.85
584.34	5364.51
584.50	5259.18
584.66	5184.29
584.82	5181.95
584.98	5198.33
585.14	4961.94
585.30	4851.93
585.46	4912.78
585.62	4678.73
585.78	4774.69
585.94	4781.71
586.10	4983.00
586.26	5149.18
586.42	5870.06
586.58	6888.20
586.74	8397.84
586.90	10080.69
587.06	11480.33
587.22	11370.32
587.38	9966.00
587.54	8664.66
587.70	7344.60
587.86	6249.23
588.02	5434.72
588.18	4692.77
588.34	4241.05
588.49	3808.05
588.65	3646.55
588.81	3440.59
588.97	3358.67
589.13	3269.73
589.29	3190.15
589.45	3126.96
589.61	3129.30
589.77	2951.42
589.93	3220.58
590.08	3227.60
590.24	3557.61
590.40	3454.63
590.56	3550.59
590.72	3770.60
590.88	3693.37
591.04	3955.51
591.20	4152.11
591.35	4318.29
591.51	4432.97
591.67	4533.62
591.83	4835.55
591.99	5268.55
592.15	5621.97
592.31	6338.17
592.46	6787.55
592.62	7435.88
592.78	7878.24
592.94	8133.36
593.10	8339.33
593.26	7824.41
593.41	7150.34
593.57	6443.49
593.73	5643.03
593.89	4978.32
594.05	4435.32
594.20	3932.10
594.36	3730.81
594.52	3449.95
594.68	3269.73
594.84	3061.42
594.99	3075.46
595.15	2904.60
595.31	2925.67
595.47	2829.71
595.62	2853.11
595.78	2895.24
595.94	2867.16
596.10	2789.92
596.25	2855.45
596.41	2916.31
596.57	2759.49
596.73	2871.84
596.88	2825.03
597.04	2818.00
597.20	2890.56
597.36	2991.20
597.51	3061.42
597.67	3108.23
597.83	3290.79
597.99	3501.44
598.14	3564.64
598.30	3873.59
598.46	4135.73
598.61	4313.61
598.77	4332.33
598.93	4552.34
599.09	4865.97
599.24	4877.68
599.40	4917.47
599.56	4784.06
599.71	4528.94
599.87	4325.31
600.03	4063.17
600.18	3941.46
600.34	3599.74
600.50	3199.51
600.65	3059.08
600.81	3159.72
600.97	2686.94
601.12	2518.42
601.28	2396.71
601.44	2370.96
601.59	2289.04
601.75	2146.27
601.91	2244.57
602.06	2008.18
602.22	2038.61
602.37	1846.68
602.53	1935.62
602.69	1867.75
602.84	1865.41
603.00	1944.99
603.16	1884.13
603.31	1895.83
603.47	1905.20
603.62	2005.84
603.78	2052.65
603.94	2008.18
604.09	2036.27
604.25	2230.53
604.40	2111.16
604.56	2239.89
604.71	2214.15
604.87	2277.34
