SpectraSuite Data File
++++++++++++++++++++++++++++++++++++
Date: Fri Oct 04 11:41:51 GMT-05:00 2013
User: price-jones
Dark Spectrum Present: No
Reference Spectrum Present: No
Number of Sampled Component Spectra: 1
Spectrometers: USB2+H05261
Integration Time (usec): 100000 (USB2+H05261)
Spectra Averaged: 1 (USB2+H05261)
Boxcar Smoothing: 0 (USB2+H05261)
Correct for Electrical Dark: No (USB2+H05261)
Strobe/Lamp Enabled: No (USB2+H05261)
Correct for Detector Non-linearity: No (USB2+H05261)
Correct for Stray Light: No (USB2+H05261)
Number of Pixels in Processed Spectrum: 2048
>>>>>Begin Processed Spectral Data<<<<<
365.73	0.00
365.92	0.00
366.12	0.00
366.32	0.00
366.52	0.00
366.72	0.00
366.91	0.00
367.11	0.00
367.31	0.00
367.51	0.00
367.70	16.38
367.90	0.00
368.10	0.00
368.30	0.00
368.49	0.00
368.69	0.00
368.89	0.00
369.09	0.00
369.28	0.00
369.48	0.00
369.68	0.00
369.87	16.38
370.07	0.00
370.27	98.30
370.47	79.58
370.66	32.77
370.86	28.09
371.06	117.03
371.25	177.88
371.45	53.83
371.65	46.81
371.84	126.39
372.04	56.17
372.24	88.94
372.44	124.05
372.63	110.01
372.83	205.97
373.03	93.62
373.22	88.94
373.42	145.11
373.62	93.62
373.81	79.58
374.01	189.58
374.21	102.98
374.40	201.29
374.60	147.45
374.79	63.19
374.99	81.92
375.19	93.62
375.38	184.90
375.58	112.35
375.78	81.92
375.97	180.22
376.17	180.22
376.37	131.07
376.56	163.84
376.76	128.73
376.95	114.69
377.15	166.18
377.35	156.82
377.54	145.11
377.74	161.50
377.93	84.26
378.13	180.22
378.33	168.52
378.52	135.75
378.72	173.20
378.91	140.43
379.11	110.01
379.31	88.94
379.50	138.09
379.70	145.11
379.89	145.11
380.09	98.30
380.28	126.39
380.48	86.60
380.68	138.09
380.87	117.03
381.07	135.75
381.26	166.18
381.46	88.94
381.65	168.52
381.85	126.39
382.04	133.41
382.24	112.35
382.43	191.92
382.63	37.45
382.83	145.11
383.02	184.90
383.22	121.71
383.41	121.71
383.61	112.35
383.80	133.41
384.00	107.66
384.19	79.58
384.39	184.90
384.58	147.45
384.78	88.94
384.97	184.90
385.17	142.77
385.36	93.62
385.56	203.63
385.75	112.35
385.95	100.64
386.14	145.11
386.34	74.90
386.53	114.69
386.72	58.51
386.92	147.45
387.11	138.09
387.31	79.58
387.50	173.20
387.70	140.43
387.89	168.52
388.09	121.71
388.28	166.18
388.48	93.62
388.67	114.69
388.86	110.01
389.06	77.24
389.25	110.01
389.45	112.35
389.64	121.71
389.84	142.77
390.03	112.35
390.22	145.11
390.42	114.69
390.61	56.17
390.81	126.39
391.00	119.37
391.19	191.92
391.39	81.92
391.58	128.73
391.78	114.69
391.97	126.39
392.16	140.43
392.36	201.29
392.55	145.11
392.75	124.05
392.94	102.98
393.13	138.09
393.33	121.71
393.52	91.28
393.71	138.09
393.91	140.43
394.10	102.98
394.29	138.09
394.49	173.20
394.68	124.05
394.88	105.32
395.07	140.43
395.26	142.77
395.46	67.88
395.65	145.11
395.84	166.18
396.04	238.73
396.23	91.28
396.42	119.37
396.62	159.16
396.81	184.90
397.00	170.86
397.19	128.73
397.39	140.43
397.58	170.86
397.77	147.45
397.97	133.41
398.16	145.11
398.35	105.32
398.55	65.54
398.74	131.07
398.93	156.82
399.12	117.03
399.32	131.07
399.51	159.16
399.70	208.31
399.90	147.45
400.09	191.92
400.28	173.20
400.47	180.22
400.67	159.16
400.86	182.56
401.05	117.03
401.24	124.05
401.44	121.71
401.63	212.99
401.82	238.73
402.01	177.88
402.21	140.43
402.40	182.56
402.59	198.95
402.78	191.92
402.97	205.97
403.17	229.37
403.36	231.71
403.55	344.06
403.74	734.93
403.93	2251.60
404.13	5886.45
404.32	9591.52
404.51	9415.98
404.70	5970.71
404.89	2148.61
405.09	582.79
405.28	297.25
405.47	278.52
405.66	299.59
405.85	227.03
406.05	208.31
406.24	212.99
406.43	159.16
406.62	292.57
406.81	290.23
407.00	376.83
407.20	702.16
407.39	1158.57
407.58	1490.92
407.77	1036.86
407.96	655.35
408.15	297.25
408.34	271.50
408.54	140.43
408.73	297.25
408.92	238.73
409.11	224.69
409.30	210.65
409.49	110.01
409.68	184.90
409.87	220.01
410.07	222.35
410.26	220.01
410.45	217.67
410.64	255.12
410.83	245.76
411.02	330.02
411.21	257.46
411.40	180.22
411.59	269.16
411.78	234.05
411.98	196.60
412.17	205.97
412.36	220.01
412.55	173.20
412.74	287.89
412.93	325.33
413.12	269.16
413.31	262.14
413.50	196.60
413.69	315.97
413.88	227.03
414.07	245.76
414.26	271.50
414.45	222.35
414.64	315.97
414.83	252.78
415.02	259.80
415.22	255.12
415.41	311.29
415.60	262.14
415.79	262.14
415.98	341.72
416.17	325.33
416.36	313.63
416.55	259.80
416.74	292.57
416.93	271.50
417.12	252.78
417.31	283.20
417.50	259.80
417.69	330.02
417.88	311.29
418.07	208.31
418.26	376.83
418.45	299.59
418.64	346.40
418.83	318.31
419.02	287.89
419.21	348.74
419.39	271.50
419.58	334.70
419.77	273.84
419.96	327.68
420.15	388.53
420.34	308.95
420.53	358.10
420.72	390.87
420.91	322.99
421.10	304.27
421.29	271.50
421.48	327.68
421.67	411.93
421.86	337.04
422.05	285.55
422.24	262.14
422.43	346.40
422.61	308.95
422.80	379.17
422.99	360.44
423.18	339.38
423.37	322.99
423.56	423.64
423.75	311.29
423.94	285.55
424.13	297.25
424.32	332.36
424.50	362.78
424.69	416.62
424.88	369.80
425.07	304.27
425.26	353.42
425.45	409.59
425.64	276.18
425.83	379.17
426.01	421.30
426.20	435.34
426.39	341.72
426.58	463.43
426.77	334.70
426.96	404.91
427.15	355.76
427.33	383.85
427.52	367.46
427.71	362.78
427.90	451.72
428.09	348.74
428.28	507.90
428.46	463.43
428.65	376.83
428.84	423.64
429.03	468.11
429.22	418.96
429.40	395.55
429.59	322.99
429.78	519.60
429.97	393.21
430.16	376.83
430.34	437.68
430.53	484.49
430.72	444.70
430.91	437.68
431.10	444.70
431.28	496.19
431.47	451.72
431.66	351.08
431.85	442.36
432.03	554.71
432.22	493.85
432.41	564.07
432.60	592.16
432.79	510.24
432.97	678.76
433.16	690.46
433.35	674.07
433.54	727.91
433.72	901.11
433.91	842.59
434.10	847.27
434.28	1048.56
434.47	1261.55
434.66	1439.43
434.85	1598.59
435.03	3791.67
435.22	14328.76
435.41	36687.90
435.59	48477.18
435.78	34974.63
435.97	15964.79
436.16	5996.45
436.34	2012.86
436.53	1191.33
436.72	912.81
436.90	807.48
437.09	727.91
437.28	751.31
437.46	683.44
437.65	615.56
437.84	578.11
438.02	615.56
438.21	547.69
438.40	599.18
438.58	524.28
438.77	559.39
438.96	669.39
439.14	496.19
439.33	575.77
439.52	608.54
439.70	566.41
439.89	573.43
440.08	603.86
440.26	554.71
440.45	683.44
440.63	543.00
440.82	554.71
441.01	575.77
441.19	564.07
441.38	545.34
441.57	533.64
441.75	538.32
441.94	608.54
442.12	587.47
442.31	580.45
442.50	552.37
442.68	543.00
442.87	545.34
443.05	547.69
443.24	554.71
443.43	636.63
443.61	645.99
443.80	608.54
443.98	573.43
444.17	566.41
444.35	535.98
444.54	608.54
444.73	585.13
444.91	622.58
445.10	561.73
445.28	601.52
445.47	585.13
445.65	503.22
445.84	514.92
446.02	540.66
446.21	573.43
446.39	596.84
446.58	587.47
446.77	477.47
446.95	456.40
447.14	606.20
447.32	599.18
447.51	620.24
447.69	514.92
447.88	580.45
448.06	561.73
448.25	575.77
448.43	526.62
448.62	538.32
448.80	458.74
448.99	613.22
449.17	538.32
449.36	547.69
449.54	622.58
449.73	564.07
449.91	645.99
450.10	606.20
450.28	664.71
450.46	692.80
450.65	587.47
450.83	610.88
451.02	568.75
451.20	561.73
451.39	608.54
451.57	566.41
451.76	601.52
451.94	578.11
452.13	498.53
452.31	552.37
452.49	603.86
452.68	564.07
452.86	566.41
453.05	648.33
453.23	514.92
453.42	596.84
453.60	674.07
453.78	561.73
453.97	552.37
454.15	528.96
454.34	533.64
454.52	543.00
454.70	613.22
454.89	578.11
455.07	458.74
455.26	552.37
455.44	662.37
455.62	554.71
455.81	517.26
455.99	561.73
456.17	573.43
456.36	547.69
456.54	479.81
456.73	547.69
456.91	521.94
457.09	578.11
457.28	587.47
457.46	571.09
457.64	545.34
457.83	510.24
458.01	524.28
458.19	545.34
458.38	465.77
458.56	606.20
458.74	552.37
458.93	468.11
459.11	617.90
459.29	519.60
459.48	521.94
459.66	648.33
459.84	568.75
460.03	585.13
460.21	477.47
460.39	603.86
460.57	599.18
460.76	631.94
460.94	573.43
461.12	554.71
461.31	601.52
461.49	491.51
461.67	505.56
461.85	587.47
462.04	533.64
462.22	1020.47
462.40	566.41
462.59	552.37
462.77	540.66
462.95	603.86
463.13	559.39
463.32	559.39
463.50	594.50
463.68	540.66
463.86	524.28
464.05	543.00
464.23	552.37
464.41	533.64
464.59	615.56
464.78	608.54
464.96	533.64
465.14	535.98
465.32	500.87
465.50	554.71
465.69	550.03
465.87	491.51
466.05	472.79
466.23	435.34
466.41	528.96
466.60	603.86
466.78	641.31
466.96	613.22
467.14	631.94
467.32	622.58
467.51	568.75
467.69	573.43
467.87	617.90
468.05	477.47
468.23	528.96
468.41	575.77
468.60	470.45
468.78	592.16
468.96	482.15
469.14	435.34
469.32	475.13
469.50	503.22
469.69	500.87
469.87	477.47
470.05	482.15
470.23	477.47
470.41	491.51
470.59	461.09
470.77	484.49
470.95	484.49
471.14	521.94
471.32	486.83
471.50	653.01
471.68	540.66
471.86	561.73
472.04	447.04
472.22	531.30
472.40	498.53
472.58	524.28
472.77	486.83
472.95	552.37
473.13	512.58
473.31	496.19
473.49	545.34
473.67	594.50
473.85	503.22
474.03	545.34
474.21	580.45
474.39	571.09
474.57	582.79
474.75	498.53
474.93	444.70
475.12	517.26
475.30	510.24
475.48	550.03
475.66	491.51
475.84	540.66
476.02	559.39
476.20	606.20
476.38	505.56
476.56	601.52
476.74	531.30
476.92	573.43
477.10	510.24
477.28	535.98
477.46	430.66
477.64	524.28
477.82	479.81
478.00	535.98
478.18	624.92
478.36	547.69
478.54	491.51
478.72	634.29
478.90	627.26
479.08	688.12
479.26	741.95
479.44	744.29
479.62	636.63
479.80	784.08
479.98	781.74
480.16	833.23
480.34	875.36
480.52	870.68
480.70	866.00
480.88	844.93
481.06	910.47
481.24	959.62
481.41	992.39
481.59	1118.78
481.77	1121.12
481.95	1118.78
482.13	1219.42
482.31	1310.70
482.49	1275.59
482.67	1537.73
482.85	1746.04
483.03	1680.50
483.21	1879.45
483.39	2026.90
483.57	2069.03
483.74	2162.66
483.92	2228.19
484.10	2389.69
484.28	2532.46
484.46	2815.66
484.64	3077.80
484.82	3030.99
485.00	3145.68
485.18	3372.71
485.35	3602.08
485.53	3810.39
485.71	3859.54
485.89	4063.17
486.07	4219.99
486.25	4294.88
486.43	4245.73
486.61	4320.63
486.78	4449.36
486.96	4306.59
487.14	4269.14
487.32	4234.03
487.50	4077.21
487.68	4119.34
487.85	4142.75
488.03	4107.64
488.21	4021.04
488.39	3840.82
488.57	3843.16
488.75	3709.75
488.92	3978.91
489.10	3604.42
489.28	3555.27
489.46	3382.07
489.64	3396.12
489.81	3236.96
489.99	3300.16
490.17	3164.40
490.35	3241.64
490.53	3286.11
490.70	3253.34
490.88	3206.53
491.06	3351.65
491.24	3662.94
491.41	3754.22
491.59	3290.79
491.77	3059.08
491.95	3101.21
492.13	3049.72
492.30	2867.16
492.48	2775.88
492.66	2818.00
492.84	2843.75
493.01	2743.11
493.19	2693.96
493.37	2768.85
493.54	2637.78
493.72	2623.74
493.90	2530.12
494.08	2530.12
494.25	2544.16
494.43	2363.94
494.61	2509.05
494.79	2331.17
494.96	2296.07
495.14	2314.79
495.32	2235.21
495.49	2270.32
495.67	2183.72
495.85	2172.02
496.02	2064.35
496.20	2099.46
496.38	2101.80
496.55	2094.78
496.73	1966.05
496.91	2008.18
497.09	2118.18
497.26	2022.22
497.44	1942.64
497.62	1785.83
497.79	1851.36
497.97	1710.93
498.14	1757.74
498.32	1729.66
498.50	1598.59
498.67	1600.93
498.85	1502.62
499.03	1472.20
499.20	1474.54
499.38	1409.00
499.56	1479.22
499.73	1509.65
499.91	1320.06
500.08	1406.66
500.26	1336.45
500.44	1249.85
500.61	1254.53
500.79	1151.54
500.97	1221.76
501.14	1111.75
501.32	1114.10
501.49	1053.24
501.67	1123.46
501.84	1006.43
502.02	891.74
502.20	910.47
502.37	1006.43
502.55	922.17
502.72	849.61
502.90	847.27
503.07	821.53
503.25	791.10
503.43	835.57
503.60	716.20
503.78	720.88
503.95	716.20
504.13	753.65
504.30	713.86
504.48	681.10
504.65	660.03
504.83	683.44
505.01	634.29
505.18	638.97
505.36	662.37
505.53	709.18
505.71	638.97
505.88	589.82
506.06	582.79
506.23	653.01
506.41	587.47
506.58	678.76
506.76	550.03
506.93	620.24
507.11	617.90
507.28	608.54
507.46	566.41
507.63	517.26
507.81	533.64
507.98	554.71
508.16	552.37
508.33	550.03
508.50	554.71
508.68	599.18
508.85	575.77
509.03	582.79
509.20	517.26
509.38	645.99
509.55	589.82
509.73	643.65
509.90	547.69
510.08	545.34
510.25	463.43
510.42	456.40
510.60	538.32
510.77	470.45
510.95	491.51
511.12	482.15
511.30	458.74
511.47	519.60
511.64	580.45
511.82	435.34
511.99	500.87
512.17	505.56
512.34	503.22
512.51	472.79
512.69	442.36
512.86	582.79
513.04	454.06
513.21	442.36
513.38	470.45
513.56	461.09
513.73	416.62
513.90	458.74
514.08	463.43
514.25	435.34
514.43	454.06
514.60	423.64
514.77	388.53
514.95	479.81
515.12	435.34
515.29	447.04
515.47	407.25
515.64	503.22
515.81	444.70
515.99	475.13
516.16	447.04
516.33	545.34
516.51	475.13
516.68	521.94
516.85	461.09
517.03	486.83
517.20	468.11
517.37	461.09
517.54	423.64
517.72	388.53
517.89	372.15
518.06	421.30
518.24	367.46
518.41	461.09
518.58	414.27
518.75	437.68
518.93	461.09
519.10	444.70
519.27	461.09
519.45	386.19
519.62	430.66
519.79	362.78
519.96	428.32
520.14	416.62
520.31	507.90
520.48	437.68
520.65	353.42
520.83	386.19
521.00	390.87
521.17	379.17
521.34	390.87
521.52	454.06
521.69	472.79
521.86	454.06
522.03	503.22
522.20	425.98
522.38	372.15
522.55	433.00
522.72	428.32
522.89	477.47
523.07	440.02
523.24	425.98
523.41	440.02
523.58	351.08
523.75	414.27
523.92	465.77
524.10	393.21
524.27	397.89
524.44	456.40
524.61	430.66
524.78	449.38
524.96	433.00
525.13	447.04
525.30	458.74
525.47	418.96
525.64	498.53
525.81	482.15
525.98	409.59
526.16	514.92
526.33	416.62
526.50	451.72
526.67	381.51
526.84	493.85
527.01	505.56
527.18	547.69
527.36	594.50
527.53	606.20
527.70	566.41
527.87	533.64
528.04	582.79
528.21	505.56
528.38	543.00
528.55	526.62
528.72	617.90
528.89	561.73
529.07	524.28
529.24	552.37
529.41	559.39
529.58	592.16
529.75	638.97
529.92	678.76
530.09	573.43
530.26	561.73
530.43	648.33
530.60	629.60
530.77	557.05
530.94	676.41
531.11	688.12
531.28	657.69
531.46	774.72
531.63	709.18
531.80	828.55
531.97	966.64
532.14	968.98
532.31	1118.78
532.48	1350.49
532.65	1563.48
532.82	1708.59
532.99	2155.63
533.16	2354.58
533.33	2588.63
533.50	2415.43
533.67	2085.42
533.84	1750.72
534.01	1558.80
534.18	1427.73
534.35	1392.62
534.52	1423.05
534.69	1476.88
534.86	1481.56
535.03	1666.46
535.20	1654.76
535.37	1771.79
535.54	1818.60
535.71	1919.24
535.88	2003.50
536.05	2017.54
536.22	2342.88
536.38	2607.36
536.55	2789.92
536.72	3094.19
536.89	3393.78
537.06	3777.62
537.23	4222.33
537.40	4657.67
537.57	4997.04
537.74	5341.10
537.91	5378.55
538.08	5549.41
538.25	5724.95
538.42	5790.49
538.59	6122.84
538.75	5914.53
538.92	6443.49
539.09	7075.44
539.26	7552.91
539.43	8842.54
539.60	9912.17
539.77	11005.20
539.94	12538.25
540.11	14157.90
540.28	15864.15
540.44	17198.26
540.61	18750.03
540.78	21123.33
540.95	25535.24
541.12	30817.83
541.29	35232.08
541.46	37120.90
541.62	37081.11
541.79	36002.12
541.96	33369.02
542.13	30705.49
542.30	28133.24
542.47	26782.75
542.63	25614.82
542.80	24437.53
542.97	24121.56
543.14	23641.75
543.31	23484.94
543.48	23845.38
543.64	24666.91
543.81	24278.38
543.98	24341.57
544.15	25039.05
544.32	25127.99
544.48	25149.06
544.65	24676.27
544.82	24407.11
544.99	24587.33
545.16	24629.46
545.32	25951.86
545.49	38728.84
545.66	58747.45
545.83	65535.00
546.00	65535.00
546.16	56896.08
546.33	42927.77
546.50	32526.42
546.67	25053.09
546.83	22302.96
547.00	21696.77
547.17	20905.66
547.34	19901.58
547.50	19089.41
547.67	18324.05
547.84	17067.19
548.00	16800.37
548.17	16250.34
548.34	15672.23
548.51	15267.31
548.67	14288.97
548.84	13530.64
549.01	12912.74
549.18	12264.41
549.34	11847.79
549.51	11192.44
549.68	10862.43
549.84	10485.60
550.01	9951.96
550.18	9570.45
550.34	9013.40
550.51	8727.86
550.68	8250.39
550.84	7742.49
551.01	7506.10
551.18	6895.22
551.34	6848.41
551.51	6221.14
551.68	5998.79
551.84	5863.04
552.01	5533.03
552.18	5584.52
552.34	5376.21
552.51	4887.04
552.68	4645.96
552.84	4667.03
553.01	4374.46
553.18	4269.14
553.34	4159.13
553.51	4142.75
553.67	4131.05
553.84	3765.92
554.01	3543.57
554.17	3225.26
554.34	3087.17
554.51	2892.90
554.67	2715.02
554.84	2722.04
555.00	2504.37
555.17	2200.10
555.33	2172.02
555.50	2176.70
555.67	2038.61
555.83	1963.71
556.00	1919.24
556.16	2008.18
556.33	1769.44
556.50	1671.14
556.66	1556.46
556.83	1600.93
556.99	1481.56
557.16	1526.03
557.32	1551.78
557.49	1308.36
557.65	1306.02
557.82	1329.42
557.98	1411.34
558.15	1261.55
558.32	1249.85
558.48	1240.48
558.65	1132.82
558.81	1153.88
558.98	1107.07
559.14	1029.84
559.31	1095.37
559.47	1043.88
559.64	1050.90
559.80	1071.97
559.97	1142.18
560.13	971.32
560.30	943.24
560.46	926.85
560.63	990.05
560.79	978.34
560.96	910.47
561.12	976.00
561.29	952.60
561.45	959.62
561.61	1111.75
561.78	1027.50
561.94	952.60
562.11	1022.81
562.27	959.62
562.44	940.90
562.60	922.17
562.77	868.34
562.93	936.21
563.10	858.98
563.26	880.04
563.42	851.96
563.59	863.66
563.75	884.72
563.92	896.43
564.08	905.79
564.24	835.57
564.41	887.06
564.57	830.89
564.74	765.36
564.90	786.42
565.07	781.74
565.23	887.06
565.39	753.65
565.56	727.91
565.72	671.73
565.88	688.12
566.05	674.07
566.21	692.80
566.38	744.29
566.54	793.44
566.70	744.29
566.87	835.57
567.03	748.97
567.19	812.17
567.36	793.44
567.52	767.70
567.68	812.17
567.85	767.70
568.01	730.25
568.17	828.55
568.34	802.80
568.50	805.14
568.66	821.53
568.83	924.51
568.99	748.97
569.15	793.44
569.32	617.90
569.48	596.84
569.64	669.39
569.81	791.10
569.97	725.57
570.13	692.80
570.30	596.84
570.46	557.05
570.62	578.11
570.78	512.58
570.95	491.51
571.11	564.07
571.27	599.18
571.43	512.58
571.60	580.45
571.76	580.45
571.92	566.41
572.09	526.62
572.25	552.37
572.41	592.16
572.57	479.81
572.74	592.16
572.90	545.34
573.06	571.09
573.22	627.26
573.38	615.56
573.55	678.76
573.71	603.86
573.87	627.26
574.03	566.41
574.20	613.22
574.36	741.95
574.52	610.88
574.68	699.82
574.84	760.67
575.01	751.31
575.17	856.64
575.33	830.89
575.49	873.02
575.65	961.96
575.82	1060.26
575.98	1074.31
576.14	1247.51
576.30	2275.00
576.46	7115.23
576.62	14398.98
576.79	20095.84
576.95	14410.68
577.11	8603.81
577.27	5916.87
577.43	3950.82
577.59	2499.69
577.75	1811.57
577.92	1748.38
578.08	1811.57
578.24	1668.80
578.40	2705.66
578.56	6775.85
578.72	13752.99
578.88	18235.11
579.04	13397.23
579.21	8264.43
579.37	5891.13
579.53	4458.72
579.69	4311.27
579.85	4968.96
580.01	6382.64
580.17	6516.05
580.33	5563.45
580.49	4629.58
580.65	4058.49
580.82	3637.19
580.98	3454.63
581.14	3541.23
581.30	3887.63
581.46	4215.30
581.62	4332.33
581.78	4767.67
581.94	5018.11
582.10	5303.65
582.26	5643.03
582.42	6080.71
582.58	6094.76
582.74	5949.64
582.90	6225.82
583.06	6251.57
583.22	6136.88
583.38	6169.65
583.54	6265.61
583.70	6193.06
583.86	6029.22
584.02	5914.53
584.18	5926.24
584.34	5750.70
584.50	5551.75
584.66	5523.66
584.82	5540.05
584.98	5727.29
585.14	5467.49
585.30	5252.16
585.46	5151.52
585.62	5184.29
585.78	4997.04
585.94	5235.78
586.10	5284.93
586.26	5526.00
586.42	6169.65
586.58	7232.26
586.74	9008.72
586.90	10862.43
587.06	12500.80
587.22	12362.71
587.38	11246.27
587.54	9589.17
587.70	8046.76
587.86	6551.16
588.02	5715.59
588.18	5025.13
588.34	4648.30
588.49	4138.07
588.65	3885.29
588.81	3602.08
588.97	3613.79
589.13	3398.46
589.29	3466.33
589.45	3426.54
589.61	3234.62
589.77	3386.76
589.93	3349.31
590.08	3403.14
590.24	3669.96
590.40	3784.65
590.56	3957.85
590.72	3967.21
590.88	4060.83
591.04	4088.92
591.20	4449.36
591.35	4540.64
591.51	4610.86
591.67	4856.61
591.83	5114.07
591.99	5734.31
592.15	6045.60
592.31	6483.28
592.46	7136.29
592.62	7740.15
592.78	8442.31
592.94	8982.98
593.10	8849.57
593.26	8273.79
593.41	7559.93
593.57	6960.75
593.73	6111.14
593.89	5420.68
594.05	4889.38
594.20	4306.59
594.36	3843.16
594.52	3501.44
594.68	3386.76
594.84	3300.16
594.99	3190.15
595.15	3059.08
595.31	3096.53
595.47	3101.21
595.62	2995.89
595.78	3049.72
595.94	3066.10
596.10	3094.19
596.25	3089.51
596.41	3028.65
596.57	3068.44
596.73	3021.63
596.88	2979.50
597.04	2977.16
597.20	2944.39
597.36	3110.57
597.51	3236.96
597.67	3302.50
597.83	3501.44
597.99	3794.01
598.14	4049.13
598.30	4032.74
598.46	4404.89
598.61	4608.51
598.77	4652.98
598.93	4882.36
599.09	5050.88
599.24	5327.06
599.40	5287.27
599.56	5203.01
599.71	4849.59
599.87	4603.83
600.03	4299.56
600.18	4039.76
600.34	3637.19
600.50	3501.44
600.65	3295.47
600.81	3211.22
600.97	2993.55
601.12	2871.84
601.28	2743.11
601.44	2504.37
601.59	2417.77
601.75	2312.45
601.91	2197.76
602.06	2143.93
602.22	2162.66
602.37	1947.33
602.53	2012.86
602.69	2092.44
602.84	1837.32
603.00	1994.14
603.16	2005.84
603.31	1961.37
603.47	2141.59
603.62	2026.90
603.78	2141.59
603.94	2176.70
604.09	2246.91
604.25	2298.41
604.40	2263.30
604.56	2338.20
604.71	2293.72
