SpectraSuite Data File
++++++++++++++++++++++++++++++++++++
Date: Fri Oct 04 11:42:03 GMT-05:00 2013
User: price-jones
Dark Spectrum Present: No
Reference Spectrum Present: No
Number of Sampled Component Spectra: 1
Spectrometers: USB2+H05261
Integration Time (usec): 100000 (USB2+H05261)
Spectra Averaged: 1 (USB2+H05261)
Boxcar Smoothing: 0 (USB2+H05261)
Correct for Electrical Dark: No (USB2+H05261)
Strobe/Lamp Enabled: No (USB2+H05261)
Correct for Detector Non-linearity: No (USB2+H05261)
Correct for Stray Light: No (USB2+H05261)
Number of Pixels in Processed Spectrum: 2048
>>>>>Begin Processed Spectral Data<<<<<
365.73	0.00
365.92	0.00
366.12	0.00
366.32	0.00
366.52	0.00
366.72	0.00
366.91	0.00
367.11	0.00
367.31	0.00
367.51	0.00
367.70	30.43
367.90	0.00
368.10	0.00
368.30	0.00
368.49	0.00
368.69	0.00
368.89	0.00
369.09	0.00
369.28	0.00
369.48	0.00
369.68	0.00
369.87	23.41
370.07	7.02
370.27	0.00
370.47	18.72
370.66	46.81
370.86	91.28
371.06	70.22
371.25	124.05
371.45	124.05
371.65	156.82
371.84	91.28
372.04	39.79
372.24	138.09
372.44	180.22
372.63	110.01
372.83	138.09
373.03	86.60
373.22	112.35
373.42	142.77
373.62	110.01
373.81	252.78
374.01	100.64
374.21	119.37
374.40	173.20
374.60	215.33
374.79	145.11
374.99	91.28
375.19	194.26
375.38	98.30
375.58	138.09
375.78	170.86
375.97	114.69
376.17	152.13
376.37	56.17
376.56	142.77
376.76	119.37
376.95	163.84
377.15	189.58
377.35	105.32
377.54	60.85
377.74	166.18
377.93	112.35
378.13	93.62
378.33	177.88
378.52	184.90
378.72	72.56
378.91	142.77
379.11	102.98
379.31	168.52
379.50	152.13
379.70	135.75
379.89	133.41
380.09	121.71
380.28	86.60
380.48	93.62
380.68	105.32
380.87	21.06
381.07	112.35
381.26	110.01
381.46	152.13
381.65	126.39
381.85	117.03
382.04	163.84
382.24	187.24
382.43	95.96
382.63	114.69
382.83	180.22
383.02	182.56
383.22	154.48
383.41	84.26
383.61	107.66
383.80	133.41
384.00	91.28
384.19	173.20
384.39	154.48
384.58	128.73
384.78	114.69
384.97	98.30
385.17	131.07
385.36	107.66
385.56	79.58
385.75	124.05
385.95	138.09
386.14	149.79
386.34	182.56
386.53	152.13
386.72	124.05
386.92	119.37
387.11	91.28
387.31	131.07
387.50	39.79
387.70	81.92
387.89	208.31
388.09	175.54
388.28	81.92
388.48	102.98
388.67	184.90
388.86	154.48
389.06	126.39
389.25	77.24
389.45	138.09
389.64	95.96
389.84	128.73
390.03	133.41
390.22	189.58
390.42	126.39
390.61	105.32
390.81	72.56
391.00	131.07
391.19	161.50
391.39	112.35
391.58	161.50
391.78	177.88
391.97	114.69
392.16	95.96
392.36	114.69
392.55	205.97
392.75	149.79
392.94	102.98
393.13	112.35
393.33	182.56
393.52	149.79
393.71	107.66
393.91	168.52
394.10	149.79
394.29	182.56
394.49	145.11
394.68	156.82
394.88	131.07
395.07	173.20
395.26	145.11
395.46	182.56
395.65	224.69
395.84	135.75
396.04	194.26
396.23	133.41
396.42	126.39
396.62	98.30
396.81	121.71
397.00	142.77
397.19	107.66
397.39	133.41
397.58	142.77
397.77	98.30
397.97	138.09
398.16	161.50
398.35	173.20
398.55	93.62
398.74	203.63
398.93	112.35
399.12	161.50
399.32	105.32
399.51	145.11
399.70	187.24
399.90	166.18
400.09	198.95
400.28	184.90
400.47	205.97
400.67	163.84
400.86	180.22
401.05	159.16
401.24	161.50
401.44	184.90
401.63	180.22
401.82	203.63
402.01	77.24
402.21	177.88
402.40	175.54
402.59	184.90
402.78	161.50
402.97	280.86
403.17	220.01
403.36	280.86
403.55	355.76
403.74	716.20
403.93	2209.47
404.13	5820.91
404.32	9579.81
404.51	10129.84
404.70	6588.61
404.89	2366.28
405.09	669.39
405.28	358.10
405.47	262.14
405.66	231.71
405.85	255.12
406.05	166.18
406.24	255.12
406.43	222.35
406.62	266.82
406.81	227.03
407.00	339.38
407.20	678.76
407.39	1219.42
407.58	1469.86
407.77	1055.58
407.96	575.77
408.15	290.23
408.34	194.26
408.54	229.37
408.73	194.26
408.92	229.37
409.11	196.60
409.30	287.89
409.49	170.86
409.68	189.58
409.87	255.12
410.07	142.77
410.26	208.31
410.45	236.39
410.64	173.20
410.83	278.52
411.02	264.48
411.21	147.45
411.40	238.73
411.59	252.78
411.78	220.01
411.98	299.59
412.17	252.78
412.36	212.99
412.55	156.82
412.74	248.10
412.93	266.82
413.12	252.78
413.31	252.78
413.50	304.27
413.69	238.73
413.88	297.25
414.07	250.44
414.26	227.03
414.45	266.82
414.64	252.78
414.83	184.90
415.02	301.93
415.22	262.14
415.41	250.44
415.60	241.08
415.79	257.46
415.98	297.25
416.17	290.23
416.36	334.70
416.55	360.44
416.74	337.04
416.93	315.97
417.12	255.12
417.31	234.05
417.50	276.18
417.69	322.99
417.88	283.20
418.07	287.89
418.26	252.78
418.45	339.38
418.64	390.87
418.83	369.80
419.02	276.18
419.21	243.42
419.39	365.12
419.58	379.17
419.77	262.14
419.96	299.59
420.15	322.99
420.34	297.25
420.53	353.42
420.72	369.80
420.91	421.30
421.10	315.97
421.29	379.17
421.48	308.95
421.67	360.44
421.86	280.86
422.05	362.78
422.24	334.70
422.43	311.29
422.61	205.97
422.80	318.31
422.99	351.08
423.18	365.12
423.37	383.85
423.56	367.46
423.75	308.95
423.94	402.57
424.13	311.29
424.32	285.55
424.50	390.87
424.69	287.89
424.88	400.23
425.07	430.66
425.26	327.68
425.45	435.34
425.64	362.78
425.83	433.00
426.01	397.89
426.20	367.46
426.39	306.61
426.58	376.83
426.77	435.34
426.96	430.66
427.15	442.36
427.33	360.44
427.52	334.70
427.71	393.21
427.90	418.96
428.09	451.72
428.28	365.12
428.46	360.44
428.65	376.83
428.84	381.51
429.03	482.15
429.22	512.58
429.40	428.32
429.59	463.43
429.78	395.55
429.97	379.17
430.16	360.44
430.34	456.40
430.53	437.68
430.72	442.36
430.91	517.26
431.10	447.04
431.28	423.64
431.47	468.11
431.66	514.92
431.85	507.90
432.03	435.34
432.22	486.83
432.41	606.20
432.60	543.00
432.79	472.79
432.97	669.39
433.16	615.56
433.35	674.07
433.54	748.97
433.72	737.27
433.91	781.74
434.10	926.85
434.28	1057.92
434.47	1348.15
434.66	1392.62
434.85	1671.14
435.03	3747.20
435.22	13884.06
435.41	35793.81
435.59	49130.19
435.78	36587.25
435.97	16669.30
436.16	5944.96
436.34	2038.61
436.53	1210.06
436.72	936.21
436.90	774.72
437.09	723.23
437.28	660.03
437.46	678.76
437.65	573.43
437.84	664.71
438.02	566.41
438.21	653.01
438.40	566.41
438.58	575.77
438.77	608.54
438.96	678.76
439.14	585.13
439.33	585.13
439.52	624.92
439.70	559.39
439.89	655.35
440.08	585.13
440.26	540.66
440.45	582.79
440.63	603.86
440.82	550.03
441.01	601.52
441.19	561.73
441.38	552.37
441.57	550.03
441.75	629.60
441.94	606.20
442.12	517.26
442.31	585.13
442.50	615.56
442.68	543.00
442.87	554.71
443.05	575.77
443.24	636.63
443.43	643.65
443.61	585.13
443.80	554.71
443.98	552.37
444.17	533.64
444.35	561.73
444.54	559.39
444.73	592.16
444.91	535.98
445.10	653.01
445.28	587.47
445.47	580.45
445.65	514.92
445.84	540.66
446.02	587.47
446.21	596.84
446.39	507.90
446.58	512.58
446.77	491.51
446.95	486.83
447.14	606.20
447.32	552.37
447.51	575.77
447.69	571.09
447.88	594.50
448.06	589.82
448.25	554.71
448.43	585.13
448.62	587.47
448.80	493.85
448.99	617.90
449.17	491.51
449.36	606.20
449.54	643.65
449.73	657.69
449.91	638.97
450.10	650.67
450.28	608.54
450.46	664.71
450.65	711.52
450.83	653.01
451.02	580.45
451.20	648.33
451.39	580.45
451.57	524.28
451.76	599.18
451.94	550.03
452.13	596.84
452.31	638.97
452.49	603.86
452.68	641.31
452.86	559.39
453.05	624.92
453.23	559.39
453.42	601.52
453.60	547.69
453.78	585.13
453.97	503.22
454.15	559.39
454.34	559.39
454.52	535.98
454.70	596.84
454.89	500.87
455.07	517.26
455.26	578.11
455.44	571.09
455.62	526.62
455.81	568.75
455.99	514.92
456.17	547.69
456.36	479.81
456.54	575.77
456.73	512.58
456.91	594.50
457.09	489.17
457.28	636.63
457.46	622.58
457.64	585.13
457.83	500.87
458.01	505.56
458.19	557.05
458.38	540.66
458.56	582.79
458.74	552.37
458.93	491.51
459.11	568.75
459.29	458.74
459.48	547.69
459.66	594.50
459.84	582.79
460.03	650.67
460.21	447.04
460.39	571.09
460.57	585.13
460.76	512.58
460.94	620.24
461.12	575.77
461.31	599.18
461.49	507.90
461.67	449.38
461.85	484.49
462.04	561.73
462.22	926.85
462.40	589.82
462.59	557.05
462.77	524.28
462.95	500.87
463.13	533.64
463.32	550.03
463.50	582.79
463.68	547.69
463.86	587.47
464.05	543.00
464.23	599.18
464.41	545.34
464.59	559.39
464.78	606.20
464.96	631.94
465.14	545.34
465.32	524.28
465.50	517.26
465.69	554.71
465.87	507.90
466.05	444.70
466.23	458.74
466.41	461.09
466.60	561.73
466.78	528.96
466.96	655.35
467.14	613.22
467.32	608.54
467.51	608.54
467.69	582.79
467.87	580.45
468.05	547.69
468.23	550.03
468.41	535.98
468.60	482.15
468.78	521.94
468.96	596.84
469.14	575.77
469.32	535.98
469.50	500.87
469.69	538.32
469.87	531.30
470.05	514.92
470.23	486.83
470.41	521.94
470.59	554.71
470.77	538.32
470.95	500.87
471.14	519.60
471.32	524.28
471.50	606.20
471.68	575.77
471.86	580.45
472.04	533.64
472.22	486.83
472.40	428.32
472.58	519.60
472.77	557.05
472.95	423.64
473.13	599.18
473.31	596.84
473.49	540.66
473.67	510.24
473.85	484.49
474.03	470.45
474.21	531.30
474.39	564.07
474.57	573.43
474.75	521.94
474.93	550.03
475.12	486.83
475.30	521.94
475.48	456.40
475.66	561.73
475.84	496.19
476.02	531.30
476.20	489.17
476.38	486.83
476.56	533.64
476.74	594.50
476.92	547.69
477.10	533.64
477.28	545.34
477.46	627.26
477.64	631.94
477.82	554.71
478.00	566.41
478.18	578.11
478.36	585.13
478.54	601.52
478.72	622.58
478.90	615.56
479.08	592.16
479.26	664.71
479.44	582.79
479.62	594.50
479.80	695.14
479.98	741.95
480.16	770.04
480.34	814.51
480.52	844.93
480.70	877.70
480.88	873.02
481.06	840.25
481.24	905.79
481.41	1071.97
481.59	1156.22
481.77	1142.18
481.95	1142.18
482.13	1308.36
482.31	1331.76
482.49	1486.24
482.67	1577.52
482.85	1727.32
483.03	1771.79
483.21	1895.83
483.39	1968.39
483.57	2223.51
483.74	2305.43
483.92	2303.09
484.10	2471.61
484.28	2574.59
484.46	2766.51
484.64	2986.52
484.82	3173.77
485.00	3211.22
485.18	3454.63
485.35	3651.24
485.53	3775.28
485.71	4105.30
485.89	4086.58
486.07	4142.75
486.25	4250.41
486.43	4379.14
486.61	4388.50
486.78	4351.06
486.96	4234.03
487.14	4456.38
487.32	4320.63
487.50	4301.90
487.68	4212.96
487.85	4161.47
488.03	4051.47
488.21	3960.19
488.39	3960.19
488.57	3875.93
488.75	3885.29
488.92	3960.19
489.10	3674.64
489.28	3613.79
489.46	3543.57
489.64	3440.59
489.81	3332.92
489.99	3269.73
490.17	3171.43
490.35	3222.92
490.53	3239.30
490.70	3183.13
490.88	3220.58
491.06	3389.10
491.24	3646.55
491.41	3691.02
491.59	3588.04
491.77	3218.24
491.95	3115.25
492.13	2918.65
492.30	3002.91
492.48	2888.22
492.66	2876.52
492.84	2864.82
493.01	2853.11
493.19	2841.41
493.37	2778.22
493.54	2686.94
493.72	2583.95
493.90	2614.38
494.08	2614.38
494.25	2551.18
494.43	2558.21
494.61	2471.61
494.79	2457.56
494.96	2511.39
495.14	2373.30
495.32	2221.17
495.49	2232.87
495.67	2260.96
495.85	2218.83
496.02	2169.68
496.20	2211.81
496.38	2120.53
496.55	2160.31
496.73	2047.97
496.91	2008.18
497.09	1991.80
497.26	1952.01
497.44	1987.11
497.62	1823.28
497.79	1860.73
497.97	1732.00
498.14	1722.63
498.32	1673.48
498.50	1715.61
498.67	1633.69
498.85	1556.46
499.03	1593.90
499.20	1493.26
499.38	1479.22
499.56	1521.35
499.73	1397.30
499.91	1427.73
500.08	1427.73
500.26	1387.94
500.44	1219.42
500.61	1233.46
500.79	1118.78
500.97	1196.01
501.14	1039.20
501.32	1067.28
501.49	1170.27
501.67	1057.92
501.84	1022.81
502.02	1067.28
502.20	947.92
502.37	1081.33
502.55	964.30
502.72	968.98
502.90	826.21
503.07	894.08
503.25	807.48
503.43	814.51
503.60	786.42
503.78	779.40
503.95	788.76
504.13	772.38
504.30	765.36
504.48	741.95
504.65	755.99
504.83	786.42
505.01	739.61
505.18	711.52
505.36	671.73
505.53	650.67
505.71	641.31
505.88	634.29
506.06	645.99
506.23	641.31
506.41	594.50
506.58	629.60
506.76	617.90
506.93	514.92
507.11	561.73
507.28	543.00
507.46	468.11
507.63	622.58
507.81	582.79
507.98	585.13
508.16	557.05
508.33	517.26
508.50	603.86
508.68	615.56
508.85	631.94
509.03	662.37
509.20	664.71
509.38	615.56
509.55	624.92
509.73	629.60
509.90	592.16
510.08	491.51
510.25	557.05
510.42	505.56
510.60	519.60
510.77	547.69
510.95	571.09
511.12	496.19
511.30	554.71
511.47	517.26
511.64	552.37
511.82	535.98
511.99	557.05
512.17	484.49
512.34	433.00
512.51	538.32
512.69	456.40
512.86	559.39
513.04	482.15
513.21	486.83
513.38	512.58
513.56	500.87
513.73	528.96
513.90	505.56
514.08	416.62
514.25	435.34
514.43	573.43
514.60	414.27
514.77	472.79
514.95	454.06
515.12	372.15
515.29	414.27
515.47	470.45
515.64	458.74
515.81	486.83
515.99	517.26
516.16	475.13
516.33	425.98
516.51	507.90
516.68	400.23
516.85	493.85
517.03	376.83
517.20	428.32
517.37	528.96
517.54	440.02
517.72	472.79
517.89	442.36
518.06	423.64
518.24	465.77
518.41	418.96
518.58	425.98
518.75	404.91
518.93	425.98
519.10	414.27
519.27	390.87
519.45	444.70
519.62	477.47
519.79	423.64
519.96	367.46
520.14	437.68
520.31	365.12
520.48	397.89
520.65	440.02
520.83	376.83
521.00	411.93
521.17	397.89
521.34	383.85
521.52	463.43
521.69	442.36
521.86	470.45
522.03	430.66
522.20	442.36
522.38	507.90
522.55	376.83
522.72	440.02
522.89	393.21
523.07	449.38
523.24	428.32
523.41	400.23
523.58	381.51
523.75	503.22
523.92	388.53
524.10	348.74
524.27	447.04
524.44	482.15
524.61	454.06
524.78	414.27
524.96	472.79
525.13	440.02
525.30	468.11
525.47	468.11
525.64	461.09
525.81	582.79
525.98	379.17
526.16	535.98
526.33	433.00
526.50	496.19
526.67	411.93
526.84	491.51
527.01	477.47
527.18	552.37
527.36	589.82
527.53	554.71
527.70	561.73
527.87	603.86
528.04	599.18
528.21	449.38
528.38	458.74
528.55	561.73
528.72	528.96
528.89	580.45
529.07	540.66
529.24	585.13
529.41	601.52
529.58	540.66
529.75	580.45
529.92	638.97
530.09	702.16
530.26	622.58
530.43	566.41
530.60	629.60
530.77	664.71
530.94	662.37
531.11	716.20
531.28	739.61
531.46	716.20
531.63	730.25
531.80	791.10
531.97	847.27
532.14	978.34
532.31	1151.54
532.48	1336.45
532.65	1535.39
532.82	1893.49
532.99	2059.67
533.16	2502.03
533.33	2722.04
533.50	2469.27
533.67	2195.42
533.84	1788.17
534.01	1647.74
534.18	1544.75
534.35	1511.99
534.52	1537.73
534.69	1565.82
534.86	1495.60
535.03	1558.80
535.20	1748.38
535.37	1753.06
535.54	1853.70
535.71	1811.57
535.88	2148.61
536.05	2209.47
536.22	2410.75
536.38	2628.42
536.55	2672.89
536.72	3049.72
536.89	3496.76
537.06	3955.51
537.23	4243.39
537.40	4753.63
537.57	5217.05
537.74	5416.00
537.91	5673.46
538.08	5668.78
538.25	5764.74
538.42	5879.43
538.59	6132.20
538.75	6162.63
538.92	6686.91
539.09	7155.02
539.26	7948.46
539.43	9090.64
539.60	10244.52
539.77	11475.65
539.94	12767.62
540.11	14544.09
540.28	15871.17
540.44	17135.06
540.61	18988.77
540.78	21462.71
540.95	25535.24
541.12	31072.95
541.29	35775.09
541.46	37804.33
541.62	37509.43
541.79	36521.72
541.96	33427.53
542.13	31367.86
542.30	29385.43
542.47	27316.39
542.63	25727.17
542.80	24978.20
542.97	24638.82
543.14	24790.95
543.31	24666.91
543.48	24065.39
543.64	24837.76
543.81	25233.32
543.98	25270.76
544.15	25259.06
544.32	25682.70
544.48	25781.00
544.65	25170.12
544.82	24549.88
544.99	24460.94
545.16	25572.69
545.32	26696.15
545.49	38630.54
545.66	59587.70
545.83	65535.00
546.00	65535.00
546.16	60977.98
546.33	43725.89
546.50	33404.13
546.67	26115.70
546.83	23133.86
547.00	21942.52
547.17	21247.38
547.34	20498.41
547.50	19520.07
547.67	18611.94
547.84	17619.55
548.00	17167.83
548.17	16568.65
548.34	15822.02
548.51	15396.04
548.67	14736.01
548.84	13628.94
549.01	13369.14
549.18	12585.06
549.34	12145.04
549.51	11555.22
549.68	11318.83
549.84	10640.08
550.01	10195.37
550.18	9598.54
550.34	9254.48
550.51	8933.82
550.68	8592.11
550.84	8018.68
551.01	7616.10
551.18	7204.17
551.34	6820.32
551.51	6593.29
551.68	6356.90
551.84	5891.13
552.01	5827.93
552.18	5692.18
552.34	5317.70
552.51	5064.92
552.68	4737.24
552.84	4711.50
553.01	4580.43
553.18	4458.72
553.34	4212.96
553.51	4168.49
553.67	4152.11
553.84	3922.74
554.01	3583.36
554.17	3421.86
554.34	3045.04
554.51	2977.16
554.67	2757.15
554.84	2527.78
555.00	2523.10
555.17	2279.68
555.33	2342.88
555.50	2211.81
555.67	1982.43
555.83	1881.79
556.00	1856.04
556.16	1942.64
556.33	1739.02
556.50	1671.14
556.66	1586.88
556.83	1516.67
556.99	1563.48
557.16	1502.62
557.32	1397.30
557.49	1441.77
557.65	1416.02
557.82	1238.14
557.98	1399.64
558.15	1287.29
558.32	1254.53
558.48	1277.93
558.65	1238.14
558.81	1245.16
558.98	1090.69
559.14	1097.71
559.31	1048.56
559.47	1008.77
559.64	1086.01
559.80	1055.58
559.97	1041.54
560.13	943.24
560.30	952.60
560.46	945.58
560.63	1029.84
560.79	1034.52
560.96	1069.62
561.12	964.30
561.29	964.30
561.45	947.92
561.61	1001.75
561.78	1114.10
561.94	978.34
562.11	887.06
562.27	1018.13
562.44	1006.43
562.60	968.98
562.77	1069.62
562.93	1041.54
563.10	947.92
563.26	828.55
563.42	980.68
563.59	1025.15
563.75	884.72
563.92	821.53
564.08	844.93
564.24	889.40
564.41	844.93
564.57	828.55
564.74	793.44
564.90	861.32
565.07	786.42
565.23	856.64
565.39	793.44
565.56	706.84
565.72	751.31
565.88	840.25
566.05	716.20
566.21	730.25
566.38	732.59
566.54	821.53
566.70	805.14
566.87	697.48
567.03	725.57
567.19	837.91
567.36	807.48
567.52	835.57
567.68	856.64
567.85	791.10
568.01	823.87
568.17	730.25
568.34	837.91
568.50	816.85
568.66	868.34
568.83	788.76
568.99	765.36
569.15	835.57
569.32	709.18
569.48	690.46
569.64	709.18
569.81	622.58
569.97	671.73
570.13	636.63
570.30	653.01
570.46	589.82
570.62	531.30
570.78	545.34
570.95	617.90
571.11	561.73
571.27	526.62
571.43	557.05
571.60	587.47
571.76	512.58
571.92	603.86
572.09	543.00
572.25	589.82
572.41	606.20
572.57	566.41
572.74	596.84
572.90	538.32
573.06	568.75
573.22	622.58
573.38	608.54
573.55	620.24
573.71	648.33
573.87	688.12
574.03	627.26
574.20	664.71
574.36	685.78
574.52	784.08
574.68	758.33
574.84	784.08
575.01	674.07
575.17	873.02
575.33	898.77
575.49	926.85
575.65	945.58
575.82	1158.57
575.98	1203.04
576.14	1413.68
576.30	2373.30
576.46	7445.24
576.62	15007.52
576.79	21256.75
576.95	14382.59
577.11	8788.71
577.27	6031.56
577.43	3983.59
577.59	2593.31
577.75	1973.07
577.92	1757.74
578.08	1621.99
578.24	1727.32
578.40	2637.78
578.56	6827.34
578.72	13523.62
578.88	19515.39
579.04	14068.96
579.21	8414.23
579.37	6069.01
579.53	4774.69
579.69	4381.48
579.85	5373.87
580.01	6490.31
580.17	6867.13
580.33	5675.80
580.49	4770.01
580.65	4051.47
580.82	3829.12
580.98	3691.02
581.14	3660.60
581.30	3941.46
581.46	4126.36
581.62	4449.36
581.78	4835.55
581.94	5055.56
582.10	5406.64
582.26	5701.54
582.42	5937.94
582.58	6251.57
582.74	6094.76
582.90	6303.06
583.06	6403.71
583.22	6204.76
583.38	6394.34
583.54	6492.65
583.70	6513.71
583.86	6211.78
584.02	6321.79
584.18	5966.03
584.34	5851.34
584.50	5863.04
584.66	5647.71
584.82	5799.85
584.98	5645.37
585.14	5385.57
585.30	5406.64
585.46	5188.97
585.62	5226.42
585.78	5247.48
585.94	5135.14
586.10	5221.74
586.26	5511.96
586.42	6148.59
586.58	7276.73
586.74	9057.87
586.90	11229.89
587.06	12762.94
587.22	12872.95
587.38	11473.31
587.54	10017.49
587.70	8030.38
587.86	6764.15
588.02	5900.49
588.18	5107.05
588.34	4643.62
588.49	4264.46
588.65	3892.31
588.81	3833.80
588.97	3679.32
589.13	3524.85
589.29	3517.83
589.45	3471.01
589.61	3370.37
589.77	3482.72
589.93	3473.36
590.08	3630.17
590.24	3618.47
590.40	3786.99
590.56	4039.76
590.72	3955.51
590.88	4077.21
591.04	4360.42
591.20	4407.23
591.35	4690.43
591.51	4788.74
591.67	4985.34
591.83	5446.43
591.99	5673.46
592.15	6296.04
592.31	6906.92
592.46	7470.99
592.62	8077.19
592.78	8681.05
592.94	9132.77
593.10	9097.66
593.26	8514.87
593.41	7957.82
593.57	6981.82
593.73	6078.37
593.89	5701.54
594.05	5050.88
594.20	4465.74
594.36	4037.42
594.52	3662.94
594.68	3557.61
594.84	3513.14
594.99	3344.63
595.15	3302.50
595.31	3204.19
595.47	3066.10
595.62	3164.40
595.78	3110.57
595.94	3166.74
596.10	3110.57
596.25	3194.83
596.41	3176.11
596.57	3098.87
596.73	3045.04
596.88	2995.89
597.04	3019.29
597.20	3166.74
597.36	3166.74
597.51	3442.93
597.67	3487.40
597.83	3665.28
597.99	3749.54
598.14	3950.82
598.30	4315.95
598.46	4484.47
598.61	4758.31
598.77	4971.30
598.93	5085.98
599.09	5179.61
599.24	5469.83
599.40	5350.46
599.56	5146.84
599.71	4968.96
599.87	4671.71
600.03	4587.45
600.18	4322.97
600.34	3880.61
600.50	3712.09
600.65	3501.44
600.81	3225.26
600.97	2972.48
601.12	2789.92
601.28	2780.56
601.44	2644.81
601.59	2478.63
601.75	2422.45
601.91	2282.02
602.06	2328.83
602.22	2200.10
602.37	2076.06
602.53	1996.48
602.69	2083.08
602.84	1996.48
603.00	2080.74
603.16	2108.82
603.31	2057.33
603.47	2155.63
603.62	2190.74
603.78	2209.47
603.94	2328.83
604.09	2356.92
604.25	2347.56
604.40	2328.83
604.56	2319.47
