SpectraSuite Data File
++++++++++++++++++++++++++++++++++++
Date: Fri Oct 04 11:42:23 GMT-05:00 2013
User: price-jones
Dark Spectrum Present: No
Reference Spectrum Present: No
Number of Sampled Component Spectra: 1
Spectrometers: USB2+H05261
Integration Time (usec): 100000 (USB2+H05261)
Spectra Averaged: 1 (USB2+H05261)
Boxcar Smoothing: 0 (USB2+H05261)
Correct for Electrical Dark: No (USB2+H05261)
Strobe/Lamp Enabled: No (USB2+H05261)
Correct for Detector Non-linearity: No (USB2+H05261)
Correct for Stray Light: No (USB2+H05261)
Number of Pixels in Processed Spectrum: 2048
>>>>>Begin Processed Spectral Data<<<<<
365.73	51.49
365.92	51.49
366.12	51.49
366.32	0.00
366.52	0.00
366.72	0.00
366.91	56.17
367.11	0.00
367.31	0.00
367.51	0.00
367.70	0.00
367.90	0.00
368.10	0.00
368.30	0.00
368.49	0.00
368.69	0.00
368.89	0.00
369.09	0.00
369.28	0.00
369.48	0.00
369.68	7.02
369.87	0.00
370.07	0.00
370.27	28.09
370.47	154.48
370.66	292.57
370.86	365.12
371.06	437.68
371.25	447.04
371.45	390.87
371.65	358.10
371.84	327.68
372.04	276.18
372.24	435.34
372.44	400.23
372.63	369.80
372.83	468.11
373.03	435.34
373.22	353.42
373.42	365.12
373.62	367.46
373.81	400.23
374.01	505.56
374.21	433.00
374.40	367.46
374.60	421.30
374.79	360.44
374.99	491.51
375.19	491.51
375.38	493.85
375.58	458.74
375.78	552.37
375.97	489.17
376.17	528.96
376.37	435.34
376.56	505.56
376.76	500.87
376.95	517.26
377.15	514.92
377.35	622.58
377.54	615.56
377.74	620.24
377.93	559.39
378.13	594.50
378.33	617.90
378.52	519.60
378.72	477.47
378.91	503.22
379.11	395.55
379.31	538.32
379.50	470.45
379.70	571.09
379.89	561.73
380.09	573.43
380.28	578.11
380.48	587.47
380.68	617.90
380.87	653.01
381.07	528.96
381.26	566.41
381.46	543.00
381.65	477.47
381.85	411.93
382.04	472.79
382.24	496.19
382.43	442.36
382.63	437.68
382.83	330.02
383.02	395.55
383.22	365.12
383.41	402.57
383.61	386.19
383.80	407.25
384.00	451.72
384.19	521.94
384.39	613.22
384.58	615.56
384.78	711.52
384.97	543.00
385.17	465.77
385.36	470.45
385.56	512.58
385.75	524.28
385.95	514.92
386.14	629.60
386.34	599.18
386.53	496.19
386.72	451.72
386.92	606.20
387.11	575.77
387.31	557.05
387.50	543.00
387.70	540.66
387.89	566.41
388.09	566.41
388.28	531.30
388.48	571.09
388.67	645.99
388.86	643.65
389.06	695.14
389.25	753.65
389.45	777.06
389.64	770.04
389.84	718.54
390.03	720.88
390.22	634.29
390.42	725.57
390.61	758.33
390.81	830.89
391.00	875.36
391.19	849.61
391.39	800.46
391.58	807.48
391.78	748.97
391.97	636.63
392.16	634.29
392.36	636.63
392.55	580.45
392.75	447.04
392.94	365.12
393.13	470.45
393.33	400.23
393.52	383.85
393.71	627.26
393.91	664.71
394.10	660.03
394.29	788.76
394.49	903.45
394.68	863.66
394.88	931.53
395.07	889.40
395.26	882.38
395.46	828.55
395.65	816.85
395.84	706.84
396.04	615.56
396.23	596.84
396.42	463.43
396.62	489.17
396.81	629.60
397.00	624.92
397.19	711.52
397.39	849.61
397.58	863.66
397.77	919.83
397.97	987.71
398.16	1013.45
398.35	976.00
398.55	1081.33
398.74	1074.31
398.93	1174.95
399.12	1226.44
399.32	1132.82
399.51	1043.88
399.70	1238.14
399.90	1179.63
400.09	1146.86
400.28	1247.51
400.47	1184.31
400.67	1228.78
400.86	1254.53
401.05	1273.25
401.24	1231.12
401.44	1294.32
401.63	1362.19
401.82	1245.16
402.01	1277.93
402.21	1252.19
402.40	1247.51
402.59	1193.67
402.78	1249.85
402.97	1083.67
403.17	1188.99
403.36	1303.68
403.55	1193.67
403.74	1313.04
403.93	1233.46
404.13	1172.61
404.32	1273.25
404.51	1266.23
404.70	1378.58
404.89	1294.32
405.09	1327.08
405.28	1263.89
405.47	1172.61
405.66	1259.21
405.85	1158.57
406.05	1165.59
406.24	1284.95
406.43	1184.31
406.62	1273.25
406.81	1369.21
407.00	1245.16
407.20	1235.80
407.39	1245.16
407.58	1334.11
407.77	1327.08
407.96	1369.21
408.15	1366.87
408.34	1416.02
408.54	1465.18
408.73	1547.09
408.92	1399.64
409.11	1413.68
409.30	1263.89
409.49	1193.67
409.68	1156.22
409.87	1249.85
410.07	1207.72
410.26	1240.48
410.45	1432.41
410.64	1341.13
410.83	1418.36
411.02	1516.67
411.21	1558.80
411.40	1474.54
411.59	1533.05
411.78	1490.92
411.98	1551.78
412.17	1469.86
412.36	1476.88
412.55	1406.66
412.74	1390.28
412.93	1476.88
413.12	1394.96
413.31	1621.99
413.50	1530.71
413.69	1572.84
413.88	1533.05
414.07	1577.52
414.26	1528.37
414.45	1537.73
414.64	1593.90
414.83	1451.13
415.02	1577.52
415.22	1614.97
415.41	1593.90
415.60	1558.80
415.79	1645.40
415.98	1694.55
416.17	1734.34
416.36	1657.10
416.55	1605.61
416.74	1614.97
416.93	1542.41
417.12	1558.80
417.31	1558.80
417.50	1624.33
417.69	1565.82
417.88	1621.99
418.07	1565.82
418.26	1654.76
418.45	1577.52
418.64	1771.79
418.83	1652.42
419.02	1748.38
419.21	1675.82
419.39	1577.52
419.58	1540.07
419.77	1547.09
419.96	1652.42
420.15	1713.27
420.34	1764.76
420.53	1750.72
420.72	1746.04
420.91	1820.94
421.10	1827.96
421.29	1790.51
421.48	1671.14
421.67	1734.34
421.86	1760.08
422.05	1715.61
422.24	1533.05
422.43	1455.81
422.61	1586.88
422.80	1659.44
422.99	1844.34
423.18	1680.50
423.37	1706.25
423.56	1631.35
423.75	1650.08
423.94	1657.10
424.13	1671.14
424.32	1631.35
424.50	1638.38
424.69	1579.86
424.88	1556.46
425.07	1575.18
425.26	1519.01
425.45	1600.93
425.64	1626.67
425.83	1493.26
426.01	1701.57
426.20	1650.08
426.39	1542.41
426.58	1558.80
426.77	1547.09
426.96	1446.45
427.15	1493.26
427.33	1633.69
427.52	1593.90
427.71	1689.87
427.90	1598.59
428.09	1572.84
428.28	1535.39
428.46	1570.50
428.65	1472.20
428.84	1582.20
429.03	1614.97
429.22	1479.22
429.40	1385.60
429.59	1315.38
429.78	1193.67
429.97	1228.78
430.16	1193.67
430.34	1200.69
430.53	1170.27
430.72	1228.78
430.91	1233.46
431.10	1519.01
431.28	1659.44
431.47	1849.02
431.66	1837.32
431.85	1755.40
432.03	1640.72
432.22	1732.00
432.41	1600.93
432.60	1652.42
432.79	1724.97
432.97	1856.04
433.16	1748.38
433.35	1757.74
433.54	1619.65
433.72	1455.81
433.91	1526.03
434.10	1624.33
434.28	1727.32
434.47	1820.94
434.66	1933.28
434.85	1706.25
435.03	1790.51
435.22	2078.40
435.41	2394.37
435.59	2380.32
435.78	2328.83
435.97	2134.57
436.16	2071.37
436.34	1902.86
436.53	1858.39
436.72	1891.15
436.90	1816.26
437.09	1795.19
437.28	1762.42
437.46	1853.70
437.65	1767.10
437.84	1724.97
438.02	1664.12
438.21	1673.48
438.40	1675.82
438.58	1764.76
438.77	1783.49
438.96	1837.32
439.14	1753.06
439.33	1933.28
439.52	1982.43
439.70	1921.58
439.89	1902.86
440.08	1874.77
440.26	1956.69
440.45	1994.14
440.63	1949.67
440.82	2038.61
441.01	1998.82
441.19	2111.16
441.38	2120.53
441.57	2012.86
441.75	2207.13
441.94	2181.38
442.12	2134.57
442.31	2157.97
442.50	2176.70
442.68	2160.31
442.87	2134.57
443.05	2129.89
443.24	2176.70
443.43	2099.46
443.61	2209.47
443.80	2296.07
443.98	2211.81
444.17	2160.31
444.35	2223.51
444.54	2312.45
444.73	2279.68
444.91	2120.53
445.10	2062.01
445.28	1991.80
445.47	2017.54
445.65	1952.01
445.84	2015.20
446.02	2246.91
446.21	2200.10
446.39	2113.50
446.58	2155.63
446.77	2106.48
446.95	2176.70
447.14	2211.81
447.32	2335.85
447.51	2289.04
447.69	2174.36
447.88	2181.38
448.06	2228.19
448.25	2225.85
448.43	2155.63
448.62	2284.36
448.80	2218.83
448.99	2146.27
449.17	2251.60
449.36	2331.17
449.54	2396.71
449.73	2310.11
449.91	2403.73
450.10	2401.39
450.28	2450.54
450.46	2546.50
450.65	2516.08
450.83	2544.16
451.02	2403.73
451.20	2380.32
451.39	2291.38
451.57	2303.09
451.76	2387.35
451.94	2296.07
452.13	2342.88
452.31	2211.81
452.49	2010.52
452.68	2087.76
452.86	2033.93
453.05	2153.29
453.23	2146.27
453.42	2282.02
453.60	2242.23
453.78	2251.60
453.97	2244.57
454.15	2228.19
454.34	2251.60
454.52	2335.85
454.70	2253.94
454.89	2251.60
455.07	2296.07
455.26	2377.98
455.44	2450.54
455.62	2349.90
455.81	2293.72
455.99	2375.64
456.17	2296.07
456.36	2380.32
456.54	2466.92
456.73	2340.54
456.91	2361.60
457.09	2406.07
457.28	2476.29
457.46	2373.30
457.64	2394.37
457.83	2410.75
458.01	2338.20
458.19	2342.88
458.38	2221.17
458.56	2485.65
458.74	2312.45
458.93	2410.75
459.11	2370.96
459.29	2347.56
459.48	2394.37
459.66	2382.67
459.84	2368.62
460.03	2464.58
460.21	2373.30
460.39	2431.82
460.57	2572.25
460.76	2469.27
460.94	2537.14
461.12	2607.36
461.31	2429.48
461.49	2502.03
461.67	2581.61
461.85	2469.27
462.04	2434.16
462.22	2644.81
462.40	2576.93
462.59	2614.38
462.77	2450.54
462.95	2448.20
463.13	2424.80
463.32	2541.82
463.50	2445.86
463.68	2387.35
463.86	2403.73
464.05	2370.96
464.23	2392.03
464.41	2401.39
464.59	2298.41
464.78	2490.33
464.96	2415.43
465.14	2385.01
465.32	2487.99
465.50	2485.65
465.69	2579.27
465.87	2466.92
466.05	2499.69
466.23	2335.85
466.41	2361.60
466.60	2335.85
466.78	2183.72
466.96	2373.30
467.14	2452.88
467.32	2408.41
467.51	2480.97
467.69	2326.49
467.87	2455.22
468.05	2448.20
468.23	2530.12
468.41	2527.78
468.60	2546.50
468.78	2567.57
468.96	2462.24
469.14	2317.13
469.32	2394.37
469.50	2260.96
469.69	2485.65
469.87	2263.30
470.05	2321.81
470.23	2279.68
470.41	2340.54
470.59	2340.54
470.77	2377.98
470.95	2349.90
471.14	2483.31
471.32	2413.09
471.50	2590.97
471.68	2574.59
471.86	2654.17
472.04	2593.31
472.22	2642.46
472.40	2502.03
472.58	2509.05
472.77	2513.74
472.95	2399.05
473.13	2595.65
473.31	2485.65
473.49	2462.24
473.67	2644.81
473.85	2567.57
474.03	2691.62
474.21	2595.65
474.39	2586.29
474.57	2579.27
474.75	2686.94
474.93	2745.45
475.12	2595.65
475.30	2560.55
475.48	2649.49
475.66	2691.62
475.84	2663.53
476.02	2682.25
476.20	2595.65
476.38	2525.44
476.56	2684.59
476.74	2637.78
476.92	2729.06
477.10	2722.04
477.28	2757.15
477.46	2787.58
477.64	2869.50
477.82	2864.82
478.00	2909.29
478.18	2841.41
478.36	2717.36
478.54	2836.73
478.72	2778.22
478.90	2930.35
479.08	2935.03
479.26	3070.78
479.44	3103.55
479.62	2944.39
479.80	2899.92
479.98	3169.09
480.16	3084.83
480.34	3040.36
480.52	2993.55
480.70	3129.30
480.88	3087.17
481.06	3138.66
481.24	3115.25
481.41	3229.94
481.59	3131.64
481.77	3321.22
481.95	3150.36
482.13	3218.24
482.31	3321.22
482.49	3232.28
482.67	3206.53
482.85	3358.67
483.03	3267.39
483.21	3281.43
483.39	3288.45
483.57	3159.72
483.74	3255.69
483.92	3295.47
484.10	3239.30
484.28	3410.16
484.46	3527.19
484.64	3433.57
484.82	3201.85
485.00	3412.50
485.18	3337.60
485.35	3255.69
485.53	3033.33
485.71	2789.92
485.89	2700.98
486.07	2780.56
486.25	3023.97
486.43	3070.78
486.61	3281.43
486.78	3232.28
486.96	3229.94
487.14	3473.36
487.32	3501.44
487.50	3480.38
487.68	3613.79
487.85	3658.26
488.03	3566.98
488.21	3604.42
488.39	3471.01
488.57	3581.02
488.75	3552.93
488.92	3803.37
489.10	3819.75
489.28	3946.14
489.46	3920.40
489.64	3955.51
489.81	4107.64
489.99	4042.11
490.17	3946.14
490.35	4142.75
490.53	3927.42
490.70	3950.82
490.88	3892.31
491.06	4030.40
491.24	4140.41
491.41	3929.76
491.59	3831.46
491.77	3705.07
491.95	3684.00
492.13	3892.31
492.30	3932.10
492.48	3920.40
492.66	4138.07
492.84	4121.68
493.01	4084.23
493.19	4060.83
493.37	3983.59
493.54	3871.25
493.72	4056.15
493.90	4180.20
494.08	4325.31
494.25	4367.44
494.43	4393.19
494.61	4456.38
494.79	4360.42
494.96	4266.80
495.14	4292.54
495.32	4044.45
495.49	4154.45
495.67	4273.82
495.85	4407.23
496.02	4475.10
496.20	4568.73
496.38	4519.57
496.55	4428.29
496.73	4416.59
496.91	4608.51
497.09	4554.68
497.26	4533.62
497.44	4634.26
497.62	4437.66
497.79	4348.72
497.97	4184.88
498.14	4109.98
498.32	4231.69
498.50	4442.34
498.67	4353.40
498.85	4418.93
499.03	4418.93
499.20	4615.54
499.38	4585.11
499.56	4538.30
499.73	4505.53
499.91	4369.78
500.08	4432.97
500.26	4212.96
500.44	4421.27
500.61	4358.08
500.79	4547.66
500.97	4496.17
501.14	4355.74
501.32	4234.03
501.49	4285.52
501.67	4308.93
501.84	4386.16
502.02	4308.93
502.20	4379.14
502.37	4542.98
502.55	4491.49
502.72	4465.74
502.90	4444.68
503.07	4442.34
503.25	4365.10
503.43	4189.56
503.60	4147.43
503.78	3988.27
503.95	3969.55
504.13	4194.24
504.30	4418.93
504.48	4643.62
504.65	4496.17
504.83	4533.62
505.01	4484.47
505.18	4564.04
505.36	4552.34
505.53	4505.53
505.71	4624.90
505.88	4851.93
506.06	4695.11
506.23	4868.31
506.41	4594.47
506.58	4489.15
506.76	4582.77
506.93	4575.75
507.11	4528.94
507.28	4493.83
507.46	4395.53
507.63	4313.61
507.81	4414.25
507.98	4447.02
508.16	4442.34
508.33	4566.39
508.50	4667.03
508.68	4887.04
508.85	4875.34
509.03	4634.26
509.20	4861.29
509.38	4868.31
509.55	4744.27
509.73	4629.58
509.90	4559.36
510.08	4648.30
510.25	4720.86
510.42	4669.37
510.60	4706.82
510.77	4702.14
510.95	4765.33
511.12	4784.06
511.30	4863.63
511.47	4840.23
511.64	4919.81
511.82	4805.12
511.99	4849.59
512.17	4573.41
512.34	4557.02
512.51	4671.71
512.69	4545.32
512.86	4851.93
513.04	4695.11
513.21	4730.22
513.38	4601.49
513.56	4638.94
513.73	4622.56
513.90	4622.56
514.08	4720.86
514.25	4615.54
514.43	4699.80
514.60	4699.80
514.77	4861.29
514.95	4793.42
515.12	4755.97
515.29	4741.93
515.47	4809.80
515.64	4823.84
515.81	4723.20
515.99	4798.10
516.16	4603.83
516.33	4393.19
516.51	3955.51
516.68	3927.42
516.85	3864.22
517.03	3885.29
517.20	4166.15
517.37	4589.79
517.54	4627.24
517.72	4554.68
517.89	4231.69
518.06	4030.40
518.24	4058.49
518.41	4372.12
518.58	4475.10
518.75	4599.15
518.93	4535.96
519.10	4440.00
519.27	4475.10
519.45	4575.75
519.62	4748.95
519.79	4709.16
519.96	4643.62
520.14	4732.56
520.31	4542.98
520.48	4650.64
520.65	4564.04
520.83	4753.63
521.00	4917.47
521.17	4809.80
521.34	4821.50
521.52	4854.27
521.69	4812.14
521.86	4847.25
522.03	4835.55
522.20	4678.73
522.38	4423.61
522.55	4315.95
522.72	4718.52
522.89	4746.61
523.07	4732.56
523.24	4748.95
523.41	4741.93
523.58	4851.93
523.75	4821.50
523.92	4793.42
524.10	4873.00
524.27	4954.91
524.44	4898.74
524.61	4875.34
524.78	4730.22
524.96	4908.10
525.13	4809.80
525.30	4835.55
525.47	4922.15
525.64	4954.91
525.81	4887.04
525.98	4631.92
526.16	4437.66
526.33	4217.65
526.50	4084.23
526.67	4163.81
526.84	4042.11
527.01	4435.32
527.18	4503.19
527.36	4725.54
527.53	4807.46
527.70	4685.75
527.87	4781.71
528.04	4695.11
528.21	4678.73
528.38	4863.63
528.55	5085.98
528.72	5203.01
528.89	5137.48
529.07	4931.51
529.24	4798.10
529.41	4727.88
529.58	4650.64
529.75	4681.07
529.92	4795.76
530.09	4828.53
530.26	4919.81
530.43	5137.48
530.60	4903.42
530.77	5104.71
530.94	4964.28
531.11	4898.74
531.28	4851.93
531.46	4929.17
531.63	4940.87
531.80	4809.80
531.97	4816.82
532.14	4681.07
532.31	4592.13
532.48	4449.36
532.65	4486.81
532.82	4517.23
532.99	4730.22
533.16	4744.27
533.33	4840.23
533.50	4873.00
533.67	4713.84
533.84	4758.31
534.01	4706.82
534.18	4741.93
534.35	4837.89
534.52	4762.99
534.69	4809.80
534.86	4844.91
535.03	5006.41
535.20	4882.36
535.37	5078.96
535.54	5008.75
535.71	5057.90
535.88	5107.05
536.05	4734.90
536.22	4919.81
536.38	4861.29
536.55	4690.43
536.72	4718.52
536.89	4678.73
537.06	4706.82
537.23	4692.77
537.40	4978.32
537.57	4847.25
537.74	4905.76
537.91	4952.57
538.08	4858.95
538.25	4945.55
538.42	4919.81
538.59	4858.95
538.75	4741.93
538.92	4610.86
539.09	4603.83
539.26	4690.43
539.43	4631.92
539.60	4709.16
539.77	4791.08
539.94	4844.91
540.11	4610.86
540.28	4819.16
540.44	4566.39
540.61	4702.14
540.78	4564.04
540.95	4772.35
541.12	4936.19
541.29	5048.54
541.46	5116.41
541.62	4973.64
541.79	5137.48
541.96	5083.64
542.13	4915.12
542.30	5006.41
542.47	5125.77
542.63	5015.77
542.80	5036.83
542.97	5013.43
543.14	4847.25
543.31	4966.62
543.48	4973.64
543.64	5111.73
543.81	5060.24
543.98	5181.95
544.15	5184.29
544.32	4837.89
544.48	4882.36
544.65	5055.56
544.82	4983.00
544.99	5053.22
545.16	5027.47
545.32	4971.30
545.49	5387.91
545.66	5841.98
545.83	5984.75
546.00	5827.93
546.16	5198.33
546.33	5188.97
546.50	4985.34
546.67	4954.91
546.83	4861.29
547.00	4868.31
547.17	4720.86
547.34	4730.22
547.50	4631.92
547.67	4753.63
547.84	4566.39
548.00	4702.14
548.17	4844.91
548.34	4840.23
548.51	4657.67
548.67	4898.74
548.84	4816.82
549.01	4821.50
549.18	4828.53
549.34	4702.14
549.51	4690.43
549.68	4746.61
549.84	4692.77
550.01	4741.93
550.18	4657.67
550.34	4788.74
550.51	4610.86
550.68	4901.08
550.84	4587.45
551.01	4547.66
551.18	4479.79
551.34	4664.69
551.51	4503.19
551.68	4730.22
551.84	4723.20
552.01	4716.18
552.18	4561.70
552.34	4447.02
552.51	4428.29
552.68	4472.76
552.84	4449.36
553.01	4559.36
553.18	4573.41
553.34	4603.83
553.51	4720.86
553.67	4695.11
553.84	4674.05
554.01	4709.16
554.17	4535.96
554.34	4500.85
554.51	4746.61
554.67	4526.60
554.84	4601.49
555.00	4521.92
555.17	4564.04
555.33	4603.83
555.50	4505.53
555.67	4475.10
555.83	4587.45
556.00	4451.70
556.16	4643.62
556.33	4327.65
556.50	4320.63
556.66	4311.27
556.83	4400.21
556.99	4348.72
557.16	4250.41
557.32	4353.40
557.49	4468.08
557.65	4414.25
557.82	4397.87
557.98	4334.67
558.15	4280.84
558.32	4292.54
558.48	4168.49
558.65	4177.86
558.81	4058.49
558.98	4147.43
559.14	4297.22
559.31	4255.09
559.47	4297.22
559.64	4196.58
559.80	4369.78
559.97	4131.05
560.13	4212.96
560.30	4271.48
560.46	4329.99
560.63	4435.32
560.79	4355.74
560.96	4353.40
561.12	4423.61
561.29	4175.52
561.45	4035.08
561.61	4107.64
561.78	4393.19
561.94	4166.15
562.11	4189.56
562.27	4250.41
562.44	4280.84
562.60	4416.59
562.77	4411.91
562.93	4449.36
563.10	4351.06
563.26	4297.22
563.42	4374.46
563.59	4170.83
563.75	4184.88
563.92	4269.14
564.08	4119.34
564.24	4168.49
564.41	4163.81
564.57	4191.90
564.74	4154.45
564.90	4030.40
565.07	4189.56
565.23	4095.94
565.39	3999.98
565.56	4018.70
565.72	3967.21
565.88	4044.45
566.05	3922.74
566.21	4023.38
566.38	3955.51
566.54	4093.60
566.70	4168.49
566.87	4145.09
567.03	4060.83
567.19	4056.15
567.36	4093.60
567.52	4196.58
567.68	3934.44
567.85	3880.61
568.01	3978.91
568.17	3709.75
568.34	3908.69
568.50	3735.50
568.66	3843.16
568.83	3978.91
568.99	3934.44
569.15	3978.91
569.32	3981.25
569.48	3850.18
569.64	3817.41
569.81	3845.50
569.97	3850.18
570.13	3770.60
570.30	3770.60
570.46	3840.82
570.62	3709.75
570.78	3737.84
570.95	3639.53
571.11	3852.52
571.27	3796.35
571.43	3838.48
571.60	3864.22
571.76	3866.56
571.92	3950.82
572.09	3801.03
572.25	3796.35
572.41	3847.84
572.57	3892.31
572.74	3896.99
572.90	3763.58
573.06	3925.08
573.22	3836.14
573.38	3925.08
573.55	3915.72
573.71	3864.22
573.87	3857.20
574.03	3721.45
574.20	3826.78
574.36	3824.44
574.52	3646.55
574.68	3665.28
574.84	3672.30
575.01	3698.05
575.17	3684.00
575.33	3611.45
575.49	3641.87
575.65	3618.47
575.82	3723.79
575.98	3639.53
576.14	3616.13
576.30	3854.86
576.46	3857.20
576.62	3810.39
576.79	4109.98
576.95	3854.86
577.11	3679.32
577.27	3789.33
577.43	3801.03
577.59	3798.69
577.75	3606.77
577.92	3590.38
578.08	3672.30
578.24	3550.59
578.40	3559.95
578.56	3819.75
578.72	3709.75
578.88	3906.35
579.04	3789.33
579.21	3784.65
579.37	3723.79
579.53	3693.37
579.69	3794.01
579.85	3899.33
580.01	3904.01
580.17	3768.26
580.33	3686.34
580.49	3812.73
580.65	3866.56
580.82	3581.02
580.98	3686.34
581.14	3789.33
581.30	3770.60
581.46	3688.68
581.62	3726.13
581.78	3707.41
581.94	3896.99
582.10	3857.20
582.26	3719.11
582.42	3786.99
582.58	3894.65
582.74	3735.50
582.90	3721.45
583.06	3775.28
583.22	3784.65
583.38	3702.73
583.54	3723.79
583.70	3824.44
583.86	3782.31
584.02	3861.88
584.18	3808.05
584.34	3747.20
584.50	3758.90
584.66	3737.84
584.82	3653.58
584.98	3613.79
585.14	3618.47
585.30	3576.34
585.46	3557.61
585.62	3559.95
585.78	3698.05
585.94	3634.85
586.10	3723.79
586.26	3632.51
586.42	3545.91
586.58	3662.94
586.74	3613.79
586.90	3744.86
587.06	3613.79
587.22	3501.44
587.38	3646.55
587.54	3454.63
587.70	3522.51
587.86	3300.16
588.02	3272.07
588.18	3141.00
588.34	3063.76
588.49	2796.94
588.65	2759.49
588.81	2745.45
588.97	2768.85
589.13	2717.36
589.29	2534.80
589.45	2661.19
589.61	2775.88
589.77	2806.30
589.93	2944.39
590.08	3005.25
590.24	2963.12
590.40	2991.20
590.56	3105.89
590.72	3075.46
590.88	3021.63
591.04	3096.53
591.20	3012.27
591.35	3016.95
591.51	3108.23
591.67	2803.96
591.83	2974.82
591.99	2925.67
592.15	2904.60
592.31	3016.95
592.46	3108.23
592.62	3232.28
592.78	3197.17
592.94	3136.32
593.10	3253.34
593.26	3274.41
593.41	3332.92
593.57	3187.81
593.73	3112.91
593.89	2979.50
594.05	2944.39
594.20	2843.75
594.36	2832.05
594.52	2705.66
594.68	2808.64
594.84	2949.08
594.99	2998.23
595.15	3059.08
595.31	3063.76
595.47	3141.00
595.62	3131.64
595.78	3119.93
595.94	3243.98
596.10	3176.11
596.25	3215.90
596.41	3054.40
596.57	2988.86
596.73	3133.98
596.88	3169.09
597.04	3164.40
597.20	3063.76
597.36	3112.91
597.51	3225.26
597.67	3122.27
597.83	3096.53
597.99	3199.51
