SpectraSuite Data File
++++++++++++++++++++++++++++++++++++
Date: Fri Oct 04 11:42:18 GMT-05:00 2013
User: price-jones
Dark Spectrum Present: No
Reference Spectrum Present: No
Number of Sampled Component Spectra: 1
Spectrometers: USB2+H05261
Integration Time (usec): 100000 (USB2+H05261)
Spectra Averaged: 1 (USB2+H05261)
Boxcar Smoothing: 0 (USB2+H05261)
Correct for Electrical Dark: No (USB2+H05261)
Strobe/Lamp Enabled: No (USB2+H05261)
Correct for Detector Non-linearity: No (USB2+H05261)
Correct for Stray Light: No (USB2+H05261)
Number of Pixels in Processed Spectrum: 2048
>>>>>Begin Processed Spectral Data<<<<<
365.73	35.11
365.92	35.11
366.12	35.11
366.32	0.00
366.52	0.00
366.72	0.00
366.91	0.00
367.11	42.13
367.31	0.00
367.51	0.00
367.70	0.00
367.90	0.00
368.10	0.00
368.30	0.00
368.49	0.00
368.69	0.00
368.89	0.00
369.09	0.00
369.28	0.00
369.48	0.00
369.68	0.00
369.87	11.70
370.07	0.00
370.27	0.00
370.47	14.04
370.66	0.00
370.86	58.51
371.06	39.79
371.25	77.24
371.45	72.56
371.65	98.30
371.84	107.66
372.04	102.98
372.24	95.96
372.44	86.60
372.63	156.82
372.83	173.20
373.03	88.94
373.22	88.94
373.42	100.64
373.62	135.75
373.81	88.94
374.01	95.96
374.21	201.29
374.40	98.30
374.60	168.52
374.79	70.22
374.99	95.96
375.19	177.88
375.38	81.92
375.58	93.62
375.78	124.05
375.97	117.03
376.17	180.22
376.37	119.37
376.56	91.28
376.76	145.11
376.95	70.22
377.15	140.43
377.35	53.83
377.54	126.39
377.74	58.51
377.93	95.96
378.13	133.41
378.33	119.37
378.52	98.30
378.72	128.73
378.91	154.48
379.11	112.35
379.31	128.73
379.50	93.62
379.70	142.77
379.89	210.65
380.09	119.37
380.28	81.92
380.48	126.39
380.68	77.24
380.87	152.13
381.07	147.45
381.26	175.54
381.46	201.29
381.65	163.84
381.85	42.13
382.04	128.73
382.24	110.01
382.43	93.62
382.63	79.58
382.83	142.77
383.02	138.09
383.22	177.88
383.41	74.90
383.61	124.05
383.80	133.41
384.00	152.13
384.19	86.60
384.39	114.69
384.58	91.28
384.78	114.69
384.97	168.52
385.17	131.07
385.36	88.94
385.56	163.84
385.75	142.77
385.95	98.30
386.14	184.90
386.34	138.09
386.53	100.64
386.72	86.60
386.92	100.64
387.11	95.96
387.31	142.77
387.50	194.26
387.70	112.35
387.89	131.07
388.09	98.30
388.28	119.37
388.48	112.35
388.67	147.45
388.86	140.43
389.06	117.03
389.25	121.71
389.45	161.50
389.64	86.60
389.84	126.39
390.03	142.77
390.22	86.60
390.42	107.66
390.61	28.09
390.81	107.66
391.00	133.41
391.19	187.24
391.39	138.09
391.58	107.66
391.78	107.66
391.97	152.13
392.16	95.96
392.36	112.35
392.55	154.48
392.75	140.43
392.94	142.77
393.13	173.20
393.33	124.05
393.52	93.62
393.71	98.30
393.91	159.16
394.10	32.77
394.29	112.35
394.49	39.79
394.68	16.38
394.88	110.01
395.07	124.05
395.26	156.82
395.46	147.45
395.65	131.07
395.84	88.94
396.04	255.12
396.23	159.16
396.42	128.73
396.62	142.77
396.81	86.60
397.00	100.64
397.19	95.96
397.39	114.69
397.58	173.20
397.77	74.90
397.97	49.15
398.16	81.92
398.35	110.01
398.55	91.28
398.74	170.86
398.93	198.95
399.12	161.50
399.32	180.22
399.51	163.84
399.70	102.98
399.90	138.09
400.09	114.69
400.28	117.03
400.47	145.11
400.67	98.30
400.86	140.43
401.05	180.22
401.24	182.56
401.44	154.48
401.63	142.77
401.82	147.45
402.01	154.48
402.21	198.95
402.40	140.43
402.59	117.03
402.78	182.56
402.97	147.45
403.17	215.33
403.36	227.03
403.55	273.84
403.74	526.62
403.93	1572.84
404.13	3449.95
404.32	4168.49
404.51	3424.20
404.70	2064.35
404.89	772.38
405.09	344.06
405.28	224.69
405.47	208.31
405.66	159.16
405.85	166.18
406.05	234.05
406.24	135.75
406.43	229.37
406.62	154.48
406.81	212.99
407.00	320.65
407.20	449.38
407.39	610.88
407.58	568.75
407.77	458.74
407.96	210.65
408.15	196.60
408.34	191.92
408.54	142.77
408.73	220.01
408.92	145.11
409.11	238.73
409.30	187.24
409.49	140.43
409.68	184.90
409.87	140.43
410.07	112.35
410.26	170.86
410.45	126.39
410.64	100.64
410.83	126.39
411.02	140.43
411.21	238.73
411.40	147.45
411.59	152.13
411.78	145.11
411.98	175.54
412.17	117.03
412.36	198.95
412.55	208.31
412.74	241.08
412.93	217.67
413.12	248.10
413.31	168.52
413.50	170.86
413.69	102.98
413.88	138.09
414.07	145.11
414.26	147.45
414.45	194.26
414.64	177.88
414.83	173.20
415.02	145.11
415.22	236.39
415.41	212.99
415.60	257.46
415.79	154.48
415.98	217.67
416.17	224.69
416.36	264.48
416.55	182.56
416.74	238.73
416.93	217.67
417.12	248.10
417.31	187.24
417.50	198.95
417.69	212.99
417.88	175.54
418.07	215.33
418.26	189.58
418.45	229.37
418.64	180.22
418.83	262.14
419.02	243.42
419.21	194.26
419.39	191.92
419.58	264.48
419.77	189.58
419.96	147.45
420.15	252.78
420.34	112.35
420.53	241.08
420.72	234.05
420.91	198.95
421.10	187.24
421.29	194.26
421.48	252.78
421.67	255.12
421.86	215.33
422.05	201.29
422.24	222.35
422.43	283.20
422.61	168.52
422.80	236.39
422.99	257.46
423.18	135.75
423.37	250.44
423.56	259.80
423.75	189.58
423.94	222.35
424.13	205.97
424.32	229.37
424.50	187.24
424.69	283.20
424.88	297.25
425.07	238.73
425.26	229.37
425.45	163.84
425.64	273.84
425.83	229.37
426.01	234.05
426.20	266.82
426.39	241.08
426.58	285.55
426.77	238.73
426.96	220.01
427.15	250.44
427.33	290.23
427.52	234.05
427.71	234.05
427.90	287.89
428.09	243.42
428.28	287.89
428.46	161.50
428.65	264.48
428.84	220.01
429.03	266.82
429.22	262.14
429.40	250.44
429.59	259.80
429.78	292.57
429.97	299.59
430.16	283.20
430.34	287.89
430.53	231.71
430.72	297.25
430.91	278.52
431.10	236.39
431.28	320.65
431.47	325.33
431.66	313.63
431.85	332.36
432.03	351.08
432.22	376.83
432.41	322.99
432.60	337.04
432.79	346.40
432.97	304.27
433.16	351.08
433.35	369.80
433.54	444.70
433.72	444.70
433.91	435.34
434.10	456.40
434.28	615.56
434.47	657.69
434.66	699.82
434.85	758.33
435.03	2684.59
435.22	9418.32
435.41	19143.24
435.59	17284.86
435.78	11222.87
435.97	5497.92
436.16	2256.28
436.34	809.83
436.53	543.00
436.72	517.26
436.90	428.32
437.09	435.34
437.28	428.32
437.46	451.72
437.65	433.00
437.84	435.34
438.02	393.21
438.21	318.31
438.40	280.86
438.58	229.37
438.77	379.17
438.96	304.27
439.14	273.84
439.33	334.70
439.52	369.80
439.70	313.63
439.89	259.80
440.08	301.93
440.26	339.38
440.45	355.76
440.63	386.19
440.82	318.31
441.01	318.31
441.19	313.63
441.38	311.29
441.57	276.18
441.75	351.08
441.94	386.19
442.12	348.74
442.31	374.49
442.50	341.72
442.68	355.76
442.87	416.62
443.05	294.91
443.24	379.17
443.43	386.19
443.61	306.61
443.80	395.55
443.98	337.04
444.17	320.65
444.35	362.78
444.54	355.76
444.73	362.78
444.91	341.72
445.10	198.95
445.28	266.82
445.47	266.82
445.65	264.48
445.84	369.80
446.02	322.99
446.21	315.97
446.39	313.63
446.58	320.65
446.77	311.29
446.95	262.14
447.14	369.80
447.32	325.33
447.51	360.44
447.69	372.15
447.88	327.68
448.06	372.15
448.25	318.31
448.43	360.44
448.62	318.31
448.80	283.20
448.99	348.74
449.17	294.91
449.36	280.86
449.54	301.93
449.73	397.89
449.91	388.53
450.10	304.27
450.28	383.85
450.46	404.91
450.65	337.04
450.83	344.06
451.02	322.99
451.20	344.06
451.39	367.46
451.57	346.40
451.76	315.97
451.94	369.80
452.13	341.72
452.31	374.49
452.49	341.72
452.68	301.93
452.86	360.44
453.05	330.02
453.23	376.83
453.42	304.27
453.60	313.63
453.78	379.17
453.97	341.72
454.15	348.74
454.34	334.70
454.52	311.29
454.70	339.38
454.89	369.80
455.07	308.95
455.26	325.33
455.44	346.40
455.62	341.72
455.81	318.31
455.99	362.78
456.17	353.42
456.36	341.72
456.54	318.31
456.73	224.69
456.91	339.38
457.09	372.15
457.28	383.85
457.46	362.78
457.64	301.93
457.83	276.18
458.01	353.42
458.19	400.23
458.38	339.38
458.56	306.61
458.74	283.20
458.93	355.76
459.11	285.55
459.29	353.42
459.48	318.31
459.66	362.78
459.84	388.53
460.03	360.44
460.21	360.44
460.39	337.04
460.57	386.19
460.76	273.84
460.94	327.68
461.12	332.36
461.31	327.68
461.49	311.29
461.67	367.46
461.85	334.70
462.04	294.91
462.22	404.91
462.40	339.38
462.59	365.12
462.77	269.16
462.95	330.02
463.13	294.91
463.32	332.36
463.50	264.48
463.68	348.74
463.86	313.63
464.05	334.70
464.23	283.20
464.41	388.53
464.59	304.27
464.78	337.04
464.96	294.91
465.14	304.27
465.32	315.97
465.50	344.06
465.69	358.10
465.87	330.02
466.05	266.82
466.23	306.61
466.41	301.93
466.60	386.19
466.78	355.76
466.96	318.31
467.14	341.72
467.32	322.99
467.51	341.72
467.69	393.21
467.87	379.17
468.05	362.78
468.23	376.83
468.41	355.76
468.60	285.55
468.78	266.82
468.96	344.06
469.14	266.82
469.32	311.29
469.50	325.33
469.69	334.70
469.87	325.33
470.05	262.14
470.23	322.99
470.41	264.48
470.59	320.65
470.77	330.02
470.95	285.55
471.14	367.46
471.32	322.99
471.50	369.80
471.68	346.40
471.86	348.74
472.04	320.65
472.22	306.61
472.40	262.14
472.58	269.16
472.77	290.23
472.95	358.10
473.13	362.78
473.31	334.70
473.49	416.62
473.67	322.99
473.85	351.08
474.03	299.59
474.21	318.31
474.39	332.36
474.57	308.95
474.75	308.95
474.93	269.16
475.12	299.59
475.30	285.55
475.48	311.29
475.66	304.27
475.84	266.82
476.02	322.99
476.20	315.97
476.38	365.12
476.56	400.23
476.74	290.23
476.92	383.85
477.10	348.74
477.28	421.30
477.46	369.80
477.64	250.44
477.82	348.74
478.00	393.21
478.18	320.65
478.36	315.97
478.54	327.68
478.72	322.99
478.90	362.78
479.08	327.68
479.26	379.17
479.44	402.57
479.62	383.85
479.80	376.83
479.98	458.74
480.16	423.64
480.34	489.17
480.52	381.51
480.70	409.59
480.88	437.68
481.06	587.47
481.24	531.30
481.41	571.09
481.59	608.54
481.77	648.33
481.95	631.94
482.13	636.63
482.31	657.69
482.49	667.05
482.67	800.46
482.85	882.38
483.03	924.51
483.21	851.96
483.39	936.21
483.57	968.98
483.74	1109.41
483.92	1102.39
484.10	1165.59
484.28	1224.10
484.46	1420.71
484.64	1336.45
484.82	1383.26
485.00	1467.52
485.18	1565.82
485.35	1661.78
485.53	1753.06
485.71	1732.00
485.89	1856.04
486.07	1863.07
486.25	1860.73
486.43	1930.94
486.61	1923.92
486.78	1846.68
486.96	1809.23
487.14	1930.94
487.32	1851.36
487.50	1949.67
487.68	1879.45
487.85	1884.13
488.03	1832.64
488.21	1806.89
488.39	1746.04
488.57	1746.04
488.75	1727.32
488.92	1952.01
489.10	1706.25
489.28	1710.93
489.46	1521.35
489.64	1509.65
489.81	1593.90
489.99	1565.82
490.17	1586.88
490.35	1593.90
490.53	1455.81
490.70	1495.60
490.88	1474.54
491.06	1549.43
491.24	1685.19
491.41	1722.63
491.59	1526.03
491.77	1502.62
491.95	1413.68
492.13	1439.43
492.30	1434.75
492.48	1270.91
492.66	1409.00
492.84	1282.61
493.01	1390.28
493.19	1270.91
493.37	1256.87
493.54	1306.02
493.72	1240.48
493.90	1221.76
494.08	1259.21
494.25	1139.84
494.43	1186.65
494.61	1123.46
494.79	1160.91
494.96	1071.97
495.14	1170.27
495.32	1118.78
495.49	1088.35
495.67	1090.69
495.85	1046.22
496.02	1013.45
496.20	1022.81
496.38	931.53
496.55	983.02
496.73	973.66
496.91	917.49
497.09	936.21
497.26	870.68
497.44	898.77
497.62	957.28
497.79	880.04
497.97	863.66
498.14	922.17
498.32	805.14
498.50	833.23
498.67	748.97
498.85	746.63
499.03	784.08
499.20	751.31
499.38	748.97
499.56	725.57
499.73	767.70
499.91	648.33
500.08	678.76
500.26	662.37
500.44	664.71
500.61	697.48
500.79	617.90
500.97	564.07
501.14	669.39
501.32	645.99
501.49	620.24
501.67	582.79
501.84	538.32
502.02	573.43
502.20	601.52
502.37	582.79
502.55	573.43
502.72	470.45
502.90	610.88
503.07	458.74
503.25	470.45
503.43	381.51
503.60	449.38
503.78	454.06
503.95	428.32
504.13	461.09
504.30	400.23
504.48	468.11
504.65	500.87
504.83	458.74
505.01	388.53
505.18	423.64
505.36	433.00
505.53	430.66
505.71	337.04
505.88	353.42
506.06	496.19
506.23	358.10
506.41	381.51
506.58	393.21
506.76	383.85
506.93	299.59
507.11	407.25
507.28	407.25
507.46	379.17
507.63	416.62
507.81	414.27
507.98	327.68
508.16	379.17
508.33	409.59
508.50	409.59
508.68	393.21
508.85	388.53
509.03	397.89
509.20	425.98
509.38	358.10
509.55	369.80
509.73	390.87
509.90	372.15
510.08	360.44
510.25	360.44
510.42	428.32
510.60	454.06
510.77	320.65
510.95	386.19
511.12	294.91
511.30	311.29
511.47	414.27
511.64	362.78
511.82	362.78
511.99	353.42
512.17	360.44
512.34	367.46
512.51	348.74
512.69	315.97
512.86	369.80
513.04	301.93
513.21	421.30
513.38	283.20
513.56	294.91
513.73	374.49
513.90	381.51
514.08	308.95
514.25	351.08
514.43	348.74
514.60	308.95
514.77	304.27
514.95	334.70
515.12	313.63
515.29	306.61
515.47	308.95
515.64	397.89
515.81	388.53
515.99	365.12
516.16	271.50
516.33	280.86
516.51	308.95
516.68	313.63
516.85	341.72
517.03	365.12
517.20	278.52
517.37	262.14
517.54	376.83
517.72	325.33
517.89	339.38
518.06	177.88
518.24	374.49
518.41	365.12
518.58	372.15
518.75	355.76
518.93	299.59
519.10	315.97
519.27	353.42
519.45	351.08
519.62	423.64
519.79	367.46
519.96	248.10
520.14	311.29
520.31	374.49
520.48	404.91
520.65	294.91
520.83	320.65
521.00	271.50
521.17	325.33
521.34	271.50
521.52	308.95
521.69	299.59
521.86	304.27
522.03	369.80
522.20	400.23
522.38	374.49
522.55	369.80
522.72	315.97
522.89	306.61
523.07	383.85
523.24	337.04
523.41	306.61
523.58	283.20
523.75	301.93
523.92	266.82
524.10	386.19
524.27	339.38
524.44	360.44
524.61	344.06
524.78	252.78
524.96	341.72
525.13	330.02
525.30	355.76
525.47	325.33
525.64	346.40
525.81	360.44
525.98	339.38
526.16	320.65
526.33	360.44
526.50	322.99
526.67	306.61
526.84	393.21
527.01	315.97
527.18	468.11
527.36	379.17
527.53	428.32
527.70	383.85
527.87	311.29
528.04	456.40
528.21	320.65
528.38	397.89
528.55	428.32
528.72	442.36
528.89	447.04
529.07	390.87
529.24	395.55
529.41	423.64
529.58	313.63
529.75	397.89
529.92	381.51
530.09	425.98
530.26	440.02
530.43	416.62
530.60	479.81
530.77	409.59
530.94	463.43
531.11	440.02
531.28	430.66
531.46	479.81
531.63	550.03
531.80	440.02
531.97	524.28
532.14	550.03
532.31	634.29
532.48	711.52
532.65	770.04
532.82	894.08
532.99	1076.65
533.16	1144.52
533.33	1097.71
533.50	1118.78
533.67	945.58
533.84	877.70
534.01	807.48
534.18	802.80
534.35	706.84
534.52	753.65
534.69	884.72
534.86	835.57
535.03	837.91
535.20	887.06
535.37	917.49
535.54	905.79
535.71	978.34
535.88	1083.67
536.05	1088.35
536.22	1179.63
536.38	1170.27
536.55	1411.34
536.72	1514.33
536.89	1673.48
537.06	1804.55
537.23	2062.01
537.40	2143.93
537.57	2289.04
537.74	2359.26
537.91	2483.31
538.08	2452.88
538.25	2663.53
538.42	2562.89
538.59	2693.96
538.75	2705.66
538.92	2963.12
539.09	3091.85
539.26	3473.36
539.43	3920.40
539.60	4514.89
539.77	4929.17
539.94	5500.26
540.11	6050.28
540.28	6607.33
540.44	7162.04
540.61	7932.08
540.78	9167.88
540.95	11091.80
541.12	13060.19
541.29	14389.61
541.46	15056.67
541.62	14501.96
541.79	14106.41
541.96	13301.26
542.13	12372.07
542.30	11513.10
542.47	10878.81
542.63	10396.66
542.80	10183.67
542.97	10078.35
543.14	9811.53
543.31	9820.89
543.48	10045.58
543.64	10331.12
543.81	10263.25
543.98	10356.87
544.15	10267.93
544.32	10260.91
544.48	10370.91
544.65	10251.55
544.82	10377.94
544.99	10436.45
545.16	10483.26
545.32	11016.90
545.49	21167.80
545.66	36545.12
545.83	41507.06
546.00	34354.38
546.16	24159.01
546.33	17355.07
546.50	12994.65
546.67	10223.46
546.83	9202.99
547.00	8751.26
547.17	8332.31
547.34	8046.76
547.50	7712.07
547.67	7632.49
547.84	7145.66
548.00	6963.09
548.17	6593.29
548.34	6303.06
548.51	6146.25
548.67	5912.19
548.84	5565.79
549.01	5280.25
549.18	5296.63
549.34	5022.79
549.51	4833.21
549.68	4683.41
549.84	4479.79
550.01	4198.92
550.18	4107.64
550.34	3939.12
550.51	3882.95
550.68	3417.18
550.84	3253.34
551.01	3213.56
551.18	3126.96
551.34	2902.26
551.51	2782.90
551.68	2642.46
551.84	2644.81
552.01	2495.01
552.18	2359.26
552.34	2120.53
552.51	2223.51
552.68	2083.08
552.84	2012.86
553.01	2092.44
553.18	1902.86
553.34	1870.09
553.51	1823.28
553.67	1834.98
553.84	1650.08
554.01	1678.16
554.17	1465.18
554.34	1380.92
554.51	1394.96
554.67	1291.98
554.84	1203.04
555.00	1116.44
555.17	1114.10
555.33	1139.84
555.50	1004.09
555.67	1011.11
555.83	882.38
556.00	959.62
556.16	1055.58
556.33	854.30
556.50	837.91
556.66	840.25
556.83	772.38
556.99	788.76
557.16	795.78
557.32	798.12
557.49	800.46
557.65	702.16
557.82	662.37
557.98	678.76
558.15	620.24
558.32	716.20
558.48	617.90
558.65	681.10
558.81	629.60
558.98	624.92
559.14	599.18
559.31	594.50
559.47	636.63
559.64	610.88
559.80	547.69
559.97	461.09
560.13	517.26
560.30	465.77
560.46	526.62
560.63	608.54
560.79	521.94
560.96	524.28
561.12	484.49
561.29	554.71
561.45	561.73
561.61	601.52
561.78	601.52
561.94	559.39
562.11	535.98
562.27	500.87
562.44	510.24
562.60	507.90
562.77	442.36
562.93	540.66
563.10	559.39
563.26	510.24
563.42	493.85
563.59	543.00
563.75	486.83
563.92	601.52
564.08	528.96
564.24	486.83
564.41	601.52
564.57	346.40
564.74	440.02
564.90	484.49
565.07	526.62
565.23	461.09
565.39	449.38
565.56	500.87
565.72	440.02
565.88	479.81
566.05	440.02
566.21	428.32
566.38	514.92
566.54	514.92
566.70	447.04
566.87	475.13
567.03	442.36
567.19	489.17
567.36	437.68
567.52	447.04
567.68	489.17
567.85	411.93
568.01	486.83
568.17	444.70
568.34	430.66
568.50	547.69
568.66	486.83
568.83	470.45
568.99	397.89
569.15	472.79
569.32	484.49
569.48	437.68
569.64	442.36
569.81	423.64
569.97	372.15
570.13	458.74
570.30	351.08
570.46	416.62
570.62	348.74
570.78	322.99
570.95	297.25
571.11	325.33
571.27	433.00
571.43	402.57
571.60	390.87
571.76	411.93
571.92	425.98
572.09	330.02
572.25	449.38
572.41	379.17
572.57	421.30
572.74	411.93
572.90	437.68
573.06	409.59
573.22	362.78
573.38	416.62
573.55	407.25
573.71	383.85
573.87	395.55
574.03	409.59
574.20	369.80
574.36	414.27
574.52	414.27
574.68	409.59
574.84	463.43
575.01	470.45
575.17	531.30
575.33	461.09
575.49	517.26
575.65	521.94
575.82	571.09
575.98	716.20
576.14	734.93
576.30	1462.83
576.46	4531.28
576.62	6925.65
576.79	6853.09
576.95	4938.53
577.11	3386.76
577.27	2312.45
577.43	1699.23
577.59	1118.78
577.75	1025.15
577.92	823.87
578.08	880.04
578.24	931.53
578.40	1589.22
578.56	4278.50
578.72	6392.00
578.88	6389.66
579.04	4697.46
579.21	3311.86
579.37	2602.68
579.53	2008.18
579.69	2129.89
579.85	2415.43
580.01	2717.36
580.17	2537.14
580.33	2232.87
580.49	1937.96
580.65	1781.15
580.82	1664.12
580.98	1504.96
581.14	1554.12
581.30	1795.19
581.46	1872.43
581.62	2078.40
581.78	2136.91
581.94	2270.32
582.10	2370.96
582.26	2431.82
582.42	2581.61
582.58	2569.91
582.74	2574.59
582.90	2717.36
583.06	2698.64
583.22	2621.40
583.38	2612.04
583.54	2712.68
583.70	2616.72
583.86	2548.84
584.02	2602.68
584.18	2497.35
584.34	2485.65
584.50	2452.88
584.66	2434.16
584.82	2328.83
584.98	2452.88
585.14	2260.96
585.30	2279.68
585.46	2303.09
585.62	2174.36
585.78	2279.68
585.94	2282.02
586.10	2260.96
586.26	2495.01
586.42	2803.96
586.58	3379.73
586.74	4093.60
586.90	4842.57
587.06	5046.20
587.22	4940.87
587.38	4315.95
587.54	3805.71
587.70	3199.51
587.86	2738.43
588.02	2317.13
588.18	2099.46
588.34	1881.79
588.49	1795.19
588.65	1638.38
588.81	1661.78
588.97	1579.86
589.13	1593.90
589.29	1547.09
589.45	1526.03
589.61	1591.56
589.77	1476.88
589.93	1516.67
590.08	1612.63
590.24	1558.80
590.40	1657.10
590.56	1755.40
590.72	1717.95
590.88	1722.63
591.04	1809.23
591.20	1863.07
591.35	1991.80
591.51	2040.95
591.67	2225.85
591.83	2211.81
591.99	2445.86
592.15	2628.42
592.31	2995.89
592.46	3073.12
592.62	3279.09
592.78	3571.66
592.94	3613.79
593.10	3555.27
593.26	3321.22
593.41	3098.87
593.57	2857.79
593.73	2539.48
593.89	2237.55
594.05	2008.18
594.20	1844.34
594.36	1748.38
594.52	1511.99
594.68	1404.32
594.84	1455.81
594.99	1446.45
595.15	1308.36
595.31	1359.85
595.47	1413.68
595.62	1413.68
595.78	1455.81
595.94	1444.11
596.10	1369.21
596.25	1430.07
596.41	1303.68
596.57	1306.02
596.73	1359.85
596.88	1348.15
597.04	1338.79
597.20	1366.87
597.36	1486.24
597.51	1432.41
597.67	1453.47
597.83	1537.73
597.99	1678.16
598.14	1771.79
598.30	1802.21
598.46	1879.45
598.61	1956.69
598.77	2221.17
598.93	2127.55
599.09	2115.84
599.24	2237.55
599.40	2246.91
599.56	2108.82
599.71	2001.16
599.87	1982.43
600.03	1806.89
600.18	1694.55
600.34	1675.82
600.50	1479.22
600.65	1423.05
600.81	1390.28
600.97	1296.66
601.12	1313.04
601.28	1259.21
601.44	1111.75
601.59	1055.58
601.75	1020.47
601.91	1057.92
602.06	1053.24
602.22	1048.56
602.37	990.05
602.53	938.55
602.69	922.17
602.84	936.21
603.00	922.17
603.16	1060.26
603.31	1011.11
603.47	1001.75
603.62	968.98
603.78	1013.45
603.94	1081.33
604.09	1104.73
604.25	1050.90
604.40	1008.77
604.56	1095.37
604.71	1177.29
604.87	1167.93
605.03	1109.41
605.18	1156.22
605.34	1156.22
605.49	1181.97
605.65	1142.18
605.80	1254.53
605.96	1294.32
606.12	1355.17
606.27	1399.64
606.43	1427.73
