SpectraSuite Data File
++++++++++++++++++++++++++++++++++++
Date: Fri Oct 04 11:42:14 GMT-05:00 2013
User: price-jones
Dark Spectrum Present: No
Reference Spectrum Present: No
Number of Sampled Component Spectra: 1
Spectrometers: USB2+H05261
Integration Time (usec): 100000 (USB2+H05261)
Spectra Averaged: 1 (USB2+H05261)
Boxcar Smoothing: 0 (USB2+H05261)
Correct for Electrical Dark: No (USB2+H05261)
Strobe/Lamp Enabled: No (USB2+H05261)
Correct for Detector Non-linearity: No (USB2+H05261)
Correct for Stray Light: No (USB2+H05261)
Number of Pixels in Processed Spectrum: 2048
>>>>>Begin Processed Spectral Data<<<<<
365.73	67.88
365.92	67.88
366.12	67.88
366.32	0.00
366.52	0.00
366.72	0.00
366.91	0.00
367.11	0.00
367.31	0.00
367.51	0.00
367.70	0.00
367.90	0.00
368.10	0.00
368.30	0.00
368.49	0.00
368.69	0.00
368.89	0.00
369.09	0.00
369.28	0.00
369.48	0.00
369.68	0.00
369.87	37.45
370.07	0.00
370.27	65.54
370.47	21.06
370.66	0.00
370.86	42.13
371.06	93.62
371.25	98.30
371.45	0.00
371.65	63.19
371.84	107.66
372.04	32.77
372.24	100.64
372.44	91.28
372.63	119.37
372.83	60.85
373.03	175.54
373.22	166.18
373.42	70.22
373.62	138.09
373.81	72.56
374.01	117.03
374.21	107.66
374.40	156.82
374.60	147.45
374.79	51.49
374.99	102.98
375.19	126.39
375.38	126.39
375.58	135.75
375.78	149.79
375.97	105.32
376.17	205.97
376.37	166.18
376.56	102.98
376.76	91.28
376.95	168.52
377.15	91.28
377.35	128.73
377.54	145.11
377.74	159.16
377.93	53.83
378.13	102.98
378.33	67.88
378.52	121.71
378.72	124.05
378.91	53.83
379.11	0.00
379.31	32.77
379.50	35.11
379.70	159.16
379.89	154.48
380.09	86.60
380.28	28.09
380.48	107.66
380.68	119.37
380.87	79.58
381.07	112.35
381.26	180.22
381.46	180.22
381.65	126.39
381.85	110.01
382.04	119.37
382.24	110.01
382.43	117.03
382.63	203.63
382.83	126.39
383.02	131.07
383.22	138.09
383.41	21.06
383.61	77.24
383.80	58.51
384.00	86.60
384.19	98.30
384.39	67.88
384.58	65.54
384.78	124.05
384.97	110.01
385.17	110.01
385.36	126.39
385.56	117.03
385.75	65.54
385.95	51.49
386.14	119.37
386.34	105.32
386.53	79.58
386.72	79.58
386.92	205.97
387.11	121.71
387.31	72.56
387.50	138.09
387.70	77.24
387.89	88.94
388.09	84.26
388.28	142.77
388.48	154.48
388.67	93.62
388.86	86.60
389.06	95.96
389.25	117.03
389.45	105.32
389.64	53.83
389.84	140.43
390.03	135.75
390.22	98.30
390.42	177.88
390.61	79.58
390.81	74.90
391.00	138.09
391.19	95.96
391.39	163.84
391.58	51.49
391.78	91.28
391.97	107.66
392.16	60.85
392.36	154.48
392.55	187.24
392.75	154.48
392.94	114.69
393.13	177.88
393.33	112.35
393.52	138.09
393.71	117.03
393.91	102.98
394.10	84.26
394.29	138.09
394.49	72.56
394.68	51.49
394.88	91.28
395.07	84.26
395.26	58.51
395.46	140.43
395.65	100.64
395.84	110.01
396.04	198.95
396.23	114.69
396.42	110.01
396.62	79.58
396.81	124.05
397.00	133.41
397.19	128.73
397.39	60.85
397.58	184.90
397.77	107.66
397.97	163.84
398.16	107.66
398.35	91.28
398.55	74.90
398.74	147.45
398.93	140.43
399.12	95.96
399.32	159.16
399.51	81.92
399.70	166.18
399.90	119.37
400.09	170.86
400.28	133.41
400.47	105.32
400.67	152.13
400.86	112.35
401.05	152.13
401.24	140.43
401.44	131.07
401.63	140.43
401.82	154.48
402.01	91.28
402.21	112.35
402.40	112.35
402.59	95.96
402.78	105.32
402.97	98.30
403.17	145.11
403.36	138.09
403.55	84.26
403.74	203.63
403.93	140.43
404.13	266.82
404.32	243.42
404.51	124.05
404.70	189.58
404.89	135.75
405.09	142.77
405.28	121.71
405.47	74.90
405.66	124.05
405.85	133.41
406.05	194.26
406.24	147.45
406.43	117.03
406.62	166.18
406.81	161.50
407.00	140.43
407.20	84.26
407.39	63.19
407.58	184.90
407.77	163.84
407.96	203.63
408.15	95.96
408.34	107.66
408.54	135.75
408.73	128.73
408.92	166.18
409.11	112.35
409.30	102.98
409.49	180.22
409.68	119.37
409.87	149.79
410.07	114.69
410.26	124.05
410.45	163.84
410.64	112.35
410.83	65.54
411.02	44.47
411.21	131.07
411.40	163.84
411.59	138.09
411.78	152.13
411.98	138.09
412.17	93.62
412.36	105.32
412.55	203.63
412.74	126.39
412.93	140.43
413.12	128.73
413.31	138.09
413.50	121.71
413.69	180.22
413.88	198.95
414.07	131.07
414.26	102.98
414.45	205.97
414.64	177.88
414.83	131.07
415.02	154.48
415.22	161.50
415.41	70.22
415.60	88.94
415.79	93.62
415.98	215.33
416.17	187.24
416.36	149.79
416.55	110.01
416.74	131.07
416.93	81.92
417.12	180.22
417.31	138.09
417.50	149.79
417.69	182.56
417.88	77.24
418.07	128.73
418.26	154.48
418.45	149.79
418.64	208.31
418.83	224.69
419.02	156.82
419.21	77.24
419.39	124.05
419.58	152.13
419.77	187.24
419.96	140.43
420.15	231.71
420.34	145.11
420.53	124.05
420.72	135.75
420.91	170.86
421.10	93.62
421.29	128.73
421.48	135.75
421.67	110.01
421.86	147.45
422.05	107.66
422.24	56.17
422.43	234.05
422.61	84.26
422.80	170.86
422.99	102.98
423.18	77.24
423.37	201.29
423.56	149.79
423.75	170.86
423.94	191.92
424.13	135.75
424.32	133.41
424.50	168.52
424.69	124.05
424.88	156.82
425.07	205.97
425.26	166.18
425.45	166.18
425.64	84.26
425.83	79.58
426.01	149.79
426.20	159.16
426.39	88.94
426.58	191.92
426.77	173.20
426.96	175.54
427.15	114.69
427.33	98.30
427.52	152.13
427.71	149.79
427.90	196.60
428.09	138.09
428.28	51.49
428.46	100.64
428.65	49.15
428.84	166.18
429.03	220.01
429.22	154.48
429.40	79.58
429.59	100.64
429.78	191.92
429.97	135.75
430.16	100.64
430.34	98.30
430.53	184.90
430.72	149.79
430.91	166.18
431.10	121.71
431.28	159.16
431.47	168.52
431.66	191.92
431.85	124.05
432.03	156.82
432.22	191.92
432.41	170.86
432.60	266.82
432.79	112.35
432.97	173.20
433.16	156.82
433.35	49.15
433.54	182.56
433.72	149.79
433.91	156.82
434.10	133.41
434.28	212.99
434.47	191.92
434.66	210.65
434.85	175.54
435.03	341.72
435.22	575.77
435.41	931.53
435.59	936.21
435.78	713.86
435.97	397.89
436.16	278.52
436.34	201.29
436.53	255.12
436.72	259.80
436.90	168.52
437.09	102.98
437.28	154.48
437.46	212.99
437.65	250.44
437.84	91.28
438.02	196.60
438.21	201.29
438.40	187.24
438.58	166.18
438.77	81.92
438.96	126.39
439.14	163.84
439.33	88.94
439.52	149.79
439.70	145.11
439.89	140.43
440.08	110.01
440.26	138.09
440.45	156.82
440.63	184.90
440.82	166.18
441.01	119.37
441.19	105.32
441.38	173.20
441.57	234.05
441.75	245.76
441.94	149.79
442.12	196.60
442.31	161.50
442.50	224.69
442.68	131.07
442.87	88.94
443.05	119.37
443.24	168.52
443.43	198.95
443.61	210.65
443.80	147.45
443.98	138.09
444.17	173.20
444.35	138.09
444.54	140.43
444.73	177.88
444.91	243.42
445.10	222.35
445.28	86.60
445.47	177.88
445.65	145.11
445.84	173.20
446.02	133.41
446.21	135.75
446.39	114.69
446.58	154.48
446.77	149.79
446.95	203.63
447.14	168.52
447.32	184.90
447.51	173.20
447.69	257.46
447.88	124.05
448.06	159.16
448.25	142.77
448.43	170.86
448.62	168.52
448.80	149.79
448.99	140.43
449.17	161.50
449.36	114.69
449.54	180.22
449.73	145.11
449.91	215.33
450.10	135.75
450.28	238.73
450.46	224.69
450.65	170.86
450.83	149.79
451.02	126.39
451.20	170.86
451.39	208.31
451.57	194.26
451.76	138.09
451.94	166.18
452.13	163.84
452.31	140.43
452.49	147.45
452.68	170.86
452.86	147.45
453.05	163.84
453.23	168.52
453.42	142.77
453.60	182.56
453.78	170.86
453.97	191.92
454.15	161.50
454.34	168.52
454.52	205.97
454.70	201.29
454.89	252.78
455.07	121.71
455.26	201.29
455.44	159.16
455.62	149.79
455.81	175.54
455.99	203.63
456.17	135.75
456.36	126.39
456.54	84.26
456.73	131.07
456.91	201.29
457.09	175.54
457.28	168.52
457.46	140.43
457.64	180.22
457.83	114.69
458.01	145.11
458.19	166.18
458.38	142.77
458.56	149.79
458.74	86.60
458.93	198.95
459.11	227.03
459.29	79.58
459.48	149.79
459.66	140.43
459.84	135.75
460.03	173.20
460.21	142.77
460.39	189.58
460.57	163.84
460.76	184.90
460.94	210.65
461.12	203.63
461.31	208.31
461.49	154.48
461.67	191.92
461.85	177.88
462.04	161.50
462.22	280.86
462.40	243.42
462.59	156.82
462.77	133.41
462.95	177.88
463.13	189.58
463.32	107.66
463.50	142.77
463.68	173.20
463.86	180.22
464.05	231.71
464.23	168.52
464.41	180.22
464.59	138.09
464.78	173.20
464.96	191.92
465.14	182.56
465.32	105.32
465.50	236.39
465.69	180.22
465.87	149.79
466.05	194.26
466.23	205.97
466.41	105.32
466.60	198.95
466.78	198.95
466.96	276.18
467.14	180.22
467.32	205.97
467.51	138.09
467.69	170.86
467.87	168.52
468.05	173.20
468.23	215.33
468.41	138.09
468.60	142.77
468.78	159.16
468.96	224.69
469.14	189.58
469.32	177.88
469.50	217.67
469.69	175.54
469.87	236.39
470.05	161.50
470.23	175.54
470.41	140.43
470.59	198.95
470.77	149.79
470.95	217.67
471.14	208.31
471.32	121.71
471.50	222.35
471.68	166.18
471.86	231.71
472.04	149.79
472.22	152.13
472.40	180.22
472.58	210.65
472.77	224.69
472.95	187.24
473.13	161.50
473.31	217.67
473.49	98.30
473.67	168.52
473.85	194.26
474.03	177.88
474.21	154.48
474.39	145.11
474.57	168.52
474.75	196.60
474.93	175.54
475.12	224.69
475.30	189.58
475.48	222.35
475.66	121.71
475.84	138.09
476.02	159.16
476.20	154.48
476.38	184.90
476.56	182.56
476.74	163.84
476.92	191.92
477.10	245.76
477.28	196.60
477.46	170.86
477.64	236.39
477.82	166.18
478.00	126.39
478.18	180.22
478.36	191.92
478.54	156.82
478.72	205.97
478.90	222.35
479.08	215.33
479.26	177.88
479.44	180.22
479.62	250.44
479.80	180.22
479.98	198.95
480.16	173.20
480.34	156.82
480.52	210.65
480.70	224.69
480.88	117.03
481.06	182.56
481.24	140.43
481.41	149.79
481.59	194.26
481.77	264.48
481.95	208.31
482.13	198.95
482.31	180.22
482.49	191.92
482.67	191.92
482.85	212.99
483.03	215.33
483.21	203.63
483.39	212.99
483.57	177.88
483.74	229.37
483.92	273.84
484.10	180.22
484.28	259.80
484.46	189.58
484.64	227.03
484.82	191.92
485.00	283.20
485.18	264.48
485.35	276.18
485.53	259.80
485.71	294.91
485.89	278.52
486.07	198.95
486.25	325.33
486.43	311.29
486.61	320.65
486.78	285.55
486.96	248.10
487.14	259.80
487.32	236.39
487.50	285.55
487.68	332.36
487.85	252.78
488.03	283.20
488.21	262.14
488.39	257.46
488.57	304.27
488.75	325.33
488.92	566.41
489.10	236.39
489.28	325.33
489.46	294.91
489.64	269.16
489.81	271.50
489.99	299.59
490.17	337.04
490.35	327.68
490.53	269.16
490.70	250.44
490.88	266.82
491.06	334.70
491.24	276.18
491.41	358.10
491.59	306.61
491.77	243.42
491.95	224.69
492.13	301.93
492.30	248.10
492.48	299.59
492.66	330.02
492.84	287.89
493.01	255.12
493.19	271.50
493.37	332.36
493.54	177.88
493.72	334.70
493.90	271.50
494.08	198.95
494.25	229.37
494.43	304.27
494.61	241.08
494.79	287.89
494.96	173.20
495.14	320.65
495.32	210.65
495.49	287.89
495.67	248.10
495.85	297.25
496.02	278.52
496.20	311.29
496.38	308.95
496.55	205.97
496.73	297.25
496.91	222.35
497.09	301.93
497.26	248.10
497.44	313.63
497.62	264.48
497.79	227.03
497.97	271.50
498.14	248.10
498.32	210.65
498.50	196.60
498.67	168.52
498.85	264.48
499.03	210.65
499.20	273.84
499.38	266.82
499.56	182.56
499.73	285.55
499.91	297.25
500.08	297.25
500.26	259.80
500.44	259.80
500.61	217.67
500.79	241.08
500.97	245.76
501.14	311.29
501.32	220.01
501.49	273.84
501.67	173.20
501.84	301.93
502.02	168.52
502.20	252.78
502.37	231.71
502.55	283.20
502.72	257.46
502.90	266.82
503.07	269.16
503.25	231.71
503.43	159.16
503.60	227.03
503.78	234.05
503.95	217.67
504.13	201.29
504.30	238.73
504.48	220.01
504.65	273.84
504.83	201.29
505.01	198.95
505.18	257.46
505.36	229.37
505.53	264.48
505.71	217.67
505.88	248.10
506.06	308.95
506.23	243.42
506.41	222.35
506.58	276.18
506.76	292.57
506.93	194.26
507.11	208.31
507.28	262.14
507.46	159.16
507.63	194.26
507.81	220.01
507.98	212.99
508.16	255.12
508.33	229.37
508.50	208.31
508.68	276.18
508.85	262.14
509.03	180.22
509.20	327.68
509.38	280.86
509.55	299.59
509.73	205.97
509.90	257.46
510.08	222.35
510.25	245.76
510.42	245.76
510.60	189.58
510.77	266.82
510.95	229.37
511.12	198.95
511.30	234.05
511.47	262.14
511.64	217.67
511.82	222.35
511.99	241.08
512.17	220.01
512.34	306.61
512.51	205.97
512.69	238.73
512.86	243.42
513.04	220.01
513.21	196.60
513.38	196.60
513.56	236.39
513.73	271.50
513.90	184.90
514.08	194.26
514.25	271.50
514.43	217.67
514.60	259.80
514.77	203.63
514.95	381.51
515.12	262.14
515.29	189.58
515.47	212.99
515.64	278.52
515.81	217.67
515.99	325.33
516.16	262.14
516.33	266.82
516.51	215.33
516.68	273.84
516.85	299.59
517.03	248.10
517.20	234.05
517.37	259.80
517.54	248.10
517.72	224.69
517.89	231.71
518.06	184.90
518.24	250.44
518.41	227.03
518.58	215.33
518.75	198.95
518.93	294.91
519.10	248.10
519.27	257.46
519.45	297.25
519.62	231.71
519.79	290.23
519.96	236.39
520.14	234.05
520.31	304.27
520.48	163.84
520.65	257.46
520.83	294.91
521.00	266.82
521.17	208.31
521.34	269.16
521.52	241.08
521.69	259.80
521.86	243.42
522.03	191.92
522.20	278.52
522.38	194.26
522.55	227.03
522.72	159.16
522.89	238.73
523.07	301.93
523.24	248.10
523.41	301.93
523.58	236.39
523.75	280.86
523.92	227.03
524.10	259.80
524.27	248.10
524.44	201.29
524.61	245.76
524.78	250.44
524.96	175.54
525.13	227.03
525.30	327.68
525.47	287.89
525.64	201.29
525.81	189.58
525.98	205.97
526.16	189.58
526.33	231.71
526.50	229.37
526.67	250.44
526.84	264.48
527.01	215.33
527.18	283.20
527.36	276.18
527.53	196.60
527.70	266.82
527.87	166.18
528.04	311.29
528.21	203.63
528.38	313.63
528.55	313.63
528.72	325.33
528.89	306.61
529.07	334.70
529.24	264.48
529.41	299.59
529.58	273.84
529.75	229.37
529.92	217.67
530.09	248.10
530.26	250.44
530.43	220.01
530.60	210.65
530.77	168.52
530.94	257.46
531.11	292.57
531.28	231.71
531.46	259.80
531.63	248.10
531.80	257.46
531.97	301.93
532.14	294.91
532.31	280.86
532.48	280.86
532.65	229.37
532.82	280.86
532.99	369.80
533.16	334.70
533.33	320.65
533.50	320.65
533.67	201.29
533.84	285.55
534.01	238.73
534.18	290.23
534.35	255.12
534.52	280.86
534.69	325.33
534.86	292.57
535.03	290.23
535.20	227.03
535.37	397.89
535.54	259.80
535.71	304.27
535.88	327.68
536.05	266.82
536.22	353.42
536.38	264.48
536.55	229.37
536.72	294.91
536.89	304.27
537.06	372.15
537.23	330.02
537.40	351.08
537.57	351.08
537.74	379.17
537.91	346.40
538.08	388.53
538.25	344.06
538.42	435.34
538.59	423.64
538.75	411.93
538.92	365.12
539.09	416.62
539.26	470.45
539.43	479.81
539.60	437.68
539.77	500.87
539.94	512.58
540.11	566.41
540.28	599.18
540.44	688.12
540.61	634.29
540.78	671.73
540.95	842.59
541.12	1001.75
541.29	1011.11
541.46	1165.59
541.62	1121.12
541.79	1025.15
541.96	1034.52
542.13	961.96
542.30	994.73
542.47	992.39
542.63	992.39
542.80	919.83
542.97	866.00
543.14	884.72
543.31	922.17
543.48	887.06
543.64	1001.75
543.81	919.83
543.98	891.74
544.15	870.68
544.32	868.34
544.48	987.71
544.65	812.17
544.82	858.98
544.99	863.66
545.16	901.11
545.32	943.24
545.49	1474.54
545.66	2214.15
545.83	2605.02
546.00	2221.17
546.16	1605.61
546.33	1221.76
546.50	910.47
546.67	870.68
546.83	779.40
547.00	706.84
547.17	688.12
547.34	648.33
547.50	573.43
547.67	650.67
547.84	690.46
548.00	559.39
548.17	627.26
548.34	585.13
548.51	543.00
548.67	524.28
548.84	603.86
549.01	557.05
549.18	564.07
549.34	465.77
549.51	472.79
549.68	510.24
549.84	484.49
550.01	454.06
550.18	531.30
550.34	535.98
550.51	510.24
550.68	517.26
550.84	451.72
551.01	376.83
551.18	397.89
551.34	454.06
551.51	458.74
551.68	423.64
551.84	301.93
552.01	418.96
552.18	423.64
552.34	404.91
552.51	442.36
552.68	360.44
552.84	332.36
553.01	397.89
553.18	425.98
553.34	290.23
553.51	383.85
553.67	346.40
553.84	355.76
554.01	257.46
554.17	315.97
554.34	269.16
554.51	318.31
554.67	318.31
554.84	334.70
555.00	290.23
555.17	294.91
555.33	294.91
555.50	273.84
555.67	285.55
555.83	227.03
556.00	231.71
556.16	418.96
556.33	287.89
556.50	301.93
556.66	287.89
556.83	250.44
556.99	276.18
557.16	313.63
557.32	266.82
557.49	306.61
557.65	330.02
557.82	229.37
557.98	243.42
558.15	248.10
558.32	250.44
558.48	231.71
558.65	215.33
558.81	154.48
558.98	208.31
559.14	280.86
559.31	187.24
559.47	271.50
559.64	229.37
559.80	262.14
559.97	283.20
560.13	220.01
560.30	189.58
560.46	234.05
560.63	184.90
560.79	262.14
560.96	259.80
561.12	299.59
561.29	273.84
561.45	210.65
561.61	248.10
561.78	313.63
561.94	264.48
562.11	266.82
562.27	259.80
562.44	217.67
562.60	257.46
562.77	234.05
562.93	234.05
563.10	229.37
563.26	255.12
563.42	301.93
563.59	271.50
563.75	175.54
563.92	212.99
564.08	294.91
564.24	196.60
564.41	313.63
564.57	215.33
564.74	280.86
564.90	231.71
565.07	257.46
565.23	271.50
565.39	208.31
565.56	308.95
565.72	212.99
565.88	227.03
566.05	269.16
566.21	290.23
566.38	255.12
566.54	222.35
566.70	269.16
566.87	224.69
567.03	227.03
567.19	283.20
567.36	306.61
567.52	156.82
567.68	215.33
567.85	234.05
568.01	173.20
568.17	212.99
568.34	217.67
568.50	243.42
568.66	266.82
568.83	325.33
568.99	234.05
569.15	276.18
569.32	238.73
569.48	220.01
569.64	271.50
569.81	276.18
569.97	271.50
570.13	248.10
570.30	255.12
570.46	264.48
570.62	203.63
570.78	163.84
570.95	276.18
571.11	313.63
571.27	290.23
571.43	245.76
571.60	278.52
571.76	294.91
571.92	217.67
572.09	238.73
572.25	259.80
572.41	250.44
572.57	304.27
572.74	290.23
572.90	313.63
573.06	290.23
573.22	224.69
573.38	245.76
573.55	224.69
573.71	290.23
573.87	194.26
574.03	175.54
574.20	222.35
574.36	264.48
574.52	231.71
574.68	262.14
574.84	238.73
575.01	217.67
575.17	255.12
575.33	255.12
575.49	280.86
575.65	234.05
575.82	264.48
575.98	339.38
576.14	184.90
576.30	271.50
576.46	482.15
576.62	636.63
576.79	664.71
576.95	519.60
577.11	388.53
577.27	383.85
577.43	322.99
577.59	330.02
577.75	250.44
577.92	259.80
578.08	252.78
578.24	250.44
578.40	379.17
578.56	461.09
578.72	615.56
578.88	674.07
579.04	503.22
579.21	463.43
579.37	365.12
579.53	351.08
579.69	365.12
579.85	346.40
580.01	402.57
580.17	376.83
580.33	332.36
580.49	327.68
580.65	367.46
580.82	259.80
580.98	332.36
581.14	341.72
581.30	351.08
581.46	327.68
581.62	390.87
581.78	339.38
581.94	381.51
582.10	315.97
582.26	287.89
582.42	273.84
582.58	346.40
582.74	463.43
582.90	367.46
583.06	404.91
583.22	369.80
583.38	383.85
583.54	351.08
583.70	430.66
583.86	390.87
584.02	383.85
584.18	344.06
584.34	454.06
584.50	390.87
584.66	461.09
584.82	374.49
584.98	376.83
585.14	409.59
585.30	369.80
585.46	304.27
585.62	367.46
585.78	353.42
585.94	447.04
586.10	337.04
586.26	383.85
586.42	421.30
586.58	409.59
586.74	435.34
586.90	510.24
587.06	517.26
587.22	545.34
587.38	465.77
587.54	397.89
587.70	337.04
587.86	468.11
588.02	379.17
588.18	381.51
588.34	386.19
588.49	355.76
588.65	318.31
588.81	273.84
588.97	276.18
589.13	283.20
589.29	262.14
589.45	330.02
589.61	341.72
589.77	266.82
589.93	269.16
590.08	262.14
590.24	241.08
590.40	301.93
590.56	304.27
590.72	276.18
590.88	283.20
591.04	280.86
591.20	320.65
591.35	327.68
591.51	327.68
591.67	285.55
591.83	278.52
591.99	346.40
592.15	351.08
592.31	367.46
592.46	421.30
592.62	390.87
592.78	418.96
592.94	411.93
593.10	390.87
593.26	339.38
593.41	400.23
593.57	472.79
593.73	395.55
593.89	383.85
594.05	287.89
594.20	301.93
594.36	334.70
594.52	313.63
594.68	304.27
594.84	238.73
594.99	322.99
595.15	250.44
595.31	327.68
595.47	294.91
595.62	257.46
595.78	318.31
595.94	313.63
596.10	271.50
596.25	292.57
596.41	266.82
596.57	255.12
596.73	313.63
596.88	231.71
597.04	217.67
597.20	257.46
597.36	311.29
597.51	252.78
597.67	273.84
597.83	262.14
597.99	276.18
598.14	304.27
598.30	374.49
598.46	306.61
598.61	355.76
598.77	348.74
598.93	404.91
599.09	334.70
599.24	353.42
599.40	416.62
599.56	390.87
599.71	418.96
599.87	322.99
600.03	283.20
600.18	311.29
600.34	332.36
600.50	322.99
600.65	327.68
600.81	231.71
600.97	280.86
601.12	262.14
601.28	348.74
601.44	269.16
601.59	210.65
601.75	292.57
601.91	203.63
602.06	236.39
602.22	348.74
602.37	210.65
602.53	266.82
602.69	231.71
602.84	203.63
603.00	252.78
603.16	287.89
603.31	337.04
603.47	238.73
603.62	299.59
603.78	330.02
603.94	205.97
604.09	255.12
604.25	297.25
604.40	269.16
604.56	248.10
604.71	304.27
604.87	205.97
605.03	292.57
605.18	362.78
605.34	318.31
605.49	238.73
605.65	222.35
605.80	252.78
605.96	276.18
606.12	294.91
606.27	301.93
606.43	241.08
606.58	280.86
606.74	276.18
606.89	348.74
607.05	386.19
607.20	339.38
607.36	341.72
607.51	330.02
607.67	337.04
607.82	313.63
607.98	351.08
608.13	308.95
608.29	278.52
608.44	365.12
608.60	407.25
608.75	304.27
608.91	482.15
609.06	496.19
609.22	402.57
609.37	491.51
609.53	650.67
609.68	566.41
609.84	685.78
609.99	685.78
610.15	849.61
610.30	943.24
610.46	1200.69
610.61	1490.92
610.76	1741.36
610.92	2090.10
611.07	2263.30
611.23	2347.56
611.38	2148.61
611.54	2047.97
