SpectraSuite Data File
++++++++++++++++++++++++++++++++++++
Date: Fri Oct 04 11:41:49 GMT-05:00 2013
User: price-jones
Dark Spectrum Present: No
Reference Spectrum Present: No
Number of Sampled Component Spectra: 1
Spectrometers: USB2+H05261
Integration Time (usec): 100000 (USB2+H05261)
Spectra Averaged: 1 (USB2+H05261)
Boxcar Smoothing: 0 (USB2+H05261)
Correct for Electrical Dark: No (USB2+H05261)
Strobe/Lamp Enabled: No (USB2+H05261)
Correct for Detector Non-linearity: No (USB2+H05261)
Correct for Stray Light: No (USB2+H05261)
Number of Pixels in Processed Spectrum: 2048
>>>>>Begin Processed Spectral Data<<<<<
365.73	58.51
365.92	58.51
366.12	58.51
366.32	0.00
366.52	0.00
366.72	0.00
366.91	0.00
367.11	0.00
367.31	0.00
367.51	0.00
367.70	0.00
367.90	0.00
368.10	0.00
368.30	0.00
368.49	0.00
368.69	0.00
368.89	0.00
369.09	0.00
369.28	0.00
369.48	0.00
369.68	0.00
369.87	35.11
370.07	0.00
370.27	28.09
370.47	0.00
370.66	39.79
370.86	56.17
371.06	126.39
371.25	168.52
371.45	53.83
371.65	60.85
371.84	46.81
372.04	56.17
372.24	86.60
372.44	37.45
372.63	147.45
372.83	161.50
373.03	39.79
373.22	86.60
373.42	161.50
373.62	149.79
373.81	191.92
374.01	107.66
374.21	170.86
374.40	95.96
374.60	257.46
374.79	95.96
374.99	117.03
375.19	175.54
375.38	152.13
375.58	163.84
375.78	182.56
375.97	133.41
376.17	194.26
376.37	91.28
376.56	128.73
376.76	119.37
376.95	121.71
377.15	166.18
377.35	154.48
377.54	163.84
377.74	72.56
377.93	182.56
378.13	77.24
378.33	138.09
378.52	58.51
378.72	105.32
378.91	98.30
379.11	142.77
379.31	149.79
379.50	79.58
379.70	154.48
379.89	128.73
380.09	93.62
380.28	128.73
380.48	149.79
380.68	126.39
380.87	67.88
381.07	175.54
381.26	163.84
381.46	67.88
381.65	124.05
381.85	114.69
382.04	124.05
382.24	133.41
382.43	93.62
382.63	126.39
382.83	133.41
383.02	110.01
383.22	196.60
383.41	79.58
383.61	177.88
383.80	105.32
384.00	95.96
384.19	107.66
384.39	70.22
384.58	107.66
384.78	131.07
384.97	88.94
385.17	105.32
385.36	147.45
385.56	145.11
385.75	98.30
385.95	84.26
386.14	140.43
386.34	114.69
386.53	124.05
386.72	138.09
386.92	168.52
387.11	128.73
387.31	86.60
387.50	191.92
387.70	145.11
387.89	135.75
388.09	102.98
388.28	128.73
388.48	77.24
388.67	133.41
388.86	102.98
389.06	117.03
389.25	170.86
389.45	124.05
389.64	182.56
389.84	145.11
390.03	147.45
390.22	95.96
390.42	177.88
390.61	170.86
390.81	102.98
391.00	105.32
391.19	142.77
391.39	161.50
391.58	126.39
391.78	126.39
391.97	102.98
392.16	95.96
392.36	107.66
392.55	198.95
392.75	140.43
392.94	187.24
393.13	138.09
393.33	168.52
393.52	161.50
393.71	131.07
393.91	131.07
394.10	110.01
394.29	117.03
394.49	140.43
394.68	77.24
394.88	117.03
395.07	149.79
395.26	191.92
395.46	173.20
395.65	198.95
395.84	154.48
396.04	180.22
396.23	119.37
396.42	138.09
396.62	168.52
396.81	93.62
397.00	107.66
397.19	114.69
397.39	102.98
397.58	142.77
397.77	117.03
397.97	138.09
398.16	156.82
398.35	156.82
398.55	126.39
398.74	149.79
398.93	224.69
399.12	140.43
399.32	119.37
399.51	110.01
399.70	173.20
399.90	159.16
400.09	196.60
400.28	210.65
400.47	119.37
400.67	163.84
400.86	154.48
401.05	210.65
401.24	154.48
401.44	191.92
401.63	187.24
401.82	210.65
402.01	224.69
402.21	194.26
402.40	163.84
402.59	210.65
402.78	264.48
402.97	269.16
403.17	304.27
403.36	304.27
403.55	353.42
403.74	758.33
403.93	2289.04
404.13	5774.10
404.32	10225.80
404.51	11154.99
404.70	7274.38
404.89	2558.21
405.09	660.03
405.28	322.99
405.47	198.95
405.66	318.31
405.85	318.31
406.05	294.91
406.24	208.31
406.43	252.78
406.62	262.14
406.81	280.86
407.00	292.57
407.20	674.07
407.39	1198.35
407.58	1612.63
407.77	1268.57
407.96	730.25
408.15	348.74
408.34	346.40
408.54	161.50
408.73	252.78
408.92	262.14
409.11	184.90
409.30	170.86
409.49	189.58
409.68	203.63
409.87	297.25
410.07	212.99
410.26	227.03
410.45	182.56
410.64	262.14
410.83	259.80
411.02	224.69
411.21	278.52
411.40	187.24
411.59	180.22
411.78	208.31
411.98	217.67
412.17	278.52
412.36	287.89
412.55	266.82
412.74	283.20
412.93	290.23
413.12	189.58
413.31	306.61
413.50	292.57
413.69	227.03
413.88	325.33
414.07	285.55
414.26	236.39
414.45	198.95
414.64	315.97
414.83	315.97
415.02	362.78
415.22	264.48
415.41	285.55
415.60	255.12
415.79	348.74
415.98	353.42
416.17	320.65
416.36	353.42
416.55	374.49
416.74	355.76
416.93	292.57
417.12	463.43
417.31	283.20
417.50	337.04
417.69	306.61
417.88	322.99
418.07	250.44
418.26	337.04
418.45	306.61
418.64	353.42
418.83	351.08
419.02	362.78
419.21	294.91
419.39	339.38
419.58	283.20
419.77	301.93
419.96	339.38
420.15	400.23
420.34	276.18
420.53	358.10
420.72	386.19
420.91	351.08
421.10	400.23
421.29	315.97
421.48	294.91
421.67	414.27
421.86	320.65
422.05	337.04
422.24	308.95
422.43	367.46
422.61	402.57
422.80	411.93
422.99	320.65
423.18	297.25
423.37	414.27
423.56	334.70
423.75	337.04
423.94	386.19
424.13	299.59
424.32	379.17
424.50	365.12
424.69	388.53
424.88	458.74
425.07	339.38
425.26	379.17
425.45	362.78
425.64	390.87
425.83	411.93
426.01	395.55
426.20	372.15
426.39	437.68
426.58	381.51
426.77	430.66
426.96	381.51
427.15	390.87
427.33	379.17
427.52	440.02
427.71	372.15
427.90	526.62
428.09	484.49
428.28	393.21
428.46	430.66
428.65	444.70
428.84	512.58
429.03	545.34
429.22	472.79
429.40	404.91
429.59	435.34
429.78	500.87
429.97	472.79
430.16	489.17
430.34	482.15
430.53	463.43
430.72	437.68
430.91	444.70
431.10	470.45
431.28	554.71
431.47	500.87
431.66	521.94
431.85	538.32
432.03	571.09
432.22	582.79
432.41	543.00
432.60	592.16
432.79	571.09
432.97	634.29
433.16	559.39
433.35	674.07
433.54	863.66
433.72	966.64
433.91	814.51
434.10	992.39
434.28	1137.50
434.47	1455.81
434.66	1605.61
434.85	1764.76
435.03	3971.89
435.22	14277.27
435.41	36751.09
435.59	51885.00
435.78	42485.40
435.97	18424.70
436.16	6808.62
436.34	2150.95
436.53	1287.29
436.72	943.24
436.90	842.59
437.09	777.06
437.28	713.86
437.46	699.82
437.65	695.14
437.84	737.27
438.02	650.67
438.21	725.57
438.40	606.20
438.58	629.60
438.77	620.24
438.96	627.26
439.14	685.78
439.33	641.31
439.52	585.13
439.70	692.80
439.89	711.52
440.08	641.31
440.26	627.26
440.45	624.92
440.63	599.18
440.82	606.20
441.01	650.67
441.19	643.65
441.38	636.63
441.57	641.31
441.75	622.58
441.94	699.82
442.12	641.31
442.31	622.58
442.50	592.16
442.68	655.35
442.87	641.31
443.05	662.37
443.24	571.09
443.43	713.86
443.61	634.29
443.80	660.03
443.98	573.43
444.17	653.01
444.35	610.88
444.54	575.77
444.73	575.77
444.91	608.54
445.10	601.52
445.28	589.82
445.47	734.93
445.65	606.20
445.84	638.97
446.02	547.69
446.21	669.39
446.39	566.41
446.58	575.77
446.77	676.41
446.95	592.16
447.14	671.73
447.32	706.84
447.51	641.31
447.69	657.69
447.88	624.92
448.06	526.62
448.25	575.77
448.43	561.73
448.62	606.20
448.80	636.63
448.99	667.05
449.17	620.24
449.36	573.43
449.54	627.26
449.73	622.58
449.91	671.73
450.10	596.84
450.28	657.69
450.46	655.35
450.65	716.20
450.83	575.77
451.02	535.98
451.20	617.90
451.39	617.90
451.57	592.16
451.76	550.03
451.94	613.22
452.13	606.20
452.31	564.07
452.49	573.43
452.68	566.41
452.86	587.47
453.05	648.33
453.23	681.10
453.42	638.97
453.60	587.47
453.78	617.90
453.97	601.52
454.15	599.18
454.34	561.73
454.52	610.88
454.70	512.58
454.89	613.22
455.07	585.13
455.26	594.50
455.44	610.88
455.62	547.69
455.81	592.16
455.99	617.90
456.17	608.54
456.36	613.22
456.54	526.62
456.73	561.73
456.91	582.79
457.09	608.54
457.28	683.44
457.46	543.00
457.64	624.92
457.83	540.66
458.01	634.29
458.19	610.88
458.38	599.18
458.56	575.77
458.74	589.82
458.93	636.63
459.11	554.71
459.29	603.86
459.48	582.79
459.66	571.09
459.84	592.16
460.03	653.01
460.21	655.35
460.39	519.60
460.57	545.34
460.76	545.34
460.94	578.11
461.12	641.31
461.31	589.82
461.49	606.20
461.67	524.28
461.85	571.09
462.04	606.20
462.22	1034.52
462.40	592.16
462.59	603.86
462.77	617.90
462.95	608.54
463.13	564.07
463.32	552.37
463.50	645.99
463.68	510.24
463.86	617.90
464.05	580.45
464.23	641.31
464.41	617.90
464.59	627.26
464.78	699.82
464.96	730.25
465.14	599.18
465.32	540.66
465.50	538.32
465.69	559.39
465.87	538.32
466.05	554.71
466.23	580.45
466.41	599.18
466.60	636.63
466.78	657.69
466.96	676.41
467.14	678.76
467.32	676.41
467.51	613.22
467.69	578.11
467.87	575.77
468.05	568.75
468.23	484.49
468.41	507.90
468.60	550.03
468.78	498.53
468.96	538.32
469.14	528.96
469.32	425.98
469.50	440.02
469.69	449.38
469.87	461.09
470.05	566.41
470.23	507.90
470.41	505.56
470.59	571.09
470.77	533.64
470.95	585.13
471.14	547.69
471.32	557.05
471.50	622.58
471.68	538.32
471.86	521.94
472.04	528.96
472.22	578.11
472.40	519.60
472.58	477.47
472.77	468.11
472.95	571.09
473.13	617.90
473.31	538.32
473.49	578.11
473.67	531.30
473.85	557.05
474.03	528.96
474.21	575.77
474.39	624.92
474.57	566.41
474.75	557.05
474.93	582.79
475.12	528.96
475.30	547.69
475.48	592.16
475.66	554.71
475.84	566.41
476.02	568.75
476.20	512.58
476.38	540.66
476.56	629.60
476.74	622.58
476.92	552.37
477.10	638.97
477.28	631.94
477.46	601.52
477.64	688.12
477.82	580.45
478.00	697.48
478.18	648.33
478.36	617.90
478.54	667.05
478.72	655.35
478.90	655.35
479.08	638.97
479.26	788.76
479.44	833.23
479.62	779.40
479.80	748.97
479.98	833.23
480.16	875.36
480.34	896.43
480.52	891.74
480.70	957.28
480.88	983.02
481.06	1032.18
481.24	1081.33
481.41	1144.52
481.59	1196.01
481.77	1165.59
481.95	1181.97
482.13	1390.28
482.31	1416.02
482.49	1621.99
482.67	1668.80
482.85	1881.79
483.03	1923.92
483.21	2047.97
483.39	2179.04
483.57	2275.00
483.74	2560.55
483.92	2640.12
484.10	2696.30
484.28	2841.41
484.46	3056.74
484.64	3405.48
484.82	3304.84
485.00	3552.93
485.18	3749.54
485.35	4030.40
485.53	4198.92
485.71	4440.00
485.89	4610.86
486.07	4559.36
486.25	4624.90
486.43	4844.91
486.61	4755.97
486.78	4765.33
486.96	4706.82
487.14	4987.68
487.32	4802.78
487.50	4772.35
487.68	4650.64
487.85	4564.04
488.03	4463.40
488.21	4688.09
488.39	4351.06
488.57	4301.90
488.75	4203.60
488.92	4444.68
489.10	4107.64
489.28	4004.66
489.46	3676.98
489.64	3911.04
489.81	3639.53
489.99	3679.32
490.17	3506.12
490.35	3634.85
490.53	3618.47
490.70	3501.44
490.88	3520.17
491.06	3786.99
491.24	3791.67
491.41	4046.79
491.59	3871.25
491.77	3684.00
491.95	3524.85
492.13	3382.07
492.30	3229.94
492.48	3220.58
492.66	3304.84
492.84	3054.40
493.01	3141.00
493.19	2979.50
493.37	3040.36
493.54	3009.93
493.72	2899.92
493.90	2937.37
494.08	2750.13
494.25	2733.75
494.43	2836.73
494.61	2745.45
494.79	2689.28
494.96	2752.47
495.14	2544.16
495.32	2471.61
495.49	2356.92
495.67	2410.75
495.85	2455.22
496.02	2462.24
496.20	2303.09
496.38	2289.04
496.55	2237.55
496.73	2207.13
496.91	2310.11
497.09	2267.98
497.26	1987.11
497.44	2036.27
497.62	1963.71
497.79	2001.16
497.97	2008.18
498.14	1849.02
498.32	1975.41
498.50	1799.87
498.67	1748.38
498.85	1823.28
499.03	1626.67
499.20	1544.75
499.38	1682.85
499.56	1605.61
499.73	1600.93
499.91	1614.97
500.08	1563.48
500.26	1460.49
500.44	1352.83
500.61	1284.95
500.79	1191.33
500.97	1228.78
501.14	1226.44
501.32	1249.85
501.49	1228.78
501.67	1200.69
501.84	1135.16
502.02	1076.65
502.20	1081.33
502.37	1100.05
502.55	1027.50
502.72	1015.79
502.90	931.53
503.07	919.83
503.25	901.11
503.43	905.79
503.60	884.72
503.78	816.85
503.95	842.59
504.13	814.51
504.30	755.99
504.48	798.12
504.65	809.83
504.83	814.51
505.01	755.99
505.18	727.91
505.36	692.80
505.53	699.82
505.71	706.84
505.88	699.82
506.06	645.99
506.23	697.48
506.41	723.23
506.58	655.35
506.76	695.14
506.93	573.43
507.11	697.48
507.28	634.29
507.46	510.24
507.63	580.45
507.81	566.41
507.98	636.63
508.16	613.22
508.33	575.77
508.50	650.67
508.68	615.56
508.85	645.99
509.03	620.24
509.20	692.80
509.38	695.14
509.55	589.82
509.73	545.34
509.90	650.67
510.08	564.07
510.25	566.41
510.42	505.56
510.60	582.79
510.77	538.32
510.95	624.92
511.12	545.34
511.30	566.41
511.47	571.09
511.64	594.50
511.82	547.69
511.99	489.17
512.17	608.54
512.34	491.51
512.51	519.60
512.69	496.19
512.86	624.92
513.04	510.24
513.21	479.81
513.38	578.11
513.56	486.83
513.73	428.32
513.90	484.49
514.08	519.60
514.25	456.40
514.43	512.58
514.60	561.73
514.77	407.25
514.95	444.70
515.12	416.62
515.29	418.96
515.47	449.38
515.64	470.45
515.81	451.72
515.99	472.79
516.16	538.32
516.33	514.92
516.51	470.45
516.68	475.13
516.85	500.87
517.03	449.38
517.20	472.79
517.37	428.32
517.54	461.09
517.72	491.51
517.89	353.42
518.06	416.62
518.24	428.32
518.41	547.69
518.58	458.74
518.75	404.91
518.93	447.04
519.10	397.89
519.27	425.98
519.45	395.55
519.62	442.36
519.79	451.72
519.96	449.38
520.14	423.64
520.31	503.22
520.48	381.51
520.65	430.66
520.83	418.96
521.00	428.32
521.17	440.02
521.34	409.59
521.52	400.23
521.69	449.38
521.86	444.70
522.03	444.70
522.20	437.68
522.38	425.98
522.55	491.51
522.72	440.02
522.89	482.15
523.07	456.40
523.24	381.51
523.41	404.91
523.58	442.36
523.75	404.91
523.92	456.40
524.10	468.11
524.27	447.04
524.44	449.38
524.61	428.32
524.78	395.55
524.96	451.72
525.13	498.53
525.30	510.24
525.47	528.96
525.64	491.51
525.81	463.43
525.98	617.90
526.16	496.19
526.33	505.56
526.50	468.11
526.67	543.00
526.84	528.96
527.01	514.92
527.18	634.29
527.36	653.01
527.53	617.90
527.70	636.63
527.87	615.56
528.04	653.01
528.21	540.66
528.38	601.52
528.55	589.82
528.72	535.98
528.89	624.92
529.07	559.39
529.24	568.75
529.41	653.01
529.58	645.99
529.75	638.97
529.92	636.63
530.09	634.29
530.26	734.93
530.43	667.05
530.60	592.16
530.77	704.50
530.94	690.46
531.11	723.23
531.28	657.69
531.46	725.57
531.63	741.95
531.80	868.34
531.97	915.15
532.14	1062.60
532.31	1174.95
532.48	1549.43
532.65	1631.35
532.82	1980.09
532.99	2282.02
533.16	2619.06
533.33	2839.07
533.50	2771.19
533.67	2370.96
533.84	2076.06
534.01	1813.92
534.18	1633.69
534.35	1549.43
534.52	1666.46
534.69	1699.23
534.86	1647.74
535.03	1715.61
535.20	1802.21
535.37	1966.05
535.54	1912.22
535.71	2115.84
535.88	2335.85
536.05	2417.77
536.22	2572.25
536.38	2846.09
536.55	3047.38
536.72	3295.47
536.89	3838.48
537.06	4252.75
537.23	4739.58
537.40	5085.98
537.57	5577.50
537.74	6003.47
537.91	6270.30
538.08	6214.12
538.25	6401.37
538.42	6434.13
538.59	6658.82
538.75	6815.64
538.92	7204.17
539.09	7908.67
539.26	8837.86
539.43	10036.22
539.60	11297.77
539.77	12711.45
539.94	14317.06
540.11	15859.47
540.28	17289.54
540.44	19145.58
540.61	21099.93
540.78	23868.78
540.95	28875.19
541.12	34712.49
541.29	40095.72
541.46	42824.78
541.62	42738.18
541.79	40627.02
541.96	37682.62
542.13	34955.90
542.30	32212.79
542.47	30232.70
542.63	28627.09
542.80	28140.26
542.97	27417.04
543.14	27314.05
543.31	27300.01
543.48	27351.50
543.64	27924.93
543.81	28236.22
543.98	28116.86
544.15	28098.13
544.32	28673.90
544.48	28231.54
544.65	27946.00
544.82	27358.52
544.99	27215.75
545.16	28329.84
545.32	29261.38
545.49	41888.57
545.66	60933.51
545.83	65535.00
546.00	65535.00
546.16	64273.45
546.33	47515.22
546.50	36833.01
546.67	28840.08
546.83	26052.50
547.00	24624.78
547.17	23398.34
547.34	22750.01
547.50	21841.88
547.67	21139.72
547.84	19932.00
548.00	19278.99
548.17	18647.05
548.34	17544.66
548.51	16765.26
548.67	16257.36
548.84	15545.84
549.01	14759.42
549.18	13862.99
549.34	13540.00
549.51	13057.85
549.68	12622.51
549.84	11810.34
550.01	11494.37
550.18	11033.29
550.34	10286.65
550.51	9837.27
550.68	9137.45
550.84	8760.63
551.01	8526.57
551.18	7976.55
551.34	7637.17
551.51	7136.29
551.68	6946.71
551.84	6682.23
552.01	6520.73
552.18	6087.73
552.34	5795.17
552.51	5767.08
552.68	5406.64
552.84	5305.99
553.01	4985.34
553.18	4835.55
553.34	4835.55
553.51	4636.60
553.67	4528.94
553.84	4308.93
554.01	3985.93
554.17	3803.37
554.34	3506.12
554.51	3234.62
554.67	3159.72
554.84	2951.42
555.00	2661.19
555.17	2724.38
555.33	2502.03
555.50	2326.49
555.67	2230.53
555.83	2200.10
556.00	2157.97
556.16	2204.78
556.33	2005.84
556.50	1858.39
556.66	1872.43
556.83	1678.16
556.99	1724.97
557.16	1673.48
557.32	1640.72
557.49	1659.44
557.65	1575.18
557.82	1380.92
557.98	1514.33
558.15	1434.75
558.32	1364.53
558.48	1306.02
558.65	1345.81
558.81	1245.16
558.98	1207.72
559.14	1228.78
559.31	1181.97
559.47	1233.46
559.64	1109.41
559.80	1203.04
559.97	1191.33
560.13	1135.16
560.30	1095.37
560.46	985.37
560.63	1083.67
560.79	1142.18
560.96	1076.65
561.12	1121.12
561.29	1097.71
561.45	1081.33
561.61	1149.20
561.78	1123.46
561.94	1100.05
562.11	1034.52
562.27	1020.47
562.44	1015.79
562.60	1046.22
562.77	1027.50
562.93	1034.52
563.10	1057.92
563.26	966.64
563.42	978.34
563.59	992.39
563.75	873.02
563.92	940.90
564.08	938.55
564.24	912.81
564.41	966.64
564.57	858.98
564.74	835.57
564.90	844.93
565.07	800.46
565.23	894.08
565.39	842.59
565.56	847.27
565.72	770.04
565.88	858.98
566.05	814.51
566.21	702.16
566.38	835.57
566.54	945.58
566.70	861.32
566.87	828.55
567.03	849.61
567.19	800.46
567.36	788.76
567.52	816.85
567.68	819.19
567.85	828.55
568.01	828.55
568.17	781.74
568.34	858.98
568.50	854.30
568.66	861.32
568.83	884.72
568.99	786.42
569.15	812.17
569.32	695.14
569.48	723.23
569.64	690.46
569.81	697.48
569.97	653.01
570.13	622.58
570.30	631.94
570.46	704.50
570.62	631.94
570.78	601.52
570.95	510.24
571.11	587.47
571.27	636.63
571.43	540.66
571.60	720.88
571.76	592.16
571.92	660.03
572.09	627.26
572.25	645.99
572.41	664.71
572.57	550.03
572.74	557.05
572.90	641.31
573.06	582.79
573.22	601.52
573.38	657.69
573.55	695.14
573.71	643.65
573.87	730.25
574.03	753.65
574.20	758.33
574.36	840.25
574.52	807.48
574.68	758.33
574.84	858.98
575.01	863.66
575.17	908.13
575.33	910.47
575.49	1022.81
575.65	1041.54
575.82	1210.06
575.98	1207.72
576.14	1425.39
576.30	2560.55
576.46	7899.31
576.62	16004.58
576.79	23885.17
576.95	16521.84
577.11	9657.05
577.27	6408.39
577.43	4463.40
577.59	2789.92
577.75	2183.72
577.92	1940.30
578.08	1935.62
578.24	1912.22
578.40	2780.56
578.56	7213.53
578.72	14548.77
578.88	22998.10
579.04	16145.02
579.21	9680.46
579.37	6841.39
579.53	5088.32
579.69	4678.73
579.85	5898.15
580.01	7169.06
580.17	7545.89
580.33	6305.40
580.49	5348.12
580.65	4554.68
580.82	4191.90
580.98	3913.38
581.14	4032.74
581.30	4147.43
581.46	4688.09
581.62	4842.57
581.78	5088.32
581.94	5598.56
582.10	6087.73
582.26	6307.74
582.42	6675.21
582.58	6745.42
582.74	6867.13
582.90	7094.16
583.06	7166.72
583.22	7077.78
583.38	7110.55
583.54	7012.24
583.70	7150.34
583.86	7042.67
584.02	6813.30
584.18	6839.05
584.34	6642.44
584.50	6548.82
584.66	6298.38
584.82	6307.74
584.98	6218.80
585.14	5994.11
585.30	6005.81
585.46	5905.17
585.62	5774.10
585.78	5877.09
585.94	5844.32
586.10	5783.46
586.26	6246.89
586.42	6780.53
586.58	8131.02
586.74	10183.67
586.90	12517.18
587.06	14326.42
587.22	14597.92
587.38	13256.79
587.54	10860.09
587.70	9158.52
587.86	7662.91
588.02	6534.78
588.18	5741.33
588.34	5193.65
588.49	4755.97
588.65	4479.79
588.81	4308.93
588.97	4177.86
589.13	3934.44
589.29	3721.45
589.45	3831.46
589.61	3707.41
589.77	3974.23
589.93	3775.28
590.08	3985.93
590.24	4121.68
590.40	4264.46
590.56	4358.08
590.72	4510.21
590.88	4444.68
591.04	4667.03
591.20	4922.15
591.35	5018.11
591.51	5284.93
591.67	5455.79
591.83	5916.87
591.99	6490.31
592.15	6956.07
592.31	7499.08
592.46	8156.77
592.62	8830.84
592.78	9551.73
592.94	10083.03
593.10	10111.11
593.26	9762.37
593.41	8982.98
593.57	8016.33
593.73	6932.67
593.89	6296.04
594.05	5533.03
594.20	4929.17
594.36	4631.92
594.52	4109.98
594.68	3983.59
594.84	3866.56
594.99	3796.35
595.15	3559.95
595.31	3405.48
595.47	3506.12
595.62	3421.86
595.78	3428.88
595.94	3485.06
596.10	3384.41
596.25	3452.29
596.41	3571.66
596.57	3445.27
596.73	3351.65
596.88	3424.20
597.04	3433.57
597.20	3597.40
597.36	3620.81
597.51	3688.68
597.67	3758.90
597.83	3974.23
597.99	4241.05
598.14	4355.74
598.30	4643.62
598.46	4830.87
598.61	5125.77
598.77	5479.19
598.93	5724.95
599.09	5776.44
599.24	6022.20
599.40	5898.15
599.56	5710.91
599.71	5657.07
599.87	5275.57
600.03	4865.97
600.18	4683.41
600.34	4194.24
600.50	4117.00
600.65	3786.99
600.81	3466.33
600.97	3328.24
601.12	3131.64
601.28	3164.40
601.44	2956.10
601.59	2794.60
601.75	2726.72
601.91	2581.61
602.06	2434.16
602.22	2490.33
602.37	2260.96
602.53	2179.04
602.69	2195.42
602.84	2225.85
603.00	2253.94
603.16	2312.45
603.31	2326.49
603.47	2333.51
603.62	2331.17
603.78	2375.64
603.94	2480.97
604.09	2651.83
604.25	2607.36
604.40	2656.51
