SpectraSuite Data File
++++++++++++++++++++++++++++++++++++
Date: Fri Oct 04 11:41:46 GMT-05:00 2013
User: price-jones
Dark Spectrum Present: No
Reference Spectrum Present: No
Number of Sampled Component Spectra: 1
Spectrometers: USB2+H05261
Integration Time (usec): 100000 (USB2+H05261)
Spectra Averaged: 1 (USB2+H05261)
Boxcar Smoothing: 0 (USB2+H05261)
Correct for Electrical Dark: No (USB2+H05261)
Strobe/Lamp Enabled: No (USB2+H05261)
Correct for Detector Non-linearity: No (USB2+H05261)
Correct for Stray Light: No (USB2+H05261)
Number of Pixels in Processed Spectrum: 2048
>>>>>Begin Processed Spectral Data<<<<<
365.73	44.47
365.92	44.47
366.12	44.47
366.32	0.00
366.52	0.00
366.72	0.00
366.91	0.00
367.11	0.00
367.31	0.00
367.51	0.00
367.70	0.00
367.90	0.00
368.10	0.00
368.30	0.00
368.49	0.00
368.69	0.00
368.89	0.00
369.09	0.00
369.28	0.00
369.48	0.00
369.68	0.00
369.87	9.36
370.07	0.00
370.27	0.00
370.47	21.06
370.66	63.19
370.86	131.07
371.06	86.60
371.25	180.22
371.45	25.75
371.65	126.39
371.84	95.96
372.04	88.94
372.24	70.22
372.44	102.98
372.63	159.16
372.83	196.60
373.03	107.66
373.22	135.75
373.42	138.09
373.62	184.90
373.81	105.32
374.01	128.73
374.21	128.73
374.40	166.18
374.60	145.11
374.79	166.18
374.99	163.84
375.19	170.86
375.38	177.88
375.58	177.88
375.78	177.88
375.97	191.92
376.17	161.50
376.37	166.18
376.56	112.35
376.76	105.32
376.95	79.58
377.15	145.11
377.35	100.64
377.54	23.41
377.74	74.90
377.93	65.54
378.13	145.11
378.33	145.11
378.52	46.81
378.72	112.35
378.91	166.18
379.11	105.32
379.31	154.48
379.50	102.98
379.70	124.05
379.89	152.13
380.09	107.66
380.28	102.98
380.48	149.79
380.68	93.62
380.87	124.05
381.07	100.64
381.26	140.43
381.46	119.37
381.65	147.45
381.85	140.43
382.04	159.16
382.24	79.58
382.43	117.03
382.63	105.32
382.83	98.30
383.02	184.90
383.22	140.43
383.41	100.64
383.61	102.98
383.80	156.82
384.00	152.13
384.19	81.92
384.39	156.82
384.58	95.96
384.78	121.71
384.97	86.60
385.17	86.60
385.36	142.77
385.56	145.11
385.75	72.56
385.95	114.69
386.14	215.33
386.34	121.71
386.53	112.35
386.72	70.22
386.92	161.50
387.11	56.17
387.31	159.16
387.50	105.32
387.70	81.92
387.89	114.69
388.09	161.50
388.28	70.22
388.48	81.92
388.67	117.03
388.86	72.56
389.06	25.75
389.25	140.43
389.45	119.37
389.64	14.04
389.84	110.01
390.03	205.97
390.22	145.11
390.42	91.28
390.61	72.56
390.81	0.00
391.00	72.56
391.19	119.37
391.39	126.39
391.58	105.32
391.78	161.50
391.97	114.69
392.16	2.34
392.36	65.54
392.55	147.45
392.75	81.92
392.94	81.92
393.13	145.11
393.33	184.90
393.52	126.39
393.71	95.96
393.91	147.45
394.10	95.96
394.29	117.03
394.49	81.92
394.68	175.54
394.88	135.75
395.07	86.60
395.26	81.92
395.46	95.96
395.65	126.39
395.84	152.13
396.04	208.31
396.23	98.30
396.42	124.05
396.62	16.38
396.81	100.64
397.00	126.39
397.19	173.20
397.39	212.99
397.58	161.50
397.77	140.43
397.97	56.17
398.16	105.32
398.35	184.90
398.55	124.05
398.74	147.45
398.93	166.18
399.12	79.58
399.32	110.01
399.51	145.11
399.70	117.03
399.90	152.13
400.09	91.28
400.28	198.95
400.47	205.97
400.67	177.88
400.86	128.73
401.05	152.13
401.24	166.18
401.44	194.26
401.63	177.88
401.82	217.67
402.01	170.86
402.21	156.82
402.40	145.11
402.59	107.66
402.78	163.84
402.97	198.95
403.17	145.11
403.36	215.33
403.55	208.31
403.74	482.15
403.93	1507.30
404.13	3290.79
404.32	3871.25
404.51	3269.73
404.70	1912.22
404.89	713.86
405.09	360.44
405.28	173.20
405.47	77.24
405.66	124.05
405.85	180.22
406.05	255.12
406.24	152.13
406.43	124.05
406.62	117.03
406.81	222.35
407.00	318.31
407.20	561.73
407.39	589.82
407.58	564.07
407.77	358.10
407.96	271.50
408.15	205.97
408.34	140.43
408.54	175.54
408.73	114.69
408.92	168.52
409.11	133.41
409.30	159.16
409.49	194.26
409.68	177.88
409.87	159.16
410.07	170.86
410.26	124.05
410.45	191.92
410.64	156.82
410.83	131.07
411.02	105.32
411.21	201.29
411.40	177.88
411.59	161.50
411.78	201.29
411.98	245.76
412.17	196.60
412.36	163.84
412.55	177.88
412.74	166.18
412.93	243.42
413.12	217.67
413.31	177.88
413.50	177.88
413.69	184.90
413.88	224.69
414.07	168.52
414.26	236.39
414.45	184.90
414.64	241.08
414.83	205.97
415.02	229.37
415.22	210.65
415.41	227.03
415.60	177.88
415.79	238.73
415.98	227.03
416.17	198.95
416.36	208.31
416.55	210.65
416.74	189.58
416.93	203.63
417.12	170.86
417.31	210.65
417.50	107.66
417.69	187.24
417.88	161.50
418.07	140.43
418.26	175.54
418.45	187.24
418.64	236.39
418.83	168.52
419.02	212.99
419.21	196.60
419.39	217.67
419.58	203.63
419.77	208.31
419.96	248.10
420.15	262.14
420.34	159.16
420.53	152.13
420.72	280.86
420.91	198.95
421.10	159.16
421.29	203.63
421.48	229.37
421.67	322.99
421.86	231.71
422.05	187.24
422.24	215.33
422.43	203.63
422.61	191.92
422.80	177.88
422.99	215.33
423.18	259.80
423.37	269.16
423.56	252.78
423.75	220.01
423.94	220.01
424.13	196.60
424.32	205.97
424.50	269.16
424.69	217.67
424.88	308.95
425.07	175.54
425.26	271.50
425.45	304.27
425.64	280.86
425.83	205.97
426.01	294.91
426.20	182.56
426.39	222.35
426.58	231.71
426.77	257.46
426.96	322.99
427.15	250.44
427.33	252.78
427.52	243.42
427.71	227.03
427.90	297.25
428.09	238.73
428.28	269.16
428.46	248.10
428.65	236.39
428.84	236.39
429.03	241.08
429.22	320.65
429.40	236.39
429.59	196.60
429.78	234.05
429.97	222.35
430.16	208.31
430.34	217.67
430.53	255.12
430.72	271.50
430.91	269.16
431.10	283.20
431.28	294.91
431.47	308.95
431.66	294.91
431.85	297.25
432.03	273.84
432.22	407.25
432.41	271.50
432.60	250.44
432.79	283.20
432.97	327.68
433.16	308.95
433.35	404.91
433.54	442.36
433.72	468.11
433.91	386.19
434.10	484.49
434.28	615.56
434.47	608.54
434.66	692.80
434.85	992.39
435.03	2752.47
435.22	9706.20
435.41	18328.74
435.59	16327.58
435.78	10761.78
435.97	5151.52
436.16	2026.90
436.34	882.38
436.53	603.86
436.72	512.58
436.90	381.51
437.09	428.32
437.28	409.59
437.46	362.78
437.65	306.61
437.84	365.12
438.02	285.55
438.21	304.27
438.40	351.08
438.58	325.33
438.77	313.63
438.96	311.29
439.14	313.63
439.33	344.06
439.52	341.72
439.70	306.61
439.89	297.25
440.08	290.23
440.26	322.99
440.45	383.85
440.63	320.65
440.82	355.76
441.01	327.68
441.19	351.08
441.38	327.68
441.57	327.68
441.75	351.08
441.94	421.30
442.12	222.35
442.31	290.23
442.50	313.63
442.68	306.61
442.87	299.59
443.05	395.55
443.24	411.93
443.43	355.76
443.61	374.49
443.80	379.17
443.98	306.61
444.17	376.83
444.35	322.99
444.54	248.10
444.73	313.63
444.91	330.02
445.10	276.18
445.28	290.23
445.47	362.78
445.65	411.93
445.84	311.29
446.02	322.99
446.21	390.87
446.39	318.31
446.58	299.59
446.77	313.63
446.95	304.27
447.14	376.83
447.32	383.85
447.51	358.10
447.69	273.84
447.88	353.42
448.06	376.83
448.25	313.63
448.43	299.59
448.62	222.35
448.80	344.06
448.99	332.36
449.17	369.80
449.36	245.76
449.54	290.23
449.73	339.38
449.91	381.51
450.10	369.80
450.28	360.44
450.46	407.25
450.65	353.42
450.83	292.57
451.02	266.82
451.20	301.93
451.39	379.17
451.57	327.68
451.76	365.12
451.94	322.99
452.13	283.20
452.31	264.48
452.49	362.78
452.68	294.91
452.86	369.80
453.05	395.55
453.23	283.20
453.42	334.70
453.60	304.27
453.78	360.44
453.97	344.06
454.15	341.72
454.34	283.20
454.52	334.70
454.70	367.46
454.89	334.70
455.07	255.12
455.26	287.89
455.44	348.74
455.62	372.15
455.81	257.46
455.99	266.82
456.17	292.57
456.36	332.36
456.54	346.40
456.73	313.63
456.91	304.27
457.09	322.99
457.28	330.02
457.46	318.31
457.64	379.17
457.83	294.91
458.01	339.38
458.19	311.29
458.38	278.52
458.56	325.33
458.74	325.33
458.93	330.02
459.11	294.91
459.29	315.97
459.48	414.27
459.66	447.04
459.84	393.21
460.03	442.36
460.21	313.63
460.39	283.20
460.57	278.52
460.76	334.70
460.94	304.27
461.12	348.74
461.31	299.59
461.49	276.18
461.67	297.25
461.85	315.97
462.04	280.86
462.22	491.51
462.40	365.12
462.59	341.72
462.77	301.93
462.95	311.29
463.13	355.76
463.32	362.78
463.50	278.52
463.68	365.12
463.86	315.97
464.05	273.84
464.23	344.06
464.41	379.17
464.59	304.27
464.78	322.99
464.96	311.29
465.14	294.91
465.32	297.25
465.50	344.06
465.69	376.83
465.87	285.55
466.05	308.95
466.23	376.83
466.41	334.70
466.60	388.53
466.78	337.04
466.96	351.08
467.14	341.72
467.32	294.91
467.51	358.10
467.69	327.68
467.87	346.40
468.05	241.08
468.23	374.49
468.41	273.84
468.60	311.29
468.78	238.73
468.96	332.36
469.14	322.99
469.32	285.55
469.50	379.17
469.69	250.44
469.87	386.19
470.05	337.04
470.23	299.59
470.41	257.46
470.59	292.57
470.77	341.72
470.95	299.59
471.14	311.29
471.32	360.44
471.50	339.38
471.68	355.76
471.86	297.25
472.04	250.44
472.22	367.46
472.40	299.59
472.58	332.36
472.77	264.48
472.95	346.40
473.13	418.96
473.31	365.12
473.49	266.82
473.67	341.72
473.85	264.48
474.03	341.72
474.21	325.33
474.39	348.74
474.57	306.61
474.75	367.46
474.93	276.18
475.12	313.63
475.30	320.65
475.48	290.23
475.66	313.63
475.84	341.72
476.02	341.72
476.20	306.61
476.38	325.33
476.56	322.99
476.74	311.29
476.92	292.57
477.10	372.15
477.28	348.74
477.46	348.74
477.64	294.91
477.82	411.93
478.00	337.04
478.18	358.10
478.36	428.32
478.54	322.99
478.72	348.74
478.90	395.55
479.08	397.89
479.26	348.74
479.44	407.25
479.62	360.44
479.80	390.87
479.98	416.62
480.16	416.62
480.34	458.74
480.52	437.68
480.70	503.22
480.88	440.02
481.06	482.15
481.24	514.92
481.41	550.03
481.59	578.11
481.77	547.69
481.95	526.62
482.13	636.63
482.31	699.82
482.49	709.18
482.67	823.87
482.85	755.99
483.03	861.32
483.21	830.89
483.39	985.37
483.57	990.05
483.74	1071.97
483.92	1057.92
484.10	1174.95
484.28	1277.93
484.46	1357.51
484.64	1357.51
484.82	1373.89
485.00	1533.05
485.18	1582.20
485.35	1640.72
485.53	1727.32
485.71	1762.42
485.89	1914.56
486.07	1853.70
486.25	1816.26
486.43	1853.70
486.61	1877.11
486.78	1767.10
486.96	1886.47
487.14	1907.54
487.32	1858.39
487.50	1853.70
487.68	1806.89
487.85	1858.39
488.03	1811.57
488.21	1867.75
488.39	1682.85
488.57	1682.85
488.75	1743.70
488.92	1881.79
489.10	1589.22
489.28	1593.90
489.46	1465.18
489.64	1523.69
489.81	1490.92
489.99	1441.77
490.17	1430.07
490.35	1483.90
490.53	1479.22
490.70	1432.41
490.88	1427.73
491.06	1479.22
491.24	1591.56
491.41	1577.52
491.59	1533.05
491.77	1434.75
491.95	1362.19
492.13	1336.45
492.30	1331.76
492.48	1338.79
492.66	1259.21
492.84	1261.55
493.01	1263.89
493.19	1235.80
493.37	1158.57
493.54	1156.22
493.72	1275.59
493.90	1153.88
494.08	1137.50
494.25	1135.16
494.43	1156.22
494.61	1095.37
494.79	1071.97
494.96	1027.50
495.14	1067.28
495.32	1008.77
495.49	1057.92
495.67	1039.20
495.85	1067.28
496.02	1015.79
496.20	1090.69
496.38	1011.11
496.55	966.64
496.73	938.55
496.91	887.06
497.09	894.08
497.26	961.96
497.44	947.92
497.62	849.61
497.79	828.55
497.97	849.61
498.14	884.72
498.32	840.25
498.50	753.65
498.67	798.12
498.85	791.10
499.03	734.93
499.20	711.52
499.38	718.54
499.56	732.59
499.73	716.20
499.91	784.08
500.08	678.76
500.26	613.22
500.44	606.20
500.61	613.22
500.79	617.90
500.97	615.56
501.14	608.54
501.32	613.22
501.49	531.30
501.67	538.32
501.84	489.17
502.02	475.13
502.20	596.84
502.37	526.62
502.55	545.34
502.72	538.32
502.90	442.36
503.07	526.62
503.25	430.66
503.43	491.51
503.60	528.96
503.78	442.36
503.95	402.57
504.13	425.98
504.30	472.79
504.48	369.80
504.65	449.38
504.83	437.68
505.01	372.15
505.18	449.38
505.36	397.89
505.53	444.70
505.71	376.83
505.88	444.70
506.06	374.49
506.23	397.89
506.41	287.89
506.58	332.36
506.76	379.17
506.93	280.86
507.11	430.66
507.28	355.76
507.46	365.12
507.63	299.59
507.81	315.97
507.98	348.74
508.16	409.59
508.33	369.80
508.50	374.49
508.68	367.46
508.85	414.27
509.03	320.65
509.20	500.87
509.38	423.64
509.55	395.55
509.73	400.23
509.90	372.15
510.08	362.78
510.25	348.74
510.42	337.04
510.60	332.36
510.77	395.55
510.95	351.08
511.12	320.65
511.30	421.30
511.47	367.46
511.64	433.00
511.82	299.59
511.99	409.59
512.17	341.72
512.34	285.55
512.51	360.44
512.69	306.61
512.86	390.87
513.04	362.78
513.21	367.46
513.38	414.27
513.56	348.74
513.73	325.33
513.90	294.91
514.08	325.33
514.25	330.02
514.43	304.27
514.60	283.20
514.77	341.72
514.95	294.91
515.12	318.31
515.29	346.40
515.47	376.83
515.64	241.08
515.81	320.65
515.99	308.95
516.16	388.53
516.33	292.57
516.51	318.31
516.68	383.85
516.85	266.82
517.03	315.97
517.20	262.14
517.37	348.74
517.54	301.93
517.72	337.04
517.89	245.76
518.06	278.52
518.24	292.57
518.41	337.04
518.58	318.31
518.75	278.52
518.93	318.31
519.10	241.08
519.27	308.95
519.45	255.12
519.62	301.93
519.79	313.63
519.96	297.25
520.14	325.33
520.31	365.12
520.48	259.80
520.65	264.48
520.83	367.46
521.00	243.42
521.17	287.89
521.34	313.63
521.52	322.99
521.69	283.20
521.86	250.44
522.03	313.63
522.20	341.72
522.38	292.57
522.55	283.20
522.72	332.36
522.89	358.10
523.07	369.80
523.24	283.20
523.41	280.86
523.58	278.52
523.75	315.97
523.92	332.36
524.10	376.83
524.27	334.70
524.44	360.44
524.61	241.08
524.78	301.93
524.96	379.17
525.13	332.36
525.30	299.59
525.47	353.42
525.64	259.80
525.81	315.97
525.98	390.87
526.16	327.68
526.33	292.57
526.50	372.15
526.67	374.49
526.84	325.33
527.01	325.33
527.18	318.31
527.36	430.66
527.53	381.51
527.70	376.83
527.87	304.27
528.04	390.87
528.21	360.44
528.38	372.15
528.55	409.59
528.72	414.27
528.89	337.04
529.07	409.59
529.24	374.49
529.41	461.09
529.58	320.65
529.75	304.27
529.92	360.44
530.09	397.89
530.26	397.89
530.43	496.19
530.60	433.00
530.77	456.40
530.94	397.89
531.11	428.32
531.28	386.19
531.46	421.30
531.63	475.13
531.80	414.27
531.97	561.73
532.14	641.31
532.31	674.07
532.48	727.91
532.65	793.44
532.82	861.32
532.99	1114.10
533.16	1158.57
533.33	1163.25
533.50	1050.90
533.67	999.41
533.84	851.96
534.01	751.31
534.18	798.12
534.35	702.16
534.52	772.38
534.69	861.32
534.86	849.61
535.03	798.12
535.20	821.53
535.37	894.08
535.54	917.49
535.71	943.24
535.88	1083.67
536.05	1060.26
536.22	1107.07
536.38	1256.87
536.55	1294.32
536.72	1479.22
536.89	1671.14
537.06	1746.04
537.23	2019.88
537.40	2108.82
537.57	2263.30
537.74	2319.47
537.91	2382.67
538.08	2487.99
538.25	2506.71
538.42	2380.32
538.59	2663.53
538.75	2778.22
538.92	2836.73
539.09	3262.71
539.26	3468.67
539.43	3957.85
539.60	4329.99
539.77	4856.61
539.94	5633.67
540.11	6108.80
540.28	6602.65
540.44	7232.26
540.61	7934.42
540.78	9088.30
540.95	11063.71
541.12	13177.22
541.29	14572.18
541.46	15019.22
541.62	14750.06
541.79	14157.90
541.96	13139.77
542.13	12301.86
542.30	11557.57
542.47	10771.15
542.63	10553.48
542.80	9989.41
542.97	9823.23
543.14	9792.80
543.31	9884.08
543.48	9947.28
543.64	10333.47
543.81	9991.75
543.98	10160.27
544.15	10223.46
544.32	10331.12
544.48	10431.77
544.65	9947.28
544.82	10061.96
544.99	10186.01
545.16	10225.80
545.32	11014.56
545.49	20699.70
545.66	35674.45
545.83	40371.90
546.00	32917.29
546.16	22820.22
546.33	16634.19
546.50	12416.54
546.67	10071.33
546.83	9085.96
547.00	8755.94
547.17	8439.97
547.34	7936.76
547.50	7882.92
547.67	7410.14
547.84	7129.27
548.00	6862.45
548.17	6658.82
548.34	6333.49
548.51	6101.78
548.67	5991.77
548.84	5570.48
549.01	5355.15
549.18	5041.51
549.34	4826.18
549.51	4622.56
549.68	4580.43
549.84	4329.99
550.01	4086.58
550.18	4091.26
550.34	3777.62
550.51	3691.02
550.68	3606.77
550.84	3248.66
551.01	3159.72
551.18	3148.02
551.34	2881.20
551.51	2731.41
551.68	2537.14
551.84	2588.63
552.01	2497.35
552.18	2303.09
552.34	2331.17
552.51	2132.23
552.68	2136.91
552.84	2022.22
553.01	1977.75
553.18	1991.80
553.34	1928.60
553.51	1863.07
553.67	1806.89
553.84	1757.74
554.01	1614.97
554.17	1502.62
554.34	1465.18
554.51	1280.27
554.67	1362.19
554.84	1219.42
555.00	1160.91
555.17	1109.41
555.33	1118.78
555.50	992.39
555.67	987.71
555.83	966.64
556.00	833.23
556.16	1053.24
556.33	842.59
556.50	746.63
556.66	777.06
556.83	835.57
556.99	774.72
557.16	819.19
557.32	763.01
557.49	709.18
557.65	713.86
557.82	713.86
557.98	755.99
558.15	638.97
558.32	667.05
558.48	648.33
558.65	585.13
558.81	559.39
558.98	568.75
559.14	622.58
559.31	631.94
559.47	554.71
559.64	564.07
559.80	561.73
559.97	524.28
560.13	463.43
560.30	496.19
560.46	624.92
560.63	627.26
560.79	564.07
560.96	533.64
561.12	486.83
561.29	550.03
561.45	573.43
561.61	573.43
561.78	660.03
561.94	465.77
562.11	489.17
562.27	538.32
562.44	486.83
562.60	528.96
562.77	390.87
562.93	564.07
563.10	594.50
563.26	465.77
563.42	435.34
563.59	416.62
563.75	482.15
563.92	500.87
564.08	491.51
564.24	416.62
564.41	519.60
564.57	444.70
564.74	507.90
564.90	397.89
565.07	454.06
565.23	442.36
565.39	447.04
565.56	442.36
565.72	379.17
565.88	388.53
566.05	425.98
566.21	418.96
566.38	528.96
566.54	507.90
566.70	423.64
566.87	433.00
567.03	482.15
567.19	491.51
567.36	489.17
567.52	411.93
567.68	465.77
567.85	479.81
568.01	454.06
568.17	428.32
568.34	393.21
568.50	414.27
568.66	376.83
568.83	578.11
568.99	550.03
569.15	407.25
569.32	386.19
569.48	442.36
569.64	414.27
569.81	454.06
569.97	383.85
570.13	407.25
570.30	348.74
570.46	411.93
570.62	437.68
570.78	376.83
570.95	280.86
571.11	393.21
571.27	402.57
571.43	353.42
571.60	369.80
571.76	388.53
571.92	390.87
572.09	332.36
572.25	348.74
572.41	360.44
572.57	365.12
572.74	337.04
572.90	390.87
573.06	339.38
573.22	395.55
573.38	393.21
573.55	430.66
573.71	383.85
573.87	456.40
574.03	379.17
574.20	369.80
574.36	440.02
574.52	468.11
574.68	449.38
574.84	451.72
575.01	465.77
575.17	470.45
575.33	451.72
575.49	568.75
575.65	533.64
575.82	559.39
575.98	638.97
576.14	716.20
576.30	1650.08
576.46	4926.83
576.62	6773.51
576.79	6949.05
576.95	5018.11
577.11	3398.46
577.27	2375.64
577.43	1624.33
577.59	1207.72
577.75	926.85
577.92	746.63
578.08	784.08
578.24	828.55
578.40	1652.42
578.56	4290.20
578.72	6200.08
578.88	6335.83
579.04	4725.54
579.21	3288.45
579.37	2525.44
579.53	2024.56
579.69	2057.33
579.85	2450.54
580.01	2759.49
580.17	2445.86
580.33	2272.66
580.49	1984.77
580.65	1706.25
580.82	1612.63
580.98	1678.16
581.14	1650.08
581.30	1699.23
581.46	1874.77
581.62	2026.90
581.78	2134.57
581.94	2200.10
582.10	2331.17
582.26	2532.46
582.42	2597.99
582.58	2457.56
582.74	2691.62
582.90	2801.62
583.06	2642.46
583.22	2619.06
583.38	2750.13
583.54	2619.06
583.70	2684.59
583.86	2752.47
584.02	2553.52
584.18	2469.27
584.34	2478.63
584.50	2441.18
584.66	2394.37
584.82	2347.56
584.98	2324.15
585.14	2476.29
585.30	2401.39
585.46	2195.42
585.62	2200.10
585.78	2230.53
585.94	2317.13
586.10	2314.79
586.26	2417.77
586.42	2846.09
586.58	3391.44
586.74	4145.09
586.90	4713.84
587.06	4945.55
587.22	5001.72
587.38	4397.87
587.54	3892.31
587.70	3283.77
587.86	2899.92
588.02	2415.43
588.18	2188.40
588.34	1959.03
588.49	1783.49
588.65	1741.36
588.81	1621.99
588.97	1579.86
589.13	1526.03
589.29	1540.07
589.45	1500.28
589.61	1528.37
589.77	1577.52
589.93	1514.33
590.08	1547.09
590.24	1526.03
590.40	1755.40
590.56	1720.29
590.72	1825.62
590.88	1748.38
591.04	1884.13
591.20	1912.22
591.35	1970.73
591.51	2204.78
591.67	2181.38
591.83	2263.30
591.99	2427.14
592.15	2635.44
592.31	2977.16
592.46	3056.74
592.62	3412.50
592.78	3562.30
592.94	3721.45
593.10	3630.17
593.26	3503.78
593.41	3328.24
593.57	2923.33
593.73	2487.99
593.89	2307.77
594.05	2003.50
594.20	1736.68
594.36	1692.21
594.52	1511.99
594.68	1610.29
594.84	1418.36
594.99	1373.89
595.15	1369.21
595.31	1364.53
595.47	1385.60
595.62	1376.24
595.78	1364.53
595.94	1343.47
596.10	1331.76
596.25	1486.24
596.41	1404.32
596.57	1376.24
596.73	1371.55
596.88	1228.78
597.04	1348.15
597.20	1334.11
597.36	1516.67
597.51	1490.92
597.67	1416.02
597.83	1629.01
597.99	1722.63
598.14	1727.32
598.30	1865.41
598.46	1928.60
598.61	1989.46
598.77	2015.20
598.93	2024.56
599.09	2284.36
599.24	2314.79
599.40	2162.66
599.56	2066.69
599.71	2071.37
599.87	1982.43
600.03	1877.11
600.18	1743.70
600.34	1643.06
600.50	1476.88
600.65	1427.73
600.81	1418.36
600.97	1217.08
601.12	1270.91
601.28	1261.55
601.44	1067.28
601.59	1114.10
601.75	1118.78
601.91	1135.16
602.06	980.68
602.22	1034.52
602.37	976.00
602.53	945.58
602.69	1088.35
602.84	945.58
603.00	924.51
603.16	950.26
603.31	1008.77
603.47	973.66
603.62	978.34
603.78	1123.46
603.94	1067.28
604.09	1046.22
604.25	1069.62
604.40	1102.39
604.56	1090.69
604.71	1123.46
604.87	1158.57
605.03	1111.75
605.18	1090.69
605.34	1053.24
605.49	1179.63
605.65	1151.54
605.80	1301.34
605.96	1277.93
606.12	1350.49
606.27	1418.36
606.43	1366.87
606.58	1526.03
