SpectraSuite Data File
++++++++++++++++++++++++++++++++++++
Date: Fri Oct 04 11:42:30 GMT-05:00 2013
User: price-jones
Dark Spectrum Present: No
Reference Spectrum Present: No
Number of Sampled Component Spectra: 1
Spectrometers: USB2+H05261
Integration Time (usec): 100000 (USB2+H05261)
Spectra Averaged: 1 (USB2+H05261)
Boxcar Smoothing: 0 (USB2+H05261)
Correct for Electrical Dark: No (USB2+H05261)
Strobe/Lamp Enabled: No (USB2+H05261)
Correct for Detector Non-linearity: No (USB2+H05261)
Correct for Stray Light: No (USB2+H05261)
Number of Pixels in Processed Spectrum: 2048
>>>>>Begin Processed Spectral Data<<<<<
365.73	51.49
365.92	51.49
366.12	51.49
366.32	0.00
366.52	0.00
366.72	0.00
366.91	0.00
367.11	0.00
367.31	0.00
367.51	0.00
367.70	0.00
367.90	0.00
368.10	0.00
368.30	0.00
368.49	0.00
368.69	0.00
368.89	0.00
369.09	0.00
369.28	0.00
369.48	0.00
369.68	0.00
369.87	0.00
370.07	14.04
370.27	60.85
370.47	0.00
370.66	16.38
370.86	16.38
371.06	35.11
371.25	56.17
371.45	23.41
371.65	60.85
371.84	53.83
372.04	0.00
372.24	56.17
372.44	58.51
372.63	95.96
372.83	121.71
373.03	86.60
373.22	51.49
373.42	163.84
373.62	110.01
373.81	149.79
374.01	16.38
374.21	126.39
374.40	65.54
374.60	154.48
374.79	74.90
374.99	182.56
375.19	112.35
375.38	166.18
375.58	159.16
375.78	166.18
375.97	121.71
376.17	177.88
376.37	133.41
376.56	177.88
376.76	119.37
376.95	77.24
377.15	149.79
377.35	173.20
377.54	105.32
377.74	95.96
377.93	100.64
378.13	81.92
378.33	205.97
378.52	124.05
378.72	257.46
378.91	107.66
379.11	121.71
379.31	49.15
379.50	112.35
379.70	133.41
379.89	70.22
380.09	81.92
380.28	105.32
380.48	72.56
380.68	79.58
380.87	63.19
381.07	117.03
381.26	98.30
381.46	88.94
381.65	203.63
381.85	65.54
382.04	72.56
382.24	126.39
382.43	145.11
382.63	21.06
382.83	18.72
383.02	189.58
383.22	117.03
383.41	145.11
383.61	46.81
383.80	140.43
384.00	114.69
384.19	138.09
384.39	121.71
384.58	152.13
384.78	142.77
384.97	112.35
385.17	74.90
385.36	84.26
385.56	114.69
385.75	67.88
385.95	77.24
386.14	93.62
386.34	105.32
386.53	105.32
386.72	60.85
386.92	117.03
387.11	145.11
387.31	117.03
387.50	124.05
387.70	88.94
387.89	88.94
388.09	163.84
388.28	112.35
388.48	93.62
388.67	25.75
388.86	88.94
389.06	114.69
389.25	163.84
389.45	135.75
389.64	79.58
389.84	107.66
390.03	175.54
390.22	163.84
390.42	140.43
390.61	126.39
390.81	100.64
391.00	95.96
391.19	126.39
391.39	131.07
391.58	138.09
391.78	131.07
391.97	163.84
392.16	156.82
392.36	102.98
392.55	110.01
392.75	14.04
392.94	30.43
393.13	23.41
393.33	67.88
393.52	53.83
393.71	79.58
393.91	70.22
394.10	81.92
394.29	128.73
394.49	131.07
394.68	147.45
394.88	159.16
395.07	86.60
395.26	112.35
395.46	149.79
395.65	84.26
395.84	175.54
396.04	149.79
396.23	131.07
396.42	95.96
396.62	63.19
396.81	114.69
397.00	72.56
397.19	135.75
397.39	149.79
397.58	81.92
397.77	100.64
397.97	189.58
398.16	74.90
398.35	131.07
398.55	112.35
398.74	131.07
398.93	163.84
399.12	128.73
399.32	126.39
399.51	112.35
399.70	152.13
399.90	110.01
400.09	95.96
400.28	117.03
400.47	110.01
400.67	201.29
400.86	154.48
401.05	191.92
401.24	126.39
401.44	126.39
401.63	117.03
401.82	191.92
402.01	159.16
402.21	95.96
402.40	145.11
402.59	126.39
402.78	159.16
402.97	100.64
403.17	180.22
403.36	102.98
403.55	98.30
403.74	88.94
403.93	77.24
404.13	201.29
404.32	231.71
404.51	187.24
404.70	149.79
404.89	124.05
405.09	147.45
405.28	194.26
405.47	98.30
405.66	126.39
405.85	112.35
406.05	86.60
406.24	110.01
406.43	128.73
406.62	168.52
406.81	117.03
407.00	126.39
407.20	163.84
407.39	142.77
407.58	114.69
407.77	191.92
407.96	128.73
408.15	154.48
408.34	98.30
408.54	65.54
408.73	140.43
408.92	170.86
409.11	58.51
409.30	191.92
409.49	86.60
409.68	95.96
409.87	67.88
410.07	159.16
410.26	100.64
410.45	79.58
410.64	79.58
410.83	133.41
411.02	124.05
411.21	147.45
411.40	135.75
411.59	138.09
411.78	126.39
411.98	187.24
412.17	138.09
412.36	133.41
412.55	187.24
412.74	81.92
412.93	152.13
413.12	175.54
413.31	105.32
413.50	147.45
413.69	81.92
413.88	154.48
414.07	121.71
414.26	105.32
414.45	105.32
414.64	234.05
414.83	79.58
415.02	147.45
415.22	154.48
415.41	196.60
415.60	107.66
415.79	138.09
415.98	163.84
416.17	145.11
416.36	100.64
416.55	79.58
416.74	117.03
416.93	124.05
417.12	168.52
417.31	138.09
417.50	100.64
417.69	290.23
417.88	231.71
418.07	119.37
418.26	95.96
418.45	100.64
418.64	147.45
418.83	117.03
419.02	149.79
419.21	117.03
419.39	100.64
419.58	145.11
419.77	149.79
419.96	105.32
420.15	182.56
420.34	166.18
420.53	170.86
420.72	194.26
420.91	121.71
421.10	173.20
421.29	84.26
421.48	180.22
421.67	117.03
421.86	128.73
422.05	163.84
422.24	135.75
422.43	180.22
422.61	51.49
422.80	131.07
422.99	32.77
423.18	65.54
423.37	194.26
423.56	168.52
423.75	170.86
423.94	138.09
424.13	114.69
424.32	180.22
424.50	177.88
424.69	138.09
424.88	84.26
425.07	72.56
425.26	86.60
425.45	100.64
425.64	131.07
425.83	124.05
426.01	121.71
426.20	191.92
426.39	163.84
426.58	110.01
426.77	107.66
426.96	133.41
427.15	142.77
427.33	114.69
427.52	117.03
427.71	163.84
427.90	145.11
428.09	154.48
428.28	163.84
428.46	161.50
428.65	98.30
428.84	126.39
429.03	98.30
429.22	156.82
429.40	175.54
429.59	147.45
429.78	210.65
429.97	107.66
430.16	100.64
430.34	119.37
430.53	145.11
430.72	161.50
430.91	196.60
431.10	170.86
431.28	149.79
431.47	210.65
431.66	163.84
431.85	154.48
432.03	166.18
432.22	285.55
432.41	140.43
432.60	81.92
432.79	63.19
432.97	154.48
433.16	187.24
433.35	159.16
433.54	135.75
433.72	168.52
433.91	135.75
434.10	250.44
434.28	215.33
434.47	154.48
434.66	208.31
434.85	163.84
435.03	250.44
435.22	374.49
435.41	959.62
435.59	978.34
435.78	575.77
435.97	404.91
436.16	313.63
436.34	156.82
436.53	220.01
436.72	142.77
436.90	147.45
437.09	152.13
437.28	70.22
437.46	135.75
437.65	124.05
437.84	168.52
438.02	161.50
438.21	138.09
438.40	135.75
438.58	159.16
438.77	100.64
438.96	163.84
439.14	184.90
439.33	128.73
439.52	145.11
439.70	147.45
439.89	245.76
440.08	198.95
440.26	168.52
440.45	215.33
440.63	238.73
440.82	131.07
441.01	163.84
441.19	142.77
441.38	102.98
441.57	133.41
441.75	215.33
441.94	135.75
442.12	91.28
442.31	138.09
442.50	121.71
442.68	177.88
442.87	201.29
443.05	159.16
443.24	25.75
443.43	152.13
443.61	243.42
443.80	173.20
443.98	142.77
444.17	124.05
444.35	152.13
444.54	114.69
444.73	201.29
444.91	189.58
445.10	147.45
445.28	100.64
445.47	170.86
445.65	84.26
445.84	161.50
446.02	114.69
446.21	182.56
446.39	149.79
446.58	166.18
446.77	166.18
446.95	95.96
447.14	215.33
447.32	196.60
447.51	203.63
447.69	191.92
447.88	208.31
448.06	236.39
448.25	147.45
448.43	156.82
448.62	105.32
448.80	189.58
448.99	203.63
449.17	124.05
449.36	152.13
449.54	142.77
449.73	154.48
449.91	287.89
450.10	149.79
450.28	220.01
450.46	217.67
450.65	121.71
450.83	245.76
451.02	173.20
451.20	173.20
451.39	175.54
451.57	124.05
451.76	161.50
451.94	170.86
452.13	222.35
452.31	173.20
452.49	135.75
452.68	231.71
452.86	152.13
453.05	198.95
453.23	161.50
453.42	203.63
453.60	135.75
453.78	194.26
453.97	189.58
454.15	224.69
454.34	133.41
454.52	145.11
454.70	315.97
454.89	149.79
455.07	236.39
455.26	156.82
455.44	147.45
455.62	128.73
455.81	191.92
455.99	147.45
456.17	163.84
456.36	112.35
456.54	117.03
456.73	112.35
456.91	161.50
457.09	152.13
457.28	222.35
457.46	84.26
457.64	264.48
457.83	114.69
458.01	189.58
458.19	177.88
458.38	222.35
458.56	159.16
458.74	135.75
458.93	147.45
459.11	229.37
459.29	131.07
459.48	114.69
459.66	145.11
459.84	224.69
460.03	241.08
460.21	177.88
460.39	175.54
460.57	203.63
460.76	147.45
460.94	175.54
461.12	236.39
461.31	177.88
461.49	180.22
461.67	217.67
461.85	156.82
462.04	154.48
462.22	339.38
462.40	191.92
462.59	184.90
462.77	128.73
462.95	70.22
463.13	140.43
463.32	259.80
463.50	156.82
463.68	154.48
463.86	191.92
464.05	203.63
464.23	194.26
464.41	210.65
464.59	138.09
464.78	212.99
464.96	163.84
465.14	168.52
465.32	142.77
465.50	220.01
465.69	177.88
465.87	152.13
466.05	196.60
466.23	124.05
466.41	163.84
466.60	147.45
466.78	205.97
466.96	175.54
467.14	135.75
467.32	205.97
467.51	149.79
467.69	159.16
467.87	147.45
468.05	215.33
468.23	255.12
468.41	142.77
468.60	212.99
468.78	243.42
468.96	145.11
469.14	175.54
469.32	117.03
469.50	156.82
469.69	140.43
469.87	203.63
470.05	194.26
470.23	161.50
470.41	152.13
470.59	156.82
470.77	152.13
470.95	161.50
471.14	222.35
471.32	159.16
471.50	135.75
471.68	110.01
471.86	100.64
472.04	173.20
472.22	227.03
472.40	210.65
472.58	77.24
472.77	177.88
472.95	124.05
473.13	269.16
473.31	224.69
473.49	138.09
473.67	170.86
473.85	191.92
474.03	191.92
474.21	133.41
474.39	217.67
474.57	173.20
474.75	175.54
474.93	170.86
475.12	231.71
475.30	79.58
475.48	135.75
475.66	63.19
475.84	133.41
476.02	205.97
476.20	133.41
476.38	184.90
476.56	217.67
476.74	152.13
476.92	161.50
477.10	264.48
477.28	224.69
477.46	203.63
477.64	252.78
477.82	159.16
478.00	93.62
478.18	191.92
478.36	142.77
478.54	135.75
478.72	124.05
478.90	215.33
479.08	182.56
479.26	168.52
479.44	231.71
479.62	119.37
479.80	147.45
479.98	208.31
480.16	180.22
480.34	227.03
480.52	220.01
480.70	180.22
480.88	175.54
481.06	168.52
481.24	196.60
481.41	180.22
481.59	220.01
481.77	184.90
481.95	152.13
482.13	215.33
482.31	301.93
482.49	224.69
482.67	231.71
482.85	259.80
483.03	269.16
483.21	273.84
483.39	182.56
483.57	262.14
483.74	252.78
483.92	238.73
484.10	208.31
484.28	252.78
484.46	266.82
484.64	259.80
484.82	264.48
485.00	266.82
485.18	262.14
485.35	229.37
485.53	189.58
485.71	264.48
485.89	273.84
486.07	287.89
486.25	304.27
486.43	290.23
486.61	306.61
486.78	229.37
486.96	355.76
487.14	252.78
487.32	301.93
487.50	308.95
487.68	257.46
487.85	299.59
488.03	341.72
488.21	334.70
488.39	353.42
488.57	234.05
488.75	203.63
488.92	592.16
489.10	308.95
489.28	290.23
489.46	255.12
489.64	287.89
489.81	245.76
489.99	304.27
490.17	337.04
490.35	346.40
490.53	259.80
490.70	231.71
490.88	269.16
491.06	238.73
491.24	367.46
491.41	379.17
491.59	280.86
491.77	271.50
491.95	337.04
492.13	325.33
492.30	259.80
492.48	248.10
492.66	292.57
492.84	271.50
493.01	255.12
493.19	266.82
493.37	255.12
493.54	292.57
493.72	313.63
493.90	236.39
494.08	215.33
494.25	278.52
494.43	276.18
494.61	306.61
494.79	264.48
494.96	283.20
495.14	205.97
495.32	250.44
495.49	283.20
495.67	241.08
495.85	252.78
496.02	248.10
496.20	220.01
496.38	276.18
496.55	337.04
496.73	287.89
496.91	262.14
497.09	257.46
497.26	320.65
497.44	271.50
497.62	271.50
497.79	215.33
497.97	248.10
498.14	311.29
498.32	355.76
498.50	163.84
498.67	271.50
498.85	198.95
499.03	177.88
499.20	273.84
499.38	231.71
499.56	269.16
499.73	304.27
499.91	236.39
500.08	266.82
500.26	212.99
500.44	243.42
500.61	266.82
500.79	180.22
500.97	201.29
501.14	196.60
501.32	271.50
501.49	248.10
501.67	257.46
501.84	224.69
502.02	182.56
502.20	285.55
502.37	285.55
502.55	224.69
502.72	196.60
502.90	285.55
503.07	276.18
503.25	271.50
503.43	250.44
503.60	205.97
503.78	271.50
503.95	168.52
504.13	238.73
504.30	276.18
504.48	348.74
504.65	215.33
504.83	245.76
505.01	276.18
505.18	236.39
505.36	189.58
505.53	339.38
505.71	294.91
505.88	234.05
506.06	306.61
506.23	222.35
506.41	236.39
506.58	287.89
506.76	290.23
506.93	217.67
507.11	189.58
507.28	194.26
507.46	236.39
507.63	161.50
507.81	227.03
507.98	241.08
508.16	241.08
508.33	187.24
508.50	241.08
508.68	252.78
508.85	245.76
509.03	194.26
509.20	191.92
509.38	212.99
509.55	217.67
509.73	290.23
509.90	259.80
510.08	191.92
510.25	294.91
510.42	229.37
510.60	156.82
510.77	297.25
510.95	266.82
511.12	201.29
511.30	255.12
511.47	231.71
511.64	355.76
511.82	210.65
511.99	280.86
512.17	161.50
512.34	166.18
512.51	149.79
512.69	231.71
512.86	299.59
513.04	161.50
513.21	355.76
513.38	236.39
513.56	266.82
513.73	208.31
513.90	182.56
514.08	220.01
514.25	252.78
514.43	234.05
514.60	212.99
514.77	182.56
514.95	264.48
515.12	215.33
515.29	203.63
515.47	236.39
515.64	241.08
515.81	245.76
515.99	283.20
516.16	241.08
516.33	252.78
516.51	243.42
516.68	229.37
516.85	201.29
517.03	238.73
517.20	161.50
517.37	234.05
517.54	173.20
517.72	222.35
517.89	182.56
518.06	184.90
518.24	252.78
518.41	173.20
518.58	222.35
518.75	243.42
518.93	257.46
519.10	257.46
519.27	227.03
519.45	297.25
519.62	259.80
519.79	217.67
519.96	245.76
520.14	147.45
520.31	217.67
520.48	224.69
520.65	215.33
520.83	276.18
521.00	257.46
521.17	227.03
521.34	231.71
521.52	259.80
521.69	245.76
521.86	191.92
522.03	163.84
522.20	229.37
522.38	198.95
522.55	236.39
522.72	229.37
522.89	299.59
523.07	255.12
523.24	201.29
523.41	227.03
523.58	259.80
523.75	252.78
523.92	203.63
524.10	222.35
524.27	222.35
524.44	259.80
524.61	297.25
524.78	266.82
524.96	243.42
525.13	271.50
525.30	229.37
525.47	255.12
525.64	259.80
525.81	297.25
525.98	351.08
526.16	184.90
526.33	243.42
526.50	194.26
526.67	156.82
526.84	255.12
527.01	196.60
527.18	259.80
527.36	203.63
527.53	264.48
527.70	255.12
527.87	189.58
528.04	292.57
528.21	269.16
528.38	285.55
528.55	227.03
528.72	273.84
528.89	227.03
529.07	241.08
529.24	210.65
529.41	236.39
529.58	306.61
529.75	203.63
529.92	250.44
530.09	262.14
530.26	257.46
530.43	308.95
530.60	224.69
530.77	271.50
530.94	269.16
531.11	212.99
531.28	189.58
531.46	271.50
531.63	287.89
531.80	259.80
531.97	264.48
532.14	266.82
532.31	285.55
532.48	238.73
532.65	259.80
532.82	229.37
532.99	205.97
533.16	224.69
533.33	297.25
533.50	320.65
533.67	180.22
533.84	301.93
534.01	234.05
534.18	299.59
534.35	297.25
534.52	276.18
534.69	262.14
534.86	229.37
535.03	344.06
535.20	264.48
535.37	299.59
535.54	346.40
535.71	376.83
535.88	374.49
536.05	304.27
536.22	266.82
536.38	229.37
536.55	301.93
536.72	290.23
536.89	290.23
537.06	330.02
537.23	346.40
537.40	374.49
537.57	367.46
537.74	386.19
537.91	414.27
538.08	435.34
538.25	379.17
538.42	337.04
538.59	365.12
538.75	360.44
538.92	428.32
539.09	456.40
539.26	383.85
539.43	486.83
539.60	477.47
539.77	505.56
539.94	503.22
540.11	606.20
540.28	662.37
540.44	634.29
540.61	620.24
540.78	657.69
540.95	767.70
541.12	933.87
541.29	959.62
541.46	1123.46
541.62	1048.56
541.79	1048.56
541.96	1104.73
542.13	1006.43
542.30	936.21
542.47	959.62
542.63	954.94
542.80	905.79
542.97	917.49
543.14	929.19
543.31	929.19
543.48	983.02
543.64	980.68
543.81	908.13
543.98	980.68
544.15	912.81
544.32	952.60
544.48	861.32
544.65	898.77
544.82	816.85
544.99	917.49
545.16	861.32
545.32	880.04
545.49	1497.94
545.66	2080.74
545.83	2408.41
546.00	2169.68
546.16	1516.67
546.33	1191.33
546.50	1011.11
546.67	807.48
546.83	657.69
547.00	706.84
547.17	622.58
547.34	622.58
547.50	674.07
547.67	655.35
547.84	554.71
548.00	624.92
548.17	587.47
548.34	559.39
548.51	627.26
548.67	631.94
548.84	650.67
549.01	573.43
549.18	634.29
549.34	564.07
549.51	470.45
549.68	547.69
549.84	454.06
550.01	479.81
550.18	535.98
550.34	503.22
550.51	468.11
550.68	524.28
550.84	416.62
551.01	430.66
551.18	447.04
551.34	409.59
551.51	346.40
551.68	362.78
551.84	437.68
552.01	447.04
552.18	308.95
552.34	414.27
552.51	404.91
552.68	320.65
552.84	383.85
553.01	353.42
553.18	414.27
553.34	322.99
553.51	325.33
553.67	346.40
553.84	425.98
554.01	407.25
554.17	376.83
554.34	294.91
554.51	344.06
554.67	318.31
554.84	271.50
555.00	241.08
555.17	276.18
555.33	334.70
555.50	294.91
555.67	278.52
555.83	283.20
556.00	208.31
556.16	456.40
556.33	292.57
556.50	276.18
556.66	278.52
556.83	161.50
556.99	280.86
557.16	287.89
557.32	346.40
557.49	287.89
557.65	283.20
557.82	297.25
557.98	250.44
558.15	259.80
558.32	271.50
558.48	245.76
558.65	266.82
558.81	220.01
558.98	234.05
559.14	257.46
559.31	266.82
559.47	222.35
559.64	306.61
559.80	290.23
559.97	222.35
560.13	292.57
560.30	208.31
560.46	269.16
560.63	280.86
560.79	276.18
560.96	248.10
561.12	276.18
561.29	264.48
561.45	215.33
561.61	234.05
561.78	376.83
561.94	243.42
562.11	252.78
562.27	245.76
562.44	262.14
562.60	278.52
562.77	215.33
562.93	369.80
563.10	304.27
563.26	273.84
563.42	297.25
563.59	306.61
563.75	315.97
563.92	292.57
564.08	287.89
564.24	276.18
564.41	327.68
564.57	248.10
564.74	208.31
564.90	222.35
565.07	252.78
565.23	229.37
565.39	208.31
565.56	276.18
565.72	301.93
565.88	203.63
566.05	327.68
566.21	245.76
566.38	327.68
566.54	259.80
566.70	187.24
566.87	212.99
567.03	152.13
567.19	231.71
567.36	227.03
567.52	264.48
567.68	198.95
567.85	201.29
568.01	189.58
568.17	248.10
568.34	278.52
568.50	252.78
568.66	201.29
568.83	287.89
568.99	245.76
569.15	217.67
569.32	196.60
569.48	271.50
569.64	259.80
569.81	238.73
569.97	229.37
570.13	285.55
570.30	243.42
570.46	252.78
570.62	292.57
570.78	236.39
570.95	308.95
571.11	372.15
571.27	273.84
571.43	220.01
571.60	264.48
571.76	224.69
571.92	208.31
572.09	241.08
572.25	292.57
572.41	252.78
572.57	241.08
572.74	299.59
572.90	187.24
573.06	306.61
573.22	379.17
573.38	292.57
573.55	236.39
573.71	257.46
573.87	250.44
574.03	198.95
574.20	184.90
574.36	231.71
574.52	208.31
574.68	252.78
574.84	229.37
575.01	217.67
575.17	205.97
575.33	252.78
575.49	276.18
575.65	224.69
575.82	166.18
575.98	311.29
576.14	308.95
576.30	351.08
576.46	507.90
576.62	585.13
576.79	566.41
576.95	547.69
577.11	425.98
577.27	341.72
577.43	325.33
577.59	306.61
577.75	292.57
577.92	276.18
578.08	264.48
578.24	271.50
578.40	339.38
578.56	461.09
578.72	575.77
578.88	662.37
579.04	533.64
579.21	428.32
579.37	330.02
579.53	423.64
579.69	411.93
579.85	351.08
580.01	351.08
580.17	489.17
580.33	428.32
580.49	348.74
580.65	292.57
580.82	285.55
580.98	276.18
581.14	358.10
581.30	315.97
581.46	358.10
581.62	379.17
581.78	374.49
581.94	346.40
582.10	313.63
582.26	313.63
582.42	283.20
582.58	402.57
582.74	407.25
582.90	390.87
583.06	390.87
583.22	287.89
583.38	346.40
583.54	344.06
583.70	358.10
583.86	472.79
584.02	404.91
584.18	444.70
584.34	280.86
584.50	421.30
584.66	409.59
584.82	458.74
584.98	430.66
585.14	212.99
585.30	358.10
585.46	374.49
585.62	294.91
585.78	433.00
585.94	393.21
586.10	322.99
586.26	376.83
586.42	433.00
586.58	411.93
586.74	458.74
586.90	550.03
587.06	638.97
587.22	468.11
587.38	540.66
587.54	482.15
587.70	437.68
587.86	353.42
588.02	339.38
588.18	285.55
588.34	358.10
588.49	322.99
588.65	241.08
588.81	320.65
588.97	292.57
589.13	372.15
589.29	311.29
589.45	355.76
589.61	294.91
589.77	271.50
589.93	266.82
590.08	287.89
590.24	337.04
590.40	362.78
590.56	365.12
590.72	248.10
590.88	278.52
591.04	360.44
591.20	264.48
591.35	390.87
591.51	294.91
591.67	327.68
591.83	358.10
591.99	334.70
592.15	301.93
592.31	341.72
592.46	365.12
592.62	386.19
592.78	465.77
592.94	465.77
593.10	362.78
593.26	390.87
593.41	388.53
593.57	353.42
593.73	379.17
593.89	374.49
594.05	229.37
594.20	264.48
594.36	299.59
594.52	238.73
594.68	292.57
594.84	262.14
594.99	332.36
595.15	330.02
595.31	327.68
595.47	285.55
595.62	276.18
595.78	276.18
595.94	283.20
596.10	337.04
596.25	248.10
596.41	337.04
596.57	229.37
596.73	290.23
596.88	301.93
597.04	227.03
597.20	189.58
597.36	262.14
597.51	243.42
597.67	271.50
597.83	308.95
597.99	346.40
598.14	348.74
598.30	362.78
598.46	330.02
598.61	304.27
598.77	308.95
598.93	337.04
599.09	407.25
599.24	322.99
599.40	308.95
599.56	325.33
599.71	301.93
599.87	280.86
600.03	332.36
600.18	306.61
600.34	379.17
600.50	241.08
600.65	290.23
600.81	395.55
600.97	276.18
601.12	255.12
601.28	273.84
601.44	278.52
601.59	217.67
601.75	243.42
601.91	215.33
602.06	266.82
602.22	327.68
602.37	229.37
602.53	280.86
602.69	269.16
602.84	205.97
603.00	245.76
603.16	269.16
603.31	322.99
603.47	278.52
603.62	334.70
603.78	379.17
603.94	306.61
604.09	194.26
604.25	271.50
604.40	306.61
604.56	229.37
604.71	224.69
604.87	191.92
605.03	292.57
605.18	273.84
605.34	276.18
605.49	337.04
605.65	252.78
605.80	245.76
605.96	215.33
606.12	308.95
606.27	341.72
606.43	238.73
606.58	337.04
606.74	269.16
606.89	381.51
607.05	318.31
607.20	322.99
607.36	367.46
607.51	383.85
607.67	332.36
607.82	320.65
607.98	409.59
608.13	292.57
608.29	430.66
608.44	379.17
608.60	334.70
608.75	423.64
608.91	484.49
609.06	456.40
609.22	475.13
609.37	514.92
609.53	554.71
609.68	512.58
609.84	564.07
609.99	655.35
610.15	821.53
610.30	1008.77
610.46	1188.99
610.61	1483.90
610.76	1783.49
610.92	2001.16
611.07	2270.32
611.23	2487.99
611.38	2153.29
611.54	1959.03
