SpectraSuite Data File
++++++++++++++++++++++++++++++++++++
Date: Fri Oct 04 11:42:12 GMT-05:00 2013
User: price-jones
Dark Spectrum Present: No
Reference Spectrum Present: No
Number of Sampled Component Spectra: 1
Spectrometers: USB2+H05261
Integration Time (usec): 100000 (USB2+H05261)
Spectra Averaged: 1 (USB2+H05261)
Boxcar Smoothing: 0 (USB2+H05261)
Correct for Electrical Dark: No (USB2+H05261)
Strobe/Lamp Enabled: No (USB2+H05261)
Correct for Detector Non-linearity: No (USB2+H05261)
Correct for Stray Light: No (USB2+H05261)
Number of Pixels in Processed Spectrum: 2048
>>>>>Begin Processed Spectral Data<<<<<
365.73	98.30
365.92	98.30
366.12	98.30
366.32	0.00
366.52	0.00
366.72	0.00
366.91	0.00
367.11	0.00
367.31	0.00
367.51	0.00
367.70	0.00
367.90	0.00
368.10	0.00
368.30	0.00
368.49	0.00
368.69	0.00
368.89	0.00
369.09	30.43
369.28	18.72
369.48	0.00
369.68	0.00
369.87	0.00
370.07	0.00
370.27	53.83
370.47	0.00
370.66	65.54
370.86	56.17
371.06	91.28
371.25	152.13
371.45	51.49
371.65	184.90
371.84	114.69
372.04	39.79
372.24	142.77
372.44	53.83
372.63	63.19
372.83	166.18
373.03	102.98
373.22	49.15
373.42	138.09
373.62	42.13
373.81	105.32
374.01	102.98
374.21	131.07
374.40	49.15
374.60	105.32
374.79	154.48
374.99	84.26
375.19	37.45
375.38	140.43
375.58	105.32
375.78	114.69
375.97	110.01
376.17	166.18
376.37	154.48
376.56	107.66
376.76	88.94
376.95	63.19
377.15	156.82
377.35	98.30
377.54	119.37
377.74	39.79
377.93	49.15
378.13	112.35
378.33	131.07
378.52	70.22
378.72	161.50
378.91	119.37
379.11	126.39
379.31	145.11
379.50	74.90
379.70	161.50
379.89	100.64
380.09	105.32
380.28	100.64
380.48	77.24
380.68	100.64
380.87	124.05
381.07	102.98
381.26	140.43
381.46	131.07
381.65	159.16
381.85	63.19
382.04	86.60
382.24	53.83
382.43	84.26
382.63	95.96
382.83	102.98
383.02	84.26
383.22	53.83
383.41	74.90
383.61	147.45
383.80	140.43
384.00	70.22
384.19	105.32
384.39	88.94
384.58	187.24
384.78	121.71
384.97	84.26
385.17	79.58
385.36	110.01
385.56	93.62
385.75	131.07
385.95	100.64
386.14	152.13
386.34	65.54
386.53	98.30
386.72	91.28
386.92	88.94
387.11	131.07
387.31	187.24
387.50	93.62
387.70	30.43
387.89	93.62
388.09	32.77
388.28	79.58
388.48	77.24
388.67	98.30
388.86	166.18
389.06	49.15
389.25	133.41
389.45	173.20
389.64	124.05
389.84	124.05
390.03	119.37
390.22	79.58
390.42	126.39
390.61	53.83
390.81	177.88
391.00	91.28
391.19	177.88
391.39	112.35
391.58	131.07
391.78	32.77
391.97	159.16
392.16	121.71
392.36	91.28
392.55	100.64
392.75	88.94
392.94	53.83
393.13	152.13
393.33	100.64
393.52	39.79
393.71	131.07
393.91	100.64
394.10	93.62
394.29	117.03
394.49	42.13
394.68	98.30
394.88	126.39
395.07	175.54
395.26	107.66
395.46	198.95
395.65	220.01
395.84	145.11
396.04	140.43
396.23	168.52
396.42	156.82
396.62	168.52
396.81	107.66
397.00	191.92
397.19	124.05
397.39	102.98
397.58	114.69
397.77	140.43
397.97	140.43
398.16	95.96
398.35	88.94
398.55	74.90
398.74	154.48
398.93	65.54
399.12	65.54
399.32	110.01
399.51	121.71
399.70	159.16
399.90	138.09
400.09	140.43
400.28	177.88
400.47	105.32
400.67	100.64
400.86	198.95
401.05	147.45
401.24	154.48
401.44	147.45
401.63	91.28
401.82	138.09
402.01	95.96
402.21	187.24
402.40	138.09
402.59	51.49
402.78	81.92
402.97	14.04
403.17	81.92
403.36	135.75
403.55	149.79
403.74	114.69
403.93	238.73
404.13	264.48
404.32	248.10
404.51	280.86
404.70	241.08
404.89	114.69
405.09	131.07
405.28	95.96
405.47	98.30
405.66	131.07
405.85	156.82
406.05	100.64
406.24	184.90
406.43	124.05
406.62	46.81
406.81	264.48
407.00	140.43
407.20	145.11
407.39	119.37
407.58	133.41
407.77	161.50
407.96	121.71
408.15	147.45
408.34	182.56
408.54	166.18
408.73	72.56
408.92	93.62
409.11	182.56
409.30	138.09
409.49	81.92
409.68	173.20
409.87	72.56
410.07	126.39
410.26	95.96
410.45	135.75
410.64	161.50
410.83	159.16
411.02	152.13
411.21	191.92
411.40	170.86
411.59	140.43
411.78	180.22
411.98	88.94
412.17	95.96
412.36	93.62
412.55	65.54
412.74	168.52
412.93	196.60
413.12	88.94
413.31	131.07
413.50	147.45
413.69	142.77
413.88	126.39
414.07	147.45
414.26	58.51
414.45	138.09
414.64	241.08
414.83	177.88
415.02	74.90
415.22	138.09
415.41	175.54
415.60	131.07
415.79	121.71
415.98	107.66
416.17	145.11
416.36	131.07
416.55	110.01
416.74	175.54
416.93	168.52
417.12	117.03
417.31	128.73
417.50	63.19
417.69	205.97
417.88	156.82
418.07	124.05
418.26	124.05
418.45	138.09
418.64	168.52
418.83	112.35
419.02	175.54
419.21	156.82
419.39	119.37
419.58	114.69
419.77	98.30
419.96	142.77
420.15	215.33
420.34	198.95
420.53	212.99
420.72	124.05
420.91	180.22
421.10	159.16
421.29	149.79
421.48	149.79
421.67	177.88
421.86	161.50
422.05	138.09
422.24	170.86
422.43	81.92
422.61	191.92
422.80	145.11
422.99	44.47
423.18	152.13
423.37	173.20
423.56	145.11
423.75	102.98
423.94	133.41
424.13	119.37
424.32	166.18
424.50	72.56
424.69	74.90
424.88	117.03
425.07	198.95
425.26	145.11
425.45	203.63
425.64	72.56
425.83	91.28
426.01	168.52
426.20	119.37
426.39	119.37
426.58	149.79
426.77	182.56
426.96	248.10
427.15	191.92
427.33	168.52
427.52	149.79
427.71	163.84
427.90	142.77
428.09	98.30
428.28	140.43
428.46	121.71
428.65	180.22
428.84	168.52
429.03	173.20
429.22	93.62
429.40	107.66
429.59	135.75
429.78	194.26
429.97	107.66
430.16	128.73
430.34	147.45
430.53	131.07
430.72	135.75
430.91	175.54
431.10	166.18
431.28	205.97
431.47	212.99
431.66	168.52
431.85	114.69
432.03	126.39
432.22	133.41
432.41	117.03
432.60	238.73
432.79	191.92
432.97	194.26
433.16	119.37
433.35	154.48
433.54	44.47
433.72	177.88
433.91	138.09
434.10	95.96
434.28	145.11
434.47	105.32
434.66	140.43
434.85	140.43
435.03	327.68
435.22	634.29
435.41	940.90
435.59	882.38
435.78	573.43
435.97	428.32
436.16	241.08
436.34	222.35
436.53	135.75
436.72	215.33
436.90	124.05
437.09	135.75
437.28	182.56
437.46	117.03
437.65	170.86
437.84	175.54
438.02	133.41
438.21	175.54
438.40	88.94
438.58	145.11
438.77	138.09
438.96	170.86
439.14	142.77
439.33	166.18
439.52	126.39
439.70	147.45
439.89	184.90
440.08	131.07
440.26	187.24
440.45	184.90
440.63	135.75
440.82	93.62
441.01	112.35
441.19	124.05
441.38	147.45
441.57	138.09
441.75	210.65
441.94	145.11
442.12	159.16
442.31	133.41
442.50	131.07
442.68	138.09
442.87	180.22
443.05	217.67
443.24	128.73
443.43	147.45
443.61	215.33
443.80	224.69
443.98	168.52
444.17	163.84
444.35	203.63
444.54	117.03
444.73	140.43
444.91	189.58
445.10	152.13
445.28	220.01
445.47	173.20
445.65	154.48
445.84	105.32
446.02	177.88
446.21	203.63
446.39	133.41
446.58	173.20
446.77	100.64
446.95	217.67
447.14	166.18
447.32	210.65
447.51	107.66
447.69	107.66
447.88	201.29
448.06	184.90
448.25	173.20
448.43	198.95
448.62	175.54
448.80	156.82
448.99	187.24
449.17	229.37
449.36	161.50
449.54	156.82
449.73	168.52
449.91	95.96
450.10	191.92
450.28	304.27
450.46	138.09
450.65	142.77
450.83	184.90
451.02	140.43
451.20	161.50
451.39	140.43
451.57	163.84
451.76	46.81
451.94	135.75
452.13	175.54
452.31	145.11
452.49	180.22
452.68	210.65
452.86	170.86
453.05	220.01
453.23	152.13
453.42	163.84
453.60	177.88
453.78	159.16
453.97	166.18
454.15	124.05
454.34	128.73
454.52	187.24
454.70	184.90
454.89	152.13
455.07	138.09
455.26	110.01
455.44	212.99
455.62	124.05
455.81	154.48
455.99	149.79
456.17	166.18
456.36	210.65
456.54	133.41
456.73	145.11
456.91	177.88
457.09	121.71
457.28	135.75
457.46	203.63
457.64	184.90
457.83	187.24
458.01	112.35
458.19	149.79
458.38	198.95
458.56	166.18
458.74	215.33
458.93	196.60
459.11	147.45
459.29	177.88
459.48	215.33
459.66	234.05
459.84	175.54
460.03	264.48
460.21	278.52
460.39	126.39
460.57	208.31
460.76	154.48
460.94	236.39
461.12	241.08
461.31	229.37
461.49	217.67
461.67	147.45
461.85	154.48
462.04	156.82
462.22	339.38
462.40	212.99
462.59	262.14
462.77	170.86
462.95	131.07
463.13	161.50
463.32	180.22
463.50	149.79
463.68	198.95
463.86	105.32
464.05	145.11
464.23	210.65
464.41	208.31
464.59	124.05
464.78	140.43
464.96	84.26
465.14	166.18
465.32	145.11
465.50	154.48
465.69	212.99
465.87	119.37
466.05	156.82
466.23	154.48
466.41	105.32
466.60	161.50
466.78	212.99
466.96	173.20
467.14	273.84
467.32	142.77
467.51	191.92
467.69	102.98
467.87	231.71
468.05	163.84
468.23	290.23
468.41	140.43
468.60	166.18
468.78	163.84
468.96	212.99
469.14	163.84
469.32	56.17
469.50	119.37
469.69	168.52
469.87	142.77
470.05	163.84
470.23	184.90
470.41	135.75
470.59	91.28
470.77	140.43
470.95	180.22
471.14	187.24
471.32	203.63
471.50	196.60
471.68	173.20
471.86	234.05
472.04	117.03
472.22	145.11
472.40	152.13
472.58	215.33
472.77	152.13
472.95	215.33
473.13	222.35
473.31	220.01
473.49	100.64
473.67	88.94
473.85	163.84
474.03	252.78
474.21	173.20
474.39	229.37
474.57	191.92
474.75	98.30
474.93	114.69
475.12	170.86
475.30	203.63
475.48	170.86
475.66	217.67
475.84	126.39
476.02	184.90
476.20	191.92
476.38	154.48
476.56	276.18
476.74	220.01
476.92	138.09
477.10	194.26
477.28	147.45
477.46	180.22
477.64	241.08
477.82	224.69
478.00	241.08
478.18	220.01
478.36	161.50
478.54	154.48
478.72	166.18
478.90	196.60
479.08	159.16
479.26	156.82
479.44	128.73
479.62	175.54
479.80	210.65
479.98	128.73
480.16	138.09
480.34	138.09
480.52	173.20
480.70	149.79
480.88	187.24
481.06	170.86
481.24	156.82
481.41	156.82
481.59	161.50
481.77	187.24
481.95	262.14
482.13	227.03
482.31	170.86
482.49	227.03
482.67	248.10
482.85	236.39
483.03	266.82
483.21	201.29
483.39	220.01
483.57	262.14
483.74	227.03
483.92	212.99
484.10	252.78
484.28	210.65
484.46	290.23
484.64	315.97
484.82	222.35
485.00	301.93
485.18	299.59
485.35	252.78
485.53	278.52
485.71	250.44
485.89	187.24
486.07	271.50
486.25	374.49
486.43	191.92
486.61	227.03
486.78	311.29
486.96	299.59
487.14	212.99
487.32	294.91
487.50	271.50
487.68	259.80
487.85	318.31
488.03	271.50
488.21	294.91
488.39	297.25
488.57	283.20
488.75	259.80
488.92	578.11
489.10	315.97
489.28	315.97
489.46	212.99
489.64	285.55
489.81	334.70
489.99	337.04
490.17	297.25
490.35	332.36
490.53	311.29
490.70	283.20
490.88	339.38
491.06	212.99
491.24	290.23
491.41	351.08
491.59	292.57
491.77	259.80
491.95	262.14
492.13	283.20
492.30	283.20
492.48	238.73
492.66	276.18
492.84	259.80
493.01	290.23
493.19	301.93
493.37	294.91
493.54	276.18
493.72	322.99
493.90	264.48
494.08	252.78
494.25	271.50
494.43	285.55
494.61	250.44
494.79	297.25
494.96	229.37
495.14	229.37
495.32	290.23
495.49	346.40
495.67	248.10
495.85	262.14
496.02	248.10
496.20	332.36
496.38	297.25
496.55	217.67
496.73	257.46
496.91	236.39
497.09	227.03
497.26	290.23
497.44	266.82
497.62	322.99
497.79	191.92
497.97	294.91
498.14	208.31
498.32	227.03
498.50	250.44
498.67	285.55
498.85	294.91
499.03	266.82
499.20	220.01
499.38	271.50
499.56	208.31
499.73	348.74
499.91	180.22
500.08	220.01
500.26	243.42
500.44	236.39
500.61	145.11
500.79	229.37
500.97	227.03
501.14	264.48
501.32	266.82
501.49	255.12
501.67	215.33
501.84	243.42
502.02	210.65
502.20	194.26
502.37	245.76
502.55	250.44
502.72	255.12
502.90	255.12
503.07	210.65
503.25	156.82
503.43	184.90
503.60	220.01
503.78	175.54
503.95	220.01
504.13	276.18
504.30	248.10
504.48	187.24
504.65	271.50
504.83	224.69
505.01	255.12
505.18	220.01
505.36	257.46
505.53	236.39
505.71	252.78
505.88	215.33
506.06	224.69
506.23	229.37
506.41	217.67
506.58	170.86
506.76	292.57
506.93	187.24
507.11	212.99
507.28	266.82
507.46	241.08
507.63	189.58
507.81	194.26
507.98	280.86
508.16	142.77
508.33	248.10
508.50	205.97
508.68	220.01
508.85	236.39
509.03	163.84
509.20	227.03
509.38	229.37
509.55	255.12
509.73	238.73
509.90	290.23
510.08	243.42
510.25	257.46
510.42	257.46
510.60	227.03
510.77	227.03
510.95	252.78
511.12	234.05
511.30	271.50
511.47	191.92
511.64	222.35
511.82	227.03
511.99	220.01
512.17	210.65
512.34	241.08
512.51	229.37
512.69	187.24
512.86	238.73
513.04	210.65
513.21	259.80
513.38	224.69
513.56	290.23
513.73	273.84
513.90	224.69
514.08	262.14
514.25	177.88
514.43	224.69
514.60	212.99
514.77	243.42
514.95	255.12
515.12	163.84
515.29	227.03
515.47	287.89
515.64	241.08
515.81	248.10
515.99	241.08
516.16	201.29
516.33	227.03
516.51	205.97
516.68	227.03
516.85	252.78
517.03	217.67
517.20	222.35
517.37	238.73
517.54	248.10
517.72	257.46
517.89	198.95
518.06	208.31
518.24	299.59
518.41	283.20
518.58	191.92
518.75	159.16
518.93	227.03
519.10	229.37
519.27	194.26
519.45	208.31
519.62	301.93
519.79	238.73
519.96	191.92
520.14	280.86
520.31	313.63
520.48	287.89
520.65	224.69
520.83	187.24
521.00	313.63
521.17	227.03
521.34	231.71
521.52	159.16
521.69	212.99
521.86	273.84
522.03	271.50
522.20	313.63
522.38	278.52
522.55	220.01
522.72	273.84
522.89	255.12
523.07	292.57
523.24	315.97
523.41	231.71
523.58	337.04
523.75	285.55
523.92	187.24
524.10	248.10
524.27	255.12
524.44	269.16
524.61	252.78
524.78	271.50
524.96	285.55
525.13	311.29
525.30	290.23
525.47	327.68
525.64	266.82
525.81	227.03
525.98	212.99
526.16	252.78
526.33	220.01
526.50	180.22
526.67	175.54
526.84	215.33
527.01	215.33
527.18	278.52
527.36	170.86
527.53	266.82
527.70	187.24
527.87	259.80
528.04	320.65
528.21	212.99
528.38	278.52
528.55	236.39
528.72	332.36
528.89	351.08
529.07	266.82
529.24	210.65
529.41	297.25
529.58	276.18
529.75	234.05
529.92	229.37
530.09	250.44
530.26	264.48
530.43	248.10
530.60	231.71
530.77	266.82
530.94	196.60
531.11	220.01
531.28	248.10
531.46	210.65
531.63	257.46
531.80	278.52
531.97	220.01
532.14	227.03
532.31	236.39
532.48	231.71
532.65	215.33
532.82	259.80
532.99	283.20
533.16	294.91
533.33	355.76
533.50	292.57
533.67	313.63
533.84	243.42
534.01	327.68
534.18	308.95
534.35	245.76
534.52	224.69
534.69	255.12
534.86	273.84
535.03	294.91
535.20	217.67
535.37	299.59
535.54	358.10
535.71	238.73
535.88	325.33
536.05	308.95
536.22	346.40
536.38	283.20
536.55	292.57
536.72	348.74
536.89	248.10
537.06	313.63
537.23	243.42
537.40	308.95
537.57	351.08
537.74	339.38
537.91	362.78
538.08	339.38
538.25	395.55
538.42	374.49
538.59	360.44
538.75	393.21
538.92	297.25
539.09	440.02
539.26	374.49
539.43	503.22
539.60	402.57
539.77	458.74
539.94	454.06
540.11	428.32
540.28	512.58
540.44	550.03
540.61	491.51
540.78	566.41
540.95	674.07
541.12	774.72
541.29	636.63
541.46	814.51
541.62	908.13
541.79	901.11
541.96	891.74
542.13	950.26
542.30	964.30
542.47	875.36
542.63	898.77
542.80	887.06
542.97	866.00
543.14	912.81
543.31	957.28
543.48	821.53
543.64	889.40
543.81	882.38
543.98	807.48
544.15	873.02
544.32	875.36
544.48	826.21
544.65	748.97
544.82	805.14
544.99	683.44
545.16	816.85
545.32	751.31
545.49	1273.25
545.66	1746.04
545.83	1863.07
546.00	1558.80
546.16	1212.40
546.33	976.00
546.50	791.10
546.67	753.65
546.83	575.77
547.00	533.64
547.17	568.75
547.34	430.66
547.50	430.66
547.67	528.96
547.84	458.74
548.00	528.96
548.17	456.40
548.34	587.47
548.51	554.71
548.67	475.13
548.84	503.22
549.01	489.17
549.18	519.60
549.34	526.62
549.51	458.74
549.68	479.81
549.84	472.79
550.01	407.25
550.18	437.68
550.34	528.96
550.51	362.78
550.68	414.27
550.84	374.49
551.01	397.89
551.18	397.89
551.34	311.29
551.51	397.89
551.68	407.25
551.84	344.06
552.01	315.97
552.18	395.55
552.34	273.84
552.51	273.84
552.68	395.55
552.84	292.57
553.01	374.49
553.18	379.17
553.34	322.99
553.51	407.25
553.67	315.97
553.84	358.10
554.01	299.59
554.17	297.25
554.34	341.72
554.51	374.49
554.67	271.50
554.84	262.14
555.00	269.16
555.17	315.97
555.33	287.89
555.50	299.59
555.67	306.61
555.83	269.16
556.00	294.91
556.16	360.44
556.33	212.99
556.50	196.60
556.66	259.80
556.83	250.44
556.99	287.89
557.16	248.10
557.32	215.33
557.49	259.80
557.65	203.63
557.82	229.37
557.98	294.91
558.15	184.90
558.32	250.44
558.48	271.50
558.65	297.25
558.81	238.73
558.98	290.23
559.14	231.71
559.31	290.23
559.47	255.12
559.64	208.31
559.80	348.74
559.97	271.50
560.13	248.10
560.30	255.12
560.46	201.29
560.63	287.89
560.79	231.71
560.96	248.10
561.12	245.76
561.29	238.73
561.45	243.42
561.61	205.97
561.78	292.57
561.94	306.61
562.11	222.35
562.27	285.55
562.44	217.67
562.60	259.80
562.77	266.82
562.93	266.82
563.10	222.35
563.26	245.76
563.42	234.05
563.59	299.59
563.75	248.10
563.92	212.99
564.08	175.54
564.24	292.57
564.41	255.12
564.57	241.08
564.74	273.84
564.90	344.06
565.07	285.55
565.23	257.46
565.39	194.26
565.56	212.99
565.72	227.03
565.88	194.26
566.05	259.80
566.21	227.03
566.38	271.50
566.54	259.80
566.70	259.80
566.87	229.37
567.03	131.07
567.19	191.92
567.36	184.90
567.52	231.71
567.68	241.08
567.85	180.22
568.01	236.39
568.17	170.86
568.34	313.63
568.50	217.67
568.66	301.93
568.83	301.93
568.99	191.92
569.15	236.39
569.32	194.26
569.48	145.11
569.64	248.10
569.81	212.99
569.97	238.73
570.13	271.50
570.30	175.54
570.46	229.37
570.62	271.50
570.78	168.52
570.95	241.08
571.11	271.50
571.27	234.05
571.43	227.03
571.60	236.39
571.76	212.99
571.92	170.86
572.09	245.76
572.25	269.16
572.41	248.10
572.57	189.58
572.74	283.20
572.90	276.18
573.06	292.57
573.22	290.23
573.38	320.65
573.55	203.63
573.71	229.37
573.87	234.05
574.03	205.97
574.20	290.23
574.36	229.37
574.52	198.95
574.68	177.88
574.84	168.52
575.01	250.44
575.17	222.35
575.33	262.14
575.49	283.20
575.65	241.08
575.82	238.73
575.98	278.52
576.14	271.50
576.30	241.08
576.46	348.74
576.62	538.32
576.79	514.92
576.95	409.59
577.11	332.36
577.27	315.97
577.43	313.63
577.59	257.46
577.75	292.57
577.92	285.55
578.08	212.99
578.24	252.78
578.40	294.91
578.56	444.70
578.72	568.75
578.88	503.22
579.04	507.90
579.21	458.74
579.37	372.15
579.53	388.53
579.69	287.89
579.85	271.50
580.01	332.36
580.17	390.87
580.33	332.36
580.49	365.12
580.65	287.89
580.82	278.52
580.98	311.29
581.14	311.29
581.30	360.44
581.46	315.97
581.62	346.40
581.78	344.06
581.94	435.34
582.10	320.65
582.26	353.42
582.42	346.40
582.58	299.59
582.74	259.80
582.90	351.08
583.06	402.57
583.22	379.17
583.38	407.25
583.54	311.29
583.70	435.34
583.86	390.87
584.02	383.85
584.18	372.15
584.34	351.08
584.50	304.27
584.66	320.65
584.82	337.04
584.98	381.51
585.14	308.95
585.30	283.20
585.46	299.59
585.62	330.02
585.78	250.44
585.94	259.80
586.10	294.91
586.26	320.65
586.42	472.79
586.58	411.93
586.74	397.89
586.90	433.00
587.06	477.47
587.22	479.81
587.38	386.19
587.54	404.91
587.70	409.59
587.86	353.42
588.02	306.61
588.18	330.02
588.34	334.70
588.49	297.25
588.65	290.23
588.81	283.20
588.97	259.80
589.13	264.48
589.29	266.82
589.45	339.38
589.61	287.89
589.77	311.29
589.93	271.50
590.08	297.25
590.24	280.86
590.40	278.52
590.56	330.02
590.72	297.25
590.88	292.57
591.04	339.38
591.20	285.55
591.35	337.04
591.51	271.50
591.67	236.39
591.83	278.52
591.99	290.23
592.15	400.23
592.31	390.87
592.46	322.99
592.62	325.33
592.78	383.85
592.94	374.49
593.10	339.38
593.26	390.87
593.41	376.83
593.57	365.12
593.73	348.74
593.89	360.44
594.05	287.89
594.20	313.63
594.36	355.76
594.52	248.10
594.68	280.86
594.84	327.68
594.99	353.42
595.15	241.08
595.31	308.95
595.47	301.93
595.62	276.18
595.78	297.25
595.94	311.29
596.10	217.67
596.25	259.80
596.41	285.55
596.57	266.82
596.73	259.80
596.88	255.12
597.04	299.59
597.20	262.14
597.36	313.63
597.51	245.76
597.67	238.73
597.83	315.97
597.99	285.55
598.14	311.29
598.30	306.61
598.46	269.16
598.61	397.89
598.77	372.15
598.93	320.65
599.09	367.46
599.24	283.20
599.40	313.63
599.56	301.93
599.71	334.70
599.87	337.04
600.03	297.25
600.18	269.16
600.34	315.97
600.50	330.02
600.65	311.29
600.81	306.61
600.97	212.99
601.12	266.82
601.28	280.86
601.44	269.16
601.59	224.69
601.75	304.27
601.91	283.20
602.06	236.39
602.22	320.65
602.37	311.29
602.53	231.71
602.69	292.57
602.84	271.50
603.00	262.14
603.16	241.08
603.31	315.97
603.47	255.12
603.62	224.69
603.78	234.05
603.94	259.80
604.09	297.25
604.25	299.59
604.40	248.10
604.56	250.44
604.71	215.33
604.87	203.63
605.03	294.91
605.18	264.48
605.34	355.76
605.49	271.50
605.65	257.46
605.80	241.08
605.96	269.16
606.12	212.99
606.27	360.44
606.43	259.80
606.58	313.63
606.74	334.70
606.89	278.52
607.05	334.70
607.20	311.29
607.36	299.59
607.51	278.52
607.67	283.20
607.82	264.48
607.98	379.17
608.13	360.44
608.29	271.50
608.44	358.10
608.60	376.83
608.75	407.25
608.91	388.53
609.06	376.83
609.22	463.43
609.37	365.12
609.53	491.51
609.68	580.45
609.84	571.09
609.99	688.12
610.15	723.23
610.30	823.87
610.46	983.02
610.61	1165.59
610.76	1514.33
610.92	1914.56
611.07	1907.54
611.23	1982.43
611.38	1727.32
611.54	1523.69
