SpectraSuite Data File
++++++++++++++++++++++++++++++++++++
Date: Fri Oct 04 11:42:24 GMT-05:00 2013
User: price-jones
Dark Spectrum Present: No
Reference Spectrum Present: No
Number of Sampled Component Spectra: 1
Spectrometers: USB2+H05261
Integration Time (usec): 100000 (USB2+H05261)
Spectra Averaged: 1 (USB2+H05261)
Boxcar Smoothing: 0 (USB2+H05261)
Correct for Electrical Dark: No (USB2+H05261)
Strobe/Lamp Enabled: No (USB2+H05261)
Correct for Detector Non-linearity: No (USB2+H05261)
Correct for Stray Light: No (USB2+H05261)
Number of Pixels in Processed Spectrum: 2048
>>>>>Begin Processed Spectral Data<<<<<
365.73	39.79
365.92	39.79
366.12	39.79
366.32	0.00
366.52	0.00
366.72	0.00
366.91	0.00
367.11	0.00
367.31	0.00
367.51	0.00
367.70	0.00
367.90	0.00
368.10	0.00
368.30	0.00
368.49	0.00
368.69	0.00
368.89	0.00
369.09	0.00
369.28	0.00
369.48	0.00
369.68	0.00
369.87	0.00
370.07	4.68
370.27	0.00
370.47	44.47
370.66	42.13
370.86	0.00
371.06	0.00
371.25	81.92
371.45	30.43
371.65	37.45
371.84	56.17
372.04	37.45
372.24	100.64
372.44	131.07
372.63	72.56
372.83	56.17
373.03	53.83
373.22	14.04
373.42	49.15
373.62	124.05
373.81	112.35
374.01	166.18
374.21	114.69
374.40	42.13
374.60	142.77
374.79	156.82
374.99	105.32
375.19	84.26
375.38	102.98
375.58	119.37
375.78	135.75
375.97	175.54
376.17	210.65
376.37	93.62
376.56	86.60
376.76	117.03
376.95	63.19
377.15	81.92
377.35	105.32
377.54	184.90
377.74	70.22
377.93	128.73
378.13	100.64
378.33	159.16
378.52	110.01
378.72	124.05
378.91	91.28
379.11	51.49
379.31	149.79
379.50	128.73
379.70	152.13
379.89	147.45
380.09	117.03
380.28	23.41
380.48	100.64
380.68	88.94
380.87	93.62
381.07	72.56
381.26	203.63
381.46	112.35
381.65	95.96
381.85	154.48
382.04	88.94
382.24	119.37
382.43	81.92
382.63	161.50
382.83	105.32
383.02	79.58
383.22	128.73
383.41	88.94
383.61	117.03
383.80	77.24
384.00	126.39
384.19	53.83
384.39	91.28
384.58	72.56
384.78	159.16
384.97	53.83
385.17	77.24
385.36	14.04
385.56	105.32
385.75	98.30
385.95	117.03
386.14	112.35
386.34	100.64
386.53	102.98
386.72	74.90
386.92	77.24
387.11	84.26
387.31	131.07
387.50	124.05
387.70	86.60
387.89	135.75
388.09	121.71
388.28	91.28
388.48	53.83
388.67	147.45
388.86	180.22
389.06	126.39
389.25	70.22
389.45	102.98
389.64	105.32
389.84	187.24
390.03	112.35
390.22	91.28
390.42	86.60
390.61	133.41
390.81	107.66
391.00	138.09
391.19	191.92
391.39	149.79
391.58	98.30
391.78	140.43
391.97	91.28
392.16	60.85
392.36	133.41
392.55	77.24
392.75	91.28
392.94	65.54
393.13	161.50
393.33	81.92
393.52	107.66
393.71	81.92
393.91	135.75
394.10	86.60
394.29	23.41
394.49	121.71
394.68	126.39
394.88	86.60
395.07	168.52
395.26	107.66
395.46	95.96
395.65	100.64
395.84	98.30
396.04	161.50
396.23	147.45
396.42	56.17
396.62	147.45
396.81	93.62
397.00	126.39
397.19	161.50
397.39	184.90
397.58	154.48
397.77	180.22
397.97	107.66
398.16	107.66
398.35	112.35
398.55	138.09
398.74	140.43
398.93	205.97
399.12	145.11
399.32	140.43
399.51	168.52
399.70	81.92
399.90	147.45
400.09	67.88
400.28	102.98
400.47	128.73
400.67	88.94
400.86	79.58
401.05	131.07
401.24	191.92
401.44	117.03
401.63	98.30
401.82	98.30
402.01	39.79
402.21	152.13
402.40	156.82
402.59	140.43
402.78	95.96
402.97	53.83
403.17	140.43
403.36	222.35
403.55	133.41
403.74	117.03
403.93	212.99
404.13	238.73
404.32	262.14
404.51	285.55
404.70	131.07
404.89	147.45
405.09	154.48
405.28	135.75
405.47	117.03
405.66	128.73
405.85	121.71
406.05	107.66
406.24	117.03
406.43	124.05
406.62	142.77
406.81	112.35
407.00	152.13
407.20	154.48
407.39	135.75
407.58	124.05
407.77	126.39
407.96	154.48
408.15	117.03
408.34	175.54
408.54	156.82
408.73	114.69
408.92	173.20
409.11	243.42
409.30	110.01
409.49	72.56
409.68	81.92
409.87	112.35
410.07	98.30
410.26	182.56
410.45	128.73
410.64	121.71
410.83	205.97
411.02	117.03
411.21	121.71
411.40	152.13
411.59	194.26
411.78	51.49
411.98	95.96
412.17	166.18
412.36	105.32
412.55	154.48
412.74	154.48
412.93	154.48
413.12	145.11
413.31	70.22
413.50	72.56
413.69	95.96
413.88	142.77
414.07	124.05
414.26	93.62
414.45	72.56
414.64	177.88
414.83	100.64
415.02	88.94
415.22	184.90
415.41	124.05
415.60	86.60
415.79	163.84
415.98	126.39
416.17	107.66
416.36	126.39
416.55	124.05
416.74	107.66
416.93	140.43
417.12	70.22
417.31	152.13
417.50	187.24
417.69	227.03
417.88	124.05
418.07	147.45
418.26	105.32
418.45	70.22
418.64	220.01
418.83	128.73
419.02	191.92
419.21	112.35
419.39	166.18
419.58	110.01
419.77	102.98
419.96	86.60
420.15	205.97
420.34	131.07
420.53	126.39
420.72	142.77
420.91	156.82
421.10	128.73
421.29	86.60
421.48	241.08
421.67	74.90
421.86	126.39
422.05	191.92
422.24	156.82
422.43	156.82
422.61	117.03
422.80	175.54
422.99	147.45
423.18	119.37
423.37	194.26
423.56	156.82
423.75	149.79
423.94	182.56
424.13	166.18
424.32	149.79
424.50	184.90
424.69	142.77
424.88	77.24
425.07	105.32
425.26	84.26
425.45	93.62
425.64	138.09
425.83	86.60
426.01	196.60
426.20	184.90
426.39	102.98
426.58	124.05
426.77	114.69
426.96	227.03
427.15	135.75
427.33	140.43
427.52	124.05
427.71	91.28
427.90	177.88
428.09	124.05
428.28	163.84
428.46	175.54
428.65	133.41
428.84	145.11
429.03	152.13
429.22	135.75
429.40	177.88
429.59	126.39
429.78	149.79
429.97	198.95
430.16	121.71
430.34	154.48
430.53	91.28
430.72	121.71
430.91	177.88
431.10	91.28
431.28	107.66
431.47	112.35
431.66	231.71
431.85	121.71
432.03	152.13
432.22	229.37
432.41	159.16
432.60	212.99
432.79	135.75
432.97	126.39
433.16	100.64
433.35	77.24
433.54	114.69
433.72	180.22
433.91	196.60
434.10	100.64
434.28	117.03
434.47	138.09
434.66	114.69
434.85	229.37
435.03	301.93
435.22	517.26
435.41	964.30
435.59	1130.48
435.78	758.33
435.97	437.68
436.16	255.12
436.34	203.63
436.53	133.41
436.72	189.58
436.90	121.71
437.09	229.37
437.28	210.65
437.46	114.69
437.65	152.13
437.84	180.22
438.02	173.20
438.21	145.11
438.40	114.69
438.58	60.85
438.77	135.75
438.96	194.26
439.14	117.03
439.33	105.32
439.52	142.77
439.70	166.18
439.89	180.22
440.08	138.09
440.26	100.64
440.45	229.37
440.63	91.28
440.82	121.71
441.01	196.60
441.19	177.88
441.38	177.88
441.57	149.79
441.75	238.73
441.94	220.01
442.12	135.75
442.31	177.88
442.50	145.11
442.68	133.41
442.87	145.11
443.05	194.26
443.24	175.54
443.43	217.67
443.61	163.84
443.80	189.58
443.98	170.86
444.17	138.09
444.35	203.63
444.54	114.69
444.73	138.09
444.91	135.75
445.10	156.82
445.28	105.32
445.47	194.26
445.65	166.18
445.84	166.18
446.02	194.26
446.21	215.33
446.39	147.45
446.58	140.43
446.77	180.22
446.95	152.13
447.14	154.48
447.32	175.54
447.51	163.84
447.69	194.26
447.88	196.60
448.06	166.18
448.25	217.67
448.43	166.18
448.62	72.56
448.80	196.60
448.99	257.46
449.17	135.75
449.36	159.16
449.54	163.84
449.73	224.69
449.91	142.77
450.10	93.62
450.28	201.29
450.46	229.37
450.65	210.65
450.83	140.43
451.02	168.52
451.20	147.45
451.39	121.71
451.57	191.92
451.76	187.24
451.94	138.09
452.13	231.71
452.31	117.03
452.49	170.86
452.68	128.73
452.86	147.45
453.05	236.39
453.23	182.56
453.42	189.58
453.60	198.95
453.78	189.58
453.97	98.30
454.15	198.95
454.34	191.92
454.52	189.58
454.70	194.26
454.89	248.10
455.07	140.43
455.26	156.82
455.44	117.03
455.62	180.22
455.81	236.39
455.99	222.35
456.17	217.67
456.36	196.60
456.54	170.86
456.73	170.86
456.91	184.90
457.09	212.99
457.28	173.20
457.46	168.52
457.64	182.56
457.83	175.54
458.01	194.26
458.19	175.54
458.38	194.26
458.56	161.50
458.74	187.24
458.93	84.26
459.11	114.69
459.29	184.90
459.48	100.64
459.66	187.24
459.84	170.86
460.03	229.37
460.21	205.97
460.39	124.05
460.57	147.45
460.76	159.16
460.94	168.52
461.12	133.41
461.31	154.48
461.49	245.76
461.67	128.73
461.85	229.37
462.04	194.26
462.22	311.29
462.40	220.01
462.59	210.65
462.77	126.39
462.95	140.43
463.13	133.41
463.32	102.98
463.50	238.73
463.68	241.08
463.86	166.18
464.05	177.88
464.23	152.13
464.41	208.31
464.59	147.45
464.78	112.35
464.96	262.14
465.14	161.50
465.32	170.86
465.50	238.73
465.69	222.35
465.87	187.24
466.05	191.92
466.23	142.77
466.41	189.58
466.60	170.86
466.78	234.05
466.96	241.08
467.14	182.56
467.32	205.97
467.51	210.65
467.69	180.22
467.87	231.71
468.05	187.24
468.23	208.31
468.41	208.31
468.60	124.05
468.78	203.63
468.96	224.69
469.14	215.33
469.32	252.78
469.50	170.86
469.69	243.42
469.87	184.90
470.05	187.24
470.23	133.41
470.41	128.73
470.59	180.22
470.77	135.75
470.95	152.13
471.14	262.14
471.32	196.60
471.50	227.03
471.68	266.82
471.86	145.11
472.04	161.50
472.22	168.52
472.40	187.24
472.58	93.62
472.77	117.03
472.95	198.95
473.13	182.56
473.31	208.31
473.49	170.86
473.67	133.41
473.85	205.97
474.03	191.92
474.21	208.31
474.39	255.12
474.57	234.05
474.75	173.20
474.93	156.82
475.12	198.95
475.30	166.18
475.48	210.65
475.66	133.41
475.84	245.76
476.02	156.82
476.20	145.11
476.38	105.32
476.56	259.80
476.74	189.58
476.92	135.75
477.10	266.82
477.28	198.95
477.46	248.10
477.64	182.56
477.82	212.99
478.00	201.29
478.18	182.56
478.36	224.69
478.54	154.48
478.72	198.95
478.90	105.32
479.08	215.33
479.26	210.65
479.44	182.56
479.62	173.20
479.80	224.69
479.98	203.63
480.16	175.54
480.34	243.42
480.52	215.33
480.70	187.24
480.88	170.86
481.06	175.54
481.24	194.26
481.41	156.82
481.59	234.05
481.77	191.92
481.95	280.86
482.13	189.58
482.31	229.37
482.49	177.88
482.67	285.55
482.85	266.82
483.03	285.55
483.21	236.39
483.39	224.69
483.57	299.59
483.74	283.20
483.92	283.20
484.10	227.03
484.28	245.76
484.46	271.50
484.64	299.59
484.82	292.57
485.00	238.73
485.18	278.52
485.35	294.91
485.53	327.68
485.71	388.53
485.89	315.97
486.07	379.17
486.25	320.65
486.43	234.05
486.61	311.29
486.78	287.89
486.96	308.95
487.14	322.99
487.32	344.06
487.50	320.65
487.68	299.59
487.85	320.65
488.03	264.48
488.21	353.42
488.39	292.57
488.57	285.55
488.75	306.61
488.92	489.17
489.10	353.42
489.28	322.99
489.46	301.93
489.64	348.74
489.81	294.91
489.99	330.02
490.17	327.68
490.35	409.59
490.53	325.33
490.70	297.25
490.88	351.08
491.06	318.31
491.24	304.27
491.41	313.63
491.59	304.27
491.77	243.42
491.95	334.70
492.13	287.89
492.30	334.70
492.48	315.97
492.66	285.55
492.84	245.76
493.01	322.99
493.19	264.48
493.37	360.44
493.54	320.65
493.72	301.93
493.90	325.33
494.08	294.91
494.25	344.06
494.43	313.63
494.61	229.37
494.79	271.50
494.96	304.27
495.14	259.80
495.32	255.12
495.49	276.18
495.67	280.86
495.85	299.59
496.02	182.56
496.20	358.10
496.38	283.20
496.55	280.86
496.73	304.27
496.91	255.12
497.09	231.71
497.26	301.93
497.44	301.93
497.62	351.08
497.79	234.05
497.97	245.76
498.14	259.80
498.32	243.42
498.50	301.93
498.67	255.12
498.85	259.80
499.03	248.10
499.20	248.10
499.38	299.59
499.56	259.80
499.73	243.42
499.91	285.55
500.08	294.91
500.26	306.61
500.44	271.50
500.61	269.16
500.79	217.67
500.97	285.55
501.14	322.99
501.32	259.80
501.49	248.10
501.67	208.31
501.84	322.99
502.02	257.46
502.20	245.76
502.37	245.76
502.55	196.60
502.72	220.01
502.90	262.14
503.07	241.08
503.25	236.39
503.43	220.01
503.60	269.16
503.78	224.69
503.95	271.50
504.13	215.33
504.30	248.10
504.48	308.95
504.65	250.44
504.83	271.50
505.01	229.37
505.18	229.37
505.36	280.86
505.53	257.46
505.71	248.10
505.88	318.31
506.06	301.93
506.23	231.71
506.41	320.65
506.58	220.01
506.76	273.84
506.93	308.95
507.11	210.65
507.28	124.05
507.46	278.52
507.63	262.14
507.81	168.52
507.98	264.48
508.16	241.08
508.33	229.37
508.50	252.78
508.68	306.61
508.85	194.26
509.03	208.31
509.20	250.44
509.38	210.65
509.55	301.93
509.73	255.12
509.90	259.80
510.08	198.95
510.25	304.27
510.42	222.35
510.60	269.16
510.77	252.78
510.95	234.05
511.12	330.02
511.30	215.33
511.47	266.82
511.64	337.04
511.82	294.91
511.99	290.23
512.17	325.33
512.34	196.60
512.51	264.48
512.69	173.20
512.86	222.35
513.04	283.20
513.21	187.24
513.38	271.50
513.56	201.29
513.73	229.37
513.90	224.69
514.08	182.56
514.25	290.23
514.43	292.57
514.60	217.67
514.77	271.50
514.95	238.73
515.12	229.37
515.29	210.65
515.47	278.52
515.64	273.84
515.81	248.10
515.99	278.52
516.16	187.24
516.33	250.44
516.51	266.82
516.68	194.26
516.85	128.73
517.03	243.42
517.20	276.18
517.37	280.86
517.54	259.80
517.72	229.37
517.89	290.23
518.06	327.68
518.24	292.57
518.41	297.25
518.58	285.55
518.75	238.73
518.93	191.92
519.10	241.08
519.27	287.89
519.45	203.63
519.62	262.14
519.79	222.35
519.96	259.80
520.14	248.10
520.31	278.52
520.48	161.50
520.65	250.44
520.83	217.67
521.00	259.80
521.17	227.03
521.34	229.37
521.52	304.27
521.69	234.05
521.86	245.76
522.03	301.93
522.20	280.86
522.38	205.97
522.55	250.44
522.72	236.39
522.89	313.63
523.07	264.48
523.24	161.50
523.41	292.57
523.58	280.86
523.75	212.99
523.92	194.26
524.10	198.95
524.27	210.65
524.44	198.95
524.61	301.93
524.78	262.14
524.96	271.50
525.13	299.59
525.30	227.03
525.47	330.02
525.64	201.29
525.81	271.50
525.98	313.63
526.16	159.16
526.33	227.03
526.50	203.63
526.67	191.92
526.84	210.65
527.01	201.29
527.18	271.50
527.36	290.23
527.53	315.97
527.70	315.97
527.87	227.03
528.04	269.16
528.21	163.84
528.38	231.71
528.55	339.38
528.72	297.25
528.89	271.50
529.07	243.42
529.24	285.55
529.41	278.52
529.58	184.90
529.75	231.71
529.92	250.44
530.09	215.33
530.26	210.65
530.43	220.01
530.60	241.08
530.77	299.59
530.94	283.20
531.11	266.82
531.28	184.90
531.46	215.33
531.63	285.55
531.80	241.08
531.97	266.82
532.14	320.65
532.31	294.91
532.48	285.55
532.65	278.52
532.82	327.68
532.99	388.53
533.16	243.42
533.33	383.85
533.50	241.08
533.67	313.63
533.84	341.72
534.01	243.42
534.18	271.50
534.35	259.80
534.52	278.52
534.69	379.17
534.86	292.57
535.03	255.12
535.20	304.27
535.37	313.63
535.54	255.12
535.71	330.02
535.88	318.31
536.05	318.31
536.22	257.46
536.38	304.27
536.55	362.78
536.72	360.44
536.89	327.68
537.06	351.08
537.23	351.08
537.40	393.21
537.57	325.33
537.74	400.23
537.91	428.32
538.08	444.70
538.25	470.45
538.42	388.53
538.59	435.34
538.75	379.17
538.92	472.79
539.09	503.22
539.26	482.15
539.43	498.53
539.60	580.45
539.77	603.86
539.94	545.34
540.11	629.60
540.28	706.84
540.44	697.48
540.61	744.29
540.78	861.32
540.95	823.87
541.12	1095.37
541.29	1053.24
541.46	1203.04
541.62	1247.51
541.79	1247.51
541.96	1097.71
542.13	1149.20
542.30	1170.27
542.47	1100.05
542.63	1132.82
542.80	1151.54
542.97	1118.78
543.14	1123.46
543.31	1170.27
543.48	1057.92
543.64	1109.41
543.81	1153.88
543.98	1181.97
544.15	1069.62
544.32	1015.79
544.48	1055.58
544.65	999.41
544.82	980.68
544.99	1015.79
545.16	1027.50
545.32	1062.60
545.49	1621.99
545.66	2298.41
545.83	2897.58
546.00	2532.46
546.16	1839.66
546.33	1371.55
546.50	1015.79
546.67	884.72
546.83	837.91
547.00	702.16
547.17	648.33
547.34	774.72
547.50	695.14
547.67	725.57
547.84	634.29
548.00	713.86
548.17	734.93
548.34	699.82
548.51	613.22
548.67	585.13
548.84	601.52
549.01	610.88
549.18	713.86
549.34	578.11
549.51	592.16
549.68	580.45
549.84	552.37
550.01	582.79
550.18	585.13
550.34	521.94
550.51	517.26
550.68	552.37
550.84	425.98
551.01	437.68
551.18	486.83
551.34	414.27
551.51	477.47
551.68	447.04
551.84	535.98
552.01	383.85
552.18	468.11
552.34	423.64
552.51	369.80
552.68	430.66
552.84	348.74
553.01	362.78
553.18	393.21
553.34	463.43
553.51	369.80
553.67	369.80
553.84	442.36
554.01	388.53
554.17	341.72
554.34	372.15
554.51	360.44
554.67	390.87
554.84	327.68
555.00	322.99
555.17	369.80
555.33	313.63
555.50	372.15
555.67	257.46
555.83	238.73
556.00	222.35
556.16	470.45
556.33	243.42
556.50	327.68
556.66	283.20
556.83	280.86
556.99	351.08
557.16	215.33
557.32	264.48
557.49	248.10
557.65	154.48
557.82	215.33
557.98	264.48
558.15	215.33
558.32	285.55
558.48	313.63
558.65	238.73
558.81	269.16
558.98	262.14
559.14	205.97
559.31	292.57
559.47	257.46
559.64	245.76
559.80	311.29
559.97	191.92
560.13	231.71
560.30	236.39
560.46	257.46
560.63	304.27
560.79	287.89
560.96	234.05
561.12	313.63
561.29	236.39
561.45	224.69
561.61	273.84
561.78	353.42
561.94	262.14
562.11	285.55
562.27	304.27
562.44	205.97
562.60	222.35
562.77	297.25
562.93	379.17
563.10	208.31
563.26	252.78
563.42	334.70
563.59	287.89
563.75	304.27
563.92	278.52
564.08	313.63
564.24	294.91
564.41	290.23
564.57	248.10
564.74	222.35
564.90	264.48
565.07	250.44
565.23	271.50
565.39	280.86
565.56	290.23
565.72	269.16
565.88	229.37
566.05	262.14
566.21	241.08
566.38	252.78
566.54	292.57
566.70	224.69
566.87	250.44
567.03	269.16
567.19	255.12
567.36	276.18
567.52	287.89
567.68	222.35
567.85	259.80
568.01	217.67
568.17	283.20
568.34	257.46
568.50	292.57
568.66	184.90
568.83	313.63
568.99	264.48
569.15	311.29
569.32	264.48
569.48	301.93
569.64	229.37
569.81	217.67
569.97	191.92
570.13	276.18
570.30	266.82
570.46	170.86
570.62	255.12
570.78	189.58
570.95	198.95
571.11	234.05
571.27	276.18
571.43	227.03
571.60	276.18
571.76	215.33
571.92	201.29
572.09	208.31
572.25	229.37
572.41	182.56
572.57	180.22
572.74	262.14
572.90	264.48
573.06	285.55
573.22	203.63
573.38	227.03
573.55	271.50
573.71	259.80
573.87	229.37
574.03	210.65
574.20	238.73
574.36	313.63
574.52	252.78
574.68	222.35
574.84	252.78
575.01	152.13
575.17	285.55
575.33	276.18
575.49	266.82
575.65	339.38
575.82	255.12
575.98	266.82
576.14	276.18
576.30	297.25
576.46	470.45
576.62	732.59
576.79	746.63
576.95	634.29
577.11	418.96
577.27	360.44
577.43	351.08
577.59	393.21
577.75	325.33
577.92	273.84
578.08	250.44
578.24	271.50
578.40	442.36
578.56	552.37
578.72	667.05
578.88	622.58
579.04	468.11
579.21	512.58
579.37	372.15
579.53	358.10
579.69	351.08
579.85	430.66
580.01	435.34
580.17	393.21
580.33	449.38
580.49	306.61
580.65	327.68
580.82	308.95
580.98	325.33
581.14	355.76
581.30	444.70
581.46	337.04
581.62	379.17
581.78	374.49
581.94	393.21
582.10	393.21
582.26	503.22
582.42	454.06
582.58	444.70
582.74	484.49
582.90	461.09
583.06	381.51
583.22	430.66
583.38	440.02
583.54	468.11
583.70	526.62
583.86	362.78
584.02	414.27
584.18	435.34
584.34	348.74
584.50	339.38
584.66	383.85
584.82	315.97
584.98	465.77
585.14	407.25
585.30	386.19
585.46	351.08
585.62	351.08
585.78	454.06
585.94	468.11
586.10	411.93
586.26	395.55
586.42	451.72
586.58	472.79
586.74	477.47
586.90	543.00
587.06	575.77
587.22	547.69
587.38	613.22
587.54	538.32
587.70	498.53
587.86	447.04
588.02	388.53
588.18	428.32
588.34	400.23
588.49	318.31
588.65	334.70
588.81	280.86
588.97	259.80
589.13	290.23
589.29	297.25
589.45	334.70
589.61	315.97
589.77	369.80
589.93	322.99
590.08	301.93
590.24	259.80
590.40	285.55
590.56	388.53
590.72	318.31
590.88	297.25
591.04	344.06
591.20	383.85
591.35	407.25
591.51	383.85
591.67	322.99
591.83	306.61
591.99	411.93
592.15	337.04
592.31	388.53
592.46	428.32
592.62	381.51
592.78	463.43
592.94	372.15
593.10	447.04
593.26	489.17
593.41	365.12
593.57	418.96
593.73	463.43
593.89	388.53
594.05	341.72
594.20	304.27
594.36	393.21
594.52	362.78
594.68	311.29
594.84	376.83
594.99	280.86
595.15	304.27
595.31	287.89
595.47	297.25
595.62	320.65
595.78	327.68
595.94	358.10
596.10	322.99
596.25	325.33
596.41	334.70
596.57	220.01
596.73	245.76
596.88	280.86
597.04	259.80
597.20	292.57
597.36	278.52
597.51	224.69
597.67	308.95
597.83	337.04
597.99	355.76
598.14	397.89
598.30	360.44
598.46	341.72
598.61	327.68
598.77	362.78
598.93	386.19
599.09	322.99
599.24	330.02
599.40	367.46
599.56	369.80
599.71	337.04
599.87	276.18
600.03	369.80
600.18	299.59
600.34	311.29
600.50	297.25
600.65	351.08
600.81	264.48
600.97	325.33
601.12	294.91
601.28	245.76
601.44	208.31
601.59	355.76
601.75	210.65
601.91	252.78
602.06	264.48
602.22	299.59
602.37	205.97
602.53	243.42
602.69	294.91
602.84	290.23
603.00	227.03
603.16	280.86
603.31	271.50
603.47	311.29
603.62	215.33
603.78	243.42
603.94	208.31
604.09	287.89
604.25	250.44
604.40	276.18
604.56	269.16
604.71	332.36
604.87	294.91
605.03	287.89
605.18	203.63
605.34	332.36
605.49	227.03
605.65	320.65
605.80	276.18
605.96	287.89
606.12	234.05
606.27	339.38
606.43	308.95
606.58	388.53
606.74	362.78
606.89	304.27
607.05	294.91
607.20	339.38
607.36	294.91
607.51	367.46
607.67	351.08
607.82	348.74
607.98	395.55
608.13	386.19
608.29	358.10
608.44	395.55
608.60	409.59
608.75	404.91
608.91	489.17
609.06	484.49
609.22	594.50
609.37	552.37
609.53	493.85
609.68	645.99
609.84	674.07
609.99	765.36
610.15	943.24
610.30	1032.18
610.46	1291.98
610.61	1544.75
610.76	1966.05
610.92	2417.77
611.07	2572.25
611.23	2635.44
611.38	2480.97
