SpectraSuite Data File
++++++++++++++++++++++++++++++++++++
Date: Fri Oct 04 11:42:16 GMT-05:00 2013
User: price-jones
Dark Spectrum Present: No
Reference Spectrum Present: No
Number of Sampled Component Spectra: 1
Spectrometers: USB2+H05261
Integration Time (usec): 100000 (USB2+H05261)
Spectra Averaged: 1 (USB2+H05261)
Boxcar Smoothing: 0 (USB2+H05261)
Correct for Electrical Dark: No (USB2+H05261)
Strobe/Lamp Enabled: No (USB2+H05261)
Correct for Detector Non-linearity: No (USB2+H05261)
Correct for Stray Light: No (USB2+H05261)
Number of Pixels in Processed Spectrum: 2048
>>>>>Begin Processed Spectral Data<<<<<
365.73	23.41
365.92	23.41
366.12	23.41
366.32	25.75
366.52	0.00
366.72	0.00
366.91	0.00
367.11	0.00
367.31	0.00
367.51	0.00
367.70	0.00
367.90	0.00
368.10	0.00
368.30	0.00
368.49	0.00
368.69	0.00
368.89	0.00
369.09	0.00
369.28	0.00
369.48	0.00
369.68	4.68
369.87	0.00
370.07	0.00
370.27	91.28
370.47	72.56
370.66	117.03
370.86	128.73
371.06	154.48
371.25	184.90
371.45	215.33
371.65	227.03
371.84	98.30
372.04	124.05
372.24	159.16
372.44	217.67
372.63	215.33
372.83	234.05
373.03	210.65
373.22	166.18
373.42	201.29
373.62	220.01
373.81	285.55
374.01	166.18
374.21	191.92
374.40	147.45
374.60	224.69
374.79	255.12
374.99	269.16
375.19	278.52
375.38	320.65
375.58	271.50
375.78	236.39
375.97	262.14
376.17	346.40
376.37	189.58
376.56	234.05
376.76	330.02
376.95	273.84
377.15	259.80
377.35	355.76
377.54	332.36
377.74	285.55
377.93	280.86
378.13	276.18
378.33	234.05
378.52	196.60
378.72	224.69
378.91	306.61
379.11	198.95
379.31	311.29
379.50	250.44
379.70	292.57
379.89	252.78
380.09	252.78
380.28	248.10
380.48	243.42
380.68	311.29
380.87	224.69
381.07	278.52
381.26	227.03
381.46	248.10
381.65	306.61
381.85	252.78
382.04	311.29
382.24	264.48
382.43	224.69
382.63	222.35
382.83	241.08
383.02	241.08
383.22	149.79
383.41	217.67
383.61	189.58
383.80	198.95
384.00	290.23
384.19	315.97
384.39	290.23
384.58	327.68
384.78	292.57
384.97	191.92
385.17	269.16
385.36	273.84
385.56	255.12
385.75	205.97
385.95	269.16
386.14	276.18
386.34	210.65
386.53	337.04
386.72	173.20
386.92	334.70
387.11	285.55
387.31	334.70
387.50	262.14
387.70	241.08
387.89	264.48
388.09	283.20
388.28	227.03
388.48	177.88
388.67	262.14
388.86	264.48
389.06	236.39
389.25	330.02
389.45	404.91
389.64	381.51
389.84	278.52
390.03	330.02
390.22	245.76
390.42	341.72
390.61	346.40
390.81	433.00
391.00	294.91
391.19	451.72
391.39	379.17
391.58	330.02
391.78	339.38
391.97	322.99
392.16	304.27
392.36	308.95
392.55	280.86
392.75	217.67
392.94	205.97
393.13	187.24
393.33	250.44
393.52	229.37
393.71	297.25
393.91	315.97
394.10	287.89
394.29	344.06
394.49	313.63
394.68	369.80
394.88	395.55
395.07	409.59
395.26	334.70
395.46	262.14
395.65	376.83
395.84	308.95
396.04	313.63
396.23	252.78
396.42	159.16
396.62	248.10
396.81	266.82
397.00	259.80
397.19	280.86
397.39	416.62
397.58	454.06
397.77	475.13
397.97	440.02
398.16	381.51
398.35	353.42
398.55	470.45
398.74	423.64
398.93	479.81
399.12	472.79
399.32	468.11
399.51	454.06
399.70	547.69
399.90	475.13
400.09	425.98
400.28	500.87
400.47	491.51
400.67	491.51
400.86	528.96
401.05	468.11
401.24	461.09
401.44	491.51
401.63	507.90
401.82	599.18
402.01	479.81
402.21	526.62
402.40	533.64
402.59	388.53
402.78	435.34
402.97	416.62
403.17	486.83
403.36	528.96
403.55	512.58
403.74	498.53
403.93	547.69
404.13	669.39
404.32	674.07
404.51	650.67
404.70	627.26
404.89	564.07
405.09	594.50
405.28	571.09
405.47	521.94
405.66	461.09
405.85	463.43
406.05	407.25
406.24	451.72
406.43	449.38
406.62	557.05
406.81	486.83
407.00	550.03
407.20	498.53
407.39	425.98
407.58	442.36
407.77	475.13
407.96	540.66
408.15	550.03
408.34	557.05
408.54	566.41
408.73	592.16
408.92	561.73
409.11	575.77
409.30	519.60
409.49	475.13
409.68	447.04
409.87	433.00
410.07	472.79
410.26	500.87
410.45	524.28
410.64	514.92
410.83	674.07
411.02	575.77
411.21	606.20
411.40	711.52
411.59	521.94
411.78	512.58
411.98	519.60
412.17	531.30
412.36	603.86
412.55	615.56
412.74	608.54
412.93	554.71
413.12	503.22
413.31	585.13
413.50	655.35
413.69	615.56
413.88	641.31
414.07	543.00
414.26	627.26
414.45	613.22
414.64	603.86
414.83	662.37
415.02	575.77
415.22	638.97
415.41	596.84
415.60	631.94
415.79	645.99
415.98	634.29
416.17	634.29
416.36	629.60
416.55	608.54
416.74	589.82
416.93	603.86
417.12	594.50
417.31	627.26
417.50	589.82
417.69	641.31
417.88	624.92
418.07	585.13
418.26	641.31
418.45	627.26
418.64	624.92
418.83	671.73
419.02	676.41
419.21	702.16
419.39	683.44
419.58	685.78
419.77	545.34
419.96	685.78
420.15	716.20
420.34	706.84
420.53	678.76
420.72	636.63
420.91	617.90
421.10	732.59
421.29	784.08
421.48	657.69
421.67	699.82
421.86	627.26
422.05	585.13
422.24	561.73
422.43	641.31
422.61	592.16
422.80	615.56
422.99	606.20
423.18	645.99
423.37	645.99
423.56	676.41
423.75	741.95
423.94	613.22
424.13	610.88
424.32	550.03
424.50	617.90
424.69	610.88
424.88	716.20
425.07	559.39
425.26	540.66
425.45	601.52
425.64	650.67
425.83	580.45
426.01	676.41
426.20	622.58
426.39	678.76
426.58	528.96
426.77	531.30
426.96	603.86
427.15	601.52
427.33	636.63
427.52	648.33
427.71	671.73
427.90	662.37
428.09	681.10
428.28	531.30
428.46	578.11
428.65	582.79
428.84	596.84
429.03	606.20
429.22	662.37
429.40	587.47
429.59	479.81
429.78	561.73
429.97	430.66
430.16	491.51
430.34	491.51
430.53	421.30
430.72	491.51
430.91	589.82
431.10	617.90
431.28	690.46
431.47	655.35
431.66	725.57
431.85	650.67
432.03	589.82
432.22	732.59
432.41	655.35
432.60	718.54
432.79	655.35
432.97	779.40
433.16	706.84
433.35	671.73
433.54	573.43
433.72	636.63
433.91	674.07
434.10	697.48
434.28	763.01
434.47	753.65
434.66	734.93
434.85	741.95
435.03	786.42
435.22	1093.03
435.41	1462.83
435.59	1736.68
435.78	1273.25
435.97	950.26
436.16	856.64
436.34	823.87
436.53	823.87
436.72	727.91
436.90	648.33
437.09	730.25
437.28	685.78
437.46	655.35
437.65	718.54
437.84	648.33
438.02	620.24
438.21	692.80
438.40	702.16
438.58	697.48
438.77	690.46
438.96	720.88
439.14	720.88
439.33	828.55
439.52	823.87
439.70	753.65
439.89	681.10
440.08	800.46
440.26	807.48
440.45	734.93
440.63	826.21
440.82	830.89
441.01	793.44
441.19	809.83
441.38	798.12
441.57	786.42
441.75	837.91
441.94	910.47
442.12	912.81
442.31	898.77
442.50	800.46
442.68	770.04
442.87	807.48
443.05	844.93
443.24	861.32
443.43	819.19
443.61	877.70
443.80	931.53
443.98	849.61
444.17	758.33
444.35	901.11
444.54	851.96
444.73	863.66
444.91	880.04
445.10	868.34
445.28	748.97
445.47	784.08
445.65	809.83
445.84	763.01
446.02	802.80
446.21	830.89
446.39	751.31
446.58	805.14
446.77	835.57
446.95	866.00
447.14	781.74
447.32	938.55
447.51	844.93
447.69	854.30
447.88	912.81
448.06	894.08
448.25	830.89
448.43	954.94
448.62	833.23
448.80	854.30
448.99	741.95
449.17	779.40
449.36	828.55
449.54	828.55
449.73	912.81
449.91	922.17
450.10	926.85
450.28	905.79
450.46	990.05
450.65	1004.09
450.83	861.32
451.02	945.58
451.20	884.72
451.39	931.53
451.57	856.64
451.76	858.98
451.94	891.74
452.13	926.85
452.31	835.57
452.49	858.98
452.68	777.06
452.86	898.77
453.05	858.98
453.23	833.23
453.42	821.53
453.60	915.15
453.78	964.30
453.97	940.90
454.15	809.83
454.34	784.08
454.52	866.00
454.70	931.53
454.89	917.49
455.07	851.96
455.26	837.91
455.44	875.36
455.62	908.13
455.81	933.87
455.99	929.19
456.17	947.92
456.36	901.11
456.54	957.28
456.73	866.00
456.91	856.64
457.09	884.72
457.28	968.98
457.46	866.00
457.64	847.27
457.83	940.90
458.01	847.27
458.19	943.24
458.38	905.79
458.56	814.51
458.74	964.30
458.93	957.28
459.11	898.77
459.29	926.85
459.48	873.02
459.66	968.98
459.84	961.96
460.03	938.55
460.21	964.30
460.39	971.32
460.57	980.68
460.76	891.74
460.94	910.47
461.12	1067.28
461.31	999.41
461.49	950.26
461.67	858.98
461.85	1015.79
462.04	910.47
462.22	1116.44
462.40	1015.79
462.59	1001.75
462.77	926.85
462.95	1027.50
463.13	933.87
463.32	999.41
463.50	940.90
463.68	866.00
463.86	933.87
464.05	863.66
464.23	875.36
464.41	887.06
464.59	954.94
464.78	954.94
464.96	877.70
465.14	997.07
465.32	952.60
465.50	940.90
465.69	978.34
465.87	1001.75
466.05	954.94
466.23	856.64
466.41	957.28
466.60	950.26
466.78	945.58
466.96	931.53
467.14	898.77
467.32	924.51
467.51	866.00
467.69	947.92
467.87	851.96
468.05	887.06
468.23	964.30
468.41	950.26
468.60	1015.79
468.78	994.73
468.96	877.70
469.14	910.47
469.32	940.90
469.50	987.71
469.69	999.41
469.87	856.64
470.05	915.15
470.23	868.34
470.41	903.45
470.59	880.04
470.77	868.34
470.95	945.58
471.14	973.66
471.32	978.34
471.50	971.32
471.68	1034.52
471.86	997.07
472.04	1022.81
472.22	987.71
472.40	884.72
472.58	959.62
472.77	943.24
472.95	954.94
473.13	1020.47
473.31	971.32
473.49	968.98
473.67	910.47
473.85	964.30
474.03	1039.20
474.21	1018.13
474.39	1053.24
474.57	968.98
474.75	1053.24
474.93	919.83
475.12	1022.81
475.30	957.28
475.48	973.66
475.66	983.02
475.84	1064.94
476.02	957.28
476.20	992.39
476.38	940.90
476.56	1088.35
476.74	994.73
476.92	1027.50
477.10	997.07
477.28	1156.22
477.46	1043.88
477.64	1090.69
477.82	1130.48
478.00	1078.99
478.18	1057.92
478.36	952.60
478.54	903.45
478.72	1137.50
478.90	1135.16
479.08	1186.65
479.26	1057.92
479.44	1125.80
479.62	1121.12
479.80	1095.37
479.98	1139.84
480.16	1125.80
480.34	1086.01
480.52	1114.10
480.70	1186.65
480.88	1151.54
481.06	1188.99
481.24	1163.25
481.41	1163.25
481.59	1247.51
481.77	1245.16
481.95	1188.99
482.13	1273.25
482.31	1172.61
482.49	1308.36
482.67	1170.27
482.85	1268.57
483.03	1291.98
483.21	1275.59
483.39	1228.78
483.57	1238.14
483.74	1228.78
483.92	1273.25
484.10	1315.38
484.28	1289.64
484.46	1392.62
484.64	1247.51
484.82	1291.98
485.00	1275.59
485.18	1324.74
485.35	1366.87
485.53	1167.93
485.71	1151.54
485.89	1081.33
486.07	1118.78
486.25	1193.67
486.43	1301.34
486.61	1327.08
486.78	1254.53
486.96	1320.06
487.14	1341.13
487.32	1247.51
487.50	1458.15
487.68	1348.15
487.85	1394.96
488.03	1474.54
488.21	1430.07
488.39	1378.58
488.57	1416.02
488.75	1364.53
488.92	1596.25
489.10	1549.43
489.28	1500.28
489.46	1416.02
489.64	1537.73
489.81	1619.65
489.99	1556.46
490.17	1523.69
490.35	1652.42
490.53	1533.05
490.70	1598.59
490.88	1528.37
491.06	1547.09
491.24	1507.30
491.41	1526.03
491.59	1479.22
491.77	1427.73
491.95	1523.69
492.13	1629.01
492.30	1462.83
492.48	1603.27
492.66	1692.21
492.84	1593.90
493.01	1511.99
493.19	1554.12
493.37	1514.33
493.54	1647.74
493.72	1659.44
493.90	1638.38
494.08	1657.10
494.25	1514.33
494.43	1572.84
494.61	1666.46
494.79	1675.82
494.96	1645.40
495.14	1610.29
495.32	1593.90
495.49	1614.97
495.67	1666.46
495.85	1701.57
496.02	1614.97
496.20	1717.95
496.38	1668.80
496.55	1629.01
496.73	1802.21
496.91	1643.06
497.09	1839.66
497.26	1715.61
497.44	1739.02
497.62	1696.89
497.79	1680.50
497.97	1554.12
498.14	1521.35
498.32	1614.97
498.50	1612.63
498.67	1729.66
498.85	1605.61
499.03	1643.06
499.20	1652.42
499.38	1727.32
499.56	1727.32
499.73	1778.81
499.91	1537.73
500.08	1685.19
500.26	1528.37
500.44	1598.59
500.61	1657.10
500.79	1504.96
500.97	1600.93
501.14	1638.38
501.32	1584.54
501.49	1717.95
501.67	1589.22
501.84	1612.63
502.02	1544.75
502.20	1675.82
502.37	1692.21
502.55	1624.33
502.72	1682.85
502.90	1717.95
503.07	1607.95
503.25	1624.33
503.43	1521.35
503.60	1467.52
503.78	1530.71
503.95	1521.35
504.13	1603.27
504.30	1638.38
504.48	1650.08
504.65	1809.23
504.83	1659.44
505.01	1720.29
505.18	1778.81
505.36	1811.57
505.53	1666.46
505.71	1823.28
505.88	1872.43
506.06	1654.76
506.23	1650.08
506.41	1668.80
506.58	1771.79
506.76	1671.14
506.93	1631.35
507.11	1540.07
507.28	1727.32
507.46	1668.80
507.63	1607.95
507.81	1603.27
507.98	1689.87
508.16	1626.67
508.33	1694.55
508.50	1748.38
508.68	1732.00
508.85	1809.23
509.03	1666.46
509.20	1748.38
509.38	1746.04
509.55	1729.66
509.73	1727.32
509.90	1769.44
510.08	1708.59
510.25	1771.79
510.42	1696.89
510.60	1659.44
510.77	1699.23
510.95	1692.21
511.12	1727.32
511.30	1767.10
511.47	1795.19
511.64	1736.68
511.82	1764.76
511.99	1767.10
512.17	1774.13
512.34	1703.91
512.51	1650.08
512.69	1739.02
512.86	1785.83
513.04	1664.12
513.21	1689.87
513.38	1739.02
513.56	1755.40
513.73	1621.99
513.90	1746.04
514.08	1671.14
514.25	1811.57
514.43	1722.63
514.60	1715.61
514.77	1591.56
514.95	1753.06
515.12	1853.70
515.29	1769.44
515.47	1722.63
515.64	1839.66
515.81	1783.49
515.99	1750.72
516.16	1729.66
516.33	1497.94
516.51	1523.69
516.68	1425.39
516.85	1472.20
517.03	1411.34
517.20	1586.88
517.37	1680.50
517.54	1762.42
517.72	1682.85
517.89	1514.33
518.06	1394.96
518.24	1540.07
518.41	1633.69
518.58	1701.57
518.75	1645.40
518.93	1720.29
519.10	1621.99
519.27	1638.38
519.45	1682.85
519.62	1727.32
519.79	1659.44
519.96	1696.89
520.14	1783.49
520.31	1687.53
520.48	1636.03
520.65	1818.60
520.83	1750.72
521.00	1739.02
521.17	1680.50
521.34	1762.42
521.52	1762.42
521.69	1804.55
521.86	1757.74
522.03	1795.19
522.20	1748.38
522.38	1661.78
522.55	1647.74
522.72	1673.48
522.89	1746.04
523.07	1762.42
523.24	1708.59
523.41	1753.06
523.58	1792.85
523.75	1785.83
523.92	1916.90
524.10	1856.04
524.27	1839.66
524.44	1846.68
524.61	1909.88
524.78	1633.69
524.96	1762.42
525.13	1748.38
525.30	1818.60
525.47	1849.02
525.64	1846.68
525.81	1785.83
525.98	1673.48
526.16	1638.38
526.33	1519.01
526.50	1533.05
526.67	1582.20
526.84	1596.25
527.01	1577.52
527.18	1694.55
527.36	1645.40
527.53	1792.85
527.70	1881.79
527.87	1736.68
528.04	1799.87
528.21	1764.76
528.38	1785.83
528.55	1809.23
528.72	1832.64
528.89	1884.13
529.07	1813.92
529.24	1820.94
529.41	1750.72
529.58	1776.47
529.75	1739.02
529.92	1811.57
530.09	1795.19
530.26	1746.04
530.43	1811.57
530.60	1846.68
530.77	1884.13
530.94	1923.92
531.11	1856.04
531.28	1802.21
531.46	1788.17
531.63	1732.00
531.80	1743.70
531.97	1825.62
532.14	1734.34
532.31	1652.42
532.48	1771.79
532.65	1734.34
532.82	1685.19
532.99	1788.17
533.16	1858.39
533.33	1755.40
533.50	1694.55
533.67	1783.49
533.84	1708.59
534.01	1776.47
534.18	1746.04
534.35	1806.89
534.52	1753.06
534.69	1778.81
534.86	1823.28
535.03	1879.45
535.20	1816.26
535.37	1963.71
535.54	1853.70
535.71	1905.20
535.88	1935.62
536.05	1839.66
536.22	1853.70
536.38	1837.32
536.55	1746.04
536.72	1783.49
536.89	1710.93
537.06	1806.89
537.23	1874.77
537.40	1912.22
537.57	1886.47
537.74	1905.20
537.91	1877.11
538.08	1874.77
538.25	1813.92
538.42	1947.33
538.59	1928.60
538.75	1902.86
538.92	1856.04
539.09	1778.81
539.26	1902.86
539.43	1851.36
539.60	2019.88
539.77	1907.54
539.94	2001.16
540.11	2033.93
540.28	1961.37
540.44	2054.99
540.61	1961.37
540.78	2083.08
540.95	2214.15
541.12	2326.49
541.29	2518.42
541.46	2492.67
541.62	2541.82
541.79	2532.46
541.96	2370.96
542.13	2438.84
542.30	2448.20
542.47	2436.50
542.63	2443.52
542.80	2331.17
542.97	2305.43
543.14	2296.07
543.31	2321.81
543.48	2282.02
543.64	2310.11
543.81	2464.58
543.98	2527.78
544.15	2340.54
544.32	2188.40
544.48	2204.78
544.65	2314.79
544.82	2427.14
544.99	2380.32
545.16	2354.58
545.32	2242.23
545.49	2860.13
545.66	3583.36
545.83	4074.87
546.00	3691.02
546.16	3124.62
546.33	2717.36
546.50	2385.01
546.67	2225.85
546.83	2146.27
547.00	2190.74
547.17	2165.00
547.34	2143.93
547.50	2146.27
547.67	2087.76
547.84	2069.03
548.00	2111.16
548.17	2066.69
548.34	2094.78
548.51	2040.95
548.67	2139.25
548.84	2017.54
549.01	2001.16
549.18	2040.95
549.34	2050.31
549.51	1902.86
549.68	1952.01
549.84	1987.11
550.01	2005.84
550.18	2066.69
550.34	1902.86
550.51	1870.09
550.68	1888.81
550.84	1851.36
551.01	1942.64
551.18	1820.94
551.34	1856.04
551.51	1853.70
551.68	1872.43
551.84	1834.98
552.01	1863.07
552.18	1837.32
552.34	1816.26
552.51	1778.81
552.68	1834.98
552.84	1654.76
553.01	1802.21
553.18	1781.15
553.34	1781.15
553.51	1685.19
553.67	1760.08
553.84	1818.60
554.01	1724.97
554.17	1722.63
554.34	1785.83
554.51	1760.08
554.67	1809.23
554.84	1853.70
555.00	1748.38
555.17	1664.12
555.33	1778.81
555.50	1720.29
555.67	1753.06
555.83	1652.42
556.00	1710.93
556.16	1881.79
556.33	1654.76
556.50	1629.01
556.66	1582.20
556.83	1605.61
556.99	1680.50
557.16	1664.12
557.32	1675.82
557.49	1638.38
557.65	1675.82
557.82	1694.55
557.98	1727.32
558.15	1675.82
558.32	1584.54
558.48	1563.48
558.65	1570.50
558.81	1579.86
558.98	1526.03
559.14	1629.01
559.31	1575.18
559.47	1516.67
559.64	1563.48
559.80	1568.16
559.97	1535.39
560.13	1582.20
560.30	1549.43
560.46	1666.46
560.63	1764.76
560.79	1762.42
560.96	1643.06
561.12	1624.33
561.29	1490.92
561.45	1624.33
561.61	1558.80
561.78	1762.42
561.94	1657.10
562.11	1638.38
562.27	1591.56
562.44	1565.82
562.60	1500.28
562.77	1600.93
562.93	1636.03
563.10	1645.40
563.26	1549.43
563.42	1624.33
563.59	1528.37
563.75	1533.05
563.92	1678.16
564.08	1717.95
564.24	1600.93
564.41	1652.42
564.57	1556.46
564.74	1537.73
564.90	1722.63
565.07	1572.84
565.23	1476.88
565.39	1530.71
565.56	1563.48
565.72	1509.65
565.88	1500.28
566.05	1533.05
566.21	1500.28
566.38	1404.32
566.54	1495.60
566.70	1455.81
566.87	1490.92
567.03	1516.67
567.19	1547.09
567.36	1612.63
567.52	1420.71
567.68	1528.37
567.85	1509.65
568.01	1509.65
568.17	1458.15
568.34	1441.77
568.50	1540.07
568.66	1479.22
568.83	1483.90
568.99	1446.45
569.15	1504.96
569.32	1469.86
569.48	1404.32
569.64	1390.28
569.81	1444.11
569.97	1359.85
570.13	1577.52
570.30	1554.12
570.46	1511.99
570.62	1418.36
570.78	1430.07
570.95	1460.49
571.11	1483.90
571.27	1394.96
571.43	1401.98
571.60	1404.32
571.76	1467.52
571.92	1439.43
572.09	1523.69
572.25	1504.96
572.41	1514.33
572.57	1418.36
572.74	1516.67
572.90	1409.00
573.06	1418.36
573.22	1455.81
573.38	1490.92
573.55	1509.65
573.71	1460.49
573.87	1483.90
574.03	1338.79
574.20	1371.55
574.36	1423.05
574.52	1364.53
574.68	1313.04
574.84	1336.45
575.01	1348.15
575.17	1425.39
575.33	1448.79
575.49	1385.60
575.65	1423.05
575.82	1411.34
575.98	1493.26
576.14	1432.41
576.30	1462.83
576.46	1612.63
576.62	1767.10
576.79	1870.09
576.95	1727.32
577.11	1570.50
577.27	1467.52
577.43	1544.75
577.59	1591.56
577.75	1432.41
577.92	1413.68
578.08	1425.39
578.24	1366.87
578.40	1533.05
578.56	1640.72
578.72	1764.76
578.88	1776.47
579.04	1657.10
579.21	1509.65
579.37	1451.13
579.53	1521.35
579.69	1490.92
579.85	1516.67
580.01	1542.41
580.17	1530.71
580.33	1446.45
580.49	1511.99
580.65	1481.56
580.82	1502.62
580.98	1394.96
581.14	1446.45
581.30	1465.18
581.46	1516.67
581.62	1591.56
581.78	1495.60
581.94	1434.75
582.10	1570.50
582.26	1448.79
582.42	1533.05
582.58	1579.86
582.74	1488.58
582.90	1556.46
583.06	1612.63
583.22	1621.99
583.38	1509.65
583.54	1556.46
583.70	1706.25
583.86	1551.78
584.02	1516.67
584.18	1533.05
584.34	1671.14
584.50	1479.22
584.66	1425.39
584.82	1486.24
584.98	1535.39
585.14	1453.47
585.30	1385.60
585.46	1390.28
585.62	1467.52
585.78	1453.47
585.94	1430.07
586.10	1523.69
586.26	1497.94
586.42	1458.15
586.58	1542.41
586.74	1554.12
586.90	1610.29
587.06	1598.59
587.22	1584.54
587.38	1526.03
587.54	1533.05
587.70	1430.07
587.86	1413.68
588.02	1277.93
588.18	1224.10
588.34	1238.14
588.49	1270.91
588.65	1083.67
588.81	1109.41
588.97	1186.65
589.13	1081.33
589.29	1123.46
589.45	1111.75
589.61	1158.57
589.77	1160.91
589.93	1181.97
590.08	1287.29
590.24	1240.48
590.40	1132.82
590.56	1231.12
590.72	1203.04
590.88	1240.48
591.04	1188.99
591.20	1270.91
591.35	1245.16
591.51	1275.59
591.67	1163.25
591.83	1289.64
591.99	1238.14
592.15	1308.36
592.31	1296.66
592.46	1315.38
592.62	1371.55
592.78	1284.95
592.94	1371.55
593.10	1261.55
593.26	1350.49
593.41	1338.79
593.57	1392.62
593.73	1263.89
593.89	1174.95
594.05	1146.86
594.20	1130.48
594.36	1128.14
594.52	1062.60
594.68	1156.22
594.84	1263.89
594.99	1291.98
595.15	1207.72
595.31	1184.31
595.47	1226.44
595.62	1273.25
595.78	1163.25
595.94	1284.95
596.10	1291.98
596.25	1268.57
596.41	1259.21
596.57	1160.91
596.73	1228.78
596.88	1247.51
597.04	1228.78
597.20	1172.61
597.36	1160.91
597.51	1245.16
597.67	1308.36
597.83	1158.57
597.99	1228.78
598.14	1191.33
598.30	1263.89
598.46	1263.89
598.61	1273.25
598.77	1291.98
598.93	1188.99
599.09	1336.45
599.24	1191.33
599.40	1397.30
599.56	1231.12
599.71	1315.38
599.87	1338.79
600.03	1294.32
600.18	1329.42
600.34	1289.64
600.50	1289.64
600.65	1315.38
600.81	1249.85
600.97	1238.14
601.12	1226.44
601.28	1270.91
601.44	1266.23
601.59	1277.93
601.75	1357.51
601.91	1235.80
602.06	1275.59
