SpectraSuite Data File
++++++++++++++++++++++++++++++++++++
Date: Fri Oct 04 11:41:48 GMT-05:00 2013
User: price-jones
Dark Spectrum Present: No
Reference Spectrum Present: No
Number of Sampled Component Spectra: 1
Spectrometers: USB2+H05261
Integration Time (usec): 100000 (USB2+H05261)
Spectra Averaged: 1 (USB2+H05261)
Boxcar Smoothing: 0 (USB2+H05261)
Correct for Electrical Dark: No (USB2+H05261)
Strobe/Lamp Enabled: No (USB2+H05261)
Correct for Detector Non-linearity: No (USB2+H05261)
Correct for Stray Light: No (USB2+H05261)
Number of Pixels in Processed Spectrum: 2048
>>>>>Begin Processed Spectral Data<<<<<
365.73	65.54
365.92	65.54
366.12	65.54
366.32	0.00
366.52	0.00
366.72	21.06
366.91	0.00
367.11	0.00
367.31	0.00
367.51	0.00
367.70	0.00
367.90	0.00
368.10	0.00
368.30	0.00
368.49	0.00
368.69	0.00
368.89	0.00
369.09	0.00
369.28	0.00
369.48	7.02
369.68	0.00
369.87	21.06
370.07	0.00
370.27	119.37
370.47	44.47
370.66	28.09
370.86	102.98
371.06	159.16
371.25	110.01
371.45	88.94
371.65	98.30
371.84	77.24
372.04	114.69
372.24	102.98
372.44	91.28
372.63	79.58
372.83	203.63
373.03	42.13
373.22	107.66
373.42	121.71
373.62	128.73
373.81	138.09
374.01	79.58
374.21	117.03
374.40	126.39
374.60	140.43
374.79	11.70
374.99	98.30
375.19	133.41
375.38	60.85
375.58	142.77
375.78	95.96
375.97	161.50
376.17	191.92
376.37	77.24
376.56	117.03
376.76	74.90
376.95	142.77
377.15	145.11
377.35	126.39
377.54	138.09
377.74	133.41
377.93	65.54
378.13	63.19
378.33	124.05
378.52	145.11
378.72	191.92
378.91	133.41
379.11	138.09
379.31	74.90
379.50	39.79
379.70	147.45
379.89	135.75
380.09	49.15
380.28	128.73
380.48	112.35
380.68	98.30
380.87	72.56
381.07	203.63
381.26	177.88
381.46	189.58
381.65	131.07
381.85	65.54
382.04	135.75
382.24	154.48
382.43	149.79
382.63	114.69
382.83	138.09
383.02	135.75
383.22	152.13
383.41	112.35
383.61	84.26
383.80	93.62
384.00	67.88
384.19	131.07
384.39	49.15
384.58	159.16
384.78	126.39
384.97	152.13
385.17	175.54
385.36	53.83
385.56	124.05
385.75	91.28
385.95	163.84
386.14	100.64
386.34	79.58
386.53	124.05
386.72	210.65
386.92	121.71
387.11	81.92
387.31	112.35
387.50	147.45
387.70	147.45
387.89	77.24
388.09	110.01
388.28	126.39
388.48	154.48
388.67	140.43
388.86	67.88
389.06	84.26
389.25	138.09
389.45	133.41
389.64	198.95
389.84	180.22
390.03	149.79
390.22	133.41
390.42	147.45
390.61	95.96
390.81	149.79
391.00	138.09
391.19	166.18
391.39	51.49
391.58	107.66
391.78	138.09
391.97	166.18
392.16	74.90
392.36	133.41
392.55	117.03
392.75	77.24
392.94	140.43
393.13	126.39
393.33	72.56
393.52	88.94
393.71	184.90
393.91	126.39
394.10	145.11
394.29	110.01
394.49	95.96
394.68	154.48
394.88	102.98
395.07	142.77
395.26	110.01
395.46	39.79
395.65	154.48
395.84	98.30
396.04	236.39
396.23	210.65
396.42	107.66
396.62	135.75
396.81	107.66
397.00	145.11
397.19	196.60
397.39	154.48
397.58	163.84
397.77	147.45
397.97	88.94
398.16	126.39
398.35	163.84
398.55	126.39
398.74	170.86
398.93	231.71
399.12	100.64
399.32	135.75
399.51	119.37
399.70	124.05
399.90	187.24
400.09	177.88
400.28	119.37
400.47	168.52
400.67	198.95
400.86	131.07
401.05	203.63
401.24	182.56
401.44	140.43
401.63	205.97
401.82	168.52
402.01	163.84
402.21	203.63
402.40	119.37
402.59	138.09
402.78	194.26
402.97	191.92
403.17	224.69
403.36	271.50
403.55	344.06
403.74	678.76
403.93	2083.08
404.13	5401.96
404.32	7581.00
404.51	6846.07
404.70	4053.81
404.89	1593.90
405.09	514.92
405.28	301.93
405.47	250.44
405.66	201.29
405.85	205.97
406.05	203.63
406.24	182.56
406.43	212.99
406.62	297.25
406.81	327.68
407.00	404.91
407.20	660.03
407.39	1029.84
407.58	1086.01
407.77	819.19
407.96	461.09
408.15	215.33
408.34	142.77
408.54	220.01
408.73	110.01
408.92	138.09
409.11	184.90
409.30	191.92
409.49	175.54
409.68	198.95
409.87	227.03
410.07	168.52
410.26	163.84
410.45	161.50
410.64	252.78
410.83	205.97
411.02	191.92
411.21	182.56
411.40	231.71
411.59	182.56
411.78	182.56
411.98	203.63
412.17	203.63
412.36	198.95
412.55	175.54
412.74	180.22
412.93	283.20
413.12	220.01
413.31	257.46
413.50	252.78
413.69	222.35
413.88	304.27
414.07	231.71
414.26	187.24
414.45	245.76
414.64	290.23
414.83	217.67
415.02	238.73
415.22	252.78
415.41	290.23
415.60	229.37
415.79	234.05
415.98	257.46
416.17	222.35
416.36	280.86
416.55	196.60
416.74	245.76
416.93	231.71
417.12	257.46
417.31	236.39
417.50	271.50
417.69	358.10
417.88	351.08
418.07	234.05
418.26	269.16
418.45	264.48
418.64	280.86
418.83	278.52
419.02	248.10
419.21	262.14
419.39	264.48
419.58	248.10
419.77	187.24
419.96	280.86
420.15	283.20
420.34	252.78
420.53	278.52
420.72	308.95
420.91	262.14
421.10	177.88
421.29	304.27
421.48	285.55
421.67	283.20
421.86	210.65
422.05	304.27
422.24	283.20
422.43	292.57
422.61	353.42
422.80	290.23
422.99	276.18
423.18	304.27
423.37	381.51
423.56	278.52
423.75	245.76
423.94	299.59
424.13	269.16
424.32	299.59
424.50	299.59
424.69	252.78
424.88	306.61
425.07	245.76
425.26	327.68
425.45	318.31
425.64	278.52
425.83	283.20
426.01	348.74
426.20	351.08
426.39	229.37
426.58	257.46
426.77	299.59
426.96	346.40
427.15	348.74
427.33	393.21
427.52	351.08
427.71	348.74
427.90	376.83
428.09	369.80
428.28	430.66
428.46	344.06
428.65	372.15
428.84	404.91
429.03	330.02
429.22	346.40
429.40	330.02
429.59	332.36
429.78	393.21
429.97	341.72
430.16	292.57
430.34	313.63
430.53	332.36
430.72	360.44
430.91	393.21
431.10	388.53
431.28	322.99
431.47	461.09
431.66	425.98
431.85	430.66
432.03	348.74
432.22	510.24
432.41	447.04
432.60	444.70
432.79	440.02
432.97	531.30
433.16	496.19
433.35	519.60
433.54	681.10
433.72	704.50
433.91	716.20
434.10	821.53
434.28	894.08
434.47	1090.69
434.66	1039.20
434.85	1315.38
435.03	3384.41
435.22	12992.31
435.41	31452.12
435.59	35524.65
435.78	22864.69
435.97	11496.71
436.16	4414.25
436.34	1589.22
436.53	919.83
436.72	699.82
436.90	613.22
437.09	561.73
437.28	610.88
437.46	493.85
437.65	538.32
437.84	482.15
438.02	491.51
438.21	533.64
438.40	468.11
438.58	498.53
438.77	528.96
438.96	498.53
439.14	421.30
439.33	533.64
439.52	454.06
439.70	437.68
439.89	465.77
440.08	444.70
440.26	496.19
440.45	442.36
440.63	472.79
440.82	447.04
441.01	425.98
441.19	477.47
441.38	521.94
441.57	425.98
441.75	498.53
441.94	587.47
442.12	552.37
442.31	491.51
442.50	543.00
442.68	440.02
442.87	489.17
443.05	458.74
443.24	482.15
443.43	507.90
443.61	491.51
443.80	435.34
443.98	486.83
444.17	484.49
444.35	526.62
444.54	418.96
444.73	493.85
444.91	411.93
445.10	435.34
445.28	491.51
445.47	514.92
445.65	468.11
445.84	472.79
446.02	510.24
446.21	449.38
446.39	425.98
446.58	510.24
446.77	500.87
446.95	458.74
447.14	486.83
447.32	442.36
447.51	482.15
447.69	451.72
447.88	440.02
448.06	491.51
448.25	379.17
448.43	477.47
448.62	414.27
448.80	414.27
448.99	472.79
449.17	468.11
449.36	404.91
449.54	435.34
449.73	472.79
449.91	479.81
450.10	505.56
450.28	507.90
450.46	582.79
450.65	472.79
450.83	526.62
451.02	545.34
451.20	533.64
451.39	507.90
451.57	484.49
451.76	484.49
451.94	500.87
452.13	503.22
452.31	514.92
452.49	496.19
452.68	454.06
452.86	418.96
453.05	535.98
453.23	437.68
453.42	414.27
453.60	442.36
453.78	503.22
453.97	433.00
454.15	402.57
454.34	482.15
454.52	451.72
454.70	580.45
454.89	517.26
455.07	444.70
455.26	425.98
455.44	486.83
455.62	376.83
455.81	461.09
455.99	421.30
456.17	421.30
456.36	433.00
456.54	463.43
456.73	484.49
456.91	425.98
457.09	496.19
457.28	496.19
457.46	456.40
457.64	496.19
457.83	430.66
458.01	449.38
458.19	463.43
458.38	463.43
458.56	461.09
458.74	454.06
458.93	475.13
459.11	472.79
459.29	430.66
459.48	470.45
459.66	521.94
459.84	437.68
460.03	421.30
460.21	381.51
460.39	430.66
460.57	425.98
460.76	472.79
460.94	491.51
461.12	519.60
461.31	484.49
461.49	444.70
461.67	433.00
461.85	400.23
462.04	416.62
462.22	863.66
462.40	442.36
462.59	482.15
462.77	458.74
462.95	470.45
463.13	425.98
463.32	486.83
463.50	430.66
463.68	482.15
463.86	482.15
464.05	461.09
464.23	458.74
464.41	486.83
464.59	507.90
464.78	465.77
464.96	414.27
465.14	374.49
465.32	383.85
465.50	510.24
465.69	484.49
465.87	393.21
466.05	486.83
466.23	372.15
466.41	423.64
466.60	608.54
466.78	524.28
466.96	498.53
467.14	472.79
467.32	433.00
467.51	505.56
467.69	430.66
467.87	451.72
468.05	423.64
468.23	449.38
468.41	383.85
468.60	433.00
468.78	428.32
468.96	461.09
469.14	449.38
469.32	423.64
469.50	442.36
469.69	433.00
469.87	388.53
470.05	404.91
470.23	397.89
470.41	463.43
470.59	423.64
470.77	423.64
470.95	404.91
471.14	423.64
471.32	386.19
471.50	425.98
471.68	383.85
471.86	430.66
472.04	404.91
472.22	451.72
472.40	407.25
472.58	409.59
472.77	358.10
472.95	468.11
473.13	524.28
473.31	465.77
473.49	458.74
473.67	477.47
473.85	437.68
474.03	498.53
474.21	479.81
474.39	418.96
474.57	540.66
474.75	517.26
474.93	397.89
475.12	477.47
475.30	374.49
475.48	470.45
475.66	397.89
475.84	400.23
476.02	440.02
476.20	458.74
476.38	381.51
476.56	458.74
476.74	456.40
476.92	477.47
477.10	414.27
477.28	484.49
477.46	433.00
477.64	465.77
477.82	470.45
478.00	463.43
478.18	510.24
478.36	402.57
478.54	430.66
478.72	521.94
478.90	559.39
479.08	514.92
479.26	454.06
479.44	552.37
479.62	535.98
479.80	580.45
479.98	533.64
480.16	692.80
480.34	624.92
480.52	718.54
480.70	809.83
480.88	702.16
481.06	816.85
481.24	795.78
481.41	870.68
481.59	868.34
481.77	861.32
481.95	908.13
482.13	1128.14
482.31	1055.58
482.49	1004.09
482.67	1242.82
482.85	1357.51
483.03	1366.87
483.21	1430.07
483.39	1558.80
483.57	1673.48
483.74	1722.63
483.92	1830.30
484.10	1930.94
484.28	2029.24
484.46	2129.89
484.64	2363.94
484.82	2310.11
485.00	2534.80
485.18	2743.11
485.35	2778.22
485.53	2871.84
485.71	3047.38
485.89	3096.53
486.07	3183.13
486.25	3279.09
486.43	3166.74
486.61	3414.84
486.78	3265.05
486.96	3248.66
487.14	3166.74
487.32	3342.28
487.50	3197.17
487.68	3192.49
487.85	3281.43
488.03	3180.79
488.21	3159.72
488.39	3054.40
488.57	2881.20
488.75	2946.73
488.92	3159.72
489.10	2867.16
489.28	2832.05
489.46	2665.87
489.64	2544.16
489.81	2593.31
489.99	2506.71
490.17	2574.59
490.35	2626.08
490.53	2504.37
490.70	2471.61
490.88	2438.84
491.06	2539.48
491.24	2764.17
491.41	2719.70
491.59	2672.89
491.77	2415.43
491.95	2382.67
492.13	2396.71
492.30	2211.81
492.48	2197.76
492.66	2232.87
492.84	2132.23
493.01	2188.40
493.19	2120.53
493.37	1998.82
493.54	1949.67
493.72	2085.42
493.90	1935.62
494.08	1970.73
494.25	1879.45
494.43	1891.15
494.61	1907.54
494.79	1872.43
494.96	1860.73
495.14	1834.98
495.32	1753.06
495.49	1715.61
495.67	1727.32
495.85	1605.61
496.02	1636.03
496.20	1736.68
496.38	1715.61
496.55	1645.40
496.73	1516.67
496.91	1619.65
497.09	1511.99
497.26	1526.03
497.44	1497.94
497.62	1476.88
497.79	1348.15
497.97	1383.26
498.14	1413.68
498.32	1397.30
498.50	1228.78
498.67	1214.74
498.85	1196.01
499.03	1240.48
499.20	1118.78
499.38	1123.46
499.56	1095.37
499.73	1104.73
499.91	1123.46
500.08	1146.86
500.26	1053.24
500.44	1041.54
500.61	966.64
500.79	957.28
500.97	940.90
501.14	905.79
501.32	873.02
501.49	868.34
501.67	835.57
501.84	912.81
502.02	833.23
502.20	903.45
502.37	858.98
502.55	732.59
502.72	725.57
502.90	732.59
503.07	695.14
503.25	746.63
503.43	699.82
503.60	695.14
503.78	681.10
503.95	702.16
504.13	596.84
504.30	575.77
504.48	617.90
504.65	615.56
504.83	631.94
505.01	564.07
505.18	571.09
505.36	526.62
505.53	524.28
505.71	503.22
505.88	669.39
506.06	545.34
506.23	531.30
506.41	493.85
506.58	510.24
506.76	517.26
506.93	463.43
507.11	496.19
507.28	507.90
507.46	596.84
507.63	454.06
507.81	543.00
507.98	458.74
508.16	491.51
508.33	521.94
508.50	491.51
508.68	540.66
508.85	512.58
509.03	496.19
509.20	638.97
509.38	589.82
509.55	496.19
509.73	470.45
509.90	454.06
510.08	491.51
510.25	554.71
510.42	503.22
510.60	430.66
510.77	454.06
510.95	379.17
511.12	388.53
511.30	470.45
511.47	430.66
511.64	507.90
511.82	367.46
511.99	400.23
512.17	402.57
512.34	484.49
512.51	463.43
512.69	486.83
512.86	521.94
513.04	442.36
513.21	414.27
513.38	442.36
513.56	423.64
513.73	451.72
513.90	437.68
514.08	353.42
514.25	360.44
514.43	430.66
514.60	435.34
514.77	482.15
514.95	444.70
515.12	437.68
515.29	442.36
515.47	433.00
515.64	454.06
515.81	404.91
515.99	491.51
516.16	397.89
516.33	449.38
516.51	388.53
516.68	393.21
516.85	351.08
517.03	346.40
517.20	353.42
517.37	416.62
517.54	456.40
517.72	318.31
517.89	355.76
518.06	283.20
518.24	458.74
518.41	404.91
518.58	341.72
518.75	365.12
518.93	318.31
519.10	351.08
519.27	388.53
519.45	320.65
519.62	374.49
519.79	409.59
519.96	388.53
520.14	369.80
520.31	369.80
520.48	411.93
520.65	332.36
520.83	383.85
521.00	379.17
521.17	402.57
521.34	383.85
521.52	358.10
521.69	346.40
521.86	353.42
522.03	423.64
522.20	411.93
522.38	437.68
522.55	351.08
522.72	320.65
522.89	374.49
523.07	404.91
523.24	390.87
523.41	374.49
523.58	360.44
523.75	360.44
523.92	337.04
524.10	369.80
524.27	400.23
524.44	337.04
524.61	376.83
524.78	411.93
524.96	332.36
525.13	369.80
525.30	418.96
525.47	409.59
525.64	493.85
525.81	402.57
525.98	447.04
526.16	414.27
526.33	407.25
526.50	332.36
526.67	318.31
526.84	451.72
527.01	451.72
527.18	421.30
527.36	514.92
527.53	486.83
527.70	531.30
527.87	454.06
528.04	486.83
528.21	449.38
528.38	531.30
528.55	472.79
528.72	538.32
528.89	538.32
529.07	475.13
529.24	489.17
529.41	496.19
529.58	472.79
529.75	482.15
529.92	538.32
530.09	512.58
530.26	517.26
530.43	526.62
530.60	545.34
530.77	585.13
530.94	629.60
531.11	643.65
531.28	601.52
531.46	634.29
531.63	550.03
531.80	678.76
531.97	737.27
532.14	816.85
532.31	1008.77
532.48	1083.67
532.65	1228.78
532.82	1355.17
532.99	1743.70
533.16	1966.05
533.33	1989.46
533.50	1809.23
533.67	1586.88
533.84	1406.66
534.01	1259.21
534.18	1188.99
534.35	1088.35
534.52	1210.06
534.69	1238.14
534.86	1212.40
535.03	1287.29
535.20	1299.00
535.37	1437.09
535.54	1455.81
535.71	1519.01
535.88	1666.46
536.05	1682.85
536.22	1720.29
536.38	1998.82
536.55	2282.02
536.72	2565.23
536.89	2782.90
537.06	3038.02
537.23	3400.80
537.40	3716.77
537.57	3953.16
537.74	4215.30
537.91	4390.84
538.08	4348.72
538.25	4411.91
538.42	4582.77
538.59	4601.49
538.75	4784.06
538.92	5046.20
539.09	5490.90
539.26	6120.50
539.43	6937.35
539.60	7791.64
539.77	8622.53
539.94	9933.23
540.11	10913.92
540.28	11815.02
540.44	13158.49
540.61	14389.61
540.78	16517.16
540.95	19552.84
541.12	23782.18
541.29	26686.79
541.46	28280.69
541.62	28552.20
541.79	27007.44
541.96	24898.62
542.13	23318.76
542.30	21570.38
542.47	20060.73
542.63	18785.14
542.80	18473.85
542.97	18207.03
543.14	18265.54
543.31	18534.70
543.48	18370.86
543.64	18377.89
543.81	18855.36
543.98	18946.64
544.15	19122.18
544.32	18956.00
544.48	18972.38
544.65	18672.79
544.82	18654.07
544.99	18405.97
545.16	18916.21
545.32	19791.57
545.49	31658.09
545.66	55547.93
545.83	62625.71
546.00	58326.15
546.16	44507.63
546.33	32765.16
546.50	24240.93
546.67	19187.71
546.83	17069.53
547.00	16437.58
547.17	15644.14
547.34	14808.57
547.50	14354.51
547.67	13671.07
547.84	13263.82
548.00	12545.27
548.17	12266.75
548.34	11754.17
548.51	11281.38
548.67	10778.17
548.84	10190.69
549.01	9923.87
549.18	9240.44
549.34	9165.54
549.51	8334.65
549.68	8477.42
549.84	7999.95
550.01	7550.57
550.18	7213.53
550.34	7091.82
550.51	6576.91
550.68	6293.70
550.84	5818.57
551.01	5685.16
551.18	5315.36
551.34	5011.09
551.51	5020.45
551.68	4751.29
551.84	4519.57
552.01	4414.25
552.18	4339.35
552.34	4058.49
552.51	3913.38
552.68	3702.73
552.84	3571.66
553.01	3520.17
553.18	3302.50
553.34	3265.05
553.51	3222.92
553.67	3042.70
553.84	3101.21
554.01	2785.24
554.17	2597.99
554.34	2380.32
554.51	2232.87
554.67	2129.89
554.84	2069.03
555.00	2015.20
555.17	1865.41
555.33	1732.00
555.50	1699.23
555.67	1593.90
555.83	1511.99
556.00	1455.81
556.16	1549.43
556.33	1350.49
556.50	1355.17
556.66	1348.15
556.83	1315.38
556.99	1186.65
557.16	1210.06
557.32	1191.33
557.49	1156.22
557.65	1081.33
557.82	1057.92
557.98	1022.81
558.15	1029.84
558.32	952.60
558.48	987.71
558.65	922.17
558.81	999.41
558.98	894.08
559.14	926.85
559.31	882.38
559.47	905.79
559.64	823.87
559.80	877.70
559.97	805.14
560.13	833.23
560.30	802.80
560.46	767.70
560.63	819.19
560.79	863.66
560.96	732.59
561.12	798.12
561.29	784.08
561.45	802.80
561.61	889.40
561.78	840.25
561.94	751.31
562.11	669.39
562.27	720.88
562.44	798.12
562.60	760.67
562.77	716.20
562.93	788.76
563.10	748.97
563.26	706.84
563.42	767.70
563.59	765.36
563.75	734.93
563.92	791.10
564.08	741.95
564.24	685.78
564.41	690.46
564.57	671.73
564.74	615.56
564.90	723.23
565.07	660.03
565.23	622.58
565.39	643.65
565.56	664.71
565.72	641.31
565.88	606.20
566.05	667.05
566.21	603.86
566.38	692.80
566.54	606.20
566.70	737.27
566.87	636.63
567.03	636.63
567.19	725.57
567.36	624.92
567.52	594.50
567.68	624.92
567.85	650.67
568.01	688.12
568.17	720.88
568.34	589.82
568.50	699.82
568.66	594.50
568.83	692.80
568.99	655.35
569.15	667.05
569.32	582.79
569.48	592.16
569.64	543.00
569.81	510.24
569.97	512.58
570.13	561.73
570.30	500.87
570.46	447.04
570.62	510.24
570.78	491.51
570.95	404.91
571.11	580.45
571.27	484.49
571.43	489.17
571.60	475.13
571.76	472.79
571.92	538.32
572.09	545.34
572.25	456.40
572.41	517.26
572.57	463.43
572.74	603.86
572.90	568.75
573.06	475.13
573.22	524.28
573.38	470.45
573.55	521.94
573.71	451.72
573.87	564.07
574.03	528.96
574.20	559.39
574.36	629.60
574.52	566.41
574.68	601.52
574.84	599.18
575.01	704.50
575.17	667.05
575.33	662.37
575.49	744.29
575.65	828.55
575.82	795.78
575.98	1006.43
576.14	1123.46
576.30	2076.06
576.46	6314.77
576.62	12734.85
576.79	13422.97
576.95	9430.02
577.11	6139.23
577.27	4512.55
577.43	3023.97
577.59	2022.22
577.75	1563.48
577.92	1373.89
578.08	1387.94
578.24	1387.94
578.40	2244.57
578.56	6328.81
578.72	11428.84
578.88	12753.58
579.04	9446.40
579.21	6338.17
579.37	4826.18
579.53	3749.54
579.69	3410.16
579.85	4088.92
580.01	5088.32
580.17	4858.95
580.33	4030.40
580.49	3562.30
580.65	2965.46
580.82	2956.10
580.98	2682.25
581.14	2956.10
581.30	2972.48
581.46	3042.70
581.62	3489.74
581.78	3646.55
581.94	4074.87
582.10	4191.90
582.26	4215.30
582.42	4491.49
582.58	4629.58
582.74	4662.35
582.90	4678.73
583.06	4877.68
583.22	4840.23
583.38	4809.80
583.54	4727.88
583.70	4674.05
583.86	4793.42
584.02	4706.82
584.18	4397.87
584.34	4418.93
584.50	4400.21
584.66	4210.62
584.82	4346.37
584.98	4266.80
585.14	4166.15
585.30	4081.89
585.46	4138.07
585.62	3962.53
585.78	3964.87
585.94	3925.08
586.10	4124.02
586.26	4337.01
586.42	4905.76
586.58	5696.86
586.74	6935.01
586.90	8414.23
587.06	9036.81
587.22	8950.21
587.38	8107.62
587.54	7133.95
587.70	6104.12
587.86	5242.80
588.02	4259.78
588.18	3840.82
588.34	3534.21
588.49	3199.51
588.65	3033.33
588.81	2740.77
588.97	2708.00
589.13	2614.38
589.29	2616.72
589.45	2593.31
589.61	2654.17
589.77	2675.23
589.93	2668.21
590.08	2663.53
590.24	2789.92
590.40	2991.20
590.56	2956.10
590.72	3110.57
590.88	3073.12
591.04	3136.32
591.20	3265.05
591.35	3435.91
591.51	3686.34
591.67	3892.31
591.83	4049.13
591.99	4348.72
592.15	4809.80
592.31	5109.39
592.46	5631.33
592.62	6249.23
592.78	6583.93
592.94	6829.68
593.10	6621.38
593.26	6251.57
593.41	5919.21
593.57	5123.43
593.73	4709.16
593.89	4098.28
594.05	3655.92
594.20	3363.35
594.36	3075.46
594.52	2785.24
594.68	2668.21
594.84	2485.65
594.99	2569.91
595.15	2427.14
595.31	2483.31
595.47	2457.56
595.62	2389.69
595.78	2328.83
595.94	2532.46
596.10	2476.29
596.25	2443.52
596.41	2345.22
596.57	2387.35
596.73	2342.88
596.88	2394.37
597.04	2342.88
597.20	2410.75
597.36	2466.92
597.51	2609.70
597.67	2560.55
597.83	2684.59
597.99	2832.05
598.14	2986.52
598.30	3279.09
598.46	3349.31
598.61	3705.07
598.77	3730.81
598.93	3885.29
599.09	3936.78
599.24	4102.96
599.40	4044.45
599.56	3857.20
599.71	3801.03
599.87	3566.98
600.03	3286.11
600.18	3068.44
600.34	2963.12
600.50	2696.30
600.65	2471.61
600.81	2354.58
600.97	2265.64
601.12	2101.80
601.28	2125.21
601.44	2099.46
601.59	1914.56
601.75	1797.53
601.91	1746.04
602.06	1666.46
602.22	1713.27
602.37	1540.07
602.53	1577.52
602.69	1610.29
602.84	1500.28
603.00	1561.14
603.16	1640.72
603.31	1624.33
603.47	1682.85
603.62	1603.27
603.78	1694.55
603.94	1809.23
604.09	1687.53
604.25	1813.92
604.40	2015.20
604.56	1783.49
604.71	1895.83
604.87	1846.68
605.03	2019.88
605.18	2008.18
