SpectraSuite Data File
++++++++++++++++++++++++++++++++++++
Date: Fri Oct 04 11:41:52 GMT-05:00 2013
User: price-jones
Dark Spectrum Present: No
Reference Spectrum Present: No
Number of Sampled Component Spectra: 1
Spectrometers: USB2+H05261
Integration Time (usec): 100000 (USB2+H05261)
Spectra Averaged: 1 (USB2+H05261)
Boxcar Smoothing: 0 (USB2+H05261)
Correct for Electrical Dark: No (USB2+H05261)
Strobe/Lamp Enabled: No (USB2+H05261)
Correct for Detector Non-linearity: No (USB2+H05261)
Correct for Stray Light: No (USB2+H05261)
Number of Pixels in Processed Spectrum: 2048
>>>>>Begin Processed Spectral Data<<<<<
365.73	0.00
365.92	0.00
366.12	0.00
366.32	0.00
366.52	0.00
366.72	0.00
366.91	39.79
367.11	0.00
367.31	0.00
367.51	0.00
367.70	7.02
367.90	0.00
368.10	0.00
368.30	0.00
368.49	0.00
368.69	0.00
368.89	0.00
369.09	0.00
369.28	0.00
369.48	0.00
369.68	0.00
369.87	0.00
370.07	0.00
370.27	56.17
370.47	0.00
370.66	39.79
370.86	56.17
371.06	86.60
371.25	117.03
371.45	93.62
371.65	98.30
371.84	91.28
372.04	58.51
372.24	119.37
372.44	100.64
372.63	117.03
372.83	196.60
373.03	98.30
373.22	49.15
373.42	30.43
373.62	105.32
373.81	95.96
374.01	224.69
374.21	131.07
374.40	100.64
374.60	170.86
374.79	131.07
374.99	121.71
375.19	126.39
375.38	124.05
375.58	163.84
375.78	154.48
375.97	105.32
376.17	182.56
376.37	128.73
376.56	100.64
376.76	128.73
376.95	98.30
377.15	149.79
377.35	105.32
377.54	98.30
377.74	98.30
377.93	100.64
378.13	98.30
378.33	112.35
378.52	119.37
378.72	95.96
378.91	98.30
379.11	49.15
379.31	128.73
379.50	152.13
379.70	159.16
379.89	170.86
380.09	91.28
380.28	173.20
380.48	95.96
380.68	133.41
380.87	63.19
381.07	138.09
381.26	74.90
381.46	102.98
381.65	128.73
381.85	117.03
382.04	145.11
382.24	128.73
382.43	98.30
382.63	105.32
382.83	84.26
383.02	53.83
383.22	173.20
383.41	145.11
383.61	74.90
383.80	86.60
384.00	105.32
384.19	119.37
384.39	74.90
384.58	74.90
384.78	159.16
384.97	93.62
385.17	110.01
385.36	154.48
385.56	154.48
385.75	70.22
385.95	84.26
386.14	131.07
386.34	121.71
386.53	74.90
386.72	86.60
386.92	112.35
387.11	135.75
387.31	163.84
387.50	133.41
387.70	23.41
387.89	107.66
388.09	156.82
388.28	35.11
388.48	121.71
388.67	177.88
388.86	163.84
389.06	117.03
389.25	135.75
389.45	145.11
389.64	184.90
389.84	126.39
390.03	95.96
390.22	140.43
390.42	145.11
390.61	98.30
390.81	112.35
391.00	98.30
391.19	194.26
391.39	145.11
391.58	95.96
391.78	180.22
391.97	140.43
392.16	201.29
392.36	79.58
392.55	187.24
392.75	100.64
392.94	105.32
393.13	135.75
393.33	95.96
393.52	159.16
393.71	168.52
393.91	166.18
394.10	138.09
394.29	107.66
394.49	72.56
394.68	152.13
394.88	84.26
395.07	126.39
395.26	156.82
395.46	121.71
395.65	119.37
395.84	163.84
396.04	145.11
396.23	46.81
396.42	110.01
396.62	159.16
396.81	149.79
397.00	95.96
397.19	156.82
397.39	49.15
397.58	161.50
397.77	112.35
397.97	93.62
398.16	152.13
398.35	210.65
398.55	142.77
398.74	149.79
398.93	168.52
399.12	154.48
399.32	159.16
399.51	175.54
399.70	159.16
399.90	114.69
400.09	117.03
400.28	133.41
400.47	175.54
400.67	189.58
400.86	154.48
401.05	163.84
401.24	67.88
401.44	124.05
401.63	117.03
401.82	215.33
402.01	234.05
402.21	102.98
402.40	163.84
402.59	128.73
402.78	152.13
402.97	194.26
403.17	173.20
403.36	222.35
403.55	299.59
403.74	603.86
403.93	1722.63
404.13	3655.92
404.32	4245.73
404.51	3625.49
404.70	2115.84
404.89	819.19
405.09	327.68
405.28	241.08
405.47	212.99
405.66	191.92
405.85	250.44
406.05	39.79
406.24	133.41
406.43	154.48
406.62	194.26
406.81	283.20
407.00	294.91
407.20	437.68
407.39	608.54
407.58	580.45
407.77	503.22
407.96	339.38
408.15	231.71
408.34	187.24
408.54	142.77
408.73	184.90
408.92	224.69
409.11	210.65
409.30	156.82
409.49	124.05
409.68	170.86
409.87	170.86
410.07	46.81
410.26	198.95
410.45	147.45
410.64	131.07
410.83	191.92
411.02	152.13
411.21	217.67
411.40	222.35
411.59	168.52
411.78	142.77
411.98	128.73
412.17	194.26
412.36	131.07
412.55	126.39
412.74	250.44
412.93	180.22
413.12	222.35
413.31	222.35
413.50	168.52
413.69	159.16
413.88	166.18
414.07	283.20
414.26	138.09
414.45	140.43
414.64	220.01
414.83	205.97
415.02	236.39
415.22	304.27
415.41	212.99
415.60	255.12
415.79	152.13
415.98	198.95
416.17	224.69
416.36	236.39
416.55	238.73
416.74	215.33
416.93	243.42
417.12	184.90
417.31	163.84
417.50	177.88
417.69	264.48
417.88	220.01
418.07	140.43
418.26	201.29
418.45	175.54
418.64	184.90
418.83	229.37
419.02	224.69
419.21	243.42
419.39	217.67
419.58	163.84
419.77	177.88
419.96	184.90
420.15	294.91
420.34	198.95
420.53	257.46
420.72	238.73
420.91	203.63
421.10	210.65
421.29	217.67
421.48	220.01
421.67	243.42
421.86	131.07
422.05	229.37
422.24	234.05
422.43	180.22
422.61	138.09
422.80	201.29
422.99	262.14
423.18	149.79
423.37	285.55
423.56	313.63
423.75	241.08
423.94	159.16
424.13	222.35
424.32	217.67
424.50	262.14
424.69	220.01
424.88	234.05
425.07	241.08
425.26	271.50
425.45	201.29
425.64	215.33
425.83	212.99
426.01	252.78
426.20	264.48
426.39	215.33
426.58	227.03
426.77	238.73
426.96	304.27
427.15	238.73
427.33	297.25
427.52	285.55
427.71	271.50
427.90	262.14
428.09	276.18
428.28	266.82
428.46	234.05
428.65	304.27
428.84	283.20
429.03	308.95
429.22	248.10
429.40	255.12
429.59	259.80
429.78	409.59
429.97	241.08
430.16	215.33
430.34	252.78
430.53	229.37
430.72	191.92
430.91	315.97
431.10	198.95
431.28	334.70
431.47	353.42
431.66	304.27
431.85	292.57
432.03	245.76
432.22	365.12
432.41	304.27
432.60	332.36
432.79	297.25
432.97	313.63
433.16	437.68
433.35	325.33
433.54	416.62
433.72	456.40
433.91	498.53
434.10	538.32
434.28	615.56
434.47	737.27
434.66	732.59
434.85	933.87
435.03	2820.35
435.22	10087.71
435.41	19847.74
435.59	18143.83
435.78	11562.25
435.97	5956.66
436.16	2277.34
436.34	903.45
436.53	524.28
436.72	564.07
436.90	449.38
437.09	470.45
437.28	313.63
437.46	313.63
437.65	322.99
437.84	390.87
438.02	313.63
438.21	351.08
438.40	308.95
438.58	322.99
438.77	367.46
438.96	348.74
439.14	311.29
439.33	290.23
439.52	271.50
439.70	301.93
439.89	318.31
440.08	348.74
440.26	358.10
440.45	327.68
440.63	379.17
440.82	287.89
441.01	248.10
441.19	369.80
441.38	353.42
441.57	353.42
441.75	372.15
441.94	299.59
442.12	383.85
442.31	273.84
442.50	358.10
442.68	248.10
442.87	393.21
443.05	409.59
443.24	374.49
443.43	397.89
443.61	353.42
443.80	325.33
443.98	311.29
444.17	327.68
444.35	400.23
444.54	337.04
444.73	337.04
444.91	325.33
445.10	264.48
445.28	304.27
445.47	330.02
445.65	311.29
445.84	313.63
446.02	315.97
446.21	308.95
446.39	287.89
446.58	383.85
446.77	330.02
446.95	315.97
447.14	351.08
447.32	400.23
447.51	339.38
447.69	278.52
447.88	351.08
448.06	369.80
448.25	318.31
448.43	315.97
448.62	276.18
448.80	369.80
448.99	440.02
449.17	266.82
449.36	304.27
449.54	365.12
449.73	290.23
449.91	390.87
450.10	381.51
450.28	386.19
450.46	372.15
450.65	374.49
450.83	362.78
451.02	353.42
451.20	339.38
451.39	330.02
451.57	332.36
451.76	344.06
451.94	374.49
452.13	386.19
452.31	358.10
452.49	348.74
452.68	365.12
452.86	362.78
453.05	416.62
453.23	379.17
453.42	287.89
453.60	353.42
453.78	393.21
453.97	283.20
454.15	315.97
454.34	330.02
454.52	379.17
454.70	320.65
454.89	374.49
455.07	313.63
455.26	327.68
455.44	287.89
455.62	379.17
455.81	327.68
455.99	461.09
456.17	287.89
456.36	266.82
456.54	351.08
456.73	383.85
456.91	337.04
457.09	386.19
457.28	355.76
457.46	322.99
457.64	393.21
457.83	383.85
458.01	315.97
458.19	430.66
458.38	334.70
458.56	379.17
458.74	243.42
458.93	285.55
459.11	390.87
459.29	248.10
459.48	447.04
459.66	360.44
459.84	283.20
460.03	400.23
460.21	308.95
460.39	294.91
460.57	369.80
460.76	390.87
460.94	257.46
461.12	304.27
461.31	369.80
461.49	276.18
461.67	344.06
461.85	325.33
462.04	409.59
462.22	795.78
462.40	393.21
462.59	337.04
462.77	346.40
462.95	376.83
463.13	353.42
463.32	259.80
463.50	402.57
463.68	337.04
463.86	348.74
464.05	330.02
464.23	393.21
464.41	355.76
464.59	388.53
464.78	334.70
464.96	294.91
465.14	313.63
465.32	290.23
465.50	301.93
465.69	360.44
465.87	362.78
466.05	367.46
466.23	257.46
466.41	315.97
466.60	369.80
466.78	360.44
466.96	308.95
467.14	444.70
467.32	400.23
467.51	332.36
467.69	301.93
467.87	362.78
468.05	346.40
468.23	355.76
468.41	313.63
468.60	308.95
468.78	285.55
468.96	348.74
469.14	337.04
469.32	250.44
469.50	299.59
469.69	248.10
469.87	304.27
470.05	322.99
470.23	395.55
470.41	313.63
470.59	306.61
470.77	330.02
470.95	327.68
471.14	308.95
471.32	250.44
471.50	287.89
471.68	283.20
471.86	341.72
472.04	285.55
472.22	315.97
472.40	299.59
472.58	248.10
472.77	299.59
472.95	339.38
473.13	409.59
473.31	337.04
473.49	299.59
473.67	390.87
473.85	341.72
474.03	278.52
474.21	348.74
474.39	313.63
474.57	393.21
474.75	334.70
474.93	315.97
475.12	313.63
475.30	285.55
475.48	353.42
475.66	341.72
475.84	388.53
476.02	330.02
476.20	334.70
476.38	425.98
476.56	444.70
476.74	362.78
476.92	276.18
477.10	327.68
477.28	407.25
477.46	449.38
477.64	386.19
477.82	353.42
478.00	330.02
478.18	330.02
478.36	510.24
478.54	355.76
478.72	341.72
478.90	416.62
479.08	404.91
479.26	351.08
479.44	404.91
479.62	386.19
479.80	376.83
479.98	393.21
480.16	447.04
480.34	484.49
480.52	458.74
480.70	475.13
480.88	482.15
481.06	528.96
481.24	433.00
481.41	540.66
481.59	582.79
481.77	631.94
481.95	571.09
482.13	709.18
482.31	758.33
482.49	627.26
482.67	727.91
482.85	779.40
483.03	875.36
483.21	884.72
483.39	1074.31
483.57	1001.75
483.74	1114.10
483.92	1163.25
484.10	1132.82
484.28	1235.80
484.46	1383.26
484.64	1385.60
484.82	1413.68
485.00	1537.73
485.18	1621.99
485.35	1729.66
485.53	1650.08
485.71	1818.60
485.89	1916.90
486.07	1870.09
486.25	1982.43
486.43	1959.03
486.61	1991.80
486.78	2064.35
486.96	1975.41
487.14	1949.67
487.32	1959.03
487.50	1947.33
487.68	1926.26
487.85	1867.75
488.03	1898.17
488.21	1928.60
488.39	1760.08
488.57	1769.44
488.75	1678.16
488.92	1952.01
489.10	1640.72
489.28	1664.12
489.46	1483.90
489.64	1591.56
489.81	1556.46
489.99	1575.18
490.17	1542.41
490.35	1554.12
490.53	1444.11
490.70	1528.37
490.88	1511.99
491.06	1643.06
491.24	1776.47
491.41	1678.16
491.59	1523.69
491.77	1497.94
491.95	1488.58
492.13	1373.89
492.30	1394.96
492.48	1296.66
492.66	1240.48
492.84	1263.89
493.01	1228.78
493.19	1303.68
493.37	1224.10
493.54	1282.61
493.72	1247.51
493.90	1146.86
494.08	1132.82
494.25	1245.16
494.43	1266.23
494.61	1149.20
494.79	1081.33
494.96	1118.78
495.14	1139.84
495.32	1083.67
495.49	1167.93
495.67	1100.05
495.85	1029.84
496.02	1095.37
496.20	1074.31
496.38	1008.77
496.55	985.37
496.73	1020.47
496.91	971.32
497.09	1011.11
497.26	936.21
497.44	922.17
497.62	870.68
497.79	959.62
497.97	917.49
498.14	823.87
498.32	896.43
498.50	819.19
498.67	828.55
498.85	826.21
499.03	706.84
499.20	821.53
499.38	779.40
499.56	667.05
499.73	758.33
499.91	716.20
500.08	709.18
500.26	678.76
500.44	688.12
500.61	653.01
500.79	540.66
500.97	681.10
501.14	631.94
501.32	596.84
501.49	557.05
501.67	603.86
501.84	465.77
502.02	622.58
502.20	547.69
502.37	535.98
502.55	519.60
502.72	482.15
502.90	531.30
503.07	482.15
503.25	554.71
503.43	510.24
503.60	437.68
503.78	528.96
503.95	463.43
504.13	491.51
504.30	421.30
504.48	479.81
504.65	458.74
504.83	484.49
505.01	304.27
505.18	433.00
505.36	418.96
505.53	425.98
505.71	447.04
505.88	479.81
506.06	475.13
506.23	440.02
506.41	306.61
506.58	470.45
506.76	337.04
506.93	360.44
507.11	409.59
507.28	353.42
507.46	358.10
507.63	346.40
507.81	315.97
507.98	381.51
508.16	292.57
508.33	369.80
508.50	500.87
508.68	430.66
508.85	383.85
509.03	418.96
509.20	334.70
509.38	360.44
509.55	360.44
509.73	346.40
509.90	397.89
510.08	283.20
510.25	353.42
510.42	360.44
510.60	360.44
510.77	458.74
510.95	299.59
511.12	351.08
511.30	322.99
511.47	353.42
511.64	358.10
511.82	330.02
511.99	346.40
512.17	362.78
512.34	367.46
512.51	292.57
512.69	358.10
512.86	337.04
513.04	308.95
513.21	381.51
513.38	344.06
513.56	344.06
513.73	395.55
513.90	306.61
514.08	273.84
514.25	320.65
514.43	299.59
514.60	320.65
514.77	250.44
514.95	330.02
515.12	278.52
515.29	379.17
515.47	297.25
515.64	339.38
515.81	339.38
515.99	299.59
516.16	369.80
516.33	318.31
516.51	313.63
516.68	315.97
516.85	294.91
517.03	308.95
517.20	341.72
517.37	280.86
517.54	278.52
517.72	297.25
517.89	248.10
518.06	313.63
518.24	390.87
518.41	299.59
518.58	308.95
518.75	330.02
518.93	292.57
519.10	334.70
519.27	259.80
519.45	322.99
519.62	332.36
519.79	332.36
519.96	318.31
520.14	264.48
520.31	255.12
520.48	252.78
520.65	297.25
520.83	299.59
521.00	271.50
521.17	358.10
521.34	327.68
521.52	341.72
521.69	297.25
521.86	318.31
522.03	250.44
522.20	299.59
522.38	348.74
522.55	388.53
522.72	344.06
522.89	320.65
523.07	376.83
523.24	320.65
523.41	252.78
523.58	306.61
523.75	353.42
523.92	339.38
524.10	367.46
524.27	388.53
524.44	285.55
524.61	393.21
524.78	283.20
524.96	332.36
525.13	360.44
525.30	353.42
525.47	337.04
525.64	358.10
525.81	355.76
525.98	372.15
526.16	318.31
526.33	325.33
526.50	315.97
526.67	374.49
526.84	374.49
527.01	325.33
527.18	334.70
527.36	379.17
527.53	344.06
527.70	388.53
527.87	322.99
528.04	322.99
528.21	409.59
528.38	449.38
528.55	475.13
528.72	454.06
528.89	470.45
529.07	374.49
529.24	393.21
529.41	379.17
529.58	339.38
529.75	362.78
529.92	372.15
530.09	402.57
530.26	372.15
530.43	332.36
530.60	456.40
530.77	381.51
530.94	400.23
531.11	472.79
531.28	451.72
531.46	493.85
531.63	484.49
531.80	496.19
531.97	645.99
532.14	615.56
532.31	711.52
532.48	690.46
532.65	880.04
532.82	1046.22
532.99	1004.09
533.16	1121.12
533.33	1181.97
533.50	1029.84
533.67	1020.47
533.84	877.70
534.01	800.46
534.18	791.10
534.35	720.88
534.52	741.95
534.69	849.61
534.86	873.02
535.03	793.44
535.20	774.72
535.37	919.83
535.54	959.62
535.71	959.62
535.88	1074.31
536.05	1100.05
536.22	1121.12
536.38	1291.98
536.55	1495.60
536.72	1483.90
536.89	1582.20
537.06	1888.81
537.23	2038.61
537.40	1989.46
537.57	2368.62
537.74	2452.88
537.91	2546.50
538.08	2499.69
538.25	2539.48
538.42	2586.29
538.59	2801.62
538.75	2679.91
538.92	2932.69
539.09	3286.11
539.26	3620.81
539.43	4030.40
539.60	4421.27
539.77	5200.67
539.94	5549.41
540.11	6223.48
540.28	6862.45
540.44	7449.93
540.61	8049.10
540.78	9373.85
540.95	11325.85
541.12	13366.80
541.29	14728.99
541.46	15400.72
541.62	15005.17
541.79	14731.33
541.96	13444.04
542.13	12484.42
542.30	11548.20
542.47	11159.67
542.63	10576.88
542.80	10036.22
542.97	10094.73
543.14	10101.75
543.31	10230.48
543.48	10298.36
543.64	10506.66
543.81	10338.15
543.98	10452.83
544.15	10665.82
544.32	10736.04
544.48	10569.86
544.65	10204.74
544.82	10450.49
544.99	10115.80
545.16	10520.71
545.32	11215.85
545.49	20704.38
545.66	36205.75
545.83	40612.98
546.00	33464.98
546.16	23339.82
546.33	17228.68
546.50	13018.06
546.67	10483.26
546.83	9610.24
547.00	9050.85
547.17	8652.96
547.34	8063.15
547.50	7885.26
547.67	7506.10
547.84	7323.54
548.00	7138.63
548.17	6724.36
548.34	6434.13
548.51	6113.48
548.67	5994.11
548.84	5809.21
549.01	5636.01
549.18	5165.56
549.34	5097.69
549.51	4847.25
549.68	4762.99
549.84	4390.84
550.01	4133.39
550.18	4138.07
550.34	3999.98
550.51	3520.17
550.68	3613.79
550.84	3211.22
551.01	3258.03
551.18	2984.18
551.34	2925.67
551.51	2832.05
551.68	2752.47
551.84	2595.65
552.01	2621.40
552.18	2459.90
552.34	2373.30
552.51	2230.53
552.68	2167.34
552.84	2038.61
553.01	1980.09
553.18	1996.48
553.34	1877.11
553.51	1863.07
553.67	1879.45
553.84	1809.23
554.01	1729.66
554.17	1504.96
554.34	1432.41
554.51	1320.06
554.67	1308.36
554.84	1191.33
555.00	1252.19
555.17	1125.80
555.33	1043.88
555.50	1057.92
555.67	978.34
555.83	952.60
556.00	933.87
556.16	1144.52
556.33	873.02
556.50	912.81
556.66	835.57
556.83	833.23
556.99	767.70
557.16	758.33
557.32	725.57
557.49	744.29
557.65	683.44
557.82	617.90
557.98	758.33
558.15	662.37
558.32	634.29
558.48	660.03
558.65	662.37
558.81	615.56
558.98	681.10
559.14	601.52
559.31	615.56
559.47	599.18
559.64	535.98
559.80	575.77
559.97	575.77
560.13	507.90
560.30	477.47
560.46	589.82
560.63	505.56
560.79	571.09
560.96	650.67
561.12	599.18
561.29	528.96
561.45	500.87
561.61	535.98
561.78	638.97
561.94	554.71
562.11	575.77
562.27	486.83
562.44	573.43
562.60	535.98
562.77	500.87
562.93	561.73
563.10	496.19
563.26	440.02
563.42	585.13
563.59	550.03
563.75	437.68
563.92	505.56
564.08	482.15
564.24	472.79
564.41	489.17
564.57	421.30
564.74	468.11
564.90	496.19
565.07	395.55
565.23	477.47
565.39	475.13
565.56	440.02
565.72	500.87
565.88	458.74
566.05	454.06
566.21	477.47
566.38	416.62
566.54	454.06
566.70	461.09
566.87	451.72
567.03	421.30
567.19	402.57
567.36	493.85
567.52	440.02
567.68	482.15
567.85	383.85
568.01	428.32
568.17	482.15
568.34	524.28
568.50	517.26
568.66	465.77
568.83	561.73
568.99	440.02
569.15	456.40
569.32	416.62
569.48	423.64
569.64	447.04
569.81	416.62
569.97	393.21
570.13	470.45
570.30	322.99
570.46	465.77
570.62	454.06
570.78	372.15
570.95	376.83
571.11	358.10
571.27	430.66
571.43	325.33
571.60	386.19
571.76	404.91
571.92	468.11
572.09	372.15
572.25	346.40
572.41	362.78
572.57	351.08
572.74	367.46
572.90	372.15
573.06	395.55
573.22	379.17
573.38	390.87
573.55	444.70
573.71	379.17
573.87	390.87
574.03	421.30
574.20	402.57
574.36	463.43
574.52	407.25
574.68	390.87
574.84	451.72
575.01	472.79
575.17	524.28
575.33	517.26
575.49	634.29
575.65	617.90
575.82	641.31
575.98	674.07
576.14	751.31
576.30	1535.39
576.46	4627.24
576.62	6967.77
576.79	6930.33
576.95	4868.31
577.11	3262.71
577.27	2277.34
577.43	1645.40
577.59	1156.22
577.75	919.83
577.92	940.90
578.08	866.00
578.24	894.08
578.40	1624.33
578.56	4470.42
578.72	6516.05
578.88	6296.04
579.04	4631.92
579.21	3393.78
579.37	2537.14
579.53	2085.42
579.69	2153.29
579.85	2431.82
580.01	2677.57
580.17	2560.55
580.33	2127.55
580.49	1905.20
580.65	1771.79
580.82	1666.46
580.98	1654.76
581.14	1724.97
581.30	1792.85
581.46	1853.70
581.62	2024.56
581.78	2005.84
581.94	2289.04
582.10	2356.92
582.26	2462.24
582.42	2518.42
582.58	2562.89
582.74	2572.25
582.90	2684.59
583.06	2803.96
583.22	2689.28
583.38	2700.98
583.54	2782.90
583.70	2766.51
583.86	2799.28
584.02	2693.96
584.18	2635.44
584.34	2602.68
584.50	2527.78
584.66	2480.97
584.82	2452.88
584.98	2459.90
585.14	2480.97
585.30	2375.64
585.46	2291.38
585.62	2181.38
585.78	2275.00
585.94	2242.23
586.10	2345.22
586.26	2562.89
586.42	3000.57
586.58	3421.86
586.74	4037.42
586.90	4814.48
587.06	5205.35
587.22	4990.02
587.38	4390.84
587.54	3779.97
587.70	3339.94
587.86	2799.28
588.02	2462.24
588.18	2167.34
588.34	1905.20
588.49	1844.34
588.65	1699.23
588.81	1673.48
588.97	1636.03
589.13	1584.54
589.29	1535.39
589.45	1629.01
589.61	1549.43
589.77	1579.86
589.93	1551.78
590.08	1511.99
590.24	1661.78
590.40	1748.38
590.56	1743.70
590.72	1713.27
590.88	1909.88
591.04	1914.56
591.20	1980.09
591.35	1996.48
591.51	2179.04
591.67	2244.57
591.83	2305.43
591.99	2551.18
592.15	2813.32
592.31	2986.52
592.46	3108.23
592.62	3463.99
592.78	3578.68
592.94	3768.26
593.10	3517.83
593.26	3424.20
593.41	3194.83
593.57	2855.45
593.73	2534.80
593.89	2267.98
594.05	2087.76
594.20	1884.13
594.36	1760.08
594.52	1591.56
594.68	1586.88
594.84	1467.52
594.99	1460.49
595.15	1380.92
595.31	1425.39
595.47	1425.39
595.62	1413.68
595.78	1322.40
595.94	1437.09
596.10	1404.32
596.25	1394.96
596.41	1430.07
596.57	1336.45
596.73	1444.11
596.88	1310.70
597.04	1467.52
597.20	1397.30
597.36	1392.62
597.51	1469.86
597.67	1462.83
597.83	1600.93
597.99	1713.27
598.14	1823.28
598.30	1877.11
598.46	1959.03
598.61	2134.57
598.77	2197.76
598.93	2090.10
599.09	2235.21
599.24	2282.02
599.40	2265.64
599.56	2106.48
599.71	2064.35
599.87	1944.99
600.03	1898.17
600.18	1743.70
600.34	1682.85
600.50	1544.75
600.65	1490.92
600.81	1439.43
600.97	1256.87
601.12	1266.23
601.28	1231.12
601.44	1111.75
601.59	1142.18
601.75	1060.26
601.91	1060.26
602.06	966.64
602.22	1128.14
602.37	994.73
602.53	978.34
602.69	947.92
602.84	938.55
603.00	1034.52
603.16	971.32
603.31	1041.54
603.47	968.98
603.62	884.72
603.78	945.58
603.94	1034.52
604.09	1090.69
604.25	1043.88
604.40	1081.33
604.56	1142.18
604.71	1181.97
604.87	1095.37
605.03	1198.35
605.18	1226.44
605.34	1268.57
605.49	1219.42
605.65	1259.21
605.80	1205.38
605.96	1231.12
606.12	1430.07
606.27	1357.51
606.43	1495.60
