SpectraSuite Data File
++++++++++++++++++++++++++++++++++++
Date: Fri Oct 04 11:42:01 GMT-05:00 2013
User: price-jones
Dark Spectrum Present: No
Reference Spectrum Present: No
Number of Sampled Component Spectra: 1
Spectrometers: USB2+H05261
Integration Time (usec): 100000 (USB2+H05261)
Spectra Averaged: 1 (USB2+H05261)
Boxcar Smoothing: 0 (USB2+H05261)
Correct for Electrical Dark: No (USB2+H05261)
Strobe/Lamp Enabled: No (USB2+H05261)
Correct for Detector Non-linearity: No (USB2+H05261)
Correct for Stray Light: No (USB2+H05261)
Number of Pixels in Processed Spectrum: 2048
>>>>>Begin Processed Spectral Data<<<<<
365.73	58.51
365.92	58.51
366.12	58.51
366.32	0.00
366.52	0.00
366.72	0.00
366.91	0.00
367.11	0.00
367.31	0.00
367.51	0.00
367.70	0.00
367.90	0.00
368.10	0.00
368.30	7.02
368.49	0.00
368.69	0.00
368.89	0.00
369.09	0.00
369.28	0.00
369.48	0.00
369.68	9.36
369.87	58.51
370.07	0.00
370.27	0.00
370.47	44.47
370.66	0.00
370.86	21.06
371.06	44.47
371.25	23.41
371.45	60.85
371.65	117.03
371.84	51.49
372.04	58.51
372.24	35.11
372.44	81.92
372.63	112.35
372.83	177.88
373.03	117.03
373.22	77.24
373.42	117.03
373.62	182.56
373.81	142.77
374.01	138.09
374.21	135.75
374.40	220.01
374.60	154.48
374.79	175.54
374.99	95.96
375.19	86.60
375.38	177.88
375.58	131.07
375.78	184.90
375.97	133.41
376.17	243.42
376.37	138.09
376.56	154.48
376.76	81.92
376.95	147.45
377.15	177.88
377.35	105.32
377.54	121.71
377.74	124.05
377.93	88.94
378.13	114.69
378.33	121.71
378.52	170.86
378.72	212.99
378.91	133.41
379.11	93.62
379.31	49.15
379.50	53.83
379.70	67.88
379.89	93.62
380.09	46.81
380.28	100.64
380.48	63.19
380.68	65.54
380.87	67.88
381.07	72.56
381.26	133.41
381.46	173.20
381.65	65.54
381.85	60.85
382.04	86.60
382.24	124.05
382.43	145.11
382.63	110.01
382.83	154.48
383.02	102.98
383.22	184.90
383.41	126.39
383.61	135.75
383.80	88.94
384.00	110.01
384.19	152.13
384.39	114.69
384.58	105.32
384.78	173.20
384.97	107.66
385.17	81.92
385.36	154.48
385.56	107.66
385.75	114.69
385.95	110.01
386.14	102.98
386.34	51.49
386.53	166.18
386.72	110.01
386.92	163.84
387.11	191.92
387.31	67.88
387.50	131.07
387.70	93.62
387.89	91.28
388.09	70.22
388.28	105.32
388.48	189.58
388.67	128.73
388.86	72.56
389.06	100.64
389.25	105.32
389.45	110.01
389.64	67.88
389.84	65.54
390.03	161.50
390.22	56.17
390.42	98.30
390.61	74.90
390.81	112.35
391.00	21.06
391.19	67.88
391.39	126.39
391.58	180.22
391.78	77.24
391.97	98.30
392.16	100.64
392.36	173.20
392.55	147.45
392.75	77.24
392.94	128.73
393.13	84.26
393.33	117.03
393.52	58.51
393.71	95.96
393.91	56.17
394.10	124.05
394.29	117.03
394.49	98.30
394.68	189.58
394.88	140.43
395.07	63.19
395.26	170.86
395.46	121.71
395.65	168.52
395.84	133.41
396.04	173.20
396.23	114.69
396.42	49.15
396.62	105.32
396.81	205.97
397.00	128.73
397.19	133.41
397.39	95.96
397.58	163.84
397.77	91.28
397.97	135.75
398.16	100.64
398.35	77.24
398.55	147.45
398.74	163.84
398.93	124.05
399.12	142.77
399.32	152.13
399.51	114.69
399.70	138.09
399.90	180.22
400.09	184.90
400.28	208.31
400.47	84.26
400.67	126.39
400.86	67.88
401.05	124.05
401.24	159.16
401.44	142.77
401.63	112.35
401.82	133.41
402.01	131.07
402.21	102.98
402.40	124.05
402.59	91.28
402.78	126.39
402.97	107.66
403.17	152.13
403.36	170.86
403.55	133.41
403.74	376.83
403.93	985.37
404.13	1776.47
404.32	1898.17
404.51	1600.93
404.70	959.62
404.89	411.93
405.09	208.31
405.28	161.50
405.47	175.54
405.66	201.29
405.85	152.13
406.05	124.05
406.24	53.83
406.43	175.54
406.62	140.43
406.81	269.16
407.00	217.67
407.20	313.63
407.39	276.18
407.58	327.68
407.77	182.56
407.96	161.50
408.15	257.46
408.34	250.44
408.54	170.86
408.73	126.39
408.92	112.35
409.11	133.41
409.30	168.52
409.49	100.64
409.68	147.45
409.87	117.03
410.07	133.41
410.26	88.94
410.45	98.30
410.64	128.73
410.83	191.92
411.02	93.62
411.21	131.07
411.40	147.45
411.59	189.58
411.78	133.41
411.98	86.60
412.17	135.75
412.36	152.13
412.55	110.01
412.74	140.43
412.93	220.01
413.12	119.37
413.31	170.86
413.50	121.71
413.69	152.13
413.88	276.18
414.07	131.07
414.26	119.37
414.45	138.09
414.64	196.60
414.83	184.90
415.02	112.35
415.22	131.07
415.41	189.58
415.60	184.90
415.79	112.35
415.98	203.63
416.17	173.20
416.36	231.71
416.55	131.07
416.74	145.11
416.93	243.42
417.12	145.11
417.31	184.90
417.50	147.45
417.69	177.88
417.88	182.56
418.07	88.94
418.26	70.22
418.45	131.07
418.64	187.24
418.83	196.60
419.02	184.90
419.21	250.44
419.39	170.86
419.58	77.24
419.77	152.13
419.96	168.52
420.15	257.46
420.34	140.43
420.53	245.76
420.72	210.65
420.91	102.98
421.10	194.26
421.29	189.58
421.48	177.88
421.67	131.07
421.86	250.44
422.05	180.22
422.24	205.97
422.43	208.31
422.61	191.92
422.80	276.18
422.99	177.88
423.18	152.13
423.37	126.39
423.56	196.60
423.75	234.05
423.94	180.22
424.13	149.79
424.32	128.73
424.50	72.56
424.69	159.16
424.88	241.08
425.07	208.31
425.26	140.43
425.45	224.69
425.64	168.52
425.83	180.22
426.01	191.92
426.20	212.99
426.39	194.26
426.58	173.20
426.77	168.52
426.96	180.22
427.15	224.69
427.33	255.12
427.52	145.11
427.71	231.71
427.90	175.54
428.09	208.31
428.28	168.52
428.46	170.86
428.65	215.33
428.84	187.24
429.03	156.82
429.22	147.45
429.40	182.56
429.59	205.97
429.78	187.24
429.97	163.84
430.16	198.95
430.34	273.84
430.53	93.62
430.72	131.07
430.91	135.75
431.10	194.26
431.28	198.95
431.47	241.08
431.66	243.42
431.85	175.54
432.03	236.39
432.22	208.31
432.41	212.99
432.60	201.29
432.79	180.22
432.97	205.97
433.16	231.71
433.35	196.60
433.54	224.69
433.72	278.52
433.91	224.69
434.10	299.59
434.28	386.19
434.47	337.04
434.66	456.40
434.85	526.62
435.03	1556.46
435.22	5022.79
435.41	7824.41
435.59	6752.45
435.78	4573.41
435.97	2312.45
436.16	978.34
436.34	414.27
436.53	318.31
436.72	337.04
436.90	243.42
437.09	259.80
437.28	259.80
437.46	266.82
437.65	241.08
437.84	243.42
438.02	245.76
438.21	234.05
438.40	170.86
438.58	194.26
438.77	280.86
438.96	304.27
439.14	227.03
439.33	248.10
439.52	173.20
439.70	210.65
439.89	255.12
440.08	241.08
440.26	243.42
440.45	262.14
440.63	170.86
440.82	220.01
441.01	224.69
441.19	243.42
441.38	198.95
441.57	299.59
441.75	248.10
441.94	266.82
442.12	208.31
442.31	264.48
442.50	285.55
442.68	184.90
442.87	229.37
443.05	273.84
443.24	182.56
443.43	283.20
443.61	271.50
443.80	248.10
443.98	203.63
444.17	224.69
444.35	224.69
444.54	220.01
444.73	208.31
444.91	243.42
445.10	182.56
445.28	156.82
445.47	236.39
445.65	208.31
445.84	224.69
446.02	236.39
446.21	191.92
446.39	170.86
446.58	227.03
446.77	241.08
446.95	241.08
447.14	217.67
447.32	297.25
447.51	217.67
447.69	224.69
447.88	201.29
448.06	334.70
448.25	140.43
448.43	212.99
448.62	208.31
448.80	280.86
448.99	205.97
449.17	196.60
449.36	196.60
449.54	215.33
449.73	220.01
449.91	290.23
450.10	217.67
450.28	271.50
450.46	234.05
450.65	318.31
450.83	229.37
451.02	243.42
451.20	245.76
451.39	273.84
451.57	203.63
451.76	234.05
451.94	170.86
452.13	252.78
452.31	269.16
452.49	276.18
452.68	198.95
452.86	180.22
453.05	304.27
453.23	212.99
453.42	154.48
453.60	255.12
453.78	264.48
453.97	231.71
454.15	149.79
454.34	220.01
454.52	248.10
454.70	194.26
454.89	252.78
455.07	163.84
455.26	255.12
455.44	241.08
455.62	285.55
455.81	212.99
455.99	264.48
456.17	177.88
456.36	276.18
456.54	234.05
456.73	222.35
456.91	194.26
457.09	208.31
457.28	273.84
457.46	217.67
457.64	278.52
457.83	236.39
458.01	198.95
458.19	248.10
458.38	250.44
458.56	222.35
458.74	194.26
458.93	234.05
459.11	238.73
459.29	189.58
459.48	224.69
459.66	327.68
459.84	229.37
460.03	311.29
460.21	215.33
460.39	173.20
460.57	140.43
460.76	208.31
460.94	196.60
461.12	248.10
461.31	269.16
461.49	234.05
461.67	198.95
461.85	177.88
462.04	283.20
462.22	692.80
462.40	360.44
462.59	294.91
462.77	142.77
462.95	231.71
463.13	229.37
463.32	234.05
463.50	201.29
463.68	236.39
463.86	337.04
464.05	170.86
464.23	220.01
464.41	255.12
464.59	236.39
464.78	264.48
464.96	201.29
465.14	304.27
465.32	264.48
465.50	278.52
465.69	297.25
465.87	238.73
466.05	280.86
466.23	196.60
466.41	234.05
466.60	220.01
466.78	210.65
466.96	297.25
467.14	229.37
467.32	271.50
467.51	210.65
467.69	257.46
467.87	196.60
468.05	243.42
468.23	278.52
468.41	243.42
468.60	287.89
468.78	320.65
468.96	234.05
469.14	215.33
469.32	205.97
469.50	166.18
469.69	210.65
469.87	245.76
470.05	231.71
470.23	262.14
470.41	259.80
470.59	203.63
470.77	215.33
470.95	168.52
471.14	273.84
471.32	166.18
471.50	241.08
471.68	229.37
471.86	189.58
472.04	229.37
472.22	205.97
472.40	182.56
472.58	238.73
472.77	161.50
472.95	231.71
473.13	236.39
473.31	215.33
473.49	203.63
473.67	236.39
473.85	205.97
474.03	184.90
474.21	215.33
474.39	320.65
474.57	245.76
474.75	266.82
474.93	287.89
475.12	304.27
475.30	252.78
475.48	290.23
475.66	248.10
475.84	243.42
476.02	215.33
476.20	166.18
476.38	217.67
476.56	304.27
476.74	212.99
476.92	250.44
477.10	262.14
477.28	308.95
477.46	259.80
477.64	325.33
477.82	264.48
478.00	217.67
478.18	234.05
478.36	203.63
478.54	241.08
478.72	252.78
478.90	273.84
479.08	236.39
479.26	304.27
479.44	243.42
479.62	210.65
479.80	227.03
479.98	255.12
480.16	330.02
480.34	196.60
480.52	306.61
480.70	285.55
480.88	304.27
481.06	271.50
481.24	313.63
481.41	388.53
481.59	407.25
481.77	304.27
481.95	369.80
482.13	395.55
482.31	341.72
482.49	423.64
482.67	442.36
482.85	416.62
483.03	423.64
483.21	531.30
483.39	468.11
483.57	463.43
483.74	599.18
483.92	507.90
484.10	568.75
484.28	732.59
484.46	650.67
484.64	669.39
484.82	589.82
485.00	662.37
485.18	795.78
485.35	807.48
485.53	842.59
485.71	929.19
485.89	844.93
486.07	863.66
486.25	877.70
486.43	809.83
486.61	863.66
486.78	837.91
486.96	814.51
487.14	809.83
487.32	866.00
487.50	917.49
487.68	968.98
487.85	894.08
488.03	866.00
488.21	837.91
488.39	828.55
488.57	880.04
488.75	741.95
488.92	1193.67
489.10	791.10
489.28	823.87
489.46	678.76
489.64	709.18
489.81	709.18
489.99	748.97
490.17	702.16
490.35	795.78
490.53	725.57
490.70	645.99
490.88	716.20
491.06	725.57
491.24	861.32
491.41	788.76
491.59	671.73
491.77	636.63
491.95	634.29
492.13	645.99
492.30	706.84
492.48	610.88
492.66	636.63
492.84	620.24
493.01	739.61
493.19	599.18
493.37	709.18
493.54	645.99
493.72	650.67
493.90	608.54
494.08	547.69
494.25	631.94
494.43	613.22
494.61	587.47
494.79	521.94
494.96	507.90
495.14	531.30
495.32	524.28
495.49	484.49
495.67	566.41
495.85	550.03
496.02	505.56
496.20	629.60
496.38	592.16
496.55	552.37
496.73	547.69
496.91	540.66
497.09	512.58
497.26	463.43
497.44	543.00
497.62	477.47
497.79	425.98
497.97	444.70
498.14	533.64
498.32	416.62
498.50	468.11
498.67	440.02
498.85	456.40
499.03	489.17
499.20	383.85
499.38	397.89
499.56	433.00
499.73	447.04
499.91	416.62
500.08	379.17
500.26	421.30
500.44	440.02
500.61	383.85
500.79	360.44
500.97	409.59
501.14	390.87
501.32	369.80
501.49	381.51
501.67	318.31
501.84	369.80
502.02	271.50
502.20	418.96
502.37	348.74
502.55	325.33
502.72	299.59
502.90	348.74
503.07	365.12
503.25	313.63
503.43	311.29
503.60	266.82
503.78	313.63
503.95	278.52
504.13	299.59
504.30	351.08
504.48	351.08
504.65	362.78
504.83	313.63
505.01	320.65
505.18	278.52
505.36	383.85
505.53	278.52
505.71	297.25
505.88	351.08
506.06	355.76
506.23	348.74
506.41	341.72
506.58	327.68
506.76	280.86
506.93	278.52
507.11	337.04
507.28	224.69
507.46	283.20
507.63	276.18
507.81	273.84
507.98	313.63
508.16	280.86
508.33	320.65
508.50	318.31
508.68	290.23
508.85	248.10
509.03	283.20
509.20	322.99
509.38	313.63
509.55	294.91
509.73	320.65
509.90	234.05
510.08	273.84
510.25	271.50
510.42	299.59
510.60	276.18
510.77	255.12
510.95	252.78
511.12	238.73
511.30	271.50
511.47	313.63
511.64	369.80
511.82	234.05
511.99	252.78
512.17	322.99
512.34	262.14
512.51	299.59
512.69	292.57
512.86	365.12
513.04	297.25
513.21	259.80
513.38	273.84
513.56	383.85
513.73	252.78
513.90	220.01
514.08	306.61
514.25	264.48
514.43	276.18
514.60	257.46
514.77	292.57
514.95	262.14
515.12	259.80
515.29	276.18
515.47	250.44
515.64	266.82
515.81	255.12
515.99	252.78
516.16	304.27
516.33	271.50
516.51	287.89
516.68	276.18
516.85	259.80
517.03	191.92
517.20	280.86
517.37	301.93
517.54	222.35
517.72	227.03
517.89	322.99
518.06	159.16
518.24	285.55
518.41	262.14
518.58	229.37
518.75	273.84
518.93	273.84
519.10	318.31
519.27	201.29
519.45	243.42
519.62	294.91
519.79	337.04
519.96	248.10
520.14	313.63
520.31	294.91
520.48	313.63
520.65	306.61
520.83	325.33
521.00	297.25
521.17	337.04
521.34	238.73
521.52	210.65
521.69	243.42
521.86	241.08
522.03	269.16
522.20	299.59
522.38	238.73
522.55	285.55
522.72	245.76
522.89	278.52
523.07	339.38
523.24	259.80
523.41	259.80
523.58	280.86
523.75	269.16
523.92	255.12
524.10	212.99
524.27	332.36
524.44	241.08
524.61	313.63
524.78	203.63
524.96	360.44
525.13	259.80
525.30	173.20
525.47	322.99
525.64	210.65
525.81	297.25
525.98	348.74
526.16	330.02
526.33	205.97
526.50	224.69
526.67	283.20
526.84	201.29
527.01	266.82
527.18	241.08
527.36	250.44
527.53	280.86
527.70	325.33
527.87	264.48
528.04	365.12
528.21	227.03
528.38	252.78
528.55	355.76
528.72	348.74
528.89	365.12
529.07	252.78
529.24	325.33
529.41	407.25
529.58	351.08
529.75	308.95
529.92	299.59
530.09	308.95
530.26	379.17
530.43	297.25
530.60	304.27
530.77	395.55
530.94	318.31
531.11	353.42
531.28	283.20
531.46	320.65
531.63	330.02
531.80	437.68
531.97	390.87
532.14	386.19
532.31	411.93
532.48	400.23
532.65	435.34
532.82	491.51
532.99	550.03
533.16	557.05
533.33	645.99
533.50	629.60
533.67	521.94
533.84	486.83
534.01	416.62
534.18	379.17
534.35	358.10
534.52	486.83
534.69	451.72
534.86	498.53
535.03	421.30
535.20	461.09
535.37	538.32
535.54	479.81
535.71	519.60
535.88	491.51
536.05	456.40
536.22	631.94
536.38	641.31
536.55	657.69
536.72	713.86
536.89	723.23
537.06	819.19
537.23	894.08
537.40	957.28
537.57	1057.92
537.74	1055.58
537.91	1130.48
538.08	1144.52
538.25	1100.05
538.42	1118.78
538.59	1170.27
538.75	1280.27
538.92	1224.10
539.09	1441.77
539.26	1537.73
539.43	1640.72
539.60	1813.92
539.77	2047.97
539.94	2167.34
540.11	2408.41
540.28	2663.53
540.44	2846.09
540.61	2984.18
540.78	3691.02
540.95	4315.95
541.12	4999.38
541.29	5432.38
541.46	5664.10
541.62	5591.54
541.79	5359.83
541.96	5078.96
542.13	4699.80
542.30	4334.67
542.47	4217.65
542.63	4060.83
542.80	3971.89
542.97	3974.23
543.14	3843.16
543.31	3892.31
543.48	3843.16
543.64	4088.92
543.81	4107.64
543.98	3929.76
544.15	3911.04
544.32	3969.55
544.48	4032.74
544.65	3920.40
544.82	3908.69
544.99	3859.54
545.16	3896.99
545.32	4432.97
545.49	8957.23
545.66	13249.77
545.83	14310.04
546.00	11728.42
546.16	8210.60
546.33	6036.24
546.50	4739.58
546.67	3864.22
546.83	3382.07
547.00	3332.92
547.17	3155.04
547.34	3049.72
547.50	2878.86
547.67	2771.19
547.84	2719.70
548.00	2679.91
548.17	2593.31
548.34	2462.24
548.51	2377.98
548.67	2368.62
548.84	2324.15
549.01	2150.95
549.18	2092.44
549.34	2026.90
549.51	1954.35
549.68	1949.67
549.84	1781.15
550.01	1673.48
550.18	1657.10
550.34	1614.97
550.51	1507.30
550.68	1500.28
550.84	1331.76
551.01	1366.87
551.18	1284.95
551.34	1233.46
551.51	1167.93
551.68	1095.37
551.84	1165.59
552.01	1109.41
552.18	1064.94
552.34	1050.90
552.51	1057.92
552.68	994.73
552.84	917.49
553.01	954.94
553.18	936.21
553.34	809.83
553.51	938.55
553.67	823.87
553.84	837.91
554.01	727.91
554.17	685.78
554.34	585.13
554.51	636.63
554.67	645.99
554.84	671.73
555.00	599.18
555.17	545.34
555.33	631.94
555.50	512.58
555.67	524.28
555.83	498.53
556.00	484.49
556.16	683.44
556.33	472.79
556.50	421.30
556.66	444.70
556.83	400.23
556.99	444.70
557.16	414.27
557.32	388.53
557.49	341.72
557.65	386.19
557.82	386.19
557.98	388.53
558.15	400.23
558.32	407.25
558.48	315.97
558.65	320.65
558.81	407.25
558.98	355.76
559.14	418.96
559.31	262.14
559.47	409.59
559.64	330.02
559.80	367.46
559.97	299.59
560.13	367.46
560.30	383.85
560.46	355.76
560.63	400.23
560.79	348.74
560.96	353.42
561.12	379.17
561.29	306.61
561.45	346.40
561.61	358.10
561.78	386.19
561.94	374.49
562.11	313.63
562.27	395.55
562.44	355.76
562.60	360.44
562.77	325.33
562.93	397.89
563.10	353.42
563.26	322.99
563.42	360.44
563.59	362.78
563.75	327.68
563.92	299.59
564.08	409.59
564.24	374.49
564.41	353.42
564.57	311.29
564.74	376.83
564.90	381.51
565.07	318.31
565.23	353.42
565.39	360.44
565.56	322.99
565.72	271.50
565.88	283.20
566.05	297.25
566.21	287.89
566.38	273.84
566.54	397.89
566.70	337.04
566.87	372.15
567.03	337.04
567.19	402.57
567.36	358.10
567.52	255.12
567.68	351.08
567.85	320.65
568.01	250.44
568.17	276.18
568.34	318.31
568.50	339.38
568.66	381.51
568.83	348.74
568.99	315.97
569.15	332.36
569.32	318.31
569.48	376.83
569.64	229.37
569.81	234.05
569.97	252.78
570.13	283.20
570.30	320.65
570.46	245.76
570.62	341.72
570.78	301.93
570.95	215.33
571.11	313.63
571.27	308.95
571.43	278.52
571.60	287.89
571.76	330.02
571.92	266.82
572.09	294.91
572.25	245.76
572.41	215.33
572.57	301.93
572.74	290.23
572.90	276.18
573.06	381.51
573.22	376.83
573.38	353.42
573.55	330.02
573.71	337.04
573.87	292.57
574.03	276.18
574.20	220.01
574.36	318.31
574.52	311.29
574.68	262.14
574.84	273.84
575.01	241.08
575.17	294.91
575.33	287.89
575.49	379.17
575.65	365.12
575.82	276.18
575.98	348.74
576.14	383.85
576.30	875.36
576.46	1902.86
576.62	2630.76
576.79	2438.84
576.95	1863.07
577.11	1249.85
577.27	924.51
577.43	699.82
577.59	491.51
577.75	407.25
577.92	393.21
578.08	517.26
578.24	407.25
578.40	957.28
578.56	1750.72
578.72	2303.09
578.88	2455.22
579.04	1872.43
579.21	1406.66
579.37	1048.56
579.53	985.37
579.69	1034.52
579.85	1057.92
580.01	1144.52
580.17	1076.65
580.33	919.83
580.49	814.51
580.65	844.93
580.82	730.25
580.98	678.76
581.14	664.71
581.30	765.36
581.46	798.12
581.62	777.06
581.78	868.34
581.94	947.92
582.10	1018.13
582.26	1069.62
582.42	1034.52
582.58	1095.37
582.74	1071.97
582.90	1076.65
583.06	1036.86
583.22	1078.99
583.38	1217.08
583.54	1135.16
583.70	1097.71
583.86	1114.10
584.02	1142.18
584.18	1137.50
584.34	997.07
584.50	976.00
584.66	1048.56
584.82	957.28
584.98	1022.81
585.14	973.66
585.30	933.87
585.46	924.51
585.62	870.68
585.78	917.49
585.94	968.98
586.10	882.38
586.26	1095.37
586.42	1170.27
586.58	1425.39
586.74	1551.78
586.90	1827.96
587.06	1984.77
587.22	1867.75
587.38	1762.42
587.54	1572.84
587.70	1313.04
587.86	1186.65
588.02	1006.43
588.18	919.83
588.34	945.58
588.49	760.67
588.65	737.27
588.81	660.03
588.97	744.29
589.13	702.16
589.29	610.88
589.45	713.86
589.61	624.92
589.77	648.33
589.93	653.01
590.08	770.04
590.24	741.95
590.40	758.33
590.56	856.64
590.72	760.67
590.88	746.63
591.04	814.51
591.20	746.63
591.35	830.89
591.51	884.72
591.67	896.43
591.83	990.05
591.99	1006.43
592.15	1125.80
592.31	1078.99
592.46	1336.45
592.62	1336.45
592.78	1416.02
592.94	1483.90
593.10	1399.64
593.26	1378.58
593.41	1160.91
593.57	1088.35
593.73	1032.18
593.89	903.45
594.05	835.57
594.20	713.86
594.36	732.59
594.52	741.95
594.68	653.01
594.84	650.67
594.99	692.80
595.15	587.47
595.31	657.69
595.47	669.39
595.62	557.05
595.78	641.31
595.94	664.71
596.10	650.67
596.25	655.35
596.41	608.54
596.57	657.69
596.73	610.88
596.88	620.24
597.04	660.03
597.20	547.69
597.36	699.82
597.51	648.33
597.67	711.52
597.83	627.26
597.99	720.88
598.14	755.99
598.30	877.70
598.46	819.19
598.61	889.40
598.77	971.32
598.93	856.64
599.09	887.06
599.24	905.79
599.40	933.87
599.56	880.04
599.71	823.87
599.87	882.38
600.03	800.46
600.18	748.97
600.34	674.07
600.50	690.46
600.65	620.24
600.81	580.45
600.97	585.13
601.12	585.13
601.28	578.11
601.44	587.47
601.59	543.00
601.75	535.98
601.91	533.64
602.06	561.73
602.22	517.26
602.37	540.66
602.53	512.58
602.69	468.11
602.84	489.17
603.00	449.38
603.16	430.66
603.31	486.83
603.47	552.37
603.62	493.85
603.78	571.09
603.94	411.93
604.09	528.96
604.25	552.37
604.40	557.05
604.56	545.34
604.71	564.07
604.87	498.53
605.03	486.83
605.18	543.00
605.34	685.78
605.49	594.50
605.65	535.98
605.80	608.54
605.96	648.33
606.12	601.52
606.27	620.24
606.43	606.20
606.58	739.61
606.74	758.33
606.89	711.52
607.05	760.67
607.20	821.53
607.36	732.59
607.51	763.01
607.67	880.04
607.82	1011.11
607.98	1022.81
608.13	1095.37
608.29	1111.75
608.44	1212.40
608.60	1181.97
608.75	1448.79
608.91	1448.79
609.06	1603.27
609.22	1710.93
609.37	1860.73
609.53	2141.59
