SpectraSuite Data File
++++++++++++++++++++++++++++++++++++
Date: Fri Oct 04 11:42:15 GMT-05:00 2013
User: price-jones
Dark Spectrum Present: No
Reference Spectrum Present: No
Number of Sampled Component Spectra: 1
Spectrometers: USB2+H05261
Integration Time (usec): 100000 (USB2+H05261)
Spectra Averaged: 1 (USB2+H05261)
Boxcar Smoothing: 0 (USB2+H05261)
Correct for Electrical Dark: No (USB2+H05261)
Strobe/Lamp Enabled: No (USB2+H05261)
Correct for Detector Non-linearity: No (USB2+H05261)
Correct for Stray Light: No (USB2+H05261)
Number of Pixels in Processed Spectrum: 2048
>>>>>Begin Processed Spectral Data<<<<<
365.73	0.00
365.92	0.00
366.12	0.00
366.32	0.00
366.52	0.00
366.72	0.00
366.91	0.00
367.11	0.00
367.31	0.00
367.51	0.00
367.70	0.00
367.90	0.00
368.10	0.00
368.30	0.00
368.49	0.00
368.69	0.00
368.89	0.00
369.09	0.00
369.28	0.00
369.48	0.00
369.68	0.00
369.87	4.68
370.07	0.00
370.27	51.49
370.47	107.66
370.66	269.16
370.86	126.39
371.06	299.59
371.25	292.57
371.45	220.01
371.65	191.92
371.84	196.60
372.04	208.31
372.24	234.05
372.44	238.73
372.63	276.18
372.83	264.48
373.03	212.99
373.22	205.97
373.42	212.99
373.62	252.78
373.81	220.01
374.01	198.95
374.21	280.86
374.40	217.67
374.60	348.74
374.79	276.18
374.99	266.82
375.19	334.70
375.38	339.38
375.58	325.33
375.78	339.38
375.97	292.57
376.17	367.46
376.37	294.91
376.56	374.49
376.76	245.76
376.95	250.44
377.15	330.02
377.35	355.76
377.54	409.59
377.74	362.78
377.93	332.36
378.13	306.61
378.33	393.21
378.52	294.91
378.72	351.08
378.91	292.57
379.11	313.63
379.31	301.93
379.50	276.18
379.70	264.48
379.89	292.57
380.09	318.31
380.28	285.55
380.48	294.91
380.68	355.76
380.87	327.68
381.07	269.16
381.26	346.40
381.46	287.89
381.65	304.27
381.85	245.76
382.04	318.31
382.24	215.33
382.43	278.52
382.63	266.82
382.83	276.18
383.02	250.44
383.22	322.99
383.41	276.18
383.61	276.18
383.80	229.37
384.00	212.99
384.19	259.80
384.39	369.80
384.58	379.17
384.78	411.93
384.97	311.29
385.17	271.50
385.36	360.44
385.56	257.46
385.75	348.74
385.95	269.16
386.14	379.17
386.34	325.33
386.53	332.36
386.72	379.17
386.92	339.38
387.11	355.76
387.31	304.27
387.50	290.23
387.70	292.57
387.89	318.31
388.09	351.08
388.28	330.02
388.48	355.76
388.67	353.42
388.86	367.46
389.06	428.32
389.25	383.85
389.45	402.57
389.64	428.32
389.84	486.83
390.03	369.80
390.22	407.25
390.42	362.78
390.61	379.17
390.81	395.55
391.00	367.46
391.19	376.83
391.39	505.56
391.58	477.47
391.78	440.02
391.97	374.49
392.16	365.12
392.36	395.55
392.55	360.44
392.75	236.39
392.94	238.73
393.13	248.10
393.33	224.69
393.52	238.73
393.71	360.44
393.91	355.76
394.10	414.27
394.29	376.83
394.49	404.91
394.68	447.04
394.88	465.77
395.07	486.83
395.26	477.47
395.46	437.68
395.65	500.87
395.84	341.72
396.04	365.12
396.23	215.33
396.42	280.86
396.62	252.78
396.81	334.70
397.00	376.83
397.19	416.62
397.39	461.09
397.58	550.03
397.77	571.09
397.97	603.86
398.16	472.79
398.35	578.11
398.55	521.94
398.74	610.88
398.93	629.60
399.12	617.90
399.32	510.24
399.51	561.73
399.70	580.45
399.90	603.86
400.09	564.07
400.28	613.22
400.47	594.50
400.67	638.97
400.86	608.54
401.05	741.95
401.24	655.35
401.44	645.99
401.63	634.29
401.82	573.43
402.01	648.33
402.21	638.97
402.40	648.33
402.59	636.63
402.78	564.07
402.97	615.56
403.17	648.33
403.36	636.63
403.55	699.82
403.74	711.52
403.93	629.60
404.13	664.71
404.32	690.46
404.51	760.67
404.70	697.48
404.89	655.35
405.09	706.84
405.28	606.20
405.47	636.63
405.66	606.20
405.85	662.37
406.05	648.33
406.24	678.76
406.43	564.07
406.62	660.03
406.81	699.82
407.00	650.67
407.20	653.01
407.39	667.05
407.58	620.24
407.77	683.44
407.96	702.16
408.15	688.12
408.34	713.86
408.54	695.14
408.73	727.91
408.92	812.17
409.11	662.37
409.30	702.16
409.49	587.47
409.68	667.05
409.87	550.03
410.07	653.01
410.26	617.90
410.45	695.14
410.64	678.76
410.83	676.41
411.02	627.26
411.21	781.74
411.40	727.91
411.59	725.57
411.78	690.46
411.98	737.27
412.17	833.23
412.36	727.91
412.55	669.39
412.74	755.99
412.93	723.23
413.12	723.23
413.31	823.87
413.50	826.21
413.69	741.95
413.88	746.63
414.07	730.25
414.26	685.78
414.45	786.42
414.64	863.66
414.83	713.86
415.02	788.76
415.22	737.27
415.41	748.97
415.60	706.84
415.79	770.04
415.98	882.38
416.17	821.53
416.36	791.10
416.55	807.48
416.74	765.36
416.93	702.16
417.12	765.36
417.31	784.08
417.50	866.00
417.69	819.19
417.88	821.53
418.07	784.08
418.26	725.57
418.45	788.76
418.64	793.44
418.83	847.27
419.02	840.25
419.21	866.00
419.39	777.06
419.58	718.54
419.77	702.16
419.96	851.96
420.15	805.14
420.34	840.25
420.53	844.93
420.72	936.21
420.91	863.66
421.10	814.51
421.29	795.78
421.48	908.13
421.67	898.77
421.86	842.59
422.05	746.63
422.24	669.39
422.43	770.04
422.61	744.29
422.80	807.48
422.99	992.39
423.18	802.80
423.37	894.08
423.56	856.64
423.75	826.21
423.94	842.59
424.13	781.74
424.32	760.67
424.50	809.83
424.69	725.57
424.88	823.87
425.07	772.38
425.26	788.76
425.45	823.87
425.64	746.63
425.83	854.30
426.01	833.23
426.20	947.92
426.39	849.61
426.58	833.23
426.77	662.37
426.96	793.44
427.15	725.57
427.33	863.66
427.52	781.74
427.71	821.53
427.90	711.52
428.09	835.57
428.28	765.36
428.46	688.12
428.65	840.25
428.84	788.76
429.03	807.48
429.22	746.63
429.40	732.59
429.59	664.71
429.78	688.12
429.97	615.56
430.16	582.79
430.34	592.16
430.53	622.58
430.72	615.56
430.91	643.65
431.10	795.78
431.28	940.90
431.47	940.90
431.66	891.74
431.85	905.79
432.03	800.46
432.22	739.61
432.41	807.48
432.60	931.53
432.79	961.96
432.97	976.00
433.16	903.45
433.35	873.02
433.54	830.89
433.72	819.19
433.91	812.17
434.10	894.08
434.28	959.62
434.47	954.94
434.66	957.28
434.85	882.38
435.03	985.37
435.22	1301.34
435.41	1654.76
435.59	1781.15
435.78	1437.09
435.97	1188.99
436.16	1137.50
436.34	915.15
436.53	966.64
436.72	1006.43
436.90	917.49
437.09	929.19
437.28	983.02
437.46	910.47
437.65	959.62
437.84	854.30
438.02	880.04
438.21	844.93
438.40	842.59
438.58	901.11
438.77	964.30
438.96	1032.18
439.14	971.32
439.33	1083.67
439.52	994.73
439.70	959.62
439.89	966.64
440.08	929.19
440.26	926.85
440.45	894.08
440.63	1001.75
440.82	1039.20
441.01	1076.65
441.19	1057.92
441.38	961.96
441.57	1001.75
441.75	1057.92
441.94	1118.78
442.12	1081.33
442.31	1114.10
442.50	1128.14
442.68	1020.47
442.87	1135.16
443.05	1069.62
443.24	1135.16
443.43	1109.41
443.61	1104.73
443.80	1144.52
443.98	1069.62
444.17	1074.31
444.35	1050.90
444.54	1088.35
444.73	1226.44
444.91	1036.86
445.10	1057.92
445.28	1074.31
445.47	1027.50
445.65	1034.52
445.84	980.68
446.02	1081.33
446.21	1067.28
446.39	1074.31
446.58	1020.47
446.77	1086.01
446.95	997.07
447.14	1174.95
447.32	1214.74
447.51	1111.75
447.69	1149.20
447.88	1071.97
448.06	1076.65
448.25	1130.48
448.43	1172.61
448.62	999.41
448.80	1074.31
448.99	1158.57
449.17	1142.18
449.36	1123.46
449.54	1153.88
449.73	1100.05
449.91	1226.44
450.10	1128.14
450.28	1303.68
450.46	1291.98
450.65	1231.12
450.83	1151.54
451.02	1158.57
451.20	1191.33
451.39	1137.50
451.57	1170.27
451.76	1146.86
451.94	999.41
452.13	1015.79
452.31	1158.57
452.49	1076.65
452.68	1046.22
452.86	1104.73
453.05	1149.20
453.23	1135.16
453.42	1191.33
453.60	1069.62
453.78	1128.14
453.97	1135.16
454.15	1245.16
454.34	1118.78
454.52	1107.07
454.70	1123.46
454.89	1158.57
455.07	1081.33
455.26	1146.86
455.44	1181.97
455.62	1210.06
455.81	1179.63
455.99	1158.57
456.17	1114.10
456.36	1156.22
456.54	1219.42
456.73	1196.01
456.91	1256.87
457.09	1289.64
457.28	1247.51
457.46	1200.69
457.64	1226.44
457.83	1132.82
458.01	1142.18
458.19	1116.44
458.38	1275.59
458.56	1224.10
458.74	1179.63
458.93	1167.93
459.11	1200.69
459.29	1135.16
459.48	1219.42
459.66	1296.66
459.84	1256.87
460.03	1329.42
460.21	1210.06
460.39	1252.19
460.57	1254.53
460.76	1160.91
460.94	1256.87
461.12	1306.02
461.31	1256.87
461.49	1273.25
461.67	1249.85
461.85	1277.93
462.04	1252.19
462.22	1331.76
462.40	1287.29
462.59	1366.87
462.77	1238.14
462.95	1357.51
463.13	1282.61
463.32	1198.35
463.50	1170.27
463.68	1179.63
463.86	1191.33
464.05	1261.55
464.23	1235.80
464.41	1170.27
464.59	1181.97
464.78	1156.22
464.96	1137.50
465.14	1266.23
465.32	1163.25
465.50	1263.89
465.69	1263.89
465.87	1214.74
466.05	1280.27
466.23	1198.35
466.41	1170.27
466.60	1100.05
466.78	1207.72
466.96	1214.74
467.14	1181.97
467.32	1268.57
467.51	1212.40
467.69	1142.18
467.87	1156.22
468.05	1193.67
468.23	1240.48
468.41	1235.80
468.60	1259.21
468.78	1191.33
468.96	1200.69
469.14	1245.16
469.32	1196.01
469.50	1090.69
469.69	1156.22
469.87	1132.82
470.05	1179.63
470.23	1228.78
470.41	1121.12
470.59	1057.92
470.77	1177.29
470.95	1235.80
471.14	1291.98
471.32	1334.11
471.50	1313.04
471.68	1303.68
471.86	1268.57
472.04	1245.16
472.22	1306.02
472.40	1123.46
472.58	1345.81
472.77	1254.53
472.95	1256.87
473.13	1336.45
473.31	1294.32
473.49	1362.19
473.67	1242.82
473.85	1291.98
474.03	1303.68
474.21	1327.08
474.39	1366.87
474.57	1427.73
474.75	1266.23
474.93	1310.70
475.12	1270.91
475.30	1270.91
475.48	1261.55
475.66	1245.16
475.84	1317.72
476.02	1254.53
476.20	1282.61
476.38	1291.98
476.56	1401.98
476.74	1371.55
476.92	1425.39
477.10	1252.19
477.28	1409.00
477.46	1453.47
477.64	1406.66
477.82	1411.34
478.00	1404.32
478.18	1317.72
478.36	1373.89
478.54	1366.87
478.72	1434.75
478.90	1425.39
479.08	1551.78
479.26	1406.66
479.44	1530.71
479.62	1488.58
479.80	1556.46
479.98	1511.99
480.16	1493.26
480.34	1516.67
480.52	1490.92
480.70	1572.84
480.88	1502.62
481.06	1486.24
481.24	1551.78
481.41	1600.93
481.59	1593.90
481.77	1582.20
481.95	1612.63
482.13	1607.95
482.31	1582.20
482.49	1568.16
482.67	1584.54
482.85	1577.52
483.03	1577.52
483.21	1598.59
483.39	1659.44
483.57	1629.01
483.74	1706.25
483.92	1624.33
484.10	1678.16
484.28	1654.76
484.46	1699.23
484.64	1661.78
484.82	1720.29
485.00	1629.01
485.18	1647.74
485.35	1549.43
485.53	1474.54
485.71	1500.28
485.89	1420.71
486.07	1493.26
486.25	1561.14
486.43	1636.03
486.61	1600.93
486.78	1687.53
486.96	1603.27
487.14	1760.08
487.32	1746.04
487.50	1827.96
487.68	1877.11
487.85	1823.28
488.03	1865.41
488.21	1895.83
488.39	1839.66
488.57	1785.83
488.75	1760.08
488.92	2073.71
489.10	1935.62
489.28	1944.99
489.46	1940.30
489.64	1902.86
489.81	2005.84
489.99	1980.09
490.17	1947.33
490.35	2090.10
490.53	2001.16
490.70	1949.67
490.88	2069.03
491.06	1984.77
491.24	2040.95
491.41	2003.50
491.59	1842.00
491.77	1839.66
491.95	1926.26
492.13	1935.62
492.30	1947.33
492.48	2064.35
492.66	2113.50
492.84	2097.12
493.01	2080.74
493.19	1947.33
493.37	1940.30
493.54	2001.16
493.72	1996.48
493.90	2132.23
494.08	2092.44
494.25	2143.93
494.43	2186.06
494.61	2141.59
494.79	2197.76
494.96	2305.43
495.14	2296.07
495.32	2064.35
495.49	2001.16
495.67	2104.14
495.85	2214.15
496.02	2235.21
496.20	2169.68
496.38	2200.10
496.55	2293.72
496.73	2284.36
496.91	2204.78
497.09	2333.51
497.26	2242.23
497.44	2249.25
497.62	2111.16
497.79	2186.06
497.97	2031.58
498.14	2059.67
498.32	2113.50
498.50	2120.53
498.67	2090.10
498.85	2368.62
499.03	2190.74
499.20	2310.11
499.38	2256.28
499.56	2214.15
499.73	2352.24
499.91	2258.62
500.08	2090.10
500.26	2134.57
500.44	2115.84
500.61	2204.78
500.79	2087.76
500.97	2118.18
501.14	2136.91
501.32	2031.58
501.49	2106.48
501.67	2167.34
501.84	2242.23
502.02	2235.21
502.20	2146.27
502.37	2160.31
502.55	2045.63
502.72	2230.53
502.90	2340.54
503.07	2120.53
503.25	2094.78
503.43	2139.25
503.60	2001.16
503.78	1935.62
503.95	2085.42
504.13	2129.89
504.30	2375.64
504.48	2162.66
504.65	2221.17
504.83	2282.02
505.01	2319.47
505.18	2258.62
505.36	2242.23
505.53	2312.45
505.71	2319.47
505.88	2342.88
506.06	2303.09
506.23	2244.57
506.41	2347.56
506.58	2204.78
506.76	2186.06
506.93	2181.38
507.11	2214.15
507.28	2237.55
507.46	2230.53
507.63	2115.84
507.81	2249.25
507.98	2221.17
508.16	2188.40
508.33	2333.51
508.50	2270.32
508.68	2237.55
508.85	2293.72
509.03	2172.02
509.20	2420.11
509.38	2312.45
509.55	2272.66
509.73	2368.62
509.90	2408.41
510.08	2314.79
510.25	2314.79
510.42	2202.44
510.60	2331.17
510.77	2377.98
510.95	2361.60
511.12	2476.29
511.30	2370.96
511.47	2347.56
511.64	2417.77
511.82	2429.48
511.99	2399.05
512.17	2253.94
512.34	2195.42
512.51	2347.56
512.69	2312.45
512.86	2356.92
513.04	2324.15
513.21	2347.56
513.38	2310.11
513.56	2214.15
513.73	2256.28
513.90	2218.83
514.08	2267.98
514.25	2324.15
514.43	2345.22
514.60	2183.72
514.77	2265.64
514.95	2324.15
515.12	2349.90
515.29	2307.77
515.47	2361.60
515.64	2347.56
515.81	2359.26
515.99	2296.07
516.16	2237.55
516.33	2024.56
516.51	1940.30
516.68	1914.56
516.85	1879.45
517.03	1795.19
517.20	2033.93
517.37	2181.38
517.54	2223.51
517.72	2272.66
517.89	2101.80
518.06	1944.99
518.24	2005.84
518.41	2195.42
518.58	2221.17
518.75	2052.65
518.93	2272.66
519.10	2289.04
519.27	2265.64
519.45	2246.91
519.62	2420.11
519.79	2347.56
519.96	2406.07
520.14	2312.45
520.31	2303.09
520.48	2349.90
520.65	2312.45
520.83	2232.87
521.00	2352.24
521.17	2389.69
521.34	2347.56
521.52	2265.64
521.69	2464.58
521.86	2502.03
522.03	2392.03
522.20	2354.58
522.38	2204.78
522.55	2188.40
522.72	2265.64
522.89	2317.13
523.07	2235.21
523.24	2317.13
523.41	2448.20
523.58	2497.35
523.75	2450.54
523.92	2387.35
524.10	2462.24
524.27	2504.37
524.44	2429.48
524.61	2443.52
524.78	2399.05
524.96	2380.32
525.13	2471.61
525.30	2457.56
525.47	2448.20
525.64	2415.43
525.81	2312.45
525.98	2347.56
526.16	2193.08
526.33	2029.24
526.50	2022.22
526.67	2078.40
526.84	2047.97
527.01	2204.78
527.18	2143.93
527.36	2284.36
527.53	2286.70
527.70	2382.67
527.87	2225.85
528.04	2377.98
528.21	2380.32
528.38	2495.01
528.55	2504.37
528.72	2483.31
528.89	2485.65
529.07	2455.22
529.24	2382.67
529.41	2387.35
529.58	2263.30
529.75	2289.04
529.92	2368.62
530.09	2408.41
530.26	2525.44
530.43	2392.03
530.60	2431.82
530.77	2518.42
530.94	2450.54
531.11	2312.45
531.28	2385.01
531.46	2523.10
531.63	2333.51
531.80	2314.79
531.97	2345.22
532.14	2417.77
532.31	2275.00
532.48	2179.04
532.65	2160.31
532.82	2263.30
532.99	2324.15
533.16	2377.98
533.33	2452.88
533.50	2499.69
533.67	2377.98
533.84	2244.57
534.01	2342.88
534.18	2258.62
534.35	2296.07
534.52	2436.50
534.69	2408.41
534.86	2380.32
535.03	2401.39
535.20	2345.22
535.37	2403.73
535.54	2441.18
535.71	2394.37
535.88	2509.05
536.05	2452.88
536.22	2385.01
536.38	2375.64
536.55	2312.45
536.72	2244.57
536.89	2249.25
537.06	2291.38
537.23	2471.61
537.40	2546.50
537.57	2605.02
537.74	2560.55
537.91	2464.58
538.08	2457.56
538.25	2551.18
538.42	2502.03
538.59	2558.21
538.75	2452.88
538.92	2429.48
539.09	2537.14
539.26	2473.95
539.43	2399.05
539.60	2387.35
539.77	2612.04
539.94	2560.55
540.11	2586.29
540.28	2483.31
540.44	2576.93
540.61	2602.68
540.78	2612.04
540.95	2860.13
541.12	3061.42
541.29	3056.74
541.46	3014.61
541.62	3108.23
541.79	3089.51
541.96	3023.97
542.13	3026.31
542.30	2935.03
542.47	3108.23
542.63	2981.84
542.80	2829.71
542.97	2839.07
543.14	2923.33
543.31	2857.79
543.48	2843.75
543.64	2892.90
543.81	2967.80
543.98	2974.82
544.15	2787.58
544.32	2796.94
544.48	2846.09
544.65	2911.63
544.82	2974.82
544.99	2860.13
545.16	2942.05
545.32	2979.50
545.49	3363.35
545.66	4051.47
545.83	4486.81
546.00	4210.62
546.16	3681.66
546.33	3349.31
546.50	3056.74
546.67	2874.18
546.83	2881.20
547.00	2768.85
547.17	2628.42
547.34	2452.88
547.50	2583.95
547.67	2693.96
547.84	2544.16
548.00	2583.95
548.17	2621.40
548.34	2565.23
548.51	2642.46
548.67	2569.91
548.84	2579.27
549.01	2567.57
549.18	2492.67
549.34	2476.29
549.51	2602.68
549.68	2555.86
549.84	2509.05
550.01	2455.22
550.18	2569.91
550.34	2579.27
550.51	2539.48
550.68	2480.97
550.84	2272.66
551.01	2319.47
551.18	2403.73
551.34	2558.21
551.51	2471.61
551.68	2389.69
551.84	2403.73
552.01	2455.22
552.18	2338.20
552.34	2239.89
552.51	2253.94
552.68	2342.88
552.84	2401.39
553.01	2359.26
553.18	2260.96
553.34	2333.51
553.51	2249.25
553.67	2296.07
553.84	2370.96
554.01	2291.38
554.17	2228.19
554.34	2232.87
554.51	2317.13
554.67	2228.19
554.84	2270.32
555.00	2228.19
555.17	2218.83
555.33	2394.37
555.50	2090.10
555.67	2235.21
555.83	2148.61
556.00	2143.93
556.16	2312.45
556.33	2230.53
556.50	2216.49
556.66	2314.79
556.83	2090.10
556.99	2209.47
557.16	2111.16
557.32	2136.91
557.49	2216.49
557.65	2176.70
557.82	2176.70
557.98	2204.78
558.15	2111.16
558.32	2188.40
558.48	2078.40
558.65	2092.44
558.81	2179.04
558.98	2174.36
559.14	2104.14
559.31	2209.47
559.47	2146.27
559.64	2057.33
559.80	2190.74
559.97	2054.99
560.13	2085.42
560.30	2122.87
560.46	2157.97
560.63	2160.31
560.79	2125.21
560.96	2132.23
561.12	2047.97
561.29	2033.93
561.45	1998.82
561.61	2097.12
561.78	2214.15
561.94	2179.04
562.11	2069.03
562.27	2026.90
562.44	2143.93
562.60	2104.14
562.77	2132.23
562.93	2097.12
563.10	2087.76
563.26	2078.40
563.42	2155.63
563.59	2125.21
563.75	1919.24
563.92	2108.82
564.08	2057.33
564.24	2019.88
564.41	2148.61
564.57	2001.16
564.74	2038.61
564.90	2059.67
565.07	2122.87
565.23	2122.87
565.39	2008.18
565.56	1959.03
565.72	1933.28
565.88	2062.01
566.05	1914.56
566.21	2097.12
566.38	1959.03
566.54	2045.63
566.70	2087.76
566.87	2062.01
567.03	1984.77
567.19	2148.61
567.36	2076.06
567.52	1980.09
567.68	2008.18
567.85	1973.07
568.01	1898.17
568.17	1947.33
568.34	1879.45
568.50	1900.52
568.66	1865.41
568.83	1914.56
568.99	1888.81
569.15	1956.69
569.32	1916.90
569.48	1961.37
569.64	1984.77
569.81	1853.70
569.97	1783.49
570.13	1870.09
570.30	1975.41
570.46	1844.34
570.62	1879.45
570.78	1820.94
570.95	1849.02
571.11	1942.64
571.27	1902.86
571.43	1942.64
571.60	1837.32
571.76	1851.36
571.92	1900.52
572.09	1884.13
572.25	1909.88
572.41	1872.43
572.57	1858.39
572.74	1935.62
572.90	1902.86
573.06	2001.16
573.22	1912.22
573.38	2015.20
573.55	1956.69
573.71	1961.37
573.87	1916.90
574.03	1870.09
574.20	1961.37
574.36	1895.83
574.52	1804.55
574.68	1825.62
574.84	1827.96
575.01	1750.72
575.17	1811.57
575.33	1799.87
575.49	1914.56
575.65	1746.04
575.82	1832.64
575.98	1888.81
576.14	1884.13
576.30	1944.99
576.46	2078.40
576.62	2249.25
576.79	2326.49
576.95	2216.49
577.11	2141.59
577.27	2057.33
577.43	2005.84
577.59	1806.89
577.75	1837.32
577.92	1867.75
578.08	1834.98
578.24	1888.81
578.40	1842.00
578.56	2181.38
578.72	2172.02
578.88	2223.51
579.04	2193.08
579.21	2001.16
579.37	2010.52
579.53	1884.13
579.69	1970.73
579.85	1870.09
580.01	1973.07
580.17	2008.18
580.33	1954.35
580.49	1846.68
580.65	1956.69
580.82	1956.69
580.98	1930.94
581.14	1947.33
581.30	2069.03
581.46	1937.96
581.62	2069.03
581.78	2111.16
581.94	2036.27
582.10	1844.34
582.26	1980.09
582.42	1966.05
582.58	2073.71
582.74	2019.88
582.90	2071.37
583.06	2017.54
583.22	1884.13
583.38	1973.07
583.54	1996.48
583.70	2127.55
583.86	2043.29
584.02	2022.22
584.18	2024.56
584.34	2038.61
584.50	2017.54
584.66	2003.50
584.82	1947.33
584.98	1888.81
585.14	1879.45
585.30	1921.58
585.46	1947.33
585.62	1909.88
585.78	1846.68
585.94	1771.79
586.10	1989.46
586.26	1879.45
586.42	1926.26
586.58	2047.97
586.74	1905.20
586.90	2026.90
587.06	1956.69
587.22	2022.22
587.38	1914.56
587.54	1949.67
587.70	1893.49
587.86	1774.13
588.02	1694.55
588.18	1593.90
588.34	1579.86
588.49	1460.49
588.65	1387.94
588.81	1434.75
588.97	1392.62
589.13	1357.51
589.29	1411.34
589.45	1387.94
589.61	1418.36
589.77	1502.62
589.93	1423.05
590.08	1523.69
590.24	1584.54
590.40	1540.07
590.56	1514.33
590.72	1516.67
590.88	1610.29
591.04	1610.29
591.20	1561.14
591.35	1544.75
591.51	1633.69
591.67	1535.39
591.83	1568.16
591.99	1659.44
592.15	1708.59
592.31	1706.25
592.46	1724.97
592.62	1682.85
592.78	1724.97
592.94	1769.44
593.10	1921.58
593.26	1788.17
593.41	1811.57
593.57	1804.55
593.73	1664.12
593.89	1591.56
594.05	1514.33
594.20	1533.05
594.36	1558.80
594.52	1502.62
594.68	1509.65
594.84	1516.67
594.99	1533.05
595.15	1516.67
595.31	1572.84
595.47	1624.33
595.62	1666.46
595.78	1729.66
595.94	1626.67
596.10	1750.72
596.25	1643.06
596.41	1687.53
596.57	1666.46
596.73	1645.40
596.88	1717.95
597.04	1605.61
597.20	1554.12
597.36	1540.07
597.51	1570.50
597.67	1591.56
597.83	1657.10
597.99	1647.74
598.14	1629.01
598.30	1626.67
598.46	1537.73
598.61	1640.72
598.77	1577.52
598.93	1664.12
599.09	1610.29
599.24	1762.42
599.40	1664.12
599.56	1668.80
599.71	1732.00
599.87	1703.91
600.03	1750.72
600.18	1760.08
