SpectraSuite Data File
++++++++++++++++++++++++++++++++++++
Date: Fri Oct 04 11:42:17 GMT-05:00 2013
User: price-jones
Dark Spectrum Present: No
Reference Spectrum Present: No
Number of Sampled Component Spectra: 1
Spectrometers: USB2+H05261
Integration Time (usec): 100000 (USB2+H05261)
Spectra Averaged: 1 (USB2+H05261)
Boxcar Smoothing: 0 (USB2+H05261)
Correct for Electrical Dark: No (USB2+H05261)
Strobe/Lamp Enabled: No (USB2+H05261)
Correct for Detector Non-linearity: No (USB2+H05261)
Correct for Stray Light: No (USB2+H05261)
Number of Pixels in Processed Spectrum: 2048
>>>>>Begin Processed Spectral Data<<<<<
365.73	65.54
365.92	65.54
366.12	65.54
366.32	0.00
366.52	0.00
366.72	0.00
366.91	0.00
367.11	0.00
367.31	0.00
367.51	0.00
367.70	0.00
367.90	0.00
368.10	0.00
368.30	0.00
368.49	0.00
368.69	0.00
368.89	0.00
369.09	0.00
369.28	0.00
369.48	0.00
369.68	0.00
369.87	0.00
370.07	0.00
370.27	51.49
370.47	128.73
370.66	475.13
370.86	582.79
371.06	669.39
371.25	641.31
371.45	566.41
371.65	617.90
371.84	627.26
372.04	596.84
372.24	634.29
372.44	697.48
372.63	641.31
372.83	767.70
373.03	622.58
373.22	538.32
373.42	615.56
373.62	660.03
373.81	643.65
374.01	704.50
374.21	664.71
374.40	550.03
374.60	674.07
374.79	697.48
374.99	734.93
375.19	809.83
375.38	770.04
375.58	802.80
375.78	800.46
375.97	760.67
376.17	880.04
376.37	812.17
376.56	718.54
376.76	823.87
376.95	842.59
377.15	952.60
377.35	938.55
377.54	978.34
377.74	968.98
377.93	947.92
378.13	1043.88
378.33	929.19
378.52	926.85
378.72	910.47
378.91	826.21
379.11	725.57
379.31	770.04
379.50	800.46
379.70	842.59
379.89	936.21
380.09	898.77
380.28	945.58
380.48	1039.20
380.68	917.49
380.87	896.43
381.07	943.24
381.26	833.23
381.46	786.42
381.65	793.44
381.85	723.23
382.04	781.74
382.24	702.16
382.43	662.37
382.63	620.24
382.83	676.41
383.02	669.39
383.22	617.90
383.41	650.67
383.61	706.84
383.80	807.48
384.00	819.19
384.19	931.53
384.39	926.85
384.58	945.58
384.78	971.32
384.97	990.05
385.17	858.98
385.36	931.53
385.56	931.53
385.75	800.46
385.95	880.04
386.14	947.92
386.34	1004.09
386.53	999.41
386.72	929.19
386.92	915.15
387.11	903.45
387.31	1039.20
387.50	1036.86
387.70	945.58
387.89	1034.52
388.09	868.34
388.28	924.51
388.48	894.08
388.67	1067.28
388.86	1114.10
389.06	1069.62
389.25	1165.59
389.45	1266.23
389.64	1139.84
389.84	1263.89
390.03	1219.42
390.22	1167.93
390.42	1303.68
390.61	1284.95
390.81	1289.64
391.00	1406.66
391.19	1446.45
391.39	1284.95
391.58	1313.04
391.78	1261.55
391.97	1151.54
392.16	1036.86
392.36	1001.75
392.55	781.74
392.75	786.42
392.94	615.56
393.13	575.77
393.33	657.69
393.52	833.23
393.71	997.07
393.91	1093.03
394.10	1071.97
394.29	1231.12
394.49	1273.25
394.68	1406.66
394.88	1469.86
395.07	1507.30
395.26	1397.30
395.46	1336.45
395.65	1315.38
395.84	1186.65
396.04	1163.25
396.23	898.77
396.42	816.85
396.62	774.72
396.81	884.72
397.00	1008.77
397.19	1125.80
397.39	1460.49
397.58	1558.80
397.77	1680.50
397.97	1668.80
398.16	1673.48
398.35	1743.70
398.55	1809.23
398.74	1797.53
398.93	1813.92
399.12	1942.64
399.32	1912.22
399.51	1778.81
399.70	2036.27
399.90	1973.07
400.09	1961.37
400.28	1956.69
400.47	1961.37
400.67	2113.50
400.86	2022.22
401.05	2162.66
401.24	2125.21
401.44	2008.18
401.63	2190.74
401.82	2221.17
402.01	2092.44
402.21	2179.04
402.40	2312.45
402.59	2080.74
402.78	2052.65
402.97	1968.39
403.17	2076.06
403.36	2183.72
403.55	2207.13
403.74	2127.55
403.93	2148.61
404.13	2099.46
404.32	2064.35
404.51	2094.78
404.70	2214.15
404.89	2279.68
405.09	2216.49
405.28	2083.08
405.47	2062.01
405.66	2125.21
405.85	2076.06
406.05	2045.63
406.24	2019.88
406.43	2045.63
406.62	2101.80
406.81	2176.70
407.00	2132.23
407.20	2047.97
407.39	2029.24
407.58	2239.89
407.77	2197.76
407.96	2310.11
408.15	2361.60
408.34	2340.54
408.54	2438.84
408.73	2443.52
408.92	2305.43
409.11	2354.58
409.30	2282.02
409.49	2223.51
409.68	2062.01
409.87	2050.31
410.07	2120.53
410.26	2179.04
410.45	2235.21
410.64	2366.28
410.83	2443.52
411.02	2399.05
411.21	2633.10
411.40	2495.01
411.59	2506.71
411.78	2658.85
411.98	2581.61
412.17	2478.63
412.36	2452.88
412.55	2595.65
412.74	2438.84
412.93	2504.37
413.12	2438.84
413.31	2696.30
413.50	2560.55
413.69	2644.81
413.88	2675.23
414.07	2485.65
414.26	2595.65
414.45	2588.63
414.64	2607.36
414.83	2698.64
415.02	2644.81
415.22	2583.95
415.41	2712.68
415.60	2689.28
415.79	2820.35
415.98	2925.67
416.17	2967.80
416.36	2888.22
416.55	2752.47
416.74	2689.28
416.93	2616.72
417.12	2661.19
417.31	2808.64
417.50	2651.83
417.69	2715.02
417.88	2700.98
418.07	2715.02
418.26	2677.57
418.45	2658.85
418.64	2715.02
418.83	2965.46
419.02	2745.45
419.21	2878.86
419.39	2815.66
419.58	2757.15
419.77	2710.34
419.96	2808.64
420.15	2888.22
420.34	2951.42
420.53	2995.89
420.72	3117.59
420.91	3136.32
421.10	2958.44
421.29	3033.33
421.48	2925.67
421.67	3141.00
421.86	3045.04
422.05	2799.28
422.24	2471.61
422.43	2427.14
422.61	2581.61
422.80	2942.05
422.99	2949.08
423.18	2815.66
423.37	2839.07
423.56	2726.72
423.75	2801.62
423.94	2827.37
424.13	2726.72
424.32	2661.19
424.50	2832.05
424.69	2785.24
424.88	2729.06
425.07	2712.68
425.26	2747.79
425.45	2693.96
425.64	2574.59
425.83	2619.06
426.01	2902.26
426.20	2867.16
426.39	2885.88
426.58	2661.19
426.77	2495.01
426.96	2473.95
427.15	2495.01
427.33	2567.57
427.52	2799.28
427.71	2836.73
427.90	2710.34
428.09	2691.62
428.28	2630.76
428.46	2651.83
428.65	2548.84
428.84	2766.51
429.03	2597.99
429.22	2560.55
429.40	2436.50
429.59	2190.74
429.78	1991.80
429.97	1973.07
430.16	2040.95
430.34	2024.56
430.53	2029.24
430.72	2090.10
430.91	2193.08
431.10	2656.51
431.28	2944.39
431.47	3169.09
431.66	3225.26
431.85	3105.89
432.03	2759.49
432.22	2750.13
432.41	2775.88
432.60	2895.24
432.79	3126.96
432.97	3176.11
433.16	3124.62
433.35	2878.86
433.54	2696.30
433.72	2658.85
433.91	2518.42
434.10	2832.05
434.28	3098.87
434.47	3105.89
434.66	3094.19
434.85	2977.16
435.03	3028.65
435.22	3194.83
435.41	3747.20
435.59	3662.94
435.78	3541.23
435.97	3428.88
436.16	3428.88
436.34	3330.58
436.53	3300.16
436.72	3281.43
436.90	3103.55
437.09	3197.17
437.28	3094.19
437.46	3103.55
437.65	3213.56
437.84	3091.85
438.02	2780.56
438.21	2773.53
438.40	2885.88
438.58	3117.59
438.77	3213.56
438.96	3176.11
439.14	3171.43
439.33	3389.10
439.52	3361.01
439.70	3342.28
439.89	3180.79
440.08	3206.53
440.26	3159.72
440.45	3372.71
440.63	3375.05
440.82	3606.77
441.01	3566.98
441.19	3503.78
441.38	3536.55
441.57	3845.50
441.75	3850.18
441.94	3845.50
442.12	3740.18
442.31	3906.35
442.50	3922.74
442.68	3712.09
442.87	3861.88
443.05	3754.22
443.24	3672.30
443.43	3833.80
443.61	3913.38
443.80	3857.20
443.98	3665.28
444.17	3765.92
444.35	3782.31
444.54	3911.04
444.73	4002.32
444.91	3840.82
445.10	3665.28
445.28	3442.93
445.47	3435.91
445.65	3424.20
445.84	3508.46
446.02	3592.72
446.21	3672.30
446.39	3796.35
446.58	3765.92
446.77	3812.73
446.95	3733.15
447.14	3988.27
447.32	4128.70
447.51	3852.52
447.69	3808.05
447.88	3646.55
448.06	3861.88
448.25	3887.63
448.43	4016.36
448.62	3892.31
448.80	3742.52
448.99	3850.18
449.17	3836.14
449.36	3847.84
449.54	4091.26
449.73	3992.95
449.91	4173.18
450.10	4161.47
450.28	4191.90
450.46	4257.43
450.65	4337.01
450.83	4325.31
451.02	4196.58
451.20	4098.28
451.39	4217.65
451.57	4140.41
451.76	4173.18
451.94	4175.52
452.13	3997.64
452.31	3899.33
452.49	3784.65
452.68	3606.77
452.86	3700.39
453.05	3707.41
453.23	3889.97
453.42	3941.46
453.60	3990.61
453.78	4011.68
453.97	3913.38
454.15	4028.06
454.34	3824.44
454.52	3992.95
454.70	3880.61
454.89	3943.80
455.07	3843.16
455.26	3955.51
455.44	4170.83
455.62	4028.06
455.81	4163.81
455.99	4351.06
456.17	4147.43
456.36	4119.34
456.54	4175.52
456.73	4241.05
456.91	4177.86
457.09	4273.82
457.28	4379.14
457.46	4334.67
457.64	4287.86
457.83	4086.58
458.01	3964.87
458.19	4067.85
458.38	4018.70
458.56	4238.71
458.74	4346.37
458.93	4119.34
459.11	4280.84
459.29	4196.58
459.48	4191.90
459.66	4086.58
459.84	4215.30
460.03	4287.86
460.21	4222.33
460.39	4248.07
460.57	4306.59
460.76	4444.68
460.94	4418.93
461.12	4332.33
461.31	4456.38
461.49	4409.57
461.67	4215.30
461.85	4416.59
462.04	4418.93
462.22	4404.89
462.40	4491.49
462.59	4456.38
462.77	4463.40
462.95	4566.39
463.13	4475.10
463.32	4428.29
463.50	4245.73
463.68	4383.82
463.86	4341.69
464.05	4224.67
464.23	4367.44
464.41	4109.98
464.59	4166.15
464.78	4166.15
464.96	4224.67
465.14	4161.47
465.32	4126.36
465.50	4402.55
465.69	4575.75
465.87	4337.01
466.05	4287.86
466.23	4161.47
466.41	4095.94
466.60	3957.85
466.78	4156.79
466.96	4234.03
467.14	4161.47
467.32	4215.30
467.51	4383.82
467.69	3997.64
467.87	4212.96
468.05	4327.65
468.23	4219.99
468.41	4159.13
468.60	4400.21
468.78	4484.47
468.96	4290.20
469.14	4248.07
469.32	4472.76
469.50	4255.09
469.69	4227.01
469.87	4182.54
470.05	3978.91
470.23	4320.63
470.41	4121.68
470.59	4072.53
470.77	4184.88
470.95	4290.20
471.14	4248.07
471.32	4402.55
471.50	4550.00
471.68	4552.34
471.86	4554.68
472.04	4547.66
472.22	4617.88
472.40	4571.07
472.58	4608.51
472.77	4255.09
472.95	4327.65
473.13	4484.47
473.31	4381.48
473.49	4507.87
473.67	4606.17
473.85	4629.58
474.03	4779.37
474.21	4596.81
474.39	4807.46
474.57	4786.40
474.75	4784.06
474.93	4662.35
475.12	4606.17
475.30	4568.73
475.48	4510.21
475.66	4751.29
475.84	4770.01
476.02	4645.96
476.20	4456.38
476.38	4620.22
476.56	4851.93
476.74	4638.94
476.92	4748.95
477.10	4891.72
477.28	4887.04
477.46	4994.70
477.64	5060.24
477.82	5177.26
478.00	5137.48
478.18	4978.32
478.36	5041.51
478.54	4936.19
478.72	4786.40
478.90	5160.88
479.08	5198.33
479.26	5528.35
479.44	5387.91
479.62	5357.49
479.80	5273.23
479.98	5284.93
480.16	5334.08
480.34	5411.32
480.52	5465.15
480.70	5441.75
480.88	5334.08
481.06	5486.22
481.24	5518.98
481.41	5715.59
481.59	5802.19
481.77	5832.62
481.95	5724.95
482.13	5565.79
482.31	5727.29
482.49	5827.93
482.67	5804.53
482.85	5680.48
483.03	5926.24
483.21	6012.84
483.39	6099.44
483.57	5713.25
483.74	5790.49
483.92	6087.73
484.10	5849.00
484.28	6001.13
484.46	6090.07
484.64	6174.33
484.82	6036.24
485.00	5984.75
485.18	5839.64
485.35	5715.59
485.53	5259.18
485.71	4959.60
485.89	4716.18
486.07	4905.76
486.25	5399.62
486.43	5661.76
486.61	5802.19
486.78	5778.78
486.96	5767.08
487.14	5954.32
487.32	6167.31
487.50	6300.72
487.68	6534.78
487.85	6551.16
488.03	6759.47
488.21	6450.52
488.39	6377.96
488.57	6483.28
488.75	6146.25
488.92	6581.59
489.10	6754.79
489.28	7105.87
489.46	7143.32
489.64	7054.37
489.81	7176.08
489.99	7150.34
490.17	6993.52
490.35	7351.62
490.53	7047.35
490.70	7019.27
490.88	6920.96
491.06	7056.72
491.24	7178.42
491.41	7075.44
491.59	6600.31
491.77	6532.44
491.95	6567.54
492.13	6906.92
492.30	7077.78
492.48	7323.54
492.66	7508.44
492.84	7639.51
493.01	7562.27
493.19	7424.18
493.37	7286.09
493.54	7260.34
493.72	7398.43
493.90	7569.29
494.08	7709.72
494.25	7789.30
494.43	7875.90
494.61	7988.25
494.79	7763.56
494.96	7812.71
495.14	7775.26
495.32	7639.51
495.49	7389.07
495.67	7726.11
495.85	8091.23
496.02	8079.53
496.20	7908.67
496.38	7981.23
496.55	8060.80
496.73	7882.92
496.91	8234.00
497.09	8400.18
497.26	8315.92
497.44	8159.11
497.62	8084.21
497.79	7901.65
497.97	7627.81
498.14	7632.49
498.32	7974.21
498.50	8091.23
498.67	8145.06
498.85	8215.28
499.03	8126.34
499.20	8168.47
499.38	8210.60
499.56	8271.45
499.73	8259.75
499.91	8037.40
500.08	8133.36
500.26	7730.79
500.44	7817.39
500.61	7929.74
500.79	7784.62
500.97	7934.42
501.14	7777.60
501.32	7592.70
501.49	7740.15
501.67	7726.11
501.84	7875.90
502.02	7892.29
502.20	8269.11
502.37	8051.44
502.55	8018.68
502.72	8287.84
502.90	8297.20
503.07	8124.00
503.25	7861.86
503.43	7583.34
503.60	7487.37
503.78	7311.83
503.95	7344.60
504.13	7803.35
504.30	8016.33
504.48	8203.58
504.65	8236.35
504.83	8163.79
505.01	8219.96
505.18	8613.17
505.36	8608.49
505.53	8411.89
505.71	8559.34
505.88	8748.92
506.06	8432.95
506.23	8414.23
506.41	8255.07
506.58	8224.64
506.76	8346.35
506.93	8449.33
507.11	8278.47
507.28	8416.57
507.46	8173.15
507.63	8116.98
507.81	7770.58
507.98	7700.36
508.16	8210.60
508.33	8388.48
508.50	8564.02
508.68	8542.96
508.85	8805.10
509.03	8842.54
509.20	8620.19
509.38	8528.91
509.55	8327.63
509.73	8355.71
509.90	8718.50
510.08	8545.30
510.25	8720.84
510.42	8662.32
510.60	8374.44
510.77	8648.28
510.95	8856.59
511.12	8858.93
511.30	8814.46
511.47	8992.34
511.64	9074.26
511.82	8863.61
511.99	8851.91
512.17	8519.55
512.34	8685.73
512.51	8409.54
512.69	8486.78
512.86	8549.98
513.04	8725.52
513.21	8643.60
513.38	8638.92
513.56	8608.49
513.73	8198.90
513.90	8512.53
514.08	8226.98
514.25	8376.78
514.43	8575.72
514.60	8557.00
514.77	8491.46
514.95	8545.30
515.12	8463.38
515.29	8753.60
515.47	8896.38
515.64	8947.87
515.81	8812.12
515.99	8706.79
516.16	8297.20
516.33	7552.91
516.51	7021.61
516.68	6867.13
516.85	6890.54
517.03	7007.56
517.20	7541.21
517.37	8393.16
517.54	8454.02
517.72	8327.63
517.89	7882.92
518.06	7199.49
518.24	7431.20
518.41	7641.85
518.58	8173.15
518.75	8203.58
518.93	8369.76
519.10	8259.75
519.27	8411.89
519.45	8397.84
519.62	8580.40
519.79	8615.51
519.96	8784.03
520.14	8741.90
520.31	8414.23
520.48	8411.89
520.65	8505.51
520.83	8795.73
521.00	8901.06
521.17	8758.28
521.34	8606.15
521.52	8667.00
521.69	8924.46
521.86	9130.43
522.03	9060.21
522.20	8461.04
522.38	8224.64
522.55	8135.70
522.72	8531.25
522.89	8627.21
523.07	8821.48
523.24	8627.21
523.41	8905.74
523.58	9034.47
523.75	8954.89
523.92	9050.85
524.10	9104.68
524.27	9064.89
524.44	8968.93
524.61	9207.67
524.78	8847.22
524.96	8713.81
525.13	8793.39
525.30	8905.74
525.47	9036.81
525.64	9069.58
525.81	8997.02
525.98	8557.00
526.16	8135.70
526.33	7770.58
526.50	7758.88
526.67	7646.53
526.84	7662.91
527.01	7969.52
527.18	8210.60
527.36	8484.44
527.53	8769.99
527.70	8879.99
527.87	8582.74
528.04	8596.79
528.21	8641.26
528.38	8746.58
528.55	9158.52
528.72	9233.41
528.89	9345.76
529.07	9259.16
529.24	8990.00
529.41	9102.34
529.58	8575.72
529.75	8533.59
529.92	8800.41
530.09	8865.95
530.26	8975.95
530.43	9142.13
530.60	9427.68
530.77	9406.61
530.94	9291.93
531.11	9195.96
531.28	9160.86
531.46	9151.49
531.63	8835.52
531.80	9329.38
531.97	8816.80
532.14	8812.12
532.31	8290.18
532.48	8294.86
532.65	8021.02
532.82	8229.32
532.99	8648.28
533.16	8814.46
533.33	9228.73
533.50	8999.36
533.67	8711.47
533.84	8835.52
534.01	8798.07
534.18	8709.13
534.35	9135.11
534.52	8872.97
534.69	8837.86
534.86	9018.08
535.03	9205.33
535.20	9160.86
535.37	9336.40
535.54	9308.31
535.71	9104.68
535.88	8971.27
536.05	8938.51
536.22	8734.88
536.38	8870.63
536.55	8568.70
536.72	8367.42
536.89	8458.70
537.06	8643.60
537.23	8975.95
537.40	8767.65
537.57	8990.00
537.74	9149.15
537.91	8875.31
538.08	9055.53
538.25	9050.85
538.42	8793.39
538.59	8896.38
538.75	8755.94
538.92	8507.85
539.09	8613.17
539.26	8603.81
539.43	8404.86
539.60	8587.43
539.77	8517.21
539.94	8519.55
540.11	8468.06
540.28	8196.56
540.44	8351.03
540.61	8245.71
540.78	8334.65
540.95	8430.61
541.12	8830.84
541.29	9001.70
541.46	8922.12
541.62	8856.59
541.79	8898.72
541.96	8748.92
542.13	8802.75
542.30	8912.76
542.47	8961.91
542.63	8603.81
542.80	8732.54
542.97	8777.01
543.14	8926.80
543.31	8676.37
543.48	8760.63
543.64	9266.18
543.81	9130.43
543.98	9233.41
544.15	9062.55
544.32	8739.56
544.48	8823.82
544.65	8767.65
544.82	9132.77
544.99	9165.54
545.16	8982.98
545.32	8819.14
545.49	9352.78
545.66	9994.09
545.83	9900.47
546.00	9781.10
546.16	9151.49
546.33	8821.48
546.50	9043.83
546.67	8936.17
546.83	8748.92
547.00	8671.68
547.17	8533.59
547.34	8285.50
547.50	8156.77
547.67	8376.78
547.84	8341.67
548.00	8451.67
548.17	8706.79
548.34	8664.66
548.51	8802.75
548.67	8833.18
548.84	8659.98
549.01	8861.27
549.18	8671.68
549.34	8606.15
549.51	8564.02
549.68	8800.41
549.84	8645.94
550.01	8664.66
550.18	8777.01
550.34	8758.28
550.51	8746.58
550.68	8477.42
550.84	8344.01
551.01	8416.57
551.18	8194.22
551.34	8498.49
551.51	8613.17
551.68	8865.95
551.84	8823.82
552.01	8699.77
552.18	8355.71
552.34	8400.18
552.51	8262.09
552.68	8135.70
552.84	8255.07
553.01	8442.31
553.18	8542.96
553.34	8325.29
553.51	8503.17
553.67	8559.34
553.84	8655.30
554.01	8631.90
554.17	8393.16
554.34	8400.18
554.51	8549.98
554.67	8578.06
554.84	8446.99
555.00	8697.43
555.17	8304.22
555.33	8421.25
555.50	8432.95
555.67	8479.76
555.83	8299.54
556.00	8283.16
556.16	8341.67
556.33	8037.40
556.50	8084.21
556.66	8423.59
556.83	8105.28
556.99	8023.36
557.16	8037.40
557.32	8191.88
557.49	8074.85
557.65	8304.22
557.82	8105.28
557.98	8212.94
558.15	8116.98
558.32	8114.64
558.48	7683.98
558.65	7550.57
558.81	7826.75
558.98	7719.09
559.14	7932.08
559.31	7801.01
559.47	7868.88
559.64	7962.50
559.80	7976.55
559.97	7777.60
560.13	7801.01
560.30	8147.40
560.46	8226.98
560.63	8222.30
560.79	8226.98
560.96	8250.39
561.12	7974.21
561.29	7648.87
561.45	7693.34
561.61	7808.03
561.78	7983.57
561.94	7920.37
562.11	7948.46
562.27	7894.63
562.44	7969.52
562.60	7941.44
562.77	7981.23
562.93	8056.12
563.10	8184.85
563.26	7854.84
563.42	8145.06
563.59	7875.90
563.75	7695.68
563.92	7885.26
564.08	7765.90
564.24	7899.31
564.41	7962.50
564.57	7822.07
564.74	7674.62
564.90	7950.80
565.07	7836.11
565.23	7772.92
565.39	7510.78
565.56	7452.27
565.72	7386.73
565.88	7625.47
566.05	7520.14
566.21	7417.16
566.38	7679.30
566.54	7618.44
566.70	7700.36
566.87	7812.71
567.03	7857.18
567.19	7913.35
567.36	7480.35
567.52	7566.95
567.68	7499.08
567.85	7250.98
568.01	7307.15
568.17	7166.72
568.34	7030.97
568.50	7201.83
568.66	7005.22
568.83	7129.27
568.99	7204.17
569.15	7288.43
569.32	7288.43
569.48	7187.79
569.64	7250.98
569.81	6993.52
569.97	7204.17
570.13	7119.91
570.30	7178.42
570.46	7007.56
570.62	7016.93
570.78	6881.18
570.95	6913.94
571.11	7103.53
571.27	7028.63
571.43	7042.67
571.60	7084.80
571.76	7171.40
571.92	7197.15
572.09	7337.58
572.25	7375.03
572.41	7185.44
572.57	7133.95
572.74	7246.30
572.90	7143.32
573.06	7169.06
573.22	7197.15
573.38	7232.26
573.55	7145.66
573.71	7159.70
573.87	7201.83
574.03	7066.08
574.20	6998.20
574.36	7019.27
574.52	7026.29
574.68	6944.37
574.84	7000.54
575.01	7028.63
575.17	6820.32
575.33	6913.94
575.49	7000.54
575.65	7117.57
575.82	7183.10
575.98	6846.07
576.14	6960.75
576.30	6895.22
576.46	7194.81
576.62	7148.00
576.79	7227.57
576.95	7180.76
577.11	6970.12
577.27	6918.62
577.43	7075.44
577.59	6927.99
577.75	6913.94
577.92	6764.15
578.08	6555.84
578.24	6502.01
578.40	6654.14
578.56	7005.22
578.72	6951.39
578.88	7115.23
579.04	7035.65
579.21	7124.59
579.37	6799.26
579.53	6862.45
579.69	7016.93
579.85	7087.14
580.01	7098.84
580.17	7073.10
580.33	6904.58
580.49	6843.73
580.65	6930.33
580.82	6923.30
580.98	6963.09
581.14	7007.56
581.30	7152.68
581.46	6874.15
581.62	7080.12
581.78	7164.38
581.94	7283.75
582.10	6993.52
582.26	7084.80
582.42	7030.97
582.58	7119.91
582.74	7126.93
582.90	7194.81
583.06	7234.60
583.22	7045.01
583.38	6890.54
583.54	7126.93
583.70	7082.46
583.86	7042.67
584.02	7007.56
584.18	7084.80
584.34	7040.33
584.50	6977.14
584.66	7033.31
584.82	6911.60
584.98	6801.60
585.14	6670.53
585.30	6604.99
585.46	6628.40
585.62	6445.84
585.78	6604.99
585.94	6516.05
586.10	6677.55
586.26	6628.40
586.42	6768.83
586.58	6796.92
586.74	6686.91
586.90	6810.96
587.06	6722.02
587.22	6679.89
587.38	6459.88
587.54	6464.56
587.70	6338.17
587.86	6183.70
588.02	5928.58
588.18	5699.20
588.34	5619.63
588.49	5195.99
588.65	4891.72
588.81	4933.85
588.97	4830.87
589.13	5001.72
589.29	4915.12
589.45	4711.50
589.61	4847.25
589.77	5088.32
589.93	5313.02
590.08	5490.90
590.24	5680.48
590.40	5769.42
590.56	5696.86
590.72	5575.16
590.88	5771.76
591.04	5701.54
591.20	5673.46
591.35	5636.01
591.51	5568.13
591.67	5460.47
591.83	5420.68
591.99	5483.88
592.15	5523.66
592.31	5628.99
592.46	5898.15
592.62	5870.06
592.78	5764.74
592.94	5797.51
593.10	5884.11
593.26	6017.52
593.41	6174.33
593.57	5914.53
593.73	5799.85
593.89	5542.39
594.05	5350.46
594.20	5219.39
594.36	5177.26
594.52	5207.69
594.68	5238.12
594.84	5313.02
594.99	5516.64
595.15	5591.54
595.31	5802.19
595.47	5720.27
595.62	5706.23
595.78	5762.40
595.94	5769.42
596.10	5991.77
596.25	5895.81
596.41	5844.32
596.57	5640.69
596.73	5713.25
596.88	5865.38
597.04	5844.32
597.20	5750.70
597.36	5593.88
597.51	5746.02
