SpectraSuite Data File
++++++++++++++++++++++++++++++++++++
Date: Fri Oct 04 11:41:43 GMT-05:00 2013
User: price-jones
Dark Spectrum Present: No
Reference Spectrum Present: No
Number of Sampled Component Spectra: 1
Spectrometers: USB2+H05261
Integration Time (usec): 100000 (USB2+H05261)
Spectra Averaged: 1 (USB2+H05261)
Boxcar Smoothing: 0 (USB2+H05261)
Correct for Electrical Dark: No (USB2+H05261)
Strobe/Lamp Enabled: No (USB2+H05261)
Correct for Detector Non-linearity: No (USB2+H05261)
Correct for Stray Light: No (USB2+H05261)
Number of Pixels in Processed Spectrum: 2048
>>>>>Begin Processed Spectral Data<<<<<
365.73	58.51
365.92	58.51
366.12	58.51
366.32	14.04
366.52	0.00
366.72	0.00
366.91	0.00
367.11	0.00
367.31	0.00
367.51	0.00
367.70	7.02
367.90	0.00
368.10	0.00
368.30	25.75
368.49	0.00
368.69	0.00
368.89	0.00
369.09	0.00
369.28	0.00
369.48	0.00
369.68	0.00
369.87	0.00
370.07	67.88
370.27	77.24
370.47	9.36
370.66	0.00
370.86	16.38
371.06	51.49
371.25	142.77
371.45	72.56
371.65	152.13
371.84	74.90
372.04	65.54
372.24	189.58
372.44	131.07
372.63	147.45
372.83	163.84
373.03	51.49
373.22	81.92
373.42	168.52
373.62	100.64
373.81	124.05
374.01	159.16
374.21	117.03
374.40	102.98
374.60	138.09
374.79	140.43
374.99	74.90
375.19	88.94
375.38	133.41
375.58	93.62
375.78	170.86
375.97	170.86
376.17	196.60
376.37	210.65
376.56	121.71
376.76	74.90
376.95	105.32
377.15	133.41
377.35	121.71
377.54	135.75
377.74	105.32
377.93	93.62
378.13	128.73
378.33	79.58
378.52	166.18
378.72	203.63
378.91	170.86
379.11	95.96
379.31	128.73
379.50	145.11
379.70	175.54
379.89	121.71
380.09	147.45
380.28	133.41
380.48	194.26
380.68	117.03
380.87	117.03
381.07	159.16
381.26	77.24
381.46	152.13
381.65	100.64
381.85	133.41
382.04	161.50
382.24	198.95
382.43	105.32
382.63	100.64
382.83	72.56
383.02	100.64
383.22	257.46
383.41	142.77
383.61	140.43
383.80	135.75
384.00	124.05
384.19	63.19
384.39	79.58
384.58	42.13
384.78	102.98
384.97	56.17
385.17	147.45
385.36	245.76
385.56	161.50
385.75	77.24
385.95	93.62
386.14	135.75
386.34	112.35
386.53	110.01
386.72	152.13
386.92	194.26
387.11	152.13
387.31	110.01
387.50	91.28
387.70	102.98
387.89	98.30
388.09	154.48
388.28	65.54
388.48	107.66
388.67	170.86
388.86	135.75
389.06	210.65
389.25	175.54
389.45	107.66
389.64	154.48
389.84	161.50
390.03	124.05
390.22	154.48
390.42	154.48
390.61	107.66
390.81	95.96
391.00	100.64
391.19	124.05
391.39	149.79
391.58	156.82
391.78	86.60
391.97	128.73
392.16	131.07
392.36	114.69
392.55	184.90
392.75	131.07
392.94	152.13
393.13	154.48
393.33	170.86
393.52	180.22
393.71	145.11
393.91	93.62
394.10	124.05
394.29	131.07
394.49	112.35
394.68	145.11
394.88	95.96
395.07	110.01
395.26	110.01
395.46	121.71
395.65	124.05
395.84	142.77
396.04	257.46
396.23	184.90
396.42	105.32
396.62	91.28
396.81	180.22
397.00	180.22
397.19	161.50
397.39	140.43
397.58	177.88
397.77	77.24
397.97	154.48
398.16	147.45
398.35	152.13
398.55	91.28
398.74	161.50
398.93	175.54
399.12	124.05
399.32	70.22
399.51	93.62
399.70	173.20
399.90	177.88
400.09	198.95
400.28	149.79
400.47	191.92
400.67	234.05
400.86	189.58
401.05	198.95
401.24	220.01
401.44	168.52
401.63	220.01
401.82	196.60
402.01	140.43
402.21	203.63
402.40	159.16
402.59	156.82
402.78	110.01
402.97	201.29
403.17	269.16
403.36	241.08
403.55	433.00
403.74	784.08
403.93	2373.30
404.13	5872.40
404.32	10153.24
404.51	11178.40
404.70	7066.08
404.89	2609.70
405.09	709.18
405.28	304.27
405.47	301.93
405.66	187.24
405.85	306.61
406.05	257.46
406.24	194.26
406.43	220.01
406.62	278.52
406.81	327.68
407.00	456.40
407.20	702.16
407.39	1306.02
407.58	1565.82
407.77	1249.85
407.96	620.24
408.15	308.95
408.34	243.42
408.54	224.69
408.73	170.86
408.92	269.16
409.11	262.14
409.30	245.76
409.49	163.84
409.68	194.26
409.87	269.16
410.07	177.88
410.26	224.69
410.45	255.12
410.64	234.05
410.83	257.46
411.02	180.22
411.21	243.42
411.40	198.95
411.59	248.10
411.78	318.31
411.98	271.50
412.17	292.57
412.36	234.05
412.55	290.23
412.74	238.73
412.93	308.95
413.12	238.73
413.31	205.97
413.50	285.55
413.69	234.05
413.88	320.65
414.07	198.95
414.26	257.46
414.45	264.48
414.64	276.18
414.83	238.73
415.02	222.35
415.22	283.20
415.41	304.27
415.60	320.65
415.79	280.86
415.98	196.60
416.17	301.93
416.36	325.33
416.55	238.73
416.74	369.80
416.93	311.29
417.12	330.02
417.31	369.80
417.50	315.97
417.69	395.55
417.88	320.65
418.07	372.15
418.26	229.37
418.45	257.46
418.64	395.55
418.83	327.68
419.02	294.91
419.21	327.68
419.39	215.33
419.58	278.52
419.77	337.04
419.96	318.31
420.15	327.68
420.34	245.76
420.53	332.36
420.72	358.10
420.91	351.08
421.10	313.63
421.29	332.36
421.48	369.80
421.67	390.87
421.86	372.15
422.05	383.85
422.24	339.38
422.43	374.49
422.61	346.40
422.80	313.63
422.99	339.38
423.18	381.51
423.37	402.57
423.56	421.30
423.75	374.49
423.94	416.62
424.13	278.52
424.32	351.08
424.50	372.15
424.69	390.87
424.88	388.53
425.07	440.02
425.26	404.91
425.45	435.34
425.64	353.42
425.83	390.87
426.01	456.40
426.20	393.21
426.39	351.08
426.58	383.85
426.77	395.55
426.96	456.40
427.15	416.62
427.33	348.74
427.52	489.17
427.71	416.62
427.90	482.15
428.09	428.32
428.28	294.91
428.46	463.43
428.65	404.91
428.84	430.66
429.03	503.22
429.22	514.92
429.40	430.66
429.59	418.96
429.78	470.45
429.97	482.15
430.16	376.83
430.34	491.51
430.53	514.92
430.72	496.19
430.91	477.47
431.10	423.64
431.28	456.40
431.47	521.94
431.66	557.05
431.85	582.79
432.03	575.77
432.22	662.37
432.41	543.00
432.60	603.86
432.79	589.82
432.97	631.94
433.16	641.31
433.35	718.54
433.54	837.91
433.72	1011.11
433.91	929.19
434.10	926.85
434.28	1137.50
434.47	1397.30
434.66	1540.07
434.85	1792.85
435.03	4133.39
435.22	14265.57
435.41	36552.15
435.59	51363.06
435.78	40837.67
435.97	18324.05
436.16	6738.40
436.34	2157.97
436.53	1301.34
436.72	1029.84
436.90	861.32
437.09	753.65
437.28	678.76
437.46	779.40
437.65	739.61
437.84	718.54
438.02	655.35
438.21	655.35
438.40	641.31
438.58	601.52
438.77	631.94
438.96	601.52
439.14	662.37
439.33	557.05
439.52	601.52
439.70	627.26
439.89	697.48
440.08	615.56
440.26	662.37
440.45	543.00
440.63	613.22
440.82	681.10
441.01	608.54
441.19	578.11
441.38	617.90
441.57	631.94
441.75	592.16
441.94	706.84
442.12	538.32
442.31	683.44
442.50	713.86
442.68	711.52
442.87	636.63
443.05	664.71
443.24	608.54
443.43	559.39
443.61	601.52
443.80	657.69
443.98	613.22
444.17	592.16
444.35	664.71
444.54	617.90
444.73	636.63
444.91	655.35
445.10	608.54
445.28	610.88
445.47	617.90
445.65	624.92
445.84	571.09
446.02	653.01
446.21	620.24
446.39	648.33
446.58	533.64
446.77	603.86
446.95	667.05
447.14	636.63
447.32	653.01
447.51	697.48
447.69	615.56
447.88	601.52
448.06	645.99
448.25	662.37
448.43	587.47
448.62	540.66
448.80	667.05
448.99	681.10
449.17	592.16
449.36	580.45
449.54	631.94
449.73	550.03
449.91	615.56
450.10	606.20
450.28	725.57
450.46	573.43
450.65	617.90
450.83	615.56
451.02	624.92
451.20	622.58
451.39	624.92
451.57	634.29
451.76	585.13
451.94	603.86
452.13	674.07
452.31	592.16
452.49	559.39
452.68	566.41
452.86	524.28
453.05	592.16
453.23	627.26
453.42	664.71
453.60	620.24
453.78	582.79
453.97	507.90
454.15	610.88
454.34	601.52
454.52	540.66
454.70	585.13
454.89	554.71
455.07	645.99
455.26	641.31
455.44	622.58
455.62	589.82
455.81	617.90
455.99	566.41
456.17	568.75
456.36	568.75
456.54	550.03
456.73	535.98
456.91	554.71
457.09	561.73
457.28	690.46
457.46	643.65
457.64	592.16
457.83	564.07
458.01	559.39
458.19	634.29
458.38	596.84
458.56	667.05
458.74	627.26
458.93	580.45
459.11	636.63
459.29	587.47
459.48	734.93
459.66	683.44
459.84	674.07
460.03	664.71
460.21	540.66
460.39	568.75
460.57	606.20
460.76	500.87
460.94	550.03
461.12	599.18
461.31	636.63
461.49	603.86
461.67	559.39
461.85	517.26
462.04	610.88
462.22	772.38
462.40	667.05
462.59	545.34
462.77	540.66
462.95	587.47
463.13	575.77
463.32	585.13
463.50	559.39
463.68	592.16
463.86	589.82
464.05	545.34
464.23	657.69
464.41	538.32
464.59	589.82
464.78	641.31
464.96	559.39
465.14	671.73
465.32	575.77
465.50	547.69
465.69	564.07
465.87	486.83
466.05	477.47
466.23	578.11
466.41	624.92
466.60	641.31
466.78	702.16
466.96	706.84
467.14	638.97
467.32	641.31
467.51	603.86
467.69	594.50
467.87	594.50
468.05	610.88
468.23	566.41
468.41	543.00
468.60	578.11
468.78	510.24
468.96	514.92
469.14	512.58
469.32	573.43
469.50	573.43
469.69	629.60
469.87	566.41
470.05	543.00
470.23	531.30
470.41	547.69
470.59	482.15
470.77	472.79
470.95	613.22
471.14	517.26
471.32	496.19
471.50	564.07
471.68	578.11
471.86	535.98
472.04	510.24
472.22	557.05
472.40	507.90
472.58	531.30
472.77	617.90
472.95	496.19
473.13	641.31
473.31	561.73
473.49	596.84
473.67	641.31
473.85	524.28
474.03	559.39
474.21	587.47
474.39	528.96
474.57	608.54
474.75	559.39
474.93	505.56
475.12	477.47
475.30	552.37
475.48	594.50
475.66	578.11
475.84	559.39
476.02	582.79
476.20	524.28
476.38	521.94
476.56	561.73
476.74	599.18
476.92	528.96
477.10	528.96
477.28	620.24
477.46	599.18
477.64	634.29
477.82	627.26
478.00	580.45
478.18	545.34
478.36	692.80
478.54	683.44
478.72	636.63
478.90	669.39
479.08	702.16
479.26	730.25
479.44	706.84
479.62	723.23
479.80	788.76
479.98	868.34
480.16	856.64
480.34	875.36
480.52	772.38
480.70	856.64
480.88	922.17
481.06	990.05
481.24	1088.35
481.41	1111.75
481.59	1104.73
481.77	1235.80
481.95	1252.19
482.13	1409.00
482.31	1322.40
482.49	1603.27
482.67	1607.95
482.85	1827.96
483.03	1839.66
483.21	2094.78
483.39	2155.63
483.57	2160.31
483.74	2466.92
483.92	2478.63
484.10	2705.66
484.28	2899.92
484.46	2953.76
484.64	3255.69
484.82	3316.54
485.00	3459.31
485.18	3719.11
485.35	3892.31
485.53	4109.98
485.71	4215.30
485.89	4550.00
486.07	4514.89
486.25	4573.41
486.43	4828.53
486.61	4671.71
486.78	4678.73
486.96	4667.03
487.14	4751.29
487.32	4615.54
487.50	4690.43
487.68	4580.43
487.85	4660.01
488.03	4484.47
488.21	4463.40
488.39	4512.55
488.57	4304.25
488.75	4222.33
488.92	4287.86
489.10	3929.76
489.28	3896.99
489.46	3819.75
489.64	3716.77
489.81	3712.09
489.99	3625.49
490.17	3459.31
490.35	3658.26
490.53	3468.67
490.70	3449.95
490.88	3426.54
491.06	3712.09
491.24	3880.61
491.41	3992.95
491.59	3817.41
491.77	3445.27
491.95	3431.23
492.13	3262.71
492.30	3218.24
492.48	3138.66
492.66	3124.62
492.84	3026.31
493.01	3014.61
493.19	2972.48
493.37	2925.67
493.54	2953.76
493.72	2930.35
493.90	2771.19
494.08	2745.45
494.25	2768.85
494.43	2656.51
494.61	2548.84
494.79	2581.61
494.96	2689.28
495.14	2487.99
495.32	2408.41
495.49	2438.84
495.67	2427.14
495.85	2370.96
496.02	2352.24
496.20	2291.38
496.38	2354.58
496.55	2232.87
496.73	2237.55
496.91	2172.02
497.09	2106.48
497.26	2092.44
497.44	2059.67
497.62	2069.03
497.79	2015.20
497.97	1856.04
498.14	1996.48
498.32	1804.55
498.50	1863.07
498.67	1713.27
498.85	1743.70
499.03	1722.63
499.20	1570.50
499.38	1586.88
499.56	1619.65
499.73	1563.48
499.91	1650.08
500.08	1490.92
500.26	1504.96
500.44	1294.32
500.61	1268.57
500.79	1277.93
500.97	1205.38
501.14	1261.55
501.32	1135.16
501.49	1107.07
501.67	1060.26
501.84	1100.05
502.02	992.39
502.20	1076.65
502.37	1064.94
502.55	987.71
502.72	812.17
502.90	887.06
503.07	887.06
503.25	1039.20
503.43	856.64
503.60	868.34
503.78	800.46
503.95	812.17
504.13	847.27
504.30	772.38
504.48	760.67
504.65	830.89
504.83	681.10
505.01	657.69
505.18	734.93
505.36	730.25
505.53	727.91
505.71	697.48
505.88	725.57
506.06	629.60
506.23	589.82
506.41	638.97
506.58	713.86
506.76	617.90
506.93	589.82
507.11	587.47
507.28	627.26
507.46	573.43
507.63	608.54
507.81	655.35
507.98	624.92
508.16	636.63
508.33	608.54
508.50	648.33
508.68	641.31
508.85	660.03
509.03	676.41
509.20	716.20
509.38	650.67
509.55	664.71
509.73	634.29
509.90	690.46
510.08	641.31
510.25	613.22
510.42	489.17
510.60	538.32
510.77	519.60
510.95	498.53
511.12	489.17
511.30	578.11
511.47	535.98
511.64	503.22
511.82	559.39
511.99	547.69
512.17	521.94
512.34	496.19
512.51	521.94
512.69	550.03
512.86	545.34
513.04	475.13
513.21	550.03
513.38	512.58
513.56	505.56
513.73	435.34
513.90	500.87
514.08	479.81
514.25	472.79
514.43	521.94
514.60	489.17
514.77	456.40
514.95	489.17
515.12	433.00
515.29	425.98
515.47	418.96
515.64	449.38
515.81	505.56
515.99	503.22
516.16	456.40
516.33	638.97
516.51	507.90
516.68	463.43
516.85	463.43
517.03	437.68
517.20	479.81
517.37	444.70
517.54	418.96
517.72	416.62
517.89	325.33
518.06	402.57
518.24	463.43
518.41	449.38
518.58	447.04
518.75	388.53
518.93	454.06
519.10	416.62
519.27	482.15
519.45	458.74
519.62	449.38
519.79	428.32
519.96	428.32
520.14	500.87
520.31	383.85
520.48	339.38
520.65	400.23
520.83	393.21
521.00	447.04
521.17	505.56
521.34	376.83
521.52	407.25
521.69	402.57
521.86	423.64
522.03	503.22
522.20	449.38
522.38	388.53
522.55	458.74
522.72	425.98
522.89	524.28
523.07	400.23
523.24	458.74
523.41	456.40
523.58	330.02
523.75	402.57
523.92	411.93
524.10	454.06
524.27	416.62
524.44	440.02
524.61	524.28
524.78	468.11
524.96	397.89
525.13	456.40
525.30	547.69
525.47	486.83
525.64	505.56
525.81	500.87
525.98	503.22
526.16	437.68
526.33	479.81
526.50	512.58
526.67	435.34
526.84	468.11
527.01	491.51
527.18	519.60
527.36	578.11
527.53	622.58
527.70	688.12
527.87	599.18
528.04	599.18
528.21	538.32
528.38	442.36
528.55	575.77
528.72	566.41
528.89	568.75
529.07	526.62
529.24	601.52
529.41	559.39
529.58	629.60
529.75	622.58
529.92	638.97
530.09	657.69
530.26	650.67
530.43	660.03
530.60	697.48
530.77	685.78
530.94	751.31
531.11	793.44
531.28	660.03
531.46	779.40
531.63	786.42
531.80	933.87
531.97	943.24
532.14	1029.84
532.31	1282.61
532.48	1544.75
532.65	1722.63
532.82	2036.27
532.99	2249.25
533.16	2750.13
533.33	2986.52
533.50	2799.28
533.67	2239.89
533.84	1942.64
534.01	1760.08
534.18	1666.46
534.35	1561.14
534.52	1600.93
534.69	1633.69
534.86	1626.67
535.03	1727.32
535.20	1825.62
535.37	1849.02
535.54	1963.71
535.71	2090.10
535.88	2319.47
536.05	2279.68
536.22	2492.67
536.38	2719.70
536.55	3066.10
536.72	3332.92
536.89	3630.17
537.06	4264.46
537.23	4793.42
537.40	5282.59
537.57	5420.68
537.74	5916.87
537.91	6029.22
538.08	6228.17
538.25	6349.87
538.42	6541.80
538.59	6803.94
538.75	6881.18
538.92	7250.98
539.09	7754.19
539.26	8430.61
539.43	9907.49
539.60	10942.00
539.77	12514.84
539.94	14223.44
540.11	15782.23
540.28	17221.66
540.44	19019.19
540.61	20989.92
540.78	23634.73
540.95	28353.25
541.12	34174.16
541.29	39470.79
541.46	41748.14
541.62	41862.82
541.79	40514.67
541.96	37102.17
542.13	34782.70
542.30	31878.10
542.47	29979.92
542.63	28671.56
542.80	27501.29
542.97	27021.48
543.14	27175.96
543.31	27012.12
543.48	27234.47
543.64	27501.29
543.81	27524.70
543.98	27463.85
544.15	28030.26
544.32	28402.40
544.48	28273.67
544.65	27384.27
544.82	27239.15
544.99	27414.69
545.16	27812.59
545.32	29214.57
545.49	41598.34
545.66	60966.27
545.83	65535.00
546.00	65535.00
546.16	63547.89
546.33	47459.04
546.50	36514.70
546.67	28519.43
546.83	25223.95
547.00	24559.24
547.17	23161.94
547.34	22155.51
547.50	21254.40
547.67	20458.62
547.84	19852.42
548.00	18539.38
548.17	18476.19
548.34	17369.12
548.51	16870.58
548.67	16070.12
548.84	15442.85
549.01	14363.87
549.18	13694.47
549.34	13343.39
549.51	12798.05
549.68	12276.11
549.84	11793.96
550.01	10869.45
550.18	10483.26
550.34	10326.44
550.51	9877.06
550.68	9242.78
550.84	8706.79
551.01	8271.45
551.18	7857.18
551.34	7522.48
551.51	7143.32
551.68	6937.35
551.84	6649.46
552.01	6504.35
552.18	6202.42
552.34	5858.36
552.51	5738.99
552.68	5366.85
552.84	5121.09
553.01	4917.47
553.18	4877.68
553.34	4608.51
553.51	4479.79
553.67	4475.10
553.84	4241.05
554.01	3964.87
554.17	3641.87
554.34	3386.76
554.51	3157.38
554.67	2958.44
554.84	2867.16
555.00	2736.09
555.17	2656.51
555.33	2487.99
555.50	2265.64
555.67	2223.51
555.83	2312.45
556.00	2036.27
556.16	2165.00
556.33	1930.94
556.50	1879.45
556.66	1809.23
556.83	1804.55
556.99	1680.50
557.16	1626.67
557.32	1483.90
557.49	1572.84
557.65	1514.33
557.82	1437.09
557.98	1434.75
558.15	1418.36
558.32	1327.08
558.48	1341.13
558.65	1256.87
558.81	1259.21
558.98	1235.80
559.14	1179.63
559.31	1224.10
559.47	1151.54
559.64	1104.73
559.80	1224.10
559.97	1036.86
560.13	1067.28
560.30	1107.07
560.46	1172.61
560.63	1142.18
560.79	950.26
560.96	1076.65
561.12	985.37
561.29	940.90
561.45	1048.56
561.61	1071.97
561.78	1254.53
561.94	1078.99
562.11	1076.65
562.27	1057.92
562.44	1114.10
562.60	1064.94
562.77	966.64
562.93	999.41
563.10	1074.31
563.26	959.62
563.42	940.90
563.59	973.66
563.75	889.40
563.92	1006.43
564.08	990.05
564.24	999.41
564.41	826.21
564.57	884.72
564.74	858.98
564.90	903.45
565.07	828.55
565.23	887.06
565.39	779.40
565.56	821.53
565.72	894.08
565.88	770.04
566.05	821.53
566.21	819.19
566.38	833.23
566.54	744.29
566.70	858.98
566.87	819.19
567.03	823.87
567.19	882.38
567.36	854.30
567.52	840.25
567.68	833.23
567.85	880.04
568.01	760.67
568.17	772.38
568.34	840.25
568.50	1004.09
568.66	837.91
568.83	826.21
568.99	819.19
569.15	751.31
569.32	873.02
569.48	720.88
569.64	763.01
569.81	744.29
569.97	739.61
570.13	690.46
570.30	657.69
570.46	643.65
570.62	554.71
570.78	606.20
570.95	566.41
571.11	662.37
571.27	627.26
571.43	596.84
571.60	580.45
571.76	594.50
571.92	648.33
572.09	580.45
572.25	566.41
572.41	543.00
572.57	578.11
572.74	561.73
572.90	720.88
573.06	641.31
573.22	615.56
573.38	690.46
573.55	681.10
573.71	784.08
573.87	634.29
574.03	650.67
574.20	702.16
574.36	727.91
574.52	692.80
574.68	800.46
574.84	826.21
575.01	821.53
575.17	877.70
575.33	936.21
575.49	1027.50
575.65	1086.01
575.82	1116.44
575.98	1254.53
576.14	1336.45
576.30	2602.68
576.46	7480.35
576.62	15543.50
576.79	23424.08
576.95	16526.52
577.11	9547.05
577.27	6396.68
577.43	4276.16
577.59	2799.28
577.75	2127.55
577.92	1905.20
578.08	1825.62
578.24	1858.39
578.40	2906.95
578.56	7157.36
578.72	14562.81
578.88	21970.61
579.04	15159.65
579.21	9139.79
579.37	6480.94
579.53	5046.20
579.69	4554.68
579.85	5659.42
580.01	7250.98
580.17	7564.61
580.33	6312.42
580.49	5142.16
580.65	4503.19
580.82	4154.45
580.98	3946.14
581.14	4049.13
581.30	4222.33
581.46	4557.02
581.62	4865.97
581.78	5114.07
581.94	5530.69
582.10	5944.96
582.26	6239.87
582.42	6576.91
582.58	6586.27
582.74	6792.23
582.90	7089.48
583.06	6963.09
583.22	6808.62
583.38	7162.04
583.54	6972.46
583.70	7014.59
583.86	6867.13
584.02	6614.35
584.18	6651.80
584.34	6429.45
584.50	6443.49
584.66	6284.34
584.82	6256.25
584.98	6113.48
585.14	5816.23
585.30	6038.58
585.46	5820.91
585.62	5743.67
585.78	5671.12
585.94	5750.70
586.10	5654.73
586.26	6010.50
586.42	6993.52
586.58	8093.57
586.74	10083.03
586.90	12411.86
587.06	13867.67
587.22	14256.20
587.38	12629.53
587.54	10855.40
587.70	9249.80
587.86	7499.08
588.02	6427.11
588.18	5640.69
588.34	4971.30
588.49	4589.79
588.65	4365.10
588.81	4168.49
588.97	3969.55
589.13	3901.67
589.29	3845.50
589.45	3721.45
589.61	3740.18
589.77	3693.37
589.93	3824.44
590.08	4063.17
590.24	4084.23
590.40	4257.43
590.56	4388.50
590.72	4355.74
590.88	4484.47
591.04	4697.46
591.20	4823.84
591.35	5090.67
591.51	5423.02
591.67	5570.48
591.83	5980.07
591.99	6307.74
592.15	6925.65
592.31	7410.14
592.46	8037.40
592.62	9081.28
592.78	9687.48
592.94	10047.92
593.10	10017.49
593.26	9444.06
593.41	8765.31
593.57	7997.61
593.73	6956.07
593.89	6146.25
594.05	5289.61
594.20	4746.61
594.36	4519.57
594.52	3969.55
594.68	3747.20
594.84	3742.52
594.99	3665.28
595.15	3487.40
595.31	3468.67
595.47	3431.23
595.62	3349.31
595.78	3361.01
595.94	3325.90
596.10	3335.26
596.25	3492.08
596.41	3391.44
596.57	3414.84
596.73	3452.29
596.88	3410.16
597.04	3339.94
597.20	3562.30
597.36	3515.48
597.51	3595.06
597.67	3667.62
597.83	3754.22
597.99	4011.68
598.14	4212.96
598.30	4430.63
598.46	4908.10
598.61	5203.01
598.77	5394.93
598.93	5713.25
599.09	5710.91
599.24	5722.61
599.40	5905.17
599.56	5802.19
599.71	5418.34
599.87	5085.98
600.03	4856.61
600.18	4449.36
600.34	4184.88
600.50	4018.70
600.65	3606.77
600.81	3468.67
600.97	3379.73
601.12	3073.12
601.28	3047.38
601.44	2825.03
601.59	2801.62
601.75	2733.75
601.91	2628.42
602.06	2380.32
602.22	2424.80
602.37	2225.85
602.53	2319.47
602.69	2200.10
602.84	2169.68
603.00	2181.38
603.16	2256.28
603.31	2246.91
603.47	2263.30
603.62	2399.05
603.78	2394.37
603.94	2399.05
604.09	2539.48
604.25	2621.40
604.40	2555.86
