SpectraSuite Data File
++++++++++++++++++++++++++++++++++++
Date: Fri Oct 04 11:41:54 GMT-05:00 2013
User: price-jones
Dark Spectrum Present: No
Reference Spectrum Present: No
Number of Sampled Component Spectra: 1
Spectrometers: USB2+H05261
Integration Time (usec): 100000 (USB2+H05261)
Spectra Averaged: 1 (USB2+H05261)
Boxcar Smoothing: 0 (USB2+H05261)
Correct for Electrical Dark: No (USB2+H05261)
Strobe/Lamp Enabled: No (USB2+H05261)
Correct for Detector Non-linearity: No (USB2+H05261)
Correct for Stray Light: No (USB2+H05261)
Number of Pixels in Processed Spectrum: 2048
>>>>>Begin Processed Spectral Data<<<<<
365.73	4.68
365.92	4.68
366.12	4.68
366.32	0.00
366.52	0.00
366.72	0.00
366.91	0.00
367.11	0.00
367.31	0.00
367.51	0.00
367.70	0.00
367.90	0.00
368.10	0.00
368.30	0.00
368.49	0.00
368.69	0.00
368.89	0.00
369.09	0.00
369.28	0.00
369.48	0.00
369.68	0.00
369.87	49.15
370.07	21.06
370.27	65.54
370.47	0.00
370.66	65.54
370.86	70.22
371.06	102.98
371.25	147.45
371.45	93.62
371.65	84.26
371.84	11.70
372.04	44.47
372.24	110.01
372.44	156.82
372.63	117.03
372.83	154.48
373.03	95.96
373.22	124.05
373.42	105.32
373.62	98.30
373.81	23.41
374.01	56.17
374.21	173.20
374.40	131.07
374.60	131.07
374.79	128.73
374.99	142.77
375.19	124.05
375.38	95.96
375.58	128.73
375.78	182.56
375.97	128.73
376.17	252.78
376.37	133.41
376.56	152.13
376.76	121.71
376.95	189.58
377.15	135.75
377.35	177.88
377.54	65.54
377.74	119.37
377.93	105.32
378.13	159.16
378.33	128.73
378.52	159.16
378.72	100.64
378.91	102.98
379.11	147.45
379.31	138.09
379.50	98.30
379.70	105.32
379.89	152.13
380.09	107.66
380.28	121.71
380.48	63.19
380.68	131.07
380.87	102.98
381.07	140.43
381.26	147.45
381.46	142.77
381.65	74.90
381.85	79.58
382.04	84.26
382.24	133.41
382.43	105.32
382.63	91.28
382.83	53.83
383.02	63.19
383.22	93.62
383.41	49.15
383.61	100.64
383.80	100.64
384.00	163.84
384.19	159.16
384.39	124.05
384.58	173.20
384.78	102.98
384.97	159.16
385.17	154.48
385.36	102.98
385.56	196.60
385.75	119.37
385.95	121.71
386.14	126.39
386.34	119.37
386.53	149.79
386.72	138.09
386.92	145.11
387.11	133.41
387.31	110.01
387.50	91.28
387.70	131.07
387.89	112.35
388.09	98.30
388.28	84.26
388.48	140.43
388.67	203.63
388.86	156.82
389.06	121.71
389.25	79.58
389.45	81.92
389.64	102.98
389.84	159.16
390.03	124.05
390.22	105.32
390.42	72.56
390.61	102.98
390.81	163.84
391.00	117.03
391.19	126.39
391.39	88.94
391.58	154.48
391.78	126.39
391.97	133.41
392.16	58.51
392.36	175.54
392.55	149.79
392.75	88.94
392.94	140.43
393.13	86.60
393.33	121.71
393.52	102.98
393.71	77.24
393.91	126.39
394.10	56.17
394.29	184.90
394.49	56.17
394.68	161.50
394.88	159.16
395.07	140.43
395.26	114.69
395.46	112.35
395.65	154.48
395.84	142.77
396.04	201.29
396.23	184.90
396.42	112.35
396.62	112.35
396.81	88.94
397.00	58.51
397.19	112.35
397.39	133.41
397.58	184.90
397.77	156.82
397.97	175.54
398.16	124.05
398.35	196.60
398.55	128.73
398.74	95.96
398.93	135.75
399.12	124.05
399.32	121.71
399.51	177.88
399.70	128.73
399.90	98.30
400.09	119.37
400.28	203.63
400.47	121.71
400.67	84.26
400.86	56.17
401.05	198.95
401.24	194.26
401.44	173.20
401.63	161.50
401.82	152.13
402.01	112.35
402.21	117.03
402.40	135.75
402.59	187.24
402.78	184.90
402.97	131.07
403.17	168.52
403.36	194.26
403.55	180.22
403.74	489.17
403.93	1324.74
404.13	2642.46
404.32	3061.42
404.51	2408.41
404.70	1444.11
404.89	545.34
405.09	269.16
405.28	196.60
405.47	194.26
405.66	147.45
405.85	154.48
406.05	133.41
406.24	95.96
406.43	238.73
406.62	152.13
406.81	191.92
407.00	257.46
407.20	367.46
407.39	489.17
407.58	486.83
407.77	374.49
407.96	184.90
408.15	205.97
408.34	166.18
408.54	105.32
408.73	133.41
408.92	163.84
409.11	187.24
409.30	236.39
409.49	121.71
409.68	154.48
409.87	138.09
410.07	196.60
410.26	142.77
410.45	100.64
410.64	194.26
410.83	187.24
411.02	184.90
411.21	184.90
411.40	133.41
411.59	88.94
411.78	105.32
411.98	177.88
412.17	159.16
412.36	173.20
412.55	128.73
412.74	215.33
412.93	161.50
413.12	177.88
413.31	168.52
413.50	135.75
413.69	131.07
413.88	147.45
414.07	196.60
414.26	156.82
414.45	184.90
414.64	208.31
414.83	212.99
415.02	138.09
415.22	147.45
415.41	241.08
415.60	217.67
415.79	234.05
415.98	236.39
416.17	138.09
416.36	255.12
416.55	145.11
416.74	205.97
416.93	205.97
417.12	170.86
417.31	152.13
417.50	184.90
417.69	166.18
417.88	198.95
418.07	201.29
418.26	203.63
418.45	187.24
418.64	224.69
418.83	180.22
419.02	227.03
419.21	191.92
419.39	180.22
419.58	133.41
419.77	88.94
419.96	227.03
420.15	184.90
420.34	147.45
420.53	187.24
420.72	229.37
420.91	163.84
421.10	166.18
421.29	166.18
421.48	177.88
421.67	191.92
421.86	128.73
422.05	196.60
422.24	175.54
422.43	159.16
422.61	259.80
422.80	201.29
422.99	250.44
423.18	210.65
423.37	243.42
423.56	210.65
423.75	203.63
423.94	271.50
424.13	198.95
424.32	243.42
424.50	227.03
424.69	173.20
424.88	145.11
425.07	187.24
425.26	140.43
425.45	243.42
425.64	196.60
425.83	238.73
426.01	266.82
426.20	182.56
426.39	208.31
426.58	191.92
426.77	205.97
426.96	250.44
427.15	215.33
427.33	257.46
427.52	187.24
427.71	227.03
427.90	231.71
428.09	217.67
428.28	285.55
428.46	250.44
428.65	234.05
428.84	315.97
429.03	231.71
429.22	234.05
429.40	241.08
429.59	224.69
429.78	205.97
429.97	212.99
430.16	180.22
430.34	217.67
430.53	292.57
430.72	248.10
430.91	287.89
431.10	210.65
431.28	243.42
431.47	241.08
431.66	234.05
431.85	245.76
432.03	241.08
432.22	390.87
432.41	308.95
432.60	252.78
432.79	262.14
432.97	255.12
433.16	292.57
433.35	322.99
433.54	362.78
433.72	369.80
433.91	386.19
434.10	400.23
434.28	550.03
434.47	545.34
434.66	603.86
434.85	767.70
435.03	2338.20
435.22	8205.92
435.41	14010.45
435.59	12624.85
435.78	7920.37
435.97	3880.61
436.16	1556.46
436.34	617.90
436.53	393.21
436.72	447.04
436.90	353.42
437.09	285.55
437.28	290.23
437.46	346.40
437.65	315.97
437.84	327.68
438.02	367.46
438.21	341.72
438.40	262.14
438.58	262.14
438.77	318.31
438.96	334.70
439.14	301.93
439.33	301.93
439.52	278.52
439.70	229.37
439.89	327.68
440.08	255.12
440.26	315.97
440.45	262.14
440.63	243.42
440.82	283.20
441.01	292.57
441.19	287.89
441.38	332.36
441.57	222.35
441.75	255.12
441.94	322.99
442.12	334.70
442.31	294.91
442.50	227.03
442.68	369.80
442.87	269.16
443.05	243.42
443.24	259.80
443.43	341.72
443.61	390.87
443.80	297.25
443.98	280.86
444.17	315.97
444.35	322.99
444.54	294.91
444.73	315.97
444.91	341.72
445.10	292.57
445.28	264.48
445.47	227.03
445.65	271.50
445.84	259.80
446.02	245.76
446.21	248.10
446.39	252.78
446.58	304.27
446.77	245.76
446.95	299.59
447.14	280.86
447.32	351.08
447.51	238.73
447.69	280.86
447.88	297.25
448.06	322.99
448.25	266.82
448.43	280.86
448.62	290.23
448.80	234.05
448.99	320.65
449.17	252.78
449.36	264.48
449.54	234.05
449.73	252.78
449.91	285.55
450.10	220.01
450.28	320.65
450.46	320.65
450.65	339.38
450.83	248.10
451.02	304.27
451.20	304.27
451.39	257.46
451.57	229.37
451.76	266.82
451.94	304.27
452.13	313.63
452.31	325.33
452.49	264.48
452.68	241.08
452.86	325.33
453.05	334.70
453.23	231.71
453.42	294.91
453.60	241.08
453.78	334.70
453.97	278.52
454.15	236.39
454.34	259.80
454.52	224.69
454.70	269.16
454.89	276.18
455.07	212.99
455.26	322.99
455.44	332.36
455.62	271.50
455.81	301.93
455.99	407.25
456.17	320.65
456.36	301.93
456.54	248.10
456.73	266.82
456.91	308.95
457.09	348.74
457.28	332.36
457.46	264.48
457.64	278.52
457.83	255.12
458.01	308.95
458.19	229.37
458.38	203.63
458.56	315.97
458.74	269.16
458.93	337.04
459.11	278.52
459.29	255.12
459.48	292.57
459.66	339.38
459.84	337.04
460.03	348.74
460.21	290.23
460.39	241.08
460.57	266.82
460.76	327.68
460.94	278.52
461.12	259.80
461.31	311.29
461.49	271.50
461.67	294.91
461.85	301.93
462.04	229.37
462.22	730.25
462.40	285.55
462.59	304.27
462.77	276.18
462.95	320.65
463.13	255.12
463.32	301.93
463.50	266.82
463.68	269.16
463.86	311.29
464.05	299.59
464.23	238.73
464.41	325.33
464.59	222.35
464.78	304.27
464.96	220.01
465.14	299.59
465.32	266.82
465.50	334.70
465.69	210.65
465.87	238.73
466.05	311.29
466.23	252.78
466.41	278.52
466.60	283.20
466.78	283.20
466.96	299.59
467.14	322.99
467.32	362.78
467.51	348.74
467.69	269.16
467.87	285.55
468.05	271.50
468.23	245.76
468.41	299.59
468.60	215.33
468.78	234.05
468.96	299.59
469.14	346.40
469.32	229.37
469.50	292.57
469.69	315.97
469.87	250.44
470.05	248.10
470.23	264.48
470.41	241.08
470.59	290.23
470.77	283.20
470.95	280.86
471.14	290.23
471.32	262.14
471.50	273.84
471.68	332.36
471.86	238.73
472.04	276.18
472.22	292.57
472.40	208.31
472.58	287.89
472.77	369.80
472.95	234.05
473.13	353.42
473.31	308.95
473.49	269.16
473.67	292.57
473.85	245.76
474.03	259.80
474.21	294.91
474.39	285.55
474.57	278.52
474.75	330.02
474.93	257.46
475.12	259.80
475.30	294.91
475.48	294.91
475.66	341.72
475.84	334.70
476.02	379.17
476.20	278.52
476.38	290.23
476.56	418.96
476.74	264.48
476.92	299.59
477.10	227.03
477.28	320.65
477.46	322.99
477.64	313.63
477.82	280.86
478.00	393.21
478.18	313.63
478.36	304.27
478.54	327.68
478.72	273.84
478.90	395.55
479.08	402.57
479.26	390.87
479.44	444.70
479.62	283.20
479.80	383.85
479.98	393.21
480.16	334.70
480.34	425.98
480.52	416.62
480.70	428.32
480.88	351.08
481.06	423.64
481.24	379.17
481.41	442.36
481.59	376.83
481.77	461.09
481.95	559.39
482.13	543.00
482.31	592.16
482.49	547.69
482.67	634.29
482.85	634.29
483.03	709.18
483.21	788.76
483.39	840.25
483.57	868.34
483.74	908.13
483.92	875.36
484.10	847.27
484.28	915.15
484.46	1093.03
484.64	1097.71
484.82	1071.97
485.00	1165.59
485.18	1261.55
485.35	1238.14
485.53	1289.64
485.71	1409.00
485.89	1380.92
486.07	1387.94
486.25	1430.07
486.43	1500.28
486.61	1476.88
486.78	1441.77
486.96	1451.13
487.14	1427.73
487.32	1500.28
487.50	1486.24
487.68	1409.00
487.85	1420.71
488.03	1369.21
488.21	1420.71
488.39	1357.51
488.57	1327.08
488.75	1238.14
488.92	1504.96
489.10	1268.57
489.28	1181.97
489.46	1252.19
489.64	1142.18
489.81	1181.97
489.99	1210.06
490.17	1121.12
490.35	1212.40
490.53	1200.69
490.70	1081.33
490.88	1151.54
491.06	1226.44
491.24	1266.23
491.41	1217.08
491.59	1186.65
491.77	1151.54
491.95	1123.46
492.13	1001.75
492.30	987.71
492.48	1032.18
492.66	1032.18
492.84	1076.65
493.01	1015.79
493.19	1020.47
493.37	978.34
493.54	968.98
493.72	936.21
493.90	978.34
494.08	931.53
494.25	968.98
494.43	898.77
494.61	891.74
494.79	915.15
494.96	819.19
495.14	863.66
495.32	814.51
495.49	959.62
495.67	786.42
495.85	840.25
496.02	795.78
496.20	788.76
496.38	784.08
496.55	765.36
496.73	795.78
496.91	863.66
497.09	858.98
497.26	755.99
497.44	720.88
497.62	713.86
497.79	725.57
497.97	657.69
498.14	711.52
498.32	730.25
498.50	676.41
498.67	580.45
498.85	627.26
499.03	688.12
499.20	638.97
499.38	617.90
499.56	582.79
499.73	662.37
499.91	645.99
500.08	660.03
500.26	592.16
500.44	517.26
500.61	521.94
500.79	493.85
500.97	475.13
501.14	561.73
501.32	400.23
501.49	458.74
501.67	440.02
501.84	496.19
502.02	477.47
502.20	496.19
502.37	442.36
502.55	393.21
502.72	444.70
502.90	430.66
503.07	404.91
503.25	423.64
503.43	421.30
503.60	383.85
503.78	433.00
503.95	475.13
504.13	358.10
504.30	367.46
504.48	386.19
504.65	337.04
504.83	390.87
505.01	390.87
505.18	360.44
505.36	315.97
505.53	250.44
505.71	332.36
505.88	383.85
506.06	411.93
506.23	325.33
506.41	437.68
506.58	372.15
506.76	339.38
506.93	313.63
507.11	294.91
507.28	292.57
507.46	241.08
507.63	320.65
507.81	264.48
507.98	271.50
508.16	325.33
508.33	287.89
508.50	383.85
508.68	360.44
508.85	264.48
509.03	351.08
509.20	325.33
509.38	325.33
509.55	348.74
509.73	322.99
509.90	294.91
510.08	285.55
510.25	311.29
510.42	273.84
510.60	304.27
510.77	351.08
510.95	367.46
511.12	280.86
511.30	320.65
511.47	341.72
511.64	409.59
511.82	320.65
511.99	341.72
512.17	292.57
512.34	334.70
512.51	372.15
512.69	297.25
512.86	372.15
513.04	262.14
513.21	287.89
513.38	339.38
513.56	271.50
513.73	273.84
513.90	344.06
514.08	222.35
514.25	325.33
514.43	306.61
514.60	280.86
514.77	318.31
514.95	351.08
515.12	283.20
515.29	264.48
515.47	229.37
515.64	297.25
515.81	292.57
515.99	285.55
516.16	252.78
516.33	325.33
516.51	369.80
516.68	255.12
516.85	283.20
517.03	315.97
517.20	308.95
517.37	294.91
517.54	351.08
517.72	294.91
517.89	334.70
518.06	308.95
518.24	287.89
518.41	344.06
518.58	322.99
518.75	278.52
518.93	322.99
519.10	388.53
519.27	276.18
519.45	257.46
519.62	315.97
519.79	276.18
519.96	250.44
520.14	311.29
520.31	299.59
520.48	299.59
520.65	194.26
520.83	243.42
521.00	245.76
521.17	290.23
521.34	283.20
521.52	297.25
521.69	215.33
521.86	264.48
522.03	346.40
522.20	367.46
522.38	252.78
522.55	257.46
522.72	330.02
522.89	220.01
523.07	212.99
523.24	269.16
523.41	252.78
523.58	283.20
523.75	276.18
523.92	294.91
524.10	292.57
524.27	313.63
524.44	262.14
524.61	280.86
524.78	381.51
524.96	369.80
525.13	330.02
525.30	376.83
525.47	337.04
525.64	379.17
525.81	234.05
525.98	325.33
526.16	252.78
526.33	355.76
526.50	280.86
526.67	351.08
526.84	280.86
527.01	346.40
527.18	372.15
527.36	360.44
527.53	304.27
527.70	322.99
527.87	297.25
528.04	332.36
528.21	278.52
528.38	327.68
528.55	341.72
528.72	332.36
528.89	372.15
529.07	360.44
529.24	369.80
529.41	318.31
529.58	327.68
529.75	306.61
529.92	332.36
530.09	353.42
530.26	444.70
530.43	374.49
530.60	447.04
530.77	430.66
530.94	304.27
531.11	447.04
531.28	400.23
531.46	348.74
531.63	379.17
531.80	454.06
531.97	397.89
532.14	505.56
532.31	550.03
532.48	678.76
532.65	723.23
532.82	809.83
532.99	870.68
533.16	943.24
533.33	954.94
533.50	873.02
533.67	770.04
533.84	699.82
534.01	681.10
534.18	608.54
534.35	615.56
534.52	601.52
534.69	791.10
534.86	690.46
535.03	624.92
535.20	657.69
535.37	753.65
535.54	676.41
535.71	760.67
535.88	877.70
536.05	826.21
536.22	945.58
536.38	950.26
536.55	1020.47
536.72	1224.10
536.89	1196.01
537.06	1441.77
537.23	1514.33
537.40	1589.22
537.57	1699.23
537.74	1762.42
537.91	1905.20
538.08	1842.00
538.25	1930.94
538.42	1987.11
538.59	1989.46
538.75	1994.14
538.92	2143.93
539.09	2480.97
539.26	2670.55
539.43	2965.46
539.60	3281.43
539.77	3623.15
539.94	4063.17
540.11	4468.08
540.28	4840.23
540.44	5380.89
540.61	5902.83
540.78	6911.60
540.95	8215.28
541.12	9713.22
541.29	10544.11
541.46	10991.16
541.62	10633.05
541.79	10279.63
541.96	9760.03
542.13	9048.51
542.30	8395.50
542.47	7817.39
542.63	7449.93
542.80	7414.82
542.97	7283.75
543.14	7372.69
543.31	7433.54
543.48	7286.09
543.64	7382.05
543.81	7459.29
543.98	7449.93
544.15	7655.89
544.32	7489.71
544.48	7571.63
544.65	7470.99
544.82	7346.94
544.99	7337.58
545.16	7480.35
545.32	7953.14
545.49	16468.01
545.66	26539.33
545.83	29539.90
546.00	23281.31
546.16	16470.35
546.33	12334.62
546.50	9071.92
546.67	7698.02
546.83	6801.60
547.00	6408.39
547.17	6057.31
547.34	5905.17
547.50	5448.77
547.67	5462.81
547.84	5177.26
548.00	4978.32
548.17	4697.46
548.34	4535.96
548.51	4531.28
548.67	4519.57
548.84	4121.68
549.01	3878.27
549.18	3847.84
549.34	3510.80
549.51	3499.10
549.68	3377.39
549.84	3297.81
550.01	3143.34
550.18	3026.31
550.34	2935.03
550.51	2750.13
550.68	2722.04
550.84	2466.92
551.01	2312.45
551.18	2204.78
551.34	2080.74
551.51	2108.82
551.68	2108.82
551.84	1893.49
552.01	1799.87
552.18	1834.98
552.34	1729.66
552.51	1654.76
552.68	1591.56
552.84	1556.46
553.01	1549.43
553.18	1561.14
553.34	1476.88
553.51	1345.81
553.67	1315.38
553.84	1334.11
554.01	1324.74
554.17	1219.42
554.34	1107.07
554.51	1067.28
554.67	976.00
554.84	964.30
555.00	873.02
555.17	844.93
555.33	889.40
555.50	807.48
555.67	805.14
555.83	774.72
556.00	713.86
556.16	858.98
556.33	748.97
556.50	681.10
556.66	580.45
556.83	634.29
556.99	671.73
557.16	664.71
557.32	594.50
557.49	594.50
557.65	535.98
557.82	552.37
557.98	592.16
558.15	550.03
558.32	496.19
558.48	603.86
558.65	535.98
558.81	418.96
558.98	458.74
559.14	475.13
559.31	505.56
559.47	521.94
559.64	461.09
559.80	468.11
559.97	425.98
560.13	428.32
560.30	493.85
560.46	484.49
560.63	463.43
560.79	528.96
560.96	507.90
561.12	477.47
561.29	510.24
561.45	388.53
561.61	454.06
561.78	540.66
561.94	430.66
562.11	461.09
562.27	449.38
562.44	470.45
562.60	482.15
562.77	475.13
562.93	482.15
563.10	461.09
563.26	440.02
563.42	472.79
563.59	393.21
563.75	435.34
563.92	444.70
564.08	458.74
564.24	528.96
564.41	386.19
564.57	374.49
564.74	353.42
564.90	425.98
565.07	430.66
565.23	444.70
565.39	372.15
565.56	430.66
565.72	416.62
565.88	395.55
566.05	409.59
566.21	369.80
566.38	505.56
566.54	397.89
566.70	430.66
566.87	341.72
567.03	351.08
567.19	390.87
567.36	341.72
567.52	463.43
567.68	484.49
567.85	425.98
568.01	381.51
568.17	358.10
568.34	440.02
568.50	425.98
568.66	386.19
568.83	421.30
568.99	320.65
569.15	430.66
569.32	348.74
569.48	414.27
569.64	325.33
569.81	353.42
569.97	283.20
570.13	320.65
570.30	325.33
570.46	339.38
570.62	332.36
570.78	334.70
570.95	259.80
571.11	348.74
571.27	463.43
571.43	320.65
571.60	409.59
571.76	344.06
571.92	278.52
572.09	341.72
572.25	374.49
572.41	306.61
572.57	292.57
572.74	388.53
572.90	390.87
573.06	322.99
573.22	397.89
573.38	362.78
573.55	400.23
573.71	358.10
573.87	418.96
574.03	376.83
574.20	306.61
574.36	322.99
574.52	337.04
574.68	411.93
574.84	430.66
575.01	407.25
575.17	449.38
575.33	470.45
575.49	463.43
575.65	610.88
575.82	599.18
575.98	627.26
576.14	566.41
576.30	1338.79
576.46	3829.12
576.62	5121.09
576.79	4971.30
576.95	3639.53
577.11	2399.05
577.27	1680.50
577.43	1233.46
577.59	854.30
577.75	718.54
577.92	683.44
578.08	716.20
578.24	767.70
578.40	1385.60
578.56	3272.07
578.72	4423.61
578.88	4634.26
579.04	3478.04
579.21	2267.98
579.37	1809.23
579.53	1521.35
579.69	1542.41
579.85	1863.07
580.01	2012.86
580.17	1919.24
580.33	1748.38
580.49	1600.93
580.65	1366.87
580.82	1238.14
580.98	1158.57
581.14	1240.48
581.30	1364.53
581.46	1350.49
581.62	1500.28
581.78	1530.71
581.94	1614.97
582.10	1724.97
582.26	1886.47
582.42	1898.17
582.58	1956.69
582.74	1928.60
582.90	1968.39
583.06	1968.39
583.22	2015.20
583.38	1973.07
583.54	1989.46
583.70	2043.29
583.86	1898.17
584.02	1900.52
584.18	1930.94
584.34	1891.15
584.50	1888.81
584.66	1832.64
584.82	1715.61
584.98	1776.47
585.14	1715.61
585.30	1746.04
585.46	1579.86
585.62	1603.27
585.78	1629.01
585.94	1685.19
586.10	1708.59
586.26	1834.98
586.42	2090.10
586.58	2450.54
586.74	3007.59
586.90	3485.06
587.06	3681.66
587.22	3726.13
587.38	3103.55
587.54	2778.22
587.70	2448.20
587.86	1991.80
588.02	1823.28
588.18	1727.32
588.34	1535.39
588.49	1226.44
588.65	1320.06
588.81	1291.98
588.97	1210.06
589.13	1210.06
589.29	1203.04
589.45	1158.57
589.61	1153.88
589.77	1242.82
589.93	1130.48
590.08	1095.37
590.24	1128.14
590.40	1256.87
590.56	1299.00
590.72	1301.34
590.88	1334.11
591.04	1376.24
591.20	1507.30
591.35	1605.61
591.51	1490.92
591.67	1586.88
591.83	1774.13
591.99	1914.56
592.15	1970.73
592.31	2129.89
592.46	2373.30
592.62	2602.68
592.78	2633.10
592.94	2740.77
593.10	2574.59
593.26	2551.18
593.41	2267.98
593.57	2026.90
593.73	1827.96
593.89	1703.91
594.05	1430.07
594.20	1341.13
594.36	1273.25
594.52	1132.82
594.68	1170.27
594.84	1177.29
594.99	1097.71
595.15	1132.82
595.31	1078.99
595.47	1203.04
595.62	1104.73
595.78	1104.73
595.94	1142.18
596.10	1142.18
596.25	1036.86
596.41	1055.58
596.57	1013.45
596.73	1062.60
596.88	1076.65
597.04	1076.65
597.20	1069.62
597.36	1034.52
597.51	1064.94
597.67	1053.24
597.83	1226.44
597.99	1268.57
598.14	1345.81
598.30	1413.68
598.46	1411.34
598.61	1554.12
598.77	1451.13
598.93	1650.08
599.09	1692.21
599.24	1600.93
599.40	1575.18
599.56	1614.97
599.71	1462.83
599.87	1488.58
600.03	1409.00
600.18	1301.34
600.34	1217.08
600.50	1193.67
600.65	1064.94
600.81	1102.39
600.97	968.98
601.12	919.83
601.28	940.90
601.44	891.74
601.59	938.55
601.75	866.00
601.91	746.63
602.06	870.68
602.22	748.97
602.37	669.39
602.53	716.20
602.69	706.84
602.84	683.44
603.00	631.94
603.16	683.44
603.31	786.42
603.47	793.44
603.62	753.65
603.78	739.61
603.94	770.04
604.09	772.38
604.25	844.93
604.40	816.85
604.56	858.98
604.71	800.46
604.87	816.85
605.03	870.68
605.18	800.46
605.34	961.96
605.49	926.85
605.65	961.96
605.80	959.62
605.96	1039.20
606.12	1008.77
606.27	1025.15
606.43	1004.09
606.58	1172.61
606.74	1184.31
606.89	1254.53
607.05	1303.68
607.20	1359.85
607.36	1474.54
