SpectraSuite Data File
++++++++++++++++++++++++++++++++++++
Date: Fri Oct 04 11:42:04 GMT-05:00 2013
User: price-jones
Dark Spectrum Present: No
Reference Spectrum Present: No
Number of Sampled Component Spectra: 1
Spectrometers: USB2+H05261
Integration Time (usec): 100000 (USB2+H05261)
Spectra Averaged: 1 (USB2+H05261)
Boxcar Smoothing: 0 (USB2+H05261)
Correct for Electrical Dark: No (USB2+H05261)
Strobe/Lamp Enabled: No (USB2+H05261)
Correct for Detector Non-linearity: No (USB2+H05261)
Correct for Stray Light: No (USB2+H05261)
Number of Pixels in Processed Spectrum: 2048
>>>>>Begin Processed Spectral Data<<<<<
365.73	42.13
365.92	42.13
366.12	42.13
366.32	0.00
366.52	21.06
366.72	0.00
366.91	0.00
367.11	0.00
367.31	0.00
367.51	0.00
367.70	0.00
367.90	0.00
368.10	0.00
368.30	0.00
368.49	0.00
368.69	0.00
368.89	0.00
369.09	0.00
369.28	0.00
369.48	0.00
369.68	0.00
369.87	25.75
370.07	0.00
370.27	4.68
370.47	30.43
370.66	65.54
370.86	72.56
371.06	0.00
371.25	152.13
371.45	21.06
371.65	124.05
371.84	124.05
372.04	84.26
372.24	95.96
372.44	145.11
372.63	138.09
372.83	138.09
373.03	51.49
373.22	149.79
373.42	198.95
373.62	203.63
373.81	145.11
374.01	210.65
374.21	124.05
374.40	140.43
374.60	201.29
374.79	124.05
374.99	154.48
375.19	149.79
375.38	215.33
375.58	166.18
375.78	140.43
375.97	131.07
376.17	215.33
376.37	138.09
376.56	145.11
376.76	110.01
376.95	121.71
377.15	208.31
377.35	133.41
377.54	133.41
377.74	224.69
377.93	175.54
378.13	114.69
378.33	217.67
378.52	142.77
378.72	220.01
378.91	191.92
379.11	126.39
379.31	114.69
379.50	145.11
379.70	191.92
379.89	168.52
380.09	212.99
380.28	107.66
380.48	121.71
380.68	147.45
380.87	142.77
381.07	205.97
381.26	208.31
381.46	161.50
381.65	128.73
381.85	161.50
382.04	149.79
382.24	142.77
382.43	100.64
382.63	81.92
382.83	187.24
383.02	241.08
383.22	114.69
383.41	159.16
383.61	112.35
383.80	173.20
384.00	128.73
384.19	194.26
384.39	147.45
384.58	175.54
384.78	234.05
384.97	173.20
385.17	154.48
385.36	201.29
385.56	177.88
385.75	58.51
385.95	227.03
386.14	154.48
386.34	198.95
386.53	112.35
386.72	119.37
386.92	175.54
387.11	124.05
387.31	227.03
387.50	156.82
387.70	110.01
387.89	173.20
388.09	142.77
388.28	119.37
388.48	168.52
388.67	124.05
388.86	119.37
389.06	224.69
389.25	203.63
389.45	208.31
389.64	215.33
389.84	147.45
390.03	156.82
390.22	159.16
390.42	227.03
390.61	182.56
390.81	124.05
391.00	205.97
391.19	175.54
391.39	243.42
391.58	191.92
391.78	163.84
391.97	191.92
392.16	133.41
392.36	203.63
392.55	110.01
392.75	107.66
392.94	98.30
393.13	121.71
393.33	135.75
393.52	194.26
393.71	198.95
393.91	86.60
394.10	105.32
394.29	166.18
394.49	210.65
394.68	198.95
394.88	145.11
395.07	140.43
395.26	180.22
395.46	140.43
395.65	175.54
395.84	177.88
396.04	285.55
396.23	191.92
396.42	110.01
396.62	217.67
396.81	222.35
397.00	145.11
397.19	210.65
397.39	173.20
397.58	194.26
397.77	191.92
397.97	182.56
398.16	222.35
398.35	201.29
398.55	194.26
398.74	224.69
398.93	198.95
399.12	135.75
399.32	257.46
399.51	231.71
399.70	231.71
399.90	278.52
400.09	227.03
400.28	194.26
400.47	264.48
400.67	182.56
400.86	121.71
401.05	198.95
401.24	173.20
401.44	245.76
401.63	229.37
401.82	175.54
402.01	259.80
402.21	205.97
402.40	273.84
402.59	236.39
402.78	236.39
402.97	194.26
403.17	276.18
403.36	278.52
403.55	203.63
403.74	266.82
403.93	159.16
404.13	339.38
404.32	379.17
404.51	402.57
404.70	315.97
404.89	229.37
405.09	276.18
405.28	257.46
405.47	194.26
405.66	255.12
405.85	294.91
406.05	229.37
406.24	175.54
406.43	238.73
406.62	234.05
406.81	294.91
407.00	222.35
407.20	191.92
407.39	220.01
407.58	208.31
407.77	259.80
407.96	299.59
408.15	287.89
408.34	212.99
408.54	243.42
408.73	259.80
408.92	292.57
409.11	198.95
409.30	283.20
409.49	180.22
409.68	224.69
409.87	271.50
410.07	269.16
410.26	266.82
410.45	259.80
410.64	248.10
410.83	292.57
411.02	266.82
411.21	294.91
411.40	278.52
411.59	294.91
411.78	294.91
411.98	271.50
412.17	248.10
412.36	227.03
412.55	306.61
412.74	224.69
412.93	222.35
413.12	212.99
413.31	320.65
413.50	250.44
413.69	306.61
413.88	322.99
414.07	294.91
414.26	269.16
414.45	292.57
414.64	283.20
414.83	231.71
415.02	339.38
415.22	292.57
415.41	266.82
415.60	257.46
415.79	243.42
415.98	285.55
416.17	318.31
416.36	252.78
416.55	292.57
416.74	290.23
416.93	320.65
417.12	163.84
417.31	229.37
417.50	255.12
417.69	283.20
417.88	215.33
418.07	173.20
418.26	290.23
418.45	234.05
418.64	280.86
418.83	264.48
419.02	234.05
419.21	292.57
419.39	231.71
419.58	163.84
419.77	248.10
419.96	224.69
420.15	334.70
420.34	266.82
420.53	269.16
420.72	292.57
420.91	344.06
421.10	245.76
421.29	222.35
421.48	294.91
421.67	236.39
421.86	276.18
422.05	280.86
422.24	231.71
422.43	264.48
422.61	154.48
422.80	238.73
422.99	320.65
423.18	257.46
423.37	271.50
423.56	259.80
423.75	264.48
423.94	299.59
424.13	262.14
424.32	252.78
424.50	189.58
424.69	264.48
424.88	259.80
425.07	229.37
425.26	229.37
425.45	266.82
425.64	264.48
425.83	248.10
426.01	243.42
426.20	280.86
426.39	330.02
426.58	269.16
426.77	297.25
426.96	278.52
427.15	313.63
427.33	189.58
427.52	250.44
427.71	245.76
427.90	308.95
428.09	184.90
428.28	222.35
428.46	201.29
428.65	308.95
428.84	269.16
429.03	301.93
429.22	238.73
429.40	294.91
429.59	262.14
429.78	220.01
429.97	269.16
430.16	177.88
430.34	182.56
430.53	313.63
430.72	236.39
430.91	215.33
431.10	252.78
431.28	243.42
431.47	341.72
431.66	325.33
431.85	358.10
432.03	276.18
432.22	360.44
432.41	292.57
432.60	280.86
432.79	292.57
432.97	297.25
433.16	315.97
433.35	294.91
433.54	327.68
433.72	259.80
433.91	231.71
434.10	327.68
434.28	372.15
434.47	348.74
434.66	351.08
434.85	355.76
435.03	461.09
435.22	816.85
435.41	1261.55
435.59	1301.34
435.78	966.64
435.97	603.86
436.16	547.69
436.34	294.91
436.53	304.27
436.72	327.68
436.90	299.59
437.09	250.44
437.28	238.73
437.46	318.31
437.65	220.01
437.84	280.86
438.02	311.29
438.21	351.08
438.40	250.44
438.58	276.18
438.77	292.57
438.96	297.25
439.14	287.89
439.33	341.72
439.52	250.44
439.70	379.17
439.89	362.78
440.08	341.72
440.26	341.72
440.45	365.12
440.63	341.72
440.82	365.12
441.01	238.73
441.19	294.91
441.38	341.72
441.57	489.17
441.75	297.25
441.94	313.63
442.12	351.08
442.31	325.33
442.50	273.84
442.68	318.31
442.87	301.93
443.05	276.18
443.24	360.44
443.43	369.80
443.61	374.49
443.80	369.80
443.98	360.44
444.17	367.46
444.35	358.10
444.54	262.14
444.73	320.65
444.91	306.61
445.10	259.80
445.28	259.80
445.47	290.23
445.65	358.10
445.84	320.65
446.02	262.14
446.21	301.93
446.39	306.61
446.58	283.20
446.77	315.97
446.95	367.46
447.14	334.70
447.32	423.64
447.51	353.42
447.69	365.12
447.88	304.27
448.06	348.74
448.25	330.02
448.43	374.49
448.62	320.65
448.80	334.70
448.99	369.80
449.17	266.82
449.36	322.99
449.54	407.25
449.73	297.25
449.91	388.53
450.10	353.42
450.28	395.55
450.46	355.76
450.65	376.83
450.83	383.85
451.02	325.33
451.20	280.86
451.39	348.74
451.57	353.42
451.76	344.06
451.94	339.38
452.13	433.00
452.31	353.42
452.49	344.06
452.68	292.57
452.86	386.19
453.05	264.48
453.23	322.99
453.42	248.10
453.60	365.12
453.78	344.06
453.97	313.63
454.15	308.95
454.34	297.25
454.52	325.33
454.70	372.15
454.89	344.06
455.07	259.80
455.26	355.76
455.44	362.78
455.62	306.61
455.81	381.51
455.99	437.68
456.17	397.89
456.36	365.12
456.54	306.61
456.73	344.06
456.91	266.82
457.09	348.74
457.28	299.59
457.46	351.08
457.64	383.85
457.83	337.04
458.01	320.65
458.19	351.08
458.38	304.27
458.56	358.10
458.74	266.82
458.93	327.68
459.11	346.40
459.29	301.93
459.48	393.21
459.66	470.45
459.84	367.46
460.03	367.46
460.21	355.76
460.39	421.30
460.57	259.80
460.76	365.12
460.94	353.42
461.12	395.55
461.31	365.12
461.49	362.78
461.67	330.02
461.85	402.57
462.04	395.55
462.22	807.48
462.40	400.23
462.59	339.38
462.77	348.74
462.95	372.15
463.13	379.17
463.32	383.85
463.50	372.15
463.68	404.91
463.86	358.10
464.05	320.65
464.23	332.36
464.41	386.19
464.59	341.72
464.78	315.97
464.96	351.08
465.14	351.08
465.32	346.40
465.50	327.68
465.69	334.70
465.87	311.29
466.05	407.25
466.23	376.83
466.41	355.76
466.60	346.40
466.78	334.70
466.96	411.93
467.14	308.95
467.32	374.49
467.51	376.83
467.69	325.33
467.87	337.04
468.05	341.72
468.23	435.34
468.41	318.31
468.60	348.74
468.78	360.44
468.96	330.02
469.14	348.74
469.32	372.15
469.50	344.06
469.69	339.38
469.87	416.62
470.05	304.27
470.23	383.85
470.41	299.59
470.59	313.63
470.77	301.93
470.95	369.80
471.14	411.93
471.32	337.04
471.50	367.46
471.68	351.08
471.86	379.17
472.04	390.87
472.22	461.09
472.40	334.70
472.58	379.17
472.77	341.72
472.95	418.96
473.13	339.38
473.31	374.49
473.49	320.65
473.67	351.08
473.85	386.19
474.03	472.79
474.21	353.42
474.39	433.00
474.57	421.30
474.75	358.10
474.93	454.06
475.12	341.72
475.30	402.57
475.48	486.83
475.66	407.25
475.84	388.53
476.02	337.04
476.20	393.21
476.38	409.59
476.56	433.00
476.74	365.12
476.92	489.17
477.10	433.00
477.28	423.64
477.46	440.02
477.64	404.91
477.82	346.40
478.00	358.10
478.18	482.15
478.36	308.95
478.54	425.98
478.72	411.93
478.90	512.58
479.08	346.40
479.26	414.27
479.44	348.74
479.62	409.59
479.80	395.55
479.98	414.27
480.16	407.25
480.34	458.74
480.52	449.38
480.70	533.64
480.88	409.59
481.06	458.74
481.24	409.59
481.41	428.32
481.59	479.81
481.77	404.91
481.95	468.11
482.13	456.40
482.31	437.68
482.49	470.45
482.67	505.56
482.85	465.77
483.03	526.62
483.21	472.79
483.39	477.47
483.57	493.85
483.74	493.85
483.92	423.64
484.10	493.85
484.28	486.83
484.46	540.66
484.64	475.13
484.82	489.17
485.00	507.90
485.18	571.09
485.35	540.66
485.53	545.34
485.71	498.53
485.89	435.34
486.07	554.71
486.25	580.45
486.43	603.86
486.61	545.34
486.78	533.64
486.96	496.19
487.14	526.62
487.32	545.34
487.50	503.22
487.68	608.54
487.85	554.71
488.03	503.22
488.21	571.09
488.39	543.00
488.57	634.29
488.75	580.45
488.92	795.78
489.10	589.82
489.28	624.92
489.46	603.86
489.64	606.20
489.81	627.26
489.99	608.54
490.17	610.88
490.35	664.71
490.53	594.50
490.70	571.09
490.88	669.39
491.06	587.47
491.24	559.39
491.41	589.82
491.59	617.90
491.77	554.71
491.95	606.20
492.13	641.31
492.30	528.96
492.48	596.84
492.66	627.26
492.84	596.84
493.01	671.73
493.19	594.50
493.37	615.56
493.54	641.31
493.72	545.34
493.90	531.30
494.08	615.56
494.25	631.94
494.43	596.84
494.61	615.56
494.79	566.41
494.96	638.97
495.14	594.50
495.32	514.92
495.49	624.92
495.67	655.35
495.85	589.82
496.02	669.39
496.20	641.31
496.38	641.31
496.55	561.73
496.73	613.22
496.91	624.92
497.09	624.92
497.26	685.78
497.44	648.33
497.62	662.37
497.79	599.18
497.97	540.66
498.14	596.84
498.32	648.33
498.50	573.43
498.67	678.76
498.85	648.33
499.03	641.31
499.20	603.86
499.38	587.47
499.56	543.00
499.73	662.37
499.91	664.71
500.08	732.59
500.26	484.49
500.44	554.71
500.61	650.67
500.79	592.16
500.97	531.30
501.14	643.65
501.32	699.82
501.49	669.39
501.67	599.18
501.84	531.30
502.02	627.26
502.20	631.94
502.37	477.47
502.55	578.11
502.72	688.12
502.90	589.82
503.07	603.86
503.25	552.37
503.43	533.64
503.60	540.66
503.78	540.66
503.95	589.82
504.13	631.94
504.30	587.47
504.48	568.75
504.65	564.07
504.83	531.30
505.01	510.24
505.18	592.16
505.36	645.99
505.53	512.58
505.71	535.98
505.88	566.41
506.06	624.92
506.23	566.41
506.41	554.71
506.58	671.73
506.76	575.77
506.93	599.18
507.11	599.18
507.28	664.71
507.46	524.28
507.63	540.66
507.81	552.37
507.98	573.43
508.16	564.07
508.33	568.75
508.50	578.11
508.68	643.65
508.85	723.23
509.03	617.90
509.20	559.39
509.38	589.82
509.55	664.71
509.73	629.60
509.90	582.79
510.08	585.13
510.25	608.54
510.42	585.13
510.60	662.37
510.77	655.35
510.95	629.60
511.12	648.33
511.30	727.91
511.47	608.54
511.64	734.93
511.82	648.33
511.99	706.84
512.17	634.29
512.34	615.56
512.51	655.35
512.69	622.58
512.86	599.18
513.04	629.60
513.21	676.41
513.38	543.00
513.56	634.29
513.73	582.79
513.90	657.69
514.08	540.66
514.25	641.31
514.43	557.05
514.60	592.16
514.77	692.80
514.95	629.60
515.12	636.63
515.29	645.99
515.47	568.75
515.64	596.84
515.81	629.60
515.99	603.86
516.16	606.20
516.33	603.86
516.51	535.98
516.68	573.43
516.85	444.70
517.03	484.49
517.20	550.03
517.37	552.37
517.54	634.29
517.72	624.92
517.89	540.66
518.06	599.18
518.24	636.63
518.41	554.71
518.58	580.45
518.75	545.34
518.93	585.13
519.10	547.69
519.27	533.64
519.45	631.94
519.62	648.33
519.79	620.24
519.96	610.88
520.14	638.97
520.31	638.97
520.48	582.79
520.65	589.82
520.83	678.76
521.00	713.86
521.17	582.79
521.34	573.43
521.52	657.69
521.69	540.66
521.86	617.90
522.03	613.22
522.20	589.82
522.38	578.11
522.55	648.33
522.72	603.86
522.89	660.03
523.07	636.63
523.24	622.58
523.41	575.77
523.58	681.10
523.75	582.79
523.92	643.65
524.10	627.26
524.27	599.18
524.44	622.58
524.61	662.37
524.78	634.29
524.96	575.77
525.13	601.52
525.30	580.45
525.47	725.57
525.64	608.54
525.81	620.24
525.98	606.20
526.16	547.69
526.33	589.82
526.50	552.37
526.67	465.77
526.84	519.60
527.01	550.03
527.18	671.73
527.36	608.54
527.53	550.03
527.70	664.71
527.87	695.14
528.04	664.71
528.21	550.03
528.38	594.50
528.55	638.97
528.72	585.13
528.89	622.58
529.07	636.63
529.24	603.86
529.41	634.29
529.58	617.90
529.75	596.84
529.92	578.11
530.09	578.11
530.26	681.10
530.43	732.59
530.60	634.29
530.77	711.52
530.94	561.73
531.11	671.73
531.28	643.65
531.46	641.31
531.63	678.76
531.80	629.60
531.97	669.39
532.14	690.46
532.31	667.05
532.48	650.67
532.65	641.31
532.82	578.11
532.99	683.44
533.16	734.93
533.33	638.97
533.50	763.01
533.67	660.03
533.84	669.39
534.01	601.52
534.18	648.33
534.35	709.18
534.52	676.41
534.69	678.76
534.86	648.33
535.03	578.11
535.20	664.71
535.37	734.93
535.54	713.86
535.71	723.23
535.88	671.73
536.05	690.46
536.22	718.54
536.38	627.26
536.55	697.48
536.72	685.78
536.89	653.01
537.06	613.22
537.23	641.31
537.40	723.23
537.57	753.65
537.74	812.17
537.91	753.65
538.08	711.52
538.25	805.14
538.42	744.29
538.59	854.30
538.75	723.23
538.92	746.63
539.09	812.17
539.26	816.85
539.43	847.27
539.60	812.17
539.77	940.90
539.94	973.66
540.11	985.37
540.28	964.30
540.44	968.98
540.61	1104.73
540.78	1151.54
540.95	1273.25
541.12	1411.34
541.29	1458.15
541.46	1577.52
541.62	1554.12
541.79	1462.83
541.96	1458.15
542.13	1404.32
542.30	1385.60
542.47	1345.81
542.63	1380.92
542.80	1327.08
542.97	1226.44
543.14	1294.32
543.31	1310.70
543.48	1188.99
543.64	1289.64
543.81	1287.29
543.98	1334.11
544.15	1249.85
544.32	1320.06
544.48	1313.04
544.65	1397.30
544.82	1345.81
544.99	1256.87
545.16	1277.93
545.32	1282.61
545.49	1809.23
545.66	2612.04
545.83	3082.49
546.00	2808.64
546.16	2064.35
546.33	1724.97
546.50	1348.15
546.67	1214.74
546.83	1308.36
547.00	1174.95
547.17	1022.81
547.34	1027.50
547.50	973.66
547.67	1083.67
547.84	1025.15
548.00	1041.54
548.17	954.94
548.34	978.34
548.51	994.73
548.67	968.98
548.84	1071.97
549.01	940.90
549.18	875.36
549.34	954.94
549.51	908.13
549.68	936.21
549.84	812.17
550.01	898.77
550.18	844.93
550.34	800.46
550.51	763.01
550.68	849.61
550.84	840.25
551.01	737.27
551.18	812.17
551.34	767.70
551.51	748.97
551.68	781.74
551.84	748.97
552.01	706.84
552.18	753.65
552.34	720.88
552.51	624.92
552.68	660.03
552.84	725.57
553.01	711.52
553.18	732.59
553.34	755.99
553.51	578.11
553.67	681.10
553.84	727.91
554.01	660.03
554.17	660.03
554.34	634.29
554.51	713.86
554.67	638.97
554.84	692.80
555.00	613.22
555.17	704.50
555.33	657.69
555.50	650.67
555.67	601.52
555.83	622.58
556.00	573.43
556.16	720.88
556.33	699.82
556.50	662.37
556.66	557.05
556.83	566.41
556.99	624.92
557.16	622.58
557.32	589.82
557.49	634.29
557.65	589.82
557.82	596.84
557.98	653.01
558.15	533.64
558.32	514.92
558.48	482.15
558.65	636.63
558.81	589.82
558.98	596.84
559.14	620.24
559.31	674.07
559.47	634.29
559.64	540.66
559.80	533.64
559.97	564.07
560.13	634.29
560.30	634.29
560.46	645.99
560.63	538.32
560.79	596.84
560.96	554.71
561.12	578.11
561.29	641.31
561.45	571.09
561.61	594.50
561.78	645.99
561.94	566.41
562.11	603.86
562.27	512.58
562.44	538.32
562.60	580.45
562.77	521.94
562.93	578.11
563.10	540.66
563.26	557.05
563.42	559.39
563.59	580.45
563.75	503.22
563.92	613.22
564.08	528.96
564.24	535.98
564.41	615.56
564.57	500.87
564.74	557.05
564.90	521.94
565.07	601.52
565.23	531.30
565.39	507.90
565.56	526.62
565.72	531.30
565.88	547.69
566.05	568.75
566.21	615.56
566.38	575.77
566.54	624.92
566.70	547.69
566.87	582.79
567.03	580.45
567.19	589.82
567.36	561.73
567.52	571.09
567.68	493.85
567.85	505.56
568.01	622.58
568.17	500.87
568.34	594.50
568.50	514.92
568.66	507.90
568.83	615.56
568.99	528.96
569.15	564.07
569.32	524.28
569.48	543.00
569.64	463.43
569.81	559.39
569.97	528.96
570.13	571.09
570.30	433.00
570.46	507.90
570.62	524.28
570.78	519.60
570.95	468.11
571.11	554.71
571.27	589.82
571.43	411.93
571.60	510.24
571.76	470.45
571.92	447.04
572.09	557.05
572.25	554.71
572.41	521.94
572.57	524.28
572.74	554.71
572.90	561.73
573.06	505.56
573.22	545.34
573.38	608.54
573.55	514.92
573.71	580.45
573.87	578.11
574.03	559.39
574.20	472.79
574.36	493.85
574.52	519.60
574.68	545.34
574.84	547.69
575.01	458.74
575.17	566.41
575.33	510.24
575.49	496.19
575.65	599.18
575.82	503.22
575.98	622.58
576.14	531.30
576.30	594.50
576.46	732.59
576.62	985.37
576.79	983.02
576.95	873.02
577.11	695.14
577.27	669.39
577.43	648.33
577.59	559.39
577.75	526.62
577.92	582.79
578.08	566.41
578.24	503.22
578.40	603.86
578.56	772.38
578.72	947.92
578.88	933.87
579.04	837.91
579.21	772.38
579.37	720.88
579.53	631.94
579.69	760.67
579.85	718.54
580.01	720.88
580.17	720.88
580.33	627.26
580.49	599.18
580.65	650.67
580.82	667.05
580.98	648.33
581.14	631.94
581.30	709.18
581.46	627.26
581.62	620.24
581.78	606.20
581.94	657.69
582.10	674.07
582.26	716.20
582.42	601.52
582.58	709.18
582.74	737.27
582.90	695.14
583.06	741.95
583.22	589.82
583.38	657.69
583.54	716.20
583.70	657.69
583.86	727.91
584.02	730.25
584.18	678.76
584.34	608.54
584.50	669.39
584.66	631.94
584.82	627.26
584.98	629.60
585.14	627.26
585.30	695.14
585.46	631.94
585.62	580.45
585.78	690.46
585.94	603.86
586.10	643.65
586.26	669.39
586.42	650.67
586.58	760.67
586.74	699.82
586.90	823.87
587.06	884.72
587.22	896.43
587.38	777.06
587.54	741.95
587.70	819.19
587.86	709.18
588.02	613.22
588.18	676.41
588.34	585.13
588.49	440.02
588.65	517.26
588.81	489.17
588.97	489.17
589.13	561.73
589.29	554.71
589.45	454.06
589.61	526.62
589.77	599.18
589.93	524.28
590.08	458.74
590.24	550.03
590.40	535.98
590.56	617.90
590.72	596.84
590.88	451.72
591.04	503.22
591.20	564.07
591.35	627.26
591.51	512.58
591.67	425.98
591.83	613.22
591.99	641.31
592.15	610.88
592.31	533.64
592.46	627.26
592.62	699.82
592.78	627.26
592.94	631.94
593.10	608.54
593.26	667.05
593.41	671.73
593.57	554.71
593.73	596.84
593.89	615.56
594.05	552.37
594.20	500.87
594.36	486.83
594.52	486.83
594.68	514.92
594.84	489.17
594.99	510.24
595.15	444.70
595.31	540.66
595.47	449.38
595.62	458.74
595.78	463.43
595.94	528.96
596.10	461.09
596.25	535.98
596.41	592.16
596.57	547.69
596.73	547.69
596.88	575.77
597.04	587.47
597.20	505.56
597.36	517.26
597.51	535.98
597.67	498.53
597.83	468.11
597.99	519.60
598.14	545.34
598.30	627.26
598.46	517.26
598.61	561.73
598.77	566.41
598.93	538.32
599.09	648.33
599.24	582.79
599.40	601.52
599.56	545.34
599.71	552.37
599.87	533.64
600.03	592.16
600.18	613.22
600.34	477.47
600.50	482.15
600.65	500.87
600.81	540.66
600.97	456.40
601.12	608.54
601.28	547.69
601.44	456.40
601.59	435.34
601.75	454.06
601.91	423.64
602.06	592.16
602.22	564.07
602.37	454.06
602.53	477.47
602.69	468.11
602.84	540.66
603.00	475.13
603.16	479.81
603.31	500.87
603.47	526.62
603.62	470.45
603.78	500.87
603.94	454.06
604.09	479.81
604.25	550.03
604.40	489.17
604.56	566.41
604.71	547.69
604.87	505.56
605.03	449.38
605.18	505.56
605.34	599.18
605.49	470.45
605.65	484.49
605.80	566.41
605.96	512.58
606.12	559.39
606.27	451.72
606.43	533.64
606.58	517.26
606.74	543.00
606.89	519.60
607.05	540.66
607.20	545.34
607.36	550.03
607.51	521.94
607.67	526.62
607.82	568.75
607.98	554.71
608.13	585.13
608.29	543.00
608.44	655.35
608.60	606.20
608.75	786.42
608.91	657.69
609.06	678.76
609.22	781.74
609.37	772.38
609.53	814.51
609.68	805.14
609.84	938.55
609.99	945.58
610.15	1111.75
