SpectraSuite Data File
++++++++++++++++++++++++++++++++++++
Date: Fri Oct 04 11:41:53 GMT-05:00 2013
User: price-jones
Dark Spectrum Present: No
Reference Spectrum Present: No
Number of Sampled Component Spectra: 1
Spectrometers: USB2+H05261
Integration Time (usec): 100000 (USB2+H05261)
Spectra Averaged: 1 (USB2+H05261)
Boxcar Smoothing: 0 (USB2+H05261)
Correct for Electrical Dark: No (USB2+H05261)
Strobe/Lamp Enabled: No (USB2+H05261)
Correct for Detector Non-linearity: No (USB2+H05261)
Correct for Stray Light: No (USB2+H05261)
Number of Pixels in Processed Spectrum: 2048
>>>>>Begin Processed Spectral Data<<<<<
365.73	44.47
365.92	44.47
366.12	44.47
366.32	0.00
366.52	0.00
366.72	0.00
366.91	0.00
367.11	0.00
367.31	0.00
367.51	0.00
367.70	0.00
367.90	0.00
368.10	0.00
368.30	0.00
368.49	0.00
368.69	0.00
368.89	0.00
369.09	0.00
369.28	0.00
369.48	0.00
369.68	0.00
369.87	7.02
370.07	0.00
370.27	0.00
370.47	0.00
370.66	58.51
370.86	18.72
371.06	93.62
371.25	135.75
371.45	60.85
371.65	163.84
371.84	98.30
372.04	51.49
372.24	81.92
372.44	91.28
372.63	51.49
372.83	166.18
373.03	88.94
373.22	147.45
373.42	102.98
373.62	67.88
373.81	177.88
374.01	70.22
374.21	93.62
374.40	95.96
374.60	149.79
374.79	65.54
374.99	88.94
375.19	191.92
375.38	119.37
375.58	114.69
375.78	182.56
375.97	161.50
376.17	156.82
376.37	138.09
376.56	81.92
376.76	88.94
376.95	124.05
377.15	154.48
377.35	177.88
377.54	156.82
377.74	44.47
377.93	98.30
378.13	184.90
378.33	145.11
378.52	114.69
378.72	208.31
378.91	128.73
379.11	46.81
379.31	81.92
379.50	74.90
379.70	227.03
379.89	98.30
380.09	114.69
380.28	124.05
380.48	105.32
380.68	105.32
380.87	102.98
381.07	91.28
381.26	210.65
381.46	149.79
381.65	149.79
381.85	88.94
382.04	135.75
382.24	173.20
382.43	58.51
382.63	152.13
382.83	74.90
383.02	102.98
383.22	114.69
383.41	74.90
383.61	11.70
383.80	81.92
384.00	51.49
384.19	65.54
384.39	100.64
384.58	35.11
384.78	93.62
384.97	201.29
385.17	154.48
385.36	147.45
385.56	67.88
385.75	46.81
385.95	152.13
386.14	140.43
386.34	84.26
386.53	175.54
386.72	107.66
386.92	182.56
387.11	131.07
387.31	156.82
387.50	102.98
387.70	98.30
387.89	133.41
388.09	159.16
388.28	84.26
388.48	100.64
388.67	117.03
388.86	56.17
389.06	147.45
389.25	112.35
389.45	51.49
389.64	51.49
389.84	194.26
390.03	51.49
390.22	102.98
390.42	163.84
390.61	140.43
390.81	88.94
391.00	49.15
391.19	135.75
391.39	114.69
391.58	110.01
391.78	149.79
391.97	100.64
392.16	102.98
392.36	112.35
392.55	212.99
392.75	95.96
392.94	154.48
393.13	152.13
393.33	140.43
393.52	149.79
393.71	198.95
393.91	135.75
394.10	182.56
394.29	166.18
394.49	84.26
394.68	79.58
394.88	121.71
395.07	166.18
395.26	119.37
395.46	110.01
395.65	191.92
395.84	77.24
396.04	187.24
396.23	159.16
396.42	121.71
396.62	182.56
396.81	140.43
397.00	95.96
397.19	166.18
397.39	159.16
397.58	173.20
397.77	117.03
397.97	142.77
398.16	166.18
398.35	67.88
398.55	145.11
398.74	131.07
398.93	112.35
399.12	72.56
399.32	95.96
399.51	177.88
399.70	140.43
399.90	182.56
400.09	65.54
400.28	194.26
400.47	191.92
400.67	229.37
400.86	135.75
401.05	189.58
401.24	147.45
401.44	135.75
401.63	189.58
401.82	248.10
402.01	180.22
402.21	138.09
402.40	180.22
402.59	205.97
402.78	140.43
402.97	264.48
403.17	196.60
403.36	227.03
403.55	320.65
403.74	631.94
403.93	1607.95
404.13	3730.81
404.32	4641.28
404.51	3913.38
404.70	2214.15
404.89	851.96
405.09	386.19
405.28	229.37
405.47	210.65
405.66	210.65
405.85	166.18
406.05	191.92
406.24	102.98
406.43	128.73
406.62	236.39
406.81	241.08
407.00	306.61
407.20	531.30
407.39	716.20
407.58	641.31
407.77	395.55
407.96	346.40
408.15	236.39
408.34	107.66
408.54	154.48
408.73	231.71
408.92	156.82
409.11	156.82
409.30	112.35
409.49	156.82
409.68	201.29
409.87	149.79
410.07	142.77
410.26	203.63
410.45	119.37
410.64	152.13
410.83	227.03
411.02	142.77
411.21	189.58
411.40	166.18
411.59	194.26
411.78	159.16
411.98	250.44
412.17	102.98
412.36	238.73
412.55	201.29
412.74	212.99
412.93	184.90
413.12	189.58
413.31	208.31
413.50	205.97
413.69	212.99
413.88	238.73
414.07	184.90
414.26	133.41
414.45	220.01
414.64	318.31
414.83	278.52
415.02	196.60
415.22	210.65
415.41	243.42
415.60	126.39
415.79	241.08
415.98	208.31
416.17	271.50
416.36	224.69
416.55	250.44
416.74	196.60
416.93	229.37
417.12	198.95
417.31	234.05
417.50	248.10
417.69	241.08
417.88	236.39
418.07	175.54
418.26	280.86
418.45	187.24
418.64	285.55
418.83	203.63
419.02	220.01
419.21	248.10
419.39	173.20
419.58	161.50
419.77	205.97
419.96	205.97
420.15	208.31
420.34	241.08
420.53	264.48
420.72	280.86
420.91	234.05
421.10	210.65
421.29	250.44
421.48	215.33
421.67	212.99
421.86	166.18
422.05	262.14
422.24	187.24
422.43	191.92
422.61	259.80
422.80	163.84
422.99	229.37
423.18	259.80
423.37	353.42
423.56	262.14
423.75	245.76
423.94	180.22
424.13	266.82
424.32	241.08
424.50	182.56
424.69	234.05
424.88	278.52
425.07	224.69
425.26	238.73
425.45	290.23
425.64	259.80
425.83	168.52
426.01	304.27
426.20	308.95
426.39	234.05
426.58	220.01
426.77	187.24
426.96	290.23
427.15	269.16
427.33	241.08
427.52	280.86
427.71	245.76
427.90	250.44
428.09	243.42
428.28	266.82
428.46	308.95
428.65	276.18
428.84	276.18
429.03	308.95
429.22	170.86
429.40	344.06
429.59	250.44
429.78	330.02
429.97	273.84
430.16	262.14
430.34	252.78
430.53	266.82
430.72	217.67
430.91	285.55
431.10	287.89
431.28	285.55
431.47	313.63
431.66	341.72
431.85	273.84
432.03	320.65
432.22	360.44
432.41	360.44
432.60	418.96
432.79	273.84
432.97	374.49
433.16	428.32
433.35	449.38
433.54	468.11
433.72	559.39
433.91	484.49
434.10	557.05
434.28	592.16
434.47	709.18
434.66	842.59
434.85	947.92
435.03	2796.94
435.22	10125.16
435.41	21053.12
435.59	19751.78
435.78	12987.63
435.97	6431.79
436.16	2495.01
436.34	931.53
436.53	561.73
436.72	465.77
436.90	418.96
437.09	360.44
437.28	374.49
437.46	318.31
437.65	465.77
437.84	418.96
438.02	470.45
438.21	418.96
438.40	341.72
438.58	332.36
438.77	348.74
438.96	369.80
439.14	383.85
439.33	383.85
439.52	365.12
439.70	365.12
439.89	386.19
440.08	425.98
440.26	327.68
440.45	353.42
440.63	294.91
440.82	374.49
441.01	285.55
441.19	369.80
441.38	348.74
441.57	353.42
441.75	376.83
441.94	423.64
442.12	367.46
442.31	388.53
442.50	301.93
442.68	348.74
442.87	337.04
443.05	379.17
443.24	369.80
443.43	407.25
443.61	334.70
443.80	355.76
443.98	297.25
444.17	337.04
444.35	418.96
444.54	372.15
444.73	388.53
444.91	428.32
445.10	358.10
445.28	332.36
445.47	287.89
445.65	369.80
445.84	353.42
446.02	294.91
446.21	400.23
446.39	418.96
446.58	348.74
446.77	315.97
446.95	400.23
447.14	337.04
447.32	369.80
447.51	353.42
447.69	358.10
447.88	327.68
448.06	353.42
448.25	278.52
448.43	341.72
448.62	337.04
448.80	308.95
448.99	360.44
449.17	292.57
449.36	313.63
449.54	334.70
449.73	362.78
449.91	369.80
450.10	362.78
450.28	437.68
450.46	383.85
450.65	348.74
450.83	332.36
451.02	390.87
451.20	390.87
451.39	348.74
451.57	285.55
451.76	330.02
451.94	402.57
452.13	360.44
452.31	358.10
452.49	386.19
452.68	322.99
452.86	404.91
453.05	444.70
453.23	376.83
453.42	402.57
453.60	393.21
453.78	440.02
453.97	341.72
454.15	372.15
454.34	304.27
454.52	306.61
454.70	388.53
454.89	365.12
455.07	306.61
455.26	325.33
455.44	334.70
455.62	318.31
455.81	367.46
455.99	334.70
456.17	374.49
456.36	341.72
456.54	318.31
456.73	463.43
456.91	346.40
457.09	315.97
457.28	381.51
457.46	425.98
457.64	339.38
457.83	353.42
458.01	381.51
458.19	383.85
458.38	393.21
458.56	351.08
458.74	318.31
458.93	369.80
459.11	402.57
459.29	287.89
459.48	313.63
459.66	344.06
459.84	313.63
460.03	437.68
460.21	362.78
460.39	390.87
460.57	383.85
460.76	358.10
460.94	159.16
461.12	297.25
461.31	330.02
461.49	320.65
461.67	341.72
461.85	299.59
462.04	348.74
462.22	802.80
462.40	351.08
462.59	358.10
462.77	344.06
462.95	304.27
463.13	257.46
463.32	271.50
463.50	383.85
463.68	332.36
463.86	285.55
464.05	346.40
464.23	311.29
464.41	325.33
464.59	348.74
464.78	334.70
464.96	322.99
465.14	372.15
465.32	330.02
465.50	308.95
465.69	341.72
465.87	294.91
466.05	367.46
466.23	299.59
466.41	414.27
466.60	437.68
466.78	327.68
466.96	444.70
467.14	351.08
467.32	358.10
467.51	348.74
467.69	337.04
467.87	435.34
468.05	360.44
468.23	353.42
468.41	400.23
468.60	301.93
468.78	358.10
468.96	351.08
469.14	327.68
469.32	320.65
469.50	297.25
469.69	341.72
469.87	322.99
470.05	334.70
470.23	308.95
470.41	215.33
470.59	262.14
470.77	334.70
470.95	383.85
471.14	212.99
471.32	308.95
471.50	355.76
471.68	369.80
471.86	369.80
472.04	290.23
472.22	311.29
472.40	299.59
472.58	301.93
472.77	313.63
472.95	353.42
473.13	348.74
473.31	383.85
473.49	311.29
473.67	245.76
473.85	276.18
474.03	358.10
474.21	301.93
474.39	344.06
474.57	444.70
474.75	348.74
474.93	397.89
475.12	320.65
475.30	376.83
475.48	311.29
475.66	330.02
475.84	311.29
476.02	372.15
476.20	344.06
476.38	287.89
476.56	376.83
476.74	339.38
476.92	334.70
477.10	306.61
477.28	393.21
477.46	365.12
477.64	332.36
477.82	344.06
478.00	332.36
478.18	374.49
478.36	355.76
478.54	325.33
478.72	367.46
478.90	409.59
479.08	416.62
479.26	440.02
479.44	386.19
479.62	360.44
479.80	477.47
479.98	463.43
480.16	463.43
480.34	456.40
480.52	477.47
480.70	519.60
480.88	491.51
481.06	540.66
481.24	507.90
481.41	627.26
481.59	653.01
481.77	578.11
481.95	664.71
482.13	678.76
482.31	755.99
482.49	753.65
482.67	777.06
482.85	952.60
483.03	910.47
483.21	933.87
483.39	1069.62
483.57	1137.50
483.74	1156.22
483.92	1254.53
484.10	1263.89
484.28	1413.68
484.46	1357.51
484.64	1446.45
484.82	1502.62
485.00	1575.18
485.18	1776.47
485.35	1818.60
485.53	1776.47
485.71	1975.41
485.89	2010.52
486.07	1989.46
486.25	2066.69
486.43	2167.34
486.61	2183.72
486.78	2148.61
486.96	2148.61
487.14	2136.91
487.32	2132.23
487.50	2092.44
487.68	2050.31
487.85	2031.58
488.03	2045.63
488.21	2097.12
488.39	1994.14
488.57	1914.56
488.75	1879.45
488.92	2143.93
489.10	1853.70
489.28	1795.19
489.46	1729.66
489.64	1605.61
489.81	1750.72
489.99	1650.08
490.17	1680.50
490.35	1563.48
490.53	1584.54
490.70	1603.27
490.88	1617.31
491.06	1715.61
491.24	1774.13
491.41	1870.09
491.59	1685.19
491.77	1603.27
491.95	1533.05
492.13	1455.81
492.30	1479.22
492.48	1476.88
492.66	1481.56
492.84	1380.92
493.01	1242.82
493.19	1418.36
493.37	1399.64
493.54	1423.05
493.72	1364.53
493.90	1366.87
494.08	1348.15
494.25	1240.48
494.43	1334.11
494.61	1273.25
494.79	1165.59
494.96	1165.59
495.14	1254.53
495.32	1219.42
495.49	1268.57
495.67	1186.65
495.85	1233.46
496.02	1041.54
496.20	1100.05
496.38	1032.18
496.55	1093.03
496.73	1013.45
496.91	987.71
497.09	1076.65
497.26	945.58
497.44	933.87
497.62	997.07
497.79	994.73
497.97	985.37
498.14	952.60
498.32	903.45
498.50	922.17
498.67	821.53
498.85	882.38
499.03	833.23
499.20	847.27
499.38	837.91
499.56	779.40
499.73	851.96
499.91	765.36
500.08	781.74
500.26	692.80
500.44	641.31
500.61	695.14
500.79	695.14
500.97	615.56
501.14	681.10
501.32	702.16
501.49	620.24
501.67	667.05
501.84	638.97
502.02	564.07
502.20	643.65
502.37	589.82
502.55	514.92
502.72	503.22
502.90	468.11
503.07	524.28
503.25	472.79
503.43	465.77
503.60	524.28
503.78	507.90
503.95	526.62
504.13	465.77
504.30	489.17
504.48	475.13
504.65	482.15
504.83	521.94
505.01	505.56
505.18	461.09
505.36	447.04
505.53	475.13
505.71	390.87
505.88	376.83
506.06	351.08
506.23	428.32
506.41	381.51
506.58	428.32
506.76	390.87
506.93	360.44
507.11	374.49
507.28	395.55
507.46	351.08
507.63	334.70
507.81	383.85
507.98	365.12
508.16	404.91
508.33	402.57
508.50	386.19
508.68	395.55
508.85	482.15
509.03	435.34
509.20	435.34
509.38	421.30
509.55	339.38
509.73	428.32
509.90	461.09
510.08	421.30
510.25	472.79
510.42	388.53
510.60	421.30
510.77	362.78
510.95	330.02
511.12	346.40
511.30	437.68
511.47	287.89
511.64	449.38
511.82	383.85
511.99	376.83
512.17	348.74
512.34	383.85
512.51	315.97
512.69	409.59
512.86	341.72
513.04	348.74
513.21	411.93
513.38	355.76
513.56	311.29
513.73	320.65
513.90	379.17
514.08	325.33
514.25	346.40
514.43	348.74
514.60	339.38
514.77	271.50
514.95	372.15
515.12	374.49
515.29	327.68
515.47	325.33
515.64	327.68
515.81	400.23
515.99	418.96
516.16	362.78
516.33	304.27
516.51	292.57
516.68	285.55
516.85	306.61
517.03	346.40
517.20	353.42
517.37	276.18
517.54	337.04
517.72	353.42
517.89	245.76
518.06	259.80
518.24	358.10
518.41	369.80
518.58	276.18
518.75	337.04
518.93	269.16
519.10	243.42
519.27	348.74
519.45	311.29
519.62	327.68
519.79	280.86
519.96	320.65
520.14	388.53
520.31	344.06
520.48	365.12
520.65	301.93
520.83	313.63
521.00	313.63
521.17	353.42
521.34	311.29
521.52	287.89
521.69	287.89
521.86	245.76
522.03	301.93
522.20	376.83
522.38	262.14
522.55	351.08
522.72	306.61
522.89	311.29
523.07	381.51
523.24	341.72
523.41	327.68
523.58	283.20
523.75	400.23
523.92	252.78
524.10	332.36
524.27	346.40
524.44	355.76
524.61	369.80
524.78	276.18
524.96	334.70
525.13	393.21
525.30	337.04
525.47	386.19
525.64	348.74
525.81	358.10
525.98	322.99
526.16	311.29
526.33	306.61
526.50	334.70
526.67	334.70
526.84	421.30
527.01	374.49
527.18	365.12
527.36	402.57
527.53	383.85
527.70	344.06
527.87	346.40
528.04	454.06
528.21	313.63
528.38	351.08
528.55	360.44
528.72	367.46
528.89	402.57
529.07	479.81
529.24	381.51
529.41	437.68
529.58	374.49
529.75	435.34
529.92	437.68
530.09	416.62
530.26	489.17
530.43	425.98
530.60	423.64
530.77	437.68
530.94	475.13
531.11	533.64
531.28	489.17
531.46	437.68
531.63	552.37
531.80	594.50
531.97	500.87
532.14	634.29
532.31	765.36
532.48	723.23
532.65	901.11
532.82	1006.43
532.99	1172.61
533.16	1315.38
533.33	1280.27
533.50	1259.21
533.67	1053.24
533.84	945.58
534.01	823.87
534.18	809.83
534.35	800.46
534.52	741.95
534.69	823.87
534.86	880.04
535.03	840.25
535.20	891.74
535.37	912.81
535.54	1029.84
535.71	1025.15
535.88	1090.69
536.05	1158.57
536.22	1249.85
536.38	1331.76
536.55	1397.30
536.72	1603.27
536.89	1802.21
537.06	1928.60
537.23	2113.50
537.40	2324.15
537.57	2539.48
537.74	2682.25
537.91	2780.56
538.08	2750.13
538.25	2825.03
538.42	2785.24
538.59	2897.58
538.75	3061.42
538.92	3176.11
539.09	3494.42
539.26	3810.39
539.43	4468.08
539.60	4905.76
539.77	5427.70
539.94	6059.65
540.11	6745.42
540.28	7295.45
540.44	8044.42
540.61	8685.73
540.78	10499.64
540.95	12472.71
541.12	14904.53
541.29	16350.98
541.46	17123.36
541.62	16819.09
541.79	16322.90
541.96	15019.22
542.13	14080.66
542.30	12849.54
542.47	12114.61
542.63	11552.88
542.80	11414.79
542.97	11023.92
543.14	11094.14
543.31	10813.28
543.48	11096.48
543.64	11405.43
543.81	11672.25
543.98	11470.97
544.15	11396.07
544.32	11527.14
544.48	11522.46
544.65	11346.92
544.82	11360.96
544.99	11290.74
545.16	11676.93
545.32	12540.59
545.49	22504.25
545.66	40154.23
545.83	46667.94
546.00	38785.02
546.16	26623.59
546.33	19506.02
546.50	14752.40
546.67	11641.82
546.83	10499.64
547.00	9891.10
547.17	9359.80
547.34	8887.01
547.50	8730.20
547.67	8386.14
547.84	7906.33
548.00	7756.54
548.17	7379.71
548.34	7250.98
548.51	6956.07
548.67	6597.97
548.84	6303.06
549.01	5970.71
549.18	5818.57
549.34	5540.05
549.51	5320.04
549.68	5184.29
549.84	4975.98
550.01	4809.80
550.18	4503.19
550.34	4414.25
550.51	4227.01
550.68	3920.40
550.84	3721.45
551.01	3566.98
551.18	3358.67
551.34	3171.43
551.51	3061.42
551.68	2986.52
551.84	2913.97
552.01	2738.43
552.18	2644.81
552.34	2520.76
552.51	2518.42
552.68	2310.11
552.84	2359.26
553.01	2263.30
553.18	2190.74
553.34	2031.58
553.51	2054.99
553.67	1928.60
553.84	1923.92
554.01	1834.98
554.17	1703.91
554.34	1558.80
554.51	1458.15
554.67	1392.62
554.84	1345.81
555.00	1287.29
555.17	1289.64
555.33	1174.95
555.50	1179.63
555.67	1093.03
555.83	1067.28
556.00	957.28
556.16	1053.24
556.33	931.53
556.50	870.68
556.66	985.37
556.83	835.57
556.99	929.19
557.16	837.91
557.32	826.21
557.49	741.95
557.65	755.99
557.82	723.23
557.98	772.38
558.15	650.67
558.32	655.35
558.48	643.65
558.65	622.58
558.81	638.97
558.98	704.50
559.14	706.84
559.31	655.35
559.47	620.24
559.64	648.33
559.80	683.44
559.97	660.03
560.13	657.69
560.30	582.79
560.46	596.84
560.63	620.24
560.79	566.41
560.96	622.58
561.12	561.73
561.29	688.12
561.45	603.86
561.61	608.54
561.78	695.14
561.94	568.75
562.11	571.09
562.27	545.34
562.44	610.88
562.60	521.94
562.77	610.88
562.93	566.41
563.10	582.79
563.26	475.13
563.42	559.39
563.59	599.18
563.75	566.41
563.92	531.30
564.08	533.64
564.24	489.17
564.41	564.07
564.57	505.56
564.74	486.83
564.90	451.72
565.07	465.77
565.23	496.19
565.39	510.24
565.56	454.06
565.72	447.04
565.88	517.26
566.05	479.81
566.21	482.15
566.38	470.45
566.54	451.72
566.70	489.17
566.87	482.15
567.03	416.62
567.19	540.66
567.36	435.34
567.52	491.51
567.68	531.30
567.85	503.22
568.01	500.87
568.17	461.09
568.34	528.96
568.50	484.49
568.66	456.40
568.83	592.16
568.99	491.51
569.15	514.92
569.32	381.51
569.48	486.83
569.64	407.25
569.81	440.02
569.97	400.23
570.13	386.19
570.30	442.36
570.46	355.76
570.62	397.89
570.78	379.17
570.95	358.10
571.11	411.93
571.27	404.91
571.43	369.80
571.60	402.57
571.76	433.00
571.92	346.40
572.09	339.38
572.25	353.42
572.41	458.74
572.57	433.00
572.74	451.72
572.90	400.23
573.06	334.70
573.22	458.74
573.38	397.89
573.55	404.91
573.71	397.89
573.87	397.89
574.03	411.93
574.20	514.92
574.36	528.96
574.52	458.74
574.68	507.90
574.84	479.81
575.01	550.03
575.17	582.79
575.33	486.83
575.49	547.69
575.65	540.66
575.82	543.00
575.98	697.48
576.14	826.21
576.30	1558.80
576.46	4933.85
576.62	7936.76
576.79	7843.14
576.95	5621.97
577.11	3899.33
577.27	2530.12
577.43	1802.21
577.59	1277.93
577.75	997.07
577.92	870.68
578.08	950.26
578.24	968.98
578.40	1582.20
578.56	4519.57
578.72	6958.41
578.88	7337.58
579.04	5514.30
579.21	3749.54
579.37	2834.39
579.53	2289.04
579.69	2237.55
579.85	2651.83
580.01	3211.22
580.17	2932.69
580.33	2429.48
580.49	2228.19
580.65	2005.84
580.82	1834.98
580.98	1858.39
581.14	1788.17
581.30	2019.88
581.46	2017.54
581.62	2221.17
581.78	2399.05
581.94	2537.14
582.10	2670.55
582.26	2747.79
582.42	2822.69
582.58	2881.20
582.74	2885.88
582.90	2951.42
583.06	2935.03
583.22	3016.95
583.38	2925.67
583.54	3007.59
583.70	2977.16
583.86	2855.45
584.02	2911.63
584.18	2796.94
584.34	2689.28
584.50	2719.70
584.66	2700.98
584.82	2740.77
584.98	2595.65
585.14	2579.27
585.30	2487.99
585.46	2495.01
585.62	2406.07
585.78	2443.52
585.94	2469.27
586.10	2462.24
586.26	2892.90
586.42	3136.32
586.58	3686.34
586.74	4367.44
586.90	5200.67
587.06	5846.66
587.22	5476.85
587.38	5015.77
587.54	4243.39
587.70	3758.90
587.86	3038.02
588.02	2675.23
588.18	2385.01
588.34	2047.97
588.49	2022.22
588.65	1877.11
588.81	1851.36
588.97	1874.77
589.13	1734.34
589.29	1671.14
589.45	1643.06
589.61	1610.29
589.77	1823.28
589.93	1724.97
590.08	1708.59
590.24	1811.57
590.40	1785.83
590.56	1905.20
590.72	1851.36
590.88	1933.28
591.04	2038.61
591.20	2104.14
591.35	2338.20
591.51	2225.85
591.67	2399.05
591.83	2579.27
591.99	2717.36
592.15	2986.52
592.31	3213.56
592.46	3506.12
592.62	3880.61
592.78	3939.12
592.94	4014.02
593.10	3852.52
593.26	3889.97
593.41	3499.10
593.57	3187.81
593.73	2916.31
593.89	2597.99
594.05	2216.49
594.20	1905.20
594.36	1874.77
594.52	1720.29
594.68	1661.78
594.84	1629.01
594.99	1664.12
595.15	1626.67
595.31	1542.41
595.47	1509.65
595.62	1540.07
595.78	1561.14
595.94	1565.82
596.10	1378.58
596.25	1425.39
596.41	1483.90
596.57	1519.01
596.73	1535.39
596.88	1500.28
597.04	1483.90
597.20	1533.05
597.36	1540.07
597.51	1631.35
597.67	1636.03
597.83	1703.91
597.99	1827.96
598.14	1933.28
598.30	2099.46
598.46	2083.08
598.61	2289.04
598.77	2352.24
598.93	2389.69
599.09	2511.39
599.24	2586.29
599.40	2387.35
599.56	2422.45
599.71	2347.56
599.87	2148.61
600.03	2115.84
600.18	1968.39
600.34	1778.81
600.50	1624.33
600.65	1558.80
600.81	1544.75
600.97	1334.11
601.12	1406.66
601.28	1387.94
601.44	1247.51
601.59	1146.86
601.75	1111.75
601.91	1146.86
602.06	1156.22
602.22	1137.50
602.37	1130.48
602.53	1013.45
602.69	973.66
602.84	1128.14
603.00	1060.26
603.16	1090.69
603.31	1078.99
603.47	1107.07
603.62	1053.24
603.78	1107.07
603.94	1123.46
604.09	1149.20
604.25	1125.80
604.40	1188.99
604.56	1226.44
604.71	1277.93
604.87	1268.57
605.03	1240.48
605.18	1294.32
605.34	1282.61
605.49	1371.55
605.65	1317.72
605.80	1416.02
605.96	1460.49
606.12	1540.07
606.27	1605.61
