SpectraSuite Data File
++++++++++++++++++++++++++++++++++++
Date: Fri Oct 04 11:42:10 GMT-05:00 2013
User: price-jones
Dark Spectrum Present: No
Reference Spectrum Present: No
Number of Sampled Component Spectra: 1
Spectrometers: USB2+H05261
Integration Time (usec): 100000 (USB2+H05261)
Spectra Averaged: 1 (USB2+H05261)
Boxcar Smoothing: 0 (USB2+H05261)
Correct for Electrical Dark: No (USB2+H05261)
Strobe/Lamp Enabled: No (USB2+H05261)
Correct for Detector Non-linearity: No (USB2+H05261)
Correct for Stray Light: No (USB2+H05261)
Number of Pixels in Processed Spectrum: 2048
>>>>>Begin Processed Spectral Data<<<<<
365.73	21.06
365.92	21.06
366.12	21.06
366.32	0.00
366.52	0.00
366.72	4.68
366.91	0.00
367.11	0.00
367.31	0.00
367.51	0.00
367.70	0.00
367.90	16.38
368.10	0.00
368.30	0.00
368.49	0.00
368.69	0.00
368.89	0.00
369.09	0.00
369.28	0.00
369.48	0.00
369.68	0.00
369.87	0.00
370.07	0.00
370.27	0.00
370.47	79.58
370.66	0.00
370.86	49.15
371.06	86.60
371.25	119.37
371.45	84.26
371.65	110.01
371.84	14.04
372.04	138.09
372.24	81.92
372.44	107.66
372.63	86.60
372.83	124.05
373.03	189.58
373.22	58.51
373.42	121.71
373.62	117.03
373.81	138.09
374.01	98.30
374.21	166.18
374.40	72.56
374.60	114.69
374.79	133.41
374.99	72.56
375.19	112.35
375.38	81.92
375.58	138.09
375.78	121.71
375.97	149.79
376.17	121.71
376.37	84.26
376.56	133.41
376.76	145.11
376.95	159.16
377.15	229.37
377.35	126.39
377.54	91.28
377.74	128.73
377.93	126.39
378.13	86.60
378.33	74.90
378.52	81.92
378.72	95.96
378.91	84.26
379.11	117.03
379.31	128.73
379.50	119.37
379.70	107.66
379.89	93.62
380.09	154.48
380.28	60.85
380.48	198.95
380.68	131.07
380.87	35.11
381.07	81.92
381.26	208.31
381.46	119.37
381.65	56.17
381.85	184.90
382.04	44.47
382.24	119.37
382.43	98.30
382.63	142.77
382.83	156.82
383.02	70.22
383.22	131.07
383.41	72.56
383.61	77.24
383.80	88.94
384.00	88.94
384.19	84.26
384.39	121.71
384.58	131.07
384.78	88.94
384.97	114.69
385.17	58.51
385.36	63.19
385.56	131.07
385.75	128.73
385.95	110.01
386.14	149.79
386.34	37.45
386.53	98.30
386.72	65.54
386.92	145.11
387.11	149.79
387.31	135.75
387.50	56.17
387.70	102.98
387.89	117.03
388.09	135.75
388.28	63.19
388.48	67.88
388.67	114.69
388.86	119.37
389.06	142.77
389.25	77.24
389.45	49.15
389.64	98.30
389.84	147.45
390.03	180.22
390.22	84.26
390.42	72.56
390.61	84.26
390.81	58.51
391.00	156.82
391.19	124.05
391.39	88.94
391.58	128.73
391.78	98.30
391.97	91.28
392.16	74.90
392.36	112.35
392.55	126.39
392.75	74.90
392.94	102.98
393.13	152.13
393.33	51.49
393.52	56.17
393.71	173.20
393.91	112.35
394.10	114.69
394.29	93.62
394.49	168.52
394.68	187.24
394.88	140.43
395.07	182.56
395.26	84.26
395.46	81.92
395.65	23.41
395.84	140.43
396.04	194.26
396.23	170.86
396.42	152.13
396.62	95.96
396.81	107.66
397.00	126.39
397.19	60.85
397.39	135.75
397.58	128.73
397.77	131.07
397.97	194.26
398.16	107.66
398.35	133.41
398.55	114.69
398.74	140.43
398.93	152.13
399.12	119.37
399.32	93.62
399.51	191.92
399.70	107.66
399.90	100.64
400.09	81.92
400.28	159.16
400.47	44.47
400.67	135.75
400.86	175.54
401.05	102.98
401.24	163.84
401.44	191.92
401.63	156.82
401.82	100.64
402.01	168.52
402.21	102.98
402.40	105.32
402.59	145.11
402.78	128.73
402.97	163.84
403.17	119.37
403.36	93.62
403.55	121.71
403.74	138.09
403.93	72.56
404.13	259.80
404.32	215.33
404.51	145.11
404.70	121.71
404.89	182.56
405.09	208.31
405.28	131.07
405.47	77.24
405.66	98.30
405.85	124.05
406.05	145.11
406.24	86.60
406.43	142.77
406.62	147.45
406.81	105.32
407.00	102.98
407.20	159.16
407.39	95.96
407.58	161.50
407.77	107.66
407.96	175.54
408.15	86.60
408.34	173.20
408.54	70.22
408.73	166.18
408.92	102.98
409.11	133.41
409.30	156.82
409.49	95.96
409.68	107.66
409.87	208.31
410.07	65.54
410.26	42.13
410.45	124.05
410.64	0.00
410.83	163.84
411.02	126.39
411.21	180.22
411.40	173.20
411.59	110.01
411.78	93.62
411.98	156.82
412.17	95.96
412.36	88.94
412.55	81.92
412.74	112.35
412.93	117.03
413.12	46.81
413.31	140.43
413.50	203.63
413.69	145.11
413.88	147.45
414.07	114.69
414.26	86.60
414.45	70.22
414.64	166.18
414.83	180.22
415.02	100.64
415.22	154.48
415.41	145.11
415.60	93.62
415.79	77.24
415.98	175.54
416.17	229.37
416.36	168.52
416.55	138.09
416.74	187.24
416.93	156.82
417.12	161.50
417.31	91.28
417.50	133.41
417.69	142.77
417.88	93.62
418.07	98.30
418.26	138.09
418.45	44.47
418.64	203.63
418.83	180.22
419.02	142.77
419.21	117.03
419.39	121.71
419.58	98.30
419.77	135.75
419.96	105.32
420.15	140.43
420.34	149.79
420.53	100.64
420.72	81.92
420.91	177.88
421.10	105.32
421.29	149.79
421.48	175.54
421.67	166.18
421.86	121.71
422.05	159.16
422.24	191.92
422.43	191.92
422.61	110.01
422.80	166.18
422.99	154.48
423.18	152.13
423.37	154.48
423.56	177.88
423.75	187.24
423.94	121.71
424.13	46.81
424.32	110.01
424.50	128.73
424.69	91.28
424.88	161.50
425.07	58.51
425.26	147.45
425.45	107.66
425.64	191.92
425.83	126.39
426.01	124.05
426.20	133.41
426.39	117.03
426.58	135.75
426.77	140.43
426.96	170.86
427.15	159.16
427.33	117.03
427.52	126.39
427.71	100.64
427.90	180.22
428.09	88.94
428.28	205.97
428.46	145.11
428.65	107.66
428.84	173.20
429.03	212.99
429.22	102.98
429.40	173.20
429.59	110.01
429.78	145.11
429.97	93.62
430.16	93.62
430.34	114.69
430.53	105.32
430.72	86.60
430.91	191.92
431.10	105.32
431.28	154.48
431.47	88.94
431.66	79.58
431.85	84.26
432.03	98.30
432.22	159.16
432.41	147.45
432.60	163.84
432.79	135.75
432.97	170.86
433.16	65.54
433.35	117.03
433.54	133.41
433.72	117.03
433.91	114.69
434.10	159.16
434.28	105.32
434.47	161.50
434.66	191.92
434.85	163.84
435.03	194.26
435.22	479.81
435.41	601.52
435.59	578.11
435.78	543.00
435.97	280.86
436.16	189.58
436.34	187.24
436.53	142.77
436.72	187.24
436.90	168.52
437.09	222.35
437.28	180.22
437.46	210.65
437.65	173.20
437.84	159.16
438.02	119.37
438.21	114.69
438.40	138.09
438.58	102.98
438.77	177.88
438.96	194.26
439.14	117.03
439.33	208.31
439.52	154.48
439.70	182.56
439.89	81.92
440.08	126.39
440.26	114.69
440.45	222.35
440.63	180.22
440.82	140.43
441.01	182.56
441.19	170.86
441.38	135.75
441.57	196.60
441.75	79.58
441.94	224.69
442.12	142.77
442.31	128.73
442.50	154.48
442.68	168.52
442.87	135.75
443.05	140.43
443.24	128.73
443.43	208.31
443.61	184.90
443.80	124.05
443.98	152.13
444.17	210.65
444.35	173.20
444.54	191.92
444.73	191.92
444.91	210.65
445.10	163.84
445.28	138.09
445.47	271.50
445.65	140.43
445.84	126.39
446.02	102.98
446.21	117.03
446.39	133.41
446.58	168.52
446.77	180.22
446.95	154.48
447.14	210.65
447.32	264.48
447.51	98.30
447.69	210.65
447.88	180.22
448.06	175.54
448.25	187.24
448.43	152.13
448.62	95.96
448.80	189.58
448.99	156.82
449.17	168.52
449.36	133.41
449.54	138.09
449.73	191.92
449.91	191.92
450.10	163.84
450.28	177.88
450.46	203.63
450.65	212.99
450.83	124.05
451.02	175.54
451.20	138.09
451.39	161.50
451.57	93.62
451.76	102.98
451.94	147.45
452.13	231.71
452.31	194.26
452.49	217.67
452.68	175.54
452.86	201.29
453.05	212.99
453.23	128.73
453.42	133.41
453.60	142.77
453.78	156.82
453.97	117.03
454.15	161.50
454.34	222.35
454.52	170.86
454.70	264.48
454.89	180.22
455.07	184.90
455.26	168.52
455.44	161.50
455.62	201.29
455.81	215.33
455.99	100.64
456.17	152.13
456.36	119.37
456.54	149.79
456.73	175.54
456.91	203.63
457.09	163.84
457.28	245.76
457.46	159.16
457.64	201.29
457.83	252.78
458.01	84.26
458.19	175.54
458.38	168.52
458.56	147.45
458.74	168.52
458.93	196.60
459.11	173.20
459.29	175.54
459.48	168.52
459.66	205.97
459.84	231.71
460.03	245.76
460.21	182.56
460.39	138.09
460.57	110.01
460.76	205.97
460.94	149.79
461.12	264.48
461.31	222.35
461.49	175.54
461.67	142.77
461.85	159.16
462.04	189.58
462.22	573.43
462.40	161.50
462.59	210.65
462.77	210.65
462.95	63.19
463.13	133.41
463.32	238.73
463.50	121.71
463.68	184.90
463.86	149.79
464.05	93.62
464.23	196.60
464.41	217.67
464.59	124.05
464.78	95.96
464.96	131.07
465.14	74.90
465.32	81.92
465.50	149.79
465.69	269.16
465.87	184.90
466.05	145.11
466.23	168.52
466.41	177.88
466.60	220.01
466.78	177.88
466.96	201.29
467.14	255.12
467.32	231.71
467.51	184.90
467.69	231.71
467.87	180.22
468.05	248.10
468.23	191.92
468.41	191.92
468.60	177.88
468.78	208.31
468.96	175.54
469.14	168.52
469.32	205.97
469.50	198.95
469.69	203.63
469.87	138.09
470.05	177.88
470.23	212.99
470.41	187.24
470.59	138.09
470.77	145.11
470.95	159.16
471.14	189.58
471.32	121.71
471.50	234.05
471.68	159.16
471.86	156.82
472.04	107.66
472.22	234.05
472.40	131.07
472.58	234.05
472.77	98.30
472.95	208.31
473.13	234.05
473.31	159.16
473.49	110.01
473.67	166.18
473.85	177.88
474.03	93.62
474.21	175.54
474.39	231.71
474.57	194.26
474.75	173.20
474.93	131.07
475.12	114.69
475.30	147.45
475.48	180.22
475.66	189.58
475.84	124.05
476.02	166.18
476.20	145.11
476.38	187.24
476.56	273.84
476.74	142.77
476.92	170.86
477.10	135.75
477.28	133.41
477.46	119.37
477.64	264.48
477.82	180.22
478.00	173.20
478.18	201.29
478.36	184.90
478.54	133.41
478.72	215.33
478.90	205.97
479.08	234.05
479.26	126.39
479.44	163.84
479.62	229.37
479.80	220.01
479.98	180.22
480.16	203.63
480.34	201.29
480.52	147.45
480.70	215.33
480.88	203.63
481.06	163.84
481.24	196.60
481.41	180.22
481.59	238.73
481.77	135.75
481.95	182.56
482.13	306.61
482.31	159.16
482.49	227.03
482.67	135.75
482.85	201.29
483.03	138.09
483.21	276.18
483.39	229.37
483.57	182.56
483.74	234.05
483.92	166.18
484.10	229.37
484.28	315.97
484.46	285.55
484.64	191.92
484.82	236.39
485.00	220.01
485.18	276.18
485.35	234.05
485.53	252.78
485.71	257.46
485.89	163.84
486.07	220.01
486.25	299.59
486.43	306.61
486.61	292.57
486.78	205.97
486.96	276.18
487.14	238.73
487.32	264.48
487.50	252.78
487.68	264.48
487.85	222.35
488.03	250.44
488.21	315.97
488.39	325.33
488.57	255.12
488.75	243.42
488.92	526.62
489.10	294.91
489.28	320.65
489.46	220.01
489.64	262.14
489.81	301.93
489.99	252.78
490.17	238.73
490.35	346.40
490.53	215.33
490.70	224.69
490.88	334.70
491.06	187.24
491.24	337.04
491.41	273.84
491.59	301.93
491.77	248.10
491.95	220.01
492.13	290.23
492.30	271.50
492.48	248.10
492.66	255.12
492.84	290.23
493.01	271.50
493.19	173.20
493.37	271.50
493.54	208.31
493.72	238.73
493.90	234.05
494.08	245.76
494.25	311.29
494.43	236.39
494.61	264.48
494.79	208.31
494.96	255.12
495.14	201.29
495.32	315.97
495.49	198.95
495.67	276.18
495.85	222.35
496.02	294.91
496.20	332.36
496.38	280.86
496.55	315.97
496.73	311.29
496.91	325.33
497.09	322.99
497.26	304.27
497.44	205.97
497.62	283.20
497.79	250.44
497.97	224.69
498.14	177.88
498.32	252.78
498.50	304.27
498.67	273.84
498.85	245.76
499.03	259.80
499.20	271.50
499.38	255.12
499.56	229.37
499.73	250.44
499.91	290.23
500.08	241.08
500.26	243.42
500.44	262.14
500.61	248.10
500.79	175.54
500.97	273.84
501.14	248.10
501.32	257.46
501.49	255.12
501.67	266.82
501.84	315.97
502.02	191.92
502.20	248.10
502.37	280.86
502.55	229.37
502.72	205.97
502.90	255.12
503.07	259.80
503.25	322.99
503.43	198.95
503.60	198.95
503.78	262.14
503.95	175.54
504.13	262.14
504.30	238.73
504.48	234.05
504.65	238.73
504.83	210.65
505.01	196.60
505.18	243.42
505.36	252.78
505.53	231.71
505.71	212.99
505.88	250.44
506.06	224.69
506.23	205.97
506.41	114.69
506.58	255.12
506.76	229.37
506.93	231.71
507.11	210.65
507.28	128.73
507.46	184.90
507.63	252.78
507.81	203.63
507.98	243.42
508.16	264.48
508.33	264.48
508.50	243.42
508.68	220.01
508.85	294.91
509.03	252.78
509.20	201.29
509.38	322.99
509.55	299.59
509.73	229.37
509.90	238.73
510.08	234.05
510.25	285.55
510.42	224.69
510.60	243.42
510.77	264.48
510.95	229.37
511.12	203.63
511.30	280.86
511.47	330.02
511.64	285.55
511.82	248.10
511.99	224.69
512.17	222.35
512.34	215.33
512.51	205.97
512.69	306.61
512.86	257.46
513.04	266.82
513.21	280.86
513.38	252.78
513.56	194.26
513.73	208.31
513.90	231.71
514.08	280.86
514.25	234.05
514.43	278.52
514.60	234.05
514.77	227.03
514.95	245.76
515.12	259.80
515.29	255.12
515.47	220.01
515.64	180.22
515.81	241.08
515.99	299.59
516.16	231.71
516.33	271.50
516.51	257.46
516.68	196.60
516.85	241.08
517.03	220.01
517.20	222.35
517.37	234.05
517.54	311.29
517.72	308.95
517.89	142.77
518.06	227.03
518.24	297.25
518.41	255.12
518.58	252.78
518.75	273.84
518.93	234.05
519.10	264.48
519.27	252.78
519.45	257.46
519.62	196.60
519.79	241.08
519.96	236.39
520.14	250.44
520.31	304.27
520.48	234.05
520.65	210.65
520.83	173.20
521.00	266.82
521.17	196.60
521.34	217.67
521.52	285.55
521.69	257.46
521.86	236.39
522.03	175.54
522.20	269.16
522.38	203.63
522.55	191.92
522.72	262.14
522.89	259.80
523.07	362.78
523.24	215.33
523.41	241.08
523.58	278.52
523.75	210.65
523.92	212.99
524.10	290.23
524.27	297.25
524.44	208.31
524.61	280.86
524.78	257.46
524.96	255.12
525.13	262.14
525.30	294.91
525.47	294.91
525.64	248.10
525.81	271.50
525.98	234.05
526.16	248.10
526.33	252.78
526.50	227.03
526.67	177.88
526.84	259.80
527.01	285.55
527.18	327.68
527.36	224.69
527.53	166.18
527.70	231.71
527.87	173.20
528.04	250.44
528.21	229.37
528.38	313.63
528.55	252.78
528.72	238.73
528.89	344.06
529.07	264.48
529.24	198.95
529.41	322.99
529.58	259.80
529.75	280.86
529.92	273.84
530.09	152.13
530.26	238.73
530.43	362.78
530.60	341.72
530.77	337.04
530.94	285.55
531.11	294.91
531.28	299.59
531.46	264.48
531.63	311.29
531.80	262.14
531.97	264.48
532.14	294.91
532.31	255.12
532.48	255.12
532.65	320.65
532.82	217.67
532.99	250.44
533.16	238.73
533.33	285.55
533.50	236.39
533.67	287.89
533.84	264.48
534.01	241.08
534.18	229.37
534.35	248.10
534.52	262.14
534.69	390.87
534.86	252.78
535.03	313.63
535.20	262.14
535.37	280.86
535.54	243.42
535.71	327.68
535.88	308.95
536.05	271.50
536.22	259.80
536.38	283.20
536.55	273.84
536.72	358.10
536.89	285.55
537.06	365.12
537.23	276.18
537.40	325.33
537.57	318.31
537.74	306.61
537.91	351.08
538.08	341.72
538.25	327.68
538.42	360.44
538.59	367.46
538.75	390.87
538.92	297.25
539.09	327.68
539.26	332.36
539.43	458.74
539.60	397.89
539.77	360.44
539.94	353.42
540.11	416.62
540.28	528.96
540.44	524.28
540.61	491.51
540.78	557.05
540.95	543.00
541.12	669.39
541.29	718.54
541.46	725.57
541.62	720.88
541.79	786.42
541.96	697.48
542.13	748.97
542.30	690.46
542.47	751.31
542.63	683.44
542.80	716.20
542.97	622.58
543.14	653.01
543.31	711.52
543.48	660.03
543.64	638.97
543.81	638.97
543.98	662.37
544.15	683.44
544.32	610.88
544.48	627.26
544.65	580.45
544.82	603.86
544.99	678.76
545.16	678.76
545.32	610.88
545.49	980.68
545.66	1308.36
545.83	1572.84
546.00	1352.83
546.16	1013.45
546.33	809.83
546.50	641.31
546.67	634.29
546.83	543.00
547.00	566.41
547.17	517.26
547.34	414.27
547.50	517.26
547.67	526.62
547.84	425.98
548.00	486.83
548.17	484.49
548.34	411.93
548.51	482.15
548.67	496.19
548.84	454.06
549.01	449.38
549.18	435.34
549.34	409.59
549.51	337.04
549.68	451.72
549.84	428.32
550.01	327.68
550.18	447.04
550.34	491.51
550.51	428.32
550.68	418.96
550.84	376.83
551.01	348.74
551.18	379.17
551.34	376.83
551.51	372.15
551.68	341.72
551.84	344.06
552.01	346.40
552.18	348.74
552.34	346.40
552.51	245.76
552.68	322.99
552.84	360.44
553.01	311.29
553.18	346.40
553.34	346.40
553.51	271.50
553.67	327.68
553.84	376.83
554.01	332.36
554.17	318.31
554.34	262.14
554.51	306.61
554.67	306.61
554.84	304.27
555.00	292.57
555.17	290.23
555.33	308.95
555.50	285.55
555.67	388.53
555.83	248.10
556.00	285.55
556.16	360.44
556.33	266.82
556.50	322.99
556.66	271.50
556.83	215.33
556.99	280.86
557.16	224.69
557.32	238.73
557.49	224.69
557.65	264.48
557.82	227.03
557.98	238.73
558.15	301.93
558.32	285.55
558.48	238.73
558.65	229.37
558.81	231.71
558.98	292.57
559.14	297.25
559.31	215.33
559.47	212.99
559.64	222.35
559.80	210.65
559.97	330.02
560.13	276.18
560.30	229.37
560.46	278.52
560.63	224.69
560.79	220.01
560.96	283.20
561.12	266.82
561.29	344.06
561.45	191.92
561.61	222.35
561.78	294.91
561.94	241.08
562.11	234.05
562.27	285.55
562.44	259.80
562.60	222.35
562.77	166.18
562.93	337.04
563.10	294.91
563.26	355.76
563.42	287.89
563.59	243.42
563.75	231.71
563.92	287.89
564.08	231.71
564.24	315.97
564.41	283.20
564.57	269.16
564.74	203.63
564.90	259.80
565.07	297.25
565.23	273.84
565.39	238.73
565.56	234.05
565.72	294.91
565.88	257.46
566.05	212.99
566.21	224.69
566.38	238.73
566.54	290.23
566.70	241.08
566.87	210.65
567.03	266.82
567.19	266.82
567.36	259.80
567.52	313.63
567.68	271.50
567.85	280.86
568.01	163.84
568.17	212.99
568.34	224.69
568.50	266.82
568.66	189.58
568.83	332.36
568.99	187.24
569.15	278.52
569.32	299.59
569.48	241.08
569.64	220.01
569.81	252.78
569.97	259.80
570.13	201.29
570.30	248.10
570.46	201.29
570.62	215.33
570.78	210.65
570.95	189.58
571.11	262.14
571.27	264.48
571.43	149.79
571.60	241.08
571.76	271.50
571.92	217.67
572.09	241.08
572.25	262.14
572.41	177.88
572.57	299.59
572.74	224.69
572.90	283.20
573.06	243.42
573.22	255.12
573.38	264.48
573.55	257.46
573.71	287.89
573.87	220.01
574.03	184.90
574.20	248.10
574.36	198.95
574.52	231.71
574.68	264.48
574.84	227.03
575.01	241.08
575.17	266.82
575.33	217.67
575.49	173.20
575.65	234.05
575.82	222.35
575.98	255.12
576.14	234.05
576.30	290.23
576.46	369.80
576.62	512.58
576.79	433.00
576.95	397.89
577.11	421.30
577.27	294.91
577.43	330.02
577.59	264.48
577.75	236.39
577.92	273.84
578.08	215.33
578.24	250.44
578.40	304.27
578.56	425.98
578.72	444.70
578.88	449.38
579.04	358.10
579.21	353.42
579.37	315.97
579.53	271.50
579.69	367.46
579.85	320.65
580.01	339.38
580.17	285.55
580.33	248.10
580.49	294.91
580.65	287.89
580.82	241.08
580.98	248.10
581.14	330.02
581.30	308.95
581.46	346.40
581.62	344.06
581.78	290.23
581.94	308.95
582.10	234.05
582.26	248.10
582.42	280.86
582.58	334.70
582.74	390.87
582.90	337.04
583.06	313.63
583.22	348.74
583.38	355.76
583.54	287.89
583.70	348.74
583.86	304.27
584.02	337.04
584.18	231.71
584.34	283.20
584.50	304.27
584.66	297.25
584.82	259.80
584.98	278.52
585.14	330.02
585.30	287.89
585.46	259.80
585.62	287.89
585.78	318.31
585.94	346.40
586.10	287.89
586.26	285.55
586.42	381.51
586.58	390.87
586.74	372.15
586.90	407.25
587.06	440.02
587.22	507.90
587.38	346.40
587.54	348.74
587.70	404.91
587.86	301.93
588.02	313.63
588.18	337.04
588.34	304.27
588.49	315.97
588.65	259.80
588.81	285.55
588.97	231.71
589.13	234.05
589.29	273.84
589.45	315.97
589.61	191.92
589.77	355.76
589.93	297.25
590.08	287.89
590.24	257.46
590.40	285.55
590.56	308.95
590.72	266.82
590.88	255.12
591.04	285.55
591.20	278.52
591.35	243.42
591.51	255.12
591.67	212.99
591.83	299.59
591.99	322.99
592.15	320.65
592.31	337.04
592.46	269.16
592.62	304.27
592.78	362.78
592.94	337.04
593.10	287.89
593.26	346.40
593.41	367.46
593.57	290.23
593.73	322.99
593.89	259.80
594.05	227.03
594.20	198.95
594.36	212.99
594.52	234.05
594.68	203.63
594.84	280.86
594.99	299.59
595.15	271.50
595.31	252.78
595.47	341.72
595.62	236.39
595.78	187.24
595.94	313.63
596.10	344.06
596.25	273.84
596.41	245.76
596.57	222.35
596.73	297.25
596.88	318.31
597.04	238.73
597.20	215.33
597.36	259.80
597.51	271.50
597.67	224.69
597.83	177.88
597.99	299.59
598.14	292.57
598.30	362.78
598.46	215.33
598.61	283.20
598.77	292.57
598.93	313.63
599.09	285.55
599.24	332.36
599.40	290.23
599.56	285.55
599.71	255.12
599.87	320.65
600.03	222.35
600.18	285.55
600.34	322.99
600.50	241.08
600.65	187.24
600.81	294.91
600.97	203.63
601.12	306.61
601.28	276.18
601.44	292.57
601.59	220.01
601.75	243.42
601.91	238.73
602.06	250.44
602.22	337.04
602.37	301.93
602.53	276.18
602.69	255.12
602.84	182.56
603.00	212.99
603.16	227.03
603.31	177.88
603.47	285.55
603.62	257.46
603.78	262.14
603.94	184.90
604.09	259.80
604.25	276.18
604.40	245.76
604.56	196.60
604.71	262.14
604.87	229.37
605.03	201.29
605.18	318.31
605.34	245.76
605.49	222.35
605.65	236.39
605.80	224.69
605.96	243.42
606.12	266.82
606.27	252.78
606.43	318.31
606.58	245.76
606.74	224.69
606.89	334.70
607.05	332.36
607.20	315.97
607.36	255.12
607.51	262.14
607.67	287.89
607.82	266.82
607.98	306.61
608.13	299.59
608.29	372.15
608.44	355.76
608.60	341.72
608.75	374.49
608.91	367.46
609.06	386.19
609.22	411.93
609.37	358.10
609.53	414.27
609.68	465.77
609.84	456.40
609.99	421.30
610.15	657.69
610.30	753.65
610.46	835.57
610.61	985.37
610.76	1200.69
610.92	1284.95
611.07	1565.82
611.23	1603.27
611.38	1390.28
611.54	1256.87
611.69	1067.28
611.84	985.37
