SpectraSuite Data File
++++++++++++++++++++++++++++++++++++
Date: Fri Oct 04 11:42:00 GMT-05:00 2013
User: price-jones
Dark Spectrum Present: No
Reference Spectrum Present: No
Number of Sampled Component Spectra: 1
Spectrometers: USB2+H05261
Integration Time (usec): 100000 (USB2+H05261)
Spectra Averaged: 1 (USB2+H05261)
Boxcar Smoothing: 0 (USB2+H05261)
Correct for Electrical Dark: No (USB2+H05261)
Strobe/Lamp Enabled: No (USB2+H05261)
Correct for Detector Non-linearity: No (USB2+H05261)
Correct for Stray Light: No (USB2+H05261)
Number of Pixels in Processed Spectrum: 2048
>>>>>Begin Processed Spectral Data<<<<<
365.73	32.77
365.92	32.77
366.12	32.77
366.32	0.00
366.52	0.00
366.72	0.00
366.91	0.00
367.11	0.00
367.31	0.00
367.51	0.00
367.70	0.00
367.90	0.00
368.10	0.00
368.30	0.00
368.49	0.00
368.69	0.00
368.89	0.00
369.09	0.00
369.28	0.00
369.48	0.00
369.68	0.00
369.87	0.00
370.07	0.00
370.27	0.00
370.47	0.00
370.66	0.00
370.86	51.49
371.06	56.17
371.25	142.77
371.45	107.66
371.65	53.83
371.84	37.45
372.04	102.98
372.24	100.64
372.44	91.28
372.63	77.24
372.83	105.32
373.03	100.64
373.22	81.92
373.42	161.50
373.62	126.39
373.81	102.98
374.01	166.18
374.21	163.84
374.40	142.77
374.60	191.92
374.79	128.73
374.99	191.92
375.19	156.82
375.38	201.29
375.58	140.43
375.78	110.01
375.97	100.64
376.17	107.66
376.37	163.84
376.56	166.18
376.76	126.39
376.95	49.15
377.15	93.62
377.35	9.36
377.54	173.20
377.74	117.03
377.93	156.82
378.13	154.48
378.33	110.01
378.52	128.73
378.72	159.16
378.91	114.69
379.11	121.71
379.31	191.92
379.50	142.77
379.70	114.69
379.89	173.20
380.09	81.92
380.28	67.88
380.48	67.88
380.68	51.49
380.87	91.28
381.07	110.01
381.26	138.09
381.46	128.73
381.65	166.18
381.85	119.37
382.04	67.88
382.24	110.01
382.43	100.64
382.63	98.30
382.83	175.54
383.02	70.22
383.22	70.22
383.41	187.24
383.61	135.75
383.80	100.64
384.00	124.05
384.19	65.54
384.39	81.92
384.58	49.15
384.78	145.11
384.97	215.33
385.17	149.79
385.36	145.11
385.56	159.16
385.75	60.85
385.95	114.69
386.14	133.41
386.34	100.64
386.53	4.68
386.72	93.62
386.92	119.37
387.11	161.50
387.31	161.50
387.50	107.66
387.70	117.03
387.89	145.11
388.09	105.32
388.28	187.24
388.48	152.13
388.67	177.88
388.86	166.18
389.06	114.69
389.25	53.83
389.45	182.56
389.64	88.94
389.84	166.18
390.03	145.11
390.22	156.82
390.42	79.58
390.61	86.60
390.81	81.92
391.00	182.56
391.19	210.65
391.39	138.09
391.58	93.62
391.78	110.01
391.97	145.11
392.16	74.90
392.36	110.01
392.55	145.11
392.75	105.32
392.94	128.73
393.13	173.20
393.33	84.26
393.52	117.03
393.71	126.39
393.91	163.84
394.10	28.09
394.29	98.30
394.49	184.90
394.68	201.29
394.88	131.07
395.07	114.69
395.26	131.07
395.46	149.79
395.65	112.35
395.84	126.39
396.04	234.05
396.23	110.01
396.42	98.30
396.62	170.86
396.81	152.13
397.00	201.29
397.19	180.22
397.39	156.82
397.58	138.09
397.77	147.45
397.97	140.43
398.16	95.96
398.35	205.97
398.55	93.62
398.74	135.75
398.93	173.20
399.12	166.18
399.32	175.54
399.51	88.94
399.70	142.77
399.90	138.09
400.09	140.43
400.28	156.82
400.47	133.41
400.67	154.48
400.86	107.66
401.05	110.01
401.24	217.67
401.44	217.67
401.63	138.09
401.82	173.20
402.01	149.79
402.21	236.39
402.40	173.20
402.59	88.94
402.78	182.56
402.97	161.50
403.17	191.92
403.36	280.86
403.55	372.15
403.74	629.60
403.93	1865.41
404.13	4379.14
404.32	5959.00
404.51	5022.79
404.70	3124.62
404.89	1153.88
405.09	498.53
405.28	285.55
405.47	163.84
405.66	198.95
405.85	259.80
406.05	217.67
406.24	212.99
406.43	170.86
406.62	187.24
406.81	278.52
407.00	318.31
407.20	650.67
407.39	800.46
407.58	847.27
407.77	669.39
407.96	400.23
408.15	236.39
408.34	196.60
408.54	173.20
408.73	161.50
408.92	138.09
409.11	227.03
409.30	229.37
409.49	140.43
409.68	194.26
409.87	135.75
410.07	121.71
410.26	196.60
410.45	154.48
410.64	168.52
410.83	227.03
411.02	222.35
411.21	248.10
411.40	198.95
411.59	210.65
411.78	212.99
411.98	168.52
412.17	147.45
412.36	159.16
412.55	201.29
412.74	182.56
412.93	187.24
413.12	187.24
413.31	180.22
413.50	163.84
413.69	177.88
413.88	203.63
414.07	262.14
414.26	145.11
414.45	250.44
414.64	266.82
414.83	173.20
415.02	163.84
415.22	257.46
415.41	346.40
415.60	203.63
415.79	236.39
415.98	294.91
416.17	84.26
416.36	201.29
416.55	262.14
416.74	234.05
416.93	280.86
417.12	173.20
417.31	294.91
417.50	189.58
417.69	278.52
417.88	229.37
418.07	306.61
418.26	285.55
418.45	266.82
418.64	344.06
418.83	220.01
419.02	245.76
419.21	194.26
419.39	208.31
419.58	189.58
419.77	229.37
419.96	217.67
420.15	257.46
420.34	238.73
420.53	227.03
420.72	276.18
420.91	224.69
421.10	285.55
421.29	222.35
421.48	168.52
421.67	152.13
421.86	245.76
422.05	255.12
422.24	259.80
422.43	304.27
422.61	278.52
422.80	243.42
422.99	212.99
423.18	313.63
423.37	339.38
423.56	294.91
423.75	320.65
423.94	187.24
424.13	252.78
424.32	283.20
424.50	297.25
424.69	301.93
424.88	315.97
425.07	248.10
425.26	332.36
425.45	313.63
425.64	220.01
425.83	301.93
426.01	252.78
426.20	278.52
426.39	229.37
426.58	220.01
426.77	266.82
426.96	320.65
427.15	297.25
427.33	301.93
427.52	276.18
427.71	299.59
427.90	283.20
428.09	330.02
428.28	348.74
428.46	294.91
428.65	322.99
428.84	262.14
429.03	367.46
429.22	372.15
429.40	287.89
429.59	374.49
429.78	313.63
429.97	308.95
430.16	243.42
430.34	271.50
430.53	294.91
430.72	362.78
430.91	318.31
431.10	294.91
431.28	365.12
431.47	327.68
431.66	416.62
431.85	365.12
432.03	409.59
432.22	449.38
432.41	456.40
432.60	400.23
432.79	402.57
432.97	369.80
433.16	489.17
433.35	491.51
433.54	585.13
433.72	564.07
433.91	545.34
434.10	648.33
434.28	767.70
434.47	814.51
434.66	858.98
434.85	1139.84
435.03	3255.69
435.22	11918.01
435.41	25668.66
435.59	26380.18
435.78	17144.42
435.97	8491.46
436.16	3323.56
436.34	1172.61
436.53	683.44
436.72	594.50
436.90	592.16
437.09	493.85
437.28	484.49
437.46	411.93
437.65	533.64
437.84	550.03
438.02	421.30
438.21	421.30
438.40	390.87
438.58	372.15
438.77	362.78
438.96	430.66
439.14	444.70
439.33	498.53
439.52	440.02
439.70	353.42
439.89	430.66
440.08	451.72
440.26	360.44
440.45	442.36
440.63	386.19
440.82	367.46
441.01	404.91
441.19	397.89
441.38	411.93
441.57	444.70
441.75	411.93
441.94	442.36
442.12	458.74
442.31	322.99
442.50	400.23
442.68	423.64
442.87	407.25
443.05	402.57
443.24	430.66
443.43	416.62
443.61	390.87
443.80	430.66
443.98	358.10
444.17	332.36
444.35	355.76
444.54	493.85
444.73	463.43
444.91	416.62
445.10	447.04
445.28	388.53
445.47	327.68
445.65	428.32
445.84	325.33
446.02	367.46
446.21	458.74
446.39	367.46
446.58	397.89
446.77	327.68
446.95	388.53
447.14	416.62
447.32	435.34
447.51	435.34
447.69	463.43
447.88	416.62
448.06	414.27
448.25	395.55
448.43	416.62
448.62	404.91
448.80	407.25
448.99	423.64
449.17	414.27
449.36	416.62
449.54	475.13
449.73	381.51
449.91	451.72
450.10	451.72
450.28	503.22
450.46	503.22
450.65	369.80
450.83	470.45
451.02	425.98
451.20	407.25
451.39	386.19
451.57	435.34
451.76	440.02
451.94	339.38
452.13	395.55
452.31	416.62
452.49	468.11
452.68	360.44
452.86	369.80
453.05	451.72
453.23	397.89
453.42	355.76
453.60	322.99
453.78	379.17
453.97	351.08
454.15	383.85
454.34	325.33
454.52	402.57
454.70	461.09
454.89	416.62
455.07	430.66
455.26	411.93
455.44	383.85
455.62	379.17
455.81	409.59
455.99	463.43
456.17	470.45
456.36	458.74
456.54	402.57
456.73	320.65
456.91	430.66
457.09	414.27
457.28	447.04
457.46	348.74
457.64	381.51
457.83	383.85
458.01	390.87
458.19	365.12
458.38	475.13
458.56	390.87
458.74	397.89
458.93	348.74
459.11	440.02
459.29	388.53
459.48	414.27
459.66	454.06
459.84	414.27
460.03	526.62
460.21	397.89
460.39	376.83
460.57	440.02
460.76	341.72
460.94	325.33
461.12	440.02
461.31	330.02
461.49	393.21
461.67	358.10
461.85	428.32
462.04	407.25
462.22	910.47
462.40	433.00
462.59	395.55
462.77	306.61
462.95	423.64
463.13	360.44
463.32	400.23
463.50	393.21
463.68	425.98
463.86	444.70
464.05	479.81
464.23	440.02
464.41	390.87
464.59	395.55
464.78	468.11
464.96	433.00
465.14	440.02
465.32	402.57
465.50	404.91
465.69	437.68
465.87	381.51
466.05	461.09
466.23	423.64
466.41	308.95
466.60	416.62
466.78	454.06
466.96	475.13
467.14	421.30
467.32	386.19
467.51	428.32
467.69	369.80
467.87	386.19
468.05	325.33
468.23	351.08
468.41	435.34
468.60	330.02
468.78	414.27
468.96	425.98
469.14	379.17
469.32	353.42
469.50	266.82
469.69	414.27
469.87	383.85
470.05	388.53
470.23	414.27
470.41	351.08
470.59	327.68
470.77	367.46
470.95	409.59
471.14	416.62
471.32	365.12
471.50	418.96
471.68	402.57
471.86	327.68
472.04	278.52
472.22	320.65
472.40	372.15
472.58	402.57
472.77	411.93
472.95	360.44
473.13	416.62
473.31	393.21
473.49	372.15
473.67	400.23
473.85	400.23
474.03	437.68
474.21	414.27
474.39	365.12
474.57	440.02
474.75	454.06
474.93	402.57
475.12	400.23
475.30	355.76
475.48	414.27
475.66	339.38
475.84	404.91
476.02	325.33
476.20	386.19
476.38	416.62
476.56	418.96
476.74	463.43
476.92	421.30
477.10	353.42
477.28	414.27
477.46	418.96
477.64	458.74
477.82	421.30
478.00	372.15
478.18	402.57
478.36	484.49
478.54	442.36
478.72	535.98
478.90	512.58
479.08	496.19
479.26	503.22
479.44	421.30
479.62	514.92
479.80	454.06
479.98	456.40
480.16	582.79
480.34	627.26
480.52	573.43
480.70	676.41
480.88	531.30
481.06	585.13
481.24	702.16
481.41	674.07
481.59	844.93
481.77	758.33
481.95	788.76
482.13	938.55
482.31	837.91
482.49	943.24
482.67	1057.92
482.85	1090.69
483.03	1181.97
483.21	1235.80
483.39	1322.40
483.57	1315.38
483.74	1355.17
483.92	1519.01
484.10	1565.82
484.28	1629.01
484.46	1952.01
484.64	1842.00
484.82	1982.43
485.00	2054.99
485.18	2204.78
485.35	2239.89
485.53	2328.83
485.71	2607.36
485.89	2422.45
486.07	2670.55
486.25	2682.25
486.43	2705.66
486.61	2600.34
486.78	2647.15
486.96	2689.28
487.14	2722.04
487.32	2602.68
487.50	2689.28
487.68	2647.15
487.85	2616.72
488.03	2619.06
488.21	2586.29
488.39	2427.14
488.57	2399.05
488.75	2399.05
488.92	2588.63
489.10	2186.06
489.28	2298.41
489.46	2253.94
489.64	2153.29
489.81	2148.61
489.99	2099.46
490.17	1994.14
490.35	2223.51
490.53	2062.01
490.70	1994.14
490.88	2160.31
491.06	2204.78
491.24	2298.41
491.41	2326.49
491.59	2195.42
491.77	2059.67
491.95	1933.28
492.13	1879.45
492.30	1856.04
492.48	1834.98
492.66	1963.71
492.84	1832.64
493.01	1816.26
493.19	1788.17
493.37	1762.42
493.54	1739.02
493.72	1753.06
493.90	1565.82
494.08	1540.07
494.25	1563.48
494.43	1586.88
494.61	1558.80
494.79	1533.05
494.96	1511.99
495.14	1537.73
495.32	1409.00
495.49	1404.32
495.67	1460.49
495.85	1474.54
496.02	1376.24
496.20	1380.92
496.38	1329.42
496.55	1327.08
496.73	1345.81
496.91	1235.80
497.09	1249.85
497.26	1259.21
497.44	1214.74
497.62	1275.59
497.79	1242.82
497.97	1210.06
498.14	1043.88
498.32	1111.75
498.50	1114.10
498.67	985.37
498.85	959.62
499.03	1041.54
499.20	1034.52
499.38	908.13
499.56	978.34
499.73	1036.86
499.91	957.28
500.08	894.08
500.26	889.40
500.44	849.61
500.61	828.55
500.79	744.29
500.97	774.72
501.14	802.80
501.32	671.73
501.49	688.12
501.67	718.54
501.84	669.39
502.02	655.35
502.20	645.99
502.37	683.44
502.55	587.47
502.72	613.22
502.90	622.58
503.07	641.31
503.25	580.45
503.43	575.77
503.60	582.79
503.78	627.26
503.95	571.09
504.13	526.62
504.30	557.05
504.48	566.41
504.65	566.41
504.83	543.00
505.01	484.49
505.18	458.74
505.36	482.15
505.53	477.47
505.71	489.17
505.88	486.83
506.06	451.72
506.23	449.38
506.41	416.62
506.58	461.09
506.76	411.93
506.93	397.89
507.11	400.23
507.28	482.15
507.46	456.40
507.63	430.66
507.81	428.32
507.98	463.43
508.16	400.23
508.33	418.96
508.50	430.66
508.68	423.64
508.85	498.53
509.03	454.06
509.20	367.46
509.38	423.64
509.55	571.09
509.73	425.98
509.90	355.76
510.08	475.13
510.25	477.47
510.42	435.34
510.60	451.72
510.77	421.30
510.95	341.72
511.12	416.62
511.30	414.27
511.47	407.25
511.64	400.23
511.82	454.06
511.99	407.25
512.17	386.19
512.34	400.23
512.51	470.45
512.69	402.57
512.86	430.66
513.04	435.34
513.21	465.77
513.38	355.76
513.56	395.55
513.73	447.04
513.90	358.10
514.08	341.72
514.25	451.72
514.43	341.72
514.60	313.63
514.77	344.06
514.95	376.83
515.12	400.23
515.29	306.61
515.47	386.19
515.64	301.93
515.81	304.27
515.99	402.57
516.16	411.93
516.33	376.83
516.51	360.44
516.68	355.76
516.85	353.42
517.03	341.72
517.20	395.55
517.37	379.17
517.54	390.87
517.72	313.63
517.89	362.78
518.06	341.72
518.24	435.34
518.41	395.55
518.58	337.04
518.75	362.78
518.93	416.62
519.10	362.78
519.27	318.31
519.45	304.27
519.62	301.93
519.79	337.04
519.96	360.44
520.14	362.78
520.31	425.98
520.48	381.51
520.65	407.25
520.83	358.10
521.00	355.76
521.17	376.83
521.34	280.86
521.52	388.53
521.69	294.91
521.86	306.61
522.03	435.34
522.20	416.62
522.38	339.38
522.55	355.76
522.72	304.27
522.89	409.59
523.07	447.04
523.24	308.95
523.41	381.51
523.58	409.59
523.75	325.33
523.92	355.76
524.10	337.04
524.27	294.91
524.44	292.57
524.61	379.17
524.78	299.59
524.96	322.99
525.13	344.06
525.30	360.44
525.47	461.09
525.64	414.27
525.81	381.51
525.98	372.15
526.16	414.27
526.33	369.80
526.50	301.93
526.67	416.62
526.84	428.32
527.01	425.98
527.18	468.11
527.36	388.53
527.53	507.90
527.70	449.38
527.87	393.21
528.04	456.40
528.21	376.83
528.38	395.55
528.55	517.26
528.72	475.13
528.89	449.38
529.07	400.23
529.24	454.06
529.41	468.11
529.58	498.53
529.75	503.22
529.92	514.92
530.09	454.06
530.26	510.24
530.43	498.53
530.60	543.00
530.77	535.98
530.94	454.06
531.11	599.18
531.28	468.11
531.46	531.30
531.63	617.90
531.80	566.41
531.97	587.47
532.14	723.23
532.31	798.12
532.48	997.07
532.65	1144.52
532.82	1240.48
532.99	1462.83
533.16	1661.78
533.33	1755.40
533.50	1598.59
533.67	1416.02
533.84	1130.48
534.01	1100.05
534.18	898.77
534.35	1018.13
534.52	1032.18
534.69	1097.71
534.86	1018.13
535.03	1102.39
535.20	1095.37
535.37	1228.78
535.54	1238.14
535.71	1343.47
535.88	1425.39
536.05	1486.24
536.22	1570.50
536.38	1746.04
536.55	1907.54
536.72	1928.60
536.89	2270.32
537.06	2530.12
537.23	2789.92
537.40	2960.78
537.57	3431.23
537.74	3536.55
537.91	3655.92
538.08	3676.98
538.25	3728.47
538.42	3744.86
538.59	3873.59
538.75	3974.23
538.92	4255.09
539.09	4678.73
539.26	4994.70
539.43	5699.20
539.60	6277.32
539.77	7201.83
539.94	8046.76
540.11	8912.76
540.28	9767.06
540.44	10569.86
540.61	11887.58
540.78	13579.79
540.95	16168.42
541.12	19414.74
541.29	22150.83
541.46	22640.00
541.62	22480.85
541.79	21820.81
541.96	20255.00
542.13	19171.33
542.30	17827.86
542.47	16460.99
542.63	15688.61
542.80	15374.98
542.97	15047.30
543.14	15002.83
543.31	14923.26
543.48	15173.69
543.64	15115.18
543.81	15302.42
543.98	15028.58
544.15	15484.98
544.32	15599.67
544.48	15812.66
544.65	15323.49
544.82	15222.84
544.99	15087.09
545.16	15566.90
545.32	16439.92
545.49	28379.00
545.66	51604.13
545.83	57368.87
546.00	51210.92
546.16	36636.41
546.33	26499.55
546.50	20053.71
546.67	15571.58
546.83	13680.43
547.00	13411.27
547.17	12784.01
547.34	11878.22
547.50	11662.89
547.67	11295.43
547.84	10876.47
548.00	10583.90
548.17	10237.50
548.34	9472.15
548.51	9212.35
548.67	8896.38
548.84	8496.14
549.01	8161.45
549.18	7681.64
549.34	7431.20
549.51	7126.93
549.68	6771.17
549.84	6429.45
550.01	6384.98
550.18	6054.97
550.34	5666.44
550.51	5540.05
550.68	5226.42
550.84	4840.23
551.01	4835.55
551.18	4435.32
551.34	4280.84
551.51	4128.70
551.68	4011.68
551.84	3726.13
552.01	3606.77
552.18	3606.77
552.34	3435.91
552.51	3218.24
552.68	3002.91
552.84	2963.12
553.01	2855.45
553.18	2839.07
553.34	2715.02
553.51	2583.95
553.67	2579.27
553.84	2485.65
554.01	2244.57
554.17	2230.53
554.34	2085.42
554.51	1909.88
554.67	1900.52
554.84	1614.97
555.00	1607.95
555.17	1469.86
555.33	1523.69
555.50	1383.26
555.67	1441.77
555.83	1357.51
556.00	1263.89
556.16	1378.58
556.33	1217.08
556.50	1179.63
556.66	1086.01
556.83	1027.50
556.99	1057.92
557.16	1001.75
557.32	954.94
557.49	959.62
557.65	954.94
557.82	912.81
557.98	905.79
558.15	954.94
558.32	903.45
558.48	842.59
558.65	786.42
558.81	861.32
558.98	858.98
559.14	905.79
559.31	861.32
559.47	711.52
559.64	802.80
559.80	777.06
559.97	826.21
560.13	772.38
560.30	645.99
560.46	739.61
560.63	739.61
560.79	746.63
560.96	674.07
561.12	716.20
561.29	685.78
561.45	730.25
561.61	624.92
561.78	788.76
561.94	758.33
562.11	645.99
562.27	671.73
562.44	660.03
562.60	758.33
562.77	692.80
562.93	713.86
563.10	634.29
563.26	624.92
563.42	641.31
563.59	664.71
563.75	669.39
563.92	613.22
564.08	655.35
564.24	617.90
564.41	650.67
564.57	617.90
564.74	571.09
564.90	559.39
565.07	610.88
565.23	601.52
565.39	498.53
565.56	491.51
565.72	564.07
565.88	477.47
566.05	578.11
566.21	554.71
566.38	610.88
566.54	648.33
566.70	545.34
566.87	613.22
567.03	514.92
567.19	554.71
567.36	638.97
567.52	547.69
567.68	547.69
567.85	517.26
568.01	550.03
568.17	507.90
568.34	648.33
568.50	592.16
568.66	564.07
568.83	627.26
568.99	627.26
569.15	578.11
569.32	409.59
569.48	507.90
569.64	510.24
569.81	463.43
569.97	468.11
570.13	435.34
570.30	489.17
570.46	491.51
570.62	374.49
570.78	416.62
570.95	409.59
571.11	468.11
571.27	430.66
571.43	470.45
571.60	454.06
571.76	437.68
571.92	444.70
572.09	444.70
572.25	477.47
572.41	482.15
572.57	451.72
572.74	468.11
572.90	477.47
573.06	489.17
573.22	402.57
573.38	510.24
573.55	482.15
573.71	526.62
573.87	425.98
574.03	489.17
574.20	521.94
574.36	543.00
574.52	519.60
574.68	535.98
574.84	552.37
575.01	575.77
575.17	667.05
575.33	653.01
575.49	734.93
575.65	753.65
575.82	798.12
575.98	877.70
576.14	929.19
576.30	1973.07
576.46	6104.12
576.62	10422.41
576.79	11026.26
576.95	8175.49
577.11	5305.99
577.27	3812.73
577.43	2513.74
577.59	1643.06
577.75	1345.81
577.92	1123.46
578.08	1219.42
578.24	1245.16
578.40	2010.52
578.56	5448.77
578.72	9107.02
578.88	9816.21
579.04	7122.25
579.21	5093.01
579.37	3782.31
579.53	2988.86
579.69	2918.65
579.85	3679.32
580.01	4102.96
580.17	3896.99
580.33	3318.88
580.49	2939.71
580.65	2504.37
580.82	2331.17
580.98	2321.81
581.14	2361.60
581.30	2590.97
581.46	2574.59
581.62	2839.07
581.78	3000.57
581.94	3300.16
582.10	3632.51
582.26	3639.53
582.42	3805.71
582.58	3850.18
582.74	3831.46
582.90	3840.82
583.06	3880.61
583.22	4053.81
583.38	3871.25
583.54	4035.08
583.70	3976.57
583.86	3831.46
584.02	3829.12
584.18	3850.18
584.34	3637.19
584.50	3684.00
584.66	3611.45
584.82	3674.64
584.98	3499.10
585.14	3510.80
585.30	3307.18
585.46	3330.58
585.62	3309.52
585.78	3279.09
585.94	3377.39
586.10	3400.80
586.26	3510.80
586.42	4105.30
586.58	4772.35
586.74	5710.91
586.90	7124.59
587.06	7836.11
587.22	7592.70
587.38	6626.06
587.54	5867.72
587.70	4903.42
587.86	4191.90
588.02	3714.43
588.18	3194.83
588.34	2920.99
588.49	2759.49
588.65	2612.04
588.81	2410.75
588.97	2300.75
589.13	2181.38
589.29	2242.23
589.45	2251.60
589.61	2150.95
589.77	2202.44
589.93	2204.78
590.08	2223.51
590.24	2385.01
590.40	2450.54
590.56	2621.40
590.72	2551.18
590.88	2523.10
591.04	2789.92
591.20	2799.28
591.35	2977.16
591.51	3045.04
591.67	3236.96
591.83	3365.69
591.99	3714.43
592.15	3990.61
592.31	4222.33
592.46	4814.48
592.62	5188.97
592.78	5359.83
592.94	5605.58
593.10	5610.26
593.26	5210.03
593.41	4709.16
593.57	4299.56
593.73	3784.65
593.89	3407.82
594.05	2991.20
594.20	2738.43
594.36	2558.21
594.52	2349.90
594.68	2209.47
594.84	2143.93
594.99	2146.27
595.15	1966.05
595.31	2010.52
595.47	2026.90
595.62	2001.16
595.78	1909.88
595.94	1959.03
596.10	2179.04
596.25	2057.33
596.41	1956.69
596.57	1937.96
596.73	1940.30
596.88	2040.95
597.04	1975.41
597.20	2015.20
597.36	2141.59
597.51	2132.23
597.67	2122.87
597.83	2275.00
597.99	2377.98
598.14	2513.74
598.30	2649.49
598.46	2726.72
598.61	2944.39
598.77	3131.64
598.93	3276.75
599.09	3211.22
599.24	3304.84
599.40	3253.34
599.56	3269.73
599.71	3126.96
599.87	2977.16
600.03	2761.83
600.18	2626.08
600.34	2438.84
600.50	2195.42
600.65	2115.84
600.81	1914.56
600.97	2064.35
601.12	1734.34
601.28	1748.38
601.44	1671.14
601.59	1626.67
601.75	1598.59
601.91	1502.62
602.06	1416.02
602.22	1439.43
602.37	1446.45
602.53	1418.36
602.69	1399.64
602.84	1296.66
603.00	1334.11
603.16	1411.34
603.31	1394.96
603.47	1427.73
603.62	1434.75
603.78	1423.05
603.94	1411.34
604.09	1584.54
604.25	1542.41
604.40	1495.60
604.56	1497.94
604.71	1537.73
604.87	1570.50
605.03	1701.57
605.18	1572.84
605.34	1781.15
605.49	1675.82
605.65	1839.66
