SpectraSuite Data File
++++++++++++++++++++++++++++++++++++
Date: Fri Oct 04 11:42:16 GMT-05:00 2013
User: price-jones
Dark Spectrum Present: No
Reference Spectrum Present: No
Number of Sampled Component Spectra: 1
Spectrometers: USB2+H05261
Integration Time (usec): 100000 (USB2+H05261)
Spectra Averaged: 1 (USB2+H05261)
Boxcar Smoothing: 0 (USB2+H05261)
Correct for Electrical Dark: No (USB2+H05261)
Strobe/Lamp Enabled: No (USB2+H05261)
Correct for Detector Non-linearity: No (USB2+H05261)
Correct for Stray Light: No (USB2+H05261)
Number of Pixels in Processed Spectrum: 2048
>>>>>Begin Processed Spectral Data<<<<<
365.73	77.24
365.92	77.24
366.12	77.24
366.32	0.00
366.52	0.00
366.72	0.00
366.91	0.00
367.11	0.00
367.31	0.00
367.51	0.00
367.70	0.00
367.90	0.00
368.10	0.00
368.30	0.00
368.49	0.00
368.69	23.41
368.89	0.00
369.09	0.00
369.28	0.00
369.48	0.00
369.68	0.00
369.87	46.81
370.07	0.00
370.27	63.19
370.47	0.00
370.66	215.33
370.86	147.45
371.06	229.37
371.25	269.16
371.45	264.48
371.65	283.20
371.84	325.33
372.04	180.22
372.24	276.18
372.44	243.42
372.63	271.50
372.83	283.20
373.03	191.92
373.22	138.09
373.42	163.84
373.62	278.52
373.81	299.59
374.01	283.20
374.21	262.14
374.40	231.71
374.60	297.25
374.79	227.03
374.99	257.46
375.19	297.25
375.38	386.19
375.58	248.10
375.78	301.93
375.97	351.08
376.17	372.15
376.37	278.52
376.56	325.33
376.76	278.52
376.95	294.91
377.15	337.04
377.35	306.61
377.54	318.31
377.74	315.97
377.93	369.80
378.13	311.29
378.33	292.57
378.52	273.84
378.72	339.38
378.91	308.95
379.11	313.63
379.31	341.72
379.50	224.69
379.70	393.21
379.89	390.87
380.09	301.93
380.28	348.74
380.48	266.82
380.68	297.25
380.87	351.08
381.07	355.76
381.26	355.76
381.46	273.84
381.65	297.25
381.85	287.89
382.04	266.82
382.24	290.23
382.43	283.20
382.63	255.12
382.83	243.42
383.02	280.86
383.22	313.63
383.41	250.44
383.61	252.78
383.80	255.12
384.00	238.73
384.19	311.29
384.39	322.99
384.58	341.72
384.78	386.19
384.97	297.25
385.17	322.99
385.36	315.97
385.56	353.42
385.75	255.12
385.95	376.83
386.14	360.44
386.34	280.86
386.53	322.99
386.72	308.95
386.92	360.44
387.11	322.99
387.31	388.53
387.50	376.83
387.70	383.85
387.89	400.23
388.09	411.93
388.28	346.40
388.48	276.18
388.67	311.29
388.86	278.52
389.06	339.38
389.25	442.36
389.45	433.00
389.64	430.66
389.84	458.74
390.03	397.89
390.22	376.83
390.42	393.21
390.61	400.23
390.81	388.53
391.00	409.59
391.19	503.22
391.39	486.83
391.58	447.04
391.78	425.98
391.97	339.38
392.16	320.65
392.36	393.21
392.55	257.46
392.75	215.33
392.94	287.89
393.13	266.82
393.33	290.23
393.52	351.08
393.71	318.31
393.91	381.51
394.10	393.21
394.29	400.23
394.49	437.68
394.68	475.13
394.88	440.02
395.07	470.45
395.26	465.77
395.46	521.94
395.65	451.72
395.84	400.23
396.04	407.25
396.23	290.23
396.42	322.99
396.62	308.95
396.81	294.91
397.00	348.74
397.19	344.06
397.39	449.38
397.58	524.28
397.77	559.39
397.97	517.26
398.16	592.16
398.35	533.64
398.55	566.41
398.74	610.88
398.93	538.32
399.12	557.05
399.32	575.77
399.51	496.19
399.70	559.39
399.90	596.84
400.09	557.05
400.28	594.50
400.47	589.82
400.67	603.86
400.86	622.58
401.05	615.56
401.24	683.44
401.44	702.16
401.63	613.22
401.82	671.73
402.01	559.39
402.21	674.07
402.40	641.31
402.59	493.85
402.78	596.84
402.97	638.97
403.17	617.90
403.36	526.62
403.55	603.86
403.74	634.29
403.93	627.26
404.13	781.74
404.32	751.31
404.51	706.84
404.70	755.99
404.89	716.20
405.09	781.74
405.28	624.92
405.47	540.66
405.66	664.71
405.85	606.20
406.05	711.52
406.24	592.16
406.43	589.82
406.62	599.18
406.81	662.37
407.00	650.67
407.20	617.90
407.39	615.56
407.58	641.31
407.77	683.44
407.96	657.69
408.15	667.05
408.34	648.33
408.54	737.27
408.73	702.16
408.92	697.48
409.11	692.80
409.30	657.69
409.49	676.41
409.68	571.09
409.87	608.54
410.07	608.54
410.26	627.26
410.45	617.90
410.64	662.37
410.83	669.39
411.02	784.08
411.21	805.14
411.40	767.70
411.59	763.01
411.78	763.01
411.98	746.63
412.17	706.84
412.36	725.57
412.55	807.48
412.74	702.16
412.93	814.51
413.12	657.69
413.31	858.98
413.50	784.08
413.69	753.65
413.88	727.91
414.07	706.84
414.26	807.48
414.45	741.95
414.64	711.52
414.83	753.65
415.02	753.65
415.22	732.59
415.41	791.10
415.60	828.55
415.79	779.40
415.98	882.38
416.17	908.13
416.36	791.10
416.55	767.70
416.74	828.55
416.93	723.23
417.12	706.84
417.31	835.57
417.50	758.33
417.69	809.83
417.88	781.74
418.07	730.25
418.26	737.27
418.45	828.55
418.64	868.34
418.83	894.08
419.02	767.70
419.21	809.83
419.39	800.46
419.58	795.78
419.77	681.10
419.96	826.21
420.15	891.74
420.34	774.72
420.53	858.98
420.72	961.96
420.91	807.48
421.10	837.91
421.29	884.72
421.48	868.34
421.67	877.70
421.86	779.40
422.05	809.83
422.24	709.18
422.43	812.17
422.61	709.18
422.80	741.95
422.99	901.11
423.18	751.31
423.37	784.08
423.56	807.48
423.75	791.10
423.94	807.48
424.13	753.65
424.32	725.57
424.50	877.70
424.69	702.16
424.88	809.83
425.07	786.42
425.26	767.70
425.45	751.31
425.64	849.61
425.83	779.40
426.01	821.53
426.20	847.27
426.39	741.95
426.58	767.70
426.77	755.99
426.96	697.48
427.15	814.51
427.33	793.44
427.52	784.08
427.71	828.55
427.90	779.40
428.09	814.51
428.28	716.20
428.46	744.29
428.65	828.55
428.84	760.67
429.03	770.04
429.22	688.12
429.40	732.59
429.59	547.69
429.78	648.33
429.97	561.73
430.16	580.45
430.34	578.11
430.53	557.05
430.72	627.26
430.91	716.20
431.10	753.65
431.28	828.55
431.47	936.21
431.66	854.30
431.85	777.06
432.03	723.23
432.22	786.42
432.41	823.87
432.60	854.30
432.79	800.46
432.97	933.87
433.16	844.93
433.35	737.27
433.54	739.61
433.72	753.65
433.91	882.38
434.10	716.20
434.28	795.78
434.47	858.98
434.66	891.74
434.85	828.55
435.03	978.34
435.22	1280.27
435.41	1753.06
435.59	1799.87
435.78	1535.39
435.97	1263.89
436.16	1048.56
436.34	959.62
436.53	1006.43
436.72	964.30
436.90	884.72
437.09	959.62
437.28	901.11
437.46	968.98
437.65	861.32
437.84	866.00
438.02	791.10
438.21	849.61
438.40	844.93
438.58	798.12
438.77	856.64
438.96	894.08
439.14	861.32
439.33	966.64
439.52	957.28
439.70	1018.13
439.89	943.24
440.08	959.62
440.26	983.02
440.45	978.34
440.63	999.41
440.82	1032.18
441.01	1013.45
441.19	980.68
441.38	1027.50
441.57	1027.50
441.75	968.98
441.94	1004.09
442.12	1062.60
442.31	1104.73
442.50	985.37
442.68	1048.56
442.87	1008.77
443.05	1064.94
443.24	1055.58
443.43	1116.44
443.61	1118.78
443.80	1179.63
443.98	1109.41
444.17	1097.71
444.35	1114.10
444.54	1074.31
444.73	997.07
444.91	1081.33
445.10	961.96
445.28	880.04
445.47	978.34
445.65	997.07
445.84	964.30
446.02	1046.22
446.21	994.73
446.39	1062.60
446.58	978.34
446.77	1086.01
446.95	1032.18
447.14	1153.88
447.32	1088.35
447.51	1088.35
447.69	1083.67
447.88	1076.65
448.06	1114.10
448.25	1053.24
448.43	1041.54
448.62	973.66
448.80	1062.60
448.99	1104.73
449.17	1095.37
449.36	1039.20
449.54	1191.33
449.73	1104.73
449.91	1132.82
450.10	1121.12
450.28	1221.76
450.46	1181.97
450.65	1210.06
450.83	1165.59
451.02	1167.93
451.20	1093.03
451.39	1156.22
451.57	1135.16
451.76	1121.12
451.94	1128.14
452.13	1107.07
452.31	1107.07
452.49	1107.07
452.68	968.98
452.86	1039.20
453.05	1039.20
453.23	1102.39
453.42	1071.97
453.60	1207.72
453.78	1158.57
453.97	1109.41
454.15	1121.12
454.34	1156.22
454.52	1086.01
454.70	1130.48
454.89	1088.35
455.07	1029.84
455.26	1146.86
455.44	1224.10
455.62	1137.50
455.81	1114.10
455.99	1109.41
456.17	1158.57
456.36	1172.61
456.54	1125.80
456.73	1132.82
456.91	1235.80
457.09	1188.99
457.28	1266.23
457.46	1205.38
457.64	1200.69
457.83	1132.82
458.01	1158.57
458.19	1144.52
458.38	1118.78
458.56	1158.57
458.74	1256.87
458.93	1153.88
459.11	1146.86
459.29	1109.41
459.48	1203.04
459.66	1193.67
459.84	1153.88
460.03	1205.38
460.21	1172.61
460.39	1219.42
460.57	1242.82
460.76	1111.75
460.94	1158.57
461.12	1226.44
461.31	1196.01
461.49	1160.91
461.67	1174.95
461.85	1207.72
462.04	1219.42
462.22	1348.15
462.40	1233.46
462.59	1193.67
462.77	1233.46
462.95	1245.16
463.13	1207.72
463.32	1167.93
463.50	1146.86
463.68	1214.74
463.86	1146.86
464.05	1095.37
464.23	1226.44
464.41	1156.22
464.59	1170.27
464.78	1163.25
464.96	1153.88
465.14	1128.14
465.32	1212.40
465.50	1341.13
465.69	1214.74
465.87	1191.33
466.05	1203.04
466.23	1165.59
466.41	1081.33
466.60	1181.97
466.78	1142.18
466.96	1088.35
467.14	1132.82
467.32	1207.72
467.51	1217.08
467.69	1170.27
467.87	1188.99
468.05	1210.06
468.23	1196.01
468.41	1153.88
468.60	1198.35
468.78	1186.65
468.96	1100.05
469.14	1205.38
469.32	1196.01
469.50	1163.25
469.69	1226.44
469.87	1170.27
470.05	1153.88
470.23	1109.41
470.41	1132.82
470.59	1181.97
470.77	1275.59
470.95	1207.72
471.14	1167.93
471.32	1203.04
471.50	1303.68
471.68	1210.06
471.86	1310.70
472.04	1205.38
472.22	1256.87
472.40	1165.59
472.58	1165.59
472.77	1165.59
472.95	1217.08
473.13	1383.26
473.31	1233.46
473.49	1277.93
473.67	1217.08
473.85	1359.85
474.03	1261.55
474.21	1291.98
474.39	1259.21
474.57	1273.25
474.75	1191.33
474.93	1266.23
475.12	1207.72
475.30	1261.55
475.48	1247.51
475.66	1252.19
475.84	1254.53
476.02	1165.59
476.20	1306.02
476.38	1252.19
476.56	1380.92
476.74	1256.87
476.92	1324.74
477.10	1308.36
477.28	1397.30
477.46	1249.85
477.64	1336.45
477.82	1378.58
478.00	1336.45
478.18	1376.24
478.36	1390.28
478.54	1310.70
478.72	1469.86
478.90	1423.05
479.08	1425.39
479.26	1514.33
479.44	1507.30
479.62	1483.90
479.80	1483.90
479.98	1430.07
480.16	1495.60
480.34	1451.13
480.52	1481.56
480.70	1535.39
480.88	1458.15
481.06	1551.78
481.24	1530.71
481.41	1511.99
481.59	1624.33
481.77	1542.41
481.95	1554.12
482.13	1645.40
482.31	1448.79
482.49	1619.65
482.67	1629.01
482.85	1647.74
483.03	1575.18
483.21	1647.74
483.39	1614.97
483.57	1647.74
483.74	1544.75
483.92	1671.14
484.10	1570.50
484.28	1732.00
484.46	1741.36
484.64	1666.46
484.82	1617.31
485.00	1598.59
485.18	1610.29
485.35	1568.16
485.53	1411.34
485.71	1413.68
485.89	1376.24
486.07	1586.88
486.25	1654.76
486.43	1549.43
486.61	1657.10
486.78	1710.93
486.96	1727.32
487.14	1577.52
487.32	1713.27
487.50	1748.38
487.68	1820.94
487.85	1797.53
488.03	1790.51
488.21	1856.04
488.39	1760.08
488.57	1734.34
488.75	1657.10
488.92	1996.48
489.10	1867.75
489.28	1830.30
489.46	2010.52
489.64	1937.96
489.81	1973.07
489.99	1980.09
490.17	1930.94
490.35	2118.18
490.53	1998.82
490.70	1930.94
490.88	2005.84
491.06	1919.24
491.24	1942.64
491.41	1921.58
491.59	1722.63
491.77	1724.97
491.95	1872.43
492.13	1980.09
492.30	1921.58
492.48	1961.37
492.66	2017.54
492.84	1907.54
493.01	2064.35
493.19	1963.71
493.37	2108.82
493.54	2015.20
493.72	2097.12
493.90	2097.12
494.08	2211.81
494.25	2129.89
494.43	2129.89
494.61	2113.50
494.79	2207.13
494.96	2073.71
495.14	2099.46
495.32	2045.63
495.49	1949.67
495.67	2050.31
495.85	2064.35
496.02	2076.06
496.20	2172.02
496.38	2249.25
496.55	2186.06
496.73	2251.60
496.91	2104.14
497.09	2214.15
497.26	2214.15
497.44	2136.91
497.62	2143.93
497.79	2108.82
497.97	2001.16
498.14	2019.88
498.32	2155.63
498.50	2143.93
498.67	1994.14
498.85	2176.70
499.03	2104.14
499.20	2125.21
499.38	2204.78
499.56	2218.83
499.73	2225.85
499.91	2153.29
500.08	2071.37
500.26	1994.14
500.44	2001.16
500.61	2211.81
500.79	2099.46
500.97	2097.12
501.14	2040.95
501.32	1956.69
501.49	2057.33
501.67	1984.77
501.84	1996.48
502.02	1991.80
502.20	2193.08
502.37	2209.47
502.55	2099.46
502.72	2197.76
502.90	2193.08
503.07	2122.87
503.25	2167.34
503.43	2033.93
503.60	2005.84
503.78	1952.01
503.95	2024.56
504.13	2092.44
504.30	2244.57
504.48	2169.68
504.65	2078.40
504.83	2237.55
505.01	2127.55
505.18	2134.57
505.36	2193.08
505.53	2270.32
505.71	2228.19
505.88	2265.64
506.06	2277.34
506.23	2207.13
506.41	2176.70
506.58	2111.16
506.76	2296.07
506.93	2246.91
507.11	2167.34
507.28	2232.87
507.46	2092.44
507.63	2076.06
507.81	2174.36
507.98	2066.69
508.16	2136.91
508.33	2202.44
508.50	2260.96
508.68	2387.35
508.85	2307.77
509.03	2260.96
509.20	2289.04
509.38	2286.70
509.55	2190.74
509.73	2258.62
509.90	2347.56
510.08	2190.74
510.25	2223.51
510.42	2190.74
510.60	2277.34
510.77	2300.75
510.95	2214.15
511.12	2258.62
511.30	2464.58
511.47	2370.96
511.64	2307.77
511.82	2251.60
511.99	2179.04
512.17	2244.57
512.34	2237.55
512.51	2289.04
512.69	2265.64
512.86	2272.66
513.04	2303.09
513.21	2366.28
513.38	2272.66
513.56	2134.57
513.73	2134.57
513.90	2064.35
514.08	2146.27
514.25	2160.31
514.43	2223.51
514.60	2307.77
514.77	2228.19
514.95	2267.98
515.12	2242.23
515.29	2389.69
515.47	2326.49
515.64	2314.79
515.81	2328.83
515.99	2260.96
516.16	2155.63
516.33	2024.56
516.51	1830.30
516.68	1813.92
516.85	1816.26
517.03	1844.34
517.20	2003.50
517.37	2162.66
517.54	2223.51
517.72	2179.04
517.89	1944.99
518.06	1839.66
518.24	2092.44
518.41	2115.84
518.58	2132.23
518.75	2064.35
518.93	2120.53
519.10	2186.06
519.27	2214.15
519.45	2087.76
519.62	2331.17
519.79	2279.68
519.96	2228.19
520.14	2279.68
520.31	2111.16
520.48	2200.10
520.65	2172.02
520.83	2347.56
521.00	2345.22
521.17	2401.39
521.34	2321.81
521.52	2190.74
521.69	2335.85
521.86	2340.54
522.03	2300.75
522.20	2300.75
522.38	2101.80
522.55	2143.93
522.72	2106.48
522.89	2218.83
523.07	2172.02
523.24	2291.38
523.41	2359.26
523.58	2272.66
523.75	2232.87
523.92	2345.22
524.10	2317.13
524.27	2258.62
524.44	2410.75
524.61	2338.20
524.78	2300.75
524.96	2305.43
525.13	2258.62
525.30	2314.79
525.47	2375.64
525.64	2282.02
525.81	2289.04
525.98	2256.28
526.16	2172.02
526.33	2054.99
526.50	2010.52
526.67	1949.67
526.84	1968.39
527.01	2108.82
527.18	2174.36
527.36	2141.59
527.53	2265.64
527.70	2310.11
527.87	2260.96
528.04	2235.21
528.21	2181.38
528.38	2328.83
528.55	2356.92
528.72	2401.39
528.89	2541.82
529.07	2300.75
529.24	2289.04
529.41	2253.94
529.58	2340.54
529.75	2267.98
529.92	2429.48
530.09	2258.62
530.26	2401.39
530.43	2340.54
530.60	2387.35
530.77	2427.14
530.94	2370.96
531.11	2478.63
531.28	2293.72
531.46	2293.72
531.63	2291.38
531.80	2373.30
531.97	2275.00
532.14	2193.08
532.31	2073.71
532.48	2143.93
532.65	2165.00
532.82	2101.80
532.99	2375.64
533.16	2466.92
533.33	2352.24
533.50	2251.60
533.67	2279.68
533.84	2298.41
534.01	2143.93
534.18	2263.30
534.35	2251.60
534.52	2298.41
534.69	2389.69
534.86	2427.14
535.03	2324.15
535.20	2530.12
535.37	2338.20
535.54	2370.96
535.71	2471.61
535.88	2438.84
536.05	2396.71
536.22	2380.32
536.38	2326.49
536.55	2342.88
536.72	2349.90
536.89	2094.78
537.06	2265.64
537.23	2342.88
537.40	2450.54
537.57	2375.64
537.74	2455.22
537.91	2349.90
538.08	2480.97
538.25	2511.39
538.42	2495.01
538.59	2520.76
538.75	2366.28
538.92	2356.92
539.09	2436.50
539.26	2487.99
539.43	2368.62
539.60	2377.98
539.77	2532.46
539.94	2497.35
540.11	2623.74
540.28	2502.03
540.44	2523.10
540.61	2530.12
540.78	2623.74
540.95	2710.34
541.12	2801.62
541.29	2953.76
541.46	3119.93
541.62	2981.84
541.79	3012.27
541.96	2991.20
542.13	2916.31
542.30	2991.20
542.47	2956.10
542.63	2810.98
542.80	2771.19
542.97	2827.37
543.14	2825.03
543.31	2906.95
543.48	2965.46
543.64	2909.29
543.81	2871.84
543.98	2918.65
544.15	2745.45
544.32	2832.05
544.48	2773.53
544.65	2794.60
544.82	2822.69
544.99	2878.86
545.16	2974.82
545.32	2848.43
545.49	3325.90
545.66	4049.13
545.83	4512.55
546.00	4187.22
546.16	3513.14
546.33	3201.85
546.50	2899.92
546.67	2878.86
546.83	2703.32
547.00	2661.19
547.17	2665.87
547.34	2588.63
547.50	2565.23
547.67	2516.08
547.84	2558.21
548.00	2546.50
548.17	2689.28
548.34	2492.67
548.51	2502.03
548.67	2569.91
548.84	2445.86
549.01	2523.10
549.18	2509.05
549.34	2551.18
549.51	2422.45
549.68	2544.16
549.84	2438.84
550.01	2438.84
550.18	2483.31
550.34	2504.37
550.51	2527.78
550.68	2450.54
550.84	2363.94
551.01	2277.34
551.18	2366.28
551.34	2333.51
551.51	2303.09
551.68	2366.28
551.84	2424.80
552.01	2396.71
552.18	2356.92
552.34	2298.41
552.51	2160.31
552.68	2267.98
552.84	2239.89
553.01	2368.62
553.18	2272.66
553.34	2183.72
553.51	2370.96
553.67	2368.62
553.84	2211.81
554.01	2267.98
554.17	2235.21
554.34	2277.34
554.51	2321.81
554.67	2333.51
554.84	2246.91
555.00	2204.78
555.17	2211.81
555.33	2167.34
555.50	2125.21
555.67	2160.31
555.83	2136.91
556.00	2223.51
556.16	2298.41
556.33	2176.70
556.50	2207.13
556.66	2172.02
556.83	2087.76
556.99	2090.10
557.16	2162.66
557.32	2260.96
557.49	2127.55
557.65	2045.63
557.82	2094.78
557.98	2132.23
558.15	2015.20
558.32	2017.54
558.48	2008.18
558.65	1966.05
558.81	2078.40
558.98	2080.74
559.14	2015.20
559.31	1963.71
559.47	2174.36
559.64	1994.14
559.80	2069.03
559.97	2008.18
560.13	2015.20
560.30	2062.01
560.46	2139.25
560.63	2115.84
560.79	2104.14
560.96	2069.03
561.12	2106.48
561.29	2136.91
561.45	1956.69
561.61	2085.42
561.78	2139.25
561.94	2064.35
562.11	2092.44
562.27	2122.87
562.44	2085.42
562.60	2038.61
562.77	2101.80
562.93	2113.50
563.10	2181.38
563.26	2066.69
563.42	2094.78
563.59	2125.21
563.75	2012.86
563.92	2010.52
564.08	2040.95
564.24	2139.25
564.41	2092.44
564.57	2054.99
564.74	1996.48
564.90	2097.12
565.07	2108.82
565.23	1940.30
565.39	1900.52
565.56	1963.71
565.72	1973.07
565.88	2008.18
566.05	1863.07
566.21	1928.60
566.38	1956.69
566.54	1952.01
566.70	2024.56
566.87	2136.91
567.03	1980.09
567.19	2015.20
567.36	2101.80
567.52	2031.58
567.68	1919.24
567.85	1898.17
568.01	1823.28
568.17	1799.87
568.34	1898.17
568.50	1980.09
568.66	1856.04
568.83	1837.32
568.99	1888.81
569.15	1930.94
569.32	1966.05
569.48	1853.70
569.64	1846.68
569.81	1888.81
569.97	1867.75
570.13	1816.26
570.30	1762.42
570.46	1753.06
570.62	1891.15
570.78	1846.68
570.95	1785.83
571.11	1816.26
571.27	1926.26
571.43	1834.98
571.60	1956.69
571.76	1865.41
571.92	1893.49
572.09	1839.66
572.25	1790.51
572.41	1916.90
572.57	1827.96
572.74	1813.92
572.90	1893.49
573.06	1884.13
573.22	1930.94
573.38	1842.00
573.55	1872.43
573.71	1874.77
573.87	1926.26
574.03	1877.11
574.20	1774.13
574.36	1757.74
574.52	1811.57
574.68	1806.89
574.84	1837.32
575.01	1757.74
575.17	1764.76
575.33	1776.47
575.49	1720.29
575.65	1799.87
575.82	1820.94
575.98	1893.49
576.14	1799.87
576.30	1907.54
576.46	2087.76
576.62	2167.34
576.79	2225.85
576.95	2118.18
577.11	1989.46
577.27	1888.81
577.43	1912.22
577.59	1895.83
577.75	1774.13
577.92	1790.51
578.08	1764.76
578.24	1776.47
578.40	1907.54
578.56	2064.35
578.72	2118.18
578.88	2146.27
579.04	2059.67
579.21	1956.69
579.37	1895.83
579.53	1867.75
579.69	1963.71
579.85	1905.20
580.01	2012.86
580.17	1914.56
580.33	1795.19
580.49	1881.79
580.65	1853.70
580.82	1893.49
580.98	1949.67
581.14	1830.30
581.30	1952.01
581.46	1879.45
581.62	1872.43
581.78	1928.60
581.94	1834.98
582.10	1858.39
582.26	1952.01
582.42	1921.58
582.58	1989.46
582.74	2008.18
582.90	2010.52
583.06	1982.43
583.22	1952.01
583.38	1942.64
583.54	2003.50
583.70	1919.24
583.86	2005.84
584.02	1942.64
584.18	1987.11
584.34	2047.97
584.50	1977.75
584.66	1973.07
584.82	1984.77
584.98	1907.54
585.14	1830.30
585.30	1966.05
585.46	1788.17
585.62	1788.17
585.78	1790.51
585.94	1720.29
586.10	1853.70
586.26	1809.23
586.42	1947.33
586.58	1753.06
586.74	2031.58
586.90	2005.84
587.06	2111.16
587.22	1933.28
587.38	1872.43
587.54	1886.47
587.70	1881.79
587.86	1788.17
588.02	1809.23
588.18	1626.67
588.34	1612.63
588.49	1411.34
588.65	1469.86
588.81	1432.41
588.97	1390.28
589.13	1364.53
589.29	1359.85
589.45	1385.60
589.61	1413.68
589.77	1495.60
589.93	1598.59
590.08	1401.98
590.24	1551.78
590.40	1446.45
590.56	1565.82
590.72	1540.07
590.88	1521.35
591.04	1526.03
591.20	1474.54
591.35	1593.90
591.51	1565.82
591.67	1502.62
591.83	1502.62
591.99	1535.39
592.15	1647.74
592.31	1577.52
592.46	1734.34
592.62	1736.68
592.78	1785.83
592.94	1565.82
593.10	1586.88
593.26	1706.25
593.41	1769.44
593.57	1638.38
593.73	1652.42
593.89	1593.90
594.05	1425.39
594.20	1437.09
594.36	1507.30
594.52	1458.15
594.68	1483.90
594.84	1530.71
594.99	1579.86
595.15	1519.01
595.31	1631.35
595.47	1558.80
595.62	1565.82
595.78	1575.18
595.94	1584.54
596.10	1572.84
596.25	1586.88
596.41	1448.79
596.57	1469.86
596.73	1493.26
596.88	1621.99
597.04	1610.29
597.20	1643.06
597.36	1540.07
597.51	1570.50
597.67	1509.65
597.83	1535.39
597.99	1664.12
598.14	1598.59
598.30	1650.08
598.46	1645.40
598.61	1657.10
598.77	1703.91
598.93	1554.12
599.09	1682.85
599.24	1724.97
599.40	1764.76
599.56	1647.74
599.71	1706.25
599.87	1603.27
600.03	1617.31
600.18	1668.80
600.34	1511.99
