SpectraSuite Data File
++++++++++++++++++++++++++++++++++++
Date: Fri Oct 04 11:42:20 GMT-05:00 2013
User: price-jones
Dark Spectrum Present: No
Reference Spectrum Present: No
Number of Sampled Component Spectra: 1
Spectrometers: USB2+H05261
Integration Time (usec): 100000 (USB2+H05261)
Spectra Averaged: 1 (USB2+H05261)
Boxcar Smoothing: 0 (USB2+H05261)
Correct for Electrical Dark: No (USB2+H05261)
Strobe/Lamp Enabled: No (USB2+H05261)
Correct for Detector Non-linearity: No (USB2+H05261)
Correct for Stray Light: No (USB2+H05261)
Number of Pixels in Processed Spectrum: 2048
>>>>>Begin Processed Spectral Data<<<<<
365.73	25.75
365.92	25.75
366.12	25.75
366.32	0.00
366.52	0.00
366.72	0.00
366.91	0.00
367.11	0.00
367.31	0.00
367.51	0.00
367.70	0.00
367.90	0.00
368.10	0.00
368.30	0.00
368.49	0.00
368.69	32.77
368.89	0.00
369.09	0.00
369.28	63.19
369.48	0.00
369.68	0.00
369.87	4.68
370.07	23.41
370.27	107.66
370.47	0.00
370.66	0.00
370.86	39.79
371.06	121.71
371.25	98.30
371.45	86.60
371.65	35.11
371.84	58.51
372.04	135.75
372.24	98.30
372.44	100.64
372.63	140.43
372.83	121.71
373.03	114.69
373.22	100.64
373.42	30.43
373.62	145.11
373.81	154.48
374.01	138.09
374.21	72.56
374.40	53.83
374.60	147.45
374.79	184.90
374.99	84.26
375.19	86.60
375.38	152.13
375.58	72.56
375.78	142.77
375.97	79.58
376.17	198.95
376.37	128.73
376.56	95.96
376.76	51.49
376.95	166.18
377.15	156.82
377.35	138.09
377.54	93.62
377.74	107.66
377.93	56.17
378.13	110.01
378.33	74.90
378.52	131.07
378.72	173.20
378.91	114.69
379.11	77.24
379.31	95.96
379.50	142.77
379.70	74.90
379.89	194.26
380.09	126.39
380.28	140.43
380.48	142.77
380.68	53.83
380.87	203.63
381.07	88.94
381.26	119.37
381.46	117.03
381.65	145.11
381.85	25.75
382.04	65.54
382.24	105.32
382.43	81.92
382.63	91.28
382.83	58.51
383.02	159.16
383.22	102.98
383.41	72.56
383.61	112.35
383.80	161.50
384.00	77.24
384.19	198.95
384.39	128.73
384.58	126.39
384.78	147.45
384.97	163.84
385.17	126.39
385.36	88.94
385.56	180.22
385.75	156.82
385.95	121.71
386.14	98.30
386.34	74.90
386.53	105.32
386.72	187.24
386.92	88.94
387.11	112.35
387.31	86.60
387.50	161.50
387.70	84.26
387.89	79.58
388.09	100.64
388.28	114.69
388.48	133.41
388.67	65.54
388.86	124.05
389.06	88.94
389.25	84.26
389.45	135.75
389.64	119.37
389.84	147.45
390.03	154.48
390.22	142.77
390.42	147.45
390.61	100.64
390.81	65.54
391.00	67.88
391.19	77.24
391.39	182.56
391.58	105.32
391.78	67.88
391.97	170.86
392.16	173.20
392.36	210.65
392.55	72.56
392.75	105.32
392.94	77.24
393.13	154.48
393.33	110.01
393.52	88.94
393.71	114.69
393.91	102.98
394.10	77.24
394.29	49.15
394.49	72.56
394.68	135.75
394.88	124.05
395.07	248.10
395.26	110.01
395.46	93.62
395.65	152.13
395.84	163.84
396.04	182.56
396.23	93.62
396.42	49.15
396.62	79.58
396.81	126.39
397.00	154.48
397.19	182.56
397.39	91.28
397.58	220.01
397.77	74.90
397.97	173.20
398.16	91.28
398.35	138.09
398.55	128.73
398.74	51.49
398.93	215.33
399.12	133.41
399.32	98.30
399.51	105.32
399.70	156.82
399.90	117.03
400.09	147.45
400.28	147.45
400.47	163.84
400.67	131.07
400.86	112.35
401.05	147.45
401.24	161.50
401.44	124.05
401.63	145.11
401.82	161.50
402.01	161.50
402.21	117.03
402.40	110.01
402.59	147.45
402.78	138.09
402.97	191.92
403.17	224.69
403.36	248.10
403.55	224.69
403.74	582.79
403.93	1717.95
404.13	3794.01
404.32	4751.29
404.51	3953.16
404.70	2359.26
404.89	938.55
405.09	308.95
405.28	189.58
405.47	222.35
405.66	238.73
405.85	196.60
406.05	138.09
406.24	163.84
406.43	159.16
406.62	161.50
406.81	229.37
407.00	276.18
407.20	500.87
407.39	751.31
407.58	702.16
407.77	528.96
407.96	315.97
408.15	208.31
408.34	255.12
408.54	102.98
408.73	194.26
408.92	135.75
409.11	208.31
409.30	156.82
409.49	131.07
409.68	140.43
409.87	196.60
410.07	159.16
410.26	191.92
410.45	140.43
410.64	163.84
410.83	74.90
411.02	102.98
411.21	173.20
411.40	182.56
411.59	100.64
411.78	163.84
411.98	201.29
412.17	210.65
412.36	166.18
412.55	177.88
412.74	184.90
412.93	264.48
413.12	194.26
413.31	229.37
413.50	294.91
413.69	175.54
413.88	236.39
414.07	180.22
414.26	145.11
414.45	110.01
414.64	147.45
414.83	159.16
415.02	215.33
415.22	156.82
415.41	205.97
415.60	166.18
415.79	203.63
415.98	224.69
416.17	227.03
416.36	220.01
416.55	147.45
416.74	217.67
416.93	210.65
417.12	182.56
417.31	194.26
417.50	154.48
417.69	280.86
417.88	208.31
418.07	229.37
418.26	234.05
418.45	243.42
418.64	210.65
418.83	250.44
419.02	259.80
419.21	182.56
419.39	152.13
419.58	224.69
419.77	224.69
419.96	138.09
420.15	234.05
420.34	196.60
420.53	135.75
420.72	194.26
420.91	173.20
421.10	243.42
421.29	241.08
421.48	292.57
421.67	285.55
421.86	224.69
422.05	198.95
422.24	163.84
422.43	191.92
422.61	264.48
422.80	306.61
422.99	262.14
423.18	205.97
423.37	224.69
423.56	271.50
423.75	315.97
423.94	205.97
424.13	245.76
424.32	166.18
424.50	224.69
424.69	255.12
424.88	245.76
425.07	278.52
425.26	280.86
425.45	285.55
425.64	264.48
425.83	217.67
426.01	278.52
426.20	283.20
426.39	255.12
426.58	248.10
426.77	276.18
426.96	287.89
427.15	266.82
427.33	205.97
427.52	374.49
427.71	250.44
427.90	236.39
428.09	285.55
428.28	299.59
428.46	318.31
428.65	304.27
428.84	248.10
429.03	322.99
429.22	341.72
429.40	259.80
429.59	252.78
429.78	365.12
429.97	304.27
430.16	252.78
430.34	301.93
430.53	294.91
430.72	315.97
430.91	322.99
431.10	220.01
431.28	306.61
431.47	341.72
431.66	360.44
431.85	339.38
432.03	313.63
432.22	500.87
432.41	397.89
432.60	327.68
432.79	341.72
432.97	362.78
433.16	318.31
433.35	393.21
433.54	425.98
433.72	500.87
433.91	493.85
434.10	514.92
434.28	681.10
434.47	660.03
434.66	781.74
434.85	990.05
435.03	2815.66
435.22	10445.81
435.41	21186.53
435.59	20027.96
435.78	12823.80
435.97	6562.86
436.16	2480.97
436.34	1041.54
436.53	624.92
436.72	461.09
436.90	454.06
437.09	388.53
437.28	437.68
437.46	358.10
437.65	433.00
437.84	344.06
438.02	355.76
438.21	400.23
438.40	287.89
438.58	334.70
438.77	351.08
438.96	355.76
439.14	318.31
439.33	416.62
439.52	351.08
439.70	353.42
439.89	315.97
440.08	313.63
440.26	390.87
440.45	334.70
440.63	414.27
440.82	346.40
441.01	374.49
441.19	362.78
441.38	360.44
441.57	372.15
441.75	390.87
441.94	393.21
442.12	304.27
442.31	374.49
442.50	358.10
442.68	306.61
442.87	386.19
443.05	337.04
443.24	339.38
443.43	330.02
443.61	411.93
443.80	362.78
443.98	360.44
444.17	348.74
444.35	355.76
444.54	381.51
444.73	374.49
444.91	376.83
445.10	297.25
445.28	292.57
445.47	341.72
445.65	374.49
445.84	395.55
446.02	411.93
446.21	388.53
446.39	250.44
446.58	367.46
446.77	414.27
446.95	351.08
447.14	346.40
447.32	372.15
447.51	271.50
447.69	304.27
447.88	334.70
448.06	334.70
448.25	414.27
448.43	365.12
448.62	283.20
448.80	346.40
448.99	397.89
449.17	341.72
449.36	404.91
449.54	379.17
449.73	318.31
449.91	528.96
450.10	362.78
450.28	327.68
450.46	491.51
450.65	372.15
450.83	400.23
451.02	362.78
451.20	362.78
451.39	308.95
451.57	425.98
451.76	409.59
451.94	315.97
452.13	304.27
452.31	383.85
452.49	346.40
452.68	383.85
452.86	327.68
453.05	358.10
453.23	379.17
453.42	325.33
453.60	367.46
453.78	409.59
453.97	395.55
454.15	362.78
454.34	409.59
454.52	308.95
454.70	360.44
454.89	437.68
455.07	334.70
455.26	470.45
455.44	351.08
455.62	308.95
455.81	322.99
455.99	351.08
456.17	332.36
456.36	341.72
456.54	367.46
456.73	374.49
456.91	334.70
457.09	430.66
457.28	376.83
457.46	330.02
457.64	390.87
457.83	313.63
458.01	358.10
458.19	374.49
458.38	346.40
458.56	346.40
458.74	322.99
458.93	386.19
459.11	337.04
459.29	369.80
459.48	360.44
459.66	388.53
459.84	351.08
460.03	414.27
460.21	402.57
460.39	341.72
460.57	369.80
460.76	360.44
460.94	341.72
461.12	402.57
461.31	285.55
461.49	374.49
461.67	313.63
461.85	330.02
462.04	332.36
462.22	514.92
462.40	369.80
462.59	388.53
462.77	367.46
462.95	390.87
463.13	400.23
463.32	369.80
463.50	315.97
463.68	301.93
463.86	360.44
464.05	304.27
464.23	379.17
464.41	402.57
464.59	367.46
464.78	372.15
464.96	290.23
465.14	383.85
465.32	320.65
465.50	344.06
465.69	325.33
465.87	255.12
466.05	334.70
466.23	402.57
466.41	341.72
466.60	402.57
466.78	388.53
466.96	397.89
467.14	344.06
467.32	465.77
467.51	416.62
467.69	472.79
467.87	376.83
468.05	381.51
468.23	388.53
468.41	381.51
468.60	365.12
468.78	290.23
468.96	334.70
469.14	376.83
469.32	351.08
469.50	285.55
469.69	339.38
469.87	311.29
470.05	325.33
470.23	306.61
470.41	301.93
470.59	290.23
470.77	285.55
470.95	283.20
471.14	386.19
471.32	379.17
471.50	330.02
471.68	372.15
471.86	418.96
472.04	358.10
472.22	376.83
472.40	341.72
472.58	353.42
472.77	318.31
472.95	287.89
473.13	379.17
473.31	421.30
473.49	294.91
473.67	315.97
473.85	390.87
474.03	283.20
474.21	330.02
474.39	334.70
474.57	379.17
474.75	320.65
474.93	365.12
475.12	320.65
475.30	294.91
475.48	355.76
475.66	325.33
475.84	327.68
476.02	421.30
476.20	395.55
476.38	372.15
476.56	404.91
476.74	353.42
476.92	327.68
477.10	372.15
477.28	388.53
477.46	304.27
477.64	341.72
477.82	355.76
478.00	442.36
478.18	259.80
478.36	339.38
478.54	318.31
478.72	374.49
478.90	402.57
479.08	449.38
479.26	451.72
479.44	358.10
479.62	416.62
479.80	421.30
479.98	468.11
480.16	456.40
480.34	540.66
480.52	440.02
480.70	482.15
480.88	528.96
481.06	435.34
481.24	526.62
481.41	603.86
481.59	657.69
481.77	627.26
481.95	720.88
482.13	774.72
482.31	727.91
482.49	751.31
482.67	814.51
482.85	828.55
483.03	976.00
483.21	917.49
483.39	1039.20
483.57	1146.86
483.74	1146.86
483.92	1284.95
484.10	1247.51
484.28	1439.43
484.46	1476.88
484.64	1474.54
484.82	1558.80
485.00	1598.59
485.18	1783.49
485.35	1860.73
485.53	1956.69
485.71	1959.03
485.89	2057.33
486.07	2113.50
486.25	2125.21
486.43	2160.31
486.61	2139.25
486.78	2230.53
486.96	2038.61
487.14	2087.76
487.32	2076.06
487.50	2242.23
487.68	2080.74
487.85	1998.82
488.03	2106.48
488.21	2071.37
488.39	1921.58
488.57	1968.39
488.75	1870.09
488.92	1984.77
489.10	1813.92
489.28	1769.44
489.46	1830.30
489.64	1743.70
489.81	1626.67
489.99	1675.82
490.17	1734.34
490.35	1837.32
490.53	1652.42
490.70	1600.93
490.88	1748.38
491.06	1764.76
491.24	1830.30
491.41	1907.54
491.59	1750.72
491.77	1633.69
491.95	1596.25
492.13	1551.78
492.30	1420.71
492.48	1409.00
492.66	1526.03
492.84	1462.83
493.01	1411.34
493.19	1369.21
493.37	1336.45
493.54	1458.15
493.72	1362.19
493.90	1376.24
494.08	1266.23
494.25	1324.74
494.43	1238.14
494.61	1219.42
494.79	1270.91
494.96	1207.72
495.14	1233.46
495.32	1240.48
495.49	1228.78
495.67	1179.63
495.85	1064.94
496.02	968.98
496.20	1121.12
496.38	1097.71
496.55	1111.75
496.73	1123.46
496.91	1102.39
497.09	1181.97
497.26	983.02
497.44	1050.90
497.62	922.17
497.79	1025.15
497.97	976.00
498.14	999.41
498.32	994.73
498.50	889.40
498.67	833.23
498.85	873.02
499.03	844.93
499.20	812.17
499.38	837.91
499.56	870.68
499.73	837.91
499.91	758.33
500.08	709.18
500.26	725.57
500.44	704.50
500.61	770.04
500.79	669.39
500.97	645.99
501.14	741.95
501.32	589.82
501.49	664.71
501.67	561.73
501.84	578.11
502.02	540.66
502.20	629.60
502.37	475.13
502.55	496.19
502.72	517.26
502.90	517.26
503.07	552.37
503.25	564.07
503.43	477.47
503.60	468.11
503.78	449.38
503.95	479.81
504.13	477.47
504.30	418.96
504.48	470.45
504.65	461.09
504.83	505.56
505.01	454.06
505.18	404.91
505.36	479.81
505.53	365.12
505.71	379.17
505.88	461.09
506.06	458.74
506.23	397.89
506.41	411.93
506.58	397.89
506.76	449.38
506.93	425.98
507.11	358.10
507.28	435.34
507.46	383.85
507.63	465.77
507.81	334.70
507.98	449.38
508.16	400.23
508.33	339.38
508.50	430.66
508.68	379.17
508.85	454.06
509.03	454.06
509.20	444.70
509.38	435.34
509.55	372.15
509.73	376.83
509.90	330.02
510.08	358.10
510.25	402.57
510.42	266.82
510.60	311.29
510.77	334.70
510.95	337.04
511.12	402.57
511.30	374.49
511.47	451.72
511.64	437.68
511.82	355.76
511.99	402.57
512.17	367.46
512.34	421.30
512.51	409.59
512.69	304.27
512.86	421.30
513.04	341.72
513.21	297.25
513.38	325.33
513.56	348.74
513.73	290.23
513.90	271.50
514.08	442.36
514.25	341.72
514.43	292.57
514.60	318.31
514.77	337.04
514.95	313.63
515.12	320.65
515.29	360.44
515.47	374.49
515.64	273.84
515.81	341.72
515.99	313.63
516.16	304.27
516.33	348.74
516.51	306.61
516.68	273.84
516.85	362.78
517.03	313.63
517.20	306.61
517.37	351.08
517.54	332.36
517.72	290.23
517.89	315.97
518.06	337.04
518.24	374.49
518.41	400.23
518.58	269.16
518.75	320.65
518.93	248.10
519.10	320.65
519.27	278.52
519.45	332.36
519.62	304.27
519.79	362.78
519.96	318.31
520.14	308.95
520.31	416.62
520.48	292.57
520.65	346.40
520.83	332.36
521.00	346.40
521.17	365.12
521.34	311.29
521.52	355.76
521.69	315.97
521.86	346.40
522.03	304.27
522.20	383.85
522.38	308.95
522.55	248.10
522.72	287.89
522.89	315.97
523.07	465.77
523.24	372.15
523.41	353.42
523.58	376.83
523.75	358.10
523.92	393.21
524.10	388.53
524.27	409.59
524.44	299.59
524.61	337.04
524.78	341.72
524.96	304.27
525.13	306.61
525.30	393.21
525.47	400.23
525.64	327.68
525.81	447.04
525.98	376.83
526.16	325.33
526.33	418.96
526.50	367.46
526.67	365.12
526.84	355.76
527.01	337.04
527.18	411.93
527.36	430.66
527.53	428.32
527.70	465.77
527.87	393.21
528.04	402.57
528.21	404.91
528.38	461.09
528.55	421.30
528.72	388.53
528.89	369.80
529.07	365.12
529.24	456.40
529.41	416.62
529.58	330.02
529.75	414.27
529.92	367.46
530.09	418.96
530.26	376.83
530.43	372.15
530.60	407.25
530.77	404.91
530.94	496.19
531.11	456.40
531.28	472.79
531.46	444.70
531.63	465.77
531.80	498.53
531.97	479.81
532.14	613.22
532.31	674.07
532.48	809.83
532.65	945.58
532.82	1027.50
532.99	1139.84
533.16	1327.08
533.33	1284.95
533.50	1268.57
533.67	971.32
533.84	945.58
534.01	823.87
534.18	821.53
534.35	858.98
534.52	863.66
534.69	931.53
534.86	936.21
535.03	936.21
535.20	858.98
535.37	999.41
535.54	1039.20
535.71	1043.88
535.88	1102.39
536.05	1184.31
536.22	1256.87
536.38	1317.72
536.55	1579.86
536.72	1598.59
536.89	1720.29
537.06	1909.88
537.23	2122.87
537.40	2434.16
537.57	2574.59
537.74	2651.83
537.91	2668.21
538.08	2775.88
538.25	3040.36
538.42	3005.25
538.59	2803.96
538.75	3033.33
538.92	3143.34
539.09	3513.14
539.26	3957.85
539.43	4386.16
539.60	4975.98
539.77	5495.58
539.94	5966.03
540.11	6740.74
540.28	7400.77
540.44	8334.65
540.61	8767.65
540.78	10675.18
540.95	12388.46
541.12	14731.33
541.29	16343.96
541.46	17046.12
541.62	16954.84
541.79	16070.12
541.96	15030.92
542.13	14008.11
542.30	12774.64
542.47	12259.73
542.63	11840.77
542.80	11431.18
542.97	11257.98
543.14	11337.56
543.31	11199.46
543.48	11138.61
543.64	11576.29
543.81	11477.99
543.98	11447.56
544.15	11616.08
544.32	11606.72
544.48	11489.69
544.65	11527.14
544.82	11309.47
544.99	11440.54
545.16	11606.72
545.32	12432.93
545.49	22139.13
545.66	40767.45
545.83	46780.29
546.00	39152.48
546.16	27040.21
546.33	19969.45
546.50	14696.22
546.67	11735.45
546.83	10511.35
547.00	9823.23
547.17	9231.07
547.34	9048.51
547.50	8669.34
547.67	8322.94
547.84	8159.11
548.00	7889.95
548.17	7442.90
548.34	7290.77
548.51	7096.50
548.67	6663.51
548.84	6317.11
549.01	6040.92
549.18	5776.44
549.34	5600.90
549.51	5362.17
549.68	5186.63
549.84	4985.34
550.01	4861.29
550.18	4720.86
550.34	4484.47
550.51	4180.20
550.68	4046.79
550.84	3744.86
551.01	3583.36
551.18	3428.88
551.34	3213.56
551.51	3045.04
551.68	2888.22
551.84	3047.38
552.01	2815.66
552.18	2567.57
552.34	2663.53
552.51	2525.44
552.68	2399.05
552.84	2265.64
553.01	2167.34
553.18	2216.49
553.34	2017.54
553.51	2043.29
553.67	1961.37
553.84	1778.81
554.01	1823.28
554.17	1659.44
554.34	1483.90
554.51	1469.86
554.67	1392.62
554.84	1369.21
555.00	1228.78
555.17	1170.27
555.33	1158.57
555.50	1139.84
555.67	1081.33
555.83	1053.24
556.00	999.41
556.16	1057.92
556.33	905.79
556.50	959.62
556.66	915.15
556.83	924.51
556.99	896.43
557.16	889.40
557.32	828.55
557.49	809.83
557.65	788.76
557.82	795.78
557.98	739.61
558.15	697.48
558.32	725.57
558.48	699.82
558.65	737.27
558.81	589.82
558.98	720.88
559.14	690.46
559.31	580.45
559.47	601.52
559.64	594.50
559.80	610.88
559.97	622.58
560.13	528.96
560.30	550.03
560.46	589.82
560.63	571.09
560.79	573.43
560.96	585.13
561.12	610.88
561.29	559.39
561.45	601.52
561.61	554.71
561.78	629.60
561.94	638.97
562.11	620.24
562.27	540.66
562.44	528.96
562.60	592.16
562.77	594.50
562.93	702.16
563.10	564.07
563.26	463.43
563.42	568.75
563.59	557.05
563.75	498.53
563.92	575.77
564.08	610.88
564.24	580.45
564.41	510.24
564.57	517.26
564.74	477.47
564.90	559.39
565.07	449.38
565.23	442.36
565.39	472.79
565.56	461.09
565.72	526.62
565.88	421.30
566.05	461.09
566.21	461.09
566.38	383.85
566.54	423.64
566.70	433.00
566.87	461.09
567.03	428.32
567.19	517.26
567.36	528.96
567.52	510.24
567.68	390.87
567.85	535.98
568.01	533.64
568.17	470.45
568.34	521.94
568.50	557.05
568.66	388.53
568.83	528.96
568.99	519.60
569.15	500.87
569.32	416.62
569.48	454.06
569.64	400.23
569.81	468.11
569.97	379.17
570.13	358.10
570.30	468.11
570.46	447.04
570.62	393.21
570.78	322.99
570.95	353.42
571.11	407.25
571.27	386.19
571.43	409.59
571.60	369.80
571.76	308.95
571.92	383.85
572.09	421.30
572.25	348.74
572.41	372.15
572.57	395.55
572.74	444.70
572.90	393.21
573.06	379.17
573.22	404.91
573.38	468.11
573.55	524.28
573.71	411.93
573.87	456.40
574.03	444.70
574.20	442.36
574.36	479.81
574.52	454.06
574.68	449.38
574.84	451.72
575.01	411.93
575.17	531.30
575.33	543.00
575.49	545.34
575.65	566.41
575.82	599.18
575.98	713.86
576.14	695.14
576.30	1460.49
576.46	4945.55
576.62	7658.23
576.79	8025.70
576.95	5753.04
577.11	3812.73
577.27	2724.38
577.43	1832.64
577.59	1200.69
577.75	1046.22
577.92	912.81
578.08	919.83
578.24	882.38
578.40	1678.16
578.56	4688.09
578.72	7040.33
578.88	7187.79
579.04	5355.15
579.21	3688.68
579.37	2857.79
579.53	2148.61
579.69	2434.16
579.85	2698.64
580.01	3227.60
580.17	2970.14
580.33	2427.14
580.49	2172.02
580.65	2024.56
580.82	1720.29
580.98	1650.08
581.14	1724.97
581.30	1952.01
581.46	2087.76
581.62	2106.48
581.78	2340.54
581.94	2513.74
582.10	2567.57
582.26	2743.11
582.42	2834.39
582.58	2920.99
582.74	2888.22
582.90	2888.22
583.06	3019.29
583.22	2864.82
583.38	2923.33
583.54	3052.06
583.70	2963.12
583.86	2911.63
584.02	2897.58
584.18	2841.41
584.34	2787.58
584.50	2649.49
584.66	2691.62
584.82	2724.38
584.98	2628.42
585.14	2523.10
585.30	2544.16
585.46	2593.31
585.62	2562.89
585.78	2401.39
585.94	2558.21
586.10	2693.96
586.26	2801.62
586.42	3194.83
586.58	3709.75
586.74	4304.25
586.90	5219.39
587.06	5696.86
587.22	5364.51
587.38	4795.76
587.54	4191.90
587.70	3655.92
587.86	3040.36
588.02	2668.21
588.18	2392.03
588.34	2216.49
588.49	1952.01
588.65	1886.47
588.81	1701.57
588.97	1743.70
589.13	1753.06
589.29	1629.01
589.45	1659.44
589.61	1671.14
589.77	1755.40
589.93	1617.31
590.08	1827.96
590.24	1863.07
590.40	1853.70
590.56	1898.17
590.72	1839.66
590.88	1853.70
591.04	2115.84
591.20	2221.17
591.35	2202.44
591.51	2279.68
591.67	2417.77
591.83	2516.08
591.99	2881.20
592.15	2979.50
592.31	3281.43
592.46	3485.06
592.62	3775.28
592.78	3981.25
592.94	4147.43
593.10	3941.46
593.26	3798.69
593.41	3588.04
593.57	3021.63
593.73	2850.77
593.89	2530.12
594.05	2263.30
594.20	1881.79
594.36	1860.73
594.52	1809.23
594.68	1741.36
594.84	1685.19
594.99	1680.50
595.15	1556.46
595.31	1516.67
595.47	1528.37
595.62	1551.78
595.78	1575.18
595.94	1488.58
596.10	1423.05
596.25	1516.67
596.41	1605.61
596.57	1540.07
596.73	1507.30
596.88	1511.99
597.04	1476.88
597.20	1533.05
597.36	1547.09
597.51	1645.40
597.67	1671.14
597.83	1832.64
597.99	1816.26
598.14	1968.39
598.30	1998.82
598.46	2043.29
598.61	2216.49
598.77	2279.68
598.93	2452.88
599.09	2450.54
599.24	2499.69
599.40	2499.69
599.56	2406.07
599.71	2333.51
599.87	2136.91
600.03	2069.03
600.18	1863.07
600.34	1867.75
600.50	1671.14
600.65	1507.30
600.81	1626.67
600.97	1486.24
601.12	1277.93
601.28	1273.25
601.44	1240.48
601.59	1165.59
601.75	1207.72
601.91	1107.07
602.06	1125.80
602.22	1093.03
602.37	987.71
602.53	1069.62
602.69	1062.60
602.84	1015.79
603.00	1006.43
603.16	1048.56
603.31	1032.18
603.47	1050.90
603.62	1172.61
603.78	1064.94
603.94	1088.35
604.09	1219.42
604.25	1174.95
604.40	1235.80
604.56	1198.35
604.71	1156.22
604.87	1217.08
605.03	1266.23
605.18	1240.48
605.34	1336.45
605.49	1348.15
605.65	1315.38
605.80	1343.47
605.96	1469.86
606.12	1411.34
606.27	1469.86
