SpectraSuite Data File
++++++++++++++++++++++++++++++++++++
Date: Fri Oct 04 11:42:20 GMT-05:00 2013
User: price-jones
Dark Spectrum Present: No
Reference Spectrum Present: No
Number of Sampled Component Spectra: 1
Spectrometers: USB2+H05261
Integration Time (usec): 100000 (USB2+H05261)
Spectra Averaged: 1 (USB2+H05261)
Boxcar Smoothing: 0 (USB2+H05261)
Correct for Electrical Dark: No (USB2+H05261)
Strobe/Lamp Enabled: No (USB2+H05261)
Correct for Detector Non-linearity: No (USB2+H05261)
Correct for Stray Light: No (USB2+H05261)
Number of Pixels in Processed Spectrum: 2048
>>>>>Begin Processed Spectral Data<<<<<
365.73	35.11
365.92	35.11
366.12	35.11
366.32	0.00
366.52	0.00
366.72	0.00
366.91	0.00
367.11	0.00
367.31	0.00
367.51	0.00
367.70	0.00
367.90	49.15
368.10	0.00
368.30	0.00
368.49	0.00
368.69	0.00
368.89	0.00
369.09	37.45
369.28	0.00
369.48	0.00
369.68	0.00
369.87	49.15
370.07	11.70
370.27	0.00
370.47	88.94
370.66	0.00
370.86	0.00
371.06	60.85
371.25	30.43
371.45	63.19
371.65	49.15
371.84	135.75
372.04	37.45
372.24	145.11
372.44	110.01
372.63	128.73
372.83	175.54
373.03	95.96
373.22	119.37
373.42	98.30
373.62	135.75
373.81	112.35
374.01	180.22
374.21	135.75
374.40	154.48
374.60	173.20
374.79	196.60
374.99	88.94
375.19	114.69
375.38	147.45
375.58	126.39
375.78	126.39
375.97	107.66
376.17	119.37
376.37	117.03
376.56	124.05
376.76	39.79
376.95	81.92
377.15	107.66
377.35	152.13
377.54	110.01
377.74	93.62
377.93	100.64
378.13	133.41
378.33	194.26
378.52	77.24
378.72	177.88
378.91	100.64
379.11	98.30
379.31	112.35
379.50	77.24
379.70	128.73
379.89	86.60
380.09	95.96
380.28	128.73
380.48	37.45
380.68	131.07
380.87	70.22
381.07	42.13
381.26	135.75
381.46	147.45
381.65	189.58
381.85	77.24
382.04	67.88
382.24	131.07
382.43	135.75
382.63	91.28
382.83	119.37
383.02	140.43
383.22	147.45
383.41	95.96
383.61	107.66
383.80	126.39
384.00	175.54
384.19	102.98
384.39	70.22
384.58	112.35
384.78	51.49
384.97	91.28
385.17	135.75
385.36	119.37
385.56	194.26
385.75	105.32
385.95	135.75
386.14	121.71
386.34	117.03
386.53	149.79
386.72	105.32
386.92	124.05
387.11	98.30
387.31	60.85
387.50	79.58
387.70	93.62
387.89	56.17
388.09	88.94
388.28	166.18
388.48	56.17
388.67	77.24
388.86	95.96
389.06	100.64
389.25	166.18
389.45	79.58
389.64	32.77
389.84	138.09
390.03	114.69
390.22	81.92
390.42	98.30
390.61	205.97
390.81	93.62
391.00	163.84
391.19	124.05
391.39	131.07
391.58	154.48
391.78	159.16
391.97	25.75
392.16	72.56
392.36	100.64
392.55	128.73
392.75	49.15
392.94	166.18
393.13	128.73
393.33	117.03
393.52	100.64
393.71	163.84
393.91	70.22
394.10	60.85
394.29	124.05
394.49	126.39
394.68	124.05
394.88	224.69
395.07	205.97
395.26	220.01
395.46	70.22
395.65	93.62
395.84	131.07
396.04	241.08
396.23	119.37
396.42	72.56
396.62	117.03
396.81	107.66
397.00	112.35
397.19	114.69
397.39	110.01
397.58	180.22
397.77	30.43
397.97	117.03
398.16	51.49
398.35	93.62
398.55	102.98
398.74	175.54
398.93	117.03
399.12	145.11
399.32	117.03
399.51	152.13
399.70	152.13
399.90	142.77
400.09	168.52
400.28	145.11
400.47	147.45
400.67	149.79
400.86	133.41
401.05	175.54
401.24	196.60
401.44	205.97
401.63	173.20
401.82	168.52
402.01	121.71
402.21	168.52
402.40	119.37
402.59	86.60
402.78	152.13
402.97	180.22
403.17	201.29
403.36	222.35
403.55	266.82
403.74	592.16
403.93	1598.59
404.13	3576.34
404.32	4365.10
404.51	3426.54
404.70	1994.14
404.89	760.67
405.09	372.15
405.28	234.05
405.47	184.90
405.66	243.42
405.85	138.09
406.05	149.79
406.24	208.31
406.43	159.16
406.62	187.24
406.81	203.63
407.00	355.76
407.20	479.81
407.39	603.86
407.58	540.66
407.77	454.06
407.96	367.46
408.15	184.90
408.34	201.29
408.54	234.05
408.73	149.79
408.92	133.41
409.11	112.35
409.30	168.52
409.49	152.13
409.68	187.24
409.87	126.39
410.07	189.58
410.26	131.07
410.45	140.43
410.64	147.45
410.83	248.10
411.02	159.16
411.21	166.18
411.40	189.58
411.59	227.03
411.78	161.50
411.98	231.71
412.17	191.92
412.36	201.29
412.55	189.58
412.74	201.29
412.93	147.45
413.12	145.11
413.31	166.18
413.50	252.78
413.69	205.97
413.88	166.18
414.07	191.92
414.26	320.65
414.45	128.73
414.64	205.97
414.83	210.65
415.02	290.23
415.22	194.26
415.41	227.03
415.60	217.67
415.79	173.20
415.98	203.63
416.17	175.54
416.36	241.08
416.55	231.71
416.74	208.31
416.93	245.76
417.12	149.79
417.31	194.26
417.50	149.79
417.69	196.60
417.88	180.22
418.07	210.65
418.26	170.86
418.45	220.01
418.64	234.05
418.83	187.24
419.02	262.14
419.21	124.05
419.39	203.63
419.58	220.01
419.77	168.52
419.96	252.78
420.15	189.58
420.34	285.55
420.53	196.60
420.72	315.97
420.91	231.71
421.10	320.65
421.29	187.24
421.48	252.78
421.67	278.52
421.86	224.69
422.05	222.35
422.24	234.05
422.43	205.97
422.61	198.95
422.80	250.44
422.99	215.33
423.18	234.05
423.37	220.01
423.56	229.37
423.75	297.25
423.94	196.60
424.13	227.03
424.32	271.50
424.50	224.69
424.69	208.31
424.88	198.95
425.07	278.52
425.26	215.33
425.45	220.01
425.64	264.48
425.83	212.99
426.01	234.05
426.20	220.01
426.39	217.67
426.58	224.69
426.77	215.33
426.96	292.57
427.15	271.50
427.33	248.10
427.52	313.63
427.71	252.78
427.90	266.82
428.09	257.46
428.28	276.18
428.46	234.05
428.65	315.97
428.84	245.76
429.03	322.99
429.22	257.46
429.40	252.78
429.59	236.39
429.78	283.20
429.97	215.33
430.16	297.25
430.34	325.33
430.53	337.04
430.72	301.93
430.91	308.95
431.10	264.48
431.28	311.29
431.47	346.40
431.66	320.65
431.85	273.84
432.03	252.78
432.22	318.31
432.41	383.85
432.60	322.99
432.79	337.04
432.97	348.74
433.16	367.46
433.35	344.06
433.54	409.59
433.72	526.62
433.91	479.81
434.10	519.60
434.28	617.90
434.47	664.71
434.66	802.80
434.85	1046.22
435.03	2684.59
435.22	9738.97
435.41	19087.07
435.59	17909.78
435.78	11239.25
435.97	5680.48
436.16	2195.42
436.34	891.74
436.53	554.71
436.72	557.05
436.90	477.47
437.09	395.55
437.28	360.44
437.46	313.63
437.65	337.04
437.84	369.80
438.02	390.87
438.21	353.42
438.40	299.59
438.58	355.76
438.77	337.04
438.96	341.72
439.14	355.76
439.33	362.78
439.52	269.16
439.70	332.36
439.89	409.59
440.08	297.25
440.26	301.93
440.45	325.33
440.63	367.46
440.82	327.68
441.01	369.80
441.19	397.89
441.38	360.44
441.57	264.48
441.75	322.99
441.94	348.74
442.12	402.57
442.31	388.53
442.50	334.70
442.68	325.33
442.87	360.44
443.05	362.78
443.24	334.70
443.43	362.78
443.61	369.80
443.80	353.42
443.98	320.65
444.17	327.68
444.35	381.51
444.54	355.76
444.73	348.74
444.91	393.21
445.10	318.31
445.28	315.97
445.47	344.06
445.65	315.97
445.84	262.14
446.02	367.46
446.21	330.02
446.39	306.61
446.58	306.61
446.77	318.31
446.95	271.50
447.14	308.95
447.32	334.70
447.51	308.95
447.69	346.40
447.88	308.95
448.06	334.70
448.25	330.02
448.43	313.63
448.62	318.31
448.80	325.33
448.99	306.61
449.17	337.04
449.36	325.33
449.54	369.80
449.73	294.91
449.91	409.59
450.10	306.61
450.28	353.42
450.46	341.72
450.65	313.63
450.83	294.91
451.02	322.99
451.20	313.63
451.39	348.74
451.57	358.10
451.76	234.05
451.94	397.89
452.13	327.68
452.31	325.33
452.49	351.08
452.68	330.02
452.86	325.33
453.05	395.55
453.23	404.91
453.42	308.95
453.60	322.99
453.78	313.63
453.97	280.86
454.15	339.38
454.34	308.95
454.52	327.68
454.70	358.10
454.89	360.44
455.07	297.25
455.26	383.85
455.44	315.97
455.62	278.52
455.81	379.17
455.99	355.76
456.17	379.17
456.36	346.40
456.54	269.16
456.73	313.63
456.91	257.46
457.09	304.27
457.28	327.68
457.46	283.20
457.64	283.20
457.83	299.59
458.01	330.02
458.19	318.31
458.38	367.46
458.56	423.64
458.74	287.89
458.93	299.59
459.11	341.72
459.29	327.68
459.48	334.70
459.66	482.15
459.84	360.44
460.03	425.98
460.21	404.91
460.39	327.68
460.57	348.74
460.76	440.02
460.94	332.36
461.12	407.25
461.31	290.23
461.49	334.70
461.67	306.61
461.85	245.76
462.04	341.72
462.22	491.51
462.40	320.65
462.59	365.12
462.77	320.65
462.95	301.93
463.13	320.65
463.32	395.55
463.50	390.87
463.68	346.40
463.86	353.42
464.05	313.63
464.23	327.68
464.41	339.38
464.59	315.97
464.78	348.74
464.96	301.93
465.14	322.99
465.32	320.65
465.50	353.42
465.69	315.97
465.87	313.63
466.05	353.42
466.23	250.44
466.41	346.40
466.60	266.82
466.78	318.31
466.96	353.42
467.14	355.76
467.32	320.65
467.51	304.27
467.69	325.33
467.87	313.63
468.05	372.15
468.23	313.63
468.41	322.99
468.60	348.74
468.78	276.18
468.96	236.39
469.14	306.61
469.32	301.93
469.50	287.89
469.69	318.31
469.87	306.61
470.05	276.18
470.23	313.63
470.41	290.23
470.59	276.18
470.77	344.06
470.95	351.08
471.14	327.68
471.32	362.78
471.50	379.17
471.68	365.12
471.86	322.99
472.04	355.76
472.22	283.20
472.40	269.16
472.58	287.89
472.77	320.65
472.95	322.99
473.13	388.53
473.31	362.78
473.49	353.42
473.67	262.14
473.85	330.02
474.03	339.38
474.21	322.99
474.39	278.52
474.57	358.10
474.75	301.93
474.93	320.65
475.12	222.35
475.30	383.85
475.48	297.25
475.66	250.44
475.84	292.57
476.02	320.65
476.20	348.74
476.38	346.40
476.56	376.83
476.74	234.05
476.92	287.89
477.10	351.08
477.28	327.68
477.46	308.95
477.64	404.91
477.82	301.93
478.00	280.86
478.18	327.68
478.36	400.23
478.54	360.44
478.72	383.85
478.90	360.44
479.08	489.17
479.26	435.34
479.44	365.12
479.62	393.21
479.80	421.30
479.98	409.59
480.16	395.55
480.34	454.06
480.52	489.17
480.70	435.34
480.88	535.98
481.06	437.68
481.24	533.64
481.41	528.96
481.59	596.84
481.77	662.37
481.95	594.50
482.13	624.92
482.31	713.86
482.49	767.70
482.67	779.40
482.85	884.72
483.03	889.40
483.21	961.96
483.39	875.36
483.57	983.02
483.74	1041.54
483.92	1125.80
484.10	1240.48
484.28	1310.70
484.46	1329.42
484.64	1371.55
484.82	1406.66
485.00	1483.90
485.18	1537.73
485.35	1743.70
485.53	1708.59
485.71	1764.76
485.89	1820.94
486.07	2003.50
486.25	1977.75
486.43	1865.41
486.61	1926.26
486.78	1968.39
486.96	1907.54
487.14	1968.39
487.32	2003.50
487.50	1923.92
487.68	1944.99
487.85	1834.98
488.03	1877.11
488.21	1933.28
488.39	1771.79
488.57	1699.23
488.75	1727.32
488.92	1928.60
489.10	1624.33
489.28	1533.05
489.46	1575.18
489.64	1455.81
489.81	1432.41
489.99	1584.54
490.17	1486.24
490.35	1596.25
490.53	1521.35
490.70	1547.09
490.88	1495.60
491.06	1586.88
491.24	1785.83
491.41	1659.44
491.59	1605.61
491.77	1549.43
491.95	1448.79
492.13	1423.05
492.30	1385.60
492.48	1397.30
492.66	1373.89
492.84	1291.98
493.01	1301.34
493.19	1252.19
493.37	1259.21
493.54	1226.44
493.72	1186.65
493.90	1315.38
494.08	1242.82
494.25	1219.42
494.43	1203.04
494.61	1111.75
494.79	1083.67
494.96	1137.50
495.14	1177.29
495.32	1149.20
495.49	1104.73
495.67	1158.57
495.85	1041.54
496.02	1107.07
496.20	1004.09
496.38	1095.37
496.55	964.30
496.73	917.49
496.91	866.00
497.09	910.47
497.26	1020.47
497.44	875.36
497.62	978.34
497.79	877.70
497.97	915.15
498.14	877.70
498.32	840.25
498.50	821.53
498.67	835.57
498.85	905.79
499.03	830.89
499.20	755.99
499.38	755.99
499.56	760.67
499.73	840.25
499.91	755.99
500.08	711.52
500.26	690.46
500.44	674.07
500.61	716.20
500.79	603.86
500.97	744.29
501.14	571.09
501.32	624.92
501.49	615.56
501.67	535.98
501.84	568.75
502.02	528.96
502.20	596.84
502.37	580.45
502.55	543.00
502.72	557.05
502.90	552.37
503.07	535.98
503.25	559.39
503.43	477.47
503.60	449.38
503.78	454.06
503.95	498.53
504.13	400.23
504.30	454.06
504.48	463.43
504.65	543.00
504.83	383.85
505.01	390.87
505.18	409.59
505.36	411.93
505.53	346.40
505.71	425.98
505.88	414.27
506.06	348.74
506.23	404.91
506.41	463.43
506.58	463.43
506.76	409.59
506.93	435.34
507.11	418.96
507.28	395.55
507.46	348.74
507.63	388.53
507.81	360.44
507.98	388.53
508.16	372.15
508.33	379.17
508.50	397.89
508.68	397.89
508.85	414.27
509.03	390.87
509.20	374.49
509.38	376.83
509.55	334.70
509.73	411.93
509.90	383.85
510.08	355.76
510.25	447.04
510.42	313.63
510.60	353.42
510.77	334.70
510.95	332.36
511.12	393.21
511.30	304.27
511.47	369.80
511.64	449.38
511.82	299.59
511.99	285.55
512.17	407.25
512.34	337.04
512.51	409.59
512.69	362.78
512.86	395.55
513.04	430.66
513.21	416.62
513.38	390.87
513.56	372.15
513.73	348.74
513.90	308.95
514.08	393.21
514.25	297.25
514.43	269.16
514.60	318.31
514.77	294.91
514.95	313.63
515.12	313.63
515.29	257.46
515.47	304.27
515.64	351.08
515.81	353.42
515.99	299.59
516.16	278.52
516.33	379.17
516.51	273.84
516.68	266.82
516.85	215.33
517.03	346.40
517.20	311.29
517.37	332.36
517.54	306.61
517.72	332.36
517.89	250.44
518.06	273.84
518.24	283.20
518.41	369.80
518.58	414.27
518.75	365.12
518.93	287.89
519.10	297.25
519.27	304.27
519.45	376.83
519.62	313.63
519.79	285.55
519.96	332.36
520.14	367.46
520.31	318.31
520.48	264.48
520.65	339.38
520.83	325.33
521.00	308.95
521.17	362.78
521.34	308.95
521.52	311.29
521.69	313.63
521.86	355.76
522.03	351.08
522.20	372.15
522.38	400.23
522.55	355.76
522.72	337.04
522.89	259.80
523.07	304.27
523.24	332.36
523.41	348.74
523.58	376.83
523.75	306.61
523.92	346.40
524.10	320.65
524.27	348.74
524.44	339.38
524.61	390.87
524.78	334.70
524.96	390.87
525.13	372.15
525.30	360.44
525.47	339.38
525.64	381.51
525.81	351.08
525.98	376.83
526.16	294.91
526.33	358.10
526.50	224.69
526.67	346.40
526.84	308.95
527.01	362.78
527.18	421.30
527.36	458.74
527.53	315.97
527.70	447.04
527.87	290.23
528.04	407.25
528.21	414.27
528.38	383.85
528.55	463.43
528.72	428.32
528.89	372.15
529.07	369.80
529.24	433.00
529.41	456.40
529.58	332.36
529.75	383.85
529.92	393.21
530.09	428.32
530.26	421.30
530.43	458.74
530.60	414.27
530.77	435.34
530.94	395.55
531.11	493.85
531.28	433.00
531.46	416.62
531.63	472.79
531.80	484.49
531.97	517.26
532.14	617.90
532.31	620.24
532.48	851.96
532.65	884.72
532.82	821.53
532.99	1132.82
533.16	1116.44
533.33	1188.99
533.50	1118.78
533.67	1004.09
533.84	910.47
534.01	800.46
534.18	774.72
534.35	774.72
534.52	746.63
534.69	826.21
534.86	833.23
535.03	830.89
535.20	894.08
535.37	866.00
535.54	917.49
535.71	1053.24
535.88	1027.50
536.05	1100.05
536.22	1158.57
536.38	1327.08
536.55	1355.17
536.72	1563.48
536.89	1647.74
537.06	1762.42
537.23	2029.24
537.40	2214.15
537.57	2427.14
537.74	2408.41
537.91	2572.25
538.08	2469.27
538.25	2593.31
538.42	2745.45
538.59	2696.30
538.75	2775.88
538.92	2995.89
539.09	3225.26
539.26	3550.59
539.43	3899.33
539.60	4496.17
539.77	5083.64
539.94	5458.13
540.11	6134.54
540.28	6619.04
540.44	7206.51
540.61	8133.36
540.78	9509.60
540.95	11435.86
541.12	13212.32
541.29	14822.61
541.46	15187.74
541.62	15417.11
541.79	14707.93
541.96	13312.97
542.13	12521.87
542.30	11602.04
542.47	11037.97
542.63	10597.95
542.80	10317.08
542.97	10136.86
543.14	10136.86
543.31	10153.24
543.48	10136.86
543.64	10408.36
543.81	10480.92
543.98	10511.35
544.15	10389.64
544.32	10668.16
544.48	10466.88
544.65	10246.87
544.82	10406.02
544.99	10101.75
545.16	10448.15
545.32	11286.06
545.49	20910.35
545.66	36723.01
545.83	41914.31
546.00	34717.17
546.16	24278.38
546.33	17820.84
546.50	13303.60
546.67	10513.69
546.83	9455.76
547.00	8779.35
547.17	8334.65
547.34	8098.25
547.50	7817.39
547.67	7494.40
547.84	7290.77
548.00	7129.27
548.17	6775.85
548.34	6483.28
548.51	6289.02
548.67	6043.26
548.84	5696.86
549.01	5469.83
549.18	5104.71
549.34	5053.22
549.51	4767.67
549.68	4760.65
549.84	4496.17
550.01	4376.80
550.18	4215.30
550.34	3922.74
550.51	3770.60
550.68	3716.77
550.84	3424.20
551.01	3208.87
551.18	2956.10
551.34	2988.86
551.51	2820.35
551.68	2595.65
551.84	2773.53
552.01	2600.34
552.18	2415.43
552.34	2324.15
552.51	2244.57
552.68	2225.85
552.84	2141.59
553.01	1984.77
553.18	1987.11
553.34	1994.14
553.51	1877.11
553.67	1795.19
553.84	1778.81
554.01	1558.80
554.17	1549.43
554.34	1430.07
554.51	1331.76
554.67	1296.66
554.84	1217.08
555.00	1224.10
555.17	1160.91
555.33	1130.48
555.50	1090.69
555.67	964.30
555.83	910.47
556.00	964.30
556.16	1032.18
556.33	882.38
556.50	952.60
556.66	758.33
556.83	821.53
556.99	788.76
557.16	781.74
557.32	746.63
557.49	660.03
557.65	725.57
557.82	748.97
557.98	772.38
558.15	631.94
558.32	580.45
558.48	631.94
558.65	657.69
558.81	650.67
558.98	624.92
559.14	540.66
559.31	617.90
559.47	538.32
559.64	608.54
559.80	622.58
559.97	559.39
560.13	491.51
560.30	489.17
560.46	608.54
560.63	512.58
560.79	524.28
560.96	613.22
561.12	496.19
561.29	622.58
561.45	531.30
561.61	547.69
561.78	592.16
561.94	489.17
562.11	493.85
562.27	550.03
562.44	498.53
562.60	524.28
562.77	578.11
562.93	578.11
563.10	557.05
563.26	472.79
563.42	552.37
563.59	566.41
563.75	484.49
563.92	496.19
564.08	498.53
564.24	484.49
564.41	528.96
564.57	418.96
564.74	500.87
564.90	507.90
565.07	517.26
565.23	498.53
565.39	430.66
565.56	477.47
565.72	411.93
565.88	425.98
566.05	388.53
566.21	444.70
566.38	477.47
566.54	503.22
566.70	444.70
566.87	437.68
567.03	484.49
567.19	435.34
567.36	524.28
567.52	437.68
567.68	381.51
567.85	437.68
568.01	470.45
568.17	425.98
568.34	486.83
568.50	489.17
568.66	461.09
568.83	465.77
568.99	442.36
569.15	547.69
569.32	418.96
569.48	496.19
569.64	400.23
569.81	362.78
569.97	454.06
570.13	442.36
570.30	360.44
570.46	353.42
570.62	372.15
570.78	397.89
570.95	320.65
571.11	358.10
571.27	484.49
571.43	262.14
571.60	372.15
571.76	358.10
571.92	355.76
572.09	367.46
572.25	395.55
572.41	271.50
572.57	386.19
572.74	393.21
572.90	397.89
573.06	393.21
573.22	355.76
573.38	362.78
573.55	393.21
573.71	327.68
573.87	435.34
574.03	381.51
574.20	376.83
574.36	437.68
574.52	465.77
574.68	472.79
574.84	449.38
575.01	510.24
575.17	454.06
575.33	428.32
575.49	500.87
575.65	603.86
575.82	543.00
575.98	688.12
576.14	599.18
576.30	1444.11
576.46	4573.41
576.62	6794.58
576.79	7187.79
576.95	5097.69
577.11	3199.51
577.27	2335.85
577.43	1652.42
577.59	1158.57
577.75	987.71
577.92	887.06
578.08	866.00
578.24	851.96
578.40	1561.14
578.56	4505.53
578.72	6509.03
578.88	6562.86
579.04	4896.40
579.21	3356.33
579.37	2562.89
579.53	1998.82
579.69	2190.74
579.85	2548.84
580.01	2750.13
580.17	2450.54
580.33	2363.94
580.49	1933.28
580.65	1715.61
580.82	1579.86
580.98	1500.28
581.14	1633.69
581.30	1729.66
581.46	1970.73
581.62	2043.29
581.78	2139.25
581.94	2221.17
582.10	2314.79
582.26	2504.37
582.42	2593.31
582.58	2609.70
582.74	2782.90
582.90	2759.49
583.06	2733.75
583.22	2686.94
583.38	2801.62
583.54	2745.45
583.70	2693.96
583.86	2675.23
584.02	2609.70
584.18	2551.18
584.34	2583.95
584.50	2417.77
584.66	2352.24
584.82	2314.79
584.98	2380.32
585.14	2328.83
585.30	2228.19
585.46	2253.94
585.62	2331.17
585.78	2221.17
585.94	2303.09
586.10	2392.03
586.26	2551.18
586.42	2815.66
586.58	3377.39
586.74	4095.94
586.90	4784.06
587.06	5116.41
587.22	5074.28
587.38	4475.10
587.54	3744.86
587.70	3215.90
587.86	2829.71
588.02	2314.79
588.18	2162.66
588.34	2026.90
588.49	1900.52
588.65	1746.04
588.81	1650.08
588.97	1650.08
589.13	1589.22
589.29	1607.95
589.45	1575.18
589.61	1570.50
589.77	1577.52
589.93	1558.80
590.08	1680.50
590.24	1507.30
590.40	1647.74
590.56	1776.47
590.72	1823.28
590.88	1727.32
591.04	1823.28
591.20	2022.22
591.35	1994.14
591.51	2045.63
591.67	2265.64
591.83	2340.54
591.99	2441.18
592.15	2626.08
592.31	2977.16
592.46	3213.56
592.62	3604.42
592.78	3555.27
592.94	3684.00
593.10	3503.78
593.26	3344.63
593.41	3222.92
593.57	3026.31
593.73	2565.23
593.89	2319.47
594.05	2026.90
594.20	1863.07
594.36	1776.47
594.52	1631.35
594.68	1481.56
594.84	1493.26
594.99	1406.66
595.15	1474.54
595.31	1406.66
595.47	1418.36
595.62	1416.02
595.78	1362.19
595.94	1404.32
596.10	1460.49
596.25	1406.66
596.41	1313.04
596.57	1390.28
596.73	1392.62
596.88	1383.26
597.04	1350.49
597.20	1343.47
597.36	1540.07
597.51	1556.46
597.67	1556.46
597.83	1504.96
597.99	1710.93
598.14	1750.72
598.30	1900.52
598.46	1909.88
598.61	2108.82
598.77	2050.31
598.93	2207.13
599.09	2223.51
599.24	2167.34
599.40	2167.34
599.56	2207.13
599.71	2008.18
599.87	1937.96
600.03	1834.98
600.18	1736.68
600.34	1706.25
600.50	1598.59
600.65	1409.00
600.81	1397.30
600.97	1371.55
601.12	1277.93
601.28	1193.67
601.44	1144.52
601.59	1135.16
601.75	1149.20
601.91	1046.22
602.06	1086.01
602.22	1118.78
602.37	945.58
602.53	973.66
602.69	943.24
602.84	917.49
603.00	933.87
603.16	985.37
603.31	1034.52
603.47	994.73
603.62	1027.50
603.78	1062.60
603.94	1109.41
604.09	1067.28
604.25	1081.33
604.40	1107.07
604.56	1170.27
604.71	1060.26
604.87	1151.54
605.03	1128.14
605.18	1097.71
605.34	1156.22
605.49	1224.10
605.65	1245.16
605.80	1233.46
605.96	1357.51
606.12	1378.58
606.27	1385.60
606.43	1385.60
