SpectraSuite Data File
++++++++++++++++++++++++++++++++++++
Date: Fri Oct 04 11:41:57 GMT-05:00 2013
User: price-jones
Dark Spectrum Present: No
Reference Spectrum Present: No
Number of Sampled Component Spectra: 1
Spectrometers: USB2+H05261
Integration Time (usec): 100000 (USB2+H05261)
Spectra Averaged: 1 (USB2+H05261)
Boxcar Smoothing: 0 (USB2+H05261)
Correct for Electrical Dark: No (USB2+H05261)
Strobe/Lamp Enabled: No (USB2+H05261)
Correct for Detector Non-linearity: No (USB2+H05261)
Correct for Stray Light: No (USB2+H05261)
Number of Pixels in Processed Spectrum: 2048
>>>>>Begin Processed Spectral Data<<<<<
365.73	14.04
365.92	14.04
366.12	14.04
366.32	0.00
366.52	0.00
366.72	35.11
366.91	0.00
367.11	0.00
367.31	0.00
367.51	0.00
367.70	0.00
367.90	0.00
368.10	0.00
368.30	0.00
368.49	0.00
368.69	7.02
368.89	0.00
369.09	0.00
369.28	0.00
369.48	28.09
369.68	0.00
369.87	0.00
370.07	0.00
370.27	121.71
370.47	81.92
370.66	72.56
370.86	60.85
371.06	95.96
371.25	117.03
371.45	72.56
371.65	58.51
371.84	58.51
372.04	49.15
372.24	112.35
372.44	53.83
372.63	74.90
372.83	119.37
373.03	105.32
373.22	105.32
373.42	42.13
373.62	67.88
373.81	105.32
374.01	88.94
374.21	65.54
374.40	124.05
374.60	159.16
374.79	128.73
374.99	91.28
375.19	119.37
375.38	114.69
375.58	102.98
375.78	117.03
375.97	112.35
376.17	212.99
376.37	112.35
376.56	79.58
376.76	98.30
376.95	140.43
377.15	124.05
377.35	152.13
377.54	95.96
377.74	46.81
377.93	147.45
378.13	88.94
378.33	135.75
378.52	110.01
378.72	124.05
378.91	175.54
379.11	124.05
379.31	110.01
379.50	77.24
379.70	70.22
379.89	105.32
380.09	88.94
380.28	67.88
380.48	142.77
380.68	152.13
380.87	77.24
381.07	98.30
381.26	140.43
381.46	51.49
381.65	138.09
381.85	77.24
382.04	117.03
382.24	147.45
382.43	91.28
382.63	58.51
382.83	121.71
383.02	128.73
383.22	121.71
383.41	72.56
383.61	142.77
383.80	88.94
384.00	140.43
384.19	74.90
384.39	159.16
384.58	100.64
384.78	140.43
384.97	196.60
385.17	100.64
385.36	166.18
385.56	105.32
385.75	74.90
385.95	81.92
386.14	100.64
386.34	117.03
386.53	70.22
386.72	98.30
386.92	131.07
387.11	98.30
387.31	154.48
387.50	67.88
387.70	105.32
387.89	135.75
388.09	133.41
388.28	81.92
388.48	72.56
388.67	105.32
388.86	105.32
389.06	77.24
389.25	203.63
389.45	105.32
389.64	102.98
389.84	126.39
390.03	65.54
390.22	70.22
390.42	53.83
390.61	88.94
390.81	107.66
391.00	154.48
391.19	112.35
391.39	46.81
391.58	93.62
391.78	67.88
391.97	107.66
392.16	91.28
392.36	138.09
392.55	210.65
392.75	154.48
392.94	91.28
393.13	182.56
393.33	84.26
393.52	63.19
393.71	154.48
393.91	86.60
394.10	107.66
394.29	53.83
394.49	98.30
394.68	168.52
394.88	112.35
395.07	168.52
395.26	159.16
395.46	128.73
395.65	100.64
395.84	35.11
396.04	128.73
396.23	91.28
396.42	88.94
396.62	95.96
396.81	156.82
397.00	102.98
397.19	86.60
397.39	100.64
397.58	147.45
397.77	112.35
397.97	107.66
398.16	72.56
398.35	161.50
398.55	37.45
398.74	86.60
398.93	112.35
399.12	88.94
399.32	142.77
399.51	140.43
399.70	74.90
399.90	119.37
400.09	110.01
400.28	168.52
400.47	72.56
400.67	161.50
400.86	93.62
401.05	224.69
401.24	159.16
401.44	142.77
401.63	110.01
401.82	107.66
402.01	112.35
402.21	74.90
402.40	142.77
402.59	86.60
402.78	187.24
402.97	117.03
403.17	42.13
403.36	107.66
403.55	107.66
403.74	93.62
403.93	212.99
404.13	442.36
404.32	367.46
404.51	306.61
404.70	241.08
404.89	147.45
405.09	135.75
405.28	189.58
405.47	100.64
405.66	133.41
405.85	154.48
406.05	107.66
406.24	86.60
406.43	79.58
406.62	149.79
406.81	170.86
407.00	173.20
407.20	203.63
407.39	152.13
407.58	161.50
407.77	159.16
407.96	234.05
408.15	175.54
408.34	126.39
408.54	145.11
408.73	131.07
408.92	117.03
409.11	152.13
409.30	161.50
409.49	98.30
409.68	140.43
409.87	149.79
410.07	84.26
410.26	126.39
410.45	110.01
410.64	77.24
410.83	51.49
411.02	138.09
411.21	156.82
411.40	74.90
411.59	152.13
411.78	117.03
411.98	86.60
412.17	79.58
412.36	84.26
412.55	63.19
412.74	182.56
412.93	133.41
413.12	114.69
413.31	140.43
413.50	147.45
413.69	131.07
413.88	72.56
414.07	147.45
414.26	140.43
414.45	168.52
414.64	98.30
414.83	166.18
415.02	110.01
415.22	145.11
415.41	170.86
415.60	117.03
415.79	189.58
415.98	198.95
416.17	133.41
416.36	135.75
416.55	149.79
416.74	149.79
416.93	198.95
417.12	133.41
417.31	135.75
417.50	138.09
417.69	110.01
417.88	166.18
418.07	147.45
418.26	133.41
418.45	184.90
418.64	255.12
418.83	138.09
419.02	124.05
419.21	67.88
419.39	119.37
419.58	191.92
419.77	159.16
419.96	138.09
420.15	114.69
420.34	86.60
420.53	93.62
420.72	72.56
420.91	138.09
421.10	140.43
421.29	131.07
421.48	81.92
421.67	234.05
421.86	114.69
422.05	163.84
422.24	180.22
422.43	124.05
422.61	168.52
422.80	135.75
422.99	105.32
423.18	124.05
423.37	140.43
423.56	163.84
423.75	194.26
423.94	95.96
424.13	98.30
424.32	212.99
424.50	124.05
424.69	208.31
424.88	166.18
425.07	121.71
425.26	102.98
425.45	245.76
425.64	168.52
425.83	79.58
426.01	217.67
426.20	173.20
426.39	166.18
426.58	119.37
426.77	105.32
426.96	212.99
427.15	196.60
427.33	159.16
427.52	95.96
427.71	161.50
427.90	126.39
428.09	156.82
428.28	161.50
428.46	60.85
428.65	182.56
428.84	173.20
429.03	128.73
429.22	126.39
429.40	154.48
429.59	166.18
429.78	126.39
429.97	121.71
430.16	166.18
430.34	124.05
430.53	187.24
430.72	140.43
430.91	145.11
431.10	149.79
431.28	100.64
431.47	191.92
431.66	177.88
431.85	161.50
432.03	149.79
432.22	170.86
432.41	105.32
432.60	177.88
432.79	86.60
432.97	187.24
433.16	142.77
433.35	112.35
433.54	227.03
433.72	175.54
433.91	189.58
434.10	236.39
434.28	196.60
434.47	131.07
434.66	154.48
434.85	163.84
435.03	437.68
435.22	926.85
435.41	1385.60
435.59	1409.00
435.78	1053.24
435.97	554.71
436.16	379.17
436.34	220.01
436.53	236.39
436.72	220.01
436.90	168.52
437.09	114.69
437.28	74.90
437.46	170.86
437.65	231.71
437.84	210.65
438.02	147.45
438.21	222.35
438.40	166.18
438.58	196.60
438.77	163.84
438.96	173.20
439.14	198.95
439.33	173.20
439.52	152.13
439.70	159.16
439.89	173.20
440.08	163.84
440.26	198.95
440.45	191.92
440.63	191.92
440.82	177.88
441.01	166.18
441.19	227.03
441.38	163.84
441.57	177.88
441.75	187.24
441.94	177.88
442.12	163.84
442.31	201.29
442.50	133.41
442.68	161.50
442.87	182.56
443.05	98.30
443.24	203.63
443.43	203.63
443.61	161.50
443.80	135.75
443.98	231.71
444.17	189.58
444.35	189.58
444.54	95.96
444.73	177.88
444.91	227.03
445.10	133.41
445.28	149.79
445.47	140.43
445.65	184.90
445.84	196.60
446.02	117.03
446.21	175.54
446.39	156.82
446.58	95.96
446.77	180.22
446.95	173.20
447.14	184.90
447.32	252.78
447.51	163.84
447.69	149.79
447.88	189.58
448.06	217.67
448.25	149.79
448.43	215.33
448.62	173.20
448.80	184.90
448.99	210.65
449.17	138.09
449.36	145.11
449.54	198.95
449.73	194.26
449.91	149.79
450.10	173.20
450.28	259.80
450.46	182.56
450.65	203.63
450.83	191.92
451.02	84.26
451.20	163.84
451.39	191.92
451.57	161.50
451.76	138.09
451.94	243.42
452.13	208.31
452.31	147.45
452.49	205.97
452.68	128.73
452.86	180.22
453.05	194.26
453.23	208.31
453.42	149.79
453.60	161.50
453.78	191.92
453.97	187.24
454.15	152.13
454.34	177.88
454.52	156.82
454.70	156.82
454.89	231.71
455.07	152.13
455.26	182.56
455.44	224.69
455.62	208.31
455.81	145.11
455.99	128.73
456.17	100.64
456.36	131.07
456.54	128.73
456.73	131.07
456.91	229.37
457.09	210.65
457.28	231.71
457.46	224.69
457.64	201.29
457.83	175.54
458.01	189.58
458.19	208.31
458.38	189.58
458.56	161.50
458.74	138.09
458.93	156.82
459.11	198.95
459.29	149.79
459.48	215.33
459.66	215.33
459.84	121.71
460.03	250.44
460.21	135.75
460.39	156.82
460.57	182.56
460.76	210.65
460.94	163.84
461.12	187.24
461.31	212.99
461.49	177.88
461.67	88.94
461.85	180.22
462.04	166.18
462.22	601.52
462.40	248.10
462.59	175.54
462.77	198.95
462.95	154.48
463.13	189.58
463.32	124.05
463.50	227.03
463.68	173.20
463.86	168.52
464.05	147.45
464.23	149.79
464.41	124.05
464.59	133.41
464.78	135.75
464.96	175.54
465.14	154.48
465.32	187.24
465.50	180.22
465.69	156.82
465.87	107.66
466.05	117.03
466.23	117.03
466.41	149.79
466.60	250.44
466.78	236.39
466.96	182.56
467.14	208.31
467.32	271.50
467.51	100.64
467.69	63.19
467.87	182.56
468.05	147.45
468.23	180.22
468.41	227.03
468.60	166.18
468.78	182.56
468.96	259.80
469.14	236.39
469.32	133.41
469.50	187.24
469.69	248.10
469.87	215.33
470.05	152.13
470.23	128.73
470.41	194.26
470.59	114.69
470.77	203.63
470.95	133.41
471.14	224.69
471.32	177.88
471.50	170.86
471.68	140.43
471.86	205.97
472.04	198.95
472.22	117.03
472.40	152.13
472.58	184.90
472.77	124.05
472.95	180.22
473.13	236.39
473.31	138.09
473.49	168.52
473.67	203.63
473.85	294.91
474.03	187.24
474.21	114.69
474.39	201.29
474.57	203.63
474.75	112.35
474.93	198.95
475.12	191.92
475.30	194.26
475.48	177.88
475.66	215.33
475.84	234.05
476.02	191.92
476.20	170.86
476.38	177.88
476.56	287.89
476.74	182.56
476.92	196.60
477.10	135.75
477.28	173.20
477.46	217.67
477.64	210.65
477.82	156.82
478.00	189.58
478.18	166.18
478.36	208.31
478.54	154.48
478.72	250.44
478.90	217.67
479.08	191.92
479.26	201.29
479.44	187.24
479.62	222.35
479.80	215.33
479.98	159.16
480.16	191.92
480.34	117.03
480.52	234.05
480.70	208.31
480.88	241.08
481.06	191.92
481.24	236.39
481.41	163.84
481.59	215.33
481.77	241.08
481.95	159.16
482.13	264.48
482.31	266.82
482.49	250.44
482.67	212.99
482.85	205.97
483.03	201.29
483.21	294.91
483.39	224.69
483.57	243.42
483.74	262.14
483.92	311.29
484.10	252.78
484.28	306.61
484.46	315.97
484.64	210.65
484.82	245.76
485.00	276.18
485.18	294.91
485.35	252.78
485.53	198.95
485.71	358.10
485.89	250.44
486.07	365.12
486.25	308.95
486.43	337.04
486.61	358.10
486.78	353.42
486.96	346.40
487.14	313.63
487.32	351.08
487.50	292.57
487.68	344.06
487.85	327.68
488.03	292.57
488.21	330.02
488.39	358.10
488.57	341.72
488.75	294.91
488.92	585.13
489.10	332.36
489.28	353.42
489.46	290.23
489.64	285.55
489.81	346.40
489.99	318.31
490.17	348.74
490.35	362.78
490.53	266.82
490.70	334.70
490.88	397.89
491.06	348.74
491.24	285.55
491.41	334.70
491.59	367.46
491.77	311.29
491.95	294.91
492.13	271.50
492.30	250.44
492.48	285.55
492.66	355.76
492.84	245.76
493.01	374.49
493.19	315.97
493.37	327.68
493.54	257.46
493.72	299.59
493.90	388.53
494.08	332.36
494.25	278.52
494.43	290.23
494.61	241.08
494.79	290.23
494.96	297.25
495.14	262.14
495.32	313.63
495.49	231.71
495.67	339.38
495.85	262.14
496.02	262.14
496.20	287.89
496.38	290.23
496.55	358.10
496.73	332.36
496.91	315.97
497.09	273.84
497.26	290.23
497.44	362.78
497.62	248.10
497.79	348.74
497.97	334.70
498.14	276.18
498.32	280.86
498.50	299.59
498.67	257.46
498.85	299.59
499.03	322.99
499.20	252.78
499.38	231.71
499.56	220.01
499.73	355.76
499.91	276.18
500.08	313.63
500.26	231.71
500.44	241.08
500.61	257.46
500.79	250.44
500.97	285.55
501.14	344.06
501.32	259.80
501.49	231.71
501.67	175.54
501.84	231.71
502.02	236.39
502.20	287.89
502.37	231.71
502.55	241.08
502.72	297.25
502.90	306.61
503.07	238.73
503.25	241.08
503.43	184.90
503.60	280.86
503.78	170.86
503.95	234.05
504.13	203.63
504.30	285.55
504.48	189.58
504.65	299.59
504.83	271.50
505.01	248.10
505.18	262.14
505.36	290.23
505.53	220.01
505.71	271.50
505.88	308.95
506.06	227.03
506.23	187.24
506.41	180.22
506.58	196.60
506.76	229.37
506.93	243.42
507.11	257.46
507.28	201.29
507.46	198.95
507.63	215.33
507.81	241.08
507.98	332.36
508.16	201.29
508.33	280.86
508.50	248.10
508.68	285.55
508.85	292.57
509.03	262.14
509.20	245.76
509.38	215.33
509.55	241.08
509.73	236.39
509.90	290.23
510.08	283.20
510.25	269.16
510.42	322.99
510.60	210.65
510.77	250.44
510.95	250.44
511.12	217.67
511.30	248.10
511.47	248.10
511.64	348.74
511.82	283.20
511.99	264.48
512.17	255.12
512.34	245.76
512.51	248.10
512.69	262.14
512.86	198.95
513.04	203.63
513.21	210.65
513.38	227.03
513.56	229.37
513.73	215.33
513.90	287.89
514.08	198.95
514.25	203.63
514.43	245.76
514.60	112.35
514.77	248.10
514.95	266.82
515.12	257.46
515.29	299.59
515.47	210.65
515.64	262.14
515.81	287.89
515.99	280.86
516.16	283.20
516.33	287.89
516.51	311.29
516.68	187.24
516.85	236.39
517.03	257.46
517.20	266.82
517.37	290.23
517.54	238.73
517.72	311.29
517.89	217.67
518.06	236.39
518.24	278.52
518.41	297.25
518.58	285.55
518.75	227.03
518.93	271.50
519.10	365.12
519.27	299.59
519.45	292.57
519.62	224.69
519.79	276.18
519.96	177.88
520.14	297.25
520.31	327.68
520.48	259.80
520.65	168.52
520.83	297.25
521.00	306.61
521.17	220.01
521.34	308.95
521.52	285.55
521.69	227.03
521.86	201.29
522.03	198.95
522.20	262.14
522.38	255.12
522.55	273.84
522.72	276.18
522.89	301.93
523.07	297.25
523.24	304.27
523.41	205.97
523.58	271.50
523.75	248.10
523.92	203.63
524.10	264.48
524.27	264.48
524.44	290.23
524.61	245.76
524.78	198.95
524.96	264.48
525.13	280.86
525.30	264.48
525.47	327.68
525.64	266.82
525.81	280.86
525.98	276.18
526.16	283.20
526.33	177.88
526.50	238.73
526.67	227.03
526.84	163.84
527.01	227.03
527.18	297.25
527.36	278.52
527.53	313.63
527.70	322.99
527.87	358.10
528.04	243.42
528.21	262.14
528.38	271.50
528.55	318.31
528.72	318.31
528.89	248.10
529.07	287.89
529.24	304.27
529.41	224.69
529.58	245.76
529.75	205.97
529.92	229.37
530.09	262.14
530.26	306.61
530.43	285.55
530.60	259.80
530.77	262.14
530.94	334.70
531.11	306.61
531.28	229.37
531.46	205.97
531.63	236.39
531.80	278.52
531.97	243.42
532.14	285.55
532.31	255.12
532.48	262.14
532.65	330.02
532.82	252.78
532.99	241.08
533.16	313.63
533.33	325.33
533.50	210.65
533.67	285.55
533.84	290.23
534.01	271.50
534.18	325.33
534.35	273.84
534.52	318.31
534.69	318.31
534.86	360.44
535.03	304.27
535.20	292.57
535.37	264.48
535.54	257.46
535.71	297.25
535.88	337.04
536.05	341.72
536.22	320.65
536.38	299.59
536.55	327.68
536.72	376.83
536.89	322.99
537.06	330.02
537.23	409.59
537.40	449.38
537.57	430.66
537.74	404.91
537.91	435.34
538.08	397.89
538.25	449.38
538.42	414.27
538.59	444.70
538.75	442.36
538.92	440.02
539.09	442.36
539.26	484.49
539.43	592.16
539.60	531.30
539.77	585.13
539.94	671.73
540.11	732.59
540.28	727.91
540.44	800.46
540.61	819.19
540.78	898.77
540.95	1027.50
541.12	1214.74
541.29	1210.06
541.46	1385.60
541.62	1399.64
541.79	1355.17
541.96	1329.42
542.13	1306.02
542.30	1203.04
542.47	1242.82
542.63	1245.16
542.80	1177.29
542.97	1123.46
543.14	1196.01
543.31	1181.97
543.48	1193.67
543.64	1097.71
543.81	1240.48
543.98	1186.65
544.15	1172.61
544.32	1177.29
544.48	1144.52
544.65	1153.88
544.82	1097.71
544.99	1057.92
545.16	1095.37
545.32	1095.37
545.49	1809.23
545.66	2775.88
545.83	3038.02
546.00	2722.04
546.16	1959.03
546.33	1502.62
546.50	1254.53
546.67	1011.11
546.83	917.49
547.00	873.02
547.17	828.55
547.34	798.12
547.50	723.23
547.67	777.06
547.84	755.99
548.00	758.33
548.17	732.59
548.34	688.12
548.51	741.95
548.67	645.99
548.84	634.29
549.01	772.38
549.18	681.10
549.34	641.31
549.51	606.20
549.68	617.90
549.84	575.77
550.01	606.20
550.18	645.99
550.34	582.79
550.51	475.13
550.68	470.45
550.84	573.43
551.01	517.26
551.18	430.66
551.34	477.47
551.51	510.24
551.68	566.41
551.84	430.66
552.01	404.91
552.18	388.53
552.34	477.47
552.51	435.34
552.68	491.51
552.84	416.62
553.01	393.21
553.18	386.19
553.34	353.42
553.51	376.83
553.67	358.10
553.84	475.13
554.01	332.36
554.17	341.72
554.34	332.36
554.51	369.80
554.67	386.19
554.84	369.80
555.00	325.33
555.17	369.80
555.33	297.25
555.50	292.57
555.67	283.20
555.83	266.82
556.00	337.04
556.16	428.32
556.33	299.59
556.50	301.93
556.66	315.97
556.83	315.97
556.99	299.59
557.16	280.86
557.32	198.95
557.49	320.65
557.65	238.73
557.82	173.20
557.98	283.20
558.15	276.18
558.32	285.55
558.48	262.14
558.65	248.10
558.81	273.84
558.98	248.10
559.14	367.46
559.31	306.61
559.47	220.01
559.64	283.20
559.80	220.01
559.97	212.99
560.13	313.63
560.30	250.44
560.46	278.52
560.63	308.95
560.79	297.25
560.96	210.65
561.12	292.57
561.29	259.80
561.45	280.86
561.61	322.99
561.78	369.80
561.94	250.44
562.11	257.46
562.27	297.25
562.44	243.42
562.60	262.14
562.77	222.35
562.93	325.33
563.10	297.25
563.26	320.65
563.42	287.89
563.59	238.73
563.75	285.55
563.92	283.20
564.08	273.84
564.24	266.82
564.41	248.10
564.57	210.65
564.74	327.68
564.90	229.37
565.07	322.99
565.23	241.08
565.39	212.99
565.56	229.37
565.72	269.16
565.88	318.31
566.05	238.73
566.21	250.44
566.38	304.27
566.54	182.56
566.70	276.18
566.87	248.10
567.03	177.88
567.19	271.50
567.36	245.76
567.52	236.39
567.68	255.12
567.85	290.23
568.01	243.42
568.17	234.05
568.34	287.89
568.50	287.89
568.66	257.46
568.83	330.02
568.99	222.35
569.15	271.50
569.32	177.88
569.48	194.26
569.64	264.48
569.81	191.92
569.97	222.35
570.13	262.14
570.30	257.46
570.46	315.97
570.62	227.03
570.78	276.18
570.95	280.86
571.11	325.33
571.27	337.04
571.43	283.20
571.60	241.08
571.76	231.71
571.92	163.84
572.09	241.08
572.25	257.46
572.41	238.73
572.57	203.63
572.74	280.86
572.90	271.50
573.06	229.37
573.22	205.97
573.38	201.29
573.55	273.84
573.71	264.48
573.87	292.57
574.03	271.50
574.20	187.24
574.36	257.46
574.52	145.11
574.68	222.35
574.84	201.29
575.01	315.97
575.17	229.37
575.33	231.71
575.49	301.93
575.65	306.61
575.82	266.82
575.98	322.99
576.14	194.26
576.30	341.72
576.46	566.41
576.62	723.23
576.79	816.85
576.95	582.79
577.11	482.15
577.27	308.95
577.43	334.70
577.59	374.49
577.75	301.93
577.92	315.97
578.08	245.76
578.24	306.61
578.40	334.70
578.56	491.51
578.72	774.72
578.88	741.95
579.04	559.39
579.21	519.60
579.37	435.34
579.53	346.40
579.69	468.11
579.85	416.62
580.01	435.34
580.17	435.34
580.33	390.87
580.49	425.98
580.65	358.10
580.82	365.12
580.98	362.78
581.14	353.42
581.30	379.17
581.46	346.40
581.62	414.27
581.78	381.51
581.94	416.62
582.10	454.06
582.26	381.51
582.42	435.34
582.58	411.93
582.74	409.59
582.90	465.77
583.06	521.94
583.22	482.15
583.38	440.02
583.54	449.38
583.70	393.21
583.86	517.26
584.02	423.64
584.18	491.51
584.34	360.44
584.50	475.13
584.66	346.40
584.82	358.10
584.98	355.76
585.14	386.19
585.30	500.87
585.46	390.87
585.62	332.36
585.78	440.02
585.94	400.23
586.10	351.08
586.26	397.89
586.42	414.27
586.58	465.77
586.74	528.96
586.90	589.82
587.06	667.05
587.22	587.47
587.38	603.86
587.54	575.77
587.70	484.49
587.86	472.79
588.02	334.70
588.18	407.25
588.34	245.76
588.49	299.59
588.65	278.52
588.81	322.99
588.97	297.25
589.13	334.70
589.29	301.93
589.45	297.25
589.61	287.89
589.77	348.74
589.93	283.20
590.08	311.29
590.24	386.19
590.40	393.21
590.56	388.53
590.72	355.76
590.88	245.76
591.04	280.86
591.20	358.10
591.35	304.27
591.51	341.72
591.67	322.99
591.83	383.85
591.99	402.57
592.15	379.17
592.31	435.34
592.46	428.32
592.62	456.40
592.78	498.53
592.94	503.22
593.10	468.11
593.26	491.51
593.41	526.62
593.57	444.70
593.73	369.80
593.89	397.89
594.05	313.63
594.20	337.04
594.36	297.25
594.52	215.33
594.68	304.27
594.84	315.97
594.99	383.85
595.15	304.27
595.31	276.18
595.47	320.65
595.62	306.61
595.78	271.50
595.94	322.99
596.10	292.57
596.25	311.29
596.41	266.82
596.57	297.25
596.73	297.25
596.88	283.20
597.04	304.27
597.20	290.23
597.36	325.33
597.51	306.61
597.67	348.74
597.83	243.42
597.99	292.57
598.14	327.68
598.30	353.42
598.46	341.72
598.61	404.91
598.77	325.33
598.93	369.80
599.09	421.30
599.24	433.00
599.40	428.32
599.56	339.38
599.71	245.76
599.87	337.04
600.03	346.40
600.18	311.29
600.34	327.68
600.50	269.16
600.65	262.14
600.81	339.38
600.97	292.57
601.12	280.86
601.28	367.46
601.44	301.93
601.59	325.33
601.75	262.14
601.91	255.12
602.06	320.65
602.22	330.02
602.37	341.72
602.53	245.76
602.69	297.25
602.84	269.16
603.00	222.35
603.16	372.15
603.31	285.55
603.47	313.63
603.62	222.35
603.78	381.51
603.94	318.31
604.09	283.20
604.25	358.10
604.40	290.23
604.56	320.65
604.71	322.99
604.87	208.31
605.03	325.33
605.18	276.18
605.34	234.05
605.49	257.46
605.65	252.78
605.80	290.23
605.96	308.95
606.12	299.59
606.27	334.70
606.43	339.38
606.58	280.86
606.74	318.31
606.89	320.65
607.05	276.18
607.20	344.06
607.36	393.21
607.51	341.72
607.67	276.18
607.82	287.89
607.98	423.64
608.13	397.89
608.29	425.98
608.44	503.22
608.60	404.91
608.75	484.49
608.91	479.81
609.06	507.90
609.22	589.82
609.37	493.85
609.53	573.43
609.68	746.63
609.84	734.93
609.99	851.96
610.15	994.73
610.30	1095.37
610.46	1427.73
610.61	1727.32
610.76	2094.78
610.92	2520.76
611.07	2752.47
611.23	2967.80
