SpectraSuite Data File
++++++++++++++++++++++++++++++++++++
Date: Fri Oct 04 11:42:21 GMT-05:00 2013
User: price-jones
Dark Spectrum Present: No
Reference Spectrum Present: No
Number of Sampled Component Spectra: 1
Spectrometers: USB2+H05261
Integration Time (usec): 100000 (USB2+H05261)
Spectra Averaged: 1 (USB2+H05261)
Boxcar Smoothing: 0 (USB2+H05261)
Correct for Electrical Dark: No (USB2+H05261)
Strobe/Lamp Enabled: No (USB2+H05261)
Correct for Detector Non-linearity: No (USB2+H05261)
Correct for Stray Light: No (USB2+H05261)
Number of Pixels in Processed Spectrum: 2048
>>>>>Begin Processed Spectral Data<<<<<
365.73	32.77
365.92	32.77
366.12	32.77
366.32	0.00
366.52	0.00
366.72	0.00
366.91	0.00
367.11	0.00
367.31	0.00
367.51	0.00
367.70	0.00
367.90	0.00
368.10	0.00
368.30	0.00
368.49	0.00
368.69	0.00
368.89	0.00
369.09	7.02
369.28	0.00
369.48	0.00
369.68	18.72
369.87	16.38
370.07	0.00
370.27	11.70
370.47	98.30
370.66	23.41
370.86	0.00
371.06	56.17
371.25	131.07
371.45	65.54
371.65	67.88
371.84	46.81
372.04	30.43
372.24	0.00
372.44	35.11
372.63	154.48
372.83	114.69
373.03	105.32
373.22	98.30
373.42	77.24
373.62	93.62
373.81	119.37
374.01	156.82
374.21	133.41
374.40	124.05
374.60	95.96
374.79	140.43
374.99	114.69
375.19	126.39
375.38	140.43
375.58	93.62
375.78	182.56
375.97	161.50
376.17	175.54
376.37	119.37
376.56	117.03
376.76	124.05
376.95	131.07
377.15	126.39
377.35	145.11
377.54	177.88
377.74	72.56
377.93	93.62
378.13	135.75
378.33	105.32
378.52	138.09
378.72	107.66
378.91	196.60
379.11	18.72
379.31	51.49
379.50	72.56
379.70	159.16
379.89	93.62
380.09	72.56
380.28	63.19
380.48	63.19
380.68	131.07
380.87	16.38
381.07	131.07
381.26	121.71
381.46	140.43
381.65	107.66
381.85	65.54
382.04	177.88
382.24	117.03
382.43	37.45
382.63	170.86
382.83	44.47
383.02	142.77
383.22	74.90
383.41	112.35
383.61	84.26
383.80	37.45
384.00	131.07
384.19	72.56
384.39	114.69
384.58	98.30
384.78	93.62
384.97	114.69
385.17	222.35
385.36	32.77
385.56	79.58
385.75	119.37
385.95	177.88
386.14	124.05
386.34	163.84
386.53	114.69
386.72	110.01
386.92	86.60
387.11	189.58
387.31	81.92
387.50	112.35
387.70	126.39
387.89	110.01
388.09	135.75
388.28	138.09
388.48	28.09
388.67	98.30
388.86	84.26
389.06	67.88
389.25	119.37
389.45	72.56
389.64	126.39
389.84	170.86
390.03	166.18
390.22	105.32
390.42	105.32
390.61	56.17
390.81	18.72
391.00	189.58
391.19	35.11
391.39	119.37
391.58	93.62
391.78	49.15
391.97	128.73
392.16	91.28
392.36	126.39
392.55	168.52
392.75	128.73
392.94	25.75
393.13	81.92
393.33	32.77
393.52	77.24
393.71	198.95
393.91	156.82
394.10	114.69
394.29	93.62
394.49	84.26
394.68	159.16
394.88	117.03
395.07	135.75
395.26	140.43
395.46	81.92
395.65	149.79
395.84	142.77
396.04	203.63
396.23	107.66
396.42	74.90
396.62	117.03
396.81	98.30
397.00	170.86
397.19	142.77
397.39	102.98
397.58	154.48
397.77	147.45
397.97	74.90
398.16	128.73
398.35	79.58
398.55	107.66
398.74	37.45
398.93	105.32
399.12	124.05
399.32	37.45
399.51	58.51
399.70	110.01
399.90	117.03
400.09	86.60
400.28	163.84
400.47	58.51
400.67	145.11
400.86	98.30
401.05	86.60
401.24	184.90
401.44	98.30
401.63	159.16
401.82	138.09
402.01	18.72
402.21	112.35
402.40	128.73
402.59	65.54
402.78	119.37
402.97	135.75
403.17	60.85
403.36	100.64
403.55	182.56
403.74	119.37
403.93	110.01
404.13	285.55
404.32	170.86
404.51	248.10
404.70	269.16
404.89	142.77
405.09	173.20
405.28	154.48
405.47	4.68
405.66	191.92
405.85	222.35
406.05	124.05
406.24	119.37
406.43	126.39
406.62	124.05
406.81	128.73
407.00	133.41
407.20	159.16
407.39	163.84
407.58	121.71
407.77	105.32
407.96	140.43
408.15	180.22
408.34	203.63
408.54	184.90
408.73	128.73
408.92	100.64
409.11	114.69
409.30	91.28
409.49	93.62
409.68	95.96
409.87	189.58
410.07	88.94
410.26	117.03
410.45	124.05
410.64	140.43
410.83	156.82
411.02	84.26
411.21	138.09
411.40	135.75
411.59	119.37
411.78	105.32
411.98	100.64
412.17	119.37
412.36	88.94
412.55	166.18
412.74	166.18
412.93	142.77
413.12	140.43
413.31	152.13
413.50	166.18
413.69	149.79
413.88	161.50
414.07	37.45
414.26	170.86
414.45	177.88
414.64	152.13
414.83	135.75
415.02	91.28
415.22	220.01
415.41	175.54
415.60	142.77
415.79	161.50
415.98	229.37
416.17	145.11
416.36	142.77
416.55	102.98
416.74	105.32
416.93	177.88
417.12	121.71
417.31	145.11
417.50	121.71
417.69	210.65
417.88	149.79
418.07	128.73
418.26	112.35
418.45	102.98
418.64	147.45
418.83	107.66
419.02	140.43
419.21	84.26
419.39	187.24
419.58	175.54
419.77	142.77
419.96	124.05
420.15	138.09
420.34	119.37
420.53	182.56
420.72	110.01
420.91	53.83
421.10	88.94
421.29	140.43
421.48	131.07
421.67	180.22
421.86	189.58
422.05	159.16
422.24	184.90
422.43	163.84
422.61	133.41
422.80	98.30
422.99	131.07
423.18	77.24
423.37	138.09
423.56	88.94
423.75	191.92
423.94	100.64
424.13	63.19
424.32	81.92
424.50	81.92
424.69	37.45
424.88	196.60
425.07	184.90
425.26	166.18
425.45	205.97
425.64	156.82
425.83	124.05
426.01	133.41
426.20	173.20
426.39	112.35
426.58	91.28
426.77	114.69
426.96	166.18
427.15	203.63
427.33	170.86
427.52	156.82
427.71	175.54
427.90	117.03
428.09	166.18
428.28	177.88
428.46	135.75
428.65	145.11
428.84	112.35
429.03	182.56
429.22	159.16
429.40	203.63
429.59	119.37
429.78	147.45
429.97	102.98
430.16	86.60
430.34	173.20
430.53	114.69
430.72	74.90
430.91	159.16
431.10	102.98
431.28	140.43
431.47	187.24
431.66	201.29
431.85	149.79
432.03	198.95
432.22	177.88
432.41	156.82
432.60	182.56
432.79	110.01
432.97	156.82
433.16	177.88
433.35	184.90
433.54	138.09
433.72	140.43
433.91	177.88
434.10	159.16
434.28	166.18
434.47	107.66
434.66	208.31
434.85	236.39
435.03	348.74
435.22	725.57
435.41	1196.01
435.59	1299.00
435.78	901.11
435.97	547.69
436.16	280.86
436.34	191.92
436.53	180.22
436.72	154.48
436.90	147.45
437.09	191.92
437.28	170.86
437.46	154.48
437.65	149.79
437.84	229.37
438.02	159.16
438.21	159.16
438.40	126.39
438.58	140.43
438.77	168.52
438.96	175.54
439.14	203.63
439.33	175.54
439.52	149.79
439.70	173.20
439.89	212.99
440.08	173.20
440.26	236.39
440.45	238.73
440.63	168.52
440.82	154.48
441.01	152.13
441.19	156.82
441.38	152.13
441.57	93.62
441.75	135.75
441.94	142.77
442.12	236.39
442.31	194.26
442.50	135.75
442.68	161.50
442.87	74.90
443.05	91.28
443.24	135.75
443.43	220.01
443.61	252.78
443.80	161.50
443.98	152.13
444.17	149.79
444.35	166.18
444.54	140.43
444.73	201.29
444.91	175.54
445.10	131.07
445.28	163.84
445.47	168.52
445.65	196.60
445.84	168.52
446.02	114.69
446.21	124.05
446.39	100.64
446.58	145.11
446.77	217.67
446.95	140.43
447.14	145.11
447.32	224.69
447.51	210.65
447.69	166.18
447.88	126.39
448.06	133.41
448.25	273.84
448.43	187.24
448.62	117.03
448.80	189.58
448.99	222.35
449.17	138.09
449.36	180.22
449.54	234.05
449.73	175.54
449.91	210.65
450.10	98.30
450.28	227.03
450.46	215.33
450.65	191.92
450.83	175.54
451.02	252.78
451.20	110.01
451.39	201.29
451.57	117.03
451.76	154.48
451.94	212.99
452.13	180.22
452.31	133.41
452.49	147.45
452.68	88.94
452.86	161.50
453.05	182.56
453.23	191.92
453.42	166.18
453.60	133.41
453.78	95.96
453.97	180.22
454.15	124.05
454.34	140.43
454.52	152.13
454.70	266.82
454.89	145.11
455.07	107.66
455.26	173.20
455.44	241.08
455.62	100.64
455.81	77.24
455.99	140.43
456.17	180.22
456.36	182.56
456.54	149.79
456.73	147.45
456.91	222.35
457.09	191.92
457.28	124.05
457.46	173.20
457.64	208.31
457.83	133.41
458.01	187.24
458.19	203.63
458.38	166.18
458.56	110.01
458.74	173.20
458.93	191.92
459.11	138.09
459.29	147.45
459.48	210.65
459.66	184.90
459.84	166.18
460.03	271.50
460.21	184.90
460.39	154.48
460.57	212.99
460.76	184.90
460.94	166.18
461.12	205.97
461.31	156.82
461.49	168.52
461.67	234.05
461.85	243.42
462.04	175.54
462.22	313.63
462.40	224.69
462.59	252.78
462.77	166.18
462.95	210.65
463.13	182.56
463.32	236.39
463.50	241.08
463.68	184.90
463.86	201.29
464.05	215.33
464.23	159.16
464.41	142.77
464.59	182.56
464.78	168.52
464.96	133.41
465.14	152.13
465.32	107.66
465.50	198.95
465.69	191.92
465.87	161.50
466.05	161.50
466.23	133.41
466.41	126.39
466.60	187.24
466.78	234.05
466.96	177.88
467.14	222.35
467.32	168.52
467.51	173.20
467.69	133.41
467.87	135.75
468.05	212.99
468.23	236.39
468.41	182.56
468.60	124.05
468.78	147.45
468.96	187.24
469.14	184.90
469.32	117.03
469.50	166.18
469.69	196.60
469.87	105.32
470.05	177.88
470.23	198.95
470.41	133.41
470.59	124.05
470.77	269.16
470.95	175.54
471.14	205.97
471.32	95.96
471.50	210.65
471.68	173.20
471.86	301.93
472.04	243.42
472.22	215.33
472.40	201.29
472.58	203.63
472.77	133.41
472.95	156.82
473.13	262.14
473.31	262.14
473.49	201.29
473.67	128.73
473.85	234.05
474.03	212.99
474.21	210.65
474.39	170.86
474.57	217.67
474.75	234.05
474.93	166.18
475.12	255.12
475.30	194.26
475.48	156.82
475.66	145.11
475.84	198.95
476.02	182.56
476.20	196.60
476.38	142.77
476.56	273.84
476.74	161.50
476.92	154.48
477.10	175.54
477.28	163.84
477.46	135.75
477.64	257.46
477.82	205.97
478.00	182.56
478.18	163.84
478.36	168.52
478.54	222.35
478.72	112.35
478.90	131.07
479.08	154.48
479.26	205.97
479.44	140.43
479.62	198.95
479.80	215.33
479.98	121.71
480.16	208.31
480.34	212.99
480.52	180.22
480.70	229.37
480.88	168.52
481.06	189.58
481.24	182.56
481.41	159.16
481.59	238.73
481.77	175.54
481.95	212.99
482.13	222.35
482.31	187.24
482.49	245.76
482.67	262.14
482.85	259.80
483.03	250.44
483.21	231.71
483.39	217.67
483.57	266.82
483.74	318.31
483.92	231.71
484.10	243.42
484.28	252.78
484.46	299.59
484.64	243.42
484.82	320.65
485.00	208.31
485.18	283.20
485.35	285.55
485.53	273.84
485.71	320.65
485.89	196.60
486.07	252.78
486.25	344.06
486.43	353.42
486.61	337.04
486.78	301.93
486.96	231.71
487.14	283.20
487.32	360.44
487.50	409.59
487.68	360.44
487.85	311.29
488.03	311.29
488.21	355.76
488.39	339.38
488.57	374.49
488.75	313.63
488.92	503.22
489.10	285.55
489.28	433.00
489.46	337.04
489.64	327.68
489.81	337.04
489.99	365.12
490.17	313.63
490.35	346.40
490.53	301.93
490.70	299.59
490.88	259.80
491.06	311.29
491.24	290.23
491.41	365.12
491.59	262.14
491.77	224.69
491.95	327.68
492.13	273.84
492.30	257.46
492.48	285.55
492.66	280.86
492.84	248.10
493.01	262.14
493.19	255.12
493.37	318.31
493.54	341.72
493.72	322.99
493.90	245.76
494.08	304.27
494.25	259.80
494.43	334.70
494.61	208.31
494.79	229.37
494.96	308.95
495.14	315.97
495.32	252.78
495.49	262.14
495.67	313.63
495.85	234.05
496.02	339.38
496.20	271.50
496.38	386.19
496.55	238.73
496.73	238.73
496.91	224.69
497.09	252.78
497.26	301.93
497.44	163.84
497.62	248.10
497.79	271.50
497.97	245.76
498.14	360.44
498.32	238.73
498.50	238.73
498.67	325.33
498.85	243.42
499.03	243.42
499.20	266.82
499.38	245.76
499.56	259.80
499.73	234.05
499.91	280.86
500.08	217.67
500.26	238.73
500.44	248.10
500.61	259.80
500.79	255.12
500.97	285.55
501.14	285.55
501.32	257.46
501.49	290.23
501.67	191.92
501.84	184.90
502.02	322.99
502.20	327.68
502.37	215.33
502.55	205.97
502.72	290.23
502.90	208.31
503.07	194.26
503.25	241.08
503.43	180.22
503.60	210.65
503.78	320.65
503.95	292.57
504.13	238.73
504.30	269.16
504.48	301.93
504.65	283.20
504.83	231.71
505.01	252.78
505.18	252.78
505.36	269.16
505.53	255.12
505.71	262.14
505.88	271.50
506.06	224.69
506.23	273.84
506.41	266.82
506.58	290.23
506.76	255.12
506.93	304.27
507.11	208.31
507.28	215.33
507.46	255.12
507.63	182.56
507.81	252.78
507.98	182.56
508.16	229.37
508.33	241.08
508.50	208.31
508.68	262.14
508.85	311.29
509.03	241.08
509.20	182.56
509.38	205.97
509.55	250.44
509.73	243.42
509.90	299.59
510.08	308.95
510.25	320.65
510.42	194.26
510.60	248.10
510.77	257.46
510.95	236.39
511.12	201.29
511.30	285.55
511.47	264.48
511.64	327.68
511.82	196.60
511.99	243.42
512.17	236.39
512.34	245.76
512.51	266.82
512.69	215.33
512.86	262.14
513.04	191.92
513.21	276.18
513.38	248.10
513.56	245.76
513.73	231.71
513.90	173.20
514.08	245.76
514.25	262.14
514.43	210.65
514.60	215.33
514.77	196.60
514.95	201.29
515.12	257.46
515.29	238.73
515.47	203.63
515.64	255.12
515.81	227.03
515.99	259.80
516.16	264.48
516.33	210.65
516.51	187.24
516.68	217.67
516.85	238.73
517.03	259.80
517.20	222.35
517.37	161.50
517.54	252.78
517.72	205.97
517.89	203.63
518.06	156.82
518.24	205.97
518.41	259.80
518.58	177.88
518.75	173.20
518.93	325.33
519.10	271.50
519.27	222.35
519.45	266.82
519.62	252.78
519.79	205.97
519.96	241.08
520.14	248.10
520.31	306.61
520.48	259.80
520.65	262.14
520.83	266.82
521.00	271.50
521.17	252.78
521.34	224.69
521.52	250.44
521.69	269.16
521.86	318.31
522.03	250.44
522.20	285.55
522.38	231.71
522.55	198.95
522.72	215.33
522.89	273.84
523.07	287.89
523.24	208.31
523.41	252.78
523.58	262.14
523.75	287.89
523.92	243.42
524.10	259.80
524.27	173.20
524.44	227.03
524.61	278.52
524.78	189.58
524.96	318.31
525.13	215.33
525.30	208.31
525.47	231.71
525.64	217.67
525.81	241.08
525.98	203.63
526.16	292.57
526.33	212.99
526.50	203.63
526.67	222.35
526.84	201.29
527.01	238.73
527.18	318.31
527.36	222.35
527.53	208.31
527.70	304.27
527.87	231.71
528.04	262.14
528.21	255.12
528.38	311.29
528.55	290.23
528.72	285.55
528.89	318.31
529.07	220.01
529.24	290.23
529.41	381.51
529.58	203.63
529.75	196.60
529.92	210.65
530.09	205.97
530.26	355.76
530.43	278.52
530.60	245.76
530.77	229.37
530.94	294.91
531.11	386.19
531.28	269.16
531.46	250.44
531.63	325.33
531.80	299.59
531.97	245.76
532.14	227.03
532.31	220.01
532.48	241.08
532.65	325.33
532.82	220.01
532.99	311.29
533.16	341.72
533.33	304.27
533.50	292.57
533.67	273.84
533.84	407.25
534.01	315.97
534.18	252.78
534.35	177.88
534.52	278.52
534.69	337.04
534.86	280.86
535.03	327.68
535.20	351.08
535.37	236.39
535.54	266.82
535.71	301.93
535.88	433.00
536.05	327.68
536.22	334.70
536.38	360.44
536.55	332.36
536.72	374.49
536.89	287.89
537.06	355.76
537.23	355.76
537.40	351.08
537.57	334.70
537.74	442.36
537.91	444.70
538.08	397.89
538.25	425.98
538.42	461.09
538.59	372.15
538.75	496.19
538.92	500.87
539.09	475.13
539.26	479.81
539.43	540.66
539.60	634.29
539.77	594.50
539.94	657.69
540.11	645.99
540.28	763.01
540.44	819.19
540.61	854.30
540.78	973.66
540.95	1053.24
541.12	1163.25
541.29	1383.26
541.46	1373.89
541.62	1413.68
541.79	1366.87
541.96	1338.79
542.13	1282.61
542.30	1193.67
542.47	1327.08
542.63	1170.27
542.80	1179.63
542.97	1146.86
543.14	1263.89
543.31	1240.48
543.48	1224.10
543.64	1240.48
543.81	1172.61
543.98	1123.46
544.15	1217.08
544.32	1163.25
544.48	1107.07
544.65	1200.69
544.82	1114.10
544.99	1001.75
545.16	1181.97
545.32	1097.71
545.49	1825.62
545.66	2663.53
545.83	3330.58
546.00	2949.08
546.16	2143.93
546.33	1570.50
546.50	1289.64
546.67	1118.78
546.83	884.72
547.00	866.00
547.17	837.91
547.34	858.98
547.50	837.91
547.67	807.48
547.84	751.31
548.00	784.08
548.17	781.74
548.34	755.99
548.51	720.88
548.67	650.67
548.84	688.12
549.01	678.76
549.18	667.05
549.34	664.71
549.51	643.65
549.68	599.18
549.84	608.54
550.01	613.22
550.18	601.52
550.34	575.77
550.51	433.00
550.68	564.07
550.84	500.87
551.01	496.19
551.18	566.41
551.34	477.47
551.51	447.04
551.68	533.64
551.84	454.06
552.01	376.83
552.18	493.85
552.34	451.72
552.51	404.91
552.68	435.34
552.84	365.12
553.01	393.21
553.18	447.04
553.34	306.61
553.51	360.44
553.67	414.27
553.84	416.62
554.01	400.23
554.17	411.93
554.34	433.00
554.51	362.78
554.67	372.15
554.84	264.48
555.00	301.93
555.17	388.53
555.33	348.74
555.50	280.86
555.67	280.86
555.83	222.35
556.00	358.10
556.16	479.81
556.33	264.48
556.50	313.63
556.66	304.27
556.83	304.27
556.99	278.52
557.16	294.91
557.32	320.65
557.49	276.18
557.65	283.20
557.82	297.25
557.98	231.71
558.15	222.35
558.32	290.23
558.48	234.05
558.65	283.20
558.81	308.95
558.98	266.82
559.14	271.50
559.31	271.50
559.47	290.23
559.64	266.82
559.80	280.86
559.97	318.31
560.13	285.55
560.30	198.95
560.46	201.29
560.63	285.55
560.79	273.84
560.96	262.14
561.12	287.89
561.29	297.25
561.45	236.39
561.61	262.14
561.78	311.29
561.94	241.08
562.11	248.10
562.27	325.33
562.44	210.65
562.60	241.08
562.77	203.63
562.93	344.06
563.10	189.58
563.26	297.25
563.42	280.86
563.59	227.03
563.75	184.90
563.92	278.52
564.08	198.95
564.24	346.40
564.41	313.63
564.57	269.16
564.74	198.95
564.90	250.44
565.07	266.82
565.23	318.31
565.39	187.24
565.56	297.25
565.72	248.10
565.88	231.71
566.05	215.33
566.21	273.84
566.38	301.93
566.54	315.97
566.70	332.36
566.87	229.37
567.03	217.67
567.19	294.91
567.36	236.39
567.52	252.78
567.68	243.42
567.85	322.99
568.01	117.03
568.17	210.65
568.34	156.82
568.50	121.71
568.66	210.65
568.83	266.82
568.99	227.03
569.15	224.69
569.32	194.26
569.48	180.22
569.64	271.50
569.81	205.97
569.97	194.26
570.13	262.14
570.30	259.80
570.46	252.78
570.62	259.80
570.78	266.82
570.95	222.35
571.11	341.72
571.27	269.16
571.43	220.01
571.60	231.71
571.76	252.78
571.92	189.58
572.09	205.97
572.25	306.61
572.41	231.71
572.57	264.48
572.74	187.24
572.90	250.44
573.06	217.67
573.22	222.35
573.38	315.97
573.55	205.97
573.71	252.78
573.87	182.56
574.03	248.10
574.20	177.88
574.36	236.39
574.52	177.88
574.68	287.89
574.84	322.99
575.01	259.80
575.17	217.67
575.33	245.76
575.49	334.70
575.65	196.60
575.82	231.71
575.98	318.31
576.14	234.05
576.30	318.31
576.46	524.28
576.62	713.86
576.79	837.91
576.95	655.35
577.11	437.68
577.27	313.63
577.43	304.27
577.59	341.72
577.75	374.49
577.92	222.35
578.08	205.97
578.24	283.20
578.40	337.04
578.56	543.00
578.72	755.99
578.88	692.80
579.04	624.92
579.21	470.45
579.37	360.44
579.53	400.23
579.69	301.93
579.85	348.74
580.01	477.47
580.17	430.66
580.33	414.27
580.49	367.46
580.65	365.12
580.82	276.18
580.98	304.27
581.14	374.49
581.30	435.34
581.46	402.57
581.62	444.70
581.78	395.55
581.94	414.27
582.10	470.45
582.26	390.87
582.42	374.49
582.58	444.70
582.74	404.91
582.90	451.72
583.06	449.38
583.22	376.83
583.38	496.19
583.54	383.85
583.70	472.79
583.86	449.38
584.02	505.56
584.18	486.83
584.34	442.36
584.50	437.68
584.66	409.59
584.82	416.62
584.98	477.47
585.14	414.27
585.30	367.46
585.46	351.08
585.62	465.77
585.78	360.44
585.94	402.57
586.10	379.17
586.26	355.76
586.42	463.43
586.58	482.15
586.74	463.43
586.90	613.22
587.06	615.56
587.22	620.24
587.38	528.96
587.54	538.32
587.70	594.50
587.86	463.43
588.02	444.70
588.18	437.68
588.34	287.89
588.49	299.59
588.65	285.55
588.81	376.83
588.97	313.63
589.13	362.78
589.29	318.31
589.45	334.70
589.61	184.90
589.77	332.36
589.93	337.04
590.08	395.55
590.24	367.46
590.40	372.15
590.56	339.38
590.72	327.68
590.88	299.59
591.04	383.85
591.20	313.63
591.35	411.93
591.51	351.08
591.67	337.04
591.83	381.51
591.99	395.55
592.15	496.19
592.31	414.27
592.46	503.22
592.62	418.96
592.78	456.40
592.94	496.19
593.10	461.09
593.26	482.15
593.41	496.19
593.57	421.30
593.73	414.27
593.89	369.80
594.05	315.97
594.20	262.14
594.36	360.44
594.52	271.50
594.68	351.08
594.84	292.57
594.99	400.23
595.15	285.55
595.31	425.98
595.47	320.65
595.62	276.18
595.78	250.44
595.94	245.76
596.10	372.15
596.25	290.23
596.41	236.39
596.57	297.25
596.73	313.63
596.88	243.42
597.04	362.78
597.20	290.23
597.36	318.31
597.51	318.31
597.67	330.02
597.83	313.63
597.99	362.78
598.14	311.29
598.30	341.72
598.46	388.53
598.61	395.55
598.77	334.70
598.93	339.38
599.09	365.12
599.24	397.89
599.40	468.11
599.56	355.76
599.71	397.89
599.87	339.38
600.03	292.57
600.18	308.95
600.34	325.33
600.50	271.50
600.65	287.89
600.81	306.61
600.97	306.61
601.12	306.61
601.28	287.89
601.44	264.48
601.59	306.61
601.75	264.48
601.91	259.80
602.06	334.70
602.22	379.17
602.37	257.46
602.53	210.65
602.69	227.03
602.84	201.29
603.00	304.27
603.16	283.20
603.31	313.63
603.47	212.99
603.62	264.48
603.78	299.59
603.94	217.67
604.09	196.60
604.25	355.76
604.40	257.46
604.56	255.12
604.71	287.89
604.87	224.69
605.03	266.82
605.18	313.63
605.34	334.70
605.49	238.73
605.65	313.63
605.80	241.08
605.96	327.68
606.12	308.95
606.27	318.31
606.43	308.95
606.58	250.44
606.74	332.36
606.89	313.63
607.05	395.55
607.20	315.97
607.36	362.78
607.51	334.70
607.67	353.42
607.82	430.66
607.98	381.51
608.13	383.85
608.29	379.17
608.44	458.74
608.60	433.00
608.75	442.36
608.91	552.37
609.06	557.05
609.22	503.22
609.37	514.92
609.53	645.99
609.68	650.67
609.84	873.02
609.99	844.93
610.15	992.39
610.30	1231.12
610.46	1451.13
610.61	1788.17
610.76	2260.96
610.92	2658.85
611.07	3056.74
611.23	3059.08
