SpectraSuite Data File
++++++++++++++++++++++++++++++++++++
Date: Fri Oct 04 11:42:18 GMT-05:00 2013
User: price-jones
Dark Spectrum Present: No
Reference Spectrum Present: No
Number of Sampled Component Spectra: 1
Spectrometers: USB2+H05261
Integration Time (usec): 100000 (USB2+H05261)
Spectra Averaged: 1 (USB2+H05261)
Boxcar Smoothing: 0 (USB2+H05261)
Correct for Electrical Dark: No (USB2+H05261)
Strobe/Lamp Enabled: No (USB2+H05261)
Correct for Detector Non-linearity: No (USB2+H05261)
Correct for Stray Light: No (USB2+H05261)
Number of Pixels in Processed Spectrum: 2048
>>>>>Begin Processed Spectral Data<<<<<
365.73	28.09
365.92	28.09
366.12	28.09
366.32	0.00
366.52	0.00
366.72	0.00
366.91	0.00
367.11	0.00
367.31	0.00
367.51	0.00
367.70	0.00
367.90	0.00
368.10	0.00
368.30	0.00
368.49	0.00
368.69	0.00
368.89	0.00
369.09	0.00
369.28	0.00
369.48	0.00
369.68	0.00
369.87	0.00
370.07	60.85
370.27	9.36
370.47	0.00
370.66	23.41
370.86	98.30
371.06	114.69
371.25	44.47
371.45	65.54
371.65	119.37
371.84	14.04
372.04	23.41
372.24	49.15
372.44	95.96
372.63	81.92
372.83	117.03
373.03	128.73
373.22	70.22
373.42	86.60
373.62	126.39
373.81	79.58
374.01	217.67
374.21	98.30
374.40	79.58
374.60	145.11
374.79	215.33
374.99	117.03
375.19	170.86
375.38	175.54
375.58	119.37
375.78	175.54
375.97	110.01
376.17	159.16
376.37	51.49
376.56	81.92
376.76	140.43
376.95	77.24
377.15	107.66
377.35	166.18
377.54	112.35
377.74	135.75
377.93	159.16
378.13	30.43
378.33	131.07
378.52	145.11
378.72	145.11
378.91	102.98
379.11	88.94
379.31	49.15
379.50	105.32
379.70	84.26
379.89	112.35
380.09	100.64
380.28	37.45
380.48	70.22
380.68	189.58
380.87	100.64
381.07	163.84
381.26	102.98
381.46	163.84
381.65	126.39
381.85	74.90
382.04	124.05
382.24	74.90
382.43	74.90
382.63	81.92
382.83	124.05
383.02	159.16
383.22	191.92
383.41	138.09
383.61	196.60
383.80	156.82
384.00	102.98
384.19	140.43
384.39	138.09
384.58	77.24
384.78	152.13
384.97	126.39
385.17	91.28
385.36	67.88
385.56	124.05
385.75	100.64
385.95	121.71
386.14	107.66
386.34	51.49
386.53	173.20
386.72	112.35
386.92	163.84
387.11	117.03
387.31	70.22
387.50	95.96
387.70	131.07
387.89	30.43
388.09	166.18
388.28	124.05
388.48	46.81
388.67	88.94
388.86	154.48
389.06	163.84
389.25	98.30
389.45	156.82
389.64	191.92
389.84	114.69
390.03	182.56
390.22	112.35
390.42	114.69
390.61	119.37
390.81	100.64
391.00	145.11
391.19	91.28
391.39	63.19
391.58	135.75
391.78	117.03
391.97	110.01
392.16	119.37
392.36	131.07
392.55	140.43
392.75	126.39
392.94	84.26
393.13	95.96
393.33	91.28
393.52	65.54
393.71	180.22
393.91	194.26
394.10	126.39
394.29	133.41
394.49	170.86
394.68	175.54
394.88	114.69
395.07	196.60
395.26	121.71
395.46	161.50
395.65	168.52
395.84	170.86
396.04	180.22
396.23	126.39
396.42	72.56
396.62	63.19
396.81	95.96
397.00	65.54
397.19	149.79
397.39	98.30
397.58	131.07
397.77	142.77
397.97	184.90
398.16	107.66
398.35	255.12
398.55	107.66
398.74	98.30
398.93	161.50
399.12	168.52
399.32	145.11
399.51	102.98
399.70	93.62
399.90	205.97
400.09	191.92
400.28	191.92
400.47	147.45
400.67	166.18
400.86	147.45
401.05	227.03
401.24	161.50
401.44	152.13
401.63	177.88
401.82	231.71
402.01	177.88
402.21	147.45
402.40	187.24
402.59	159.16
402.78	191.92
402.97	201.29
403.17	248.10
403.36	330.02
403.55	339.38
403.74	538.32
403.93	1839.66
404.13	4505.53
404.32	5816.23
404.51	5226.42
404.70	3183.13
404.89	1170.27
405.09	440.02
405.28	245.76
405.47	220.01
405.66	220.01
405.85	227.03
406.05	266.82
406.24	140.43
406.43	212.99
406.62	203.63
406.81	198.95
407.00	292.57
407.20	594.50
407.39	854.30
407.58	896.43
407.77	706.84
407.96	351.08
408.15	238.73
408.34	159.16
408.54	147.45
408.73	166.18
408.92	194.26
409.11	138.09
409.30	238.73
409.49	243.42
409.68	201.29
409.87	208.31
410.07	133.41
410.26	234.05
410.45	138.09
410.64	175.54
410.83	182.56
411.02	180.22
411.21	182.56
411.40	163.84
411.59	168.52
411.78	168.52
411.98	147.45
412.17	173.20
412.36	128.73
412.55	201.29
412.74	290.23
412.93	229.37
413.12	163.84
413.31	198.95
413.50	210.65
413.69	175.54
413.88	227.03
414.07	217.67
414.26	166.18
414.45	208.31
414.64	259.80
414.83	278.52
415.02	290.23
415.22	224.69
415.41	210.65
415.60	252.78
415.79	189.58
415.98	259.80
416.17	241.08
416.36	245.76
416.55	173.20
416.74	184.90
416.93	231.71
417.12	170.86
417.31	215.33
417.50	248.10
417.69	299.59
417.88	208.31
418.07	231.71
418.26	245.76
418.45	257.46
418.64	227.03
418.83	203.63
419.02	280.86
419.21	194.26
419.39	182.56
419.58	149.79
419.77	238.73
419.96	276.18
420.15	262.14
420.34	266.82
420.53	269.16
420.72	259.80
420.91	259.80
421.10	224.69
421.29	215.33
421.48	205.97
421.67	337.04
421.86	149.79
422.05	222.35
422.24	271.50
422.43	266.82
422.61	257.46
422.80	245.76
422.99	259.80
423.18	297.25
423.37	276.18
423.56	217.67
423.75	224.69
423.94	257.46
424.13	264.48
424.32	234.05
424.50	170.86
424.69	308.95
424.88	339.38
425.07	280.86
425.26	276.18
425.45	248.10
425.64	273.84
425.83	180.22
426.01	334.70
426.20	292.57
426.39	266.82
426.58	318.31
426.77	245.76
426.96	313.63
427.15	299.59
427.33	264.48
427.52	252.78
427.71	306.61
427.90	306.61
428.09	269.16
428.28	252.78
428.46	212.99
428.65	292.57
428.84	327.68
429.03	393.21
429.22	294.91
429.40	297.25
429.59	227.03
429.78	379.17
429.97	322.99
430.16	264.48
430.34	360.44
430.53	376.83
430.72	290.23
430.91	320.65
431.10	402.57
431.28	440.02
431.47	369.80
431.66	390.87
431.85	383.85
432.03	297.25
432.22	440.02
432.41	332.36
432.60	379.17
432.79	390.87
432.97	423.64
433.16	409.59
433.35	456.40
433.54	503.22
433.72	543.00
433.91	521.94
434.10	599.18
434.28	781.74
434.47	786.42
434.66	891.74
434.85	1219.42
435.03	3045.04
435.22	11351.60
435.41	25883.98
435.59	26778.07
435.78	17095.27
435.97	8578.06
436.16	3220.58
436.34	1142.18
436.53	744.29
436.72	599.18
436.90	479.81
437.09	491.51
437.28	479.81
437.46	449.38
437.65	545.34
437.84	409.59
438.02	437.68
438.21	437.68
438.40	311.29
438.58	437.68
438.77	458.74
438.96	386.19
439.14	407.25
439.33	421.30
439.52	395.55
439.70	407.25
439.89	404.91
440.08	393.21
440.26	486.83
440.45	393.21
440.63	414.27
440.82	435.34
441.01	428.32
441.19	383.85
441.38	421.30
441.57	365.12
441.75	519.60
441.94	456.40
442.12	454.06
442.31	402.57
442.50	430.66
442.68	367.46
442.87	435.34
443.05	470.45
443.24	435.34
443.43	456.40
443.61	463.43
443.80	414.27
443.98	402.57
444.17	327.68
444.35	433.00
444.54	437.68
444.73	435.34
444.91	407.25
445.10	351.08
445.28	400.23
445.47	369.80
445.65	358.10
445.84	416.62
446.02	395.55
446.21	379.17
446.39	397.89
446.58	433.00
446.77	397.89
446.95	416.62
447.14	402.57
447.32	367.46
447.51	393.21
447.69	435.34
447.88	421.30
448.06	362.78
448.25	414.27
448.43	388.53
448.62	400.23
448.80	444.70
448.99	421.30
449.17	418.96
449.36	388.53
449.54	374.49
449.73	381.51
449.91	479.81
450.10	285.55
450.28	440.02
450.46	383.85
450.65	397.89
450.83	444.70
451.02	400.23
451.20	423.64
451.39	435.34
451.57	393.21
451.76	341.72
451.94	414.27
452.13	428.32
452.31	498.53
452.49	376.83
452.68	341.72
452.86	512.58
453.05	491.51
453.23	411.93
453.42	344.06
453.60	395.55
453.78	386.19
453.97	381.51
454.15	351.08
454.34	372.15
454.52	360.44
454.70	362.78
454.89	339.38
455.07	365.12
455.26	393.21
455.44	379.17
455.62	348.74
455.81	388.53
455.99	461.09
456.17	442.36
456.36	330.02
456.54	402.57
456.73	409.59
456.91	414.27
457.09	418.96
457.28	472.79
457.46	358.10
457.64	358.10
457.83	435.34
458.01	433.00
458.19	470.45
458.38	416.62
458.56	369.80
458.74	411.93
458.93	489.17
459.11	421.30
459.29	376.83
459.48	437.68
459.66	433.00
459.84	456.40
460.03	521.94
460.21	337.04
460.39	407.25
460.57	430.66
460.76	346.40
460.94	379.17
461.12	388.53
461.31	337.04
461.49	393.21
461.67	449.38
461.85	397.89
462.04	372.15
462.22	580.45
462.40	437.68
462.59	344.06
462.77	346.40
462.95	386.19
463.13	355.76
463.32	390.87
463.50	386.19
463.68	379.17
463.86	322.99
464.05	423.64
464.23	475.13
464.41	428.32
464.59	332.36
464.78	376.83
464.96	383.85
465.14	433.00
465.32	341.72
465.50	376.83
465.69	372.15
465.87	409.59
466.05	411.93
466.23	304.27
466.41	372.15
466.60	365.12
466.78	442.36
466.96	430.66
467.14	447.04
467.32	491.51
467.51	482.15
467.69	411.93
467.87	435.34
468.05	421.30
468.23	369.80
468.41	344.06
468.60	395.55
468.78	344.06
468.96	423.64
469.14	374.49
469.32	271.50
469.50	400.23
469.69	353.42
469.87	418.96
470.05	358.10
470.23	400.23
470.41	334.70
470.59	348.74
470.77	367.46
470.95	390.87
471.14	421.30
471.32	367.46
471.50	362.78
471.68	351.08
471.86	423.64
472.04	374.49
472.22	381.51
472.40	407.25
472.58	320.65
472.77	404.91
472.95	381.51
473.13	341.72
473.31	470.45
473.49	451.72
473.67	301.93
473.85	435.34
474.03	428.32
474.21	454.06
474.39	374.49
474.57	491.51
474.75	379.17
474.93	411.93
475.12	400.23
475.30	372.15
475.48	381.51
475.66	381.51
475.84	379.17
476.02	390.87
476.20	386.19
476.38	374.49
476.56	479.81
476.74	395.55
476.92	362.78
477.10	409.59
477.28	360.44
477.46	428.32
477.64	393.21
477.82	355.76
478.00	430.66
478.18	395.55
478.36	404.91
478.54	339.38
478.72	425.98
478.90	411.93
479.08	486.83
479.26	512.58
479.44	503.22
479.62	465.77
479.80	505.56
479.98	507.90
480.16	512.58
480.34	603.86
480.52	545.34
480.70	512.58
480.88	617.90
481.06	667.05
481.24	697.48
481.41	674.07
481.59	725.57
481.77	814.51
481.95	784.08
482.13	823.87
482.31	837.91
482.49	990.05
482.67	1039.20
482.85	1050.90
483.03	1095.37
483.21	1254.53
483.39	1334.11
483.57	1376.24
483.74	1427.73
483.92	1521.35
484.10	1561.14
484.28	1680.50
484.46	1858.39
484.64	1804.55
484.82	1860.73
485.00	2167.34
485.18	2040.95
485.35	2331.17
485.53	2326.49
485.71	2427.14
485.89	2649.49
486.07	2719.70
486.25	2722.04
486.43	2745.45
486.61	2729.06
486.78	2670.55
486.96	2679.91
487.14	2789.92
487.32	2576.93
487.50	2614.38
487.68	2628.42
487.85	2513.74
488.03	2445.86
488.21	2602.68
488.39	2497.35
488.57	2406.07
488.75	2335.85
488.92	2581.61
489.10	2298.41
489.28	2200.10
489.46	2211.81
489.64	2115.84
489.81	2106.48
489.99	2083.08
490.17	2083.08
490.35	2080.74
490.53	2010.52
490.70	2022.22
490.88	2099.46
491.06	2050.31
491.24	2385.01
491.41	2352.24
491.59	2005.84
491.77	1975.41
491.95	1959.03
492.13	1923.92
492.30	1813.92
492.48	1809.23
492.66	1870.09
492.84	1790.51
493.01	1790.51
493.19	1741.36
493.37	1802.21
493.54	1706.25
493.72	1671.14
493.90	1645.40
494.08	1617.31
494.25	1647.74
494.43	1537.73
494.61	1565.82
494.79	1533.05
494.96	1575.18
495.14	1455.81
495.32	1441.77
495.49	1462.83
495.67	1383.26
495.85	1362.19
496.02	1364.53
496.20	1425.39
496.38	1320.06
496.55	1320.06
496.73	1373.89
496.91	1184.31
497.09	1287.29
497.26	1224.10
497.44	1212.40
497.62	1219.42
497.79	1188.99
497.97	1135.16
498.14	1067.28
498.32	1226.44
498.50	1107.07
498.67	997.07
498.85	1029.84
499.03	1006.43
499.20	976.00
499.38	980.68
499.56	1057.92
499.73	1074.31
499.91	990.05
500.08	940.90
500.26	856.64
500.44	816.85
500.61	877.70
500.79	763.01
500.97	849.61
501.14	781.74
501.32	835.57
501.49	697.48
501.67	751.31
501.84	664.71
502.02	622.58
502.20	709.18
502.37	660.03
502.55	667.05
502.72	629.60
502.90	608.54
503.07	564.07
503.25	641.31
503.43	524.28
503.60	596.84
503.78	566.41
503.95	624.92
504.13	547.69
504.30	526.62
504.48	526.62
504.65	514.92
504.83	533.64
505.01	507.90
505.18	498.53
505.36	547.69
505.53	393.21
505.71	517.26
505.88	475.13
506.06	517.26
506.23	486.83
506.41	468.11
506.58	409.59
506.76	449.38
506.93	416.62
507.11	351.08
507.28	386.19
507.46	472.79
507.63	449.38
507.81	454.06
507.98	425.98
508.16	383.85
508.33	337.04
508.50	358.10
508.68	475.13
508.85	484.49
509.03	512.58
509.20	493.85
509.38	552.37
509.55	437.68
509.73	379.17
509.90	557.05
510.08	395.55
510.25	461.09
510.42	400.23
510.60	388.53
510.77	442.36
510.95	376.83
511.12	358.10
511.30	346.40
511.47	421.30
511.64	430.66
511.82	404.91
511.99	400.23
512.17	472.79
512.34	348.74
512.51	409.59
512.69	365.12
512.86	402.57
513.04	440.02
513.21	397.89
513.38	409.59
513.56	376.83
513.73	418.96
513.90	400.23
514.08	344.06
514.25	374.49
514.43	351.08
514.60	362.78
514.77	402.57
514.95	390.87
515.12	339.38
515.29	374.49
515.47	351.08
515.64	320.65
515.81	362.78
515.99	376.83
516.16	315.97
516.33	388.53
516.51	311.29
516.68	341.72
516.85	313.63
517.03	402.57
517.20	388.53
517.37	355.76
517.54	339.38
517.72	341.72
517.89	393.21
518.06	327.68
518.24	447.04
518.41	358.10
518.58	327.68
518.75	327.68
518.93	297.25
519.10	353.42
519.27	332.36
519.45	383.85
519.62	367.46
519.79	315.97
519.96	381.51
520.14	355.76
520.31	400.23
520.48	358.10
520.65	304.27
520.83	393.21
521.00	395.55
521.17	355.76
521.34	334.70
521.52	327.68
521.69	337.04
521.86	299.59
522.03	301.93
522.20	414.27
522.38	367.46
522.55	353.42
522.72	355.76
522.89	320.65
523.07	315.97
523.24	306.61
523.41	348.74
523.58	285.55
523.75	325.33
523.92	360.44
524.10	353.42
524.27	395.55
524.44	358.10
524.61	332.36
524.78	341.72
524.96	358.10
525.13	388.53
525.30	372.15
525.47	306.61
525.64	386.19
525.81	402.57
525.98	418.96
526.16	381.51
526.33	337.04
526.50	337.04
526.67	404.91
526.84	358.10
527.01	411.93
527.18	369.80
527.36	475.13
527.53	390.87
527.70	433.00
527.87	491.51
528.04	404.91
528.21	486.83
528.38	404.91
528.55	461.09
528.72	486.83
528.89	433.00
529.07	449.38
529.24	463.43
529.41	465.77
529.58	416.62
529.75	571.09
529.92	435.34
530.09	449.38
530.26	540.66
530.43	500.87
530.60	503.22
530.77	449.38
530.94	479.81
531.11	538.32
531.28	493.85
531.46	547.69
531.63	550.03
531.80	566.41
531.97	685.78
532.14	657.69
532.31	800.46
532.48	912.81
532.65	1107.07
532.82	1177.29
532.99	1385.60
533.16	1659.44
533.33	1612.63
533.50	1533.05
533.67	1261.55
533.84	1170.27
534.01	1043.88
534.18	992.39
534.35	870.68
534.52	990.05
534.69	1004.09
534.86	1095.37
535.03	1053.24
535.20	1128.14
535.37	1128.14
535.54	1266.23
535.71	1277.93
535.88	1430.07
536.05	1401.98
536.22	1598.59
536.38	1605.61
536.55	1717.95
536.72	2036.27
536.89	2303.09
537.06	2420.11
537.23	2684.59
537.40	2977.16
537.57	3234.62
537.74	3262.71
537.91	3461.65
538.08	3592.72
538.25	3536.55
538.42	3559.95
538.59	3613.79
538.75	3791.67
538.92	3936.78
539.09	4353.40
539.26	4950.23
539.43	5371.53
539.60	6162.63
539.77	7089.48
539.94	7665.25
540.11	8615.51
540.28	9355.12
540.44	10356.87
540.61	11344.58
540.78	13181.90
540.95	15744.78
541.12	18836.63
541.29	21479.10
541.46	22417.65
541.62	21813.79
541.79	20608.42
541.96	19461.55
542.13	18073.62
542.30	16861.22
542.47	15815.00
542.63	14904.53
542.80	14492.60
542.97	14340.46
543.14	14104.07
543.31	14307.69
543.48	14211.73
543.64	14649.41
543.81	14686.86
543.98	14710.27
544.15	14883.47
544.32	15002.83
544.48	14829.63
544.65	14609.62
544.82	14726.65
544.99	14602.60
545.16	14764.10
545.32	15822.02
545.49	26639.98
545.66	49027.20
545.83	56329.67
546.00	50515.78
546.16	35580.82
546.33	26434.01
546.50	19648.80
546.67	15241.57
546.83	13415.95
547.00	12624.85
547.17	11997.59
547.34	11702.68
547.50	11473.31
547.67	10834.34
547.84	10466.88
548.00	9996.43
548.17	9399.59
548.34	9275.54
548.51	9081.28
548.67	8383.80
548.84	7976.55
549.01	7461.63
549.18	7419.50
549.34	7166.72
549.51	6775.85
549.68	6675.21
549.84	6069.01
550.01	6148.59
550.18	5832.62
550.34	5507.28
550.51	5247.48
550.68	5050.88
550.84	4688.09
551.01	4575.75
551.18	4201.26
551.34	3957.85
551.51	3985.93
551.68	3751.88
551.84	3810.39
552.01	3475.70
552.18	3421.86
552.34	3232.28
552.51	3030.99
552.68	2953.76
552.84	2785.24
553.01	2743.11
553.18	2656.51
553.34	2567.57
553.51	2483.31
553.67	2466.92
553.84	2396.71
554.01	2162.66
554.17	2015.20
554.34	1937.96
554.51	1825.62
554.67	1741.36
554.84	1689.87
555.00	1495.60
555.17	1544.75
555.33	1519.01
555.50	1497.94
555.67	1373.89
555.83	1320.06
556.00	1273.25
556.16	1306.02
556.33	1104.73
556.50	1144.52
556.66	1121.12
556.83	997.07
556.99	976.00
557.16	999.41
557.32	936.21
557.49	994.73
557.65	901.11
557.82	856.64
557.98	868.34
558.15	863.66
558.32	851.96
558.48	777.06
558.65	894.08
558.81	863.66
558.98	748.97
559.14	763.01
559.31	774.72
559.47	676.41
559.64	751.31
559.80	758.33
559.97	734.93
560.13	671.73
560.30	706.84
560.46	748.97
560.63	685.78
560.79	706.84
560.96	601.52
561.12	669.39
561.29	737.27
561.45	711.52
561.61	641.31
561.78	763.01
561.94	617.90
562.11	678.76
562.27	725.57
562.44	662.37
562.60	620.24
562.77	653.01
562.93	671.73
563.10	538.32
563.26	648.33
563.42	688.12
563.59	641.31
563.75	500.87
563.92	638.97
564.08	622.58
564.24	636.63
564.41	629.60
564.57	568.75
564.74	543.00
564.90	573.43
565.07	575.77
565.23	627.26
565.39	517.26
565.56	627.26
565.72	477.47
565.88	561.73
566.05	543.00
566.21	510.24
566.38	571.09
566.54	592.16
566.70	580.45
566.87	533.64
567.03	571.09
567.19	575.77
567.36	615.56
567.52	543.00
567.68	510.24
567.85	578.11
568.01	524.28
568.17	524.28
568.34	517.26
568.50	690.46
568.66	554.71
568.83	645.99
568.99	561.73
569.15	634.29
569.32	519.60
569.48	484.49
569.64	409.59
569.81	479.81
569.97	449.38
570.13	447.04
570.30	437.68
570.46	430.66
570.62	440.02
570.78	442.36
570.95	383.85
571.11	451.72
571.27	498.53
571.43	449.38
571.60	416.62
571.76	486.83
571.92	463.43
572.09	411.93
572.25	458.74
572.41	414.27
572.57	407.25
572.74	517.26
572.90	463.43
573.06	430.66
573.22	444.70
573.38	589.82
573.55	402.57
573.71	547.69
573.87	517.26
574.03	461.09
574.20	409.59
574.36	503.22
574.52	589.82
574.68	610.88
574.84	528.96
575.01	533.64
575.17	596.84
575.33	601.52
575.49	643.65
575.65	716.20
575.82	690.46
575.98	791.10
576.14	880.04
576.30	1652.42
576.46	5310.68
576.62	9561.09
576.79	10616.67
576.95	7485.03
577.11	4950.23
577.27	3569.32
577.43	2392.03
577.59	1528.37
577.75	1338.79
577.92	1196.01
578.08	1158.57
578.24	1121.12
578.40	1921.58
578.56	5142.16
578.72	9043.83
578.88	9834.93
579.04	7115.23
579.21	4894.06
579.37	3599.74
579.53	2825.03
579.69	2923.33
579.85	3356.33
580.01	3878.27
580.17	3681.66
580.33	3117.59
580.49	2808.64
580.65	2541.82
580.82	2244.57
580.98	2256.28
581.14	2333.51
581.30	2335.85
581.46	2462.24
581.62	2768.85
581.78	2871.84
581.94	3014.61
582.10	3251.00
582.26	3506.12
582.42	3571.66
582.58	3641.87
582.74	3599.74
582.90	3662.94
583.06	3775.28
583.22	3833.80
583.38	3826.78
583.54	3620.81
583.70	3712.09
583.86	3620.81
584.02	3531.87
584.18	3637.19
584.34	3489.74
584.50	3585.70
584.66	3377.39
584.82	3407.82
584.98	3440.59
585.14	3314.20
585.30	3248.66
585.46	3215.90
585.62	3131.64
585.78	3176.11
585.94	3162.06
586.10	3227.60
586.26	3375.05
586.42	3918.06
586.58	4681.07
586.74	5537.71
586.90	6576.91
587.06	7213.53
587.22	7082.46
587.38	6340.51
587.54	5289.61
587.70	4706.82
587.86	3967.21
588.02	3370.37
588.18	2883.54
588.34	2609.70
588.49	2499.69
588.65	2417.77
588.81	2200.10
588.97	2263.30
589.13	2223.51
589.29	2118.18
589.45	2045.63
589.61	2045.63
589.77	2069.03
589.93	2083.08
590.08	2186.06
590.24	2270.32
590.40	2345.22
590.56	2413.09
590.72	2492.67
590.88	2462.24
591.04	2612.04
591.20	2600.34
591.35	2623.74
591.51	2818.00
591.67	2942.05
591.83	3166.74
591.99	3377.39
592.15	3616.13
592.31	3969.55
592.46	4365.10
592.62	4884.70
592.78	5053.22
592.94	4950.23
593.10	5078.96
593.26	4936.19
593.41	4610.86
593.57	4077.21
593.73	3651.24
593.89	3155.04
594.05	2867.16
594.20	2530.12
594.36	2438.84
594.52	2143.93
594.68	2092.44
594.84	1942.64
594.99	1973.07
595.15	1954.35
595.31	1902.86
595.47	1865.41
595.62	1846.68
595.78	1870.09
595.94	1947.33
596.10	1842.00
596.25	1916.90
596.41	2005.84
596.57	1853.70
596.73	1935.62
596.88	1865.41
597.04	1881.79
597.20	1952.01
597.36	1989.46
597.51	1982.43
597.67	2125.21
597.83	2101.80
597.99	2228.19
598.14	2420.11
598.30	2572.25
598.46	2602.68
598.61	2836.73
598.77	2801.62
598.93	3068.44
599.09	3234.62
599.24	3162.06
599.40	3124.62
599.56	3016.95
599.71	2848.43
599.87	2719.70
600.03	2612.04
600.18	2443.52
600.34	2267.98
600.50	2099.46
600.65	1914.56
600.81	1909.88
600.97	1724.97
601.12	1713.27
601.28	1717.95
601.44	1624.33
601.59	1462.83
601.75	1537.73
601.91	1343.47
602.06	1224.10
602.22	1324.74
602.37	1212.40
602.53	1261.55
602.69	1203.04
602.84	1277.93
603.00	1291.98
603.16	1261.55
603.31	1315.38
603.47	1310.70
603.62	1357.51
603.78	1416.02
603.94	1338.79
604.09	1418.36
604.25	1446.45
604.40	1479.22
604.56	1495.60
604.71	1446.45
604.87	1542.41
605.03	1603.27
605.18	1535.39
605.34	1717.95
605.49	1650.08
605.65	1629.01
605.80	1579.86
