SpectraSuite Data File
++++++++++++++++++++++++++++++++++++
Date: Fri Oct 04 11:42:13 GMT-05:00 2013
User: price-jones
Dark Spectrum Present: No
Reference Spectrum Present: No
Number of Sampled Component Spectra: 1
Spectrometers: USB2+H05261
Integration Time (usec): 100000 (USB2+H05261)
Spectra Averaged: 1 (USB2+H05261)
Boxcar Smoothing: 0 (USB2+H05261)
Correct for Electrical Dark: No (USB2+H05261)
Strobe/Lamp Enabled: No (USB2+H05261)
Correct for Detector Non-linearity: No (USB2+H05261)
Correct for Stray Light: No (USB2+H05261)
Number of Pixels in Processed Spectrum: 2048
>>>>>Begin Processed Spectral Data<<<<<
365.73	32.77
365.92	32.77
366.12	32.77
366.32	0.00
366.52	0.00
366.72	0.00
366.91	0.00
367.11	0.00
367.31	0.00
367.51	0.00
367.70	0.00
367.90	0.00
368.10	0.00
368.30	0.00
368.49	0.00
368.69	0.00
368.89	0.00
369.09	0.00
369.28	0.00
369.48	0.00
369.68	0.00
369.87	42.13
370.07	25.75
370.27	53.83
370.47	35.11
370.66	9.36
370.86	0.00
371.06	51.49
371.25	152.13
371.45	77.24
371.65	100.64
371.84	79.58
372.04	121.71
372.24	67.88
372.44	95.96
372.63	154.48
372.83	51.49
373.03	86.60
373.22	128.73
373.42	9.36
373.62	156.82
373.81	81.92
374.01	105.32
374.21	110.01
374.40	65.54
374.60	149.79
374.79	128.73
374.99	84.26
375.19	88.94
375.38	91.28
375.58	42.13
375.78	191.92
375.97	173.20
376.17	119.37
376.37	119.37
376.56	32.77
376.76	74.90
376.95	74.90
377.15	168.52
377.35	114.69
377.54	121.71
377.74	77.24
377.93	102.98
378.13	93.62
378.33	91.28
378.52	117.03
378.72	128.73
378.91	53.83
379.11	77.24
379.31	16.38
379.50	114.69
379.70	128.73
379.89	128.73
380.09	67.88
380.28	32.77
380.48	105.32
380.68	135.75
380.87	14.04
381.07	95.96
381.26	110.01
381.46	205.97
381.65	117.03
381.85	154.48
382.04	177.88
382.24	156.82
382.43	110.01
382.63	110.01
382.83	79.58
383.02	128.73
383.22	126.39
383.41	114.69
383.61	107.66
383.80	100.64
384.00	30.43
384.19	110.01
384.39	121.71
384.58	124.05
384.78	84.26
384.97	95.96
385.17	95.96
385.36	152.13
385.56	112.35
385.75	56.17
385.95	98.30
386.14	102.98
386.34	93.62
386.53	140.43
386.72	100.64
386.92	88.94
387.11	79.58
387.31	135.75
387.50	95.96
387.70	93.62
387.89	102.98
388.09	67.88
388.28	63.19
388.48	140.43
388.67	189.58
388.86	95.96
389.06	114.69
389.25	121.71
389.45	25.75
389.64	124.05
389.84	126.39
390.03	84.26
390.22	128.73
390.42	131.07
390.61	86.60
390.81	154.48
391.00	44.47
391.19	138.09
391.39	114.69
391.58	74.90
391.78	84.26
391.97	133.41
392.16	100.64
392.36	126.39
392.55	110.01
392.75	203.63
392.94	70.22
393.13	114.69
393.33	93.62
393.52	18.72
393.71	131.07
393.91	133.41
394.10	91.28
394.29	175.54
394.49	102.98
394.68	77.24
394.88	110.01
395.07	121.71
395.26	84.26
395.46	95.96
395.65	133.41
395.84	84.26
396.04	159.16
396.23	102.98
396.42	140.43
396.62	152.13
396.81	168.52
397.00	107.66
397.19	86.60
397.39	114.69
397.58	182.56
397.77	161.50
397.97	205.97
398.16	102.98
398.35	128.73
398.55	49.15
398.74	126.39
398.93	184.90
399.12	145.11
399.32	140.43
399.51	77.24
399.70	86.60
399.90	215.33
400.09	117.03
400.28	91.28
400.47	114.69
400.67	124.05
400.86	105.32
401.05	102.98
401.24	140.43
401.44	175.54
401.63	121.71
401.82	126.39
402.01	147.45
402.21	81.92
402.40	124.05
402.59	173.20
402.78	77.24
402.97	105.32
403.17	128.73
403.36	77.24
403.55	140.43
403.74	166.18
403.93	203.63
404.13	208.31
404.32	264.48
404.51	322.99
404.70	210.65
404.89	117.03
405.09	177.88
405.28	102.98
405.47	86.60
405.66	156.82
405.85	215.33
406.05	65.54
406.24	98.30
406.43	140.43
406.62	140.43
406.81	182.56
407.00	196.60
407.20	184.90
407.39	173.20
407.58	124.05
407.77	84.26
407.96	140.43
408.15	142.77
408.34	72.56
408.54	81.92
408.73	117.03
408.92	105.32
409.11	173.20
409.30	180.22
409.49	107.66
409.68	102.98
409.87	133.41
410.07	81.92
410.26	51.49
410.45	100.64
410.64	56.17
410.83	135.75
411.02	119.37
411.21	201.29
411.40	198.95
411.59	140.43
411.78	187.24
411.98	191.92
412.17	156.82
412.36	175.54
412.55	140.43
412.74	86.60
412.93	154.48
413.12	60.85
413.31	212.99
413.50	88.94
413.69	126.39
413.88	205.97
414.07	128.73
414.26	145.11
414.45	163.84
414.64	173.20
414.83	105.32
415.02	119.37
415.22	145.11
415.41	201.29
415.60	131.07
415.79	114.69
415.98	105.32
416.17	88.94
416.36	142.77
416.55	161.50
416.74	152.13
416.93	135.75
417.12	126.39
417.31	102.98
417.50	187.24
417.69	175.54
417.88	128.73
418.07	60.85
418.26	119.37
418.45	152.13
418.64	175.54
418.83	135.75
419.02	63.19
419.21	95.96
419.39	98.30
419.58	56.17
419.77	81.92
419.96	203.63
420.15	276.18
420.34	187.24
420.53	147.45
420.72	161.50
420.91	170.86
421.10	102.98
421.29	166.18
421.48	154.48
421.67	135.75
421.86	156.82
422.05	159.16
422.24	86.60
422.43	124.05
422.61	46.81
422.80	105.32
422.99	203.63
423.18	138.09
423.37	203.63
423.56	177.88
423.75	105.32
423.94	147.45
424.13	86.60
424.32	121.71
424.50	177.88
424.69	126.39
424.88	93.62
425.07	112.35
425.26	149.79
425.45	168.52
425.64	126.39
425.83	133.41
426.01	112.35
426.20	133.41
426.39	105.32
426.58	135.75
426.77	159.16
426.96	194.26
427.15	168.52
427.33	86.60
427.52	154.48
427.71	159.16
427.90	133.41
428.09	135.75
428.28	46.81
428.46	156.82
428.65	154.48
428.84	147.45
429.03	161.50
429.22	170.86
429.40	131.07
429.59	114.69
429.78	156.82
429.97	173.20
430.16	84.26
430.34	124.05
430.53	100.64
430.72	138.09
430.91	175.54
431.10	88.94
431.28	131.07
431.47	152.13
431.66	100.64
431.85	102.98
432.03	93.62
432.22	147.45
432.41	110.01
432.60	198.95
432.79	163.84
432.97	170.86
433.16	163.84
433.35	229.37
433.54	142.77
433.72	177.88
433.91	131.07
434.10	161.50
434.28	180.22
434.47	156.82
434.66	245.76
434.85	145.11
435.03	271.50
435.22	683.44
435.41	1186.65
435.59	1217.08
435.78	877.70
435.97	486.83
436.16	313.63
436.34	168.52
436.53	159.16
436.72	177.88
436.90	215.33
437.09	203.63
437.28	234.05
437.46	224.69
437.65	133.41
437.84	180.22
438.02	131.07
438.21	180.22
438.40	133.41
438.58	196.60
438.77	70.22
438.96	112.35
439.14	163.84
439.33	166.18
439.52	201.29
439.70	77.24
439.89	159.16
440.08	154.48
440.26	161.50
440.45	191.92
440.63	170.86
440.82	182.56
441.01	217.67
441.19	163.84
441.38	105.32
441.57	138.09
441.75	152.13
441.94	168.52
442.12	147.45
442.31	110.01
442.50	196.60
442.68	138.09
442.87	205.97
443.05	191.92
443.24	135.75
443.43	257.46
443.61	177.88
443.80	182.56
443.98	102.98
444.17	220.01
444.35	161.50
444.54	208.31
444.73	126.39
444.91	119.37
445.10	138.09
445.28	227.03
445.47	177.88
445.65	166.18
445.84	168.52
446.02	147.45
446.21	142.77
446.39	173.20
446.58	175.54
446.77	159.16
446.95	177.88
447.14	138.09
447.32	191.92
447.51	170.86
447.69	107.66
447.88	102.98
448.06	194.26
448.25	149.79
448.43	152.13
448.62	245.76
448.80	187.24
448.99	180.22
449.17	131.07
449.36	60.85
449.54	243.42
449.73	168.52
449.91	184.90
450.10	191.92
450.28	135.75
450.46	201.29
450.65	205.97
450.83	175.54
451.02	168.52
451.20	154.48
451.39	91.28
451.57	215.33
451.76	131.07
451.94	119.37
452.13	248.10
452.31	215.33
452.49	187.24
452.68	159.16
452.86	173.20
453.05	166.18
453.23	248.10
453.42	138.09
453.60	112.35
453.78	243.42
453.97	133.41
454.15	142.77
454.34	210.65
454.52	163.84
454.70	189.58
454.89	220.01
455.07	201.29
455.26	173.20
455.44	154.48
455.62	124.05
455.81	245.76
455.99	187.24
456.17	201.29
456.36	173.20
456.54	175.54
456.73	159.16
456.91	201.29
457.09	196.60
457.28	189.58
457.46	208.31
457.64	138.09
457.83	124.05
458.01	159.16
458.19	227.03
458.38	135.75
458.56	145.11
458.74	175.54
458.93	196.60
459.11	135.75
459.29	79.58
459.48	175.54
459.66	248.10
459.84	191.92
460.03	283.20
460.21	236.39
460.39	222.35
460.57	154.48
460.76	135.75
460.94	177.88
461.12	220.01
461.31	229.37
461.49	102.98
461.67	187.24
461.85	191.92
462.04	180.22
462.22	362.78
462.40	142.77
462.59	212.99
462.77	140.43
462.95	205.97
463.13	142.77
463.32	294.91
463.50	140.43
463.68	149.79
463.86	212.99
464.05	194.26
464.23	250.44
464.41	262.14
464.59	168.52
464.78	227.03
464.96	173.20
465.14	189.58
465.32	105.32
465.50	220.01
465.69	210.65
465.87	227.03
466.05	180.22
466.23	210.65
466.41	175.54
466.60	201.29
466.78	154.48
466.96	180.22
467.14	196.60
467.32	229.37
467.51	175.54
467.69	236.39
467.87	208.31
468.05	177.88
468.23	262.14
468.41	273.84
468.60	149.79
468.78	152.13
468.96	234.05
469.14	227.03
469.32	177.88
469.50	119.37
469.69	191.92
469.87	175.54
470.05	135.75
470.23	236.39
470.41	168.52
470.59	140.43
470.77	234.05
470.95	112.35
471.14	180.22
471.32	241.08
471.50	224.69
471.68	184.90
471.86	229.37
472.04	210.65
472.22	95.96
472.40	152.13
472.58	117.03
472.77	161.50
472.95	222.35
473.13	238.73
473.31	201.29
473.49	212.99
473.67	166.18
473.85	173.20
474.03	180.22
474.21	119.37
474.39	208.31
474.57	231.71
474.75	140.43
474.93	210.65
475.12	114.69
475.30	294.91
475.48	177.88
475.66	156.82
475.84	184.90
476.02	196.60
476.20	220.01
476.38	163.84
476.56	212.99
476.74	184.90
476.92	175.54
477.10	278.52
477.28	128.73
477.46	168.52
477.64	227.03
477.82	191.92
478.00	145.11
478.18	196.60
478.36	210.65
478.54	203.63
478.72	203.63
478.90	255.12
479.08	166.18
479.26	166.18
479.44	231.71
479.62	140.43
479.80	196.60
479.98	191.92
480.16	201.29
480.34	159.16
480.52	217.67
480.70	205.97
480.88	243.42
481.06	184.90
481.24	215.33
481.41	175.54
481.59	243.42
481.77	255.12
481.95	145.11
482.13	292.57
482.31	269.16
482.49	212.99
482.67	276.18
482.85	243.42
483.03	215.33
483.21	205.97
483.39	229.37
483.57	198.95
483.74	250.44
483.92	280.86
484.10	334.70
484.28	330.02
484.46	353.42
484.64	301.93
484.82	285.55
485.00	287.89
485.18	355.76
485.35	262.14
485.53	271.50
485.71	320.65
485.89	283.20
486.07	269.16
486.25	367.46
486.43	351.08
486.61	360.44
486.78	402.57
486.96	346.40
487.14	376.83
487.32	330.02
487.50	276.18
487.68	304.27
487.85	337.04
488.03	313.63
488.21	358.10
488.39	243.42
488.57	327.68
488.75	245.76
488.92	561.73
489.10	337.04
489.28	341.72
489.46	299.59
489.64	297.25
489.81	245.76
489.99	320.65
490.17	348.74
490.35	362.78
490.53	292.57
490.70	252.78
490.88	334.70
491.06	369.80
491.24	299.59
491.41	299.59
491.59	259.80
491.77	266.82
491.95	262.14
492.13	252.78
492.30	311.29
492.48	283.20
492.66	290.23
492.84	409.59
493.01	250.44
493.19	273.84
493.37	339.38
493.54	283.20
493.72	262.14
493.90	266.82
494.08	243.42
494.25	262.14
494.43	330.02
494.61	351.08
494.79	238.73
494.96	229.37
495.14	280.86
495.32	290.23
495.49	224.69
495.67	301.93
495.85	250.44
496.02	236.39
496.20	376.83
496.38	259.80
496.55	201.29
496.73	224.69
496.91	301.93
497.09	346.40
497.26	248.10
497.44	238.73
497.62	266.82
497.79	332.36
497.97	287.89
498.14	283.20
498.32	299.59
498.50	322.99
498.67	271.50
498.85	283.20
499.03	161.50
499.20	301.93
499.38	276.18
499.56	227.03
499.73	381.51
499.91	290.23
500.08	245.76
500.26	210.65
500.44	173.20
500.61	217.67
500.79	276.18
500.97	177.88
501.14	224.69
501.32	276.18
501.49	294.91
501.67	273.84
501.84	273.84
502.02	203.63
502.20	250.44
502.37	285.55
502.55	269.16
502.72	234.05
502.90	262.14
503.07	297.25
503.25	191.92
503.43	229.37
503.60	236.39
503.78	227.03
503.95	255.12
504.13	238.73
504.30	278.52
504.48	355.76
504.65	287.89
504.83	217.67
505.01	198.95
505.18	210.65
505.36	229.37
505.53	205.97
505.71	266.82
505.88	285.55
506.06	245.76
506.23	191.92
506.41	191.92
506.58	170.86
506.76	304.27
506.93	266.82
507.11	217.67
507.28	252.78
507.46	315.97
507.63	255.12
507.81	212.99
507.98	203.63
508.16	194.26
508.33	294.91
508.50	229.37
508.68	250.44
508.85	250.44
509.03	227.03
509.20	191.92
509.38	266.82
509.55	318.31
509.73	257.46
509.90	266.82
510.08	299.59
510.25	238.73
510.42	184.90
510.60	294.91
510.77	243.42
510.95	269.16
511.12	238.73
511.30	231.71
511.47	313.63
511.64	276.18
511.82	220.01
511.99	294.91
512.17	229.37
512.34	220.01
512.51	217.67
512.69	222.35
512.86	227.03
513.04	177.88
513.21	259.80
513.38	257.46
513.56	276.18
513.73	205.97
513.90	259.80
514.08	163.84
514.25	299.59
514.43	332.36
514.60	238.73
514.77	257.46
514.95	283.20
515.12	315.97
515.29	320.65
515.47	248.10
515.64	238.73
515.81	245.76
515.99	327.68
516.16	259.80
516.33	191.92
516.51	250.44
516.68	250.44
516.85	212.99
517.03	210.65
517.20	241.08
517.37	224.69
517.54	227.03
517.72	280.86
517.89	184.90
518.06	210.65
518.24	266.82
518.41	222.35
518.58	320.65
518.75	231.71
518.93	236.39
519.10	255.12
519.27	224.69
519.45	271.50
519.62	191.92
519.79	283.20
519.96	198.95
520.14	217.67
520.31	259.80
520.48	276.18
520.65	280.86
520.83	266.82
521.00	301.93
521.17	234.05
521.34	205.97
521.52	252.78
521.69	250.44
521.86	238.73
522.03	220.01
522.20	325.33
522.38	236.39
522.55	194.26
522.72	220.01
522.89	292.57
523.07	224.69
523.24	227.03
523.41	271.50
523.58	250.44
523.75	234.05
523.92	227.03
524.10	283.20
524.27	255.12
524.44	266.82
524.61	217.67
524.78	231.71
524.96	322.99
525.13	301.93
525.30	290.23
525.47	273.84
525.64	245.76
525.81	201.29
525.98	262.14
526.16	173.20
526.33	278.52
526.50	236.39
526.67	229.37
526.84	252.78
527.01	227.03
527.18	248.10
527.36	238.73
527.53	212.99
527.70	311.29
527.87	287.89
528.04	273.84
528.21	241.08
528.38	308.95
528.55	372.15
528.72	292.57
528.89	203.63
529.07	273.84
529.24	259.80
529.41	292.57
529.58	325.33
529.75	318.31
529.92	285.55
530.09	264.48
530.26	362.78
530.43	308.95
530.60	283.20
530.77	252.78
530.94	287.89
531.11	313.63
531.28	248.10
531.46	271.50
531.63	236.39
531.80	222.35
531.97	257.46
532.14	241.08
532.31	252.78
532.48	255.12
532.65	271.50
532.82	257.46
532.99	337.04
533.16	374.49
533.33	264.48
533.50	229.37
533.67	250.44
533.84	337.04
534.01	353.42
534.18	248.10
534.35	301.93
534.52	325.33
534.69	337.04
534.86	308.95
535.03	205.97
535.20	283.20
535.37	322.99
535.54	315.97
535.71	299.59
535.88	388.53
536.05	271.50
536.22	325.33
536.38	346.40
536.55	376.83
536.72	367.46
536.89	315.97
537.06	351.08
537.23	381.51
537.40	430.66
537.57	360.44
537.74	402.57
537.91	428.32
538.08	428.32
538.25	372.15
538.42	433.00
538.59	421.30
538.75	449.38
538.92	507.90
539.09	447.04
539.26	418.96
539.43	498.53
539.60	531.30
539.77	596.84
539.94	704.50
540.11	671.73
540.28	730.25
540.44	847.27
540.61	840.25
540.78	901.11
540.95	1062.60
541.12	1214.74
541.29	1336.45
541.46	1378.58
541.62	1413.68
541.79	1376.24
541.96	1378.58
542.13	1320.06
542.30	1242.82
542.47	1179.63
542.63	1069.62
542.80	1137.50
542.97	1233.46
543.14	1025.15
543.31	1074.31
543.48	1142.18
543.64	1191.33
543.81	1128.14
543.98	1142.18
544.15	1086.01
544.32	1158.57
544.48	1174.95
544.65	1025.15
544.82	1107.07
544.99	1071.97
545.16	1135.16
545.32	1137.50
545.49	1659.44
545.66	2691.62
545.83	3398.46
546.00	2878.86
546.16	2106.48
546.33	1661.78
546.50	1252.19
546.67	1071.97
546.83	880.04
547.00	887.06
547.17	828.55
547.34	826.21
547.50	830.89
547.67	716.20
547.84	767.70
548.00	751.31
548.17	744.29
548.34	732.59
548.51	760.67
548.67	674.07
548.84	695.14
549.01	631.94
549.18	627.26
549.34	678.76
549.51	624.92
549.68	653.01
549.84	547.69
550.01	545.34
550.18	608.54
550.34	559.39
550.51	531.30
550.68	517.26
550.84	585.13
551.01	519.60
551.18	484.49
551.34	503.22
551.51	456.40
551.68	458.74
551.84	440.02
552.01	456.40
552.18	339.38
552.34	451.72
552.51	447.04
552.68	374.49
552.84	358.10
553.01	409.59
553.18	433.00
553.34	327.68
553.51	414.27
553.67	433.00
553.84	440.02
554.01	351.08
554.17	353.42
554.34	320.65
554.51	313.63
554.67	341.72
554.84	325.33
555.00	360.44
555.17	241.08
555.33	355.76
555.50	390.87
555.67	318.31
555.83	379.17
556.00	383.85
556.16	456.40
556.33	381.51
556.50	337.04
556.66	243.42
556.83	210.65
556.99	290.23
557.16	287.89
557.32	285.55
557.49	311.29
557.65	301.93
557.82	311.29
557.98	285.55
558.15	304.27
558.32	236.39
558.48	229.37
558.65	346.40
558.81	308.95
558.98	264.48
559.14	292.57
559.31	313.63
559.47	353.42
559.64	269.16
559.80	301.93
559.97	266.82
560.13	278.52
560.30	262.14
560.46	299.59
560.63	266.82
560.79	262.14
560.96	306.61
561.12	306.61
561.29	257.46
561.45	297.25
561.61	217.67
561.78	344.06
561.94	332.36
562.11	351.08
562.27	311.29
562.44	255.12
562.60	266.82
562.77	245.76
562.93	411.93
563.10	243.42
563.26	271.50
563.42	255.12
563.59	320.65
563.75	231.71
563.92	320.65
564.08	313.63
564.24	278.52
564.41	301.93
564.57	280.86
564.74	271.50
564.90	224.69
565.07	330.02
565.23	308.95
565.39	208.31
565.56	245.76
565.72	285.55
565.88	285.55
566.05	276.18
566.21	287.89
566.38	318.31
566.54	299.59
566.70	236.39
566.87	224.69
567.03	191.92
567.19	259.80
567.36	290.23
567.52	224.69
567.68	325.33
567.85	290.23
568.01	231.71
568.17	273.84
568.34	320.65
568.50	299.59
568.66	236.39
568.83	287.89
568.99	243.42
569.15	292.57
569.32	231.71
569.48	175.54
569.64	266.82
569.81	227.03
569.97	259.80
570.13	318.31
570.30	285.55
570.46	273.84
570.62	290.23
570.78	262.14
570.95	259.80
571.11	287.89
571.27	294.91
571.43	278.52
571.60	205.97
571.76	304.27
571.92	308.95
572.09	245.76
572.25	203.63
572.41	243.42
572.57	212.99
572.74	205.97
572.90	311.29
573.06	283.20
573.22	243.42
573.38	271.50
573.55	271.50
573.71	276.18
573.87	322.99
574.03	147.45
574.20	161.50
574.36	210.65
574.52	227.03
574.68	229.37
574.84	170.86
575.01	290.23
575.17	285.55
575.33	252.78
575.49	231.71
575.65	327.68
575.82	266.82
575.98	367.46
576.14	304.27
576.30	341.72
576.46	449.38
576.62	706.84
576.79	772.38
576.95	702.16
577.11	454.06
577.27	395.55
577.43	299.59
577.59	353.42
577.75	266.82
577.92	365.12
578.08	292.57
578.24	322.99
578.40	376.83
578.56	582.79
578.72	739.61
578.88	702.16
579.04	655.35
579.21	484.49
579.37	449.38
579.53	411.93
579.69	400.23
579.85	423.64
580.01	454.06
580.17	416.62
580.33	435.34
580.49	386.19
580.65	374.49
580.82	297.25
580.98	332.36
581.14	313.63
581.30	372.15
581.46	416.62
581.62	372.15
581.78	362.78
581.94	397.89
582.10	383.85
582.26	428.32
582.42	423.64
582.58	425.98
582.74	540.66
582.90	503.22
583.06	402.57
583.22	400.23
583.38	472.79
583.54	468.11
583.70	390.87
583.86	444.70
584.02	458.74
584.18	479.81
584.34	491.51
584.50	538.32
584.66	447.04
584.82	428.32
584.98	444.70
585.14	458.74
585.30	479.81
585.46	388.53
585.62	425.98
585.78	306.61
585.94	433.00
586.10	423.64
586.26	463.43
586.42	514.92
586.58	475.13
586.74	447.04
586.90	613.22
587.06	667.05
587.22	648.33
587.38	653.01
587.54	601.52
587.70	510.24
587.86	510.24
588.02	447.04
588.18	379.17
588.34	416.62
588.49	367.46
588.65	299.59
588.81	236.39
588.97	238.73
589.13	322.99
589.29	348.74
589.45	402.57
589.61	301.93
589.77	362.78
589.93	325.33
590.08	325.33
590.24	404.91
590.40	433.00
590.56	393.21
590.72	360.44
590.88	339.38
591.04	358.10
591.20	402.57
591.35	348.74
591.51	477.47
591.67	395.55
591.83	325.33
591.99	407.25
592.15	390.87
592.31	404.91
592.46	425.98
592.62	526.62
592.78	552.37
592.94	491.51
593.10	482.15
593.26	423.64
593.41	533.64
593.57	365.12
593.73	355.76
593.89	397.89
594.05	325.33
594.20	315.97
594.36	369.80
594.52	290.23
594.68	294.91
594.84	330.02
594.99	362.78
595.15	407.25
595.31	341.72
595.47	360.44
595.62	348.74
595.78	283.20
595.94	365.12
596.10	339.38
596.25	299.59
596.41	292.57
596.57	313.63
596.73	287.89
596.88	397.89
597.04	304.27
597.20	355.76
597.36	386.19
597.51	294.91
597.67	362.78
597.83	332.36
597.99	341.72
598.14	327.68
598.30	318.31
598.46	404.91
598.61	397.89
598.77	407.25
598.93	311.29
599.09	372.15
599.24	411.93
599.40	437.68
599.56	400.23
599.71	372.15
599.87	325.33
600.03	472.79
600.18	409.59
600.34	332.36
600.50	304.27
600.65	294.91
600.81	290.23
600.97	257.46
601.12	313.63
601.28	372.15
601.44	318.31
601.59	241.08
601.75	255.12
601.91	285.55
602.06	339.38
602.22	301.93
602.37	322.99
602.53	245.76
602.69	320.65
602.84	348.74
603.00	330.02
603.16	301.93
603.31	341.72
603.47	337.04
603.62	205.97
603.78	273.84
603.94	266.82
604.09	262.14
604.25	301.93
604.40	222.35
604.56	273.84
604.71	264.48
604.87	250.44
605.03	348.74
605.18	301.93
605.34	353.42
605.49	337.04
605.65	334.70
605.80	372.15
605.96	362.78
606.12	423.64
606.27	390.87
606.43	280.86
606.58	327.68
606.74	339.38
606.89	367.46
607.05	374.49
607.20	353.42
607.36	332.36
607.51	337.04
607.67	360.44
607.82	353.42
607.98	472.79
608.13	402.57
608.29	407.25
608.44	421.30
608.60	465.77
608.75	470.45
608.91	610.88
609.06	601.52
609.22	489.17
609.37	601.52
609.53	702.16
609.68	758.33
609.84	835.57
609.99	964.30
610.15	1022.81
610.30	1238.14
610.46	1568.16
610.61	1750.72
610.76	2293.72
610.92	2839.07
611.07	3066.10
611.23	3197.17
