SpectraSuite Data File
++++++++++++++++++++++++++++++++++++
Date: Fri Oct 04 11:42:30 GMT-05:00 2013
User: price-jones
Dark Spectrum Present: No
Reference Spectrum Present: No
Number of Sampled Component Spectra: 1
Spectrometers: USB2+H05261
Integration Time (usec): 100000 (USB2+H05261)
Spectra Averaged: 1 (USB2+H05261)
Boxcar Smoothing: 0 (USB2+H05261)
Correct for Electrical Dark: No (USB2+H05261)
Strobe/Lamp Enabled: No (USB2+H05261)
Correct for Detector Non-linearity: No (USB2+H05261)
Correct for Stray Light: No (USB2+H05261)
Number of Pixels in Processed Spectrum: 2048
>>>>>Begin Processed Spectral Data<<<<<
365.73	16.38
365.92	16.38
366.12	16.38
366.32	0.00
366.52	0.00
366.72	16.38
366.91	0.00
367.11	0.00
367.31	0.00
367.51	0.00
367.70	0.00
367.90	7.02
368.10	0.00
368.30	0.00
368.49	0.00
368.69	0.00
368.89	0.00
369.09	0.00
369.28	0.00
369.48	0.00
369.68	0.00
369.87	23.41
370.07	0.00
370.27	65.54
370.47	0.00
370.66	0.00
370.86	11.70
371.06	102.98
371.25	70.22
371.45	114.69
371.65	86.60
371.84	56.17
372.04	32.77
372.24	67.88
372.44	114.69
372.63	126.39
372.83	124.05
373.03	72.56
373.22	81.92
373.42	100.64
373.62	58.51
373.81	140.43
374.01	44.47
374.21	86.60
374.40	184.90
374.60	63.19
374.79	124.05
374.99	98.30
375.19	168.52
375.38	60.85
375.58	81.92
375.78	124.05
375.97	135.75
376.17	177.88
376.37	70.22
376.56	128.73
376.76	135.75
376.95	95.96
377.15	114.69
377.35	135.75
377.54	152.13
377.74	67.88
377.93	74.90
378.13	133.41
378.33	93.62
378.52	105.32
378.72	173.20
378.91	145.11
379.11	147.45
379.31	9.36
379.50	67.88
379.70	72.56
379.89	79.58
380.09	21.06
380.28	86.60
380.48	91.28
380.68	84.26
380.87	98.30
381.07	84.26
381.26	154.48
381.46	196.60
381.65	156.82
381.85	112.35
382.04	184.90
382.24	74.90
382.43	60.85
382.63	145.11
382.83	84.26
383.02	81.92
383.22	119.37
383.41	86.60
383.61	79.58
383.80	72.56
384.00	100.64
384.19	51.49
384.39	156.82
384.58	121.71
384.78	117.03
384.97	65.54
385.17	93.62
385.36	86.60
385.56	147.45
385.75	74.90
385.95	81.92
386.14	81.92
386.34	124.05
386.53	98.30
386.72	112.35
386.92	121.71
387.11	126.39
387.31	84.26
387.50	39.79
387.70	95.96
387.89	117.03
388.09	18.72
388.28	112.35
388.48	23.41
388.67	119.37
388.86	117.03
389.06	81.92
389.25	53.83
389.45	102.98
389.64	98.30
389.84	140.43
390.03	119.37
390.22	145.11
390.42	138.09
390.61	58.51
390.81	173.20
391.00	86.60
391.19	119.37
391.39	140.43
391.58	208.31
391.78	159.16
391.97	107.66
392.16	191.92
392.36	102.98
392.55	133.41
392.75	128.73
392.94	124.05
393.13	91.28
393.33	95.96
393.52	46.81
393.71	112.35
393.91	152.13
394.10	154.48
394.29	142.77
394.49	107.66
394.68	142.77
394.88	79.58
395.07	154.48
395.26	159.16
395.46	105.32
395.65	63.19
395.84	154.48
396.04	159.16
396.23	117.03
396.42	133.41
396.62	173.20
396.81	100.64
397.00	135.75
397.19	147.45
397.39	133.41
397.58	93.62
397.77	37.45
397.97	124.05
398.16	149.79
398.35	133.41
398.55	173.20
398.74	163.84
398.93	131.07
399.12	86.60
399.32	196.60
399.51	124.05
399.70	91.28
399.90	170.86
400.09	124.05
400.28	175.54
400.47	72.56
400.67	135.75
400.86	77.24
401.05	126.39
401.24	138.09
401.44	224.69
401.63	110.01
401.82	142.77
402.01	100.64
402.21	84.26
402.40	77.24
402.59	121.71
402.78	56.17
402.97	79.58
403.17	65.54
403.36	110.01
403.55	159.16
403.74	205.97
403.93	245.76
404.13	222.35
404.32	187.24
404.51	292.57
404.70	212.99
404.89	100.64
405.09	222.35
405.28	117.03
405.47	119.37
405.66	112.35
405.85	91.28
406.05	131.07
406.24	107.66
406.43	131.07
406.62	117.03
406.81	212.99
407.00	201.29
407.20	121.71
407.39	7.02
407.58	131.07
407.77	187.24
407.96	156.82
408.15	135.75
408.34	159.16
408.54	180.22
408.73	93.62
408.92	140.43
409.11	95.96
409.30	173.20
409.49	135.75
409.68	86.60
409.87	74.90
410.07	170.86
410.26	168.52
410.45	100.64
410.64	152.13
410.83	126.39
411.02	86.60
411.21	191.92
411.40	138.09
411.59	112.35
411.78	88.94
411.98	140.43
412.17	107.66
412.36	154.48
412.55	105.32
412.74	121.71
412.93	170.86
413.12	88.94
413.31	114.69
413.50	163.84
413.69	131.07
413.88	112.35
414.07	189.58
414.26	184.90
414.45	124.05
414.64	156.82
414.83	152.13
415.02	154.48
415.22	102.98
415.41	149.79
415.60	102.98
415.79	133.41
415.98	175.54
416.17	163.84
416.36	121.71
416.55	67.88
416.74	110.01
416.93	196.60
417.12	149.79
417.31	180.22
417.50	168.52
417.69	189.58
417.88	119.37
418.07	98.30
418.26	189.58
418.45	121.71
418.64	142.77
418.83	145.11
419.02	133.41
419.21	119.37
419.39	126.39
419.58	72.56
419.77	142.77
419.96	173.20
420.15	236.39
420.34	126.39
420.53	147.45
420.72	182.56
420.91	166.18
421.10	215.33
421.29	168.52
421.48	138.09
421.67	138.09
421.86	147.45
422.05	107.66
422.24	198.95
422.43	117.03
422.61	156.82
422.80	140.43
422.99	166.18
423.18	112.35
423.37	173.20
423.56	212.99
423.75	170.86
423.94	81.92
424.13	168.52
424.32	147.45
424.50	133.41
424.69	138.09
424.88	133.41
425.07	170.86
425.26	184.90
425.45	98.30
425.64	159.16
425.83	131.07
426.01	135.75
426.20	102.98
426.39	63.19
426.58	154.48
426.77	117.03
426.96	210.65
427.15	114.69
427.33	88.94
427.52	168.52
427.71	168.52
427.90	187.24
428.09	234.05
428.28	119.37
428.46	187.24
428.65	117.03
428.84	182.56
429.03	217.67
429.22	133.41
429.40	72.56
429.59	67.88
429.78	241.08
429.97	124.05
430.16	142.77
430.34	102.98
430.53	84.26
430.72	114.69
430.91	138.09
431.10	177.88
431.28	152.13
431.47	191.92
431.66	170.86
431.85	65.54
432.03	152.13
432.22	161.50
432.41	117.03
432.60	220.01
432.79	156.82
432.97	149.79
433.16	152.13
433.35	105.32
433.54	184.90
433.72	194.26
433.91	180.22
434.10	145.11
434.28	147.45
434.47	152.13
434.66	138.09
434.85	117.03
435.03	264.48
435.22	599.18
435.41	966.64
435.59	1001.75
435.78	725.57
435.97	444.70
436.16	304.27
436.34	196.60
436.53	208.31
436.72	196.60
436.90	126.39
437.09	126.39
437.28	161.50
437.46	231.71
437.65	208.31
437.84	147.45
438.02	196.60
438.21	147.45
438.40	196.60
438.58	184.90
438.77	203.63
438.96	126.39
439.14	220.01
439.33	173.20
439.52	145.11
439.70	133.41
439.89	198.95
440.08	208.31
440.26	110.01
440.45	177.88
440.63	170.86
440.82	135.75
441.01	203.63
441.19	154.48
441.38	138.09
441.57	112.35
441.75	248.10
441.94	152.13
442.12	191.92
442.31	227.03
442.50	124.05
442.68	135.75
442.87	196.60
443.05	77.24
443.24	196.60
443.43	245.76
443.61	194.26
443.80	159.16
443.98	182.56
444.17	173.20
444.35	180.22
444.54	187.24
444.73	145.11
444.91	222.35
445.10	74.90
445.28	147.45
445.47	121.71
445.65	135.75
445.84	121.71
446.02	222.35
446.21	128.73
446.39	154.48
446.58	131.07
446.77	105.32
446.95	163.84
447.14	196.60
447.32	175.54
447.51	140.43
447.69	177.88
447.88	184.90
448.06	163.84
448.25	231.71
448.43	142.77
448.62	194.26
448.80	100.64
448.99	152.13
449.17	189.58
449.36	159.16
449.54	168.52
449.73	100.64
449.91	196.60
450.10	196.60
450.28	243.42
450.46	166.18
450.65	161.50
450.83	126.39
451.02	161.50
451.20	212.99
451.39	208.31
451.57	138.09
451.76	149.79
451.94	182.56
452.13	170.86
452.31	234.05
452.49	212.99
452.68	147.45
452.86	128.73
453.05	224.69
453.23	180.22
453.42	107.66
453.60	86.60
453.78	107.66
453.97	112.35
454.15	191.92
454.34	110.01
454.52	112.35
454.70	212.99
454.89	201.29
455.07	152.13
455.26	138.09
455.44	152.13
455.62	170.86
455.81	222.35
455.99	189.58
456.17	168.52
456.36	163.84
456.54	245.76
456.73	93.62
456.91	154.48
457.09	170.86
457.28	196.60
457.46	217.67
457.64	168.52
457.83	170.86
458.01	142.77
458.19	184.90
458.38	198.95
458.56	212.99
458.74	194.26
458.93	166.18
459.11	175.54
459.29	182.56
459.48	170.86
459.66	187.24
459.84	161.50
460.03	259.80
460.21	173.20
460.39	208.31
460.57	248.10
460.76	168.52
460.94	191.92
461.12	201.29
461.31	152.13
461.49	227.03
461.67	259.80
461.85	212.99
462.04	138.09
462.22	327.68
462.40	152.13
462.59	163.84
462.77	128.73
462.95	187.24
463.13	135.75
463.32	159.16
463.50	210.65
463.68	147.45
463.86	208.31
464.05	191.92
464.23	287.89
464.41	170.86
464.59	152.13
464.78	166.18
464.96	117.03
465.14	147.45
465.32	168.52
465.50	170.86
465.69	212.99
465.87	135.75
466.05	217.67
466.23	105.32
466.41	145.11
466.60	128.73
466.78	154.48
466.96	215.33
467.14	145.11
467.32	184.90
467.51	227.03
467.69	215.33
467.87	126.39
468.05	217.67
468.23	154.48
468.41	163.84
468.60	205.97
468.78	196.60
468.96	205.97
469.14	196.60
469.32	133.41
469.50	154.48
469.69	194.26
469.87	198.95
470.05	163.84
470.23	140.43
470.41	93.62
470.59	140.43
470.77	215.33
470.95	175.54
471.14	182.56
471.32	159.16
471.50	220.01
471.68	161.50
471.86	194.26
472.04	191.92
472.22	189.58
472.40	152.13
472.58	182.56
472.77	187.24
472.95	196.60
473.13	184.90
473.31	241.08
473.49	140.43
473.67	102.98
473.85	149.79
474.03	271.50
474.21	140.43
474.39	194.26
474.57	224.69
474.75	142.77
474.93	114.69
475.12	135.75
475.30	177.88
475.48	187.24
475.66	147.45
475.84	140.43
476.02	119.37
476.20	182.56
476.38	95.96
476.56	170.86
476.74	168.52
476.92	205.97
477.10	128.73
477.28	196.60
477.46	187.24
477.64	194.26
477.82	184.90
478.00	234.05
478.18	264.48
478.36	114.69
478.54	205.97
478.72	180.22
478.90	88.94
479.08	198.95
479.26	119.37
479.44	170.86
479.62	161.50
479.80	124.05
479.98	236.39
480.16	170.86
480.34	189.58
480.52	234.05
480.70	208.31
480.88	198.95
481.06	166.18
481.24	201.29
481.41	180.22
481.59	189.58
481.77	93.62
481.95	205.97
482.13	194.26
482.31	175.54
482.49	166.18
482.67	189.58
482.85	175.54
483.03	285.55
483.21	201.29
483.39	215.33
483.57	271.50
483.74	285.55
483.92	184.90
484.10	212.99
484.28	294.91
484.46	299.59
484.64	318.31
484.82	294.91
485.00	294.91
485.18	271.50
485.35	259.80
485.53	250.44
485.71	203.63
485.89	269.16
486.07	257.46
486.25	355.76
486.43	334.70
486.61	362.78
486.78	248.10
486.96	248.10
487.14	250.44
487.32	318.31
487.50	252.78
487.68	278.52
487.85	287.89
488.03	330.02
488.21	287.89
488.39	243.42
488.57	348.74
488.75	285.55
488.92	507.90
489.10	318.31
489.28	337.04
489.46	271.50
489.64	290.23
489.81	269.16
489.99	269.16
490.17	325.33
490.35	381.51
490.53	285.55
490.70	215.33
490.88	255.12
491.06	269.16
491.24	334.70
491.41	367.46
491.59	306.61
491.77	262.14
491.95	304.27
492.13	245.76
492.30	315.97
492.48	259.80
492.66	294.91
492.84	292.57
493.01	287.89
493.19	191.92
493.37	325.33
493.54	297.25
493.72	271.50
493.90	229.37
494.08	278.52
494.25	271.50
494.43	241.08
494.61	250.44
494.79	208.31
494.96	220.01
495.14	287.89
495.32	262.14
495.49	248.10
495.67	285.55
495.85	259.80
496.02	266.82
496.20	241.08
496.38	259.80
496.55	285.55
496.73	252.78
496.91	301.93
497.09	360.44
497.26	215.33
497.44	283.20
497.62	205.97
497.79	264.48
497.97	250.44
498.14	224.69
498.32	224.69
498.50	308.95
498.67	257.46
498.85	264.48
499.03	264.48
499.20	229.37
499.38	262.14
499.56	215.33
499.73	353.42
499.91	283.20
500.08	278.52
500.26	278.52
500.44	255.12
500.61	327.68
500.79	231.71
500.97	238.73
501.14	248.10
501.32	210.65
501.49	243.42
501.67	264.48
501.84	208.31
502.02	198.95
502.20	212.99
502.37	276.18
502.55	269.16
502.72	222.35
502.90	224.69
503.07	187.24
503.25	170.86
503.43	117.03
503.60	215.33
503.78	210.65
503.95	238.73
504.13	163.84
504.30	191.92
504.48	262.14
504.65	318.31
504.83	290.23
505.01	208.31
505.18	236.39
505.36	212.99
505.53	189.58
505.71	266.82
505.88	332.36
506.06	187.24
506.23	241.08
506.41	273.84
506.58	243.42
506.76	248.10
506.93	215.33
507.11	259.80
507.28	180.22
507.46	243.42
507.63	273.84
507.81	173.20
507.98	255.12
508.16	273.84
508.33	170.86
508.50	304.27
508.68	241.08
508.85	280.86
509.03	224.69
509.20	264.48
509.38	170.86
509.55	220.01
509.73	255.12
509.90	245.76
510.08	292.57
510.25	245.76
510.42	252.78
510.60	208.31
510.77	269.16
510.95	217.67
511.12	287.89
511.30	266.82
511.47	252.78
511.64	245.76
511.82	248.10
511.99	255.12
512.17	170.86
512.34	255.12
512.51	271.50
512.69	168.52
512.86	257.46
513.04	205.97
513.21	278.52
513.38	294.91
513.56	203.63
513.73	236.39
513.90	259.80
514.08	259.80
514.25	227.03
514.43	145.11
514.60	220.01
514.77	184.90
514.95	227.03
515.12	175.54
515.29	203.63
515.47	234.05
515.64	276.18
515.81	198.95
515.99	243.42
516.16	250.44
516.33	294.91
516.51	227.03
516.68	229.37
516.85	220.01
517.03	243.42
517.20	330.02
517.37	220.01
517.54	285.55
517.72	215.33
517.89	180.22
518.06	227.03
518.24	259.80
518.41	280.86
518.58	269.16
518.75	285.55
518.93	250.44
519.10	198.95
519.27	203.63
519.45	198.95
519.62	231.71
519.79	194.26
519.96	187.24
520.14	88.94
520.31	269.16
520.48	236.39
520.65	248.10
520.83	276.18
521.00	250.44
521.17	229.37
521.34	205.97
521.52	287.89
521.69	257.46
521.86	215.33
522.03	259.80
522.20	241.08
522.38	208.31
522.55	191.92
522.72	234.05
522.89	322.99
523.07	353.42
523.24	278.52
523.41	248.10
523.58	283.20
523.75	257.46
523.92	238.73
524.10	301.93
524.27	229.37
524.44	238.73
524.61	304.27
524.78	224.69
524.96	196.60
525.13	299.59
525.30	271.50
525.47	278.52
525.64	257.46
525.81	208.31
525.98	262.14
526.16	238.73
526.33	170.86
526.50	231.71
526.67	187.24
526.84	234.05
527.01	187.24
527.18	243.42
527.36	273.84
527.53	259.80
527.70	271.50
527.87	327.68
528.04	269.16
528.21	187.24
528.38	227.03
528.55	346.40
528.72	313.63
528.89	290.23
529.07	245.76
529.24	227.03
529.41	255.12
529.58	222.35
529.75	205.97
529.92	290.23
530.09	287.89
530.26	299.59
530.43	304.27
530.60	287.89
530.77	283.20
530.94	283.20
531.11	245.76
531.28	280.86
531.46	189.58
531.63	215.33
531.80	318.31
531.97	229.37
532.14	297.25
532.31	290.23
532.48	337.04
532.65	283.20
532.82	229.37
532.99	285.55
533.16	372.15
533.33	299.59
533.50	273.84
533.67	278.52
533.84	311.29
534.01	365.12
534.18	238.73
534.35	301.93
534.52	264.48
534.69	259.80
534.86	313.63
535.03	285.55
535.20	241.08
535.37	297.25
535.54	306.61
535.71	241.08
535.88	315.97
536.05	234.05
536.22	290.23
536.38	318.31
536.55	374.49
536.72	386.19
536.89	339.38
537.06	346.40
537.23	322.99
537.40	414.27
537.57	339.38
537.74	320.65
537.91	465.77
538.08	344.06
538.25	404.91
538.42	395.55
538.59	433.00
538.75	435.34
538.92	395.55
539.09	458.74
539.26	442.36
539.43	461.09
539.60	575.77
539.77	585.13
539.94	507.90
540.11	564.07
540.28	683.44
540.44	613.22
540.61	664.71
540.78	807.48
540.95	882.38
541.12	952.60
541.29	1036.86
541.46	1128.14
541.62	1116.44
541.79	1151.54
541.96	1086.01
542.13	1076.65
542.30	1046.22
542.47	1013.45
542.63	1029.84
542.80	1074.31
542.97	959.62
543.14	1032.18
543.31	1029.84
543.48	1046.22
543.64	1067.28
543.81	1071.97
543.98	1006.43
544.15	940.90
544.32	1029.84
544.48	964.30
544.65	978.34
544.82	978.34
544.99	814.51
545.16	919.83
545.32	947.92
545.49	1404.32
545.66	2314.79
545.83	2775.88
546.00	2366.28
546.16	1645.40
546.33	1256.87
546.50	1039.20
546.67	814.51
546.83	777.06
547.00	695.14
547.17	732.59
547.34	596.84
547.50	674.07
547.67	660.03
547.84	608.54
548.00	716.20
548.17	674.07
548.34	641.31
548.51	629.60
548.67	578.11
548.84	592.16
549.01	571.09
549.18	594.50
549.34	533.64
549.51	482.15
549.68	606.20
549.84	526.62
550.01	454.06
550.18	479.81
550.34	510.24
550.51	582.79
550.68	491.51
550.84	390.87
551.01	475.13
551.18	470.45
551.34	456.40
551.51	433.00
551.68	454.06
551.84	383.85
552.01	325.33
552.18	383.85
552.34	400.23
552.51	355.76
552.68	372.15
552.84	409.59
553.01	381.51
553.18	454.06
553.34	386.19
553.51	320.65
553.67	449.38
553.84	365.12
554.01	346.40
554.17	262.14
554.34	306.61
554.51	299.59
554.67	344.06
554.84	383.85
555.00	311.29
555.17	315.97
555.33	269.16
555.50	229.37
555.67	330.02
555.83	234.05
556.00	290.23
556.16	512.58
556.33	266.82
556.50	325.33
556.66	292.57
556.83	276.18
556.99	306.61
557.16	280.86
557.32	238.73
557.49	191.92
557.65	308.95
557.82	306.61
557.98	297.25
558.15	220.01
558.32	266.82
558.48	248.10
558.65	224.69
558.81	299.59
558.98	184.90
559.14	278.52
559.31	229.37
559.47	304.27
559.64	294.91
559.80	283.20
559.97	248.10
560.13	266.82
560.30	294.91
560.46	259.80
560.63	262.14
560.79	234.05
560.96	283.20
561.12	264.48
561.29	248.10
561.45	245.76
561.61	271.50
561.78	383.85
561.94	259.80
562.11	238.73
562.27	198.95
562.44	264.48
562.60	210.65
562.77	159.16
562.93	374.49
563.10	252.78
563.26	266.82
563.42	283.20
563.59	264.48
563.75	266.82
563.92	224.69
564.08	227.03
564.24	278.52
564.41	264.48
564.57	299.59
564.74	292.57
564.90	252.78
565.07	334.70
565.23	215.33
565.39	210.65
565.56	262.14
565.72	250.44
565.88	234.05
566.05	306.61
566.21	264.48
566.38	269.16
566.54	229.37
566.70	229.37
566.87	264.48
567.03	184.90
567.19	255.12
567.36	283.20
567.52	222.35
567.68	252.78
567.85	217.67
568.01	198.95
568.17	229.37
568.34	280.86
568.50	220.01
568.66	283.20
568.83	285.55
568.99	245.76
569.15	360.44
569.32	238.73
569.48	250.44
569.64	236.39
569.81	269.16
569.97	212.99
570.13	280.86
570.30	217.67
570.46	252.78
570.62	201.29
570.78	234.05
570.95	210.65
571.11	220.01
571.27	236.39
571.43	238.73
571.60	224.69
571.76	248.10
571.92	191.92
572.09	234.05
572.25	231.71
572.41	292.57
572.57	255.12
572.74	299.59
572.90	255.12
573.06	194.26
573.22	273.84
573.38	234.05
573.55	248.10
573.71	276.18
573.87	271.50
574.03	273.84
574.20	222.35
574.36	262.14
574.52	212.99
574.68	224.69
574.84	269.16
575.01	203.63
575.17	348.74
575.33	222.35
575.49	271.50
575.65	283.20
575.82	311.29
575.98	222.35
576.14	243.42
576.30	248.10
576.46	533.64
576.62	627.26
576.79	692.80
576.95	634.29
577.11	451.72
577.27	381.51
577.43	339.38
577.59	271.50
577.75	243.42
577.92	234.05
578.08	304.27
578.24	259.80
578.40	369.80
578.56	552.37
578.72	645.99
578.88	648.33
579.04	484.49
579.21	390.87
579.37	395.55
579.53	346.40
579.69	339.38
579.85	430.66
580.01	430.66
580.17	484.49
580.33	257.46
580.49	444.70
580.65	330.02
580.82	325.33
580.98	294.91
581.14	334.70
581.30	353.42
581.46	330.02
581.62	348.74
581.78	365.12
581.94	383.85
582.10	418.96
582.26	381.51
582.42	311.29
582.58	404.91
582.74	365.12
582.90	411.93
583.06	383.85
583.22	435.34
583.38	386.19
583.54	388.53
583.70	381.51
583.86	348.74
584.02	423.64
584.18	442.36
584.34	365.12
584.50	320.65
584.66	344.06
584.82	418.96
584.98	411.93
585.14	351.08
585.30	433.00
585.46	341.72
585.62	416.62
585.78	330.02
585.94	341.72
586.10	334.70
586.26	430.66
586.42	444.70
586.58	435.34
586.74	456.40
586.90	613.22
587.06	610.88
587.22	573.43
587.38	521.94
587.54	386.19
587.70	468.11
587.86	524.28
588.02	365.12
588.18	402.57
588.34	390.87
588.49	341.72
588.65	290.23
588.81	283.20
588.97	276.18
589.13	290.23
589.29	372.15
589.45	297.25
589.61	348.74
589.77	311.29
589.93	313.63
590.08	315.97
590.24	269.16
590.40	318.31
590.56	348.74
590.72	322.99
590.88	330.02
591.04	376.83
591.20	304.27
591.35	313.63
591.51	299.59
591.67	297.25
591.83	327.68
591.99	451.72
592.15	404.91
592.31	400.23
592.46	362.78
592.62	337.04
592.78	414.27
592.94	416.62
593.10	421.30
593.26	400.23
593.41	414.27
593.57	367.46
593.73	337.04
593.89	330.02
594.05	367.46
594.20	301.93
594.36	315.97
594.52	255.12
594.68	299.59
594.84	372.15
594.99	243.42
595.15	308.95
595.31	271.50
595.47	376.83
595.62	273.84
595.78	283.20
595.94	257.46
596.10	322.99
596.25	241.08
596.41	330.02
596.57	322.99
596.73	280.86
596.88	280.86
597.04	276.18
597.20	292.57
597.36	290.23
597.51	290.23
597.67	327.68
597.83	308.95
597.99	271.50
598.14	311.29
598.30	327.68
598.46	304.27
598.61	365.12
598.77	339.38
598.93	362.78
599.09	311.29
599.24	353.42
599.40	386.19
599.56	264.48
599.71	315.97
599.87	367.46
600.03	409.59
600.18	290.23
600.34	344.06
600.50	236.39
600.65	273.84
600.81	332.36
600.97	280.86
601.12	320.65
601.28	390.87
601.44	259.80
601.59	259.80
601.75	220.01
601.91	276.18
602.06	283.20
602.22	353.42
602.37	215.33
602.53	238.73
602.69	262.14
602.84	266.82
603.00	264.48
603.16	327.68
603.31	367.46
603.47	264.48
603.62	252.78
603.78	327.68
603.94	273.84
604.09	318.31
604.25	278.52
604.40	243.42
604.56	266.82
604.71	304.27
604.87	250.44
605.03	262.14
605.18	210.65
605.34	322.99
605.49	318.31
605.65	212.99
605.80	234.05
605.96	245.76
606.12	271.50
606.27	372.15
606.43	241.08
606.58	285.55
606.74	276.18
606.89	313.63
607.05	315.97
607.20	348.74
607.36	271.50
607.51	308.95
607.67	283.20
607.82	285.55
607.98	404.91
608.13	360.44
608.29	414.27
608.44	425.98
608.60	383.85
608.75	444.70
608.91	456.40
609.06	407.25
609.22	493.85
609.37	456.40
609.53	514.92
609.68	617.90
609.84	552.37
609.99	660.03
610.15	940.90
610.30	910.47
610.46	1198.35
610.61	1619.65
610.76	1839.66
610.92	2305.43
611.07	2401.39
611.23	2576.93
611.38	2321.81
