SpectraSuite Data File
++++++++++++++++++++++++++++++++++++
Date: Fri Oct 04 11:41:56 GMT-05:00 2013
User: price-jones
Dark Spectrum Present: No
Reference Spectrum Present: No
Number of Sampled Component Spectra: 1
Spectrometers: USB2+H05261
Integration Time (usec): 100000 (USB2+H05261)
Spectra Averaged: 1 (USB2+H05261)
Boxcar Smoothing: 0 (USB2+H05261)
Correct for Electrical Dark: No (USB2+H05261)
Strobe/Lamp Enabled: No (USB2+H05261)
Correct for Detector Non-linearity: No (USB2+H05261)
Correct for Stray Light: No (USB2+H05261)
Number of Pixels in Processed Spectrum: 2048
>>>>>Begin Processed Spectral Data<<<<<
365.73	28.09
365.92	28.09
366.12	28.09
366.32	0.00
366.52	0.00
366.72	0.00
366.91	0.00
367.11	0.00
367.31	0.00
367.51	0.00
367.70	0.00
367.90	0.00
368.10	0.00
368.30	0.00
368.49	0.00
368.69	0.00
368.89	0.00
369.09	0.00
369.28	35.11
369.48	0.00
369.68	0.00
369.87	0.00
370.07	0.00
370.27	0.00
370.47	56.17
370.66	7.02
370.86	86.60
371.06	56.17
371.25	102.98
371.45	53.83
371.65	98.30
371.84	86.60
372.04	9.36
372.24	91.28
372.44	126.39
372.63	67.88
372.83	175.54
373.03	93.62
373.22	112.35
373.42	133.41
373.62	88.94
373.81	63.19
374.01	145.11
374.21	201.29
374.40	133.41
374.60	238.73
374.79	154.48
374.99	152.13
375.19	121.71
375.38	91.28
375.58	180.22
375.78	198.95
375.97	138.09
376.17	138.09
376.37	184.90
376.56	142.77
376.76	49.15
376.95	170.86
377.15	154.48
377.35	168.52
377.54	114.69
377.74	133.41
377.93	32.77
378.13	131.07
378.33	196.60
378.52	107.66
378.72	173.20
378.91	194.26
379.11	124.05
379.31	51.49
379.50	142.77
379.70	182.56
379.89	222.35
380.09	63.19
380.28	81.92
380.48	212.99
380.68	23.41
380.87	131.07
381.07	79.58
381.26	140.43
381.46	187.24
381.65	67.88
381.85	128.73
382.04	128.73
382.24	161.50
382.43	173.20
382.63	67.88
382.83	110.01
383.02	168.52
383.22	170.86
383.41	133.41
383.61	86.60
383.80	215.33
384.00	138.09
384.19	121.71
384.39	180.22
384.58	117.03
384.78	140.43
384.97	117.03
385.17	182.56
385.36	177.88
385.56	182.56
385.75	187.24
385.95	140.43
386.14	140.43
386.34	147.45
386.53	119.37
386.72	147.45
386.92	208.31
387.11	70.22
387.31	119.37
387.50	79.58
387.70	60.85
387.89	159.16
388.09	156.82
388.28	72.56
388.48	100.64
388.67	98.30
388.86	77.24
389.06	79.58
389.25	91.28
389.45	81.92
389.64	177.88
389.84	98.30
390.03	88.94
390.22	205.97
390.42	180.22
390.61	105.32
390.81	121.71
391.00	102.98
391.19	184.90
391.39	133.41
391.58	65.54
391.78	112.35
391.97	100.64
392.16	189.58
392.36	177.88
392.55	175.54
392.75	100.64
392.94	128.73
393.13	194.26
393.33	238.73
393.52	56.17
393.71	163.84
393.91	114.69
394.10	170.86
394.29	88.94
394.49	119.37
394.68	88.94
394.88	170.86
395.07	191.92
395.26	98.30
395.46	100.64
395.65	194.26
395.84	161.50
396.04	248.10
396.23	77.24
396.42	166.18
396.62	159.16
396.81	140.43
397.00	173.20
397.19	91.28
397.39	133.41
397.58	184.90
397.77	161.50
397.97	173.20
398.16	145.11
398.35	135.75
398.55	133.41
398.74	170.86
398.93	131.07
399.12	93.62
399.32	166.18
399.51	180.22
399.70	212.99
399.90	114.69
400.09	220.01
400.28	177.88
400.47	107.66
400.67	189.58
400.86	159.16
401.05	175.54
401.24	222.35
401.44	156.82
401.63	166.18
401.82	182.56
402.01	180.22
402.21	201.29
402.40	234.05
402.59	149.79
402.78	175.54
402.97	217.67
403.17	215.33
403.36	304.27
403.55	355.76
403.74	800.46
403.93	2277.34
404.13	5722.61
404.32	9956.64
404.51	11066.05
404.70	7087.14
404.89	2544.16
405.09	645.99
405.28	379.17
405.47	210.65
405.66	259.80
405.85	243.42
406.05	236.39
406.24	236.39
406.43	210.65
406.62	229.37
406.81	292.57
407.00	388.53
407.20	739.61
407.39	1165.59
407.58	1540.07
407.77	1193.67
407.96	561.73
408.15	353.42
408.34	205.97
408.54	194.26
408.73	278.52
408.92	255.12
409.11	210.65
409.30	236.39
409.49	175.54
409.68	117.03
409.87	234.05
410.07	238.73
410.26	212.99
410.45	191.92
410.64	182.56
410.83	266.82
411.02	236.39
411.21	229.37
411.40	276.18
411.59	175.54
411.78	304.27
411.98	177.88
412.17	264.48
412.36	196.60
412.55	259.80
412.74	266.82
412.93	208.31
413.12	203.63
413.31	236.39
413.50	283.20
413.69	276.18
413.88	283.20
414.07	304.27
414.26	304.27
414.45	245.76
414.64	308.95
414.83	280.86
415.02	252.78
415.22	369.80
415.41	348.74
415.60	243.42
415.79	304.27
415.98	294.91
416.17	308.95
416.36	266.82
416.55	280.86
416.74	243.42
416.93	294.91
417.12	383.85
417.31	362.78
417.50	227.03
417.69	433.00
417.88	306.61
418.07	337.04
418.26	264.48
418.45	341.72
418.64	339.38
418.83	332.36
419.02	379.17
419.21	330.02
419.39	351.08
419.58	269.16
419.77	269.16
419.96	362.78
420.15	367.46
420.34	346.40
420.53	290.23
420.72	388.53
420.91	355.76
421.10	346.40
421.29	348.74
421.48	320.65
421.67	360.44
421.86	334.70
422.05	271.50
422.24	376.83
422.43	355.76
422.61	327.68
422.80	395.55
422.99	428.32
423.18	339.38
423.37	325.33
423.56	379.17
423.75	330.02
423.94	337.04
424.13	273.84
424.32	409.59
424.50	425.98
424.69	348.74
424.88	442.36
425.07	386.19
425.26	374.49
425.45	332.36
425.64	376.83
425.83	348.74
426.01	449.38
426.20	407.25
426.39	369.80
426.58	367.46
426.77	414.27
426.96	423.64
427.15	407.25
427.33	435.34
427.52	423.64
427.71	395.55
427.90	402.57
428.09	475.13
428.28	402.57
428.46	383.85
428.65	418.96
428.84	489.17
429.03	550.03
429.22	477.47
429.40	472.79
429.59	362.78
429.78	472.79
429.97	421.30
430.16	435.34
430.34	430.66
430.53	475.13
430.72	477.47
430.91	449.38
431.10	454.06
431.28	510.24
431.47	554.71
431.66	505.56
431.85	589.82
432.03	566.41
432.22	655.35
432.41	550.03
432.60	575.77
432.79	582.79
432.97	638.97
433.16	674.07
433.35	669.39
433.54	777.06
433.72	873.02
433.91	849.61
434.10	978.34
434.28	1107.07
434.47	1296.66
434.66	1523.69
434.85	1696.89
435.03	3796.35
435.22	14150.88
435.41	35639.34
435.59	50291.09
435.78	41490.68
435.97	17886.37
436.16	6637.76
436.34	2083.08
436.53	1210.06
436.72	936.21
436.90	842.59
437.09	770.04
437.28	720.88
437.46	716.20
437.65	643.65
437.84	685.78
438.02	711.52
438.21	601.52
438.40	615.56
438.58	671.73
438.77	582.79
438.96	610.88
439.14	538.32
439.33	645.99
439.52	615.56
439.70	528.96
439.89	613.22
440.08	568.75
440.26	615.56
440.45	674.07
440.63	594.50
440.82	681.10
441.01	582.79
441.19	514.92
441.38	564.07
441.57	603.86
441.75	662.37
441.94	631.94
442.12	671.73
442.31	596.84
442.50	582.79
442.68	592.16
442.87	545.34
443.05	664.71
443.24	636.63
443.43	601.52
443.61	627.26
443.80	629.60
443.98	643.65
444.17	599.18
444.35	636.63
444.54	599.18
444.73	587.47
444.91	613.22
445.10	627.26
445.28	566.41
445.47	699.82
445.65	634.29
445.84	557.05
446.02	615.56
446.21	578.11
446.39	678.76
446.58	620.24
446.77	629.60
446.95	564.07
447.14	610.88
447.32	734.93
447.51	557.05
447.69	559.39
447.88	624.92
448.06	582.79
448.25	538.32
448.43	643.65
448.62	557.05
448.80	634.29
448.99	674.07
449.17	568.75
449.36	608.54
449.54	596.84
449.73	594.50
449.91	552.37
450.10	557.05
450.28	650.67
450.46	688.12
450.65	594.50
450.83	641.31
451.02	636.63
451.20	643.65
451.39	601.52
451.57	631.94
451.76	592.16
451.94	603.86
452.13	718.54
452.31	629.60
452.49	545.34
452.68	617.90
452.86	601.52
453.05	627.26
453.23	573.43
453.42	561.73
453.60	575.77
453.78	620.24
453.97	594.50
454.15	510.24
454.34	645.99
454.52	533.64
454.70	510.24
454.89	627.26
455.07	641.31
455.26	594.50
455.44	594.50
455.62	610.88
455.81	575.77
455.99	638.97
456.17	608.54
456.36	571.09
456.54	641.31
456.73	671.73
456.91	627.26
457.09	634.29
457.28	657.69
457.46	645.99
457.64	664.71
457.83	564.07
458.01	603.86
458.19	533.64
458.38	627.26
458.56	564.07
458.74	594.50
458.93	603.86
459.11	643.65
459.29	589.82
459.48	622.58
459.66	636.63
459.84	610.88
460.03	622.58
460.21	575.77
460.39	601.52
460.57	550.03
460.76	496.19
460.94	566.41
461.12	603.86
461.31	550.03
461.49	615.56
461.67	526.62
461.85	608.54
462.04	573.43
462.22	985.37
462.40	653.01
462.59	620.24
462.77	573.43
462.95	580.45
463.13	613.22
463.32	594.50
463.50	543.00
463.68	510.24
463.86	531.30
464.05	531.30
464.23	622.58
464.41	596.84
464.59	543.00
464.78	552.37
464.96	585.13
465.14	603.86
465.32	578.11
465.50	535.98
465.69	617.90
465.87	470.45
466.05	545.34
466.23	561.73
466.41	601.52
466.60	603.86
466.78	695.14
466.96	606.20
467.14	592.16
467.32	603.86
467.51	608.54
467.69	533.64
467.87	578.11
468.05	498.53
468.23	498.53
468.41	557.05
468.60	561.73
468.78	510.24
468.96	535.98
469.14	543.00
469.32	440.02
469.50	521.94
469.69	540.66
469.87	535.98
470.05	587.47
470.23	486.83
470.41	547.69
470.59	503.22
470.77	554.71
470.95	533.64
471.14	573.43
471.32	540.66
471.50	568.75
471.68	468.11
471.86	573.43
472.04	505.56
472.22	568.75
472.40	531.30
472.58	554.71
472.77	582.79
472.95	547.69
473.13	653.01
473.31	657.69
473.49	517.26
473.67	608.54
473.85	627.26
474.03	564.07
474.21	543.00
474.39	601.52
474.57	512.58
474.75	535.98
474.93	510.24
475.12	552.37
475.30	507.90
475.48	566.41
475.66	491.51
475.84	531.30
476.02	512.58
476.20	533.64
476.38	554.71
476.56	596.84
476.74	573.43
476.92	617.90
477.10	561.73
477.28	624.92
477.46	582.79
477.64	575.77
477.82	622.58
478.00	592.16
478.18	617.90
478.36	610.88
478.54	617.90
478.72	575.77
478.90	617.90
479.08	676.41
479.26	741.95
479.44	727.91
479.62	767.70
479.80	828.55
479.98	760.67
480.16	758.33
480.34	812.17
480.52	816.85
480.70	828.55
480.88	917.49
481.06	940.90
481.24	1008.77
481.41	1083.67
481.59	1146.86
481.77	1249.85
481.95	1306.02
482.13	1387.94
482.31	1488.58
482.49	1448.79
482.67	1596.25
482.85	1720.29
483.03	1732.00
483.21	1994.14
483.39	2104.14
483.57	2263.30
483.74	2375.64
483.92	2516.08
484.10	2630.76
484.28	2785.24
484.46	3019.29
484.64	3166.74
484.82	3286.11
485.00	3480.38
485.18	3709.75
485.35	3878.27
485.53	4138.07
485.71	4196.58
485.89	4404.89
486.07	4454.04
486.25	4599.15
486.43	4587.45
486.61	4770.01
486.78	4683.41
486.96	4699.80
487.14	4690.43
487.32	4573.41
487.50	4493.83
487.68	4468.08
487.85	4482.13
488.03	4526.60
488.21	4580.43
488.39	4318.29
488.57	4072.53
488.75	4056.15
488.92	4224.67
489.10	4018.70
489.28	3913.38
489.46	3829.12
489.64	3691.02
489.81	3662.94
489.99	3658.26
490.17	3569.32
490.35	3728.47
490.53	3550.59
490.70	3417.18
490.88	3466.33
491.06	3630.17
491.24	3768.26
491.41	4065.51
491.59	3733.15
491.77	3447.61
491.95	3412.50
492.13	3300.16
492.30	3119.93
492.48	3070.78
492.66	3066.10
492.84	2956.10
493.01	3066.10
493.19	2899.92
493.37	2993.55
493.54	2885.88
493.72	2841.41
493.90	2614.38
494.08	2794.60
494.25	2801.62
494.43	2799.28
494.61	2750.13
494.79	2637.78
494.96	2518.42
495.14	2576.93
495.32	2530.12
495.49	2399.05
495.67	2338.20
495.85	2300.75
496.02	2260.96
496.20	2326.49
496.38	2279.68
496.55	2181.38
496.73	2153.29
496.91	2097.12
497.09	2153.29
497.26	2200.10
497.44	2045.63
497.62	2043.29
497.79	1996.48
497.97	1952.01
498.14	1832.64
498.32	1865.41
498.50	1867.75
498.67	1776.47
498.85	1671.14
499.03	1673.48
499.20	1563.48
499.38	1563.48
499.56	1547.09
499.73	1638.38
499.91	1549.43
500.08	1521.35
500.26	1458.15
500.44	1327.08
500.61	1284.95
500.79	1308.36
500.97	1268.57
501.14	1226.44
501.32	1177.29
501.49	1184.31
501.67	1130.48
501.84	1139.84
502.02	1022.81
502.20	1011.11
502.37	1062.60
502.55	1043.88
502.72	968.98
502.90	938.55
503.07	840.25
503.25	875.36
503.43	805.14
503.60	833.23
503.78	840.25
503.95	819.19
504.13	777.06
504.30	767.70
504.48	814.51
504.65	784.08
504.83	835.57
505.01	793.44
505.18	723.23
505.36	713.86
505.53	695.14
505.71	704.50
505.88	779.40
506.06	727.91
506.23	678.76
506.41	660.03
506.58	725.57
506.76	641.31
506.93	641.31
507.11	657.69
507.28	624.92
507.46	617.90
507.63	538.32
507.81	519.60
507.98	564.07
508.16	573.43
508.33	585.13
508.50	517.26
508.68	662.37
508.85	608.54
509.03	636.63
509.20	650.67
509.38	653.01
509.55	596.84
509.73	653.01
509.90	650.67
510.08	601.52
510.25	641.31
510.42	505.56
510.60	648.33
510.77	566.41
510.95	526.62
511.12	589.82
511.30	510.24
511.47	571.09
511.64	519.60
511.82	552.37
511.99	559.39
512.17	489.17
512.34	510.24
512.51	531.30
512.69	543.00
512.86	622.58
513.04	517.26
513.21	594.50
513.38	543.00
513.56	451.72
513.73	531.30
513.90	489.17
514.08	486.83
514.25	514.92
514.43	454.06
514.60	425.98
514.77	468.11
514.95	428.32
515.12	496.19
515.29	458.74
515.47	526.62
515.64	477.47
515.81	433.00
515.99	486.83
516.16	498.53
516.33	479.81
516.51	491.51
516.68	463.43
516.85	512.58
517.03	397.89
517.20	388.53
517.37	512.58
517.54	458.74
517.72	393.21
517.89	393.21
518.06	397.89
518.24	503.22
518.41	510.24
518.58	486.83
518.75	383.85
518.93	381.51
519.10	425.98
519.27	489.17
519.45	395.55
519.62	407.25
519.79	393.21
519.96	425.98
520.14	402.57
520.31	437.68
520.48	355.76
520.65	428.32
520.83	468.11
521.00	425.98
521.17	353.42
521.34	374.49
521.52	407.25
521.69	454.06
521.86	498.53
522.03	454.06
522.20	409.59
522.38	337.04
522.55	479.81
522.72	390.87
522.89	423.64
523.07	498.53
523.24	428.32
523.41	433.00
523.58	360.44
523.75	418.96
523.92	390.87
524.10	395.55
524.27	379.17
524.44	404.91
524.61	524.28
524.78	479.81
524.96	454.06
525.13	428.32
525.30	468.11
525.47	491.51
525.64	451.72
525.81	482.15
525.98	463.43
526.16	512.58
526.33	514.92
526.50	486.83
526.67	491.51
526.84	594.50
527.01	491.51
527.18	568.75
527.36	587.47
527.53	697.48
527.70	669.39
527.87	573.43
528.04	547.69
528.21	554.71
528.38	648.33
528.55	568.75
528.72	610.88
528.89	608.54
529.07	568.75
529.24	594.50
529.41	568.75
529.58	561.73
529.75	634.29
529.92	608.54
530.09	629.60
530.26	685.78
530.43	589.82
530.60	634.29
530.77	706.84
530.94	638.97
531.11	676.41
531.28	636.63
531.46	793.44
531.63	800.46
531.80	936.21
531.97	866.00
532.14	999.41
532.31	1121.12
532.48	1479.22
532.65	1748.38
532.82	1905.20
532.99	2253.94
533.16	2520.76
533.33	2925.67
533.50	2593.31
533.67	2127.55
533.84	1877.11
534.01	1701.57
534.18	1617.31
534.35	1638.38
534.52	1544.75
534.69	1540.07
534.86	1607.95
535.03	1664.12
535.20	1720.29
535.37	1923.92
535.54	1912.22
535.71	1991.80
535.88	2148.61
536.05	2286.70
536.22	2466.92
536.38	2633.10
536.55	2909.29
536.72	3438.25
536.89	3669.96
537.06	4201.26
537.23	4634.26
537.40	4980.66
537.57	5383.23
537.74	5844.32
537.91	5947.30
538.08	6223.48
538.25	6333.49
538.42	6293.70
538.59	6555.84
538.75	6532.44
538.92	6967.77
539.09	7824.41
539.26	8332.31
539.43	9547.05
539.60	11007.54
539.77	12444.63
539.94	13877.04
540.11	15276.68
540.28	16713.77
540.44	18478.53
540.61	20196.48
540.78	23466.21
540.95	27885.14
541.12	34120.33
541.29	38845.87
541.46	41478.97
541.62	40517.01
541.79	38632.88
541.96	36210.43
542.13	33900.32
542.30	31166.57
542.47	29722.46
542.63	28264.31
542.80	27412.35
542.97	26504.23
543.14	26476.14
543.31	26316.98
543.48	26647.00
543.64	26726.58
543.81	26843.60
543.98	26937.23
544.15	27793.86
544.32	28009.19
544.48	28320.48
544.65	27505.98
544.82	27157.24
544.99	26663.38
545.16	27711.94
545.32	28336.87
545.49	40957.03
545.66	60472.42
545.83	65535.00
546.00	65535.00
546.16	63522.14
546.33	47124.35
546.50	36273.62
546.67	28077.07
546.83	25165.44
547.00	23524.72
547.17	22537.02
547.34	21951.88
547.50	20746.51
547.67	19983.49
547.84	19772.85
548.00	18834.29
548.17	17884.03
548.34	17275.49
548.51	16620.14
548.67	15793.94
548.84	14813.25
549.01	14040.87
549.18	13664.05
549.34	12973.59
549.51	12241.00
549.68	12053.76
549.84	11562.25
550.01	10972.43
550.18	10567.52
550.34	10024.51
550.51	9483.85
550.68	9259.16
550.84	8643.60
551.01	8112.30
551.18	7566.95
551.34	7353.96
551.51	6984.16
551.68	6782.87
551.84	6525.41
552.01	6314.77
552.18	5914.53
552.34	5708.57
552.51	5434.72
552.68	5200.67
552.84	5053.22
553.01	4851.93
553.18	4833.21
553.34	4622.56
553.51	4390.84
553.67	4339.35
553.84	4224.67
554.01	3859.54
554.17	3735.50
554.34	3445.27
554.51	3307.18
554.67	3005.25
554.84	2904.60
555.00	2700.98
555.17	2534.80
555.33	2303.09
555.50	2265.64
555.67	2174.36
555.83	2111.16
556.00	1996.48
556.16	2073.71
556.33	1813.92
556.50	1898.17
556.66	1666.46
556.83	1668.80
556.99	1692.21
557.16	1659.44
557.32	1537.73
557.49	1530.71
557.65	1589.22
557.82	1420.71
557.98	1490.92
558.15	1329.42
558.32	1439.43
558.48	1327.08
558.65	1266.23
558.81	1324.74
558.98	1313.04
559.14	1256.87
559.31	1184.31
559.47	1170.27
559.64	1146.86
559.80	1196.01
559.97	1128.14
560.13	1111.75
560.30	1081.33
560.46	1081.33
560.63	1125.80
560.79	1093.03
560.96	1095.37
561.12	1097.71
561.29	1041.54
561.45	1074.31
561.61	1139.84
561.78	1153.88
561.94	1139.84
562.11	971.32
562.27	1057.92
562.44	976.00
562.60	950.26
562.77	992.39
562.93	1029.84
563.10	1011.11
563.26	933.87
563.42	957.28
563.59	950.26
563.75	980.68
563.92	833.23
564.08	786.42
564.24	957.28
564.41	912.81
564.57	791.10
564.74	889.40
564.90	926.85
565.07	812.17
565.23	891.74
565.39	746.63
565.56	835.57
565.72	802.80
565.88	819.19
566.05	774.72
566.21	784.08
566.38	739.61
566.54	835.57
566.70	802.80
566.87	798.12
567.03	816.85
567.19	870.68
567.36	826.21
567.52	842.59
567.68	779.40
567.85	814.51
568.01	826.21
568.17	800.46
568.34	887.06
568.50	837.91
568.66	835.57
568.83	924.51
568.99	835.57
569.15	777.06
569.32	800.46
569.48	753.65
569.64	641.31
569.81	674.07
569.97	739.61
570.13	627.26
570.30	566.41
570.46	582.79
570.62	655.35
570.78	692.80
570.95	667.05
571.11	706.84
571.27	594.50
571.43	603.86
571.60	603.86
571.76	540.66
571.92	561.73
572.09	601.52
572.25	636.63
572.41	601.52
572.57	589.82
572.74	587.47
572.90	608.54
573.06	587.47
573.22	620.24
573.38	699.82
573.55	671.73
573.71	739.61
573.87	638.97
574.03	638.97
574.20	709.18
574.36	699.82
574.52	734.93
574.68	791.10
574.84	767.70
575.01	784.08
575.17	840.25
575.33	912.81
575.49	985.37
575.65	1100.05
575.82	1142.18
575.98	1207.72
576.14	1327.08
576.30	2490.33
576.46	7424.18
576.62	15452.22
576.79	23726.01
576.95	16561.63
577.11	9509.60
577.27	6230.51
577.43	4156.79
577.59	2747.79
577.75	2099.46
577.92	1959.03
578.08	1900.52
578.24	1909.88
578.40	2733.75
578.56	7016.93
578.72	14527.71
578.88	22735.96
579.04	15728.40
579.21	9252.14
579.37	6469.24
579.53	5029.81
579.69	4526.60
579.85	5678.14
580.01	7173.74
580.17	7138.63
580.33	6225.82
580.49	5001.72
580.65	4425.95
580.82	3974.23
580.98	3943.80
581.14	3974.23
581.30	4224.67
581.46	4351.06
581.62	4713.84
581.78	5156.20
581.94	5633.67
582.10	5942.62
582.26	6286.68
582.42	6478.60
582.58	6731.38
582.74	6604.99
582.90	6991.18
583.06	6906.92
583.22	6841.39
583.38	6932.67
583.54	6843.73
583.70	6876.49
583.86	6857.77
584.02	6546.48
584.18	6583.93
584.34	6527.75
584.50	6321.79
584.66	6118.16
584.82	6239.87
584.98	6136.88
585.14	5973.05
585.30	5708.57
585.46	5696.86
585.62	5399.62
585.78	5605.58
585.94	5561.11
586.10	5860.70
586.26	6153.27
586.42	6572.22
586.58	7840.79
586.74	9628.96
586.90	12046.74
587.06	13776.39
587.22	13886.40
587.38	12477.40
587.54	10719.65
587.70	8725.52
587.86	7569.29
588.02	6331.15
588.18	5701.54
588.34	5039.17
588.49	4575.75
588.65	4292.54
588.81	3981.25
588.97	3901.67
589.13	3838.48
589.29	3782.31
589.45	3786.99
589.61	3700.39
589.77	3667.62
589.93	3775.28
590.08	3929.76
590.24	4088.92
590.40	4252.75
590.56	4292.54
590.72	4346.37
590.88	4535.96
591.04	4482.13
591.20	4865.97
591.35	4983.00
591.51	5067.26
591.67	5397.28
591.83	5884.11
591.99	6155.61
592.15	6731.38
592.31	7466.31
592.46	8131.02
592.62	8784.03
592.78	9394.91
592.94	9738.97
593.10	9715.56
593.26	9266.18
593.41	8713.81
593.57	7590.36
593.73	6853.09
593.89	6047.94
594.05	5362.17
594.20	4809.80
594.36	4390.84
594.52	4107.64
594.68	3866.56
594.84	3728.47
594.99	3616.13
595.15	3375.05
595.31	3407.82
595.47	3449.95
595.62	3386.76
595.78	3447.61
595.94	3386.76
596.10	3449.95
596.25	3496.76
596.41	3398.46
596.57	3382.07
596.73	3344.63
596.88	3335.26
597.04	3463.99
597.20	3571.66
597.36	3517.83
597.51	3581.02
597.67	3660.60
597.83	3906.35
597.99	4255.09
598.14	4308.93
598.30	4507.87
598.46	4652.98
598.61	5100.03
598.77	5214.71
598.93	5554.09
599.09	5841.98
599.24	5968.37
599.40	5851.34
599.56	5540.05
599.71	5373.87
599.87	5142.16
600.03	4910.44
600.18	4538.30
600.34	4138.07
600.50	3899.33
600.65	3730.81
600.81	3447.61
600.97	3183.13
601.12	3007.59
601.28	2850.77
601.44	2801.62
601.59	2663.53
601.75	2551.18
601.91	2471.61
602.06	2340.54
602.22	2293.72
602.37	2230.53
602.53	2249.25
602.69	2228.19
602.84	2148.61
603.00	2211.81
603.16	2312.45
603.31	2317.13
603.47	2267.98
603.62	2214.15
603.78	2389.69
603.94	2392.03
604.09	2331.17
604.25	2532.46
604.40	2523.10
604.56	2551.18
