SpectraSuite Data File
++++++++++++++++++++++++++++++++++++
Date: Fri Oct 04 11:41:40 GMT-05:00 2013
User: price-jones
Dark Spectrum Present: No
Reference Spectrum Present: No
Number of Sampled Component Spectra: 1
Spectrometers: USB2+H05261
Integration Time (usec): 100000 (USB2+H05261)
Spectra Averaged: 1 (USB2+H05261)
Boxcar Smoothing: 0 (USB2+H05261)
Correct for Electrical Dark: No (USB2+H05261)
Strobe/Lamp Enabled: No (USB2+H05261)
Correct for Detector Non-linearity: No (USB2+H05261)
Correct for Stray Light: No (USB2+H05261)
Number of Pixels in Processed Spectrum: 2048
>>>>>Begin Processed Spectral Data<<<<<
365.73	14.04
365.92	14.04
366.12	14.04
366.32	18.72
366.52	0.00
366.72	0.00
366.91	0.00
367.11	0.00
367.31	0.00
367.51	0.00
367.70	0.00
367.90	0.00
368.10	0.00
368.30	0.00
368.49	0.00
368.69	16.38
368.89	0.00
369.09	9.36
369.28	0.00
369.48	0.00
369.68	0.00
369.87	0.00
370.07	23.41
370.27	86.60
370.47	56.17
370.66	37.45
370.86	37.45
371.06	126.39
371.25	175.54
371.45	42.13
371.65	70.22
371.84	95.96
372.04	32.77
372.24	110.01
372.44	98.30
372.63	191.92
372.83	184.90
373.03	128.73
373.22	138.09
373.42	114.69
373.62	147.45
373.81	163.84
374.01	187.24
374.21	119.37
374.40	117.03
374.60	149.79
374.79	100.64
374.99	166.18
375.19	154.48
375.38	175.54
375.58	163.84
375.78	154.48
375.97	138.09
376.17	234.05
376.37	182.56
376.56	126.39
376.76	203.63
376.95	231.71
377.15	182.56
377.35	156.82
377.54	205.97
377.74	117.03
377.93	138.09
378.13	306.61
378.33	166.18
378.52	100.64
378.72	112.35
378.91	156.82
379.11	156.82
379.31	194.26
379.50	114.69
379.70	152.13
379.89	175.54
380.09	156.82
380.28	72.56
380.48	140.43
380.68	112.35
380.87	166.18
381.07	189.58
381.26	224.69
381.46	220.01
381.65	145.11
381.85	159.16
382.04	124.05
382.24	229.37
382.43	124.05
382.63	91.28
382.83	173.20
383.02	191.92
383.22	140.43
383.41	110.01
383.61	175.54
383.80	112.35
384.00	152.13
384.19	142.77
384.39	166.18
384.58	114.69
384.78	98.30
384.97	133.41
385.17	159.16
385.36	154.48
385.56	124.05
385.75	102.98
385.95	175.54
386.14	220.01
386.34	124.05
386.53	145.11
386.72	140.43
386.92	194.26
387.11	201.29
387.31	175.54
387.50	117.03
387.70	117.03
387.89	177.88
388.09	98.30
388.28	182.56
388.48	208.31
388.67	161.50
388.86	203.63
389.06	161.50
389.25	168.52
389.45	135.75
389.64	196.60
389.84	201.29
390.03	194.26
390.22	159.16
390.42	243.42
390.61	100.64
390.81	220.01
391.00	173.20
391.19	224.69
391.39	205.97
391.58	234.05
391.78	147.45
391.97	212.99
392.16	126.39
392.36	238.73
392.55	152.13
392.75	154.48
392.94	163.84
393.13	175.54
393.33	189.58
393.52	131.07
393.71	222.35
393.91	224.69
394.10	182.56
394.29	170.86
394.49	231.71
394.68	175.54
394.88	217.67
395.07	191.92
395.26	224.69
395.46	196.60
395.65	184.90
395.84	166.18
396.04	245.76
396.23	117.03
396.42	110.01
396.62	180.22
396.81	173.20
397.00	194.26
397.19	220.01
397.39	259.80
397.58	208.31
397.77	182.56
397.97	271.50
398.16	205.97
398.35	191.92
398.55	229.37
398.74	250.44
398.93	234.05
399.12	222.35
399.32	212.99
399.51	266.82
399.70	208.31
399.90	227.03
400.09	201.29
400.28	187.24
400.47	271.50
400.67	269.16
400.86	283.20
401.05	255.12
401.24	227.03
401.44	318.31
401.63	283.20
401.82	292.57
402.01	245.76
402.21	257.46
402.40	259.80
402.59	212.99
402.78	234.05
402.97	259.80
403.17	205.97
403.36	238.73
403.55	234.05
403.74	332.36
403.93	421.30
404.13	617.90
404.32	566.41
404.51	545.34
404.70	407.25
404.89	308.95
405.09	285.55
405.28	330.02
405.47	234.05
405.66	205.97
405.85	222.35
406.05	250.44
406.24	222.35
406.43	276.18
406.62	210.65
406.81	301.93
407.00	238.73
407.20	259.80
407.39	346.40
407.58	318.31
407.77	334.70
407.96	301.93
408.15	255.12
408.34	227.03
408.54	252.78
408.73	322.99
408.92	344.06
409.11	308.95
409.30	276.18
409.49	180.22
409.68	255.12
409.87	278.52
410.07	196.60
410.26	266.82
410.45	189.58
410.64	278.52
410.83	355.76
411.02	337.04
411.21	344.06
411.40	264.48
411.59	304.27
411.78	257.46
411.98	304.27
412.17	259.80
412.36	269.16
412.55	278.52
412.74	271.50
412.93	290.23
413.12	320.65
413.31	308.95
413.50	243.42
413.69	372.15
413.88	271.50
414.07	266.82
414.26	301.93
414.45	313.63
414.64	327.68
414.83	287.89
415.02	299.59
415.22	257.46
415.41	318.31
415.60	294.91
415.79	297.25
415.98	332.36
416.17	320.65
416.36	348.74
416.55	292.57
416.74	271.50
416.93	301.93
417.12	327.68
417.31	358.10
417.50	327.68
417.69	376.83
417.88	313.63
418.07	304.27
418.26	231.71
418.45	227.03
418.64	325.33
418.83	271.50
419.02	348.74
419.21	252.78
419.39	271.50
419.58	313.63
419.77	287.89
419.96	358.10
420.15	346.40
420.34	362.78
420.53	358.10
420.72	313.63
420.91	365.12
421.10	297.25
421.29	322.99
421.48	299.59
421.67	327.68
421.86	311.29
422.05	313.63
422.24	372.15
422.43	259.80
422.61	313.63
422.80	259.80
422.99	308.95
423.18	234.05
423.37	327.68
423.56	376.83
423.75	292.57
423.94	395.55
424.13	299.59
424.32	315.97
424.50	327.68
424.69	294.91
424.88	374.49
425.07	299.59
425.26	299.59
425.45	306.61
425.64	358.10
425.83	264.48
426.01	339.38
426.20	283.20
426.39	278.52
426.58	355.76
426.77	259.80
426.96	308.95
427.15	287.89
427.33	344.06
427.52	360.44
427.71	379.17
427.90	355.76
428.09	285.55
428.28	262.14
428.46	360.44
428.65	346.40
428.84	271.50
429.03	287.89
429.22	266.82
429.40	278.52
429.59	273.84
429.78	325.33
429.97	278.52
430.16	311.29
430.34	269.16
430.53	276.18
430.72	257.46
430.91	337.04
431.10	337.04
431.28	271.50
431.47	337.04
431.66	376.83
431.85	374.49
432.03	273.84
432.22	285.55
432.41	346.40
432.60	351.08
432.79	320.65
432.97	346.40
433.16	299.59
433.35	397.89
433.54	454.06
433.72	355.76
433.91	353.42
434.10	332.36
434.28	404.91
434.47	339.38
434.66	447.04
434.85	383.85
435.03	688.12
435.22	1303.68
435.41	2003.50
435.59	1991.80
435.78	1413.68
435.97	924.51
436.16	594.50
436.34	400.23
436.53	461.09
436.72	386.19
436.90	397.89
437.09	383.85
437.28	383.85
437.46	294.91
437.65	341.72
437.84	358.10
438.02	334.70
438.21	297.25
438.40	341.72
438.58	388.53
438.77	341.72
438.96	330.02
439.14	355.76
439.33	337.04
439.52	360.44
439.70	346.40
439.89	341.72
440.08	360.44
440.26	290.23
440.45	346.40
440.63	348.74
440.82	381.51
441.01	440.02
441.19	376.83
441.38	351.08
441.57	418.96
441.75	348.74
441.94	409.59
442.12	341.72
442.31	358.10
442.50	397.89
442.68	411.93
442.87	482.15
443.05	414.27
443.24	367.46
443.43	411.93
443.61	484.49
443.80	374.49
443.98	374.49
444.17	358.10
444.35	325.33
444.54	369.80
444.73	451.72
444.91	351.08
445.10	376.83
445.28	404.91
445.47	386.19
445.65	346.40
445.84	355.76
446.02	433.00
446.21	339.38
446.39	409.59
446.58	376.83
446.77	449.38
446.95	425.98
447.14	369.80
447.32	454.06
447.51	430.66
447.69	404.91
447.88	386.19
448.06	468.11
448.25	421.30
448.43	447.04
448.62	386.19
448.80	423.64
448.99	447.04
449.17	386.19
449.36	379.17
449.54	423.64
449.73	360.44
449.91	395.55
450.10	463.43
450.28	486.83
450.46	538.32
450.65	433.00
450.83	428.32
451.02	428.32
451.20	367.46
451.39	346.40
451.57	388.53
451.76	444.70
451.94	402.57
452.13	402.57
452.31	397.89
452.49	407.25
452.68	344.06
452.86	374.49
453.05	418.96
453.23	418.96
453.42	418.96
453.60	358.10
453.78	421.30
453.97	313.63
454.15	365.12
454.34	414.27
454.52	332.36
454.70	440.02
454.89	482.15
455.07	346.40
455.26	372.15
455.44	404.91
455.62	351.08
455.81	465.77
455.99	402.57
456.17	435.34
456.36	430.66
456.54	400.23
456.73	395.55
456.91	449.38
457.09	463.43
457.28	482.15
457.46	458.74
457.64	486.83
457.83	461.09
458.01	351.08
458.19	430.66
458.38	372.15
458.56	425.98
458.74	468.11
458.93	451.72
459.11	381.51
459.29	435.34
459.48	351.08
459.66	456.40
459.84	519.60
460.03	489.17
460.21	428.32
460.39	393.21
460.57	418.96
460.76	423.64
460.94	390.87
461.12	512.58
461.31	430.66
461.49	449.38
461.67	435.34
461.85	498.53
462.04	395.55
462.22	557.05
462.40	465.77
462.59	468.11
462.77	468.11
462.95	496.19
463.13	519.60
463.32	482.15
463.50	367.46
463.68	395.55
463.86	423.64
464.05	430.66
464.23	444.70
464.41	442.36
464.59	367.46
464.78	388.53
464.96	383.85
465.14	425.98
465.32	496.19
465.50	486.83
465.69	435.34
465.87	421.30
466.05	409.59
466.23	416.62
466.41	376.83
466.60	397.89
466.78	411.93
466.96	444.70
467.14	430.66
467.32	418.96
467.51	451.72
467.69	418.96
467.87	543.00
468.05	428.32
468.23	425.98
468.41	449.38
468.60	489.17
468.78	500.87
468.96	468.11
469.14	423.64
469.32	463.43
469.50	402.57
469.69	456.40
469.87	411.93
470.05	400.23
470.23	425.98
470.41	404.91
470.59	507.90
470.77	472.79
470.95	479.81
471.14	496.19
471.32	327.68
471.50	475.13
471.68	400.23
471.86	451.72
472.04	402.57
472.22	500.87
472.40	386.19
472.58	393.21
472.77	458.74
472.95	414.27
473.13	433.00
473.31	500.87
473.49	397.89
473.67	423.64
473.85	416.62
474.03	507.90
474.21	512.58
474.39	519.60
474.57	465.77
474.75	451.72
474.93	437.68
475.12	482.15
475.30	465.77
475.48	550.03
475.66	383.85
475.84	475.13
476.02	454.06
476.20	390.87
476.38	477.47
476.56	517.26
476.74	531.30
476.92	437.68
477.10	472.79
477.28	507.90
477.46	526.62
477.64	531.30
477.82	486.83
478.00	472.79
478.18	465.77
478.36	526.62
478.54	526.62
478.72	514.92
478.90	456.40
479.08	561.73
479.26	514.92
479.44	526.62
479.62	559.39
479.80	507.90
479.98	521.94
480.16	475.13
480.34	550.03
480.52	486.83
480.70	557.05
480.88	606.20
481.06	526.62
481.24	561.73
481.41	634.29
481.59	585.13
481.77	540.66
481.95	514.92
482.13	566.41
482.31	627.26
482.49	505.56
482.67	585.13
482.85	631.94
483.03	596.84
483.21	587.47
483.39	622.58
483.57	674.07
483.74	629.60
483.92	550.03
484.10	657.69
484.28	678.76
484.46	711.52
484.64	645.99
484.82	662.37
485.00	741.95
485.18	669.39
485.35	624.92
485.53	622.58
485.71	613.22
485.89	543.00
486.07	645.99
486.25	781.74
486.43	720.88
486.61	718.54
486.78	744.29
486.96	671.73
487.14	681.10
487.32	608.54
487.50	725.57
487.68	823.87
487.85	763.01
488.03	727.91
488.21	734.93
488.39	765.36
488.57	671.73
488.75	667.05
488.92	950.26
489.10	765.36
489.28	744.29
489.46	664.71
489.64	763.01
489.81	793.44
489.99	746.63
490.17	657.69
490.35	873.02
490.53	716.20
490.70	653.01
490.88	732.59
491.06	746.63
491.24	798.12
491.41	833.23
491.59	727.91
491.77	620.24
491.95	727.91
492.13	716.20
492.30	718.54
492.48	812.17
492.66	763.01
492.84	767.70
493.01	784.08
493.19	788.76
493.37	718.54
493.54	746.63
493.72	748.97
493.90	774.72
494.08	704.50
494.25	767.70
494.43	788.76
494.61	779.40
494.79	744.29
494.96	763.01
495.14	730.25
495.32	716.20
495.49	800.46
495.67	746.63
495.85	807.48
496.02	791.10
496.20	770.04
496.38	748.97
496.55	732.59
496.73	690.46
496.91	746.63
497.09	788.76
497.26	798.12
497.44	741.95
497.62	706.84
497.79	800.46
497.97	758.33
498.14	695.14
498.32	664.71
498.50	760.67
498.67	662.37
498.85	737.27
499.03	779.40
499.20	800.46
499.38	760.67
499.56	795.78
499.73	821.53
499.91	809.83
500.08	739.61
500.26	667.05
500.44	681.10
500.61	695.14
500.79	751.31
500.97	720.88
501.14	737.27
501.32	737.27
501.49	690.46
501.67	704.50
501.84	723.23
502.02	695.14
502.20	716.20
502.37	676.41
502.55	741.95
502.72	746.63
502.90	699.82
503.07	784.08
503.25	725.57
503.43	660.03
503.60	596.84
503.78	650.67
503.95	720.88
504.13	643.65
504.30	711.52
504.48	725.57
504.65	814.51
504.83	734.93
505.01	720.88
505.18	784.08
505.36	786.42
505.53	772.38
505.71	753.65
505.88	741.95
506.06	725.57
506.23	624.92
506.41	690.46
506.58	746.63
506.76	751.31
506.93	699.82
507.11	732.59
507.28	781.74
507.46	688.12
507.63	725.57
507.81	657.69
507.98	720.88
508.16	753.65
508.33	781.74
508.50	770.04
508.68	713.86
508.85	704.50
509.03	788.76
509.20	770.04
509.38	641.31
509.55	767.70
509.73	758.33
509.90	706.84
510.08	791.10
510.25	866.00
510.42	784.08
510.60	751.31
510.77	763.01
510.95	812.17
511.12	751.31
511.30	788.76
511.47	791.10
511.64	730.25
511.82	732.59
511.99	688.12
512.17	676.41
512.34	648.33
512.51	699.82
512.69	718.54
512.86	734.93
513.04	755.99
513.21	702.16
513.38	755.99
513.56	727.91
513.73	699.82
513.90	746.63
514.08	746.63
514.25	695.14
514.43	734.93
514.60	723.23
514.77	758.33
514.95	751.31
515.12	681.10
515.29	688.12
515.47	795.78
515.64	767.70
515.81	650.67
515.99	809.83
516.16	758.33
516.33	716.20
516.51	631.94
516.68	650.67
516.85	641.31
517.03	636.63
517.20	746.63
517.37	772.38
517.54	695.14
517.72	716.20
517.89	613.22
518.06	615.56
518.24	718.54
518.41	706.84
518.58	704.50
518.75	692.80
518.93	760.67
519.10	723.23
519.27	767.70
519.45	753.65
519.62	770.04
519.79	786.42
519.96	741.95
520.14	706.84
520.31	755.99
520.48	704.50
520.65	692.80
520.83	767.70
521.00	734.93
521.17	760.67
521.34	667.05
521.52	823.87
521.69	781.74
521.86	751.31
522.03	805.14
522.20	751.31
522.38	755.99
522.55	725.57
522.72	734.93
522.89	798.12
523.07	678.76
523.24	746.63
523.41	692.80
523.58	777.06
523.75	823.87
523.92	695.14
524.10	723.23
524.27	760.67
524.44	718.54
524.61	816.85
524.78	720.88
524.96	763.01
525.13	760.67
525.30	770.04
525.47	770.04
525.64	798.12
525.81	784.08
525.98	718.54
526.16	744.29
526.33	688.12
526.50	692.80
526.67	627.26
526.84	660.03
527.01	634.29
527.18	695.14
527.36	671.73
527.53	744.29
527.70	767.70
527.87	823.87
528.04	753.65
528.21	821.53
528.38	816.85
528.55	732.59
528.72	823.87
528.89	830.89
529.07	793.44
529.24	760.67
529.41	741.95
529.58	758.33
529.75	784.08
529.92	739.61
530.09	758.33
530.26	781.74
530.43	767.70
530.60	788.76
530.77	823.87
530.94	718.54
531.11	873.02
531.28	791.10
531.46	842.59
531.63	800.46
531.80	816.85
531.97	844.93
532.14	814.51
532.31	746.63
532.48	746.63
532.65	779.40
532.82	732.59
532.99	858.98
533.16	851.96
533.33	800.46
533.50	854.30
533.67	741.95
533.84	826.21
534.01	826.21
534.18	781.74
534.35	793.44
534.52	779.40
534.69	751.31
534.86	875.36
535.03	812.17
535.20	835.57
535.37	833.23
535.54	875.36
535.71	779.40
535.88	835.57
536.05	772.38
536.22	889.40
536.38	842.59
536.55	851.96
536.72	901.11
536.89	800.46
537.06	861.32
537.23	933.87
537.40	983.02
537.57	983.02
537.74	1067.28
537.91	1025.15
538.08	938.55
538.25	922.17
538.42	1015.79
538.59	1027.50
538.75	999.41
538.92	912.81
539.09	1029.84
539.26	1011.11
539.43	1153.88
539.60	1027.50
539.77	1228.78
539.94	1163.25
540.11	1301.34
540.28	1287.29
540.44	1334.11
540.61	1303.68
540.78	1497.94
540.95	1692.21
541.12	1788.17
541.29	1973.07
541.46	2076.06
541.62	2073.71
541.79	1909.88
541.96	1888.81
542.13	1933.28
542.30	1830.30
542.47	1823.28
542.63	1757.74
542.80	1713.27
542.97	1729.66
543.14	1776.47
543.31	1792.85
543.48	1713.27
543.64	1715.61
543.81	1727.32
543.98	1734.34
544.15	1785.83
544.32	1816.26
544.48	1673.48
544.65	1785.83
544.82	1629.01
544.99	1804.55
545.16	1757.74
545.32	1755.40
545.49	2567.57
545.66	3700.39
545.83	4227.01
546.00	3707.41
546.16	2684.59
546.33	2279.68
546.50	1865.41
546.67	1629.01
546.83	1544.75
547.00	1474.54
547.17	1404.32
547.34	1296.66
547.50	1355.17
547.67	1343.47
547.84	1238.14
548.00	1313.04
548.17	1355.17
548.34	1217.08
548.51	1296.66
548.67	1179.63
548.84	1235.80
549.01	1212.40
549.18	1135.16
549.34	1191.33
549.51	1114.10
549.68	1102.39
549.84	1088.35
550.01	1146.86
550.18	1301.34
550.34	1083.67
550.51	1090.69
550.68	1053.24
550.84	938.55
551.01	1006.43
551.18	957.28
551.34	959.62
551.51	952.60
551.68	908.13
551.84	922.17
552.01	919.83
552.18	882.38
552.34	964.30
552.51	973.66
552.68	926.85
552.84	842.59
553.01	903.45
553.18	891.74
553.34	844.93
553.51	854.30
553.67	940.90
553.84	940.90
554.01	905.79
554.17	805.14
554.34	910.47
554.51	866.00
554.67	866.00
554.84	800.46
555.00	777.06
555.17	847.27
555.33	830.89
555.50	779.40
555.67	851.96
555.83	662.37
556.00	826.21
556.16	842.59
556.33	741.95
556.50	718.54
556.66	772.38
556.83	699.82
556.99	786.42
557.16	718.54
557.32	784.08
557.49	767.70
557.65	692.80
557.82	706.84
557.98	683.44
558.15	622.58
558.32	692.80
558.48	664.71
558.65	723.23
558.81	746.63
558.98	660.03
559.14	720.88
559.31	718.54
559.47	711.52
559.64	641.31
559.80	751.31
559.97	657.69
560.13	744.29
560.30	692.80
560.46	770.04
560.63	716.20
560.79	723.23
560.96	669.39
561.12	678.76
561.29	683.44
561.45	662.37
561.61	695.14
561.78	858.98
561.94	718.54
562.11	699.82
562.27	727.91
562.44	718.54
562.60	690.46
562.77	755.99
562.93	784.08
563.10	725.57
563.26	767.70
563.42	734.93
563.59	678.76
563.75	655.35
563.92	678.76
564.08	629.60
564.24	601.52
564.41	791.10
564.57	681.10
564.74	683.44
564.90	779.40
565.07	753.65
565.23	638.97
565.39	627.26
565.56	657.69
565.72	678.76
565.88	678.76
566.05	657.69
566.21	713.86
566.38	643.65
566.54	655.35
566.70	699.82
566.87	739.61
567.03	664.71
567.19	720.88
567.36	622.58
567.52	734.93
567.68	667.05
567.85	676.41
568.01	627.26
568.17	620.24
568.34	711.52
568.50	580.45
568.66	617.90
568.83	671.73
568.99	674.07
569.15	676.41
569.32	709.18
569.48	610.88
569.64	683.44
569.81	688.12
569.97	704.50
570.13	650.67
570.30	678.76
570.46	629.60
570.62	603.86
570.78	645.99
570.95	664.71
571.11	641.31
571.27	662.37
571.43	669.39
571.60	599.18
571.76	608.54
571.92	617.90
572.09	678.76
572.25	655.35
572.41	613.22
572.57	645.99
572.74	727.91
572.90	627.26
573.06	709.18
573.22	734.93
573.38	737.27
573.55	622.58
573.71	631.94
573.87	631.94
574.03	582.79
574.20	613.22
574.36	669.39
574.52	725.57
574.68	594.50
574.84	671.73
575.01	540.66
575.17	655.35
575.33	697.48
575.49	613.22
575.65	674.07
575.82	645.99
575.98	634.29
576.14	681.10
576.30	716.20
576.46	1020.47
576.62	1207.72
576.79	1287.29
576.95	1107.07
577.11	830.89
577.27	774.72
577.43	629.60
577.59	641.31
577.75	695.14
577.92	610.88
578.08	683.44
578.24	620.24
578.40	720.88
578.56	1020.47
578.72	1128.14
578.88	1186.65
579.04	1011.11
579.21	912.81
579.37	758.33
579.53	798.12
579.69	774.72
579.85	798.12
580.01	851.96
580.17	814.51
580.33	772.38
580.49	760.67
580.65	774.72
580.82	760.67
580.98	737.27
581.14	725.57
581.30	774.72
581.46	924.51
581.62	685.78
581.78	798.12
581.94	877.70
582.10	821.53
582.26	854.30
582.42	798.12
582.58	905.79
582.74	870.68
582.90	844.93
583.06	858.98
583.22	929.19
583.38	873.02
583.54	840.25
583.70	844.93
583.86	894.08
584.02	898.77
584.18	959.62
584.34	734.93
584.50	844.93
584.66	849.61
584.82	828.55
584.98	851.96
585.14	819.19
585.30	795.78
585.46	805.14
585.62	809.83
585.78	784.08
585.94	887.06
586.10	812.17
586.26	770.04
586.42	908.13
586.58	926.85
586.74	884.72
586.90	983.02
587.06	1104.73
587.22	990.05
587.38	954.94
587.54	971.32
587.70	863.66
587.86	770.04
588.02	681.10
588.18	751.31
588.34	692.80
588.49	713.86
588.65	636.63
588.81	641.31
588.97	571.09
589.13	610.88
589.29	638.97
589.45	575.77
589.61	547.69
589.77	641.31
589.93	660.03
590.08	645.99
590.24	704.50
590.40	688.12
590.56	760.67
590.72	725.57
590.88	662.37
591.04	716.20
591.20	669.39
591.35	702.16
591.51	713.86
591.67	702.16
591.83	748.97
591.99	711.52
592.15	730.25
592.31	779.40
592.46	786.42
592.62	826.21
592.78	720.88
592.94	856.64
593.10	819.19
593.26	833.23
593.41	802.80
593.57	793.44
593.73	685.78
593.89	720.88
594.05	699.82
594.20	573.43
594.36	615.56
594.52	603.86
594.68	559.39
594.84	650.67
594.99	653.01
595.15	648.33
595.31	641.31
595.47	709.18
595.62	578.11
595.78	638.97
595.94	545.34
596.10	681.10
596.25	653.01
596.41	629.60
596.57	547.69
596.73	608.54
596.88	606.20
597.04	711.52
597.20	606.20
597.36	648.33
597.51	643.65
597.67	720.88
597.83	671.73
597.99	695.14
598.14	620.24
598.30	725.57
598.46	671.73
598.61	634.29
598.77	657.69
598.93	732.59
599.09	734.93
599.24	744.29
599.40	655.35
599.56	755.99
599.71	699.82
599.87	669.39
600.03	667.05
600.18	653.01
600.34	631.94
600.50	648.33
600.65	638.97
600.81	613.22
600.97	636.63
601.12	650.67
601.28	641.31
601.44	585.13
601.59	550.03
601.75	585.13
601.91	589.82
602.06	566.41
602.22	697.48
602.37	592.16
602.53	613.22
602.69	627.26
602.84	578.11
603.00	599.18
603.16	559.39
603.31	617.90
603.47	636.63
603.62	578.11
603.78	557.05
603.94	554.71
604.09	753.65
604.25	653.01
604.40	603.86
604.56	622.58
604.71	683.44
604.87	564.07
605.03	608.54
605.18	753.65
605.34	559.39
605.49	638.97
605.65	636.63
605.80	624.92
605.96	711.52
606.12	585.13
606.27	638.97
606.43	638.97
606.58	709.18
606.74	664.71
606.89	617.90
607.05	671.73
607.20	711.52
607.36	753.65
607.51	624.92
607.67	678.76
607.82	734.93
607.98	732.59
608.13	678.76
608.29	763.01
608.44	777.06
608.60	849.61
608.75	889.40
608.91	814.51
609.06	882.38
609.22	1020.47
609.37	943.24
609.53	1008.77
609.68	1060.26
