SpectraSuite Data File
++++++++++++++++++++++++++++++++++++
Date: Fri Oct 04 11:41:45 GMT-05:00 2013
User: price-jones
Dark Spectrum Present: No
Reference Spectrum Present: No
Number of Sampled Component Spectra: 1
Spectrometers: USB2+H05261
Integration Time (usec): 100000 (USB2+H05261)
Spectra Averaged: 1 (USB2+H05261)
Boxcar Smoothing: 0 (USB2+H05261)
Correct for Electrical Dark: No (USB2+H05261)
Strobe/Lamp Enabled: No (USB2+H05261)
Correct for Detector Non-linearity: No (USB2+H05261)
Correct for Stray Light: No (USB2+H05261)
Number of Pixels in Processed Spectrum: 2048
>>>>>Begin Processed Spectral Data<<<<<
365.73	51.49
365.92	51.49
366.12	51.49
366.32	0.00
366.52	0.00
366.72	0.00
366.91	0.00
367.11	0.00
367.31	0.00
367.51	0.00
367.70	0.00
367.90	0.00
368.10	0.00
368.30	0.00
368.49	0.00
368.69	0.00
368.89	0.00
369.09	0.00
369.28	35.11
369.48	0.00
369.68	0.00
369.87	7.02
370.07	0.00
370.27	44.47
370.47	28.09
370.66	65.54
370.86	11.70
371.06	44.47
371.25	107.66
371.45	35.11
371.65	65.54
371.84	16.38
372.04	65.54
372.24	77.24
372.44	102.98
372.63	91.28
372.83	184.90
373.03	58.51
373.22	102.98
373.42	86.60
373.62	189.58
373.81	86.60
374.01	154.48
374.21	198.95
374.40	126.39
374.60	107.66
374.79	84.26
374.99	161.50
375.19	140.43
375.38	180.22
375.58	149.79
375.78	140.43
375.97	187.24
376.17	110.01
376.37	102.98
376.56	175.54
376.76	110.01
376.95	67.88
377.15	70.22
377.35	117.03
377.54	88.94
377.74	147.45
377.93	161.50
378.13	177.88
378.33	180.22
378.52	107.66
378.72	138.09
378.91	133.41
379.11	72.56
379.31	42.13
379.50	145.11
379.70	110.01
379.89	159.16
380.09	79.58
380.28	88.94
380.48	81.92
380.68	142.77
380.87	142.77
381.07	77.24
381.26	147.45
381.46	126.39
381.65	112.35
381.85	140.43
382.04	114.69
382.24	180.22
382.43	210.65
382.63	112.35
382.83	152.13
383.02	124.05
383.22	198.95
383.41	100.64
383.61	102.98
383.80	74.90
384.00	93.62
384.19	140.43
384.39	161.50
384.58	84.26
384.78	117.03
384.97	95.96
385.17	128.73
385.36	131.07
385.56	159.16
385.75	110.01
385.95	110.01
386.14	124.05
386.34	88.94
386.53	149.79
386.72	177.88
386.92	88.94
387.11	124.05
387.31	100.64
387.50	114.69
387.70	93.62
387.89	88.94
388.09	147.45
388.28	56.17
388.48	44.47
388.67	93.62
388.86	84.26
389.06	128.73
389.25	161.50
389.45	102.98
389.64	95.96
389.84	95.96
390.03	128.73
390.22	126.39
390.42	91.28
390.61	184.90
390.81	126.39
391.00	117.03
391.19	79.58
391.39	42.13
391.58	152.13
391.78	163.84
391.97	67.88
392.16	0.00
392.36	95.96
392.55	119.37
392.75	128.73
392.94	145.11
393.13	128.73
393.33	53.83
393.52	65.54
393.71	180.22
393.91	135.75
394.10	112.35
394.29	159.16
394.49	79.58
394.68	131.07
394.88	163.84
395.07	142.77
395.26	114.69
395.46	74.90
395.65	166.18
395.84	149.79
396.04	140.43
396.23	74.90
396.42	154.48
396.62	84.26
396.81	84.26
397.00	56.17
397.19	133.41
397.39	56.17
397.58	133.41
397.77	126.39
397.97	170.86
398.16	133.41
398.35	152.13
398.55	51.49
398.74	102.98
398.93	124.05
399.12	58.51
399.32	110.01
399.51	37.45
399.70	119.37
399.90	140.43
400.09	170.86
400.28	236.39
400.47	147.45
400.67	154.48
400.86	98.30
401.05	107.66
401.24	159.16
401.44	184.90
401.63	182.56
401.82	173.20
402.01	77.24
402.21	119.37
402.40	170.86
402.59	79.58
402.78	180.22
402.97	175.54
403.17	180.22
403.36	145.11
403.55	107.66
403.74	418.96
403.93	1060.26
404.13	2008.18
404.32	2108.82
404.51	1703.91
404.70	1022.81
404.89	423.64
405.09	259.80
405.28	152.13
405.47	119.37
405.66	184.90
405.85	147.45
406.05	177.88
406.24	124.05
406.43	208.31
406.62	135.75
406.81	245.76
407.00	241.08
407.20	299.59
407.39	348.74
407.58	346.40
407.77	276.18
407.96	212.99
408.15	161.50
408.34	159.16
408.54	114.69
408.73	102.98
408.92	133.41
409.11	138.09
409.30	154.48
409.49	77.24
409.68	177.88
409.87	168.52
410.07	170.86
410.26	121.71
410.45	163.84
410.64	88.94
410.83	65.54
411.02	189.58
411.21	184.90
411.40	182.56
411.59	135.75
411.78	135.75
411.98	152.13
412.17	117.03
412.36	105.32
412.55	110.01
412.74	248.10
412.93	135.75
413.12	114.69
413.31	131.07
413.50	173.20
413.69	170.86
413.88	163.84
414.07	187.24
414.26	147.45
414.45	170.86
414.64	154.48
414.83	189.58
415.02	194.26
415.22	145.11
415.41	236.39
415.60	161.50
415.79	170.86
415.98	280.86
416.17	140.43
416.36	168.52
416.55	215.33
416.74	173.20
416.93	189.58
417.12	203.63
417.31	161.50
417.50	156.82
417.69	198.95
417.88	126.39
418.07	147.45
418.26	163.84
418.45	154.48
418.64	224.69
418.83	184.90
419.02	140.43
419.21	110.01
419.39	140.43
419.58	161.50
419.77	182.56
419.96	194.26
420.15	220.01
420.34	145.11
420.53	159.16
420.72	159.16
420.91	117.03
421.10	175.54
421.29	100.64
421.48	180.22
421.67	170.86
421.86	201.29
422.05	175.54
422.24	161.50
422.43	198.95
422.61	159.16
422.80	124.05
422.99	184.90
423.18	166.18
423.37	210.65
423.56	198.95
423.75	135.75
423.94	114.69
424.13	187.24
424.32	222.35
424.50	212.99
424.69	194.26
424.88	252.78
425.07	248.10
425.26	222.35
425.45	203.63
425.64	194.26
425.83	184.90
426.01	187.24
426.20	140.43
426.39	189.58
426.58	170.86
426.77	205.97
426.96	149.79
427.15	161.50
427.33	234.05
427.52	238.73
427.71	194.26
427.90	259.80
428.09	210.65
428.28	231.71
428.46	161.50
428.65	210.65
428.84	257.46
429.03	266.82
429.22	238.73
429.40	227.03
429.59	166.18
429.78	245.76
429.97	170.86
430.16	128.73
430.34	217.67
430.53	215.33
430.72	110.01
430.91	201.29
431.10	210.65
431.28	177.88
431.47	177.88
431.66	205.97
431.85	229.37
432.03	152.13
432.22	334.70
432.41	252.78
432.60	332.36
432.79	238.73
432.97	245.76
433.16	173.20
433.35	231.71
433.54	337.04
433.72	297.25
433.91	290.23
434.10	355.76
434.28	358.10
434.47	395.55
434.66	374.49
434.85	493.85
435.03	1799.87
435.22	5720.27
435.41	9589.17
435.59	8580.40
435.78	5378.55
435.97	2693.96
436.16	1123.46
436.34	535.98
436.53	428.32
436.72	271.50
436.90	353.42
437.09	266.82
437.28	224.69
437.46	215.33
437.65	266.82
437.84	280.86
438.02	224.69
438.21	266.82
438.40	198.95
438.58	212.99
438.77	187.24
438.96	290.23
439.14	311.29
439.33	248.10
439.52	231.71
439.70	266.82
439.89	201.29
440.08	257.46
440.26	194.26
440.45	273.84
440.63	297.25
440.82	243.42
441.01	161.50
441.19	208.31
441.38	259.80
441.57	266.82
441.75	250.44
441.94	257.46
442.12	234.05
442.31	241.08
442.50	299.59
442.68	273.84
442.87	220.01
443.05	250.44
443.24	245.76
443.43	325.33
443.61	269.16
443.80	285.55
443.98	224.69
444.17	166.18
444.35	304.27
444.54	276.18
444.73	159.16
444.91	245.76
445.10	252.78
445.28	278.52
445.47	255.12
445.65	262.14
445.84	194.26
446.02	238.73
446.21	248.10
446.39	320.65
446.58	306.61
446.77	241.08
446.95	257.46
447.14	212.99
447.32	283.20
447.51	255.12
447.69	241.08
447.88	168.52
448.06	250.44
448.25	189.58
448.43	212.99
448.62	184.90
448.80	215.33
448.99	241.08
449.17	318.31
449.36	222.35
449.54	248.10
449.73	236.39
449.91	271.50
450.10	215.33
450.28	318.31
450.46	266.82
450.65	264.48
450.83	245.76
451.02	292.57
451.20	163.84
451.39	175.54
451.57	266.82
451.76	163.84
451.94	217.67
452.13	245.76
452.31	271.50
452.49	315.97
452.68	208.31
452.86	220.01
453.05	372.15
453.23	266.82
453.42	208.31
453.60	245.76
453.78	198.95
453.97	201.29
454.15	250.44
454.34	208.31
454.52	208.31
454.70	248.10
454.89	294.91
455.07	313.63
455.26	264.48
455.44	306.61
455.62	187.24
455.81	276.18
455.99	238.73
456.17	315.97
456.36	313.63
456.54	217.67
456.73	287.89
456.91	257.46
457.09	292.57
457.28	271.50
457.46	271.50
457.64	229.37
457.83	245.76
458.01	245.76
458.19	163.84
458.38	250.44
458.56	236.39
458.74	198.95
458.93	210.65
459.11	294.91
459.29	252.78
459.48	252.78
459.66	287.89
459.84	255.12
460.03	322.99
460.21	266.82
460.39	278.52
460.57	304.27
460.76	262.14
460.94	187.24
461.12	271.50
461.31	297.25
461.49	250.44
461.67	255.12
461.85	236.39
462.04	245.76
462.22	418.96
462.40	220.01
462.59	273.84
462.77	236.39
462.95	273.84
463.13	245.76
463.32	287.89
463.50	297.25
463.68	318.31
463.86	264.48
464.05	212.99
464.23	327.68
464.41	252.78
464.59	313.63
464.78	220.01
464.96	210.65
465.14	217.67
465.32	224.69
465.50	294.91
465.69	262.14
465.87	210.65
466.05	217.67
466.23	262.14
466.41	224.69
466.60	205.97
466.78	271.50
466.96	203.63
467.14	325.33
467.32	271.50
467.51	297.25
467.69	250.44
467.87	266.82
468.05	278.52
468.23	229.37
468.41	262.14
468.60	163.84
468.78	156.82
468.96	227.03
469.14	294.91
469.32	287.89
469.50	217.67
469.69	273.84
469.87	283.20
470.05	149.79
470.23	194.26
470.41	266.82
470.59	205.97
470.77	266.82
470.95	269.16
471.14	212.99
471.32	315.97
471.50	250.44
471.68	315.97
471.86	299.59
472.04	252.78
472.22	280.86
472.40	220.01
472.58	245.76
472.77	236.39
472.95	245.76
473.13	297.25
473.31	229.37
473.49	259.80
473.67	243.42
473.85	220.01
474.03	243.42
474.21	280.86
474.39	248.10
474.57	269.16
474.75	301.93
474.93	262.14
475.12	320.65
475.30	210.65
475.48	257.46
475.66	278.52
475.84	215.33
476.02	236.39
476.20	212.99
476.38	259.80
476.56	264.48
476.74	259.80
476.92	215.33
477.10	255.12
477.28	248.10
477.46	208.31
477.64	227.03
477.82	257.46
478.00	294.91
478.18	259.80
478.36	292.57
478.54	278.52
478.72	224.69
478.90	290.23
479.08	346.40
479.26	341.72
479.44	252.78
479.62	283.20
479.80	266.82
479.98	292.57
480.16	292.57
480.34	341.72
480.52	332.36
480.70	301.93
480.88	304.27
481.06	269.16
481.24	339.38
481.41	285.55
481.59	414.27
481.77	383.85
481.95	451.72
482.13	390.87
482.31	468.11
482.49	440.02
482.67	519.60
482.85	510.24
483.03	580.45
483.21	533.64
483.39	566.41
483.57	575.77
483.74	613.22
483.92	603.86
484.10	627.26
484.28	683.44
484.46	744.29
484.64	744.29
484.82	770.04
485.00	851.96
485.18	819.19
485.35	990.05
485.53	870.68
485.71	940.90
485.89	926.85
486.07	952.60
486.25	1064.94
486.43	957.28
486.61	964.30
486.78	1004.09
486.96	999.41
487.14	1078.99
487.32	994.73
487.50	1018.13
487.68	1004.09
487.85	999.41
488.03	1018.13
488.21	917.49
488.39	938.55
488.57	922.17
488.75	828.55
488.92	1076.65
489.10	891.74
489.28	964.30
489.46	777.06
489.64	891.74
489.81	821.53
489.99	858.98
490.17	779.40
490.35	868.34
490.53	734.93
490.70	814.51
490.88	844.93
491.06	851.96
491.24	912.81
491.41	863.66
491.59	800.46
491.77	805.14
491.95	627.26
492.13	777.06
492.30	681.10
492.48	727.91
492.66	744.29
492.84	727.91
493.01	709.18
493.19	716.20
493.37	664.71
493.54	758.33
493.72	711.52
493.90	657.69
494.08	692.80
494.25	650.67
494.43	699.82
494.61	587.47
494.79	634.29
494.96	617.90
495.14	596.84
495.32	674.07
495.49	655.35
495.67	575.77
495.85	622.58
496.02	547.69
496.20	535.98
496.38	503.22
496.55	503.22
496.73	526.62
496.91	606.20
497.09	561.73
497.26	514.92
497.44	489.17
497.62	554.71
497.79	517.26
497.97	521.94
498.14	573.43
498.32	479.81
498.50	498.53
498.67	528.96
498.85	545.34
499.03	461.09
499.20	414.27
499.38	498.53
499.56	404.91
499.73	477.47
499.91	535.98
500.08	433.00
500.26	365.12
500.44	416.62
500.61	400.23
500.79	390.87
500.97	440.02
501.14	400.23
501.32	341.72
501.49	411.93
501.67	425.98
501.84	379.17
502.02	369.80
502.20	355.76
502.37	346.40
502.55	353.42
502.72	327.68
502.90	400.23
503.07	344.06
503.25	285.55
503.43	348.74
503.60	315.97
503.78	313.63
503.95	304.27
504.13	367.46
504.30	351.08
504.48	386.19
504.65	271.50
504.83	400.23
505.01	266.82
505.18	332.36
505.36	311.29
505.53	280.86
505.71	318.31
505.88	421.30
506.06	339.38
506.23	388.53
506.41	252.78
506.58	255.12
506.76	283.20
506.93	248.10
507.11	259.80
507.28	327.68
507.46	290.23
507.63	259.80
507.81	273.84
507.98	252.78
508.16	313.63
508.33	294.91
508.50	362.78
508.68	334.70
508.85	248.10
509.03	262.14
509.20	248.10
509.38	369.80
509.55	367.46
509.73	388.53
509.90	306.61
510.08	311.29
510.25	369.80
510.42	259.80
510.60	299.59
510.77	271.50
510.95	297.25
511.12	308.95
511.30	290.23
511.47	252.78
511.64	294.91
511.82	269.16
511.99	238.73
512.17	248.10
512.34	278.52
512.51	278.52
512.69	269.16
512.86	318.31
513.04	241.08
513.21	322.99
513.38	292.57
513.56	264.48
513.73	250.44
513.90	203.63
514.08	325.33
514.25	304.27
514.43	220.01
514.60	278.52
514.77	266.82
514.95	306.61
515.12	248.10
515.29	222.35
515.47	243.42
515.64	271.50
515.81	215.33
515.99	283.20
516.16	332.36
516.33	280.86
516.51	306.61
516.68	180.22
516.85	236.39
517.03	245.76
517.20	313.63
517.37	248.10
517.54	257.46
517.72	241.08
517.89	194.26
518.06	266.82
518.24	360.44
518.41	362.78
518.58	238.73
518.75	236.39
518.93	278.52
519.10	280.86
519.27	278.52
519.45	264.48
519.62	271.50
519.79	341.72
519.96	283.20
520.14	250.44
520.31	348.74
520.48	196.60
520.65	259.80
520.83	283.20
521.00	292.57
521.17	266.82
521.34	201.29
521.52	292.57
521.69	294.91
521.86	290.23
522.03	351.08
522.20	252.78
522.38	205.97
522.55	243.42
522.72	215.33
522.89	250.44
523.07	280.86
523.24	238.73
523.41	292.57
523.58	217.67
523.75	297.25
523.92	306.61
524.10	301.93
524.27	306.61
524.44	283.20
524.61	292.57
524.78	259.80
524.96	252.78
525.13	292.57
525.30	266.82
525.47	388.53
525.64	262.14
525.81	327.68
525.98	313.63
526.16	297.25
526.33	285.55
526.50	262.14
526.67	294.91
526.84	248.10
527.01	262.14
527.18	299.59
527.36	344.06
527.53	285.55
527.70	320.65
527.87	320.65
528.04	348.74
528.21	306.61
528.38	395.55
528.55	313.63
528.72	283.20
528.89	337.04
529.07	327.68
529.24	351.08
529.41	308.95
529.58	346.40
529.75	301.93
529.92	341.72
530.09	210.65
530.26	315.97
530.43	369.80
530.60	372.15
530.77	348.74
530.94	393.21
531.11	311.29
531.28	397.89
531.46	379.17
531.63	311.29
531.80	397.89
531.97	428.32
532.14	449.38
532.31	435.34
532.48	451.72
532.65	437.68
532.82	617.90
532.99	674.07
533.16	671.73
533.33	631.94
533.50	589.82
533.67	498.53
533.84	580.45
534.01	561.73
534.18	519.60
534.35	500.87
534.52	435.34
534.69	531.30
534.86	571.09
535.03	470.45
535.20	521.94
535.37	571.09
535.54	571.09
535.71	559.39
535.88	608.54
536.05	657.69
536.22	669.39
536.38	664.71
536.55	720.88
536.72	835.57
536.89	786.42
537.06	922.17
537.23	950.26
537.40	1020.47
537.57	1135.16
537.74	1245.16
537.91	1268.57
538.08	1313.04
538.25	1277.93
538.42	1296.66
538.59	1343.47
538.75	1327.08
538.92	1455.81
539.09	1596.25
539.26	1806.89
539.43	1994.14
539.60	2190.74
539.77	2448.20
539.94	2628.42
540.11	2977.16
540.28	3129.30
540.44	3541.23
540.61	3857.20
540.78	4400.21
540.95	5233.44
541.12	5998.79
541.29	6630.74
541.46	6841.39
541.62	6644.78
541.79	6415.41
541.96	6104.12
542.13	5652.39
542.30	5193.65
542.47	5018.11
542.63	4765.33
542.80	4854.27
542.97	4706.82
543.14	4660.01
543.31	4664.69
543.48	4685.75
543.64	4772.35
543.81	4854.27
543.98	4681.07
544.15	4823.84
544.32	4809.80
544.48	4706.82
544.65	4674.05
544.82	4699.80
544.99	4566.39
545.16	4830.87
545.32	5165.56
545.49	10455.17
545.66	16533.54
545.83	17745.94
546.00	14572.18
546.16	9902.81
546.33	7328.22
546.50	5610.26
546.67	4652.98
546.83	4236.37
547.00	3988.27
547.17	3896.99
547.34	3831.46
547.50	3536.55
547.67	3363.35
547.84	3274.41
548.00	3108.23
548.17	2967.80
548.34	2953.76
548.51	2871.84
548.67	2747.79
548.84	2722.04
549.01	2455.22
549.18	2385.01
549.34	2389.69
549.51	2277.34
549.68	2188.40
549.84	2186.06
550.01	1886.47
550.18	1952.01
550.34	1860.73
550.51	1842.00
550.68	1666.46
550.84	1614.97
551.01	1586.88
551.18	1563.48
551.34	1462.83
551.51	1416.02
551.68	1357.51
551.84	1310.70
552.01	1331.76
552.18	1256.87
552.34	1247.51
552.51	1100.05
552.68	1043.88
552.84	999.41
553.01	938.55
553.18	1032.18
553.34	1048.56
553.51	1011.11
553.67	924.51
553.84	887.06
554.01	805.14
554.17	814.51
554.34	709.18
554.51	697.48
554.67	763.01
554.84	678.76
555.00	678.76
555.17	575.77
555.33	629.60
555.50	533.64
555.67	524.28
555.83	575.77
556.00	561.73
556.16	641.31
556.33	468.11
556.50	557.05
556.66	496.19
556.83	397.89
556.99	421.30
557.16	472.79
557.32	454.06
557.49	451.72
557.65	482.15
557.82	451.72
557.98	409.59
558.15	379.17
558.32	390.87
558.48	489.17
558.65	407.25
558.81	301.93
558.98	397.89
559.14	503.22
559.31	444.70
559.47	393.21
559.64	416.62
559.80	393.21
559.97	388.53
560.13	367.46
560.30	367.46
560.46	383.85
560.63	397.89
560.79	393.21
560.96	409.59
561.12	360.44
561.29	393.21
561.45	407.25
561.61	390.87
561.78	456.40
561.94	341.72
562.11	367.46
562.27	386.19
562.44	411.93
562.60	362.78
562.77	341.72
562.93	376.83
563.10	353.42
563.26	301.93
563.42	421.30
563.59	372.15
563.75	365.12
563.92	390.87
564.08	397.89
564.24	372.15
564.41	306.61
564.57	304.27
564.74	332.36
564.90	381.51
565.07	318.31
565.23	311.29
565.39	386.19
565.56	383.85
565.72	245.76
565.88	243.42
566.05	297.25
566.21	262.14
566.38	351.08
566.54	362.78
566.70	355.76
566.87	369.80
567.03	416.62
567.19	365.12
567.36	421.30
567.52	435.34
567.68	311.29
567.85	346.40
568.01	231.71
568.17	301.93
568.34	322.99
568.50	271.50
568.66	252.78
568.83	362.78
568.99	332.36
569.15	287.89
569.32	362.78
569.48	191.92
569.64	273.84
569.81	344.06
569.97	292.57
570.13	355.76
570.30	280.86
570.46	250.44
570.62	337.04
570.78	248.10
570.95	271.50
571.11	327.68
571.27	327.68
571.43	294.91
571.60	285.55
571.76	269.16
571.92	301.93
572.09	271.50
572.25	308.95
572.41	327.68
572.57	248.10
572.74	344.06
572.90	308.95
573.06	285.55
573.22	346.40
573.38	290.23
573.55	383.85
573.71	313.63
573.87	344.06
574.03	365.12
574.20	318.31
574.36	315.97
574.52	304.27
574.68	301.93
574.84	351.08
575.01	325.33
575.17	301.93
575.33	351.08
575.49	358.10
575.65	449.38
575.82	430.66
575.98	418.96
576.14	442.36
576.30	959.62
576.46	2532.46
576.62	3052.06
576.79	2979.50
576.95	2176.70
577.11	1530.71
577.27	1043.88
577.43	842.59
577.59	592.16
577.75	564.07
577.92	526.62
578.08	503.22
578.24	617.90
578.40	966.64
578.56	2181.38
578.72	2696.30
578.88	2923.33
579.04	2069.03
579.21	1511.99
579.37	1327.08
579.53	1018.13
579.69	1116.44
579.85	1238.14
580.01	1235.80
580.17	1142.18
580.33	1107.07
580.49	1006.43
580.65	1008.77
580.82	915.15
580.98	905.79
581.14	709.18
581.30	898.77
581.46	985.37
581.62	1041.54
581.78	1018.13
581.94	1193.67
582.10	1128.14
582.26	1170.27
582.42	1268.57
582.58	1299.00
582.74	1322.40
582.90	1266.23
583.06	1357.51
583.22	1303.68
583.38	1306.02
583.54	1200.69
583.70	1327.08
583.86	1273.25
584.02	1247.51
584.18	1322.40
584.34	1275.59
584.50	1130.48
584.66	1188.99
584.82	1158.57
584.98	1139.84
585.14	1153.88
585.30	1132.82
585.46	1116.44
585.62	1144.52
585.78	1114.10
585.94	1167.93
586.10	1156.22
586.26	1196.01
586.42	1359.85
586.58	1671.14
586.74	1919.24
586.90	2258.62
587.06	2298.41
587.22	2258.62
587.38	2115.84
587.54	1757.74
587.70	1493.26
587.86	1387.94
588.02	1163.25
588.18	1156.22
588.34	1008.77
588.49	861.32
588.65	896.43
588.81	882.38
588.97	866.00
589.13	854.30
589.29	802.80
589.45	807.48
589.61	821.53
589.77	926.85
589.93	786.42
590.08	833.23
590.24	779.40
590.40	809.83
590.56	837.91
590.72	894.08
590.88	950.26
591.04	919.83
591.20	877.70
591.35	1086.01
591.51	992.39
591.67	1043.88
591.83	1186.65
591.99	1226.44
592.15	1275.59
592.31	1385.60
592.46	1596.25
592.62	1483.90
592.78	1783.49
592.94	1643.06
593.10	1645.40
593.26	1509.65
593.41	1495.60
593.57	1306.02
593.73	1249.85
593.89	1137.50
594.05	1083.67
594.20	786.42
594.36	901.11
594.52	781.74
594.68	772.38
594.84	739.61
594.99	765.36
595.15	730.25
595.31	795.78
595.47	739.61
595.62	671.73
595.78	669.39
595.94	741.95
596.10	692.80
596.25	730.25
596.41	725.57
596.57	748.97
596.73	685.78
596.88	638.97
597.04	713.86
597.20	678.76
597.36	746.63
597.51	711.52
597.67	877.70
597.83	767.70
597.99	847.27
598.14	891.74
598.30	830.89
598.46	985.37
598.61	1048.56
598.77	1149.20
598.93	1088.35
599.09	1135.16
599.24	1160.91
599.40	1034.52
599.56	1088.35
599.71	971.32
599.87	992.39
600.03	938.55
600.18	814.51
600.34	800.46
600.50	753.65
600.65	734.93
600.81	772.38
600.97	699.82
601.12	594.50
601.28	725.57
601.44	669.39
601.59	585.13
601.75	571.09
601.91	552.37
602.06	592.16
602.22	645.99
602.37	568.75
602.53	568.75
602.69	528.96
602.84	526.62
603.00	550.03
603.16	521.94
603.31	538.32
603.47	543.00
603.62	486.83
603.78	580.45
603.94	575.77
604.09	634.29
604.25	645.99
604.40	592.16
604.56	559.39
604.71	589.82
604.87	589.82
605.03	550.03
605.18	582.79
605.34	657.69
605.49	636.63
605.65	711.52
605.80	676.41
605.96	676.41
606.12	741.95
606.27	788.76
606.43	692.80
606.58	784.08
606.74	968.98
606.89	901.11
607.05	994.73
607.20	901.11
607.36	929.19
607.51	978.34
607.67	1050.90
607.82	1144.52
607.98	1207.72
608.13	1284.95
608.29	1394.96
608.44	1458.15
608.60	1519.01
608.75	1720.29
608.91	1858.39
