SpectraSuite Data File
++++++++++++++++++++++++++++++++++++
Date: Fri Oct 04 11:41:54 GMT-05:00 2013
User: price-jones
Dark Spectrum Present: No
Reference Spectrum Present: No
Number of Sampled Component Spectra: 1
Spectrometers: USB2+H05261
Integration Time (usec): 100000 (USB2+H05261)
Spectra Averaged: 1 (USB2+H05261)
Boxcar Smoothing: 0 (USB2+H05261)
Correct for Electrical Dark: No (USB2+H05261)
Strobe/Lamp Enabled: No (USB2+H05261)
Correct for Detector Non-linearity: No (USB2+H05261)
Correct for Stray Light: No (USB2+H05261)
Number of Pixels in Processed Spectrum: 2048
>>>>>Begin Processed Spectral Data<<<<<
365.73	44.47
365.92	44.47
366.12	44.47
366.32	25.75
366.52	0.00
366.72	0.00
366.91	0.00
367.11	0.00
367.31	0.00
367.51	0.00
367.70	0.00
367.90	0.00
368.10	0.00
368.30	0.00
368.49	0.00
368.69	0.00
368.89	0.00
369.09	0.00
369.28	0.00
369.48	0.00
369.68	0.00
369.87	0.00
370.07	0.00
370.27	0.00
370.47	0.00
370.66	28.09
370.86	32.77
371.06	140.43
371.25	133.41
371.45	121.71
371.65	100.64
371.84	49.15
372.04	140.43
372.24	110.01
372.44	98.30
372.63	135.75
372.83	140.43
373.03	112.35
373.22	88.94
373.42	79.58
373.62	35.11
373.81	194.26
374.01	166.18
374.21	124.05
374.40	128.73
374.60	149.79
374.79	105.32
374.99	156.82
375.19	140.43
375.38	138.09
375.58	173.20
375.78	121.71
375.97	107.66
376.17	177.88
376.37	128.73
376.56	100.64
376.76	112.35
376.95	117.03
377.15	119.37
377.35	77.24
377.54	149.79
377.74	16.38
377.93	117.03
378.13	91.28
378.33	70.22
378.52	159.16
378.72	156.82
378.91	140.43
379.11	161.50
379.31	161.50
379.50	100.64
379.70	114.69
379.89	149.79
380.09	84.26
380.28	93.62
380.48	138.09
380.68	177.88
380.87	95.96
381.07	112.35
381.26	126.39
381.46	175.54
381.65	140.43
381.85	74.90
382.04	100.64
382.24	112.35
382.43	154.48
382.63	102.98
382.83	105.32
383.02	107.66
383.22	224.69
383.41	70.22
383.61	154.48
383.80	184.90
384.00	98.30
384.19	159.16
384.39	119.37
384.58	114.69
384.78	102.98
384.97	117.03
385.17	79.58
385.36	128.73
385.56	212.99
385.75	147.45
385.95	138.09
386.14	159.16
386.34	88.94
386.53	84.26
386.72	117.03
386.92	156.82
387.11	210.65
387.31	145.11
387.50	131.07
387.70	37.45
387.89	112.35
388.09	142.77
388.28	86.60
388.48	39.79
388.67	88.94
388.86	67.88
389.06	81.92
389.25	184.90
389.45	159.16
389.64	131.07
389.84	133.41
390.03	149.79
390.22	140.43
390.42	98.30
390.61	56.17
390.81	86.60
391.00	102.98
391.19	177.88
391.39	74.90
391.58	93.62
391.78	79.58
391.97	102.98
392.16	105.32
392.36	138.09
392.55	121.71
392.75	126.39
392.94	72.56
393.13	198.95
393.33	121.71
393.52	147.45
393.71	133.41
393.91	259.80
394.10	67.88
394.29	93.62
394.49	159.16
394.68	79.58
394.88	121.71
395.07	93.62
395.26	128.73
395.46	170.86
395.65	145.11
395.84	187.24
396.04	191.92
396.23	208.31
396.42	112.35
396.62	145.11
396.81	128.73
397.00	180.22
397.19	95.96
397.39	86.60
397.58	177.88
397.77	81.92
397.97	161.50
398.16	79.58
398.35	145.11
398.55	117.03
398.74	110.01
398.93	208.31
399.12	170.86
399.32	128.73
399.51	175.54
399.70	147.45
399.90	170.86
400.09	135.75
400.28	140.43
400.47	182.56
400.67	212.99
400.86	117.03
401.05	142.77
401.24	121.71
401.44	182.56
401.63	95.96
401.82	163.84
402.01	173.20
402.21	121.71
402.40	229.37
402.59	124.05
402.78	168.52
402.97	194.26
403.17	201.29
403.36	241.08
403.55	339.38
403.74	552.37
403.93	1795.19
404.13	3815.07
404.32	4858.95
404.51	3995.29
404.70	2305.43
404.89	929.19
405.09	365.12
405.28	238.73
405.47	210.65
405.66	154.48
405.85	93.62
406.05	215.33
406.24	126.39
406.43	149.79
406.62	196.60
406.81	170.86
407.00	299.59
407.20	601.52
407.39	664.71
407.58	706.84
407.77	505.56
407.96	348.74
408.15	159.16
408.34	119.37
408.54	210.65
408.73	126.39
408.92	135.75
409.11	210.65
409.30	131.07
409.49	77.24
409.68	152.13
409.87	149.79
410.07	107.66
410.26	168.52
410.45	255.12
410.64	205.97
410.83	220.01
411.02	196.60
411.21	173.20
411.40	131.07
411.59	203.63
411.78	180.22
411.98	170.86
412.17	163.84
412.36	222.35
412.55	133.41
412.74	208.31
412.93	203.63
413.12	180.22
413.31	224.69
413.50	238.73
413.69	170.86
413.88	224.69
414.07	147.45
414.26	105.32
414.45	149.79
414.64	243.42
414.83	215.33
415.02	273.84
415.22	210.65
415.41	201.29
415.60	227.03
415.79	168.52
415.98	182.56
416.17	187.24
416.36	203.63
416.55	224.69
416.74	220.01
416.93	212.99
417.12	269.16
417.31	187.24
417.50	194.26
417.69	222.35
417.88	201.29
418.07	191.92
418.26	271.50
418.45	250.44
418.64	327.68
418.83	163.84
419.02	205.97
419.21	222.35
419.39	175.54
419.58	180.22
419.77	149.79
419.96	231.71
420.15	259.80
420.34	257.46
420.53	262.14
420.72	215.33
420.91	297.25
421.10	220.01
421.29	266.82
421.48	201.29
421.67	252.78
421.86	222.35
422.05	301.93
422.24	276.18
422.43	248.10
422.61	191.92
422.80	273.84
422.99	243.42
423.18	269.16
423.37	297.25
423.56	194.26
423.75	313.63
423.94	264.48
424.13	269.16
424.32	273.84
424.50	208.31
424.69	255.12
424.88	287.89
425.07	128.73
425.26	231.71
425.45	271.50
425.64	243.42
425.83	257.46
426.01	294.91
426.20	229.37
426.39	255.12
426.58	245.76
426.77	259.80
426.96	320.65
427.15	264.48
427.33	313.63
427.52	250.44
427.71	222.35
427.90	290.23
428.09	266.82
428.28	313.63
428.46	276.18
428.65	330.02
428.84	259.80
429.03	393.21
429.22	299.59
429.40	262.14
429.59	313.63
429.78	393.21
429.97	379.17
430.16	358.10
430.34	241.08
430.53	245.76
430.72	257.46
430.91	297.25
431.10	332.36
431.28	304.27
431.47	351.08
431.66	273.84
431.85	341.72
432.03	322.99
432.22	400.23
432.41	397.89
432.60	299.59
432.79	369.80
432.97	421.30
433.16	423.64
433.35	355.76
433.54	484.49
433.72	519.60
433.91	538.32
434.10	489.17
434.28	655.35
434.47	669.39
434.66	821.53
434.85	947.92
435.03	2913.97
435.22	10565.18
435.41	21912.10
435.59	20793.32
435.78	13287.22
435.97	6548.82
436.16	2462.24
436.34	950.26
436.53	573.43
436.72	526.62
436.90	390.87
437.09	440.02
437.28	425.98
437.46	393.21
437.65	390.87
437.84	374.49
438.02	425.98
438.21	435.34
438.40	402.57
438.58	451.72
438.77	287.89
438.96	383.85
439.14	325.33
439.33	409.59
439.52	407.25
439.70	320.65
439.89	379.17
440.08	362.78
440.26	297.25
440.45	346.40
440.63	355.76
440.82	320.65
441.01	395.55
441.19	390.87
441.38	266.82
441.57	301.93
441.75	341.72
441.94	440.02
442.12	358.10
442.31	341.72
442.50	355.76
442.68	372.15
442.87	407.25
443.05	341.72
443.24	411.93
443.43	390.87
443.61	393.21
443.80	313.63
443.98	294.91
444.17	372.15
444.35	381.51
444.54	365.12
444.73	325.33
444.91	423.64
445.10	365.12
445.28	379.17
445.47	379.17
445.65	306.61
445.84	344.06
446.02	383.85
446.21	355.76
446.39	360.44
446.58	308.95
446.77	337.04
446.95	393.21
447.14	313.63
447.32	367.46
447.51	337.04
447.69	344.06
447.88	325.33
448.06	360.44
448.25	397.89
448.43	318.31
448.62	327.68
448.80	313.63
448.99	390.87
449.17	360.44
449.36	360.44
449.54	341.72
449.73	322.99
449.91	301.93
450.10	430.66
450.28	402.57
450.46	409.59
450.65	444.70
450.83	358.10
451.02	355.76
451.20	358.10
451.39	367.46
451.57	330.02
451.76	332.36
451.94	231.71
452.13	407.25
452.31	444.70
452.49	346.40
452.68	383.85
452.86	374.49
453.05	418.96
453.23	440.02
453.42	351.08
453.60	297.25
453.78	311.29
453.97	353.42
454.15	327.68
454.34	362.78
454.52	346.40
454.70	341.72
454.89	367.46
455.07	374.49
455.26	304.27
455.44	402.57
455.62	325.33
455.81	409.59
455.99	430.66
456.17	379.17
456.36	271.50
456.54	355.76
456.73	355.76
456.91	318.31
457.09	411.93
457.28	465.77
457.46	285.55
457.64	395.55
457.83	337.04
458.01	311.29
458.19	301.93
458.38	332.36
458.56	425.98
458.74	402.57
458.93	369.80
459.11	301.93
459.29	360.44
459.48	407.25
459.66	425.98
459.84	397.89
460.03	463.43
460.21	337.04
460.39	367.46
460.57	362.78
460.76	318.31
460.94	341.72
461.12	297.25
461.31	367.46
461.49	414.27
461.67	337.04
461.85	454.06
462.04	311.29
462.22	828.55
462.40	332.36
462.59	433.00
462.77	311.29
462.95	404.91
463.13	369.80
463.32	421.30
463.50	379.17
463.68	348.74
463.86	341.72
464.05	318.31
464.23	402.57
464.41	390.87
464.59	344.06
464.78	376.83
464.96	400.23
465.14	294.91
465.32	383.85
465.50	390.87
465.69	365.12
465.87	292.57
466.05	367.46
466.23	248.10
466.41	334.70
466.60	444.70
466.78	344.06
466.96	411.93
467.14	369.80
467.32	458.74
467.51	386.19
467.69	330.02
467.87	287.89
468.05	301.93
468.23	341.72
468.41	402.57
468.60	348.74
468.78	348.74
468.96	341.72
469.14	374.49
469.32	322.99
469.50	315.97
469.69	320.65
469.87	334.70
470.05	320.65
470.23	388.53
470.41	285.55
470.59	379.17
470.77	381.51
470.95	264.48
471.14	327.68
471.32	318.31
471.50	322.99
471.68	365.12
471.86	374.49
472.04	315.97
472.22	306.61
472.40	341.72
472.58	255.12
472.77	273.84
472.95	290.23
473.13	294.91
473.31	334.70
473.49	334.70
473.67	252.78
473.85	402.57
474.03	397.89
474.21	369.80
474.39	346.40
474.57	325.33
474.75	376.83
474.93	315.97
475.12	360.44
475.30	360.44
475.48	308.95
475.66	404.91
475.84	334.70
476.02	348.74
476.20	402.57
476.38	325.33
476.56	393.21
476.74	287.89
476.92	315.97
477.10	372.15
477.28	332.36
477.46	374.49
477.64	372.15
477.82	379.17
478.00	355.76
478.18	444.70
478.36	451.72
478.54	351.08
478.72	440.02
478.90	409.59
479.08	458.74
479.26	491.51
479.44	449.38
479.62	374.49
479.80	437.68
479.98	484.49
480.16	475.13
480.34	540.66
480.52	500.87
480.70	465.77
480.88	493.85
481.06	571.09
481.24	552.37
481.41	566.41
481.59	615.56
481.77	716.20
481.95	770.04
482.13	763.01
482.31	702.16
482.49	777.06
482.67	847.27
482.85	915.15
483.03	954.94
483.21	1025.15
483.39	1064.94
483.57	1093.03
483.74	1212.40
483.92	1282.61
484.10	1263.89
484.28	1406.66
484.46	1460.49
484.64	1511.99
484.82	1504.96
485.00	1729.66
485.18	1797.53
485.35	1879.45
485.53	1961.37
485.71	2099.46
485.89	2155.63
486.07	2122.87
486.25	2181.38
486.43	2122.87
486.61	2232.87
486.78	2246.91
486.96	2165.00
487.14	2148.61
487.32	2113.50
487.50	2232.87
487.68	2197.76
487.85	2069.03
488.03	2001.16
488.21	2090.10
488.39	2071.37
488.57	1961.37
488.75	1987.11
488.92	2150.95
489.10	1804.55
489.28	1872.43
489.46	1743.70
489.64	1675.82
489.81	1778.81
489.99	1783.49
490.17	1818.60
490.35	1736.68
490.53	1685.19
490.70	1654.76
490.88	1732.00
491.06	1837.32
491.24	1832.64
491.41	1980.09
491.59	1776.47
491.77	1664.12
491.95	1668.80
492.13	1500.28
492.30	1633.69
492.48	1575.18
492.66	1547.09
492.84	1519.01
493.01	1490.92
493.19	1453.47
493.37	1563.48
493.54	1474.54
493.72	1434.75
493.90	1406.66
494.08	1336.45
494.25	1334.11
494.43	1348.15
494.61	1282.61
494.79	1254.53
494.96	1198.35
495.14	1228.78
495.32	1282.61
495.49	1191.33
495.67	1149.20
495.85	1128.14
496.02	1114.10
496.20	1270.91
496.38	1123.46
496.55	1179.63
496.73	1114.10
496.91	1076.65
497.09	1067.28
497.26	1036.86
497.44	1062.60
497.62	1046.22
497.79	1020.47
497.97	964.30
498.14	938.55
498.32	926.85
498.50	990.05
498.67	884.72
498.85	858.98
499.03	814.51
499.20	924.51
499.38	835.57
499.56	786.42
499.73	844.93
499.91	863.66
500.08	842.59
500.26	774.72
500.44	669.39
500.61	660.03
500.79	575.77
500.97	755.99
501.14	809.83
501.32	641.31
501.49	681.10
501.67	613.22
501.84	594.50
502.02	585.13
502.20	636.63
502.37	592.16
502.55	524.28
502.72	535.98
502.90	486.83
503.07	533.64
503.25	519.60
503.43	454.06
503.60	554.71
503.78	484.49
503.95	498.53
504.13	465.77
504.30	500.87
504.48	559.39
504.65	458.74
504.83	493.85
505.01	379.17
505.18	425.98
505.36	472.79
505.53	451.72
505.71	454.06
505.88	484.49
506.06	379.17
506.23	390.87
506.41	425.98
506.58	365.12
506.76	423.64
506.93	440.02
507.11	393.21
507.28	362.78
507.46	376.83
507.63	327.68
507.81	447.04
507.98	355.76
508.16	451.72
508.33	421.30
508.50	421.30
508.68	425.98
508.85	386.19
509.03	421.30
509.20	435.34
509.38	362.78
509.55	444.70
509.73	400.23
509.90	388.53
510.08	404.91
510.25	334.70
510.42	341.72
510.60	299.59
510.77	339.38
510.95	418.96
511.12	348.74
511.30	341.72
511.47	416.62
511.64	397.89
511.82	468.11
511.99	393.21
512.17	355.76
512.34	411.93
512.51	348.74
512.69	454.06
512.86	421.30
513.04	379.17
513.21	271.50
513.38	365.12
513.56	327.68
513.73	339.38
513.90	332.36
514.08	372.15
514.25	304.27
514.43	341.72
514.60	344.06
514.77	301.93
514.95	320.65
515.12	379.17
515.29	285.55
515.47	393.21
515.64	376.83
515.81	334.70
515.99	353.42
516.16	299.59
516.33	365.12
516.51	315.97
516.68	341.72
516.85	330.02
517.03	362.78
517.20	379.17
517.37	262.14
517.54	318.31
517.72	313.63
517.89	266.82
518.06	287.89
518.24	339.38
518.41	348.74
518.58	388.53
518.75	327.68
518.93	266.82
519.10	320.65
519.27	353.42
519.45	346.40
519.62	332.36
519.79	334.70
519.96	311.29
520.14	374.49
520.31	348.74
520.48	278.52
520.65	318.31
520.83	362.78
521.00	276.18
521.17	276.18
521.34	301.93
521.52	294.91
521.69	322.99
521.86	301.93
522.03	271.50
522.20	294.91
522.38	379.17
522.55	320.65
522.72	355.76
522.89	355.76
523.07	346.40
523.24	283.20
523.41	369.80
523.58	262.14
523.75	283.20
523.92	320.65
524.10	337.04
524.27	304.27
524.44	337.04
524.61	299.59
524.78	341.72
524.96	320.65
525.13	341.72
525.30	358.10
525.47	383.85
525.64	449.38
525.81	362.78
525.98	390.87
526.16	362.78
526.33	271.50
526.50	402.57
526.67	351.08
526.84	355.76
527.01	306.61
527.18	409.59
527.36	397.89
527.53	395.55
527.70	395.55
527.87	294.91
528.04	365.12
528.21	322.99
528.38	381.51
528.55	390.87
528.72	402.57
528.89	444.70
529.07	400.23
529.24	423.64
529.41	517.26
529.58	470.45
529.75	390.87
529.92	489.17
530.09	486.83
530.26	390.87
530.43	421.30
530.60	428.32
530.77	510.24
530.94	535.98
531.11	496.19
531.28	442.36
531.46	510.24
531.63	592.16
531.80	519.60
531.97	559.39
532.14	599.18
532.31	683.44
532.48	713.86
532.65	910.47
532.82	992.39
532.99	1149.20
533.16	1284.95
533.33	1338.79
533.50	1331.76
533.67	1167.93
533.84	980.68
534.01	926.85
534.18	931.53
534.35	748.97
534.52	854.30
534.69	875.36
534.86	802.80
535.03	997.07
535.20	1008.77
535.37	1093.03
535.54	1090.69
535.71	1097.71
535.88	1121.12
536.05	1179.63
536.22	1348.15
536.38	1504.96
536.55	1488.58
536.72	1685.19
536.89	1825.62
537.06	1975.41
537.23	2202.44
537.40	2375.64
537.57	2626.08
537.74	2792.26
537.91	2899.92
538.08	2920.99
538.25	2963.12
538.42	3038.02
538.59	3073.12
538.75	3145.68
538.92	3410.16
539.09	3646.55
539.26	4098.28
539.43	4645.96
539.60	5226.42
539.77	5813.89
539.94	6569.88
540.11	7122.25
540.28	7754.19
540.44	8383.80
540.61	9437.04
540.78	10988.82
540.95	12964.23
541.12	15318.81
541.29	17202.94
541.46	18190.64
541.62	17638.28
541.79	17135.06
541.96	15775.21
542.13	14707.93
542.30	13657.03
542.47	12863.58
542.63	12053.76
542.80	11770.55
542.97	11740.13
543.14	11829.07
543.31	11831.41
543.48	11681.61
543.64	11936.73
543.81	12301.86
543.98	12280.79
544.15	12348.67
544.32	12194.19
544.48	12163.76
544.65	11829.07
544.82	11791.62
544.99	11885.24
545.16	12252.70
545.32	12894.01
545.49	23208.75
545.66	42328.59
545.83	48633.99
546.00	40879.80
546.16	28219.84
546.33	20968.86
546.50	15482.64
546.67	12128.66
546.83	10860.09
547.00	10473.90
547.17	9804.50
547.34	9570.45
547.50	9268.52
547.67	8884.67
547.84	8472.74
548.00	8308.90
548.17	7873.56
548.34	7557.59
548.51	7166.72
548.67	6932.67
548.84	6642.44
549.01	6370.94
549.18	6174.33
549.34	5809.21
549.51	5565.79
549.68	5434.72
549.84	5268.55
550.01	4945.55
550.18	4751.29
550.34	4624.90
550.51	4210.62
550.68	4126.36
550.84	4016.36
551.01	3604.42
551.18	3557.61
551.34	3260.37
551.51	3194.83
551.68	3103.55
551.84	3080.14
552.01	2949.08
552.18	2801.62
552.34	2651.83
552.51	2455.22
552.68	2420.11
552.84	2427.14
553.01	2267.98
553.18	2239.89
553.34	2188.40
553.51	2069.03
553.67	2050.31
553.84	2005.84
554.01	1811.57
554.17	1671.14
554.34	1673.48
554.51	1572.84
554.67	1519.01
554.84	1411.34
555.00	1252.19
555.17	1291.98
555.33	1207.72
555.50	1193.67
555.67	1111.75
555.83	1013.45
556.00	978.34
556.16	1139.84
556.33	896.43
556.50	1008.77
556.66	905.79
556.83	987.71
556.99	952.60
557.16	840.25
557.32	898.77
557.49	840.25
557.65	816.85
557.82	809.83
557.98	800.46
558.15	709.18
558.32	718.54
558.48	660.03
558.65	725.57
558.81	641.31
558.98	624.92
559.14	671.73
559.31	650.67
559.47	685.78
559.64	645.99
559.80	709.18
559.97	554.71
560.13	631.94
560.30	578.11
560.46	589.82
560.63	592.16
560.79	596.84
560.96	606.20
561.12	533.64
561.29	638.97
561.45	641.31
561.61	641.31
561.78	681.10
561.94	589.82
562.11	592.16
562.27	589.82
562.44	603.86
562.60	615.56
562.77	620.24
562.93	657.69
563.10	564.07
563.26	526.62
563.42	545.34
563.59	507.90
563.75	470.45
563.92	514.92
564.08	554.71
564.24	582.79
564.41	543.00
564.57	554.71
564.74	552.37
564.90	449.38
565.07	552.37
565.23	465.77
565.39	465.77
565.56	449.38
565.72	454.06
565.88	454.06
566.05	489.17
566.21	486.83
566.38	491.51
566.54	477.47
566.70	416.62
566.87	519.60
567.03	489.17
567.19	573.43
567.36	538.32
567.52	411.93
567.68	482.15
567.85	512.58
568.01	500.87
568.17	461.09
568.34	545.34
568.50	524.28
568.66	489.17
568.83	468.11
568.99	491.51
569.15	538.32
569.32	491.51
569.48	482.15
569.64	425.98
569.81	430.66
569.97	463.43
570.13	444.70
570.30	472.79
570.46	393.21
570.62	425.98
570.78	458.74
570.95	386.19
571.11	491.51
571.27	360.44
571.43	423.64
571.60	425.98
571.76	440.02
571.92	423.64
572.09	376.83
572.25	381.51
572.41	327.68
572.57	388.53
572.74	444.70
572.90	365.12
573.06	404.91
573.22	306.61
573.38	409.59
573.55	421.30
573.71	482.15
573.87	454.06
574.03	404.91
574.20	463.43
574.36	479.81
574.52	411.93
574.68	477.47
574.84	540.66
575.01	489.17
575.17	557.05
575.33	599.18
575.49	622.58
575.65	601.52
575.82	617.90
575.98	709.18
576.14	812.17
576.30	1621.99
576.46	5263.86
576.62	8044.42
576.79	8292.52
576.95	5930.92
577.11	3894.65
577.27	2698.64
577.43	1888.81
577.59	1303.68
577.75	1071.97
577.92	933.87
578.08	868.34
578.24	971.32
578.40	1710.93
578.56	4915.12
578.72	7620.78
578.88	7789.30
579.04	5572.82
579.21	4028.06
579.37	3026.31
579.53	2445.86
579.69	2370.96
579.85	2869.50
580.01	3262.71
580.17	2995.89
580.33	2656.51
580.49	2272.66
580.65	2146.27
580.82	1895.83
580.98	1739.02
581.14	1898.17
581.30	2008.18
581.46	2132.23
581.62	2277.34
581.78	2429.48
581.94	2581.61
582.10	2658.85
582.26	2810.98
582.42	3012.27
582.58	3007.59
582.74	3026.31
582.90	3272.07
583.06	3162.06
583.22	3138.66
583.38	3162.06
583.54	3185.47
583.70	3035.67
583.86	3000.57
584.02	3192.49
584.18	2993.55
584.34	2857.79
584.50	2923.33
584.66	2829.71
584.82	2750.13
584.98	2766.51
585.14	2752.47
585.30	2642.46
585.46	2616.72
585.62	2710.34
585.78	2677.57
585.94	2682.25
586.10	2759.49
586.26	2949.08
586.42	3255.69
586.58	3803.37
586.74	4830.87
586.90	5668.78
587.06	6228.17
587.22	5930.92
587.38	5165.56
587.54	4486.81
587.70	3866.56
587.86	3304.84
588.02	2883.54
588.18	2595.65
588.34	2328.83
588.49	2186.06
588.65	1987.11
588.81	1905.20
588.97	1888.81
589.13	1863.07
589.29	1748.38
589.45	1764.76
589.61	1767.10
589.77	1825.62
589.93	1767.10
590.08	1774.13
590.24	1865.41
590.40	1879.45
590.56	2045.63
590.72	2036.27
590.88	2052.65
591.04	2186.06
591.20	2256.28
591.35	2317.13
591.51	2410.75
591.67	2548.84
591.83	2733.75
591.99	2951.42
592.15	3255.69
592.31	3417.18
592.46	3653.58
592.62	4056.15
592.78	4294.88
592.94	4355.74
593.10	4428.29
593.26	4032.74
593.41	3548.25
593.57	3253.34
593.73	2988.86
593.89	2647.15
594.05	2253.94
594.20	2120.53
594.36	2108.82
594.52	1856.04
594.68	1790.51
594.84	1778.81
594.99	1689.87
595.15	1659.44
595.31	1666.46
595.47	1643.06
595.62	1696.89
595.78	1577.52
595.94	1570.50
596.10	1640.72
596.25	1544.75
596.41	1570.50
596.57	1687.53
596.73	1610.29
596.88	1526.03
597.04	1542.41
597.20	1526.03
597.36	1699.23
597.51	1619.65
597.67	1757.74
597.83	1788.17
597.99	1930.94
598.14	2010.52
598.30	2230.53
598.46	2125.21
598.61	2392.03
598.77	2401.39
598.93	2532.46
599.09	2609.70
599.24	2710.34
599.40	2642.46
599.56	2499.69
599.71	2345.22
599.87	2370.96
600.03	2132.23
600.18	1982.43
600.34	1944.99
600.50	1799.87
600.65	1678.16
600.81	1607.95
600.97	1521.35
601.12	1378.58
601.28	1345.81
601.44	1390.28
601.59	1226.44
601.75	1188.99
601.91	1235.80
602.06	1254.53
602.22	1219.42
602.37	1163.25
602.53	1137.50
602.69	1041.54
602.84	987.71
603.00	1095.37
603.16	1083.67
603.31	1196.01
603.47	1142.18
603.62	1118.78
603.78	1245.16
603.94	1198.35
604.09	1219.42
604.25	1184.31
604.40	1273.25
604.56	1315.38
604.71	1261.55
604.87	1160.91
605.03	1306.02
605.18	1348.15
605.34	1401.98
605.49	1416.02
605.65	1423.05
605.80	1437.09
605.96	1563.48
606.12	1617.31
