SpectraSuite Data File
++++++++++++++++++++++++++++++++++++
Date: Fri Oct 04 11:42:27 GMT-05:00 2013
User: price-jones
Dark Spectrum Present: No
Reference Spectrum Present: No
Number of Sampled Component Spectra: 1
Spectrometers: USB2+H05261
Integration Time (usec): 100000 (USB2+H05261)
Spectra Averaged: 1 (USB2+H05261)
Boxcar Smoothing: 0 (USB2+H05261)
Correct for Electrical Dark: No (USB2+H05261)
Strobe/Lamp Enabled: No (USB2+H05261)
Correct for Detector Non-linearity: No (USB2+H05261)
Correct for Stray Light: No (USB2+H05261)
Number of Pixels in Processed Spectrum: 2048
>>>>>Begin Processed Spectral Data<<<<<
365.73	88.94
365.92	88.94
366.12	88.94
366.32	0.00
366.52	0.00
366.72	0.00
366.91	0.00
367.11	0.00
367.31	23.41
367.51	0.00
367.70	0.00
367.90	0.00
368.10	0.00
368.30	0.00
368.49	0.00
368.69	0.00
368.89	0.00
369.09	0.00
369.28	18.72
369.48	0.00
369.68	0.00
369.87	44.47
370.07	0.00
370.27	16.38
370.47	0.00
370.66	0.00
370.86	60.85
371.06	0.00
371.25	81.92
371.45	81.92
371.65	86.60
371.84	72.56
372.04	30.43
372.24	0.00
372.44	58.51
372.63	95.96
372.83	168.52
373.03	117.03
373.22	124.05
373.42	84.26
373.62	147.45
373.81	149.79
374.01	175.54
374.21	126.39
374.40	145.11
374.60	124.05
374.79	84.26
374.99	53.83
375.19	88.94
375.38	133.41
375.58	152.13
375.78	95.96
375.97	163.84
376.17	201.29
376.37	142.77
376.56	149.79
376.76	105.32
376.95	79.58
377.15	145.11
377.35	124.05
377.54	117.03
377.74	79.58
377.93	121.71
378.13	177.88
378.33	191.92
378.52	63.19
378.72	147.45
378.91	119.37
379.11	95.96
379.31	77.24
379.50	65.54
379.70	93.62
379.89	117.03
380.09	133.41
380.28	170.86
380.48	138.09
380.68	102.98
380.87	182.56
381.07	154.48
381.26	91.28
381.46	114.69
381.65	98.30
381.85	37.45
382.04	77.24
382.24	154.48
382.43	149.79
382.63	121.71
382.83	37.45
383.02	88.94
383.22	102.98
383.41	182.56
383.61	138.09
383.80	98.30
384.00	121.71
384.19	131.07
384.39	56.17
384.58	70.22
384.78	114.69
384.97	67.88
385.17	51.49
385.36	100.64
385.56	98.30
385.75	21.06
385.95	42.13
386.14	217.67
386.34	67.88
386.53	88.94
386.72	63.19
386.92	175.54
387.11	124.05
387.31	170.86
387.50	58.51
387.70	124.05
387.89	119.37
388.09	67.88
388.28	67.88
388.48	81.92
388.67	126.39
388.86	126.39
389.06	58.51
389.25	119.37
389.45	124.05
389.64	121.71
389.84	53.83
390.03	145.11
390.22	70.22
390.42	23.41
390.61	74.90
390.81	39.79
391.00	217.67
391.19	154.48
391.39	88.94
391.58	182.56
391.78	93.62
391.97	135.75
392.16	51.49
392.36	156.82
392.55	182.56
392.75	119.37
392.94	135.75
393.13	189.58
393.33	117.03
393.52	100.64
393.71	145.11
393.91	166.18
394.10	140.43
394.29	30.43
394.49	53.83
394.68	114.69
394.88	88.94
395.07	117.03
395.26	133.41
395.46	135.75
395.65	131.07
395.84	86.60
396.04	110.01
396.23	121.71
396.42	159.16
396.62	30.43
396.81	60.85
397.00	102.98
397.19	126.39
397.39	117.03
397.58	189.58
397.77	74.90
397.97	112.35
398.16	72.56
398.35	128.73
398.55	119.37
398.74	154.48
398.93	152.13
399.12	91.28
399.32	53.83
399.51	121.71
399.70	79.58
399.90	152.13
400.09	110.01
400.28	138.09
400.47	93.62
400.67	149.79
400.86	107.66
401.05	117.03
401.24	145.11
401.44	98.30
401.63	124.05
401.82	114.69
402.01	124.05
402.21	131.07
402.40	77.24
402.59	112.35
402.78	119.37
402.97	168.52
403.17	56.17
403.36	110.01
403.55	93.62
403.74	133.41
403.93	217.67
404.13	271.50
404.32	264.48
404.51	276.18
404.70	262.14
404.89	110.01
405.09	145.11
405.28	145.11
405.47	133.41
405.66	126.39
405.85	224.69
406.05	74.90
406.24	124.05
406.43	145.11
406.62	117.03
406.81	173.20
407.00	124.05
407.20	161.50
407.39	131.07
407.58	142.77
407.77	147.45
407.96	184.90
408.15	184.90
408.34	180.22
408.54	131.07
408.73	119.37
408.92	229.37
409.11	117.03
409.30	222.35
409.49	102.98
409.68	112.35
409.87	220.01
410.07	117.03
410.26	126.39
410.45	72.56
410.64	95.96
410.83	145.11
411.02	149.79
411.21	128.73
411.40	156.82
411.59	170.86
411.78	145.11
411.98	196.60
412.17	42.13
412.36	126.39
412.55	102.98
412.74	131.07
412.93	159.16
413.12	100.64
413.31	184.90
413.50	189.58
413.69	142.77
413.88	159.16
414.07	212.99
414.26	88.94
414.45	135.75
414.64	128.73
414.83	121.71
415.02	161.50
415.22	142.77
415.41	147.45
415.60	93.62
415.79	79.58
415.98	81.92
416.17	138.09
416.36	189.58
416.55	149.79
416.74	147.45
416.93	175.54
417.12	126.39
417.31	170.86
417.50	210.65
417.69	119.37
417.88	140.43
418.07	168.52
418.26	140.43
418.45	128.73
418.64	112.35
418.83	147.45
419.02	147.45
419.21	177.88
419.39	142.77
419.58	114.69
419.77	91.28
419.96	149.79
420.15	196.60
420.34	114.69
420.53	166.18
420.72	152.13
420.91	131.07
421.10	107.66
421.29	156.82
421.48	110.01
421.67	170.86
421.86	191.92
422.05	107.66
422.24	140.43
422.43	119.37
422.61	77.24
422.80	105.32
422.99	159.16
423.18	187.24
423.37	191.92
423.56	154.48
423.75	112.35
423.94	114.69
424.13	145.11
424.32	114.69
424.50	180.22
424.69	149.79
424.88	191.92
425.07	135.75
425.26	156.82
425.45	105.32
425.64	170.86
425.83	138.09
426.01	63.19
426.20	121.71
426.39	191.92
426.58	140.43
426.77	159.16
426.96	208.31
427.15	147.45
427.33	147.45
427.52	133.41
427.71	147.45
427.90	124.05
428.09	168.52
428.28	145.11
428.46	121.71
428.65	145.11
428.84	173.20
429.03	194.26
429.22	173.20
429.40	91.28
429.59	124.05
429.78	205.97
429.97	117.03
430.16	98.30
430.34	102.98
430.53	91.28
430.72	126.39
430.91	110.01
431.10	163.84
431.28	100.64
431.47	250.44
431.66	166.18
431.85	177.88
432.03	145.11
432.22	266.82
432.41	105.32
432.60	124.05
432.79	70.22
432.97	138.09
433.16	102.98
433.35	180.22
433.54	114.69
433.72	147.45
433.91	168.52
434.10	208.31
434.28	110.01
434.47	180.22
434.66	128.73
434.85	187.24
435.03	229.37
435.22	634.29
435.41	1060.26
435.59	1097.71
435.78	851.96
435.97	425.98
436.16	337.04
436.34	135.75
436.53	142.77
436.72	227.03
436.90	173.20
437.09	140.43
437.28	112.35
437.46	142.77
437.65	187.24
437.84	163.84
438.02	241.08
438.21	196.60
438.40	154.48
438.58	124.05
438.77	227.03
438.96	140.43
439.14	198.95
439.33	117.03
439.52	126.39
439.70	220.01
439.89	259.80
440.08	168.52
440.26	159.16
440.45	182.56
440.63	227.03
440.82	170.86
441.01	198.95
441.19	107.66
441.38	191.92
441.57	163.84
441.75	212.99
441.94	163.84
442.12	210.65
442.31	217.67
442.50	234.05
442.68	196.60
442.87	175.54
443.05	131.07
443.24	241.08
443.43	173.20
443.61	224.69
443.80	114.69
443.98	128.73
444.17	166.18
444.35	166.18
444.54	135.75
444.73	98.30
444.91	159.16
445.10	168.52
445.28	142.77
445.47	117.03
445.65	112.35
445.84	159.16
446.02	156.82
446.21	170.86
446.39	161.50
446.58	133.41
446.77	177.88
446.95	152.13
447.14	189.58
447.32	152.13
447.51	177.88
447.69	140.43
447.88	187.24
448.06	236.39
448.25	147.45
448.43	159.16
448.62	159.16
448.80	212.99
448.99	149.79
449.17	161.50
449.36	163.84
449.54	210.65
449.73	131.07
449.91	231.71
450.10	166.18
450.28	217.67
450.46	191.92
450.65	117.03
450.83	163.84
451.02	74.90
451.20	243.42
451.39	128.73
451.57	152.13
451.76	191.92
451.94	191.92
452.13	243.42
452.31	156.82
452.49	212.99
452.68	166.18
452.86	231.71
453.05	252.78
453.23	156.82
453.42	135.75
453.60	138.09
453.78	201.29
453.97	163.84
454.15	163.84
454.34	142.77
454.52	88.94
454.70	177.88
454.89	203.63
455.07	147.45
455.26	182.56
455.44	205.97
455.62	152.13
455.81	170.86
455.99	205.97
456.17	236.39
456.36	166.18
456.54	175.54
456.73	191.92
456.91	145.11
457.09	166.18
457.28	112.35
457.46	196.60
457.64	173.20
457.83	182.56
458.01	208.31
458.19	224.69
458.38	203.63
458.56	152.13
458.74	112.35
458.93	138.09
459.11	180.22
459.29	236.39
459.48	210.65
459.66	229.37
459.84	224.69
460.03	198.95
460.21	110.01
460.39	107.66
460.57	142.77
460.76	135.75
460.94	161.50
461.12	175.54
461.31	212.99
461.49	149.79
461.67	117.03
461.85	201.29
462.04	177.88
462.22	311.29
462.40	180.22
462.59	205.97
462.77	98.30
462.95	175.54
463.13	168.52
463.32	107.66
463.50	182.56
463.68	212.99
463.86	175.54
464.05	227.03
464.23	217.67
464.41	212.99
464.59	128.73
464.78	168.52
464.96	205.97
465.14	152.13
465.32	205.97
465.50	138.09
465.69	203.63
465.87	191.92
466.05	252.78
466.23	159.16
466.41	168.52
466.60	182.56
466.78	152.13
466.96	138.09
467.14	217.67
467.32	173.20
467.51	201.29
467.69	231.71
467.87	287.89
468.05	173.20
468.23	173.20
468.41	201.29
468.60	236.39
468.78	149.79
468.96	168.52
469.14	147.45
469.32	107.66
469.50	177.88
469.69	227.03
469.87	173.20
470.05	159.16
470.23	91.28
470.41	117.03
470.59	170.86
470.77	208.31
470.95	187.24
471.14	196.60
471.32	170.86
471.50	227.03
471.68	208.31
471.86	191.92
472.04	107.66
472.22	198.95
472.40	133.41
472.58	180.22
472.77	126.39
472.95	184.90
473.13	212.99
473.31	231.71
473.49	266.82
473.67	201.29
473.85	203.63
474.03	262.14
474.21	203.63
474.39	194.26
474.57	304.27
474.75	212.99
474.93	117.03
475.12	147.45
475.30	208.31
475.48	168.52
475.66	119.37
475.84	166.18
476.02	212.99
476.20	187.24
476.38	201.29
476.56	287.89
476.74	208.31
476.92	142.77
477.10	168.52
477.28	245.76
477.46	243.42
477.64	215.33
477.82	271.50
478.00	166.18
478.18	187.24
478.36	198.95
478.54	201.29
478.72	110.01
478.90	154.48
479.08	140.43
479.26	182.56
479.44	154.48
479.62	161.50
479.80	159.16
479.98	166.18
480.16	102.98
480.34	231.71
480.52	140.43
480.70	184.90
480.88	212.99
481.06	191.92
481.24	194.26
481.41	222.35
481.59	135.75
481.77	173.20
481.95	196.60
482.13	311.29
482.31	241.08
482.49	168.52
482.67	245.76
482.85	264.48
483.03	278.52
483.21	198.95
483.39	259.80
483.57	205.97
483.74	255.12
483.92	217.67
484.10	269.16
484.28	229.37
484.46	301.93
484.64	297.25
484.82	283.20
485.00	273.84
485.18	287.89
485.35	191.92
485.53	327.68
485.71	322.99
485.89	280.86
486.07	311.29
486.25	339.38
486.43	287.89
486.61	344.06
486.78	325.33
486.96	297.25
487.14	367.46
487.32	290.23
487.50	308.95
487.68	362.78
487.85	318.31
488.03	259.80
488.21	334.70
488.39	308.95
488.57	332.36
488.75	341.72
488.92	561.73
489.10	266.82
489.28	353.42
489.46	248.10
489.64	245.76
489.81	348.74
489.99	322.99
490.17	278.52
490.35	381.51
490.53	348.74
490.70	278.52
490.88	332.36
491.06	313.63
491.24	280.86
491.41	348.74
491.59	301.93
491.77	292.57
491.95	241.08
492.13	278.52
492.30	262.14
492.48	320.65
492.66	306.61
492.84	327.68
493.01	248.10
493.19	348.74
493.37	348.74
493.54	322.99
493.72	234.05
493.90	231.71
494.08	348.74
494.25	210.65
494.43	330.02
494.61	280.86
494.79	229.37
494.96	222.35
495.14	271.50
495.32	266.82
495.49	224.69
495.67	304.27
495.85	280.86
496.02	222.35
496.20	320.65
496.38	273.84
496.55	252.78
496.73	285.55
496.91	292.57
497.09	245.76
497.26	189.58
497.44	301.93
497.62	222.35
497.79	220.01
497.97	283.20
498.14	227.03
498.32	189.58
498.50	273.84
498.67	245.76
498.85	259.80
499.03	262.14
499.20	283.20
499.38	238.73
499.56	191.92
499.73	332.36
499.91	201.29
500.08	308.95
500.26	299.59
500.44	262.14
500.61	294.91
500.79	215.33
500.97	360.44
501.14	299.59
501.32	236.39
501.49	168.52
501.67	231.71
501.84	271.50
502.02	173.20
502.20	283.20
502.37	217.67
502.55	276.18
502.72	283.20
502.90	299.59
503.07	215.33
503.25	227.03
503.43	245.76
503.60	212.99
503.78	250.44
503.95	283.20
504.13	241.08
504.30	189.58
504.48	217.67
504.65	257.46
504.83	250.44
505.01	236.39
505.18	210.65
505.36	201.29
505.53	227.03
505.71	248.10
505.88	238.73
506.06	231.71
506.23	264.48
506.41	241.08
506.58	201.29
506.76	238.73
506.93	248.10
507.11	231.71
507.28	245.76
507.46	194.26
507.63	259.80
507.81	212.99
507.98	224.69
508.16	222.35
508.33	166.18
508.50	215.33
508.68	264.48
508.85	283.20
509.03	152.13
509.20	262.14
509.38	220.01
509.55	184.90
509.73	269.16
509.90	227.03
510.08	205.97
510.25	238.73
510.42	201.29
510.60	210.65
510.77	269.16
510.95	229.37
511.12	231.71
511.30	339.38
511.47	273.84
511.64	287.89
511.82	313.63
511.99	243.42
512.17	205.97
512.34	210.65
512.51	229.37
512.69	220.01
512.86	276.18
513.04	259.80
513.21	252.78
513.38	238.73
513.56	245.76
513.73	262.14
513.90	161.50
514.08	276.18
514.25	252.78
514.43	215.33
514.60	250.44
514.77	189.58
514.95	205.97
515.12	182.56
515.29	217.67
515.47	285.55
515.64	252.78
515.81	215.33
515.99	287.89
516.16	327.68
516.33	257.46
516.51	210.65
516.68	159.16
516.85	201.29
517.03	196.60
517.20	212.99
517.37	264.48
517.54	229.37
517.72	224.69
517.89	175.54
518.06	241.08
518.24	285.55
518.41	332.36
518.58	187.24
518.75	299.59
518.93	229.37
519.10	184.90
519.27	184.90
519.45	212.99
519.62	259.80
519.79	227.03
519.96	287.89
520.14	220.01
520.31	308.95
520.48	191.92
520.65	189.58
520.83	187.24
521.00	259.80
521.17	292.57
521.34	269.16
521.52	210.65
521.69	262.14
521.86	156.82
522.03	294.91
522.20	297.25
522.38	313.63
522.55	250.44
522.72	187.24
522.89	315.97
523.07	269.16
523.24	234.05
523.41	290.23
523.58	168.52
523.75	255.12
523.92	266.82
524.10	201.29
524.27	227.03
524.44	287.89
524.61	283.20
524.78	248.10
524.96	269.16
525.13	224.69
525.30	311.29
525.47	276.18
525.64	255.12
525.81	224.69
525.98	231.71
526.16	224.69
526.33	290.23
526.50	229.37
526.67	290.23
526.84	229.37
527.01	250.44
527.18	290.23
527.36	245.76
527.53	252.78
527.70	220.01
527.87	243.42
528.04	280.86
528.21	177.88
528.38	278.52
528.55	278.52
528.72	224.69
528.89	325.33
529.07	198.95
529.24	273.84
529.41	271.50
529.58	168.52
529.75	175.54
529.92	241.08
530.09	278.52
530.26	358.10
530.43	278.52
530.60	255.12
530.77	252.78
530.94	245.76
531.11	255.12
531.28	283.20
531.46	257.46
531.63	294.91
531.80	252.78
531.97	245.76
532.14	248.10
532.31	252.78
532.48	269.16
532.65	276.18
532.82	285.55
532.99	262.14
533.16	294.91
533.33	341.72
533.50	313.63
533.67	283.20
533.84	306.61
534.01	248.10
534.18	194.26
534.35	194.26
534.52	243.42
534.69	358.10
534.86	276.18
535.03	220.01
535.20	280.86
535.37	383.85
535.54	294.91
535.71	271.50
535.88	280.86
536.05	304.27
536.22	269.16
536.38	299.59
536.55	379.17
536.72	271.50
536.89	255.12
537.06	332.36
537.23	280.86
537.40	320.65
537.57	400.23
537.74	423.64
537.91	414.27
538.08	440.02
538.25	430.66
538.42	482.15
538.59	472.79
538.75	477.47
538.92	409.59
539.09	440.02
539.26	468.11
539.43	526.62
539.60	489.17
539.77	587.47
539.94	477.47
540.11	582.79
540.28	660.03
540.44	702.16
540.61	744.29
540.78	786.42
540.95	873.02
541.12	1027.50
541.29	1076.65
541.46	1233.46
541.62	1156.22
541.79	1174.95
541.96	1130.48
542.13	1219.42
542.30	1130.48
542.47	1123.46
542.63	1090.69
542.80	1149.20
542.97	1139.84
543.14	1076.65
543.31	1114.10
543.48	1139.84
543.64	1100.05
543.81	1086.01
543.98	1125.80
544.15	1107.07
544.32	1095.37
544.48	1034.52
544.65	1060.26
544.82	964.30
544.99	1081.33
545.16	1039.20
545.32	952.60
545.49	1673.48
545.66	2368.62
545.83	2747.79
546.00	2530.12
546.16	1771.79
546.33	1420.71
546.50	1118.78
546.67	854.30
546.83	814.51
547.00	821.53
547.17	737.27
547.34	692.80
547.50	648.33
547.67	676.41
547.84	777.06
548.00	676.41
548.17	655.35
548.34	692.80
548.51	704.50
548.67	648.33
548.84	561.73
549.01	634.29
549.18	629.60
549.34	559.39
549.51	575.77
549.68	477.47
549.84	547.69
550.01	552.37
550.18	636.63
550.34	568.75
550.51	514.92
550.68	624.92
550.84	479.81
551.01	440.02
551.18	411.93
551.34	416.62
551.51	409.59
551.68	381.51
551.84	447.04
552.01	444.70
552.18	402.57
552.34	437.68
552.51	498.53
552.68	437.68
552.84	449.38
553.01	360.44
553.18	360.44
553.34	334.70
553.51	360.44
553.67	433.00
553.84	339.38
554.01	372.15
554.17	259.80
554.34	245.76
554.51	243.42
554.67	386.19
554.84	355.76
555.00	294.91
555.17	285.55
555.33	367.46
555.50	243.42
555.67	320.65
555.83	325.33
556.00	241.08
556.16	411.93
556.33	327.68
556.50	280.86
556.66	273.84
556.83	290.23
556.99	304.27
557.16	301.93
557.32	245.76
557.49	269.16
557.65	269.16
557.82	227.03
557.98	273.84
558.15	234.05
558.32	201.29
558.48	269.16
558.65	334.70
558.81	299.59
558.98	222.35
559.14	280.86
559.31	285.55
559.47	278.52
559.64	243.42
559.80	334.70
559.97	259.80
560.13	227.03
560.30	248.10
560.46	227.03
560.63	344.06
560.79	203.63
560.96	269.16
561.12	266.82
561.29	264.48
561.45	241.08
561.61	283.20
561.78	341.72
561.94	262.14
562.11	292.57
562.27	325.33
562.44	238.73
562.60	257.46
562.77	290.23
562.93	346.40
563.10	297.25
563.26	243.42
563.42	304.27
563.59	250.44
563.75	231.71
563.92	252.78
564.08	196.60
564.24	273.84
564.41	266.82
564.57	212.99
564.74	198.95
564.90	269.16
565.07	262.14
565.23	278.52
565.39	273.84
565.56	266.82
565.72	234.05
565.88	238.73
566.05	280.86
566.21	238.73
566.38	201.29
566.54	201.29
566.70	189.58
566.87	262.14
567.03	325.33
567.19	283.20
567.36	224.69
567.52	205.97
567.68	257.46
567.85	250.44
568.01	203.63
568.17	271.50
568.34	313.63
568.50	250.44
568.66	175.54
568.83	287.89
568.99	292.57
569.15	231.71
569.32	205.97
569.48	236.39
569.64	212.99
569.81	271.50
569.97	189.58
570.13	154.48
570.30	220.01
570.46	250.44
570.62	255.12
570.78	208.31
570.95	276.18
571.11	264.48
571.27	346.40
571.43	208.31
571.60	252.78
571.76	222.35
571.92	241.08
572.09	266.82
572.25	212.99
572.41	299.59
572.57	217.67
572.74	280.86
572.90	252.78
573.06	245.76
573.22	262.14
573.38	201.29
573.55	285.55
573.71	269.16
573.87	236.39
574.03	184.90
574.20	339.38
574.36	259.80
574.52	220.01
574.68	198.95
574.84	311.29
575.01	301.93
575.17	255.12
575.33	252.78
575.49	325.33
575.65	269.16
575.82	231.71
575.98	266.82
576.14	280.86
576.30	306.61
576.46	500.87
576.62	683.44
576.79	709.18
576.95	643.65
577.11	367.46
577.27	358.10
577.43	358.10
577.59	348.74
577.75	283.20
577.92	297.25
578.08	243.42
578.24	313.63
578.40	414.27
578.56	503.22
578.72	594.50
578.88	603.86
579.04	645.99
579.21	512.58
579.37	358.10
579.53	386.19
579.69	393.21
579.85	407.25
580.01	388.53
580.17	393.21
580.33	330.02
580.49	433.00
580.65	346.40
580.82	409.59
580.98	327.68
581.14	311.29
581.30	423.64
581.46	369.80
581.62	416.62
581.78	369.80
581.94	423.64
582.10	271.50
582.26	311.29
582.42	379.17
582.58	451.72
582.74	526.62
582.90	402.57
583.06	479.81
583.22	472.79
583.38	404.91
583.54	437.68
583.70	475.13
583.86	477.47
584.02	472.79
584.18	360.44
584.34	437.68
584.50	386.19
584.66	475.13
584.82	376.83
584.98	435.34
585.14	409.59
585.30	397.89
585.46	388.53
585.62	411.93
585.78	306.61
585.94	369.80
586.10	337.04
586.26	454.06
586.42	489.17
586.58	433.00
586.74	510.24
586.90	573.43
587.06	638.97
587.22	543.00
587.38	540.66
587.54	475.13
587.70	500.87
587.86	383.85
588.02	433.00
588.18	393.21
588.34	337.04
588.49	330.02
588.65	346.40
588.81	358.10
588.97	344.06
589.13	330.02
589.29	297.25
589.45	386.19
589.61	341.72
589.77	313.63
589.93	308.95
590.08	369.80
590.24	358.10
590.40	294.91
590.56	313.63
590.72	304.27
590.88	269.16
591.04	327.68
591.20	313.63
591.35	308.95
591.51	252.78
591.67	266.82
591.83	337.04
591.99	355.76
592.15	407.25
592.31	433.00
592.46	397.89
592.62	491.51
592.78	517.26
592.94	468.11
593.10	486.83
593.26	330.02
593.41	444.70
593.57	423.64
593.73	313.63
593.89	346.40
594.05	407.25
594.20	299.59
594.36	351.08
594.52	259.80
594.68	334.70
594.84	322.99
594.99	315.97
595.15	290.23
595.31	266.82
595.47	332.36
595.62	337.04
595.78	252.78
595.94	227.03
596.10	332.36
596.25	313.63
596.41	308.95
596.57	257.46
596.73	297.25
596.88	337.04
597.04	283.20
597.20	304.27
597.36	287.89
597.51	241.08
597.67	315.97
597.83	348.74
597.99	308.95
598.14	369.80
598.30	322.99
598.46	313.63
598.61	330.02
598.77	322.99
598.93	379.17
599.09	355.76
599.24	327.68
599.40	355.76
599.56	430.66
599.71	379.17
599.87	297.25
600.03	339.38
600.18	250.44
600.34	320.65
600.50	252.78
600.65	297.25
600.81	283.20
600.97	285.55
601.12	264.48
601.28	330.02
601.44	250.44
601.59	269.16
601.75	306.61
601.91	301.93
602.06	215.33
602.22	369.80
602.37	306.61
602.53	250.44
602.69	299.59
602.84	280.86
603.00	236.39
603.16	294.91
603.31	322.99
603.47	294.91
603.62	156.82
603.78	245.76
603.94	276.18
604.09	229.37
604.25	224.69
604.40	311.29
604.56	276.18
604.71	257.46
604.87	238.73
605.03	266.82
605.18	344.06
605.34	276.18
605.49	271.50
605.65	231.71
605.80	313.63
605.96	297.25
606.12	285.55
606.27	318.31
606.43	306.61
606.58	337.04
606.74	306.61
606.89	257.46
607.05	416.62
607.20	294.91
607.36	400.23
607.51	318.31
607.67	313.63
607.82	287.89
607.98	381.51
608.13	374.49
608.29	362.78
608.44	402.57
608.60	461.09
608.75	458.74
608.91	456.40
609.06	547.69
609.22	496.19
609.37	568.75
609.53	641.31
609.68	587.47
609.84	655.35
609.99	763.01
610.15	1001.75
610.30	1114.10
610.46	1366.87
610.61	1619.65
610.76	2005.84
610.92	2429.48
611.07	2583.95
611.23	2677.57
