SpectraSuite Data File
++++++++++++++++++++++++++++++++++++
Date: Fri Oct 04 11:42:13 GMT-05:00 2013
User: price-jones
Dark Spectrum Present: No
Reference Spectrum Present: No
Number of Sampled Component Spectra: 1
Spectrometers: USB2+H05261
Integration Time (usec): 100000 (USB2+H05261)
Spectra Averaged: 1 (USB2+H05261)
Boxcar Smoothing: 0 (USB2+H05261)
Correct for Electrical Dark: No (USB2+H05261)
Strobe/Lamp Enabled: No (USB2+H05261)
Correct for Detector Non-linearity: No (USB2+H05261)
Correct for Stray Light: No (USB2+H05261)
Number of Pixels in Processed Spectrum: 2048
>>>>>Begin Processed Spectral Data<<<<<
365.73	124.05
365.92	124.05
366.12	124.05
366.32	0.00
366.52	25.75
366.72	0.00
366.91	0.00
367.11	0.00
367.31	0.00
367.51	0.00
367.70	0.00
367.90	0.00
368.10	0.00
368.30	0.00
368.49	0.00
368.69	0.00
368.89	0.00
369.09	0.00
369.28	0.00
369.48	0.00
369.68	0.00
369.87	0.00
370.07	0.00
370.27	0.00
370.47	18.72
370.66	0.00
370.86	37.45
371.06	74.90
371.25	140.43
371.45	84.26
371.65	102.98
371.84	42.13
372.04	79.58
372.24	121.71
372.44	74.90
372.63	49.15
372.83	142.77
373.03	117.03
373.22	107.66
373.42	81.92
373.62	133.41
373.81	56.17
374.01	135.75
374.21	201.29
374.40	72.56
374.60	119.37
374.79	161.50
374.99	177.88
375.19	128.73
375.38	102.98
375.58	131.07
375.78	110.01
375.97	93.62
376.17	107.66
376.37	135.75
376.56	117.03
376.76	72.56
376.95	128.73
377.15	93.62
377.35	156.82
377.54	98.30
377.74	74.90
377.93	91.28
378.13	91.28
378.33	63.19
378.52	112.35
378.72	30.43
378.91	156.82
379.11	126.39
379.31	105.32
379.50	16.38
379.70	140.43
379.89	114.69
380.09	88.94
380.28	105.32
380.48	105.32
380.68	11.70
380.87	112.35
381.07	74.90
381.26	95.96
381.46	154.48
381.65	121.71
381.85	128.73
382.04	119.37
382.24	98.30
382.43	135.75
382.63	30.43
382.83	95.96
383.02	145.11
383.22	32.77
383.41	182.56
383.61	147.45
383.80	51.49
384.00	131.07
384.19	58.51
384.39	147.45
384.58	110.01
384.78	128.73
384.97	182.56
385.17	154.48
385.36	124.05
385.56	180.22
385.75	131.07
385.95	77.24
386.14	81.92
386.34	121.71
386.53	149.79
386.72	32.77
386.92	170.86
387.11	119.37
387.31	100.64
387.50	74.90
387.70	102.98
387.89	93.62
388.09	124.05
388.28	107.66
388.48	51.49
388.67	117.03
388.86	79.58
389.06	142.77
389.25	93.62
389.45	93.62
389.64	95.96
389.84	138.09
390.03	168.52
390.22	161.50
390.42	114.69
390.61	182.56
390.81	67.88
391.00	86.60
391.19	126.39
391.39	138.09
391.58	147.45
391.78	121.71
391.97	189.58
392.16	46.81
392.36	107.66
392.55	147.45
392.75	102.98
392.94	168.52
393.13	84.26
393.33	25.75
393.52	110.01
393.71	119.37
393.91	138.09
394.10	93.62
394.29	117.03
394.49	126.39
394.68	156.82
394.88	194.26
395.07	138.09
395.26	98.30
395.46	140.43
395.65	102.98
395.84	149.79
396.04	189.58
396.23	112.35
396.42	126.39
396.62	117.03
396.81	107.66
397.00	135.75
397.19	112.35
397.39	51.49
397.58	196.60
397.77	105.32
397.97	100.64
398.16	126.39
398.35	131.07
398.55	168.52
398.74	67.88
398.93	156.82
399.12	56.17
399.32	121.71
399.51	74.90
399.70	140.43
399.90	67.88
400.09	147.45
400.28	140.43
400.47	86.60
400.67	210.65
400.86	156.82
401.05	128.73
401.24	156.82
401.44	42.13
401.63	37.45
401.82	145.11
402.01	110.01
402.21	126.39
402.40	194.26
402.59	173.20
402.78	198.95
402.97	203.63
403.17	138.09
403.36	152.13
403.55	205.97
403.74	393.21
403.93	950.26
404.13	2019.88
404.32	2139.25
404.51	1732.00
404.70	1001.75
404.89	400.23
405.09	266.82
405.28	154.48
405.47	93.62
405.66	140.43
405.85	145.11
406.05	121.71
406.24	142.77
406.43	114.69
406.62	220.01
406.81	180.22
407.00	234.05
407.20	313.63
407.39	411.93
407.58	348.74
407.77	234.05
407.96	180.22
408.15	215.33
408.34	159.16
408.54	126.39
408.73	215.33
408.92	154.48
409.11	102.98
409.30	184.90
409.49	156.82
409.68	138.09
409.87	168.52
410.07	102.98
410.26	191.92
410.45	168.52
410.64	126.39
410.83	102.98
411.02	168.52
411.21	194.26
411.40	182.56
411.59	100.64
411.78	168.52
411.98	91.28
412.17	166.18
412.36	170.86
412.55	98.30
412.74	229.37
412.93	180.22
413.12	147.45
413.31	163.84
413.50	138.09
413.69	198.95
413.88	67.88
414.07	168.52
414.26	203.63
414.45	159.16
414.64	166.18
414.83	131.07
415.02	215.33
415.22	203.63
415.41	280.86
415.60	182.56
415.79	126.39
415.98	196.60
416.17	182.56
416.36	273.84
416.55	191.92
416.74	196.60
416.93	271.50
417.12	224.69
417.31	168.52
417.50	128.73
417.69	262.14
417.88	161.50
418.07	173.20
418.26	177.88
418.45	184.90
418.64	201.29
418.83	241.08
419.02	201.29
419.21	234.05
419.39	147.45
419.58	180.22
419.77	161.50
419.96	170.86
420.15	278.52
420.34	187.24
420.53	234.05
420.72	224.69
420.91	196.60
421.10	220.01
421.29	210.65
421.48	210.65
421.67	187.24
421.86	210.65
422.05	210.65
422.24	135.75
422.43	114.69
422.61	187.24
422.80	105.32
422.99	238.73
423.18	154.48
423.37	198.95
423.56	210.65
423.75	152.13
423.94	135.75
424.13	203.63
424.32	128.73
424.50	234.05
424.69	170.86
424.88	243.42
425.07	245.76
425.26	205.97
425.45	159.16
425.64	224.69
425.83	196.60
426.01	173.20
426.20	227.03
426.39	208.31
426.58	203.63
426.77	180.22
426.96	133.41
427.15	191.92
427.33	170.86
427.52	201.29
427.71	252.78
427.90	177.88
428.09	257.46
428.28	184.90
428.46	194.26
428.65	203.63
428.84	149.79
429.03	245.76
429.22	177.88
429.40	220.01
429.59	191.92
429.78	287.89
429.97	243.42
430.16	220.01
430.34	159.16
430.53	227.03
430.72	231.71
430.91	313.63
431.10	177.88
431.28	259.80
431.47	250.44
431.66	227.03
431.85	241.08
432.03	229.37
432.22	241.08
432.41	217.67
432.60	304.27
432.79	208.31
432.97	269.16
433.16	280.86
433.35	259.80
433.54	278.52
433.72	269.16
433.91	292.57
434.10	344.06
434.28	292.57
434.47	402.57
434.66	451.72
434.85	617.90
435.03	1678.16
435.22	5411.32
435.41	9467.47
435.59	8283.16
435.78	5324.72
435.97	2651.83
436.16	1146.86
436.34	503.22
436.53	400.23
436.72	362.78
436.90	280.86
437.09	325.33
437.28	238.73
437.46	285.55
437.65	250.44
437.84	269.16
438.02	180.22
438.21	299.59
438.40	224.69
438.58	194.26
438.77	224.69
438.96	278.52
439.14	163.84
439.33	266.82
439.52	327.68
439.70	255.12
439.89	287.89
440.08	241.08
440.26	304.27
440.45	266.82
440.63	257.46
440.82	271.50
441.01	238.73
441.19	280.86
441.38	257.46
441.57	243.42
441.75	266.82
441.94	294.91
442.12	262.14
442.31	262.14
442.50	313.63
442.68	182.56
442.87	201.29
443.05	238.73
443.24	280.86
443.43	266.82
443.61	201.29
443.80	278.52
443.98	234.05
444.17	224.69
444.35	311.29
444.54	227.03
444.73	173.20
444.91	344.06
445.10	271.50
445.28	175.54
445.47	252.78
445.65	283.20
445.84	315.97
446.02	210.65
446.21	269.16
446.39	170.86
446.58	184.90
446.77	285.55
446.95	252.78
447.14	330.02
447.32	341.72
447.51	255.12
447.69	266.82
447.88	299.59
448.06	269.16
448.25	280.86
448.43	205.97
448.62	142.77
448.80	292.57
448.99	191.92
449.17	170.86
449.36	241.08
449.54	257.46
449.73	245.76
449.91	299.59
450.10	294.91
450.28	315.97
450.46	194.26
450.65	252.78
450.83	294.91
451.02	271.50
451.20	285.55
451.39	238.73
451.57	264.48
451.76	234.05
451.94	231.71
452.13	301.93
452.31	266.82
452.49	259.80
452.68	234.05
452.86	276.18
453.05	306.61
453.23	224.69
453.42	196.60
453.60	255.12
453.78	250.44
453.97	243.42
454.15	224.69
454.34	241.08
454.52	203.63
454.70	250.44
454.89	292.57
455.07	262.14
455.26	315.97
455.44	266.82
455.62	241.08
455.81	262.14
455.99	224.69
456.17	173.20
456.36	182.56
456.54	285.55
456.73	166.18
456.91	269.16
457.09	257.46
457.28	334.70
457.46	252.78
457.64	220.01
457.83	224.69
458.01	227.03
458.19	241.08
458.38	266.82
458.56	187.24
458.74	208.31
458.93	273.84
459.11	248.10
459.29	334.70
459.48	283.20
459.66	255.12
459.84	227.03
460.03	311.29
460.21	266.82
460.39	177.88
460.57	255.12
460.76	243.42
460.94	245.76
461.12	224.69
461.31	304.27
461.49	220.01
461.67	177.88
461.85	259.80
462.04	243.42
462.22	402.57
462.40	241.08
462.59	234.05
462.77	229.37
462.95	250.44
463.13	287.89
463.32	203.63
463.50	238.73
463.68	276.18
463.86	255.12
464.05	215.33
464.23	203.63
464.41	224.69
464.59	276.18
464.78	259.80
464.96	257.46
465.14	236.39
465.32	255.12
465.50	248.10
465.69	285.55
465.87	215.33
466.05	255.12
466.23	250.44
466.41	212.99
466.60	280.86
466.78	376.83
466.96	283.20
467.14	308.95
467.32	264.48
467.51	266.82
467.69	215.33
467.87	266.82
468.05	241.08
468.23	266.82
468.41	231.71
468.60	215.33
468.78	229.37
468.96	245.76
469.14	339.38
469.32	177.88
469.50	227.03
469.69	212.99
469.87	215.33
470.05	245.76
470.23	271.50
470.41	194.26
470.59	191.92
470.77	245.76
470.95	201.29
471.14	168.52
471.32	236.39
471.50	351.08
471.68	229.37
471.86	217.67
472.04	210.65
472.22	245.76
472.40	194.26
472.58	250.44
472.77	168.52
472.95	229.37
473.13	304.27
473.31	262.14
473.49	212.99
473.67	271.50
473.85	220.01
474.03	245.76
474.21	280.86
474.39	248.10
474.57	311.29
474.75	271.50
474.93	264.48
475.12	210.65
475.30	257.46
475.48	271.50
475.66	241.08
475.84	238.73
476.02	259.80
476.20	259.80
476.38	250.44
476.56	294.91
476.74	189.58
476.92	229.37
477.10	227.03
477.28	201.29
477.46	280.86
477.64	273.84
477.82	196.60
478.00	201.29
478.18	224.69
478.36	271.50
478.54	152.13
478.72	224.69
478.90	241.08
479.08	229.37
479.26	278.52
479.44	241.08
479.62	255.12
479.80	245.76
479.98	262.14
480.16	287.89
480.34	315.97
480.52	365.12
480.70	320.65
480.88	332.36
481.06	294.91
481.24	315.97
481.41	365.12
481.59	395.55
481.77	360.44
481.95	404.91
482.13	348.74
482.31	468.11
482.49	402.57
482.67	484.49
482.85	472.79
483.03	571.09
483.21	486.83
483.39	519.60
483.57	573.43
483.74	662.37
483.92	692.80
484.10	617.90
484.28	716.20
484.46	849.61
484.64	688.12
484.82	716.20
485.00	800.46
485.18	798.12
485.35	901.11
485.53	847.27
485.71	990.05
485.89	1015.79
486.07	910.47
486.25	1018.13
486.43	1043.88
486.61	999.41
486.78	1018.13
486.96	947.92
487.14	992.39
487.32	1046.22
487.50	1022.81
487.68	1029.84
487.85	1034.52
488.03	1069.62
488.21	978.34
488.39	912.81
488.57	889.40
488.75	779.40
488.92	1177.29
489.10	940.90
489.28	929.19
489.46	866.00
489.64	866.00
489.81	819.19
489.99	844.93
490.17	837.91
490.35	863.66
490.53	791.10
490.70	807.48
490.88	901.11
491.06	856.64
491.24	856.64
491.41	898.77
491.59	847.27
491.77	821.53
491.95	737.27
492.13	674.07
492.30	711.52
492.48	737.27
492.66	683.44
492.84	662.37
493.01	704.50
493.19	683.44
493.37	744.29
493.54	732.59
493.72	791.10
493.90	669.39
494.08	734.93
494.25	784.08
494.43	645.99
494.61	704.50
494.79	699.82
494.96	599.18
495.14	608.54
495.32	613.22
495.49	589.82
495.67	514.92
495.85	582.79
496.02	599.18
496.20	627.26
496.38	540.66
496.55	566.41
496.73	596.84
496.91	585.13
497.09	627.26
497.26	596.84
497.44	545.34
497.62	550.03
497.79	500.87
497.97	547.69
498.14	463.43
498.32	482.15
498.50	489.17
498.67	433.00
498.85	486.83
499.03	411.93
499.20	437.68
499.38	475.13
499.56	486.83
499.73	503.22
499.91	458.74
500.08	393.21
500.26	435.34
500.44	442.36
500.61	407.25
500.79	465.77
500.97	463.43
501.14	435.34
501.32	376.83
501.49	353.42
501.67	346.40
501.84	433.00
502.02	404.91
502.20	414.27
502.37	358.10
502.55	351.08
502.72	414.27
502.90	421.30
503.07	381.51
503.25	297.25
503.43	297.25
503.60	325.33
503.78	339.38
503.95	351.08
504.13	318.31
504.30	390.87
504.48	376.83
504.65	358.10
504.83	365.12
505.01	320.65
505.18	334.70
505.36	346.40
505.53	245.76
505.71	297.25
505.88	402.57
506.06	273.84
506.23	285.55
506.41	273.84
506.58	301.93
506.76	227.03
506.93	332.36
507.11	248.10
507.28	266.82
507.46	304.27
507.63	322.99
507.81	315.97
507.98	320.65
508.16	318.31
508.33	339.38
508.50	252.78
508.68	362.78
508.85	355.76
509.03	152.13
509.20	292.57
509.38	304.27
509.55	273.84
509.73	327.68
509.90	229.37
510.08	271.50
510.25	257.46
510.42	322.99
510.60	339.38
510.77	266.82
510.95	351.08
511.12	294.91
511.30	299.59
511.47	318.31
511.64	322.99
511.82	355.76
511.99	205.97
512.17	278.52
512.34	262.14
512.51	283.20
512.69	278.52
512.86	304.27
513.04	322.99
513.21	248.10
513.38	290.23
513.56	306.61
513.73	313.63
513.90	234.05
514.08	294.91
514.25	344.06
514.43	278.52
514.60	252.78
514.77	250.44
514.95	283.20
515.12	304.27
515.29	245.76
515.47	297.25
515.64	304.27
515.81	318.31
515.99	318.31
516.16	297.25
516.33	365.12
516.51	198.95
516.68	201.29
516.85	283.20
517.03	252.78
517.20	318.31
517.37	259.80
517.54	313.63
517.72	262.14
517.89	173.20
518.06	257.46
518.24	285.55
518.41	322.99
518.58	234.05
518.75	252.78
518.93	283.20
519.10	280.86
519.27	306.61
519.45	311.29
519.62	294.91
519.79	248.10
519.96	252.78
520.14	194.26
520.31	290.23
520.48	252.78
520.65	334.70
520.83	318.31
521.00	285.55
521.17	273.84
521.34	264.48
521.52	234.05
521.69	266.82
521.86	262.14
522.03	290.23
522.20	318.31
522.38	339.38
522.55	292.57
522.72	224.69
522.89	311.29
523.07	315.97
523.24	304.27
523.41	271.50
523.58	294.91
523.75	306.61
523.92	308.95
524.10	273.84
524.27	301.93
524.44	285.55
524.61	341.72
524.78	301.93
524.96	355.76
525.13	344.06
525.30	330.02
525.47	320.65
525.64	327.68
525.81	294.91
525.98	273.84
526.16	294.91
526.33	255.12
526.50	243.42
526.67	334.70
526.84	241.08
527.01	353.42
527.18	292.57
527.36	334.70
527.53	337.04
527.70	327.68
527.87	238.73
528.04	369.80
528.21	262.14
528.38	344.06
528.55	369.80
528.72	358.10
528.89	337.04
529.07	290.23
529.24	325.33
529.41	330.02
529.58	334.70
529.75	257.46
529.92	332.36
530.09	451.72
530.26	311.29
530.43	262.14
530.60	292.57
530.77	283.20
530.94	369.80
531.11	409.59
531.28	308.95
531.46	365.12
531.63	353.42
531.80	308.95
531.97	374.49
532.14	372.15
532.31	393.21
532.48	454.06
532.65	526.62
532.82	496.19
532.99	620.24
533.16	648.33
533.33	601.52
533.50	545.34
533.67	526.62
533.84	514.92
534.01	472.79
534.18	451.72
534.35	479.81
534.52	517.26
534.69	505.56
534.86	517.26
535.03	507.90
535.20	454.06
535.37	533.64
535.54	578.11
535.71	610.88
535.88	557.05
536.05	585.13
536.22	725.57
536.38	638.97
536.55	786.42
536.72	730.25
536.89	795.78
537.06	887.06
537.23	1053.24
537.40	1097.71
537.57	1130.48
537.74	1212.40
537.91	1317.72
538.08	1238.14
538.25	1287.29
538.42	1306.02
538.59	1336.45
538.75	1336.45
538.92	1462.83
539.09	1589.22
539.26	1631.35
539.43	1888.81
539.60	2120.53
539.77	2307.77
539.94	2544.16
540.11	2729.06
540.28	2965.46
540.44	3297.81
540.61	3770.60
540.78	4229.35
540.95	5043.85
541.12	5701.54
541.29	6321.79
541.46	6684.57
541.62	6452.86
541.79	6193.06
541.96	5788.14
542.13	5434.72
542.30	5287.27
542.47	4781.71
542.63	4638.94
542.80	4542.98
542.97	4526.60
543.14	4519.57
543.31	4454.04
543.48	4463.40
543.64	4636.60
543.81	4713.84
543.98	4592.13
544.15	4575.75
544.32	4620.22
544.48	4596.81
544.65	4489.15
544.82	4365.10
544.99	4617.88
545.16	4711.50
545.32	4908.10
545.49	9778.76
545.66	15391.36
545.83	17458.06
546.00	14214.07
546.16	9591.52
546.33	7047.35
546.50	5514.30
546.67	4716.18
546.83	3911.04
547.00	3829.12
547.17	3517.83
547.34	3588.04
547.50	3400.80
547.67	3379.73
547.84	3155.04
548.00	3117.59
548.17	2918.65
548.34	2834.39
548.51	2827.37
548.67	2757.15
548.84	2541.82
549.01	2443.52
549.18	2319.47
549.34	2354.58
549.51	2242.23
549.68	2062.01
549.84	2069.03
550.01	1970.73
550.18	1811.57
550.34	1872.43
550.51	1614.97
550.68	1748.38
550.84	1586.88
551.01	1472.20
551.18	1486.24
551.34	1383.26
551.51	1392.62
551.68	1341.13
551.84	1238.14
552.01	1280.27
552.18	1158.57
552.34	1130.48
552.51	1128.14
552.68	992.39
552.84	1041.54
553.01	987.71
553.18	976.00
553.34	968.98
553.51	992.39
553.67	922.17
553.84	945.58
554.01	819.19
554.17	840.25
554.34	793.44
554.51	748.97
554.67	737.27
554.84	746.63
555.00	571.09
555.17	578.11
555.33	631.94
555.50	550.03
555.67	507.90
555.83	543.00
556.00	470.45
556.16	667.05
556.33	540.66
556.50	514.92
556.66	456.40
556.83	599.18
556.99	447.04
557.16	463.43
557.32	449.38
557.49	425.98
557.65	411.93
557.82	397.89
557.98	486.83
558.15	414.27
558.32	465.77
558.48	362.78
558.65	379.17
558.81	404.91
558.98	374.49
559.14	423.64
559.31	423.64
559.47	461.09
559.64	358.10
559.80	367.46
559.97	355.76
560.13	358.10
560.30	430.66
560.46	330.02
560.63	325.33
560.79	353.42
560.96	365.12
561.12	451.72
561.29	433.00
561.45	430.66
561.61	320.65
561.78	444.70
561.94	430.66
562.11	369.80
562.27	383.85
562.44	428.32
562.60	430.66
562.77	386.19
562.93	379.17
563.10	360.44
563.26	325.33
563.42	362.78
563.59	337.04
563.75	292.57
563.92	325.33
564.08	304.27
564.24	339.38
564.41	376.83
564.57	313.63
564.74	311.29
564.90	355.76
565.07	409.59
565.23	264.48
565.39	337.04
565.56	355.76
565.72	334.70
565.88	339.38
566.05	334.70
566.21	374.49
566.38	428.32
566.54	285.55
566.70	287.89
566.87	315.97
567.03	355.76
567.19	290.23
567.36	393.21
567.52	334.70
567.68	341.72
567.85	287.89
568.01	386.19
568.17	341.72
568.34	358.10
568.50	369.80
568.66	308.95
568.83	479.81
568.99	365.12
569.15	348.74
569.32	308.95
569.48	315.97
569.64	259.80
569.81	285.55
569.97	241.08
570.13	351.08
570.30	351.08
570.46	238.73
570.62	299.59
570.78	299.59
570.95	238.73
571.11	311.29
571.27	306.61
571.43	297.25
571.60	248.10
571.76	278.52
571.92	332.36
572.09	299.59
572.25	306.61
572.41	306.61
572.57	255.12
572.74	278.52
572.90	318.31
573.06	287.89
573.22	374.49
573.38	308.95
573.55	402.57
573.71	301.93
573.87	257.46
574.03	290.23
574.20	292.57
574.36	304.27
574.52	285.55
574.68	299.59
574.84	308.95
575.01	390.87
575.17	376.83
575.33	297.25
575.49	428.32
575.65	416.62
575.82	407.25
575.98	458.74
576.14	409.59
576.30	950.26
576.46	2204.78
576.62	2818.00
576.79	2871.84
576.95	2129.89
577.11	1432.41
577.27	966.64
577.43	772.38
577.59	692.80
577.75	463.43
577.92	550.03
578.08	475.13
578.24	519.60
578.40	994.73
578.56	2073.71
578.72	2733.75
578.88	2705.66
579.04	2008.18
579.21	1507.30
579.37	1273.25
579.53	1067.28
579.69	1015.79
579.85	1156.22
580.01	1334.11
580.17	1174.95
580.33	1078.99
580.49	943.24
580.65	863.66
580.82	840.25
580.98	844.93
581.14	875.36
581.30	976.00
581.46	894.08
581.62	884.72
581.78	1025.15
581.94	1053.24
582.10	1149.20
582.26	1067.28
582.42	1235.80
582.58	1310.70
582.74	1373.89
582.90	1277.93
583.06	1284.95
583.22	1193.67
583.38	1226.44
583.54	1167.93
583.70	1212.40
583.86	1203.04
584.02	1294.32
584.18	1179.63
584.34	1114.10
584.50	1163.25
584.66	1177.29
584.82	1128.14
584.98	1060.26
585.14	980.68
585.30	1097.71
585.46	1020.47
585.62	945.58
585.78	1160.91
585.94	964.30
586.10	1020.47
586.26	1160.91
586.42	1348.15
586.58	1586.88
586.74	1811.57
586.90	2062.01
587.06	2129.89
587.22	2099.46
587.38	1844.34
587.54	1661.78
587.70	1579.86
587.86	1268.57
588.02	1158.57
588.18	983.02
588.34	931.53
588.49	882.38
588.65	748.97
588.81	800.46
588.97	786.42
589.13	732.59
589.29	763.01
589.45	746.63
589.61	816.85
589.77	849.61
589.93	781.74
590.08	734.93
590.24	718.54
590.40	866.00
590.56	903.45
590.72	833.23
590.88	910.47
591.04	884.72
591.20	866.00
591.35	903.45
591.51	976.00
591.67	1111.75
591.83	1032.18
591.99	1177.29
592.15	1177.29
592.31	1301.34
592.46	1359.85
592.62	1507.30
592.78	1533.05
592.94	1589.22
593.10	1579.86
593.26	1458.15
593.41	1483.90
593.57	1299.00
593.73	1123.46
593.89	919.83
594.05	931.53
594.20	779.40
594.36	908.13
594.52	688.12
594.68	727.91
594.84	674.07
594.99	732.59
595.15	734.93
595.31	678.76
595.47	685.78
595.62	706.84
595.78	634.29
595.94	641.31
596.10	695.14
596.25	645.99
596.41	744.29
596.57	655.35
596.73	622.58
596.88	674.07
597.04	737.27
597.20	748.97
597.36	704.50
597.51	692.80
597.67	669.39
597.83	779.40
597.99	828.55
598.14	851.96
598.30	894.08
598.46	917.49
598.61	1013.45
598.77	1020.47
598.93	1107.07
599.09	1001.75
599.24	1036.86
599.40	1008.77
599.56	971.32
599.71	1001.75
599.87	945.58
600.03	844.93
600.18	868.34
600.34	732.59
600.50	767.70
600.65	720.88
600.81	645.99
600.97	636.63
601.12	662.37
601.28	723.23
601.44	596.84
601.59	521.94
601.75	550.03
601.91	568.75
602.06	535.98
602.22	552.37
602.37	496.19
602.53	491.51
602.69	489.17
602.84	561.73
603.00	519.60
603.16	540.66
603.31	472.79
603.47	489.17
603.62	557.05
603.78	547.69
603.94	521.94
604.09	587.47
604.25	613.22
604.40	531.30
604.56	479.81
604.71	545.34
604.87	526.62
605.03	479.81
605.18	550.03
605.34	636.63
605.49	638.97
605.65	596.84
605.80	587.47
605.96	589.82
606.12	674.07
606.27	732.59
606.43	713.86
606.58	798.12
606.74	737.27
606.89	751.31
607.05	840.25
607.20	849.61
607.36	823.87
607.51	924.51
607.67	1029.84
607.82	1036.86
607.98	1132.82
608.13	1224.10
608.29	1266.23
608.44	1343.47
608.60	1399.64
608.75	1509.65
608.91	1685.19
609.06	1764.76
