SpectraSuite Data File
++++++++++++++++++++++++++++++++++++
Date: Fri Oct 04 11:41:59 GMT-05:00 2013
User: price-jones
Dark Spectrum Present: No
Reference Spectrum Present: No
Number of Sampled Component Spectra: 1
Spectrometers: USB2+H05261
Integration Time (usec): 100000 (USB2+H05261)
Spectra Averaged: 1 (USB2+H05261)
Boxcar Smoothing: 0 (USB2+H05261)
Correct for Electrical Dark: No (USB2+H05261)
Strobe/Lamp Enabled: No (USB2+H05261)
Correct for Detector Non-linearity: No (USB2+H05261)
Correct for Stray Light: No (USB2+H05261)
Number of Pixels in Processed Spectrum: 2048
>>>>>Begin Processed Spectral Data<<<<<
365.73	0.00
365.92	0.00
366.12	0.00
366.32	0.00
366.52	0.00
366.72	14.04
366.91	0.00
367.11	0.00
367.31	0.00
367.51	0.00
367.70	0.00
367.90	0.00
368.10	0.00
368.30	0.00
368.49	0.00
368.69	39.79
368.89	0.00
369.09	0.00
369.28	0.00
369.48	0.00
369.68	0.00
369.87	0.00
370.07	0.00
370.27	0.00
370.47	70.22
370.66	18.72
370.86	14.04
371.06	46.81
371.25	51.49
371.45	18.72
371.65	49.15
371.84	93.62
372.04	140.43
372.24	128.73
372.44	124.05
372.63	81.92
372.83	177.88
373.03	25.75
373.22	46.81
373.42	63.19
373.62	65.54
373.81	170.86
374.01	128.73
374.21	194.26
374.40	135.75
374.60	159.16
374.79	65.54
374.99	133.41
375.19	140.43
375.38	161.50
375.58	147.45
375.78	58.51
375.97	152.13
376.17	124.05
376.37	131.07
376.56	124.05
376.76	100.64
376.95	53.83
377.15	149.79
377.35	107.66
377.54	166.18
377.74	88.94
377.93	180.22
378.13	28.09
378.33	56.17
378.52	77.24
378.72	119.37
378.91	161.50
379.11	121.71
379.31	126.39
379.50	79.58
379.70	110.01
379.89	135.75
380.09	121.71
380.28	110.01
380.48	128.73
380.68	81.92
380.87	70.22
381.07	39.79
381.26	124.05
381.46	93.62
381.65	102.98
381.85	86.60
382.04	84.26
382.24	126.39
382.43	84.26
382.63	49.15
382.83	32.77
383.02	142.77
383.22	128.73
383.41	56.17
383.61	53.83
383.80	131.07
384.00	126.39
384.19	201.29
384.39	107.66
384.58	173.20
384.78	128.73
384.97	110.01
385.17	93.62
385.36	100.64
385.56	138.09
385.75	100.64
385.95	105.32
386.14	180.22
386.34	81.92
386.53	63.19
386.72	32.77
386.92	107.66
387.11	145.11
387.31	163.84
387.50	77.24
387.70	23.41
387.89	133.41
388.09	145.11
388.28	168.52
388.48	98.30
388.67	147.45
388.86	117.03
389.06	163.84
389.25	117.03
389.45	112.35
389.64	121.71
389.84	154.48
390.03	140.43
390.22	100.64
390.42	91.28
390.61	117.03
390.81	110.01
391.00	88.94
391.19	145.11
391.39	77.24
391.58	138.09
391.78	63.19
391.97	79.58
392.16	86.60
392.36	161.50
392.55	112.35
392.75	177.88
392.94	114.69
393.13	175.54
393.33	112.35
393.52	124.05
393.71	98.30
393.91	67.88
394.10	131.07
394.29	28.09
394.49	159.16
394.68	173.20
394.88	124.05
395.07	180.22
395.26	166.18
395.46	74.90
395.65	98.30
395.84	102.98
396.04	156.82
396.23	145.11
396.42	135.75
396.62	110.01
396.81	152.13
397.00	142.77
397.19	194.26
397.39	98.30
397.58	152.13
397.77	138.09
397.97	93.62
398.16	128.73
398.35	208.31
398.55	124.05
398.74	100.64
398.93	100.64
399.12	117.03
399.32	243.42
399.51	91.28
399.70	147.45
399.90	117.03
400.09	175.54
400.28	124.05
400.47	46.81
400.67	110.01
400.86	117.03
401.05	110.01
401.24	114.69
401.44	81.92
401.63	173.20
401.82	114.69
402.01	128.73
402.21	124.05
402.40	67.88
402.59	140.43
402.78	112.35
402.97	149.79
403.17	203.63
403.36	84.26
403.55	100.64
403.74	194.26
403.93	252.78
404.13	332.36
404.32	332.36
404.51	245.76
404.70	222.35
404.89	138.09
405.09	117.03
405.28	105.32
405.47	95.96
405.66	135.75
405.85	229.37
406.05	135.75
406.24	128.73
406.43	58.51
406.62	100.64
406.81	187.24
407.00	131.07
407.20	170.86
407.39	168.52
407.58	142.77
407.77	166.18
407.96	166.18
408.15	88.94
408.34	138.09
408.54	159.16
408.73	189.58
408.92	91.28
409.11	154.48
409.30	135.75
409.49	102.98
409.68	196.60
409.87	154.48
410.07	105.32
410.26	159.16
410.45	147.45
410.64	121.71
410.83	156.82
411.02	152.13
411.21	138.09
411.40	133.41
411.59	67.88
411.78	86.60
411.98	149.79
412.17	63.19
412.36	114.69
412.55	131.07
412.74	161.50
412.93	212.99
413.12	182.56
413.31	210.65
413.50	126.39
413.69	142.77
413.88	152.13
414.07	154.48
414.26	133.41
414.45	65.54
414.64	161.50
414.83	126.39
415.02	131.07
415.22	170.86
415.41	170.86
415.60	110.01
415.79	79.58
415.98	112.35
416.17	70.22
416.36	105.32
416.55	133.41
416.74	140.43
416.93	212.99
417.12	138.09
417.31	168.52
417.50	58.51
417.69	201.29
417.88	131.07
418.07	184.90
418.26	168.52
418.45	177.88
418.64	145.11
418.83	168.52
419.02	166.18
419.21	161.50
419.39	145.11
419.58	110.01
419.77	187.24
419.96	180.22
420.15	168.52
420.34	119.37
420.53	98.30
420.72	168.52
420.91	110.01
421.10	154.48
421.29	159.16
421.48	124.05
421.67	161.50
421.86	152.13
422.05	147.45
422.24	121.71
422.43	142.77
422.61	102.98
422.80	67.88
422.99	124.05
423.18	138.09
423.37	110.01
423.56	154.48
423.75	175.54
423.94	142.77
424.13	189.58
424.32	161.50
424.50	159.16
424.69	159.16
424.88	196.60
425.07	105.32
425.26	152.13
425.45	189.58
425.64	112.35
425.83	110.01
426.01	166.18
426.20	159.16
426.39	138.09
426.58	98.30
426.77	124.05
426.96	149.79
427.15	182.56
427.33	161.50
427.52	149.79
427.71	152.13
427.90	152.13
428.09	198.95
428.28	88.94
428.46	156.82
428.65	198.95
428.84	245.76
429.03	142.77
429.22	140.43
429.40	168.52
429.59	102.98
429.78	201.29
429.97	79.58
430.16	117.03
430.34	88.94
430.53	95.96
430.72	145.11
430.91	131.07
431.10	114.69
431.28	112.35
431.47	161.50
431.66	128.73
431.85	217.67
432.03	205.97
432.22	180.22
432.41	166.18
432.60	220.01
432.79	161.50
432.97	121.71
433.16	138.09
433.35	163.84
433.54	131.07
433.72	180.22
433.91	182.56
434.10	170.86
434.28	159.16
434.47	121.71
434.66	222.35
434.85	198.95
435.03	325.33
435.22	830.89
435.41	1221.76
435.59	1266.23
435.78	896.43
435.97	547.69
436.16	353.42
436.34	217.67
436.53	215.33
436.72	196.60
436.90	203.63
437.09	205.97
437.28	145.11
437.46	110.01
437.65	182.56
437.84	149.79
438.02	107.66
438.21	196.60
438.40	152.13
438.58	133.41
438.77	133.41
438.96	191.92
439.14	98.30
439.33	128.73
439.52	86.60
439.70	184.90
439.89	187.24
440.08	110.01
440.26	119.37
440.45	194.26
440.63	142.77
440.82	198.95
441.01	163.84
441.19	142.77
441.38	102.98
441.57	159.16
441.75	170.86
441.94	224.69
442.12	189.58
442.31	124.05
442.50	112.35
442.68	124.05
442.87	236.39
443.05	159.16
443.24	117.03
443.43	248.10
443.61	128.73
443.80	154.48
443.98	74.90
444.17	121.71
444.35	154.48
444.54	238.73
444.73	231.71
444.91	147.45
445.10	138.09
445.28	98.30
445.47	159.16
445.65	203.63
445.84	194.26
446.02	215.33
446.21	217.67
446.39	128.73
446.58	128.73
446.77	98.30
446.95	161.50
447.14	201.29
447.32	177.88
447.51	149.79
447.69	140.43
447.88	147.45
448.06	184.90
448.25	175.54
448.43	149.79
448.62	124.05
448.80	173.20
448.99	189.58
449.17	135.75
449.36	248.10
449.54	203.63
449.73	173.20
449.91	241.08
450.10	227.03
450.28	283.20
450.46	215.33
450.65	187.24
450.83	187.24
451.02	194.26
451.20	128.73
451.39	175.54
451.57	119.37
451.76	154.48
451.94	173.20
452.13	229.37
452.31	152.13
452.49	210.65
452.68	210.65
452.86	180.22
453.05	229.37
453.23	117.03
453.42	126.39
453.60	121.71
453.78	191.92
453.97	170.86
454.15	201.29
454.34	159.16
454.52	147.45
454.70	189.58
454.89	147.45
455.07	154.48
455.26	205.97
455.44	196.60
455.62	102.98
455.81	145.11
455.99	210.65
456.17	128.73
456.36	154.48
456.54	170.86
456.73	203.63
456.91	147.45
457.09	142.77
457.28	189.58
457.46	170.86
457.64	149.79
457.83	140.43
458.01	159.16
458.19	229.37
458.38	187.24
458.56	124.05
458.74	184.90
458.93	245.76
459.11	177.88
459.29	126.39
459.48	208.31
459.66	229.37
459.84	191.92
460.03	257.46
460.21	166.18
460.39	187.24
460.57	227.03
460.76	166.18
460.94	131.07
461.12	283.20
461.31	194.26
461.49	224.69
461.67	126.39
461.85	215.33
462.04	175.54
462.22	653.01
462.40	208.31
462.59	168.52
462.77	149.79
462.95	173.20
463.13	135.75
463.32	208.31
463.50	194.26
463.68	184.90
463.86	88.94
464.05	208.31
464.23	220.01
464.41	161.50
464.59	145.11
464.78	147.45
464.96	194.26
465.14	212.99
465.32	138.09
465.50	189.58
465.69	222.35
465.87	201.29
466.05	236.39
466.23	159.16
466.41	187.24
466.60	161.50
466.78	152.13
466.96	222.35
467.14	191.92
467.32	173.20
467.51	241.08
467.69	140.43
467.87	154.48
468.05	259.80
468.23	175.54
468.41	182.56
468.60	189.58
468.78	159.16
468.96	163.84
469.14	205.97
469.32	208.31
469.50	149.79
469.69	84.26
469.87	149.79
470.05	180.22
470.23	198.95
470.41	177.88
470.59	147.45
470.77	180.22
470.95	264.48
471.14	184.90
471.32	182.56
471.50	182.56
471.68	177.88
471.86	147.45
472.04	170.86
472.22	191.92
472.40	117.03
472.58	210.65
472.77	198.95
472.95	203.63
473.13	257.46
473.31	217.67
473.49	177.88
473.67	231.71
473.85	250.44
474.03	173.20
474.21	222.35
474.39	203.63
474.57	102.98
474.75	201.29
474.93	149.79
475.12	138.09
475.30	203.63
475.48	215.33
475.66	147.45
475.84	257.46
476.02	121.71
476.20	245.76
476.38	234.05
476.56	285.55
476.74	210.65
476.92	278.52
477.10	194.26
477.28	170.86
477.46	210.65
477.64	217.67
477.82	161.50
478.00	166.18
478.18	163.84
478.36	187.24
478.54	184.90
478.72	245.76
478.90	306.61
479.08	276.18
479.26	205.97
479.44	175.54
479.62	145.11
479.80	189.58
479.98	138.09
480.16	182.56
480.34	234.05
480.52	212.99
480.70	142.77
480.88	170.86
481.06	161.50
481.24	208.31
481.41	210.65
481.59	166.18
481.77	210.65
481.95	180.22
482.13	252.78
482.31	201.29
482.49	191.92
482.67	191.92
482.85	229.37
483.03	198.95
483.21	248.10
483.39	241.08
483.57	262.14
483.74	341.72
483.92	292.57
484.10	231.71
484.28	360.44
484.46	299.59
484.64	283.20
484.82	163.84
485.00	318.31
485.18	306.61
485.35	318.31
485.53	276.18
485.71	330.02
485.89	257.46
486.07	280.86
486.25	372.15
486.43	306.61
486.61	257.46
486.78	308.95
486.96	325.33
487.14	313.63
487.32	290.23
487.50	290.23
487.68	341.72
487.85	292.57
488.03	292.57
488.21	337.04
488.39	278.52
488.57	322.99
488.75	250.44
488.92	559.39
489.10	369.80
489.28	341.72
489.46	301.93
489.64	351.08
489.81	278.52
489.99	348.74
490.17	266.82
490.35	355.76
490.53	311.29
490.70	320.65
490.88	325.33
491.06	294.91
491.24	355.76
491.41	304.27
491.59	304.27
491.77	259.80
491.95	273.84
492.13	248.10
492.30	292.57
492.48	250.44
492.66	271.50
492.84	313.63
493.01	252.78
493.19	212.99
493.37	224.69
493.54	320.65
493.72	376.83
493.90	248.10
494.08	308.95
494.25	320.65
494.43	262.14
494.61	306.61
494.79	234.05
494.96	170.86
495.14	290.23
495.32	311.29
495.49	332.36
495.67	318.31
495.85	229.37
496.02	180.22
496.20	287.89
496.38	283.20
496.55	238.73
496.73	266.82
496.91	189.58
497.09	266.82
497.26	290.23
497.44	259.80
497.62	280.86
497.79	250.44
497.97	280.86
498.14	313.63
498.32	234.05
498.50	252.78
498.67	231.71
498.85	278.52
499.03	262.14
499.20	264.48
499.38	250.44
499.56	276.18
499.73	252.78
499.91	299.59
500.08	248.10
500.26	241.08
500.44	266.82
500.61	215.33
500.79	283.20
500.97	217.67
501.14	276.18
501.32	203.63
501.49	306.61
501.67	269.16
501.84	297.25
502.02	234.05
502.20	341.72
502.37	124.05
502.55	198.95
502.72	250.44
502.90	248.10
503.07	257.46
503.25	252.78
503.43	234.05
503.60	124.05
503.78	250.44
503.95	175.54
504.13	187.24
504.30	255.12
504.48	301.93
504.65	327.68
504.83	292.57
505.01	196.60
505.18	248.10
505.36	269.16
505.53	220.01
505.71	259.80
505.88	353.42
506.06	222.35
506.23	262.14
506.41	220.01
506.58	243.42
506.76	229.37
506.93	248.10
507.11	273.84
507.28	203.63
507.46	215.33
507.63	241.08
507.81	208.31
507.98	259.80
508.16	320.65
508.33	203.63
508.50	212.99
508.68	205.97
508.85	224.69
509.03	229.37
509.20	332.36
509.38	285.55
509.55	248.10
509.73	287.89
509.90	273.84
510.08	170.86
510.25	205.97
510.42	248.10
510.60	278.52
510.77	231.71
510.95	252.78
511.12	177.88
511.30	262.14
511.47	234.05
511.64	325.33
511.82	269.16
511.99	229.37
512.17	245.76
512.34	196.60
512.51	191.92
512.69	250.44
512.86	168.52
513.04	264.48
513.21	227.03
513.38	252.78
513.56	159.16
513.73	133.41
513.90	248.10
514.08	241.08
514.25	262.14
514.43	194.26
514.60	238.73
514.77	196.60
514.95	252.78
515.12	280.86
515.29	220.01
515.47	273.84
515.64	229.37
515.81	208.31
515.99	224.69
516.16	201.29
516.33	257.46
516.51	180.22
516.68	252.78
516.85	210.65
517.03	126.39
517.20	227.03
517.37	264.48
517.54	292.57
517.72	250.44
517.89	238.73
518.06	255.12
518.24	280.86
518.41	248.10
518.58	266.82
518.75	154.48
518.93	231.71
519.10	208.31
519.27	231.71
519.45	203.63
519.62	273.84
519.79	278.52
519.96	231.71
520.14	273.84
520.31	285.55
520.48	259.80
520.65	271.50
520.83	203.63
521.00	262.14
521.17	234.05
521.34	238.73
521.52	231.71
521.69	264.48
521.86	238.73
522.03	215.33
522.20	259.80
522.38	259.80
522.55	276.18
522.72	229.37
522.89	222.35
523.07	262.14
523.24	280.86
523.41	285.55
523.58	238.73
523.75	299.59
523.92	269.16
524.10	245.76
524.27	220.01
524.44	201.29
524.61	325.33
524.78	201.29
524.96	245.76
525.13	297.25
525.30	269.16
525.47	236.39
525.64	238.73
525.81	276.18
525.98	184.90
526.16	304.27
526.33	287.89
526.50	182.56
526.67	227.03
526.84	154.48
527.01	203.63
527.18	245.76
527.36	196.60
527.53	208.31
527.70	304.27
527.87	236.39
528.04	292.57
528.21	166.18
528.38	257.46
528.55	255.12
528.72	262.14
528.89	264.48
529.07	198.95
529.24	271.50
529.41	344.06
529.58	290.23
529.75	287.89
529.92	264.48
530.09	266.82
530.26	215.33
530.43	238.73
530.60	262.14
530.77	262.14
530.94	283.20
531.11	243.42
531.28	236.39
531.46	173.20
531.63	280.86
531.80	259.80
531.97	294.91
532.14	212.99
532.31	224.69
532.48	290.23
532.65	280.86
532.82	234.05
532.99	337.04
533.16	308.95
533.33	330.02
533.50	318.31
533.67	330.02
533.84	325.33
534.01	273.84
534.18	320.65
534.35	224.69
534.52	299.59
534.69	344.06
534.86	262.14
535.03	311.29
535.20	257.46
535.37	346.40
535.54	283.20
535.71	337.04
535.88	344.06
536.05	339.38
536.22	301.93
536.38	262.14
536.55	411.93
536.72	318.31
536.89	346.40
537.06	325.33
537.23	313.63
537.40	325.33
537.57	379.17
537.74	351.08
537.91	407.25
538.08	425.98
538.25	386.19
538.42	418.96
538.59	472.79
538.75	477.47
538.92	411.93
539.09	451.72
539.26	451.72
539.43	535.98
539.60	524.28
539.77	517.26
539.94	559.39
540.11	603.86
540.28	683.44
540.44	674.07
540.61	669.39
540.78	898.77
540.95	884.72
541.12	1032.18
541.29	1081.33
541.46	1184.31
541.62	1387.94
541.79	1261.55
541.96	1170.27
542.13	1193.67
542.30	1128.14
542.47	1020.47
542.63	1062.60
542.80	987.71
542.97	1011.11
543.14	1020.47
543.31	1032.18
543.48	1086.01
543.64	1090.69
543.81	1107.07
543.98	1008.77
544.15	943.24
544.32	1046.22
544.48	1001.75
544.65	1018.13
544.82	1018.13
544.99	961.96
545.16	987.71
545.32	1123.46
545.49	1586.88
545.66	2385.01
545.83	2885.88
546.00	2495.01
546.16	1678.16
546.33	1310.70
546.50	1067.28
546.67	994.73
546.83	816.85
547.00	814.51
547.17	816.85
547.34	746.63
547.50	711.52
547.67	704.50
547.84	690.46
548.00	730.25
548.17	681.10
548.34	685.78
548.51	650.67
548.67	660.03
548.84	587.47
549.01	624.92
549.18	601.52
549.34	669.39
549.51	566.41
549.68	552.37
549.84	538.32
550.01	433.00
550.18	531.30
550.34	589.82
550.51	526.62
550.68	566.41
550.84	517.26
551.01	430.66
551.18	351.08
551.34	442.36
551.51	472.79
551.68	454.06
551.84	440.02
552.01	442.36
552.18	437.68
552.34	411.93
552.51	425.98
552.68	395.55
552.84	430.66
553.01	449.38
553.18	372.15
553.34	362.78
553.51	330.02
553.67	358.10
553.84	348.74
554.01	374.49
554.17	313.63
554.34	229.37
554.51	304.27
554.67	299.59
554.84	425.98
555.00	337.04
555.17	290.23
555.33	334.70
555.50	299.59
555.67	341.72
555.83	269.16
556.00	414.27
556.16	395.55
556.33	308.95
556.50	318.31
556.66	283.20
556.83	248.10
556.99	210.65
557.16	264.48
557.32	278.52
557.49	327.68
557.65	287.89
557.82	252.78
557.98	266.82
558.15	241.08
558.32	266.82
558.48	248.10
558.65	238.73
558.81	287.89
558.98	283.20
559.14	297.25
559.31	294.91
559.47	348.74
559.64	229.37
559.80	334.70
559.97	266.82
560.13	238.73
560.30	292.57
560.46	255.12
560.63	266.82
560.79	318.31
560.96	245.76
561.12	234.05
561.29	313.63
561.45	344.06
561.61	278.52
561.78	334.70
561.94	283.20
562.11	311.29
562.27	299.59
562.44	238.73
562.60	322.99
562.77	250.44
562.93	320.65
563.10	287.89
563.26	266.82
563.42	276.18
563.59	210.65
563.75	234.05
563.92	369.80
564.08	292.57
564.24	299.59
564.41	273.84
564.57	241.08
564.74	245.76
564.90	259.80
565.07	271.50
565.23	297.25
565.39	294.91
565.56	243.42
565.72	330.02
565.88	325.33
566.05	252.78
566.21	250.44
566.38	334.70
566.54	372.15
566.70	217.67
566.87	224.69
567.03	262.14
567.19	224.69
567.36	212.99
567.52	259.80
567.68	301.93
567.85	238.73
568.01	285.55
568.17	166.18
568.34	278.52
568.50	250.44
568.66	220.01
568.83	360.44
568.99	255.12
569.15	241.08
569.32	217.67
569.48	208.31
569.64	308.95
569.81	262.14
569.97	252.78
570.13	276.18
570.30	264.48
570.46	205.97
570.62	198.95
570.78	236.39
570.95	238.73
571.11	325.33
571.27	325.33
571.43	189.58
571.60	252.78
571.76	271.50
571.92	227.03
572.09	222.35
572.25	194.26
572.41	311.29
572.57	241.08
572.74	292.57
572.90	262.14
573.06	255.12
573.22	224.69
573.38	264.48
573.55	215.33
573.71	276.18
573.87	269.16
574.03	273.84
574.20	320.65
574.36	271.50
574.52	294.91
574.68	259.80
574.84	271.50
575.01	252.78
575.17	287.89
575.33	177.88
575.49	257.46
575.65	280.86
575.82	264.48
575.98	217.67
576.14	287.89
576.30	379.17
576.46	486.83
576.62	676.41
576.79	692.80
576.95	587.47
577.11	458.74
577.27	306.61
577.43	306.61
577.59	339.38
577.75	334.70
577.92	259.80
578.08	266.82
578.24	280.86
578.40	388.53
578.56	503.22
578.72	671.73
578.88	699.82
579.04	538.32
579.21	498.53
579.37	454.06
579.53	360.44
579.69	353.42
579.85	372.15
580.01	376.83
580.17	393.21
580.33	381.51
580.49	409.59
580.65	381.51
580.82	416.62
580.98	285.55
581.14	395.55
581.30	442.36
581.46	365.12
581.62	365.12
581.78	344.06
581.94	372.15
582.10	397.89
582.26	348.74
582.42	402.57
582.58	428.32
582.74	470.45
582.90	475.13
583.06	437.68
583.22	442.36
583.38	341.72
583.54	442.36
583.70	407.25
583.86	383.85
584.02	423.64
584.18	505.56
584.34	383.85
584.50	430.66
584.66	381.51
584.82	311.29
584.98	388.53
585.14	423.64
585.30	379.17
585.46	283.20
585.62	358.10
585.78	337.04
585.94	381.51
586.10	381.51
586.26	400.23
586.42	486.83
586.58	411.93
586.74	524.28
586.90	610.88
587.06	615.56
587.22	561.73
587.38	526.62
587.54	461.09
587.70	383.85
587.86	482.15
588.02	400.23
588.18	414.27
588.34	374.49
588.49	299.59
588.65	311.29
588.81	318.31
588.97	292.57
589.13	287.89
589.29	257.46
589.45	294.91
589.61	266.82
589.77	262.14
589.93	304.27
590.08	334.70
590.24	327.68
590.40	344.06
590.56	355.76
590.72	313.63
590.88	315.97
591.04	351.08
591.20	348.74
591.35	400.23
591.51	308.95
591.67	374.49
591.83	353.42
591.99	367.46
592.15	383.85
592.31	428.32
592.46	442.36
592.62	383.85
592.78	477.47
592.94	437.68
593.10	479.81
593.26	348.74
593.41	390.87
593.57	374.49
593.73	351.08
593.89	414.27
594.05	318.31
594.20	297.25
594.36	353.42
594.52	337.04
594.68	203.63
594.84	278.52
594.99	428.32
595.15	271.50
595.31	358.10
595.47	332.36
595.62	222.35
595.78	299.59
595.94	266.82
596.10	250.44
596.25	332.36
596.41	367.46
596.57	285.55
596.73	374.49
596.88	290.23
597.04	351.08
597.20	236.39
597.36	301.93
597.51	348.74
597.67	292.57
597.83	259.80
597.99	334.70
598.14	355.76
598.30	360.44
598.46	327.68
598.61	407.25
598.77	421.30
598.93	337.04
599.09	351.08
599.24	369.80
599.40	383.85
599.56	252.78
599.71	297.25
599.87	330.02
600.03	374.49
600.18	332.36
600.34	313.63
600.50	304.27
600.65	285.55
600.81	318.31
600.97	259.80
601.12	285.55
601.28	320.65
601.44	308.95
601.59	227.03
601.75	269.16
601.91	292.57
602.06	238.73
602.22	313.63
602.37	320.65
602.53	222.35
602.69	318.31
602.84	210.65
603.00	215.33
603.16	315.97
603.31	299.59
603.47	283.20
603.62	194.26
603.78	301.93
603.94	271.50
604.09	273.84
604.25	327.68
604.40	290.23
604.56	250.44
604.71	330.02
604.87	252.78
605.03	322.99
605.18	318.31
605.34	344.06
605.49	337.04
605.65	325.33
605.80	259.80
605.96	283.20
606.12	259.80
606.27	290.23
606.43	299.59
606.58	238.73
606.74	234.05
606.89	358.10
607.05	351.08
607.20	332.36
607.36	390.87
607.51	332.36
607.67	353.42
607.82	301.93
607.98	379.17
608.13	358.10
608.29	376.83
608.44	470.45
608.60	423.64
608.75	456.40
608.91	463.43
609.06	519.60
609.22	496.19
609.37	573.43
609.53	631.94
609.68	650.67
609.84	702.16
609.99	725.57
610.15	940.90
610.30	1071.97
610.46	1261.55
610.61	1706.25
610.76	1968.39
610.92	2361.60
611.07	2478.63
