SpectraSuite Data File
++++++++++++++++++++++++++++++++++++
Date: Fri Oct 04 11:42:14 GMT-05:00 2013
User: price-jones
Dark Spectrum Present: No
Reference Spectrum Present: No
Number of Sampled Component Spectra: 1
Spectrometers: USB2+H05261
Integration Time (usec): 100000 (USB2+H05261)
Spectra Averaged: 1 (USB2+H05261)
Boxcar Smoothing: 0 (USB2+H05261)
Correct for Electrical Dark: No (USB2+H05261)
Strobe/Lamp Enabled: No (USB2+H05261)
Correct for Detector Non-linearity: No (USB2+H05261)
Correct for Stray Light: No (USB2+H05261)
Number of Pixels in Processed Spectrum: 2048
>>>>>Begin Processed Spectral Data<<<<<
365.73	0.00
365.92	0.00
366.12	0.00
366.32	14.04
366.52	0.00
366.72	0.00
366.91	0.00
367.11	0.00
367.31	11.70
367.51	0.00
367.70	0.00
367.90	0.00
368.10	0.00
368.30	0.00
368.49	0.00
368.69	0.00
368.89	0.00
369.09	0.00
369.28	0.00
369.48	0.00
369.68	0.00
369.87	18.72
370.07	7.02
370.27	16.38
370.47	39.79
370.66	0.00
370.86	63.19
371.06	70.22
371.25	112.35
371.45	152.13
371.65	84.26
371.84	65.54
372.04	86.60
372.24	74.90
372.44	72.56
372.63	77.24
372.83	100.64
373.03	100.64
373.22	107.66
373.42	65.54
373.62	105.32
373.81	175.54
374.01	201.29
374.21	168.52
374.40	156.82
374.60	175.54
374.79	110.01
374.99	72.56
375.19	35.11
375.38	224.69
375.58	114.69
375.78	119.37
375.97	105.32
376.17	170.86
376.37	86.60
376.56	154.48
376.76	117.03
376.95	156.82
377.15	119.37
377.35	93.62
377.54	93.62
377.74	110.01
377.93	168.52
378.13	177.88
378.33	191.92
378.52	147.45
378.72	173.20
378.91	149.79
379.11	72.56
379.31	112.35
379.50	91.28
379.70	140.43
379.89	152.13
380.09	102.98
380.28	175.54
380.48	72.56
380.68	145.11
380.87	72.56
381.07	51.49
381.26	154.48
381.46	177.88
381.65	88.94
381.85	147.45
382.04	112.35
382.24	138.09
382.43	105.32
382.63	63.19
382.83	46.81
383.02	128.73
383.22	135.75
383.41	93.62
383.61	112.35
383.80	112.35
384.00	42.13
384.19	84.26
384.39	149.79
384.58	110.01
384.78	170.86
384.97	149.79
385.17	163.84
385.36	140.43
385.56	77.24
385.75	44.47
385.95	119.37
386.14	100.64
386.34	117.03
386.53	86.60
386.72	170.86
386.92	117.03
387.11	168.52
387.31	187.24
387.50	74.90
387.70	105.32
387.89	161.50
388.09	114.69
388.28	105.32
388.48	107.66
388.67	154.48
388.86	189.58
389.06	112.35
389.25	93.62
389.45	152.13
389.64	142.77
389.84	124.05
390.03	107.66
390.22	112.35
390.42	124.05
390.61	159.16
390.81	140.43
391.00	95.96
391.19	131.07
391.39	88.94
391.58	138.09
391.78	65.54
391.97	147.45
392.16	98.30
392.36	98.30
392.55	117.03
392.75	49.15
392.94	49.15
393.13	203.63
393.33	110.01
393.52	37.45
393.71	189.58
393.91	138.09
394.10	131.07
394.29	88.94
394.49	163.84
394.68	93.62
394.88	166.18
395.07	93.62
395.26	147.45
395.46	60.85
395.65	135.75
395.84	84.26
396.04	191.92
396.23	117.03
396.42	131.07
396.62	140.43
396.81	67.88
397.00	161.50
397.19	77.24
397.39	161.50
397.58	173.20
397.77	110.01
397.97	161.50
398.16	114.69
398.35	154.48
398.55	161.50
398.74	135.75
398.93	112.35
399.12	121.71
399.32	131.07
399.51	93.62
399.70	100.64
399.90	241.08
400.09	156.82
400.28	184.90
400.47	175.54
400.67	154.48
400.86	180.22
401.05	117.03
401.24	194.26
401.44	124.05
401.63	156.82
401.82	208.31
402.01	107.66
402.21	173.20
402.40	187.24
402.59	133.41
402.78	131.07
402.97	128.73
403.17	147.45
403.36	84.26
403.55	128.73
403.74	175.54
403.93	149.79
404.13	187.24
404.32	283.20
404.51	266.82
404.70	241.08
404.89	135.75
405.09	156.82
405.28	98.30
405.47	100.64
405.66	135.75
405.85	184.90
406.05	168.52
406.24	145.11
406.43	175.54
406.62	135.75
406.81	203.63
407.00	166.18
407.20	217.67
407.39	114.69
407.58	189.58
407.77	168.52
407.96	201.29
408.15	93.62
408.34	156.82
408.54	107.66
408.73	124.05
408.92	166.18
409.11	173.20
409.30	147.45
409.49	117.03
409.68	159.16
409.87	163.84
410.07	145.11
410.26	147.45
410.45	212.99
410.64	194.26
410.83	227.03
411.02	166.18
411.21	194.26
411.40	156.82
411.59	133.41
411.78	201.29
411.98	227.03
412.17	145.11
412.36	156.82
412.55	187.24
412.74	142.77
412.93	154.48
413.12	177.88
413.31	168.52
413.50	95.96
413.69	182.56
413.88	194.26
414.07	77.24
414.26	229.37
414.45	145.11
414.64	126.39
414.83	224.69
415.02	180.22
415.22	154.48
415.41	140.43
415.60	114.69
415.79	154.48
415.98	212.99
416.17	212.99
416.36	198.95
416.55	170.86
416.74	147.45
416.93	224.69
417.12	98.30
417.31	140.43
417.50	147.45
417.69	145.11
417.88	191.92
418.07	110.01
418.26	149.79
418.45	117.03
418.64	203.63
418.83	102.98
419.02	187.24
419.21	177.88
419.39	117.03
419.58	95.96
419.77	98.30
419.96	173.20
420.15	227.03
420.34	208.31
420.53	140.43
420.72	222.35
420.91	121.71
421.10	205.97
421.29	70.22
421.48	173.20
421.67	196.60
421.86	191.92
422.05	154.48
422.24	159.16
422.43	170.86
422.61	170.86
422.80	227.03
422.99	119.37
423.18	175.54
423.37	140.43
423.56	133.41
423.75	180.22
423.94	175.54
424.13	140.43
424.32	149.79
424.50	140.43
424.69	210.65
424.88	217.67
425.07	189.58
425.26	187.24
425.45	149.79
425.64	163.84
425.83	138.09
426.01	212.99
426.20	278.52
426.39	187.24
426.58	173.20
426.77	95.96
426.96	117.03
427.15	191.92
427.33	159.16
427.52	149.79
427.71	149.79
427.90	175.54
428.09	152.13
428.28	159.16
428.46	168.52
428.65	196.60
428.84	224.69
429.03	224.69
429.22	177.88
429.40	175.54
429.59	177.88
429.78	180.22
429.97	168.52
430.16	124.05
430.34	163.84
430.53	156.82
430.72	212.99
430.91	224.69
431.10	156.82
431.28	201.29
431.47	154.48
431.66	138.09
431.85	215.33
432.03	170.86
432.22	248.10
432.41	187.24
432.60	234.05
432.79	159.16
432.97	220.01
433.16	212.99
433.35	224.69
433.54	166.18
433.72	215.33
433.91	177.88
434.10	180.22
434.28	264.48
434.47	224.69
434.66	205.97
434.85	224.69
435.03	297.25
435.22	650.67
435.41	987.71
435.59	1004.09
435.78	748.97
435.97	428.32
436.16	297.25
436.34	250.44
436.53	140.43
436.72	194.26
436.90	142.77
437.09	220.01
437.28	201.29
437.46	175.54
437.65	175.54
437.84	156.82
438.02	133.41
438.21	142.77
438.40	177.88
438.58	154.48
438.77	208.31
438.96	196.60
439.14	173.20
439.33	154.48
439.52	245.76
439.70	161.50
439.89	229.37
440.08	184.90
440.26	187.24
440.45	243.42
440.63	189.58
440.82	175.54
441.01	182.56
441.19	196.60
441.38	196.60
441.57	159.16
441.75	145.11
441.94	215.33
442.12	189.58
442.31	245.76
442.50	208.31
442.68	243.42
442.87	187.24
443.05	177.88
443.24	210.65
443.43	224.69
443.61	159.16
443.80	203.63
443.98	215.33
444.17	131.07
444.35	191.92
444.54	238.73
444.73	212.99
444.91	142.77
445.10	166.18
445.28	140.43
445.47	88.94
445.65	241.08
445.84	187.24
446.02	217.67
446.21	198.95
446.39	273.84
446.58	227.03
446.77	189.58
446.95	177.88
447.14	212.99
447.32	215.33
447.51	166.18
447.69	191.92
447.88	126.39
448.06	191.92
448.25	168.52
448.43	149.79
448.62	95.96
448.80	210.65
448.99	234.05
449.17	159.16
449.36	166.18
449.54	187.24
449.73	124.05
449.91	166.18
450.10	196.60
450.28	301.93
450.46	245.76
450.65	231.71
450.83	124.05
451.02	170.86
451.20	224.69
451.39	208.31
451.57	184.90
451.76	180.22
451.94	220.01
452.13	217.67
452.31	201.29
452.49	133.41
452.68	203.63
452.86	191.92
453.05	306.61
453.23	210.65
453.42	159.16
453.60	170.86
453.78	259.80
453.97	154.48
454.15	135.75
454.34	161.50
454.52	180.22
454.70	187.24
454.89	208.31
455.07	184.90
455.26	110.01
455.44	250.44
455.62	135.75
455.81	205.97
455.99	234.05
456.17	222.35
456.36	220.01
456.54	194.26
456.73	198.95
456.91	227.03
457.09	198.95
457.28	304.27
457.46	154.48
457.64	208.31
457.83	238.73
458.01	177.88
458.19	255.12
458.38	142.77
458.56	170.86
458.74	168.52
458.93	224.69
459.11	159.16
459.29	149.79
459.48	126.39
459.66	248.10
459.84	198.95
460.03	255.12
460.21	145.11
460.39	259.80
460.57	238.73
460.76	205.97
460.94	241.08
461.12	163.84
461.31	168.52
461.49	201.29
461.67	236.39
461.85	191.92
462.04	142.77
462.22	311.29
462.40	220.01
462.59	217.67
462.77	152.13
462.95	173.20
463.13	184.90
463.32	128.73
463.50	227.03
463.68	163.84
463.86	138.09
464.05	205.97
464.23	215.33
464.41	196.60
464.59	175.54
464.78	208.31
464.96	201.29
465.14	217.67
465.32	110.01
465.50	236.39
465.69	203.63
465.87	203.63
466.05	184.90
466.23	138.09
466.41	208.31
466.60	142.77
466.78	243.42
466.96	231.71
467.14	283.20
467.32	154.48
467.51	184.90
467.69	227.03
467.87	231.71
468.05	220.01
468.23	166.18
468.41	217.67
468.60	262.14
468.78	222.35
468.96	229.37
469.14	245.76
469.32	156.82
469.50	154.48
469.69	220.01
469.87	257.46
470.05	231.71
470.23	182.56
470.41	145.11
470.59	255.12
470.77	128.73
470.95	187.24
471.14	222.35
471.32	238.73
471.50	194.26
471.68	149.79
471.86	201.29
472.04	229.37
472.22	140.43
472.40	203.63
472.58	161.50
472.77	145.11
472.95	205.97
473.13	266.82
473.31	220.01
473.49	177.88
473.67	175.54
473.85	248.10
474.03	170.86
474.21	269.16
474.39	250.44
474.57	238.73
474.75	177.88
474.93	212.99
475.12	173.20
475.30	212.99
475.48	262.14
475.66	196.60
475.84	166.18
476.02	191.92
476.20	236.39
476.38	110.01
476.56	205.97
476.74	194.26
476.92	229.37
477.10	231.71
477.28	173.20
477.46	229.37
477.64	255.12
477.82	229.37
478.00	243.42
478.18	271.50
478.36	222.35
478.54	208.31
478.72	285.55
478.90	243.42
479.08	245.76
479.26	187.24
479.44	159.16
479.62	278.52
479.80	248.10
479.98	203.63
480.16	110.01
480.34	215.33
480.52	170.86
480.70	224.69
480.88	241.08
481.06	262.14
481.24	285.55
481.41	187.24
481.59	304.27
481.77	236.39
481.95	262.14
482.13	238.73
482.31	238.73
482.49	231.71
482.67	245.76
482.85	252.78
483.03	290.23
483.21	308.95
483.39	229.37
483.57	318.31
483.74	257.46
483.92	257.46
484.10	330.02
484.28	248.10
484.46	264.48
484.64	294.91
484.82	294.91
485.00	236.39
485.18	341.72
485.35	280.86
485.53	257.46
485.71	262.14
485.89	320.65
486.07	285.55
486.25	397.89
486.43	287.89
486.61	351.08
486.78	386.19
486.96	257.46
487.14	304.27
487.32	358.10
487.50	397.89
487.68	376.83
487.85	313.63
488.03	425.98
488.21	400.23
488.39	334.70
488.57	315.97
488.75	287.89
488.92	540.66
489.10	341.72
489.28	442.36
489.46	212.99
489.64	290.23
489.81	276.18
489.99	348.74
490.17	318.31
490.35	465.77
490.53	280.86
490.70	348.74
490.88	287.89
491.06	285.55
491.24	341.72
491.41	337.04
491.59	287.89
491.77	271.50
491.95	299.59
492.13	301.93
492.30	285.55
492.48	269.16
492.66	358.10
492.84	358.10
493.01	339.38
493.19	285.55
493.37	292.57
493.54	332.36
493.72	341.72
493.90	299.59
494.08	344.06
494.25	322.99
494.43	358.10
494.61	285.55
494.79	278.52
494.96	196.60
495.14	308.95
495.32	238.73
495.49	344.06
495.67	318.31
495.85	285.55
496.02	203.63
496.20	304.27
496.38	243.42
496.55	346.40
496.73	308.95
496.91	280.86
497.09	344.06
497.26	365.12
497.44	280.86
497.62	264.48
497.79	362.78
497.97	341.72
498.14	318.31
498.32	304.27
498.50	311.29
498.67	271.50
498.85	292.57
499.03	266.82
499.20	318.31
499.38	264.48
499.56	339.38
499.73	283.20
499.91	264.48
500.08	259.80
500.26	301.93
500.44	313.63
500.61	344.06
500.79	255.12
500.97	273.84
501.14	339.38
501.32	325.33
501.49	308.95
501.67	280.86
501.84	330.02
502.02	229.37
502.20	234.05
502.37	269.16
502.55	269.16
502.72	285.55
502.90	313.63
503.07	252.78
503.25	341.72
503.43	266.82
503.60	243.42
503.78	290.23
503.95	290.23
504.13	276.18
504.30	252.78
504.48	276.18
504.65	318.31
504.83	229.37
505.01	250.44
505.18	334.70
505.36	313.63
505.53	264.48
505.71	262.14
505.88	308.95
506.06	276.18
506.23	308.95
506.41	264.48
506.58	273.84
506.76	285.55
506.93	229.37
507.11	348.74
507.28	304.27
507.46	278.52
507.63	285.55
507.81	243.42
507.98	369.80
508.16	257.46
508.33	330.02
508.50	248.10
508.68	280.86
508.85	339.38
509.03	292.57
509.20	287.89
509.38	304.27
509.55	250.44
509.73	318.31
509.90	290.23
510.08	344.06
510.25	315.97
510.42	271.50
510.60	294.91
510.77	304.27
510.95	290.23
511.12	266.82
511.30	290.23
511.47	334.70
511.64	252.78
511.82	299.59
511.99	255.12
512.17	250.44
512.34	285.55
512.51	294.91
512.69	341.72
512.86	318.31
513.04	245.76
513.21	383.85
513.38	337.04
513.56	315.97
513.73	222.35
513.90	273.84
514.08	280.86
514.25	313.63
514.43	287.89
514.60	220.01
514.77	276.18
514.95	320.65
515.12	262.14
515.29	294.91
515.47	327.68
515.64	365.12
515.81	318.31
515.99	304.27
516.16	294.91
516.33	351.08
516.51	259.80
516.68	229.37
516.85	224.69
517.03	215.33
517.20	322.99
517.37	212.99
517.54	306.61
517.72	311.29
517.89	231.71
518.06	227.03
518.24	379.17
518.41	322.99
518.58	250.44
518.75	297.25
518.93	264.48
519.10	322.99
519.27	220.01
519.45	287.89
519.62	330.02
519.79	257.46
519.96	234.05
520.14	290.23
520.31	257.46
520.48	252.78
520.65	194.26
520.83	353.42
521.00	299.59
521.17	292.57
521.34	283.20
521.52	285.55
521.69	243.42
521.86	269.16
522.03	231.71
522.20	271.50
522.38	308.95
522.55	297.25
522.72	241.08
522.89	283.20
523.07	315.97
523.24	280.86
523.41	271.50
523.58	283.20
523.75	353.42
523.92	271.50
524.10	234.05
524.27	313.63
524.44	245.76
524.61	327.68
524.78	301.93
524.96	334.70
525.13	269.16
525.30	297.25
525.47	365.12
525.64	341.72
525.81	280.86
525.98	334.70
526.16	266.82
526.33	276.18
526.50	283.20
526.67	250.44
526.84	269.16
527.01	255.12
527.18	304.27
527.36	297.25
527.53	308.95
527.70	395.55
527.87	381.51
528.04	318.31
528.21	250.44
528.38	348.74
528.55	322.99
528.72	311.29
528.89	320.65
529.07	266.82
529.24	292.57
529.41	348.74
529.58	283.20
529.75	257.46
529.92	348.74
530.09	386.19
530.26	327.68
530.43	306.61
530.60	327.68
530.77	308.95
530.94	376.83
531.11	344.06
531.28	306.61
531.46	227.03
531.63	234.05
531.80	266.82
531.97	252.78
532.14	294.91
532.31	348.74
532.48	315.97
532.65	301.93
532.82	278.52
532.99	351.08
533.16	306.61
533.33	313.63
533.50	252.78
533.67	313.63
533.84	430.66
534.01	325.33
534.18	278.52
534.35	365.12
534.52	358.10
534.69	306.61
534.86	315.97
535.03	367.46
535.20	280.86
535.37	355.76
535.54	341.72
535.71	327.68
535.88	393.21
536.05	414.27
536.22	414.27
536.38	348.74
536.55	393.21
536.72	362.78
536.89	367.46
537.06	318.31
537.23	320.65
537.40	400.23
537.57	409.59
537.74	428.32
537.91	433.00
538.08	388.53
538.25	482.15
538.42	395.55
538.59	475.13
538.75	400.23
538.92	454.06
539.09	524.28
539.26	463.43
539.43	496.19
539.60	503.22
539.77	538.32
539.94	653.01
540.11	638.97
540.28	690.46
540.44	629.60
540.61	760.67
540.78	631.94
540.95	887.06
541.12	950.26
541.29	1048.56
541.46	1181.97
541.62	1163.25
541.79	1093.03
541.96	1078.99
542.13	1086.01
542.30	976.00
542.47	1032.18
542.63	950.26
542.80	954.94
542.97	917.49
543.14	924.51
543.31	933.87
543.48	959.62
543.64	1008.77
543.81	992.39
543.98	875.36
544.15	968.98
544.32	971.32
544.48	863.66
544.65	936.21
544.82	870.68
544.99	821.53
545.16	945.58
545.32	964.30
545.49	1437.09
545.66	2244.57
545.83	2537.14
546.00	2228.19
546.16	1612.63
546.33	1238.14
546.50	945.58
546.67	945.58
546.83	819.19
547.00	704.50
547.17	718.54
547.34	699.82
547.50	685.78
547.67	662.37
547.84	662.37
548.00	655.35
548.17	645.99
548.34	573.43
548.51	645.99
548.67	589.82
548.84	538.32
549.01	589.82
549.18	674.07
549.34	638.97
549.51	575.77
549.68	594.50
549.84	535.98
550.01	472.79
550.18	638.97
550.34	636.63
550.51	587.47
550.68	552.37
550.84	543.00
551.01	519.60
551.18	451.72
551.34	484.49
551.51	430.66
551.68	393.21
551.84	484.49
552.01	409.59
552.18	435.34
552.34	442.36
552.51	454.06
552.68	358.10
552.84	381.51
553.01	358.10
553.18	390.87
553.34	397.89
553.51	402.57
553.67	332.36
553.84	383.85
554.01	337.04
554.17	386.19
554.34	266.82
554.51	315.97
554.67	416.62
554.84	386.19
555.00	264.48
555.17	362.78
555.33	320.65
555.50	355.76
555.67	292.57
555.83	280.86
556.00	353.42
556.16	456.40
556.33	327.68
556.50	306.61
556.66	266.82
556.83	250.44
556.99	276.18
557.16	297.25
557.32	287.89
557.49	220.01
557.65	217.67
557.82	276.18
557.98	325.33
558.15	290.23
558.32	271.50
558.48	245.76
558.65	283.20
558.81	224.69
558.98	280.86
559.14	297.25
559.31	322.99
559.47	421.30
559.64	287.89
559.80	287.89
559.97	297.25
560.13	367.46
560.30	257.46
560.46	269.16
560.63	264.48
560.79	344.06
560.96	217.67
561.12	250.44
561.29	269.16
561.45	238.73
561.61	332.36
561.78	383.85
561.94	252.78
562.11	292.57
562.27	252.78
562.44	264.48
562.60	227.03
562.77	308.95
562.93	365.12
563.10	355.76
563.26	330.02
563.42	330.02
563.59	344.06
563.75	287.89
563.92	351.08
564.08	346.40
564.24	292.57
564.41	421.30
564.57	257.46
564.74	313.63
564.90	280.86
565.07	311.29
565.23	292.57
565.39	255.12
565.56	285.55
565.72	264.48
565.88	255.12
566.05	250.44
566.21	271.50
566.38	259.80
566.54	332.36
566.70	360.44
566.87	292.57
567.03	283.20
567.19	264.48
567.36	355.76
567.52	269.16
567.68	238.73
567.85	255.12
568.01	280.86
568.17	257.46
568.34	304.27
568.50	381.51
568.66	353.42
568.83	332.36
568.99	224.69
569.15	276.18
569.32	255.12
569.48	287.89
569.64	255.12
569.81	287.89
569.97	287.89
570.13	283.20
570.30	229.37
570.46	255.12
570.62	241.08
570.78	287.89
570.95	177.88
571.11	269.16
571.27	299.59
571.43	259.80
571.60	299.59
571.76	320.65
571.92	243.42
572.09	285.55
572.25	250.44
572.41	243.42
572.57	271.50
572.74	271.50
572.90	306.61
573.06	259.80
573.22	304.27
573.38	290.23
573.55	304.27
573.71	278.52
573.87	285.55
574.03	264.48
574.20	222.35
574.36	330.02
574.52	229.37
574.68	306.61
574.84	292.57
575.01	283.20
575.17	269.16
575.33	337.04
575.49	306.61
575.65	252.78
575.82	280.86
575.98	376.83
576.14	231.71
576.30	325.33
576.46	519.60
576.62	587.47
576.79	678.76
576.95	533.64
577.11	404.91
577.27	301.93
577.43	355.76
577.59	337.04
577.75	255.12
577.92	255.12
578.08	299.59
578.24	250.44
578.40	383.85
578.56	580.45
578.72	627.26
578.88	681.10
579.04	526.62
579.21	526.62
579.37	358.10
579.53	395.55
579.69	407.25
579.85	397.89
580.01	346.40
580.17	451.72
580.33	374.49
580.49	372.15
580.65	294.91
580.82	339.38
580.98	294.91
581.14	315.97
581.30	297.25
581.46	306.61
581.62	416.62
581.78	381.51
581.94	386.19
582.10	362.78
582.26	404.91
582.42	521.94
582.58	411.93
582.74	456.40
582.90	472.79
583.06	440.02
583.22	411.93
583.38	479.81
583.54	381.51
583.70	404.91
583.86	465.77
584.02	423.64
584.18	524.28
584.34	449.38
584.50	440.02
584.66	283.20
584.82	365.12
584.98	435.34
585.14	433.00
585.30	362.78
585.46	367.46
585.62	318.31
585.78	435.34
585.94	341.72
586.10	402.57
586.26	428.32
586.42	416.62
586.58	486.83
586.74	475.13
586.90	524.28
587.06	547.69
587.22	538.32
587.38	482.15
587.54	477.47
587.70	442.36
587.86	407.25
588.02	416.62
588.18	353.42
588.34	278.52
588.49	308.95
588.65	294.91
588.81	311.29
588.97	292.57
589.13	234.05
589.29	273.84
589.45	325.33
589.61	330.02
589.77	388.53
589.93	334.70
590.08	320.65
590.24	264.48
590.40	308.95
590.56	388.53
590.72	264.48
590.88	262.14
591.04	369.80
591.20	407.25
591.35	423.64
591.51	351.08
591.67	353.42
591.83	325.33
591.99	294.91
592.15	353.42
592.31	451.72
592.46	475.13
592.62	524.28
592.78	447.04
592.94	512.58
593.10	451.72
593.26	365.12
593.41	463.43
593.57	409.59
593.73	400.23
593.89	404.91
594.05	299.59
594.20	257.46
594.36	301.93
594.52	313.63
594.68	248.10
594.84	264.48
594.99	334.70
595.15	301.93
595.31	306.61
595.47	301.93
595.62	280.86
595.78	306.61
595.94	285.55
596.10	320.65
596.25	318.31
596.41	269.16
596.57	301.93
596.73	271.50
596.88	276.18
597.04	269.16
597.20	369.80
597.36	315.97
597.51	330.02
597.67	360.44
597.83	369.80
597.99	390.87
598.14	334.70
598.30	372.15
598.46	339.38
598.61	341.72
598.77	318.31
598.93	355.76
599.09	341.72
599.24	339.38
599.40	409.59
599.56	351.08
599.71	369.80
599.87	313.63
600.03	292.57
600.18	322.99
600.34	337.04
600.50	362.78
600.65	330.02
600.81	301.93
600.97	257.46
601.12	388.53
601.28	311.29
601.44	334.70
601.59	231.71
601.75	325.33
601.91	236.39
602.06	283.20
602.22	390.87
602.37	271.50
602.53	257.46
602.69	278.52
602.84	304.27
603.00	248.10
603.16	257.46
603.31	231.71
603.47	285.55
603.62	299.59
603.78	318.31
603.94	325.33
604.09	269.16
604.25	304.27
604.40	257.46
604.56	297.25
604.71	243.42
604.87	238.73
605.03	308.95
605.18	271.50
605.34	414.27
605.49	304.27
605.65	257.46
605.80	255.12
605.96	390.87
606.12	212.99
606.27	297.25
606.43	332.36
606.58	297.25
606.74	351.08
606.89	327.68
607.05	402.57
607.20	320.65
607.36	266.82
607.51	383.85
607.67	416.62
607.82	421.30
607.98	367.46
608.13	386.19
608.29	458.74
608.44	425.98
608.60	470.45
608.75	468.11
608.91	484.49
609.06	528.96
609.22	482.15
609.37	514.92
609.53	564.07
609.68	540.66
609.84	561.73
609.99	732.59
610.15	847.27
610.30	1109.41
610.46	1217.08
610.61	1486.24
610.76	1736.68
610.92	2120.53
611.07	2368.62
