SpectraSuite Data File
++++++++++++++++++++++++++++++++++++
Date: Fri Oct 04 11:42:23 GMT-05:00 2013
User: price-jones
Dark Spectrum Present: No
Reference Spectrum Present: No
Number of Sampled Component Spectra: 1
Spectrometers: USB2+H05261
Integration Time (usec): 100000 (USB2+H05261)
Spectra Averaged: 1 (USB2+H05261)
Boxcar Smoothing: 0 (USB2+H05261)
Correct for Electrical Dark: No (USB2+H05261)
Strobe/Lamp Enabled: No (USB2+H05261)
Correct for Detector Non-linearity: No (USB2+H05261)
Correct for Stray Light: No (USB2+H05261)
Number of Pixels in Processed Spectrum: 2048
>>>>>Begin Processed Spectral Data<<<<<
365.73	107.66
365.92	107.66
366.12	107.66
366.32	0.00
366.52	0.00
366.72	4.68
366.91	0.00
367.11	0.00
367.31	0.00
367.51	0.00
367.70	0.00
367.90	0.00
368.10	0.00
368.30	0.00
368.49	0.00
368.69	0.00
368.89	0.00
369.09	0.00
369.28	60.85
369.48	0.00
369.68	0.00
369.87	16.38
370.07	0.00
370.27	0.00
370.47	84.26
370.66	180.22
370.86	269.16
371.06	327.68
371.25	379.17
371.45	339.38
371.65	283.20
371.84	301.93
372.04	320.65
372.24	320.65
372.44	351.08
372.63	245.76
372.83	327.68
373.03	330.02
373.22	264.48
373.42	273.84
373.62	365.12
373.81	376.83
374.01	294.91
374.21	301.93
374.40	273.84
374.60	362.78
374.79	369.80
374.99	379.17
375.19	440.02
375.38	435.34
375.58	428.32
375.78	447.04
375.97	374.49
376.17	463.43
376.37	341.72
376.56	425.98
376.76	411.93
376.95	353.42
377.15	458.74
377.35	486.83
377.54	496.19
377.74	475.13
377.93	526.62
378.13	477.47
378.33	397.89
378.52	425.98
378.72	491.51
378.91	451.72
379.11	381.51
379.31	430.66
379.50	358.10
379.70	435.34
379.89	449.38
380.09	440.02
380.28	449.38
380.48	449.38
380.68	397.89
380.87	421.30
381.07	418.96
381.26	414.27
381.46	383.85
381.65	332.36
381.85	425.98
382.04	250.44
382.24	369.80
382.43	339.38
382.63	283.20
382.83	257.46
383.02	322.99
383.22	292.57
383.41	315.97
383.61	278.52
383.80	376.83
384.00	423.64
384.19	390.87
384.39	442.36
384.58	393.21
384.78	440.02
384.97	393.21
385.17	437.68
385.36	456.40
385.56	461.09
385.75	414.27
385.95	498.53
386.14	470.45
386.34	423.64
386.53	500.87
386.72	470.45
386.92	449.38
387.11	447.04
387.31	489.17
387.50	414.27
387.70	379.17
387.89	456.40
388.09	491.51
388.28	454.06
388.48	402.57
388.67	472.79
388.86	489.17
389.06	477.47
389.25	489.17
389.45	528.96
389.64	613.22
389.84	533.64
390.03	550.03
390.22	599.18
390.42	592.16
390.61	519.60
390.81	720.88
391.00	603.86
391.19	620.24
391.39	608.54
391.58	608.54
391.78	603.86
391.97	557.05
392.16	514.92
392.36	500.87
392.55	440.02
392.75	414.27
392.94	292.57
393.13	297.25
393.33	327.68
393.52	379.17
393.71	543.00
393.91	428.32
394.10	521.94
394.29	507.90
394.49	552.37
394.68	690.46
394.88	716.20
395.07	676.41
395.26	543.00
395.46	655.35
395.65	683.44
395.84	475.13
396.04	447.04
396.23	454.06
396.42	393.21
396.62	372.15
396.81	428.32
397.00	561.73
397.19	603.86
397.39	660.03
397.58	800.46
397.77	765.36
397.97	798.12
398.16	748.97
398.35	795.78
398.55	847.27
398.74	863.66
398.93	894.08
399.12	837.91
399.32	823.87
399.51	844.93
399.70	945.58
399.90	908.13
400.09	894.08
400.28	880.04
400.47	910.47
400.67	943.24
400.86	915.15
401.05	908.13
401.24	1006.43
401.44	1013.45
401.63	971.32
401.82	1004.09
402.01	954.94
402.21	968.98
402.40	1008.77
402.59	917.49
402.78	912.81
402.97	901.11
403.17	938.55
403.36	971.32
403.55	999.41
403.74	980.68
403.93	987.71
404.13	1020.47
404.32	1015.79
404.51	1046.22
404.70	1020.47
404.89	1001.75
405.09	1001.75
405.28	976.00
405.47	1055.58
405.66	1013.45
405.85	964.30
406.05	947.92
406.24	882.38
406.43	987.71
406.62	1018.13
406.81	1013.45
407.00	954.94
407.20	936.21
407.39	938.55
407.58	980.68
407.77	1064.94
407.96	1076.65
408.15	1039.20
408.34	1081.33
408.54	1078.99
408.73	1093.03
408.92	1149.20
409.11	1081.33
409.30	1083.67
409.49	943.24
409.68	858.98
409.87	922.17
410.07	1020.47
410.26	976.00
410.45	1039.20
410.64	1142.18
410.83	1062.60
411.02	1156.22
411.21	1174.95
411.40	1135.16
411.59	1221.76
411.78	1121.12
411.98	1111.75
412.17	1172.61
412.36	1172.61
412.55	1188.99
412.74	1050.90
412.93	1200.69
413.12	1153.88
413.31	1137.50
413.50	1163.25
413.69	1184.31
413.88	1177.29
414.07	1207.72
414.26	1137.50
414.45	1142.18
414.64	1144.52
414.83	1142.18
415.02	1149.20
415.22	1186.65
415.41	1228.78
415.60	1252.19
415.79	1256.87
415.98	1303.68
416.17	1247.51
416.36	1203.04
416.55	1188.99
416.74	1259.21
416.93	1135.16
417.12	1191.33
417.31	1181.97
417.50	1135.16
417.69	1301.34
417.88	1238.14
418.07	1214.74
418.26	1184.31
418.45	1291.98
418.64	1242.82
418.83	1303.68
419.02	1277.93
419.21	1310.70
419.39	1331.76
419.58	1149.20
419.77	1128.14
419.96	1291.98
420.15	1364.53
420.34	1348.15
420.53	1296.66
420.72	1303.68
420.91	1268.57
421.10	1315.38
421.29	1350.49
421.48	1219.42
421.67	1270.91
421.86	1320.06
422.05	1188.99
422.24	1135.16
422.43	1181.97
422.61	1266.23
422.80	1270.91
422.99	1284.95
423.18	1219.42
423.37	1310.70
423.56	1207.72
423.75	1245.16
423.94	1329.42
424.13	1188.99
424.32	1277.93
424.50	1315.38
424.69	1221.76
424.88	1242.82
425.07	1179.63
425.26	1231.12
425.45	1308.36
425.64	1303.68
425.83	1238.14
426.01	1270.91
426.20	1214.74
426.39	1270.91
426.58	1139.84
426.77	1151.54
426.96	1090.69
427.15	1123.46
427.33	1193.67
427.52	1263.89
427.71	1308.36
427.90	1270.91
428.09	1282.61
428.28	1172.61
428.46	1137.50
428.65	1203.04
428.84	1160.91
429.03	1226.44
429.22	1069.62
429.40	1008.77
429.59	978.34
429.78	961.96
429.97	915.15
430.16	959.62
430.34	903.45
430.53	830.89
430.72	908.13
430.91	1041.54
431.10	1188.99
431.28	1315.38
431.47	1434.75
431.66	1416.02
431.85	1338.79
432.03	1242.82
432.22	1261.55
432.41	1179.63
432.60	1331.76
432.79	1390.28
432.97	1373.89
433.16	1350.49
433.35	1280.27
433.54	1132.82
433.72	1062.60
433.91	1123.46
434.10	1310.70
434.28	1343.47
434.47	1343.47
434.66	1324.74
434.85	1432.41
435.03	1453.47
435.22	1624.33
435.41	1832.64
435.59	1902.86
435.78	1713.27
435.97	1596.25
436.16	1519.01
436.34	1476.88
436.53	1416.02
436.72	1458.15
436.90	1338.79
437.09	1439.43
437.28	1362.19
437.46	1385.60
437.65	1416.02
437.84	1401.98
438.02	1306.02
438.21	1299.00
438.40	1219.42
438.58	1416.02
438.77	1444.11
438.96	1385.60
439.14	1434.75
439.33	1509.65
439.52	1514.33
439.70	1446.45
439.89	1509.65
440.08	1383.26
440.26	1423.05
440.45	1476.88
440.63	1575.18
440.82	1624.33
441.01	1561.14
441.19	1528.37
441.38	1535.39
441.57	1668.80
441.75	1636.03
441.94	1593.90
442.12	1600.93
442.31	1633.69
442.50	1612.63
442.68	1673.48
442.87	1572.84
443.05	1596.25
443.24	1598.59
443.43	1680.50
443.61	1720.29
443.80	1696.89
443.98	1565.82
444.17	1657.10
444.35	1746.04
444.54	1624.33
444.73	1694.55
444.91	1685.19
445.10	1547.09
445.28	1448.79
445.47	1401.98
445.65	1607.95
445.84	1579.86
446.02	1624.33
446.21	1680.50
446.39	1586.88
446.58	1675.82
446.77	1638.38
446.95	1767.10
447.14	1776.47
447.32	1778.81
447.51	1636.03
447.69	1647.74
447.88	1647.74
448.06	1778.81
448.25	1771.79
448.43	1682.85
448.62	1591.56
448.80	1776.47
448.99	1661.78
449.17	1696.89
449.36	1652.42
449.54	1781.15
449.73	1762.42
449.91	1708.59
450.10	1830.30
450.28	1926.26
450.46	1856.04
450.65	1837.32
450.83	1860.73
451.02	1870.09
451.20	1900.52
451.39	1795.19
451.57	1804.55
451.76	1696.89
451.94	1722.63
452.13	1788.17
452.31	1746.04
452.49	1626.67
452.68	1586.88
452.86	1619.65
453.05	1659.44
453.23	1664.12
453.42	1673.48
453.60	1626.67
453.78	1734.34
453.97	1647.74
454.15	1678.16
454.34	1729.66
454.52	1727.32
454.70	1771.79
454.89	1748.38
455.07	1636.03
455.26	1748.38
455.44	1830.30
455.62	1806.89
455.81	1776.47
455.99	1764.76
456.17	1764.76
456.36	1685.19
456.54	1797.53
456.73	1825.62
456.91	1909.88
457.09	1877.11
457.28	1970.73
457.46	1776.47
457.64	1877.11
457.83	1736.68
458.01	1732.00
458.19	1741.36
458.38	1764.76
458.56	1902.86
458.74	1797.53
458.93	1767.10
459.11	1753.06
459.29	1685.19
459.48	1839.66
459.66	1867.75
459.84	1872.43
460.03	1898.17
460.21	1825.62
460.39	1827.96
460.57	1856.04
460.76	1813.92
460.94	1830.30
461.12	1916.90
461.31	1947.33
461.49	1872.43
461.67	1827.96
461.85	1795.19
462.04	2038.61
462.22	2038.61
462.40	1909.88
462.59	1987.11
462.77	1863.07
462.95	1912.22
463.13	1900.52
463.32	1926.26
463.50	1966.05
463.68	1820.94
463.86	1912.22
464.05	1825.62
464.23	1741.36
464.41	1739.02
464.59	1750.72
464.78	1816.26
464.96	1722.63
465.14	1785.83
465.32	1863.07
465.50	1809.23
465.69	1846.68
465.87	1863.07
466.05	1886.47
466.23	1804.55
466.41	1755.40
466.60	1820.94
466.78	1788.17
466.96	1757.74
467.14	1898.17
467.32	1839.66
467.51	1902.86
467.69	1877.11
467.87	1795.19
468.05	1790.51
468.23	1914.56
468.41	1919.24
468.60	1891.15
468.78	1849.02
468.96	1832.64
469.14	1809.23
469.32	1839.66
469.50	1661.78
469.69	1748.38
469.87	1813.92
470.05	1884.13
470.23	1790.51
470.41	1799.87
470.59	1657.10
470.77	1816.26
470.95	1919.24
471.14	1856.04
471.32	1837.32
471.50	1987.11
471.68	1933.28
471.86	1937.96
472.04	1961.37
472.22	1989.46
472.40	1905.20
472.58	1874.77
472.77	1849.02
472.95	1919.24
473.13	2001.16
473.31	1921.58
473.49	1947.33
473.67	1898.17
473.85	1902.86
474.03	2015.20
474.21	1909.88
474.39	2005.84
474.57	2071.37
474.75	1881.79
474.93	1949.67
475.12	1954.35
475.30	2017.54
475.48	2033.93
475.66	1991.80
475.84	2017.54
476.02	1820.94
476.20	2022.22
476.38	2087.76
476.56	2047.97
476.74	1926.26
476.92	1994.14
477.10	2155.63
477.28	2104.14
477.46	2139.25
477.64	2200.10
477.82	2134.57
478.00	2193.08
478.18	2134.57
478.36	2101.80
478.54	2120.53
478.72	2235.21
478.90	2155.63
479.08	2307.77
479.26	2303.09
479.44	2172.02
479.62	2265.64
479.80	2265.64
479.98	2260.96
480.16	2169.68
480.34	2183.72
480.52	2380.32
480.70	2321.81
480.88	2352.24
481.06	2310.11
481.24	2349.90
481.41	2303.09
481.59	2534.80
481.77	2506.71
481.95	2424.80
482.13	2443.52
482.31	2179.04
482.49	2392.03
482.67	2483.31
482.85	2530.12
483.03	2420.11
483.21	2485.65
483.39	2595.65
483.57	2560.55
483.74	2509.05
483.92	2413.09
484.10	2534.80
484.28	2738.43
484.46	2633.10
484.64	2649.49
484.82	2495.01
485.00	2551.18
485.18	2480.97
485.35	2394.37
485.53	2094.78
485.71	2132.23
485.89	2230.53
486.07	2043.29
486.25	2246.91
486.43	2541.82
486.61	2504.37
486.78	2436.50
486.96	2541.82
487.14	2588.63
487.32	2562.89
487.50	2705.66
487.68	2825.03
487.85	2818.00
488.03	2836.73
488.21	2785.24
488.39	2834.39
488.57	2794.60
488.75	2583.95
488.92	2913.97
489.10	2832.05
489.28	3066.10
489.46	3038.02
489.64	2932.69
489.81	3089.51
489.99	3019.29
490.17	3016.95
490.35	3075.46
490.53	3021.63
490.70	3035.67
490.88	2949.08
491.06	3023.97
491.24	3152.70
491.41	2995.89
491.59	2799.28
491.77	2761.83
491.95	2855.45
492.13	2899.92
492.30	3019.29
492.48	3080.14
492.66	3075.46
492.84	3061.42
493.01	3192.49
493.19	3082.49
493.37	3016.95
493.54	3178.45
493.72	3052.06
493.90	3112.91
494.08	3248.66
494.25	3297.81
494.43	3363.35
494.61	3375.05
494.79	3318.88
494.96	3368.03
495.14	3269.73
495.32	3293.13
495.49	3103.55
495.67	3351.65
495.85	3346.97
496.02	3356.33
496.20	3330.58
496.38	3258.03
496.55	3370.37
496.73	3346.97
496.91	3459.31
497.09	3475.70
497.26	3412.50
497.44	3494.42
497.62	3419.52
497.79	3353.99
497.97	3199.51
498.14	3241.64
498.32	3234.62
498.50	3461.65
498.67	3426.54
498.85	3485.06
499.03	3351.65
499.20	3417.18
499.38	3520.17
499.56	3501.44
499.73	3489.74
499.91	3489.74
500.08	3222.92
500.26	3136.32
500.44	3246.32
500.61	3419.52
500.79	3311.86
500.97	3253.34
501.14	3353.99
501.32	3117.59
501.49	3173.77
501.67	3325.90
501.84	3215.90
502.02	3243.98
502.20	3302.50
502.37	3260.37
502.55	3377.39
502.72	3412.50
502.90	3290.79
503.07	3248.66
503.25	3281.43
503.43	3023.97
503.60	3096.53
503.78	3040.36
503.95	3077.80
504.13	3281.43
504.30	3440.59
504.48	3447.61
504.65	3382.07
504.83	3440.59
505.01	3297.81
505.18	3412.50
505.36	3658.26
505.53	3620.81
505.71	3669.96
505.88	3845.50
506.06	3531.87
506.23	3393.78
506.41	3529.53
506.58	3466.33
506.76	3403.14
506.93	3524.85
507.11	3410.16
507.28	3461.65
507.46	3431.23
507.63	3304.84
507.81	3337.60
507.98	3361.01
508.16	3290.79
508.33	3475.70
508.50	3648.90
508.68	3524.85
508.85	3592.72
509.03	3639.53
509.20	3487.40
509.38	3590.38
509.55	3487.40
509.73	3578.68
509.90	3707.41
510.08	3630.17
510.25	3627.83
510.42	3456.97
510.60	3478.04
510.77	3581.02
510.95	3625.49
511.12	3698.05
511.30	3655.92
511.47	3838.48
511.64	3854.86
511.82	3700.39
511.99	3609.11
512.17	3616.13
512.34	3651.24
512.51	3400.80
512.69	3602.08
512.86	3480.38
513.04	3665.28
513.21	3606.77
513.38	3574.00
513.56	3403.14
513.73	3447.61
513.90	3449.95
514.08	3417.18
514.25	3569.32
514.43	3566.98
514.60	3337.60
514.77	3461.65
514.95	3620.81
515.12	3604.42
515.29	3522.51
515.47	3611.45
515.64	3681.66
515.81	3550.59
515.99	3620.81
516.16	3410.16
516.33	3265.05
516.51	3089.51
516.68	3026.31
516.85	2829.71
517.03	2820.35
517.20	3190.15
517.37	3496.76
517.54	3609.11
517.72	3503.78
517.89	3124.62
518.06	3094.19
518.24	3122.27
518.41	3234.62
518.58	3529.53
518.75	3506.12
518.93	3421.86
519.10	3391.44
519.27	3517.83
519.45	3421.86
519.62	3562.30
519.79	3674.64
519.96	3602.08
520.14	3489.74
520.31	3473.36
520.48	3424.20
520.65	3543.57
520.83	3611.45
521.00	3667.62
521.17	3616.13
521.34	3744.86
521.52	3534.21
521.69	3740.18
521.86	3742.52
522.03	3648.90
522.20	3576.34
522.38	3426.54
522.55	3398.46
522.72	3485.06
522.89	3522.51
523.07	3494.42
523.24	3562.30
523.41	3796.35
523.58	3672.30
523.75	3805.71
523.92	3794.01
524.10	3801.03
524.27	3684.00
524.44	3735.50
524.61	3845.50
524.78	3737.84
524.96	3637.19
525.13	3786.99
525.30	3726.13
525.47	3749.54
525.64	3829.12
525.81	3688.68
525.98	3550.59
526.16	3276.75
526.33	3199.51
526.50	3131.64
526.67	3152.70
526.84	3251.00
527.01	3192.49
527.18	3370.37
527.36	3623.15
527.53	3597.40
527.70	3728.47
527.87	3534.21
528.04	3730.81
528.21	3688.68
528.38	3581.02
528.55	3819.75
528.72	3964.87
528.89	3913.38
529.07	3777.62
529.24	3585.70
529.41	3620.81
529.58	3564.64
529.75	3719.11
529.92	3726.13
530.09	3634.85
530.26	3801.03
530.43	3805.71
530.60	3899.33
530.77	3915.72
530.94	3744.86
531.11	3908.69
531.28	3674.64
531.46	3693.37
531.63	3761.24
531.80	3812.73
531.97	3660.60
532.14	3562.30
532.31	3707.41
532.48	3382.07
532.65	3400.80
532.82	3517.83
532.99	3627.83
533.16	3655.92
533.33	3735.50
533.50	3639.53
533.67	3651.24
533.84	3646.55
534.01	3674.64
534.18	3606.77
534.35	3712.09
534.52	3536.55
534.69	3702.73
534.86	3735.50
535.03	3672.30
535.20	3658.26
535.37	3857.20
535.54	3857.20
535.71	3803.37
535.88	3756.56
536.05	3751.88
536.22	3630.17
536.38	3632.51
536.55	3475.70
536.72	3597.40
536.89	3382.07
537.06	3660.60
537.23	3672.30
537.40	3794.01
537.57	3772.94
537.74	3674.64
537.91	3843.16
538.08	3686.34
538.25	3768.26
538.42	3655.92
538.59	3812.73
538.75	3662.94
538.92	3564.64
539.09	3590.38
539.26	3840.82
539.43	3620.81
539.60	3581.02
539.77	3576.34
539.94	3679.32
540.11	3529.53
540.28	3564.64
540.44	3604.42
540.61	3517.83
540.78	3681.66
540.95	3648.90
541.12	3798.69
541.29	3803.37
541.46	4039.76
541.62	3953.16
541.79	3964.87
541.96	4046.79
542.13	3871.25
542.30	3932.10
542.47	3997.64
542.63	3918.06
542.80	3932.10
542.97	3880.61
543.14	3988.27
543.31	3805.71
543.48	3957.85
543.64	4079.55
543.81	4182.54
543.98	3974.23
544.15	3941.46
544.32	3922.74
544.48	3852.52
544.65	3857.20
544.82	3981.25
544.99	3992.95
545.16	4196.58
545.32	3824.44
545.49	4201.26
545.66	4507.87
545.83	4880.02
546.00	4559.36
546.16	4313.61
546.33	3901.67
546.50	3892.31
546.67	3929.76
546.83	3791.67
547.00	3861.88
547.17	3744.86
547.34	3620.81
547.50	3550.59
547.67	3733.15
547.84	3728.47
548.00	3625.49
548.17	3735.50
548.34	3777.62
548.51	3915.72
548.67	3730.81
548.84	3843.16
549.01	3822.09
549.18	3723.79
549.34	3611.45
549.51	3744.86
549.68	3709.75
549.84	3693.37
550.01	3559.95
550.18	3801.03
550.34	3772.94
550.51	3611.45
550.68	3665.28
550.84	3620.81
551.01	3627.83
551.18	3562.30
551.34	3695.71
551.51	3471.01
551.68	3644.21
551.84	3735.50
552.01	3688.68
552.18	3513.14
552.34	3559.95
552.51	3419.52
552.68	3515.48
552.84	3506.12
553.01	3559.95
553.18	3440.59
553.34	3475.70
553.51	3456.97
553.67	3578.68
553.84	3742.52
554.01	3503.78
554.17	3543.57
554.34	3473.36
554.51	3552.93
554.67	3543.57
554.84	3559.95
555.00	3583.36
555.17	3559.95
555.33	3592.72
555.50	3522.51
555.67	3545.91
555.83	3461.65
556.00	3346.97
556.16	3548.25
556.33	3428.88
556.50	3375.05
556.66	3335.26
556.83	3276.75
556.99	3351.65
557.16	3346.97
557.32	3375.05
557.49	3417.18
557.65	3426.54
557.82	3328.24
557.98	3426.54
558.15	3307.18
558.32	3148.02
558.48	3243.98
558.65	3204.19
558.81	3300.16
558.98	3183.13
559.14	3213.56
559.31	3332.92
559.47	3328.24
559.64	3288.45
559.80	3220.58
559.97	3096.53
560.13	3272.07
560.30	3384.41
560.46	3478.04
560.63	3332.92
560.79	3492.08
560.96	3307.18
561.12	3342.28
561.29	3377.39
561.45	3227.60
561.61	3253.34
561.78	3545.91
561.94	3337.60
562.11	3208.87
562.27	3236.96
562.44	3236.96
562.60	3368.03
562.77	3321.22
562.93	3288.45
563.10	3297.81
563.26	3330.58
563.42	3290.79
563.59	3229.94
563.75	3201.85
563.92	3281.43
564.08	3070.78
564.24	3138.66
564.41	3201.85
564.57	3194.83
564.74	3265.05
564.90	3098.87
565.07	3169.09
565.23	3241.64
565.39	3066.10
565.56	3220.58
565.72	3133.98
565.88	3124.62
566.05	3103.55
566.21	3052.06
566.38	3150.36
566.54	3152.70
566.70	3150.36
566.87	3173.77
567.03	3159.72
567.19	3251.00
567.36	3213.56
567.52	3220.58
567.68	3129.30
567.85	3145.68
568.01	3035.67
568.17	2930.35
568.34	2963.12
568.50	2942.05
568.66	2878.86
568.83	2876.52
568.99	2972.48
569.15	3070.78
569.32	2972.48
569.48	2932.69
569.64	2909.29
569.81	2846.09
569.97	2942.05
570.13	3066.10
570.30	3035.67
570.46	2888.22
570.62	2825.03
570.78	2902.26
570.95	2860.13
571.11	2944.39
571.27	2920.99
571.43	2855.45
571.60	3005.25
571.76	2956.10
571.92	2928.01
572.09	3089.51
572.25	3000.57
572.41	3054.40
572.57	2956.10
572.74	3014.61
572.90	3000.57
573.06	2913.97
573.22	2888.22
573.38	3019.29
573.55	3084.83
573.71	3035.67
573.87	2956.10
574.03	3040.36
574.20	2899.92
574.36	2829.71
574.52	2925.67
574.68	2974.82
574.84	2822.69
575.01	2832.05
575.17	2796.94
575.33	2738.43
575.49	2869.50
575.65	2878.86
575.82	2899.92
575.98	2932.69
576.14	2808.64
576.30	2956.10
576.46	2988.86
576.62	3166.74
576.79	3204.19
576.95	3009.93
577.11	2892.90
577.27	2981.84
577.43	2984.18
577.59	2855.45
577.75	2829.71
577.92	2761.83
578.08	2787.58
578.24	2761.83
578.40	2874.18
578.56	2923.33
578.72	2951.42
578.88	3110.57
579.04	3052.06
579.21	3054.40
579.37	2993.55
579.53	2911.63
579.69	3012.27
579.85	2937.37
580.01	2860.13
580.17	2846.09
580.33	2958.44
580.49	2953.76
580.65	2942.05
580.82	2925.67
580.98	2796.94
581.14	2820.35
581.30	3014.61
581.46	2918.65
581.62	2895.24
581.78	2984.18
581.94	2939.71
582.10	2888.22
582.26	3038.02
582.42	2932.69
582.58	3014.61
582.74	2953.76
582.90	2935.03
583.06	3047.38
583.22	2885.88
583.38	2979.50
583.54	2825.03
583.70	2909.29
583.86	2930.35
584.02	2991.20
584.18	2904.60
584.34	2857.79
584.50	2904.60
584.66	2925.67
584.82	2818.00
584.98	2874.18
585.14	2775.88
585.30	2785.24
585.46	2792.26
585.62	2813.32
585.78	2796.94
585.94	2874.18
586.10	2729.06
586.26	2801.62
586.42	2857.79
586.58	2729.06
586.74	2789.92
586.90	2780.56
587.06	2890.56
587.22	2780.56
587.38	2825.03
587.54	2782.90
587.70	2722.04
587.86	2551.18
588.02	2431.82
588.18	2466.92
588.34	2359.26
588.49	2054.99
588.65	2057.33
588.81	1937.96
588.97	2071.37
589.13	2045.63
589.29	2104.14
589.45	2120.53
589.61	2017.54
589.77	2183.72
589.93	2085.42
590.08	2300.75
590.24	2298.41
590.40	2368.62
590.56	2485.65
590.72	2312.45
590.88	2272.66
591.04	2394.37
591.20	2342.88
591.35	2370.96
591.51	2284.36
591.67	2249.25
591.83	2197.76
591.99	2282.02
592.15	2275.00
592.31	2389.69
592.46	2565.23
592.62	2499.69
592.78	2466.92
592.94	2506.71
593.10	2516.08
593.26	2455.22
593.41	2492.67
593.57	2546.50
593.73	2420.11
593.89	2237.55
594.05	2298.41
594.20	2167.34
594.36	2181.38
594.52	2022.22
594.68	2256.28
594.84	2270.32
594.99	2382.67
595.15	2506.71
595.31	2509.05
595.47	2359.26
595.62	2279.68
595.78	2382.67
595.94	2459.90
596.10	2511.39
596.25	2443.52
596.41	2354.58
596.57	2282.02
596.73	2408.41
596.88	2392.03
597.04	2459.90
597.20	2363.94
597.36	2424.80
597.51	2448.20
597.67	2424.80
597.83	2314.79
597.99	2445.86
598.14	2438.84
598.30	2452.88
