SpectraSuite Data File
++++++++++++++++++++++++++++++++++++
Date: Fri Oct 04 11:42:03 GMT-05:00 2013
User: price-jones
Dark Spectrum Present: No
Reference Spectrum Present: No
Number of Sampled Component Spectra: 1
Spectrometers: USB2+H05261
Integration Time (usec): 100000 (USB2+H05261)
Spectra Averaged: 1 (USB2+H05261)
Boxcar Smoothing: 0 (USB2+H05261)
Correct for Electrical Dark: No (USB2+H05261)
Strobe/Lamp Enabled: No (USB2+H05261)
Correct for Detector Non-linearity: No (USB2+H05261)
Correct for Stray Light: No (USB2+H05261)
Number of Pixels in Processed Spectrum: 2048
>>>>>Begin Processed Spectral Data<<<<<
365.73	58.51
365.92	58.51
366.12	58.51
366.32	0.00
366.52	0.00
366.72	0.00
366.91	0.00
367.11	0.00
367.31	0.00
367.51	0.00
367.70	0.00
367.90	0.00
368.10	0.00
368.30	0.00
368.49	0.00
368.69	0.00
368.89	0.00
369.09	0.00
369.28	0.00
369.48	0.00
369.68	0.00
369.87	9.36
370.07	0.00
370.27	0.00
370.47	14.04
370.66	32.77
370.86	42.13
371.06	32.77
371.25	91.28
371.45	0.00
371.65	44.47
371.84	65.54
372.04	58.51
372.24	91.28
372.44	74.90
372.63	161.50
372.83	117.03
373.03	126.39
373.22	131.07
373.42	37.45
373.62	93.62
373.81	180.22
374.01	128.73
374.21	142.77
374.40	117.03
374.60	154.48
374.79	154.48
374.99	140.43
375.19	114.69
375.38	182.56
375.58	175.54
375.78	170.86
375.97	168.52
376.17	177.88
376.37	149.79
376.56	128.73
376.76	147.45
376.95	154.48
377.15	210.65
377.35	100.64
377.54	117.03
377.74	133.41
377.93	131.07
378.13	140.43
378.33	117.03
378.52	175.54
378.72	138.09
378.91	156.82
379.11	98.30
379.31	107.66
379.50	84.26
379.70	191.92
379.89	77.24
380.09	107.66
380.28	98.30
380.48	79.58
380.68	149.79
380.87	28.09
381.07	166.18
381.26	105.32
381.46	149.79
381.65	93.62
381.85	95.96
382.04	107.66
382.24	67.88
382.43	121.71
382.63	95.96
382.83	147.45
383.02	156.82
383.22	67.88
383.41	72.56
383.61	161.50
383.80	95.96
384.00	79.58
384.19	121.71
384.39	107.66
384.58	93.62
384.78	112.35
384.97	159.16
385.17	145.11
385.36	121.71
385.56	126.39
385.75	149.79
385.95	140.43
386.14	53.83
386.34	124.05
386.53	100.64
386.72	112.35
386.92	189.58
387.11	145.11
387.31	135.75
387.50	81.92
387.70	72.56
387.89	88.94
388.09	98.30
388.28	88.94
388.48	126.39
388.67	159.16
388.86	107.66
389.06	98.30
389.25	86.60
389.45	98.30
389.64	145.11
389.84	187.24
390.03	138.09
390.22	77.24
390.42	184.90
390.61	30.43
390.81	42.13
391.00	95.96
391.19	142.77
391.39	135.75
391.58	63.19
391.78	117.03
391.97	107.66
392.16	35.11
392.36	147.45
392.55	135.75
392.75	215.33
392.94	102.98
393.13	184.90
393.33	117.03
393.52	79.58
393.71	100.64
393.91	117.03
394.10	119.37
394.29	124.05
394.49	128.73
394.68	227.03
394.88	161.50
395.07	184.90
395.26	72.56
395.46	126.39
395.65	114.69
395.84	159.16
396.04	177.88
396.23	138.09
396.42	198.95
396.62	168.52
396.81	114.69
397.00	74.90
397.19	173.20
397.39	84.26
397.58	145.11
397.77	77.24
397.97	154.48
398.16	140.43
398.35	173.20
398.55	142.77
398.74	114.69
398.93	124.05
399.12	110.01
399.32	147.45
399.51	110.01
399.70	161.50
399.90	117.03
400.09	205.97
400.28	145.11
400.47	177.88
400.67	102.98
400.86	184.90
401.05	133.41
401.24	128.73
401.44	117.03
401.63	67.88
401.82	175.54
402.01	112.35
402.21	114.69
402.40	142.77
402.59	170.86
402.78	93.62
402.97	184.90
403.17	187.24
403.36	280.86
403.55	320.65
403.74	547.69
403.93	1610.29
404.13	3808.05
404.32	4936.19
404.51	4203.60
404.70	2597.99
404.89	978.34
405.09	362.78
405.28	166.18
405.47	238.73
405.66	212.99
405.85	210.65
406.05	152.13
406.24	189.58
406.43	154.48
406.62	220.01
406.81	212.99
407.00	360.44
407.20	484.49
407.39	830.89
407.58	727.91
407.77	540.66
407.96	332.36
408.15	205.97
408.34	241.08
408.54	149.79
408.73	175.54
408.92	189.58
409.11	159.16
409.30	147.45
409.49	159.16
409.68	154.48
409.87	177.88
410.07	107.66
410.26	222.35
410.45	159.16
410.64	135.75
410.83	191.92
411.02	205.97
411.21	191.92
411.40	201.29
411.59	203.63
411.78	177.88
411.98	229.37
412.17	138.09
412.36	159.16
412.55	180.22
412.74	187.24
412.93	257.46
413.12	212.99
413.31	187.24
413.50	149.79
413.69	177.88
413.88	208.31
414.07	220.01
414.26	173.20
414.45	191.92
414.64	236.39
414.83	212.99
415.02	194.26
415.22	191.92
415.41	255.12
415.60	208.31
415.79	95.96
415.98	231.71
416.17	278.52
416.36	203.63
416.55	152.13
416.74	236.39
416.93	215.33
417.12	220.01
417.31	227.03
417.50	163.84
417.69	292.57
417.88	201.29
418.07	154.48
418.26	243.42
418.45	222.35
418.64	283.20
418.83	269.16
419.02	245.76
419.21	250.44
419.39	194.26
419.58	203.63
419.77	184.90
419.96	245.76
420.15	285.55
420.34	280.86
420.53	243.42
420.72	266.82
420.91	236.39
421.10	163.84
421.29	217.67
421.48	313.63
421.67	243.42
421.86	229.37
422.05	266.82
422.24	208.31
422.43	322.99
422.61	280.86
422.80	238.73
422.99	241.08
423.18	238.73
423.37	308.95
423.56	217.67
423.75	196.60
423.94	196.60
424.13	252.78
424.32	248.10
424.50	290.23
424.69	241.08
424.88	292.57
425.07	227.03
425.26	245.76
425.45	201.29
425.64	250.44
425.83	271.50
426.01	325.33
426.20	292.57
426.39	243.42
426.58	311.29
426.77	348.74
426.96	341.72
427.15	245.76
427.33	262.14
427.52	234.05
427.71	292.57
427.90	238.73
428.09	280.86
428.28	322.99
428.46	227.03
428.65	318.31
428.84	290.23
429.03	325.33
429.22	362.78
429.40	271.50
429.59	262.14
429.78	304.27
429.97	262.14
430.16	243.42
430.34	341.72
430.53	292.57
430.72	337.04
430.91	313.63
431.10	280.86
431.28	341.72
431.47	332.36
431.66	301.93
431.85	271.50
432.03	360.44
432.22	332.36
432.41	409.59
432.60	397.89
432.79	376.83
432.97	348.74
433.16	388.53
433.35	418.96
433.54	484.49
433.72	493.85
433.91	451.72
434.10	503.22
434.28	606.20
434.47	674.07
434.66	868.34
434.85	1015.79
435.03	2869.50
435.22	10239.84
435.41	21458.03
435.59	21898.05
435.78	13865.33
435.97	7045.01
436.16	2771.19
436.34	1004.09
436.53	683.44
436.72	615.56
436.90	456.40
437.09	440.02
437.28	418.96
437.46	379.17
437.65	397.89
437.84	416.62
438.02	369.80
438.21	395.55
438.40	376.83
438.58	337.04
438.77	397.89
438.96	365.12
439.14	315.97
439.33	320.65
439.52	334.70
439.70	306.61
439.89	383.85
440.08	348.74
440.26	332.36
440.45	383.85
440.63	388.53
440.82	360.44
441.01	397.89
441.19	318.31
441.38	435.34
441.57	393.21
441.75	374.49
441.94	447.04
442.12	315.97
442.31	301.93
442.50	414.27
442.68	421.30
442.87	402.57
443.05	355.76
443.24	353.42
443.43	423.64
443.61	341.72
443.80	304.27
443.98	341.72
444.17	416.62
444.35	367.46
444.54	376.83
444.73	308.95
444.91	297.25
445.10	301.93
445.28	315.97
445.47	404.91
445.65	339.38
445.84	327.68
446.02	308.95
446.21	353.42
446.39	297.25
446.58	393.21
446.77	381.51
446.95	437.68
447.14	320.65
447.32	404.91
447.51	294.91
447.69	320.65
447.88	297.25
448.06	355.76
448.25	383.85
448.43	386.19
448.62	322.99
448.80	395.55
448.99	376.83
449.17	374.49
449.36	376.83
449.54	395.55
449.73	369.80
449.91	374.49
450.10	383.85
450.28	475.13
450.46	404.91
450.65	325.33
450.83	400.23
451.02	299.59
451.20	339.38
451.39	341.72
451.57	414.27
451.76	393.21
451.94	327.68
452.13	374.49
452.31	306.61
452.49	400.23
452.68	325.33
452.86	362.78
453.05	397.89
453.23	400.23
453.42	381.51
453.60	444.70
453.78	320.65
453.97	379.17
454.15	334.70
454.34	341.72
454.52	330.02
454.70	344.06
454.89	381.51
455.07	374.49
455.26	315.97
455.44	388.53
455.62	285.55
455.81	390.87
455.99	327.68
456.17	287.89
456.36	351.08
456.54	433.00
456.73	421.30
456.91	327.68
457.09	287.89
457.28	379.17
457.46	362.78
457.64	346.40
457.83	322.99
458.01	266.82
458.19	355.76
458.38	308.95
458.56	337.04
458.74	313.63
458.93	379.17
459.11	311.29
459.29	353.42
459.48	402.57
459.66	395.55
459.84	430.66
460.03	421.30
460.21	339.38
460.39	393.21
460.57	451.72
460.76	374.49
460.94	390.87
461.12	437.68
461.31	297.25
461.49	351.08
461.67	306.61
461.85	322.99
462.04	348.74
462.22	772.38
462.40	315.97
462.59	379.17
462.77	411.93
462.95	330.02
463.13	339.38
463.32	414.27
463.50	341.72
463.68	400.23
463.86	425.98
464.05	411.93
464.23	442.36
464.41	369.80
464.59	315.97
464.78	325.33
464.96	325.33
465.14	325.33
465.32	388.53
465.50	285.55
465.69	381.51
465.87	297.25
466.05	393.21
466.23	299.59
466.41	339.38
466.60	334.70
466.78	301.93
466.96	362.78
467.14	322.99
467.32	315.97
467.51	442.36
467.69	386.19
467.87	444.70
468.05	278.52
468.23	311.29
468.41	330.02
468.60	351.08
468.78	339.38
468.96	355.76
469.14	395.55
469.32	383.85
469.50	346.40
469.69	334.70
469.87	346.40
470.05	315.97
470.23	337.04
470.41	304.27
470.59	280.86
470.77	311.29
470.95	330.02
471.14	330.02
471.32	348.74
471.50	311.29
471.68	325.33
471.86	376.83
472.04	264.48
472.22	308.95
472.40	327.68
472.58	332.36
472.77	334.70
472.95	322.99
473.13	437.68
473.31	273.84
473.49	292.57
473.67	355.76
473.85	367.46
474.03	381.51
474.21	322.99
474.39	395.55
474.57	379.17
474.75	383.85
474.93	393.21
475.12	304.27
475.30	397.89
475.48	301.93
475.66	330.02
475.84	322.99
476.02	351.08
476.20	339.38
476.38	414.27
476.56	414.27
476.74	297.25
476.92	404.91
477.10	332.36
477.28	395.55
477.46	322.99
477.64	416.62
477.82	454.06
478.00	341.72
478.18	318.31
478.36	425.98
478.54	374.49
478.72	409.59
478.90	372.15
479.08	367.46
479.26	479.81
479.44	388.53
479.62	500.87
479.80	472.79
479.98	491.51
480.16	458.74
480.34	505.56
480.52	465.77
480.70	554.71
480.88	552.37
481.06	543.00
481.24	507.90
481.41	571.09
481.59	559.39
481.77	702.16
481.95	688.12
482.13	723.23
482.31	734.93
482.49	791.10
482.67	903.45
482.85	861.32
483.03	947.92
483.21	1022.81
483.39	1050.90
483.57	1123.46
483.74	1315.38
483.92	1196.01
484.10	1275.59
484.28	1315.38
484.46	1533.05
484.64	1549.43
484.82	1547.09
485.00	1640.72
485.18	1788.17
485.35	1799.87
485.53	1912.22
485.71	2143.93
485.89	2106.48
486.07	2101.80
486.25	2260.96
486.43	2331.17
486.61	2221.17
486.78	2209.47
486.96	2136.91
487.14	2221.17
487.32	2270.32
487.50	2073.71
487.68	2139.25
487.85	2150.95
488.03	2162.66
488.21	2015.20
488.39	2003.50
488.57	2024.56
488.75	1818.60
488.92	2162.66
489.10	1849.02
489.28	1907.54
489.46	1757.74
489.64	1816.26
489.81	1715.61
489.99	1694.55
490.17	1636.03
490.35	1820.94
490.53	1717.95
490.70	1661.78
490.88	1727.32
491.06	1778.81
491.24	1994.14
491.41	1984.77
491.59	1743.70
491.77	1664.12
491.95	1612.63
492.13	1551.78
492.30	1593.90
492.48	1434.75
492.66	1472.20
492.84	1570.50
493.01	1526.03
493.19	1425.39
493.37	1451.13
493.54	1336.45
493.72	1320.06
493.90	1411.34
494.08	1313.04
494.25	1301.34
494.43	1252.19
494.61	1350.49
494.79	1254.53
494.96	1284.95
495.14	1245.16
495.32	1156.22
495.49	1172.61
495.67	1102.39
495.85	1198.35
496.02	1174.95
496.20	1083.67
496.38	1221.76
496.55	1125.80
496.73	1062.60
496.91	1090.69
497.09	1062.60
497.26	1020.47
497.44	1046.22
497.62	1069.62
497.79	1036.86
497.97	908.13
498.14	992.39
498.32	1025.15
498.50	966.64
498.67	924.51
498.85	814.51
499.03	788.76
499.20	849.61
499.38	772.38
499.56	758.33
499.73	795.78
499.91	851.96
500.08	819.19
500.26	685.78
500.44	709.18
500.61	767.70
500.79	711.52
500.97	692.80
501.14	704.50
501.32	662.37
501.49	594.50
501.67	617.90
501.84	573.43
502.02	550.03
502.20	643.65
502.37	622.58
502.55	580.45
502.72	561.73
502.90	486.83
503.07	493.85
503.25	603.86
503.43	435.34
503.60	526.62
503.78	528.96
503.95	554.71
504.13	477.47
504.30	505.56
504.48	468.11
504.65	472.79
504.83	465.77
505.01	407.25
505.18	437.68
505.36	367.46
505.53	423.64
505.71	498.53
505.88	475.13
506.06	374.49
506.23	353.42
506.41	402.57
506.58	456.40
506.76	411.93
506.93	411.93
507.11	472.79
507.28	425.98
507.46	416.62
507.63	393.21
507.81	404.91
507.98	404.91
508.16	337.04
508.33	402.57
508.50	428.32
508.68	491.51
508.85	479.81
509.03	355.76
509.20	402.57
509.38	461.09
509.55	411.93
509.73	472.79
509.90	423.64
510.08	437.68
510.25	444.70
510.42	369.80
510.60	383.85
510.77	421.30
510.95	421.30
511.12	395.55
511.30	435.34
511.47	353.42
511.64	360.44
511.82	428.32
511.99	425.98
512.17	304.27
512.34	383.85
512.51	365.12
512.69	365.12
512.86	337.04
513.04	397.89
513.21	397.89
513.38	372.15
513.56	400.23
513.73	313.63
513.90	367.46
514.08	344.06
514.25	428.32
514.43	484.49
514.60	395.55
514.77	278.52
514.95	330.02
515.12	353.42
515.29	322.99
515.47	383.85
515.64	400.23
515.81	315.97
515.99	393.21
516.16	348.74
516.33	355.76
516.51	360.44
516.68	365.12
516.85	376.83
517.03	360.44
517.20	337.04
517.37	435.34
517.54	348.74
517.72	227.03
517.89	210.65
518.06	287.89
518.24	294.91
518.41	311.29
518.58	381.51
518.75	255.12
518.93	245.76
519.10	271.50
519.27	358.10
519.45	367.46
519.62	374.49
519.79	358.10
519.96	292.57
520.14	334.70
520.31	362.78
520.48	334.70
520.65	264.48
520.83	294.91
521.00	353.42
521.17	276.18
521.34	285.55
521.52	337.04
521.69	330.02
521.86	283.20
522.03	355.76
522.20	393.21
522.38	353.42
522.55	320.65
522.72	315.97
522.89	369.80
523.07	414.27
523.24	369.80
523.41	362.78
523.58	294.91
523.75	337.04
523.92	355.76
524.10	369.80
524.27	320.65
524.44	311.29
524.61	322.99
524.78	360.44
524.96	353.42
525.13	327.68
525.30	411.93
525.47	339.38
525.64	271.50
525.81	292.57
525.98	315.97
526.16	276.18
526.33	290.23
526.50	397.89
526.67	278.52
526.84	294.91
527.01	315.97
527.18	351.08
527.36	388.53
527.53	353.42
527.70	395.55
527.87	327.68
528.04	454.06
528.21	365.12
528.38	440.02
528.55	472.79
528.72	444.70
528.89	358.10
529.07	414.27
529.24	425.98
529.41	461.09
529.58	428.32
529.75	393.21
529.92	404.91
530.09	463.43
530.26	458.74
530.43	386.19
530.60	400.23
530.77	433.00
530.94	444.70
531.11	524.28
531.28	526.62
531.46	458.74
531.63	498.53
531.80	493.85
531.97	528.96
532.14	594.50
532.31	678.76
532.48	758.33
532.65	908.13
532.82	983.02
532.99	1149.20
533.16	1324.74
533.33	1366.87
533.50	1291.98
533.67	1090.69
533.84	875.36
534.01	950.26
534.18	821.53
534.35	933.87
534.52	840.25
534.69	889.40
534.86	807.48
535.03	910.47
535.20	896.43
535.37	980.68
535.54	1025.15
535.71	1043.88
535.88	1153.88
536.05	1174.95
536.22	1331.76
536.38	1411.34
536.55	1563.48
536.72	1633.69
536.89	1790.51
537.06	1884.13
537.23	2160.31
537.40	2375.64
537.57	2530.12
537.74	2708.00
537.91	2789.92
538.08	2888.22
538.25	3040.36
538.42	3012.27
538.59	2911.63
538.75	3059.08
538.92	3220.58
539.09	3599.74
539.26	3922.74
539.43	4447.02
539.60	4905.76
539.77	5549.41
539.94	6293.70
540.11	6927.99
540.28	7655.89
540.44	8336.99
540.61	8940.85
540.78	10523.05
540.95	12446.97
541.12	15091.77
541.29	16896.33
541.46	17394.86
541.62	17427.63
541.79	16692.70
541.96	15220.50
542.13	14338.12
542.30	13432.33
542.47	12589.74
542.63	11899.28
542.80	11576.29
542.97	11513.10
543.14	11260.32
543.31	11227.55
543.48	11456.92
543.64	11868.86
543.81	11585.65
543.98	11651.19
544.15	11740.13
544.32	11660.55
544.48	12114.61
544.65	11557.57
544.82	11417.13
544.99	11405.43
545.16	11805.66
545.32	12353.35
545.49	22139.13
545.66	39959.97
545.83	47433.30
546.00	40020.82
546.16	27433.42
546.33	19934.34
546.50	15199.44
546.67	11817.36
546.83	10373.25
547.00	10157.92
547.17	9593.86
547.34	9165.54
547.50	9036.81
547.67	8627.21
547.84	8514.87
548.00	7885.26
548.17	7515.46
548.34	7342.26
548.51	7014.59
548.67	6965.43
548.84	6335.83
549.01	5982.41
549.18	5750.70
549.34	5614.95
549.51	5558.77
549.68	5174.92
549.84	4901.08
550.01	4844.91
550.18	4734.90
550.34	4470.42
550.51	4065.51
550.68	4009.34
550.84	3735.50
551.01	3527.19
551.18	3447.61
551.34	3243.98
551.51	3157.38
551.68	2925.67
551.84	2902.26
552.01	2761.83
552.18	2757.15
552.34	2635.44
552.51	2576.93
552.68	2342.88
552.84	2312.45
553.01	2237.55
553.18	2153.29
553.34	2033.93
553.51	2106.48
553.67	2059.67
553.84	1886.47
554.01	1837.32
554.17	1708.59
554.34	1593.90
554.51	1446.45
554.67	1423.05
554.84	1406.66
555.00	1301.34
555.17	1205.38
555.33	1172.61
555.50	1048.56
555.67	1123.46
555.83	990.05
556.00	1020.47
556.16	1144.52
556.33	1018.13
556.50	931.53
556.66	936.21
556.83	924.51
556.99	840.25
557.16	894.08
557.32	819.19
557.49	727.91
557.65	723.23
557.82	725.57
557.98	690.46
558.15	734.93
558.32	692.80
558.48	716.20
558.65	702.16
558.81	730.25
558.98	655.35
559.14	669.39
559.31	676.41
559.47	615.56
559.64	571.09
559.80	643.65
559.97	559.39
560.13	507.90
560.30	528.96
560.46	582.79
560.63	582.79
560.79	613.22
560.96	641.31
561.12	653.01
561.29	603.86
561.45	543.00
561.61	585.13
561.78	631.94
561.94	575.77
562.11	547.69
562.27	545.34
562.44	500.87
562.60	582.79
562.77	543.00
562.93	545.34
563.10	486.83
563.26	491.51
563.42	575.77
563.59	592.16
563.75	512.58
563.92	505.56
564.08	528.96
564.24	594.50
564.41	559.39
564.57	552.37
564.74	477.47
564.90	540.66
565.07	465.77
565.23	475.13
565.39	442.36
565.56	519.60
565.72	458.74
565.88	472.79
566.05	477.47
566.21	521.94
566.38	510.24
566.54	475.13
566.70	484.49
566.87	482.15
567.03	435.34
567.19	550.03
567.36	477.47
567.52	449.38
567.68	543.00
567.85	550.03
568.01	601.52
568.17	470.45
568.34	472.79
568.50	470.45
568.66	447.04
568.83	491.51
568.99	395.55
569.15	568.75
569.32	418.96
569.48	411.93
569.64	440.02
569.81	449.38
569.97	418.96
570.13	353.42
570.30	435.34
570.46	397.89
570.62	388.53
570.78	362.78
570.95	388.53
571.11	416.62
571.27	430.66
571.43	390.87
571.60	369.80
571.76	447.04
571.92	421.30
572.09	388.53
572.25	346.40
572.41	341.72
572.57	362.78
572.74	454.06
572.90	409.59
573.06	468.11
573.22	332.36
573.38	362.78
573.55	388.53
573.71	437.68
573.87	428.32
574.03	390.87
574.20	458.74
574.36	451.72
574.52	407.25
574.68	447.04
574.84	386.19
575.01	521.94
575.17	465.77
575.33	461.09
575.49	521.94
575.65	634.29
575.82	645.99
575.98	660.03
576.14	765.36
576.30	1472.20
576.46	4606.17
576.62	7756.54
576.79	8088.89
576.95	5898.15
577.11	3906.35
577.27	2705.66
577.43	1902.86
577.59	1231.12
577.75	1111.75
577.92	945.58
578.08	947.92
578.24	961.96
578.40	1652.42
578.56	4269.14
578.72	7112.89
578.88	7683.98
579.04	5511.96
579.21	3922.74
579.37	2928.01
579.53	2429.48
579.69	2186.06
579.85	2750.13
580.01	3183.13
580.17	2967.80
580.33	2586.29
580.49	2204.78
580.65	2001.16
580.82	1732.00
580.98	1860.73
581.14	1748.38
581.30	1851.36
581.46	1968.39
581.62	2157.97
581.78	2305.43
581.94	2466.92
582.10	2513.74
582.26	2712.68
582.42	2796.94
582.58	2876.52
582.74	2862.48
582.90	2906.95
583.06	3098.87
583.22	3119.93
583.38	3016.95
583.54	2928.01
583.70	2953.76
583.86	2944.39
584.02	2864.82
584.18	2864.82
584.34	2677.57
584.50	2822.69
584.66	2656.51
584.82	2656.51
584.98	2626.08
585.14	2572.25
585.30	2525.44
585.46	2565.23
585.62	2551.18
585.78	2623.74
585.94	2487.99
586.10	2689.28
586.26	2815.66
586.42	3157.38
586.58	3768.26
586.74	4416.59
586.90	5371.53
587.06	5738.99
587.22	5633.67
587.38	4938.53
587.54	4332.33
587.70	3658.26
587.86	3222.92
588.02	2747.79
588.18	2478.63
588.34	2244.57
588.49	2001.16
588.65	1959.03
588.81	1874.77
588.97	1816.26
589.13	1689.87
589.29	1680.50
589.45	1685.19
589.61	1652.42
589.77	1762.42
589.93	1685.19
590.08	1767.10
590.24	1788.17
590.40	1907.54
590.56	1905.20
590.72	1940.30
590.88	2050.31
591.04	2218.83
591.20	2076.06
591.35	2218.83
591.51	2244.57
591.67	2450.54
591.83	2466.92
591.99	2750.13
592.15	3005.25
592.31	3316.54
592.46	3538.89
592.62	3857.20
592.78	4077.21
592.94	4180.20
593.10	4014.02
593.26	3805.71
593.41	3648.90
593.57	3232.28
593.73	2895.24
593.89	2525.44
594.05	2267.98
594.20	2040.95
594.36	1963.71
594.52	1739.02
594.68	1729.66
594.84	1605.61
594.99	1675.82
595.15	1481.56
595.31	1591.56
595.47	1540.07
595.62	1530.71
595.78	1565.82
595.94	1537.73
596.10	1551.78
596.25	1526.03
596.41	1434.75
596.57	1600.93
596.73	1565.82
596.88	1511.99
597.04	1425.39
597.20	1558.80
597.36	1542.41
597.51	1596.25
597.67	1654.76
597.83	1743.70
597.99	1804.55
598.14	1898.17
598.30	2059.67
598.46	2122.87
598.61	2235.21
598.77	2368.62
598.93	2396.71
599.09	2396.71
599.24	2612.04
599.40	2527.78
599.56	2356.92
599.71	2331.17
599.87	2230.53
600.03	2143.93
600.18	1853.70
600.34	1811.57
600.50	1675.82
600.65	1521.35
600.81	1614.97
600.97	1425.39
601.12	1329.42
601.28	1385.60
601.44	1348.15
601.59	1174.95
601.75	1186.65
601.91	1118.78
602.06	1156.22
602.22	1123.46
602.37	1093.03
602.53	980.68
602.69	1135.16
602.84	1062.60
603.00	1165.59
603.16	1020.47
603.31	1064.94
603.47	1158.57
603.62	1043.88
603.78	1102.39
603.94	1102.39
604.09	1132.82
604.25	1203.04
604.40	1100.05
604.56	1226.44
604.71	1240.48
604.87	1294.32
605.03	1270.91
605.18	1268.57
605.34	1252.19
605.49	1331.76
605.65	1338.79
605.80	1345.81
605.96	1432.41
606.12	1451.13
