SpectraSuite Data File
++++++++++++++++++++++++++++++++++++
Date: Fri Oct 04 11:41:56 GMT-05:00 2013
User: price-jones
Dark Spectrum Present: No
Reference Spectrum Present: No
Number of Sampled Component Spectra: 1
Spectrometers: USB2+H05261
Integration Time (usec): 100000 (USB2+H05261)
Spectra Averaged: 1 (USB2+H05261)
Boxcar Smoothing: 0 (USB2+H05261)
Correct for Electrical Dark: No (USB2+H05261)
Strobe/Lamp Enabled: No (USB2+H05261)
Correct for Detector Non-linearity: No (USB2+H05261)
Correct for Stray Light: No (USB2+H05261)
Number of Pixels in Processed Spectrum: 2048
>>>>>Begin Processed Spectral Data<<<<<
365.73	84.26
365.92	84.26
366.12	84.26
366.32	0.00
366.52	0.00
366.72	0.00
366.91	0.00
367.11	0.00
367.31	0.00
367.51	0.00
367.70	0.00
367.90	0.00
368.10	0.00
368.30	0.00
368.49	0.00
368.69	0.00
368.89	0.00
369.09	0.00
369.28	0.00
369.48	0.00
369.68	0.00
369.87	4.68
370.07	0.00
370.27	0.00
370.47	37.45
370.66	25.75
370.86	107.66
371.06	140.43
371.25	88.94
371.45	56.17
371.65	110.01
371.84	60.85
372.04	42.13
372.24	117.03
372.44	53.83
372.63	74.90
372.83	241.08
373.03	140.43
373.22	145.11
373.42	131.07
373.62	100.64
373.81	215.33
374.01	72.56
374.21	152.13
374.40	86.60
374.60	135.75
374.79	182.56
374.99	124.05
375.19	114.69
375.38	102.98
375.58	175.54
375.78	128.73
375.97	95.96
376.17	166.18
376.37	177.88
376.56	142.77
376.76	86.60
376.95	128.73
377.15	140.43
377.35	182.56
377.54	138.09
377.74	128.73
377.93	110.01
378.13	145.11
378.33	117.03
378.52	133.41
378.72	147.45
378.91	217.67
379.11	131.07
379.31	177.88
379.50	142.77
379.70	238.73
379.89	154.48
380.09	229.37
380.28	133.41
380.48	131.07
380.68	131.07
380.87	81.92
381.07	74.90
381.26	159.16
381.46	131.07
381.65	142.77
381.85	149.79
382.04	166.18
382.24	114.69
382.43	166.18
382.63	121.71
382.83	128.73
383.02	98.30
383.22	217.67
383.41	112.35
383.61	191.92
383.80	79.58
384.00	203.63
384.19	95.96
384.39	93.62
384.58	170.86
384.78	133.41
384.97	154.48
385.17	112.35
385.36	131.07
385.56	175.54
385.75	84.26
385.95	220.01
386.14	154.48
386.34	84.26
386.53	51.49
386.72	93.62
386.92	74.90
387.11	119.37
387.31	119.37
387.50	121.71
387.70	100.64
387.89	117.03
388.09	166.18
388.28	149.79
388.48	88.94
388.67	152.13
388.86	114.69
389.06	126.39
389.25	201.29
389.45	131.07
389.64	131.07
389.84	161.50
390.03	102.98
390.22	220.01
390.42	156.82
390.61	152.13
390.81	9.36
391.00	74.90
391.19	175.54
391.39	224.69
391.58	154.48
391.78	121.71
391.97	114.69
392.16	107.66
392.36	138.09
392.55	168.52
392.75	93.62
392.94	70.22
393.13	135.75
393.33	124.05
393.52	135.75
393.71	95.96
393.91	117.03
394.10	152.13
394.29	128.73
394.49	49.15
394.68	142.77
394.88	187.24
395.07	117.03
395.26	140.43
395.46	208.31
395.65	93.62
395.84	121.71
396.04	217.67
396.23	191.92
396.42	105.32
396.62	154.48
396.81	238.73
397.00	95.96
397.19	159.16
397.39	105.32
397.58	84.26
397.77	166.18
397.97	191.92
398.16	119.37
398.35	201.29
398.55	147.45
398.74	142.77
398.93	135.75
399.12	159.16
399.32	152.13
399.51	243.42
399.70	220.01
399.90	180.22
400.09	191.92
400.28	236.39
400.47	105.32
400.67	177.88
400.86	161.50
401.05	248.10
401.24	175.54
401.44	203.63
401.63	175.54
401.82	189.58
402.01	189.58
402.21	227.03
402.40	191.92
402.59	250.44
402.78	152.13
402.97	299.59
403.17	262.14
403.36	299.59
403.55	365.12
403.74	641.31
403.93	2209.47
404.13	5820.91
404.32	9926.21
404.51	10876.47
404.70	7110.55
404.89	2520.76
405.09	664.71
405.28	407.25
405.47	276.18
405.66	222.35
405.85	325.33
406.05	180.22
406.24	163.84
406.43	229.37
406.62	241.08
406.81	358.10
407.00	447.04
407.20	683.44
407.39	1196.01
407.58	1537.73
407.77	1235.80
407.96	617.90
408.15	294.91
408.34	231.71
408.54	191.92
408.73	245.76
408.92	145.11
409.11	231.71
409.30	220.01
409.49	205.97
409.68	227.03
409.87	205.97
410.07	196.60
410.26	187.24
410.45	271.50
410.64	173.20
410.83	325.33
411.02	292.57
411.21	259.80
411.40	191.92
411.59	304.27
411.78	229.37
411.98	184.90
412.17	278.52
412.36	203.63
412.55	236.39
412.74	250.44
412.93	283.20
413.12	292.57
413.31	259.80
413.50	248.10
413.69	252.78
413.88	278.52
414.07	320.65
414.26	292.57
414.45	191.92
414.64	236.39
414.83	217.67
415.02	266.82
415.22	276.18
415.41	325.33
415.60	255.12
415.79	245.76
415.98	449.38
416.17	299.59
416.36	294.91
416.55	313.63
416.74	337.04
416.93	365.12
417.12	327.68
417.31	210.65
417.50	308.95
417.69	332.36
417.88	322.99
418.07	320.65
418.26	372.15
418.45	318.31
418.64	311.29
418.83	297.25
419.02	344.06
419.21	325.33
419.39	301.93
419.58	278.52
419.77	273.84
419.96	330.02
420.15	299.59
420.34	299.59
420.53	322.99
420.72	308.95
420.91	320.65
421.10	313.63
421.29	332.36
421.48	358.10
421.67	425.98
421.86	334.70
422.05	318.31
422.24	383.85
422.43	447.04
422.61	344.06
422.80	407.25
422.99	334.70
423.18	311.29
423.37	393.21
423.56	306.61
423.75	437.68
423.94	388.53
424.13	414.27
424.32	421.30
424.50	386.19
424.69	414.27
424.88	379.17
425.07	381.51
425.26	416.62
425.45	362.78
425.64	337.04
425.83	379.17
426.01	400.23
426.20	388.53
426.39	404.91
426.58	379.17
426.77	447.04
426.96	433.00
427.15	486.83
427.33	430.66
427.52	362.78
427.71	465.77
427.90	489.17
428.09	435.34
428.28	425.98
428.46	454.06
428.65	498.53
428.84	550.03
429.03	458.74
429.22	456.40
429.40	512.58
429.59	456.40
429.78	514.92
429.97	418.96
430.16	486.83
430.34	498.53
430.53	517.26
430.72	500.87
430.91	559.39
431.10	486.83
431.28	521.94
431.47	528.96
431.66	531.30
431.85	475.13
432.03	519.60
432.22	561.73
432.41	496.19
432.60	540.66
432.79	594.50
432.97	627.26
433.16	664.71
433.35	716.20
433.54	720.88
433.72	842.59
433.91	891.74
434.10	798.12
434.28	1064.94
434.47	1235.80
434.66	1540.07
434.85	1795.19
435.03	3815.07
435.22	14066.62
435.41	36013.82
435.59	50452.59
435.78	41200.45
435.97	17921.48
436.16	6506.69
436.34	2244.57
436.53	1207.72
436.72	945.58
436.90	779.40
437.09	753.65
437.28	774.72
437.46	727.91
437.65	631.94
437.84	631.94
438.02	596.84
438.21	711.52
438.40	690.46
438.58	657.69
438.77	568.75
438.96	617.90
439.14	648.33
439.33	638.97
439.52	617.90
439.70	599.18
439.89	627.26
440.08	603.86
440.26	559.39
440.45	610.88
440.63	643.65
440.82	592.16
441.01	622.58
441.19	617.90
441.38	575.77
441.57	550.03
441.75	653.01
441.94	601.52
442.12	671.73
442.31	718.54
442.50	578.11
442.68	582.79
442.87	678.76
443.05	601.52
443.24	655.35
443.43	613.22
443.61	648.33
443.80	624.92
443.98	547.69
444.17	603.86
444.35	653.01
444.54	606.20
444.73	608.54
444.91	657.69
445.10	641.31
445.28	596.84
445.47	585.13
445.65	596.84
445.84	613.22
446.02	559.39
446.21	526.62
446.39	540.66
446.58	613.22
446.77	627.26
446.95	547.69
447.14	545.34
447.32	606.20
447.51	561.73
447.69	578.11
447.88	643.65
448.06	592.16
448.25	535.98
448.43	594.50
448.62	627.26
448.80	657.69
448.99	571.09
449.17	559.39
449.36	629.60
449.54	575.77
449.73	596.84
449.91	580.45
450.10	585.13
450.28	662.37
450.46	624.92
450.65	664.71
450.83	627.26
451.02	554.71
451.20	545.34
451.39	690.46
451.57	599.18
451.76	589.82
451.94	528.96
452.13	631.94
452.31	622.58
452.49	617.90
452.68	533.64
452.86	533.64
453.05	690.46
453.23	713.86
453.42	608.54
453.60	599.18
453.78	608.54
453.97	617.90
454.15	521.94
454.34	575.77
454.52	582.79
454.70	545.34
454.89	582.79
455.07	594.50
455.26	610.88
455.44	573.43
455.62	594.50
455.81	613.22
455.99	524.28
456.17	587.47
456.36	578.11
456.54	638.97
456.73	587.47
456.91	610.88
457.09	505.56
457.28	608.54
457.46	615.56
457.64	571.09
457.83	557.05
458.01	566.41
458.19	641.31
458.38	594.50
458.56	575.77
458.74	655.35
458.93	531.30
459.11	559.39
459.29	545.34
459.48	655.35
459.66	674.07
459.84	599.18
460.03	594.50
460.21	575.77
460.39	531.30
460.57	592.16
460.76	571.09
460.94	545.34
461.12	554.71
461.31	603.86
461.49	550.03
461.67	552.37
461.85	610.88
462.04	620.24
462.22	950.26
462.40	589.82
462.59	660.03
462.77	657.69
462.95	610.88
463.13	540.66
463.32	528.96
463.50	615.56
463.68	566.41
463.86	585.13
464.05	617.90
464.23	627.26
464.41	507.90
464.59	573.43
464.78	667.05
464.96	561.73
465.14	645.99
465.32	568.75
465.50	540.66
465.69	533.64
465.87	514.92
466.05	538.32
466.23	622.58
466.41	566.41
466.60	643.65
466.78	641.31
466.96	674.07
467.14	566.41
467.32	601.52
467.51	669.39
467.69	587.47
467.87	643.65
468.05	566.41
468.23	552.37
468.41	568.75
468.60	564.07
468.78	559.39
468.96	512.58
469.14	528.96
469.32	489.17
469.50	573.43
469.69	638.97
469.87	629.60
470.05	554.71
470.23	547.69
470.41	489.17
470.59	521.94
470.77	568.75
470.95	528.96
471.14	545.34
471.32	566.41
471.50	533.64
471.68	573.43
471.86	568.75
472.04	580.45
472.22	514.92
472.40	550.03
472.58	500.87
472.77	545.34
472.95	510.24
473.13	526.62
473.31	585.13
473.49	568.75
473.67	512.58
473.85	622.58
474.03	557.05
474.21	547.69
474.39	578.11
474.57	629.60
474.75	521.94
474.93	547.69
475.12	512.58
475.30	566.41
475.48	554.71
475.66	475.13
475.84	491.51
476.02	479.81
476.20	543.00
476.38	547.69
476.56	528.96
476.74	571.09
476.92	627.26
477.10	496.19
477.28	521.94
477.46	603.86
477.64	624.92
477.82	587.47
478.00	631.94
478.18	568.75
478.36	657.69
478.54	650.67
478.72	657.69
478.90	713.86
479.08	727.91
479.26	744.29
479.44	725.57
479.62	751.31
479.80	648.33
479.98	847.27
480.16	875.36
480.34	926.85
480.52	901.11
480.70	856.64
480.88	957.28
481.06	910.47
481.24	1062.60
481.41	1022.81
481.59	1149.20
481.77	1231.12
481.95	1315.38
482.13	1284.95
482.31	1345.81
482.49	1511.99
482.67	1678.16
482.85	1935.62
483.03	1937.96
483.21	1891.15
483.39	2181.38
483.57	2293.72
483.74	2445.86
483.92	2509.05
484.10	2614.38
484.28	2782.90
484.46	3145.68
484.64	3206.53
484.82	3300.16
485.00	3410.16
485.18	3754.22
485.35	3861.88
485.53	3974.23
485.71	4283.18
485.89	4456.38
486.07	4526.60
486.25	4643.62
486.43	4645.96
486.61	4528.94
486.78	4627.24
486.96	4561.70
487.14	4564.04
487.32	4470.42
487.50	4442.34
487.68	4645.96
487.85	4545.32
488.03	4397.87
488.21	4379.14
488.39	4329.99
488.57	4198.92
488.75	4152.11
488.92	4271.48
489.10	3918.06
489.28	3824.44
489.46	3576.34
489.64	3679.32
489.81	3550.59
489.99	3557.61
490.17	3466.33
490.35	3492.08
490.53	3351.65
490.70	3353.99
490.88	3419.52
491.06	3716.77
491.24	3833.80
491.41	4128.70
491.59	3840.82
491.77	3410.16
491.95	3328.24
492.13	3208.87
492.30	3199.51
492.48	3030.99
492.66	3073.12
492.84	2890.56
493.01	2986.52
493.19	2960.78
493.37	3000.57
493.54	2818.00
493.72	2820.35
493.90	2630.76
494.08	2759.49
494.25	2682.25
494.43	2572.25
494.61	2780.56
494.79	2581.61
494.96	2558.21
495.14	2506.71
495.32	2342.88
495.49	2403.73
495.67	2394.37
495.85	2375.64
496.02	2230.53
496.20	2331.17
496.38	2267.98
496.55	2211.81
496.73	2092.44
496.91	2050.31
497.09	2078.40
497.26	2031.58
497.44	2015.20
497.62	2010.52
497.79	1849.02
497.97	2005.84
498.14	1930.94
498.32	1856.04
498.50	1788.17
498.67	1736.68
498.85	1762.42
499.03	1682.85
499.20	1610.29
499.38	1404.32
499.56	1589.22
499.73	1703.91
499.91	1544.75
500.08	1434.75
500.26	1446.45
500.44	1294.32
500.61	1362.19
500.79	1266.23
500.97	1296.66
501.14	1277.93
501.32	1224.10
501.49	1170.27
501.67	1210.06
501.84	1093.03
502.02	1086.01
502.20	1008.77
502.37	1013.45
502.55	1022.81
502.72	1006.43
502.90	887.06
503.07	905.79
503.25	896.43
503.43	908.13
503.60	751.31
503.78	805.14
503.95	830.89
504.13	734.93
504.30	833.23
504.48	788.76
504.65	774.72
504.83	739.61
505.01	753.65
505.18	706.84
505.36	711.52
505.53	685.78
505.71	709.18
505.88	793.44
506.06	620.24
506.23	671.73
506.41	655.35
506.58	629.60
506.76	671.73
506.93	571.09
507.11	638.97
507.28	547.69
507.46	608.54
507.63	624.92
507.81	589.82
507.98	587.47
508.16	641.31
508.33	589.82
508.50	638.97
508.68	657.69
508.85	578.11
509.03	688.12
509.20	711.52
509.38	645.99
509.55	573.43
509.73	599.18
509.90	550.03
510.08	559.39
510.25	559.39
510.42	475.13
510.60	566.41
510.77	514.92
510.95	601.52
511.12	582.79
511.30	538.32
511.47	526.62
511.64	547.69
511.82	594.50
511.99	533.64
512.17	507.90
512.34	587.47
512.51	505.56
512.69	538.32
512.86	545.34
513.04	521.94
513.21	561.73
513.38	433.00
513.56	550.03
513.73	505.56
513.90	463.43
514.08	500.87
514.25	468.11
514.43	493.85
514.60	411.93
514.77	475.13
514.95	514.92
515.12	512.58
515.29	383.85
515.47	447.04
515.64	456.40
515.81	496.19
515.99	454.06
516.16	517.26
516.33	545.34
516.51	517.26
516.68	489.17
516.85	425.98
517.03	479.81
517.20	428.32
517.37	425.98
517.54	463.43
517.72	407.25
517.89	386.19
518.06	355.76
518.24	507.90
518.41	437.68
518.58	402.57
518.75	428.32
518.93	395.55
519.10	430.66
519.27	383.85
519.45	365.12
519.62	409.59
519.79	425.98
519.96	423.64
520.14	358.10
520.31	444.70
520.48	472.79
520.65	376.83
520.83	475.13
521.00	465.77
521.17	444.70
521.34	470.45
521.52	437.68
521.69	489.17
521.86	479.81
522.03	423.64
522.20	470.45
522.38	374.49
522.55	507.90
522.72	390.87
522.89	496.19
523.07	454.06
523.24	447.04
523.41	437.68
523.58	421.30
523.75	337.04
523.92	322.99
524.10	428.32
524.27	496.19
524.44	475.13
524.61	554.71
524.78	386.19
524.96	512.58
525.13	423.64
525.30	517.26
525.47	470.45
525.64	505.56
525.81	463.43
525.98	482.15
526.16	437.68
526.33	458.74
526.50	489.17
526.67	421.30
526.84	517.26
527.01	561.73
527.18	535.98
527.36	557.05
527.53	531.30
527.70	631.94
527.87	629.60
528.04	531.30
528.21	510.24
528.38	540.66
528.55	631.94
528.72	606.20
528.89	578.11
529.07	587.47
529.24	491.51
529.41	650.67
529.58	575.77
529.75	585.13
529.92	631.94
530.09	622.58
530.26	631.94
530.43	603.86
530.60	645.99
530.77	702.16
530.94	676.41
531.11	744.29
531.28	753.65
531.46	793.44
531.63	800.46
531.80	908.13
531.97	933.87
532.14	1053.24
532.31	1160.91
532.48	1423.05
532.65	1694.55
532.82	1870.09
532.99	2139.25
533.16	2492.67
533.33	2939.71
533.50	2679.91
533.67	2232.87
533.84	1895.83
534.01	1717.95
534.18	1551.78
534.35	1462.83
534.52	1549.43
534.69	1610.29
534.86	1654.76
535.03	1629.01
535.20	1748.38
535.37	1809.23
535.54	2024.56
535.71	2169.68
535.88	2197.76
536.05	2375.64
536.22	2553.52
536.38	2778.22
536.55	3089.51
536.72	3377.39
536.89	3749.54
537.06	4196.58
537.23	4638.94
537.40	5111.73
537.57	5472.17
537.74	5788.14
537.91	5947.30
538.08	6160.29
538.25	6237.53
538.42	6480.94
538.59	6579.25
538.75	6745.42
538.92	7005.22
539.09	7597.38
539.26	8423.59
539.43	9525.98
539.60	10745.40
539.77	12243.34
539.94	13790.44
540.11	15281.36
540.28	16912.71
540.44	18597.90
540.61	20428.20
540.78	23426.42
540.95	27388.95
541.12	33811.38
541.29	38817.78
541.46	41383.01
541.62	40727.66
541.79	38487.77
541.96	36226.81
542.13	33816.06
542.30	31377.22
542.47	29436.92
542.63	27686.20
542.80	26972.33
542.97	26506.57
543.14	26267.83
543.31	26396.56
543.48	26696.15
543.64	26768.71
543.81	26969.99
543.98	26632.96
544.15	27489.59
544.32	28158.99
544.48	27662.79
544.65	27241.50
544.82	26995.74
544.99	26824.88
545.16	27538.74
545.32	28432.83
545.49	40399.99
545.66	60430.29
545.83	65535.00
546.00	65535.00
546.16	63472.99
546.33	46848.16
546.50	36397.67
546.67	28147.28
546.83	25085.86
547.00	23845.38
547.17	23019.17
547.34	21876.99
547.50	20807.36
547.67	20149.67
547.84	19419.42
548.00	18970.04
548.17	17722.54
548.34	16793.34
548.51	16514.82
548.67	15709.68
548.84	14616.65
549.01	14377.91
549.18	13404.25
549.34	12671.66
549.51	12423.56
549.68	11875.88
549.84	11360.96
550.01	10775.83
550.18	10504.32
550.34	9963.66
550.51	9287.25
550.68	8791.05
550.84	8379.12
551.01	8063.15
551.18	7875.90
551.34	7566.95
551.51	7019.27
551.68	6782.87
551.84	6523.07
552.01	6183.70
552.18	6071.35
552.34	5820.91
552.51	5540.05
552.68	5174.92
552.84	4985.34
553.01	4830.87
553.18	4557.02
553.34	4662.35
553.51	4489.15
553.67	4393.19
553.84	4203.60
554.01	3857.20
554.17	3747.20
554.34	3372.71
554.51	3255.69
554.67	3019.29
554.84	2834.39
555.00	2642.46
555.17	2513.74
555.33	2436.50
555.50	2326.49
555.67	2307.77
555.83	2097.12
556.00	2099.46
556.16	2214.15
556.33	1905.20
556.50	1753.06
556.66	1776.47
556.83	1666.46
556.99	1694.55
557.16	1626.67
557.32	1664.12
557.49	1451.13
557.65	1446.45
557.82	1537.73
557.98	1406.66
558.15	1355.17
558.32	1401.98
558.48	1394.96
558.65	1308.36
558.81	1303.68
558.98	1198.35
559.14	1174.95
559.31	1184.31
559.47	1121.12
559.64	1118.78
559.80	1160.91
559.97	1011.11
560.13	1083.67
560.30	1015.79
560.46	1027.50
560.63	1006.43
560.79	1090.69
560.96	1069.62
561.12	973.66
561.29	1078.99
561.45	997.07
561.61	971.32
561.78	1151.54
561.94	1071.97
562.11	1107.07
562.27	1111.75
562.44	983.02
562.60	1018.13
562.77	940.90
562.93	1015.79
563.10	1004.09
563.26	901.11
563.42	1034.52
563.59	1018.13
563.75	1001.75
563.92	917.49
564.08	978.34
564.24	968.98
564.41	912.81
564.57	767.70
564.74	931.53
564.90	821.53
565.07	866.00
565.23	837.91
565.39	837.91
565.56	739.61
565.72	741.95
565.88	753.65
566.05	734.93
566.21	770.04
566.38	863.66
566.54	727.91
566.70	844.93
566.87	866.00
567.03	833.23
567.19	814.51
567.36	807.48
567.52	720.88
567.68	753.65
567.85	786.42
568.01	840.25
568.17	720.88
568.34	896.43
568.50	828.55
568.66	898.77
568.83	830.89
568.99	851.96
569.15	821.53
569.32	737.27
569.48	660.03
569.64	746.63
569.81	653.01
569.97	638.97
570.13	587.47
570.30	676.41
570.46	554.71
570.62	596.84
570.78	648.33
570.95	638.97
571.11	615.56
571.27	678.76
571.43	550.03
571.60	603.86
571.76	547.69
571.92	575.77
572.09	568.75
572.25	610.88
572.41	589.82
572.57	571.09
572.74	634.29
572.90	564.07
573.06	622.58
573.22	620.24
573.38	617.90
573.55	678.76
573.71	688.12
573.87	678.76
574.03	631.94
574.20	695.14
574.36	723.23
574.52	753.65
574.68	767.70
574.84	802.80
575.01	777.06
575.17	868.34
575.33	959.62
575.49	999.41
575.65	1109.41
575.82	1165.59
575.98	1266.23
576.14	1345.81
576.30	2424.80
576.46	7309.49
576.62	15382.00
576.79	23810.27
576.95	16262.04
577.11	9448.74
577.27	6387.32
577.43	4095.94
577.59	2757.15
577.75	2059.67
577.92	1884.13
578.08	1961.37
578.24	1921.58
578.40	2808.64
578.56	7054.37
578.72	14614.30
578.88	22515.95
579.04	15445.20
579.21	9191.28
579.37	6532.44
579.53	5055.56
579.69	4500.85
579.85	5664.10
580.01	6953.73
580.17	7138.63
580.33	6188.38
580.49	4973.64
580.65	4411.91
580.82	4077.21
580.98	3712.09
581.14	3882.95
581.30	4231.69
581.46	4362.76
581.62	4882.36
581.78	5165.56
581.94	5668.78
582.10	5863.04
582.26	6307.74
582.42	6321.79
582.58	6621.38
582.74	6761.81
582.90	7012.24
583.06	6899.90
583.22	6979.48
583.38	6904.58
583.54	6843.73
583.70	6822.66
583.86	6604.99
584.02	6450.52
584.18	6417.75
584.34	6331.15
584.50	6293.70
584.66	6085.39
584.82	6141.57
584.98	6197.74
585.14	6057.31
585.30	5968.37
585.46	5746.02
585.62	5453.45
585.78	5516.64
585.94	5605.58
586.10	5795.17
586.26	6005.81
586.42	6752.45
586.58	7955.48
586.74	9696.84
586.90	11831.41
587.06	13703.84
587.22	13720.22
587.38	12428.24
587.54	10595.61
587.70	9001.70
587.86	7503.76
588.02	6361.58
588.18	5659.42
588.34	5008.75
588.49	4442.34
588.65	4374.46
588.81	4067.85
588.97	3857.20
589.13	3810.39
589.29	3808.05
589.45	3686.34
589.61	3749.54
589.77	3728.47
589.93	3843.16
590.08	3990.61
590.24	3985.93
590.40	4227.01
590.56	4329.99
590.72	4315.95
590.88	4400.21
591.04	4545.32
591.20	4961.94
591.35	5029.81
591.51	5205.35
591.67	5434.72
591.83	5626.65
591.99	6078.37
592.15	6670.53
592.31	7421.84
592.46	8016.33
592.62	8823.82
592.78	9202.99
592.94	9593.86
593.10	9689.82
593.26	9446.40
593.41	8674.03
593.57	7606.74
593.73	6965.43
593.89	5849.00
594.05	5359.83
594.20	4643.62
594.36	4217.65
594.52	4109.98
594.68	3665.28
594.84	3707.41
594.99	3538.89
595.15	3365.69
595.31	3461.65
595.47	3379.73
595.62	3314.20
595.78	3386.76
595.94	3463.99
596.10	3428.88
596.25	3365.69
596.41	3304.84
596.57	3389.10
596.73	3339.94
596.88	3386.76
597.04	3241.64
597.20	3236.96
597.36	3389.10
597.51	3510.80
597.67	3637.19
597.83	4018.70
597.99	4117.00
598.14	4124.02
598.30	4566.39
598.46	4737.24
598.61	4945.55
598.77	5287.27
598.93	5502.60
599.09	5748.36
599.24	5907.51
599.40	5888.79
599.56	5757.72
599.71	5294.29
599.87	5263.86
600.03	4880.02
600.18	4290.20
600.34	4236.37
600.50	3838.48
600.65	3520.17
600.81	3569.32
600.97	3215.90
601.12	3122.27
601.28	2967.80
601.44	2787.58
601.59	2691.62
601.75	2422.45
601.91	2392.03
602.06	2275.00
602.22	2321.81
602.37	2267.98
602.53	2125.21
602.69	2132.23
602.84	2141.59
603.00	2181.38
603.16	2223.51
603.31	2202.44
603.47	2284.36
603.62	2340.54
603.78	2363.94
603.94	2506.71
604.09	2499.69
604.25	2499.69
604.40	2401.39
