SpectraSuite Data File
++++++++++++++++++++++++++++++++++++
Date: Fri Oct 04 11:41:57 GMT-05:00 2013
User: price-jones
Dark Spectrum Present: No
Reference Spectrum Present: No
Number of Sampled Component Spectra: 1
Spectrometers: USB2+H05261
Integration Time (usec): 100000 (USB2+H05261)
Spectra Averaged: 1 (USB2+H05261)
Boxcar Smoothing: 0 (USB2+H05261)
Correct for Electrical Dark: No (USB2+H05261)
Strobe/Lamp Enabled: No (USB2+H05261)
Correct for Detector Non-linearity: No (USB2+H05261)
Correct for Stray Light: No (USB2+H05261)
Number of Pixels in Processed Spectrum: 2048
>>>>>Begin Processed Spectral Data<<<<<
365.73	21.06
365.92	21.06
366.12	21.06
366.32	0.00
366.52	0.00
366.72	21.06
366.91	0.00
367.11	0.00
367.31	0.00
367.51	0.00
367.70	0.00
367.90	0.00
368.10	0.00
368.30	0.00
368.49	0.00
368.69	0.00
368.89	0.00
369.09	2.34
369.28	9.36
369.48	0.00
369.68	0.00
369.87	0.00
370.07	0.00
370.27	0.00
370.47	18.72
370.66	32.77
370.86	56.17
371.06	2.34
371.25	156.82
371.45	28.09
371.65	51.49
371.84	42.13
372.04	30.43
372.24	51.49
372.44	95.96
372.63	49.15
372.83	163.84
373.03	117.03
373.22	56.17
373.42	72.56
373.62	65.54
373.81	182.56
374.01	170.86
374.21	210.65
374.40	100.64
374.60	126.39
374.79	140.43
374.99	100.64
375.19	138.09
375.38	93.62
375.58	81.92
375.78	135.75
375.97	161.50
376.17	210.65
376.37	102.98
376.56	81.92
376.76	91.28
376.95	105.32
377.15	133.41
377.35	70.22
377.54	23.41
377.74	58.51
377.93	4.68
378.13	65.54
378.33	114.69
378.52	18.72
378.72	84.26
378.91	67.88
379.11	88.94
379.31	112.35
379.50	102.98
379.70	98.30
379.89	119.37
380.09	65.54
380.28	117.03
380.48	77.24
380.68	30.43
380.87	72.56
381.07	149.79
381.26	100.64
381.46	142.77
381.65	102.98
381.85	91.28
382.04	140.43
382.24	170.86
382.43	84.26
382.63	102.98
382.83	100.64
383.02	142.77
383.22	175.54
383.41	91.28
383.61	25.75
383.80	93.62
384.00	72.56
384.19	56.17
384.39	102.98
384.58	128.73
384.78	100.64
384.97	95.96
385.17	124.05
385.36	60.85
385.56	133.41
385.75	112.35
385.95	117.03
386.14	110.01
386.34	110.01
386.53	91.28
386.72	156.82
386.92	121.71
387.11	107.66
387.31	81.92
387.50	65.54
387.70	126.39
387.89	79.58
388.09	133.41
388.28	140.43
388.48	79.58
388.67	189.58
388.86	145.11
389.06	119.37
389.25	65.54
389.45	126.39
389.64	74.90
389.84	170.86
390.03	145.11
390.22	98.30
390.42	86.60
390.61	98.30
390.81	42.13
391.00	105.32
391.19	138.09
391.39	149.79
391.58	187.24
391.78	175.54
391.97	142.77
392.16	95.96
392.36	173.20
392.55	133.41
392.75	152.13
392.94	105.32
393.13	91.28
393.33	95.96
393.52	51.49
393.71	196.60
393.91	102.98
394.10	95.96
394.29	84.26
394.49	84.26
394.68	110.01
394.88	126.39
395.07	159.16
395.26	163.84
395.46	128.73
395.65	131.07
395.84	63.19
396.04	152.13
396.23	72.56
396.42	28.09
396.62	147.45
396.81	140.43
397.00	156.82
397.19	79.58
397.39	72.56
397.58	177.88
397.77	114.69
397.97	145.11
398.16	121.71
398.35	180.22
398.55	149.79
398.74	152.13
398.93	142.77
399.12	110.01
399.32	154.48
399.51	140.43
399.70	126.39
399.90	201.29
400.09	98.30
400.28	168.52
400.47	124.05
400.67	154.48
400.86	117.03
401.05	142.77
401.24	112.35
401.44	142.77
401.63	201.29
401.82	131.07
402.01	93.62
402.21	147.45
402.40	145.11
402.59	53.83
402.78	91.28
402.97	86.60
403.17	140.43
403.36	133.41
403.55	133.41
403.74	154.48
403.93	212.99
404.13	262.14
404.32	269.16
404.51	210.65
404.70	276.18
404.89	156.82
405.09	98.30
405.28	110.01
405.47	86.60
405.66	100.64
405.85	156.82
406.05	79.58
406.24	147.45
406.43	117.03
406.62	84.26
406.81	117.03
407.00	112.35
407.20	131.07
407.39	140.43
407.58	149.79
407.77	163.84
407.96	74.90
408.15	117.03
408.34	100.64
408.54	147.45
408.73	77.24
408.92	88.94
409.11	102.98
409.30	205.97
409.49	77.24
409.68	117.03
409.87	189.58
410.07	149.79
410.26	166.18
410.45	184.90
410.64	126.39
410.83	119.37
411.02	126.39
411.21	201.29
411.40	187.24
411.59	126.39
411.78	156.82
411.98	100.64
412.17	114.69
412.36	102.98
412.55	159.16
412.74	133.41
412.93	131.07
413.12	105.32
413.31	196.60
413.50	166.18
413.69	175.54
413.88	166.18
414.07	126.39
414.26	112.35
414.45	187.24
414.64	70.22
414.83	138.09
415.02	133.41
415.22	194.26
415.41	145.11
415.60	67.88
415.79	145.11
415.98	205.97
416.17	138.09
416.36	88.94
416.55	182.56
416.74	166.18
416.93	140.43
417.12	163.84
417.31	194.26
417.50	135.75
417.69	196.60
417.88	145.11
418.07	102.98
418.26	168.52
418.45	145.11
418.64	217.67
418.83	194.26
419.02	149.79
419.21	110.01
419.39	196.60
419.58	126.39
419.77	102.98
419.96	156.82
420.15	191.92
420.34	119.37
420.53	182.56
420.72	177.88
420.91	149.79
421.10	152.13
421.29	126.39
421.48	126.39
421.67	124.05
421.86	133.41
422.05	126.39
422.24	107.66
422.43	138.09
422.61	112.35
422.80	196.60
422.99	170.86
423.18	159.16
423.37	152.13
423.56	140.43
423.75	175.54
423.94	166.18
424.13	168.52
424.32	142.77
424.50	156.82
424.69	227.03
424.88	245.76
425.07	145.11
425.26	138.09
425.45	180.22
425.64	145.11
425.83	117.03
426.01	194.26
426.20	170.86
426.39	102.98
426.58	173.20
426.77	114.69
426.96	198.95
427.15	201.29
427.33	161.50
427.52	184.90
427.71	110.01
427.90	138.09
428.09	117.03
428.28	114.69
428.46	161.50
428.65	142.77
428.84	198.95
429.03	142.77
429.22	133.41
429.40	133.41
429.59	119.37
429.78	152.13
429.97	128.73
430.16	142.77
430.34	121.71
430.53	135.75
430.72	163.84
430.91	119.37
431.10	131.07
431.28	100.64
431.47	93.62
431.66	177.88
431.85	173.20
432.03	95.96
432.22	182.56
432.41	107.66
432.60	140.43
432.79	142.77
432.97	189.58
433.16	166.18
433.35	180.22
433.54	177.88
433.72	266.82
433.91	156.82
434.10	180.22
434.28	131.07
434.47	145.11
434.66	182.56
434.85	145.11
435.03	278.52
435.22	648.33
435.41	990.05
435.59	1027.50
435.78	774.72
435.97	423.64
436.16	255.12
436.34	170.86
436.53	187.24
436.72	119.37
436.90	170.86
437.09	142.77
437.28	196.60
437.46	91.28
437.65	159.16
437.84	152.13
438.02	93.62
438.21	191.92
438.40	124.05
438.58	128.73
438.77	189.58
438.96	145.11
439.14	124.05
439.33	159.16
439.52	133.41
439.70	95.96
439.89	245.76
440.08	159.16
440.26	184.90
440.45	163.84
440.63	210.65
440.82	266.82
441.01	168.52
441.19	154.48
441.38	145.11
441.57	159.16
441.75	159.16
441.94	196.60
442.12	147.45
442.31	159.16
442.50	93.62
442.68	163.84
442.87	205.97
443.05	135.75
443.24	168.52
443.43	168.52
443.61	262.14
443.80	205.97
443.98	166.18
444.17	145.11
444.35	227.03
444.54	189.58
444.73	159.16
444.91	201.29
445.10	152.13
445.28	262.14
445.47	142.77
445.65	208.31
445.84	210.65
446.02	182.56
446.21	149.79
446.39	142.77
446.58	210.65
446.77	196.60
446.95	145.11
447.14	191.92
447.32	161.50
447.51	177.88
447.69	170.86
447.88	198.95
448.06	238.73
448.25	166.18
448.43	159.16
448.62	133.41
448.80	133.41
448.99	163.84
449.17	154.48
449.36	152.13
449.54	119.37
449.73	189.58
449.91	273.84
450.10	102.98
450.28	231.71
450.46	215.33
450.65	231.71
450.83	203.63
451.02	191.92
451.20	166.18
451.39	154.48
451.57	152.13
451.76	77.24
451.94	180.22
452.13	201.29
452.31	243.42
452.49	236.39
452.68	175.54
452.86	163.84
453.05	177.88
453.23	201.29
453.42	159.16
453.60	161.50
453.78	238.73
453.97	159.16
454.15	175.54
454.34	133.41
454.52	189.58
454.70	152.13
454.89	140.43
455.07	145.11
455.26	217.67
455.44	187.24
455.62	194.26
455.81	236.39
455.99	145.11
456.17	147.45
456.36	170.86
456.54	191.92
456.73	252.78
456.91	184.90
457.09	170.86
457.28	133.41
457.46	189.58
457.64	215.33
457.83	163.84
458.01	126.39
458.19	201.29
458.38	184.90
458.56	238.73
458.74	154.48
458.93	166.18
459.11	212.99
459.29	161.50
459.48	156.82
459.66	203.63
459.84	212.99
460.03	135.75
460.21	168.52
460.39	184.90
460.57	227.03
460.76	128.73
460.94	187.24
461.12	205.97
461.31	257.46
461.49	163.84
461.67	173.20
461.85	145.11
462.04	156.82
462.22	688.12
462.40	198.95
462.59	229.37
462.77	163.84
462.95	198.95
463.13	196.60
463.32	201.29
463.50	208.31
463.68	194.26
463.86	224.69
464.05	208.31
464.23	147.45
464.41	177.88
464.59	236.39
464.78	175.54
464.96	166.18
465.14	170.86
465.32	46.81
465.50	182.56
465.69	215.33
465.87	217.67
466.05	112.35
466.23	138.09
466.41	215.33
466.60	147.45
466.78	182.56
466.96	238.73
467.14	248.10
467.32	203.63
467.51	236.39
467.69	198.95
467.87	196.60
468.05	182.56
468.23	241.08
468.41	215.33
468.60	117.03
468.78	161.50
468.96	182.56
469.14	154.48
469.32	154.48
469.50	189.58
469.69	166.18
469.87	196.60
470.05	175.54
470.23	63.19
470.41	135.75
470.59	166.18
470.77	131.07
470.95	163.84
471.14	205.97
471.32	191.92
471.50	166.18
471.68	152.13
471.86	175.54
472.04	156.82
472.22	205.97
472.40	140.43
472.58	187.24
472.77	191.92
472.95	145.11
473.13	234.05
473.31	184.90
473.49	168.52
473.67	142.77
473.85	250.44
474.03	131.07
474.21	170.86
474.39	180.22
474.57	278.52
474.75	205.97
474.93	98.30
475.12	77.24
475.30	154.48
475.48	140.43
475.66	220.01
475.84	154.48
476.02	187.24
476.20	250.44
476.38	248.10
476.56	212.99
476.74	166.18
476.92	198.95
477.10	215.33
477.28	250.44
477.46	196.60
477.64	117.03
477.82	140.43
478.00	187.24
478.18	182.56
478.36	210.65
478.54	133.41
478.72	191.92
478.90	241.08
479.08	215.33
479.26	215.33
479.44	227.03
479.62	140.43
479.80	271.50
479.98	194.26
480.16	152.13
480.34	159.16
480.52	142.77
480.70	210.65
480.88	212.99
481.06	196.60
481.24	161.50
481.41	117.03
481.59	205.97
481.77	212.99
481.95	212.99
482.13	166.18
482.31	170.86
482.49	149.79
482.67	269.16
482.85	283.20
483.03	189.58
483.21	259.80
483.39	252.78
483.57	205.97
483.74	257.46
483.92	229.37
484.10	180.22
484.28	276.18
484.46	229.37
484.64	325.33
484.82	322.99
485.00	210.65
485.18	271.50
485.35	269.16
485.53	250.44
485.71	325.33
485.89	306.61
486.07	262.14
486.25	362.78
486.43	264.48
486.61	241.08
486.78	234.05
486.96	259.80
487.14	271.50
487.32	315.97
487.50	287.89
487.68	257.46
487.85	262.14
488.03	290.23
488.21	259.80
488.39	287.89
488.57	269.16
488.75	259.80
488.92	545.34
489.10	318.31
489.28	365.12
489.46	292.57
489.64	290.23
489.81	166.18
489.99	299.59
490.17	294.91
490.35	374.49
490.53	266.82
490.70	273.84
490.88	353.42
491.06	266.82
491.24	346.40
491.41	369.80
491.59	344.06
491.77	245.76
491.95	318.31
492.13	264.48
492.30	330.02
492.48	308.95
492.66	313.63
492.84	262.14
493.01	287.89
493.19	248.10
493.37	304.27
493.54	292.57
493.72	283.20
493.90	241.08
494.08	170.86
494.25	257.46
494.43	264.48
494.61	276.18
494.79	271.50
494.96	262.14
495.14	297.25
495.32	266.82
495.49	215.33
495.67	304.27
495.85	294.91
496.02	299.59
496.20	269.16
496.38	262.14
496.55	255.12
496.73	294.91
496.91	217.67
497.09	339.38
497.26	220.01
497.44	266.82
497.62	264.48
497.79	301.93
497.97	198.95
498.14	287.89
498.32	341.72
498.50	236.39
498.67	339.38
498.85	212.99
499.03	290.23
499.20	255.12
499.38	217.67
499.56	196.60
499.73	241.08
499.91	301.93
500.08	271.50
500.26	271.50
500.44	224.69
500.61	266.82
500.79	257.46
500.97	243.42
501.14	306.61
501.32	212.99
501.49	301.93
501.67	266.82
501.84	215.33
502.02	217.67
502.20	257.46
502.37	283.20
502.55	245.76
502.72	264.48
502.90	231.71
503.07	238.73
503.25	220.01
503.43	297.25
503.60	210.65
503.78	205.97
503.95	212.99
504.13	203.63
504.30	264.48
504.48	257.46
504.65	252.78
504.83	292.57
505.01	184.90
505.18	320.65
505.36	273.84
505.53	227.03
505.71	187.24
505.88	269.16
506.06	210.65
506.23	245.76
506.41	243.42
506.58	271.50
506.76	308.95
506.93	210.65
507.11	283.20
507.28	238.73
507.46	236.39
507.63	248.10
507.81	170.86
507.98	212.99
508.16	231.71
508.33	245.76
508.50	248.10
508.68	234.05
508.85	271.50
509.03	220.01
509.20	189.58
509.38	156.82
509.55	215.33
509.73	262.14
509.90	271.50
510.08	208.31
510.25	259.80
510.42	299.59
510.60	222.35
510.77	290.23
510.95	257.46
511.12	266.82
511.30	278.52
511.47	290.23
511.64	374.49
511.82	280.86
511.99	227.03
512.17	318.31
512.34	184.90
512.51	259.80
512.69	241.08
512.86	278.52
513.04	168.52
513.21	238.73
513.38	257.46
513.56	238.73
513.73	269.16
513.90	217.67
514.08	292.57
514.25	320.65
514.43	257.46
514.60	236.39
514.77	187.24
514.95	299.59
515.12	201.29
515.29	187.24
515.47	238.73
515.64	229.37
515.81	271.50
515.99	262.14
516.16	264.48
516.33	341.72
516.51	276.18
516.68	168.52
516.85	212.99
517.03	177.88
517.20	271.50
517.37	271.50
517.54	208.31
517.72	222.35
517.89	245.76
518.06	208.31
518.24	262.14
518.41	257.46
518.58	257.46
518.75	184.90
518.93	212.99
519.10	259.80
519.27	245.76
519.45	203.63
519.62	287.89
519.79	252.78
519.96	191.92
520.14	238.73
520.31	299.59
520.48	217.67
520.65	224.69
520.83	245.76
521.00	236.39
521.17	266.82
521.34	238.73
521.52	236.39
521.69	224.69
521.86	294.91
522.03	203.63
522.20	280.86
522.38	250.44
522.55	290.23
522.72	243.42
522.89	320.65
523.07	311.29
523.24	285.55
523.41	273.84
523.58	273.84
523.75	306.61
523.92	220.01
524.10	285.55
524.27	304.27
524.44	257.46
524.61	348.74
524.78	248.10
524.96	315.97
525.13	229.37
525.30	273.84
525.47	205.97
525.64	191.92
525.81	280.86
525.98	238.73
526.16	175.54
526.33	194.26
526.50	241.08
526.67	210.65
526.84	257.46
527.01	191.92
527.18	264.48
527.36	294.91
527.53	276.18
527.70	191.92
527.87	238.73
528.04	198.95
528.21	238.73
528.38	215.33
528.55	344.06
528.72	362.78
528.89	257.46
529.07	344.06
529.24	229.37
529.41	337.04
529.58	290.23
529.75	290.23
529.92	337.04
530.09	252.78
530.26	290.23
530.43	220.01
530.60	217.67
530.77	283.20
530.94	227.03
531.11	250.44
531.28	205.97
531.46	220.01
531.63	236.39
531.80	315.97
531.97	152.13
532.14	257.46
532.31	184.90
532.48	215.33
532.65	269.16
532.82	290.23
532.99	203.63
533.16	243.42
533.33	358.10
533.50	308.95
533.67	252.78
533.84	315.97
534.01	255.12
534.18	290.23
534.35	341.72
534.52	217.67
534.69	393.21
534.86	264.48
535.03	285.55
535.20	292.57
535.37	344.06
535.54	241.08
535.71	351.08
535.88	229.37
536.05	301.93
536.22	308.95
536.38	308.95
536.55	348.74
536.72	379.17
536.89	301.93
537.06	311.29
537.23	348.74
537.40	402.57
537.57	355.76
537.74	433.00
537.91	404.91
538.08	425.98
538.25	528.96
538.42	381.51
538.59	381.51
538.75	440.02
538.92	449.38
539.09	461.09
539.26	435.34
539.43	524.28
539.60	528.96
539.77	517.26
539.94	552.37
540.11	667.05
540.28	732.59
540.44	716.20
540.61	744.29
540.78	706.84
540.95	950.26
541.12	1050.90
541.29	1167.93
541.46	1217.08
541.62	1266.23
541.79	1132.82
541.96	1153.88
542.13	1203.04
542.30	1104.73
542.47	1123.46
542.63	973.66
542.80	901.11
542.97	978.34
543.14	973.66
543.31	1036.86
543.48	1116.44
543.64	1090.69
543.81	1076.65
543.98	1039.20
544.15	1006.43
544.32	971.32
544.48	990.05
544.65	997.07
544.82	1027.50
544.99	1029.84
545.16	999.41
545.32	961.96
545.49	1526.03
545.66	2324.15
545.83	2754.81
546.00	2532.46
546.16	1830.30
546.33	1287.29
546.50	1097.71
546.67	889.40
546.83	791.10
547.00	784.08
547.17	753.65
547.34	683.44
547.50	697.48
547.67	774.72
547.84	685.78
548.00	709.18
548.17	606.20
548.34	688.12
548.51	650.67
548.67	617.90
548.84	617.90
549.01	564.07
549.18	528.96
549.34	596.84
549.51	507.90
549.68	596.84
549.84	526.62
550.01	493.85
550.18	629.60
550.34	575.77
550.51	470.45
550.68	489.17
550.84	472.79
551.01	528.96
551.18	496.19
551.34	433.00
551.51	409.59
551.68	510.24
551.84	472.79
552.01	386.19
552.18	437.68
552.34	414.27
552.51	437.68
552.68	397.89
552.84	409.59
553.01	486.83
553.18	454.06
553.34	369.80
553.51	346.40
553.67	325.33
553.84	381.51
554.01	386.19
554.17	416.62
554.34	264.48
554.51	379.17
554.67	355.76
554.84	292.57
555.00	341.72
555.17	334.70
555.33	313.63
555.50	315.97
555.67	278.52
555.83	280.86
556.00	280.86
556.16	447.04
556.33	348.74
556.50	301.93
556.66	318.31
556.83	292.57
556.99	262.14
557.16	330.02
557.32	327.68
557.49	262.14
557.65	234.05
557.82	255.12
557.98	325.33
558.15	215.33
558.32	304.27
558.48	210.65
558.65	304.27
558.81	332.36
558.98	198.95
559.14	278.52
559.31	271.50
559.47	294.91
559.64	257.46
559.80	269.16
559.97	245.76
560.13	262.14
560.30	259.80
560.46	271.50
560.63	297.25
560.79	212.99
560.96	320.65
561.12	243.42
561.29	299.59
561.45	238.73
561.61	259.80
561.78	330.02
561.94	208.31
562.11	227.03
562.27	182.56
562.44	308.95
562.60	294.91
562.77	241.08
562.93	292.57
563.10	318.31
563.26	301.93
563.42	283.20
563.59	327.68
563.75	245.76
563.92	301.93
564.08	222.35
564.24	301.93
564.41	313.63
564.57	208.31
564.74	187.24
564.90	294.91
565.07	269.16
565.23	266.82
565.39	334.70
565.56	271.50
565.72	196.60
565.88	283.20
566.05	276.18
566.21	231.71
566.38	297.25
566.54	236.39
566.70	229.37
566.87	252.78
567.03	283.20
567.19	203.63
567.36	266.82
567.52	285.55
567.68	229.37
567.85	287.89
568.01	332.36
568.17	184.90
568.34	285.55
568.50	238.73
568.66	252.78
568.83	266.82
568.99	168.52
569.15	285.55
569.32	287.89
569.48	252.78
569.64	154.48
569.81	245.76
569.97	255.12
570.13	262.14
570.30	182.56
570.46	238.73
570.62	187.24
570.78	222.35
570.95	203.63
571.11	271.50
571.27	273.84
571.43	107.66
571.60	173.20
571.76	229.37
571.92	259.80
572.09	194.26
572.25	250.44
572.41	294.91
572.57	229.37
572.74	255.12
572.90	229.37
573.06	264.48
573.22	273.84
573.38	351.08
573.55	299.59
573.71	234.05
573.87	299.59
574.03	243.42
574.20	229.37
574.36	301.93
574.52	229.37
574.68	208.31
574.84	217.67
575.01	227.03
575.17	306.61
575.33	297.25
575.49	320.65
575.65	266.82
575.82	173.20
575.98	334.70
576.14	271.50
576.30	362.78
576.46	489.17
576.62	704.50
576.79	713.86
576.95	573.43
577.11	442.36
577.27	388.53
577.43	393.21
577.59	271.50
577.75	201.29
577.92	241.08
578.08	264.48
578.24	273.84
578.40	358.10
578.56	538.32
578.72	662.37
578.88	676.41
579.04	587.47
579.21	482.15
579.37	397.89
579.53	404.91
579.69	428.32
579.85	348.74
580.01	430.66
580.17	390.87
580.33	388.53
580.49	393.21
580.65	383.85
580.82	404.91
580.98	330.02
581.14	273.84
581.30	390.87
581.46	409.59
581.62	376.83
581.78	339.38
581.94	404.91
582.10	390.87
582.26	372.15
582.42	376.83
582.58	430.66
582.74	390.87
582.90	402.57
583.06	379.17
583.22	402.57
583.38	379.17
583.54	404.91
583.70	425.98
583.86	407.25
584.02	449.38
584.18	475.13
584.34	397.89
584.50	362.78
584.66	404.91
584.82	409.59
584.98	369.80
585.14	376.83
585.30	374.49
585.46	388.53
585.62	379.17
585.78	322.99
585.94	393.21
586.10	414.27
586.26	341.72
586.42	442.36
586.58	465.77
586.74	468.11
586.90	580.45
587.06	505.56
587.22	580.45
587.38	535.98
587.54	486.83
587.70	444.70
587.86	433.00
588.02	369.80
588.18	421.30
588.34	395.55
588.49	332.36
588.65	287.89
588.81	322.99
588.97	292.57
589.13	320.65
589.29	276.18
589.45	271.50
589.61	367.46
589.77	367.46
589.93	287.89
590.08	280.86
590.24	346.40
590.40	311.29
590.56	369.80
590.72	376.83
590.88	276.18
591.04	407.25
591.20	341.72
591.35	367.46
591.51	367.46
591.67	301.93
591.83	402.57
591.99	381.51
592.15	365.12
592.31	320.65
592.46	414.27
592.62	552.37
592.78	425.98
592.94	400.23
593.10	479.81
593.26	393.21
593.41	374.49
593.57	355.76
593.73	332.36
593.89	332.36
594.05	313.63
594.20	294.91
594.36	322.99
594.52	320.65
594.68	304.27
594.84	294.91
594.99	313.63
595.15	330.02
595.31	341.72
595.47	362.78
595.62	259.80
595.78	189.58
595.94	236.39
596.10	332.36
596.25	292.57
596.41	320.65
596.57	294.91
596.73	269.16
596.88	257.46
597.04	238.73
597.20	252.78
597.36	348.74
597.51	259.80
597.67	304.27
597.83	227.03
597.99	318.31
598.14	308.95
598.30	306.61
598.46	437.68
598.61	388.53
598.77	355.76
598.93	306.61
599.09	297.25
599.24	367.46
599.40	423.64
599.56	348.74
599.71	330.02
599.87	348.74
600.03	362.78
600.18	287.89
600.34	241.08
600.50	262.14
600.65	290.23
600.81	339.38
600.97	308.95
601.12	248.10
601.28	332.36
601.44	283.20
601.59	283.20
601.75	262.14
601.91	238.73
602.06	285.55
602.22	365.12
602.37	255.12
602.53	269.16
602.69	297.25
602.84	325.33
603.00	308.95
603.16	287.89
603.31	332.36
603.47	264.48
603.62	250.44
603.78	301.93
603.94	236.39
604.09	273.84
604.25	362.78
604.40	252.78
604.56	278.52
604.71	348.74
604.87	243.42
605.03	278.52
605.18	299.59
605.34	421.30
605.49	301.93
605.65	264.48
605.80	238.73
605.96	285.55
606.12	365.12
606.27	332.36
606.43	322.99
606.58	250.44
606.74	322.99
606.89	308.95
607.05	332.36
607.20	322.99
607.36	355.76
607.51	313.63
607.67	360.44
607.82	306.61
607.98	416.62
608.13	421.30
608.29	360.44
608.44	428.32
608.60	451.72
608.75	402.57
608.91	437.68
609.06	482.15
609.22	486.83
609.37	491.51
609.53	643.65
609.68	704.50
609.84	737.27
609.99	821.53
610.15	849.61
610.30	1060.26
610.46	1231.12
610.61	1568.16
610.76	2019.88
610.92	2246.91
611.07	2525.44
611.23	2745.45
