SpectraSuite Data File
++++++++++++++++++++++++++++++++++++
Date: Fri Oct 04 11:42:26 GMT-05:00 2013
User: price-jones
Dark Spectrum Present: No
Reference Spectrum Present: No
Number of Sampled Component Spectra: 1
Spectrometers: USB2+H05261
Integration Time (usec): 100000 (USB2+H05261)
Spectra Averaged: 1 (USB2+H05261)
Boxcar Smoothing: 0 (USB2+H05261)
Correct for Electrical Dark: No (USB2+H05261)
Strobe/Lamp Enabled: No (USB2+H05261)
Correct for Detector Non-linearity: No (USB2+H05261)
Correct for Stray Light: No (USB2+H05261)
Number of Pixels in Processed Spectrum: 2048
>>>>>Begin Processed Spectral Data<<<<<
365.73	93.62
365.92	93.62
366.12	93.62
366.32	0.00
366.52	0.00
366.72	0.00
366.91	0.00
367.11	0.00
367.31	0.00
367.51	0.00
367.70	0.00
367.90	0.00
368.10	0.00
368.30	0.00
368.49	0.00
368.69	23.41
368.89	0.00
369.09	0.00
369.28	0.00
369.48	0.00
369.68	0.00
369.87	72.56
370.07	16.38
370.27	32.77
370.47	0.00
370.66	0.00
370.86	0.00
371.06	105.32
371.25	49.15
371.45	44.47
371.65	117.03
371.84	70.22
372.04	77.24
372.24	88.94
372.44	35.11
372.63	39.79
372.83	149.79
373.03	86.60
373.22	0.00
373.42	74.90
373.62	93.62
373.81	140.43
374.01	205.97
374.21	163.84
374.40	81.92
374.60	227.03
374.79	154.48
374.99	117.03
375.19	93.62
375.38	79.58
375.58	93.62
375.78	166.18
375.97	95.96
376.17	166.18
376.37	121.71
376.56	140.43
376.76	114.69
376.95	49.15
377.15	170.86
377.35	163.84
377.54	77.24
377.74	149.79
377.93	156.82
378.13	152.13
378.33	119.37
378.52	170.86
378.72	105.32
378.91	105.32
379.11	67.88
379.31	95.96
379.50	70.22
379.70	131.07
379.89	187.24
380.09	133.41
380.28	72.56
380.48	168.52
380.68	114.69
380.87	70.22
381.07	107.66
381.26	65.54
381.46	100.64
381.65	168.52
381.85	49.15
382.04	67.88
382.24	114.69
382.43	72.56
382.63	102.98
382.83	126.39
383.02	93.62
383.22	149.79
383.41	51.49
383.61	131.07
383.80	117.03
384.00	79.58
384.19	119.37
384.39	95.96
384.58	117.03
384.78	126.39
384.97	105.32
385.17	91.28
385.36	119.37
385.56	147.45
385.75	77.24
385.95	133.41
386.14	81.92
386.34	107.66
386.53	145.11
386.72	81.92
386.92	77.24
387.11	121.71
387.31	91.28
387.50	7.02
387.70	81.92
387.89	131.07
388.09	117.03
388.28	88.94
388.48	65.54
388.67	81.92
388.86	170.86
389.06	124.05
389.25	149.79
389.45	126.39
389.64	91.28
389.84	72.56
390.03	105.32
390.22	154.48
390.42	35.11
390.61	60.85
390.81	81.92
391.00	166.18
391.19	100.64
391.39	117.03
391.58	149.79
391.78	84.26
391.97	159.16
392.16	152.13
392.36	112.35
392.55	156.82
392.75	107.66
392.94	77.24
393.13	119.37
393.33	77.24
393.52	100.64
393.71	84.26
393.91	138.09
394.10	35.11
394.29	117.03
394.49	110.01
394.68	201.29
394.88	110.01
395.07	128.73
395.26	147.45
395.46	124.05
395.65	170.86
395.84	88.94
396.04	231.71
396.23	74.90
396.42	86.60
396.62	166.18
396.81	102.98
397.00	149.79
397.19	39.79
397.39	81.92
397.58	156.82
397.77	119.37
397.97	182.56
398.16	98.30
398.35	88.94
398.55	112.35
398.74	140.43
398.93	126.39
399.12	126.39
399.32	135.75
399.51	168.52
399.70	140.43
399.90	114.69
400.09	114.69
400.28	119.37
400.47	156.82
400.67	117.03
400.86	95.96
401.05	142.77
401.24	133.41
401.44	166.18
401.63	175.54
401.82	203.63
402.01	112.35
402.21	142.77
402.40	182.56
402.59	189.58
402.78	133.41
402.97	119.37
403.17	163.84
403.36	128.73
403.55	128.73
403.74	229.37
403.93	386.19
404.13	725.57
404.32	772.38
404.51	594.50
404.70	372.15
404.89	231.71
405.09	187.24
405.28	88.94
405.47	112.35
405.66	95.96
405.85	154.48
406.05	124.05
406.24	84.26
406.43	105.32
406.62	159.16
406.81	187.24
407.00	156.82
407.20	184.90
407.39	266.82
407.58	205.97
407.77	173.20
407.96	124.05
408.15	84.26
408.34	112.35
408.54	100.64
408.73	70.22
408.92	142.77
409.11	110.01
409.30	93.62
409.49	126.39
409.68	142.77
409.87	140.43
410.07	133.41
410.26	154.48
410.45	102.98
410.64	81.92
410.83	126.39
411.02	107.66
411.21	159.16
411.40	168.52
411.59	98.30
411.78	147.45
411.98	170.86
412.17	119.37
412.36	145.11
412.55	84.26
412.74	93.62
412.93	121.71
413.12	114.69
413.31	110.01
413.50	126.39
413.69	86.60
413.88	215.33
414.07	88.94
414.26	107.66
414.45	102.98
414.64	124.05
414.83	98.30
415.02	159.16
415.22	182.56
415.41	138.09
415.60	135.75
415.79	126.39
415.98	112.35
416.17	147.45
416.36	49.15
416.55	163.84
416.74	105.32
416.93	187.24
417.12	175.54
417.31	142.77
417.50	191.92
417.69	212.99
417.88	173.20
418.07	149.79
418.26	152.13
418.45	84.26
418.64	140.43
418.83	168.52
419.02	243.42
419.21	119.37
419.39	170.86
419.58	159.16
419.77	236.39
419.96	107.66
420.15	259.80
420.34	145.11
420.53	119.37
420.72	140.43
420.91	131.07
421.10	131.07
421.29	133.41
421.48	138.09
421.67	135.75
421.86	105.32
422.05	126.39
422.24	145.11
422.43	114.69
422.61	98.30
422.80	81.92
422.99	124.05
423.18	156.82
423.37	159.16
423.56	131.07
423.75	180.22
423.94	152.13
424.13	161.50
424.32	196.60
424.50	119.37
424.69	175.54
424.88	234.05
425.07	121.71
425.26	147.45
425.45	152.13
425.64	133.41
425.83	119.37
426.01	142.77
426.20	119.37
426.39	138.09
426.58	110.01
426.77	220.01
426.96	133.41
427.15	208.31
427.33	194.26
427.52	191.92
427.71	159.16
427.90	149.79
428.09	161.50
428.28	149.79
428.46	182.56
428.65	205.97
428.84	166.18
429.03	194.26
429.22	140.43
429.40	149.79
429.59	205.97
429.78	154.48
429.97	114.69
430.16	112.35
430.34	149.79
430.53	163.84
430.72	229.37
430.91	170.86
431.10	133.41
431.28	182.56
431.47	81.92
431.66	187.24
431.85	210.65
432.03	163.84
432.22	163.84
432.41	147.45
432.60	236.39
432.79	203.63
432.97	245.76
433.16	278.52
433.35	173.20
433.54	196.60
433.72	152.13
433.91	187.24
434.10	283.20
434.28	208.31
434.47	161.50
434.66	264.48
434.85	264.48
435.03	669.39
435.22	1886.47
435.41	3101.21
435.59	2855.45
435.78	1954.35
435.97	1020.47
436.16	564.07
436.34	229.37
436.53	184.90
436.72	250.44
436.90	205.97
437.09	198.95
437.28	142.77
437.46	128.73
437.65	215.33
437.84	250.44
438.02	117.03
438.21	231.71
438.40	201.29
438.58	138.09
438.77	170.86
438.96	163.84
439.14	238.73
439.33	250.44
439.52	152.13
439.70	163.84
439.89	231.71
440.08	245.76
440.26	234.05
440.45	210.65
440.63	177.88
440.82	257.46
441.01	191.92
441.19	138.09
441.38	173.20
441.57	205.97
441.75	175.54
441.94	243.42
442.12	210.65
442.31	140.43
442.50	180.22
442.68	234.05
442.87	180.22
443.05	159.16
443.24	128.73
443.43	166.18
443.61	166.18
443.80	227.03
443.98	121.71
444.17	191.92
444.35	241.08
444.54	133.41
444.73	182.56
444.91	224.69
445.10	189.58
445.28	140.43
445.47	168.52
445.65	189.58
445.84	149.79
446.02	201.29
446.21	196.60
446.39	166.18
446.58	203.63
446.77	152.13
446.95	170.86
447.14	166.18
447.32	259.80
447.51	187.24
447.69	163.84
447.88	243.42
448.06	255.12
448.25	128.73
448.43	196.60
448.62	156.82
448.80	191.92
448.99	180.22
449.17	166.18
449.36	250.44
449.54	184.90
449.73	177.88
449.91	264.48
450.10	196.60
450.28	196.60
450.46	294.91
450.65	241.08
450.83	243.42
451.02	166.18
451.20	149.79
451.39	210.65
451.57	142.77
451.76	196.60
451.94	201.29
452.13	159.16
452.31	241.08
452.49	191.92
452.68	161.50
452.86	224.69
453.05	220.01
453.23	161.50
453.42	124.05
453.60	196.60
453.78	252.78
453.97	156.82
454.15	168.52
454.34	189.58
454.52	184.90
454.70	156.82
454.89	234.05
455.07	170.86
455.26	187.24
455.44	203.63
455.62	194.26
455.81	105.32
455.99	149.79
456.17	147.45
456.36	189.58
456.54	159.16
456.73	140.43
456.91	194.26
457.09	210.65
457.28	229.37
457.46	156.82
457.64	205.97
457.83	112.35
458.01	194.26
458.19	212.99
458.38	140.43
458.56	205.97
458.74	145.11
458.93	187.24
459.11	210.65
459.29	231.71
459.48	161.50
459.66	208.31
459.84	220.01
460.03	257.46
460.21	191.92
460.39	168.52
460.57	252.78
460.76	245.76
460.94	241.08
461.12	252.78
461.31	142.77
461.49	252.78
461.67	220.01
461.85	198.95
462.04	196.60
462.22	327.68
462.40	194.26
462.59	203.63
462.77	215.33
462.95	175.54
463.13	208.31
463.32	205.97
463.50	126.39
463.68	245.76
463.86	259.80
464.05	187.24
464.23	161.50
464.41	196.60
464.59	215.33
464.78	212.99
464.96	170.86
465.14	203.63
465.32	126.39
465.50	238.73
465.69	163.84
465.87	175.54
466.05	245.76
466.23	220.01
466.41	196.60
466.60	196.60
466.78	236.39
466.96	245.76
467.14	215.33
467.32	194.26
467.51	215.33
467.69	245.76
467.87	231.71
468.05	220.01
468.23	234.05
468.41	236.39
468.60	191.92
468.78	154.48
468.96	248.10
469.14	229.37
469.32	152.13
469.50	110.01
469.69	194.26
469.87	154.48
470.05	175.54
470.23	187.24
470.41	222.35
470.59	177.88
470.77	215.33
470.95	180.22
471.14	161.50
471.32	201.29
471.50	198.95
471.68	215.33
471.86	177.88
472.04	135.75
472.22	187.24
472.40	198.95
472.58	208.31
472.77	229.37
472.95	168.52
473.13	184.90
473.31	175.54
473.49	145.11
473.67	203.63
473.85	182.56
474.03	248.10
474.21	196.60
474.39	220.01
474.57	266.82
474.75	170.86
474.93	229.37
475.12	180.22
475.30	110.01
475.48	198.95
475.66	231.71
475.84	220.01
476.02	168.52
476.20	189.58
476.38	236.39
476.56	271.50
476.74	110.01
476.92	227.03
477.10	180.22
477.28	259.80
477.46	191.92
477.64	205.97
477.82	212.99
478.00	189.58
478.18	205.97
478.36	198.95
478.54	168.52
478.72	222.35
478.90	292.57
479.08	154.48
479.26	191.92
479.44	177.88
479.62	138.09
479.80	147.45
479.98	142.77
480.16	245.76
480.34	234.05
480.52	234.05
480.70	175.54
480.88	191.92
481.06	273.84
481.24	255.12
481.41	262.14
481.59	322.99
481.77	334.70
481.95	259.80
482.13	252.78
482.31	191.92
482.49	241.08
482.67	358.10
482.85	372.15
483.03	276.18
483.21	348.74
483.39	360.44
483.57	320.65
483.74	451.72
483.92	372.15
484.10	393.21
484.28	372.15
484.46	444.70
484.64	493.85
484.82	397.89
485.00	402.57
485.18	470.45
485.35	496.19
485.53	475.13
485.71	538.32
485.89	489.17
486.07	442.36
486.25	517.26
486.43	552.37
486.61	571.09
486.78	503.22
486.96	547.69
487.14	543.00
487.32	526.62
487.50	601.52
487.68	521.94
487.85	519.60
488.03	559.39
488.21	554.71
488.39	482.15
488.57	587.47
488.75	561.73
488.92	830.89
489.10	491.51
489.28	547.69
489.46	557.05
489.64	475.13
489.81	573.43
489.99	554.71
490.17	543.00
490.35	587.47
490.53	486.83
490.70	482.15
490.88	503.22
491.06	547.69
491.24	470.45
491.41	547.69
491.59	521.94
491.77	456.40
491.95	526.62
492.13	463.43
492.30	491.51
492.48	491.51
492.66	479.81
492.84	496.19
493.01	461.09
493.19	428.32
493.37	482.15
493.54	465.77
493.72	512.58
493.90	472.79
494.08	475.13
494.25	526.62
494.43	428.32
494.61	418.96
494.79	433.00
494.96	433.00
495.14	472.79
495.32	421.30
495.49	454.06
495.67	374.49
495.85	386.19
496.02	386.19
496.20	477.47
496.38	491.51
496.55	376.83
496.73	472.79
496.91	383.85
497.09	475.13
497.26	404.91
497.44	294.91
497.62	416.62
497.79	463.43
497.97	423.64
498.14	383.85
498.32	437.68
498.50	402.57
498.67	306.61
498.85	313.63
499.03	330.02
499.20	348.74
499.38	346.40
499.56	330.02
499.73	351.08
499.91	322.99
500.08	255.12
500.26	257.46
500.44	327.68
500.61	341.72
500.79	337.04
500.97	409.59
501.14	365.12
501.32	287.89
501.49	280.86
501.67	212.99
501.84	278.52
502.02	290.23
502.20	285.55
502.37	269.16
502.55	313.63
502.72	227.03
502.90	245.76
503.07	285.55
503.25	217.67
503.43	231.71
503.60	285.55
503.78	348.74
503.95	222.35
504.13	224.69
504.30	306.61
504.48	278.52
504.65	205.97
504.83	290.23
505.01	255.12
505.18	283.20
505.36	212.99
505.53	182.56
505.71	315.97
505.88	313.63
506.06	278.52
506.23	271.50
506.41	276.18
506.58	245.76
506.76	238.73
506.93	224.69
507.11	287.89
507.28	280.86
507.46	175.54
507.63	250.44
507.81	182.56
507.98	245.76
508.16	255.12
508.33	245.76
508.50	252.78
508.68	255.12
508.85	259.80
509.03	269.16
509.20	243.42
509.38	290.23
509.55	283.20
509.73	217.67
509.90	248.10
510.08	227.03
510.25	210.65
510.42	194.26
510.60	264.48
510.77	264.48
510.95	320.65
511.12	327.68
511.30	248.10
511.47	280.86
511.64	273.84
511.82	227.03
511.99	290.23
512.17	280.86
512.34	320.65
512.51	285.55
512.69	198.95
512.86	215.33
513.04	262.14
513.21	292.57
513.38	229.37
513.56	163.84
513.73	252.78
513.90	220.01
514.08	285.55
514.25	299.59
514.43	271.50
514.60	278.52
514.77	276.18
514.95	280.86
515.12	234.05
515.29	266.82
515.47	285.55
515.64	250.44
515.81	227.03
515.99	241.08
516.16	266.82
516.33	311.29
516.51	222.35
516.68	198.95
516.85	220.01
517.03	180.22
517.20	220.01
517.37	245.76
517.54	220.01
517.72	215.33
517.89	191.92
518.06	276.18
518.24	264.48
518.41	292.57
518.58	227.03
518.75	224.69
518.93	301.93
519.10	252.78
519.27	250.44
519.45	168.52
519.62	304.27
519.79	255.12
519.96	299.59
520.14	234.05
520.31	259.80
520.48	301.93
520.65	266.82
520.83	301.93
521.00	203.63
521.17	177.88
521.34	255.12
521.52	248.10
521.69	273.84
521.86	264.48
522.03	273.84
522.20	348.74
522.38	250.44
522.55	248.10
522.72	236.39
522.89	271.50
523.07	287.89
523.24	236.39
523.41	234.05
523.58	271.50
523.75	278.52
523.92	252.78
524.10	180.22
524.27	250.44
524.44	224.69
524.61	299.59
524.78	217.67
524.96	259.80
525.13	212.99
525.30	210.65
525.47	266.82
525.64	318.31
525.81	280.86
525.98	208.31
526.16	273.84
526.33	243.42
526.50	266.82
526.67	250.44
526.84	271.50
527.01	299.59
527.18	304.27
527.36	290.23
527.53	234.05
527.70	229.37
527.87	227.03
528.04	386.19
528.21	224.69
528.38	339.38
528.55	262.14
528.72	245.76
528.89	301.93
529.07	301.93
529.24	224.69
529.41	339.38
529.58	168.52
529.75	243.42
529.92	332.36
530.09	318.31
530.26	271.50
530.43	280.86
530.60	252.78
530.77	255.12
530.94	325.33
531.11	273.84
531.28	194.26
531.46	248.10
531.63	287.89
531.80	269.16
531.97	278.52
532.14	276.18
532.31	212.99
532.48	294.91
532.65	351.08
532.82	348.74
532.99	451.72
533.16	353.42
533.33	379.17
533.50	442.36
533.67	327.68
533.84	351.08
534.01	334.70
534.18	297.25
534.35	292.57
534.52	290.23
534.69	372.15
534.86	334.70
535.03	301.93
535.20	341.72
535.37	320.65
535.54	313.63
535.71	362.78
535.88	351.08
536.05	393.21
536.22	348.74
536.38	425.98
536.55	369.80
536.72	435.34
536.89	437.68
537.06	400.23
537.23	454.06
537.40	545.34
537.57	580.45
537.74	624.92
537.91	589.82
538.08	676.41
538.25	685.78
538.42	674.07
538.59	678.76
538.75	685.78
538.92	716.20
539.09	765.36
539.26	793.44
539.43	889.40
539.60	919.83
539.77	1025.15
539.94	1064.94
540.11	1050.90
540.28	1275.59
540.44	1256.87
540.61	1210.06
540.78	1434.75
540.95	1495.60
541.12	1900.52
541.29	2162.66
541.46	2333.51
541.62	2605.02
541.79	2984.18
541.96	3023.97
542.13	3103.55
542.30	3141.00
542.47	3012.27
542.63	2944.39
542.80	3045.04
542.97	2974.82
543.14	3040.36
543.31	3101.21
543.48	3101.21
543.64	3119.93
543.81	3040.36
543.98	2902.26
544.15	2829.71
544.32	2745.45
544.48	2789.92
544.65	2696.30
544.82	2434.16
544.99	2387.35
545.16	2450.54
545.32	2476.29
545.49	4161.47
545.66	6518.39
545.83	7178.42
546.00	5778.78
546.16	3915.72
546.33	2836.73
546.50	2050.31
546.67	1727.32
546.83	1441.77
547.00	1317.72
547.17	1177.29
547.34	1158.57
547.50	1179.63
547.67	1188.99
547.84	1027.50
548.00	1160.91
548.17	1153.88
548.34	1287.29
548.51	1224.10
548.67	1078.99
548.84	1263.89
549.01	1160.91
549.18	1263.89
549.34	1093.03
549.51	1107.07
549.68	1071.97
549.84	924.51
550.01	917.49
550.18	1013.45
550.34	947.92
550.51	882.38
550.68	929.19
550.84	779.40
551.01	926.85
551.18	837.91
551.34	781.74
551.51	788.76
551.68	795.78
551.84	849.61
552.01	734.93
552.18	814.51
552.34	662.37
552.51	727.91
552.68	753.65
552.84	638.97
553.01	650.67
553.18	617.90
553.34	568.75
553.51	514.92
553.67	580.45
553.84	517.26
554.01	587.47
554.17	585.13
554.34	528.96
554.51	433.00
554.67	430.66
554.84	402.57
555.00	395.55
555.17	369.80
555.33	374.49
555.50	444.70
555.67	351.08
555.83	299.59
556.00	367.46
556.16	496.19
556.33	360.44
556.50	348.74
556.66	318.31
556.83	283.20
556.99	315.97
557.16	367.46
557.32	290.23
557.49	276.18
557.65	283.20
557.82	257.46
557.98	365.12
558.15	287.89
558.32	250.44
558.48	259.80
558.65	297.25
558.81	330.02
558.98	325.33
559.14	339.38
559.31	351.08
559.47	294.91
559.64	243.42
559.80	280.86
559.97	224.69
560.13	292.57
560.30	276.18
560.46	257.46
560.63	243.42
560.79	339.38
560.96	341.72
561.12	290.23
561.29	297.25
561.45	297.25
561.61	297.25
561.78	337.04
561.94	339.38
562.11	304.27
562.27	259.80
562.44	273.84
562.60	308.95
562.77	269.16
562.93	271.50
563.10	304.27
563.26	301.93
563.42	269.16
563.59	266.82
563.75	285.55
563.92	280.86
564.08	273.84
564.24	224.69
564.41	301.93
564.57	234.05
564.74	227.03
564.90	278.52
565.07	269.16
565.23	280.86
565.39	269.16
565.56	241.08
565.72	257.46
565.88	304.27
566.05	278.52
566.21	252.78
566.38	245.76
566.54	229.37
566.70	320.65
566.87	271.50
567.03	248.10
567.19	229.37
567.36	280.86
567.52	259.80
567.68	339.38
567.85	208.31
568.01	252.78
568.17	269.16
568.34	241.08
568.50	322.99
568.66	220.01
568.83	290.23
568.99	304.27
569.15	280.86
569.32	231.71
569.48	262.14
569.64	259.80
569.81	243.42
569.97	208.31
570.13	266.82
570.30	280.86
570.46	259.80
570.62	276.18
570.78	276.18
570.95	264.48
571.11	344.06
571.27	355.76
571.43	166.18
571.60	299.59
571.76	248.10
571.92	243.42
572.09	210.65
572.25	243.42
572.41	285.55
572.57	297.25
572.74	255.12
572.90	313.63
573.06	337.04
573.22	255.12
573.38	203.63
573.55	227.03
573.71	290.23
573.87	292.57
574.03	243.42
574.20	191.92
574.36	327.68
574.52	325.33
574.68	262.14
574.84	241.08
575.01	285.55
575.17	308.95
575.33	348.74
575.49	299.59
575.65	259.80
575.82	278.52
575.98	327.68
576.14	369.80
576.30	512.58
576.46	1053.24
576.62	1385.60
576.79	1425.39
576.95	1111.75
577.11	727.91
577.27	545.34
577.43	528.96
577.59	409.59
577.75	414.27
577.92	437.68
578.08	339.38
578.24	374.49
578.40	552.37
578.56	952.60
578.72	1273.25
578.88	1359.85
579.04	1015.79
579.21	858.98
579.37	702.16
579.53	662.37
579.69	624.92
579.85	732.59
580.01	873.02
580.17	720.88
580.33	676.41
580.49	723.23
580.65	535.98
580.82	465.77
580.98	479.81
581.14	454.06
581.30	571.09
581.46	564.07
581.62	636.63
581.78	512.58
581.94	613.22
582.10	559.39
582.26	716.20
582.42	685.78
582.58	751.31
582.74	779.40
582.90	791.10
583.06	819.19
583.22	739.61
583.38	763.01
583.54	821.53
583.70	819.19
583.86	730.25
584.02	833.23
584.18	896.43
584.34	774.72
584.50	779.40
584.66	608.54
584.82	746.63
584.98	643.65
585.14	678.76
585.30	674.07
585.46	638.97
585.62	678.76
585.78	725.57
585.94	645.99
586.10	620.24
586.26	622.58
586.42	826.21
586.58	877.70
586.74	926.85
586.90	1062.60
587.06	1219.42
587.22	1165.59
587.38	1086.01
587.54	980.68
587.70	919.83
587.86	779.40
588.02	767.70
588.18	739.61
588.34	655.35
588.49	547.69
588.65	681.10
588.81	575.77
588.97	578.11
589.13	578.11
589.29	601.52
589.45	566.41
589.61	498.53
589.77	596.84
589.93	496.19
590.08	535.98
590.24	559.39
590.40	571.09
590.56	589.82
590.72	507.90
590.88	444.70
591.04	514.92
591.20	402.57
591.35	582.79
591.51	610.88
591.67	475.13
591.83	571.09
591.99	603.86
592.15	655.35
592.31	669.39
592.46	678.76
592.62	730.25
592.78	727.91
592.94	814.51
593.10	706.84
593.26	713.86
593.41	734.93
593.57	669.39
593.73	538.32
593.89	561.73
594.05	472.79
594.20	517.26
594.36	430.66
594.52	400.23
594.68	418.96
594.84	414.27
594.99	397.89
595.15	440.02
595.31	416.62
595.47	421.30
595.62	372.15
595.78	362.78
595.94	374.49
596.10	425.98
596.25	458.74
596.41	374.49
596.57	297.25
596.73	355.76
596.88	386.19
597.04	428.32
597.20	346.40
597.36	374.49
597.51	360.44
597.67	433.00
597.83	425.98
597.99	440.02
598.14	430.66
598.30	465.77
598.46	482.15
598.61	451.72
598.77	442.36
598.93	540.66
599.09	585.13
599.24	587.47
599.40	561.73
599.56	540.66
599.71	489.17
599.87	468.11
600.03	444.70
600.18	430.66
600.34	442.36
600.50	442.36
600.65	433.00
600.81	449.38
600.97	390.87
601.12	346.40
601.28	386.19
601.44	301.93
601.59	304.27
601.75	330.02
601.91	379.17
602.06	325.33
602.22	287.89
602.37	304.27
602.53	390.87
602.69	341.72
602.84	276.18
603.00	220.01
603.16	344.06
603.31	297.25
603.47	241.08
603.62	285.55
603.78	294.91
603.94	341.72
604.09	315.97
604.25	425.98
604.40	332.36
604.56	376.83
604.71	337.04
604.87	346.40
605.03	351.08
605.18	393.21
605.34	421.30
605.49	362.78
605.65	372.15
605.80	280.86
605.96	344.06
606.12	374.49
606.27	400.23
606.43	383.85
606.58	475.13
606.74	477.47
606.89	503.22
607.05	461.09
607.20	486.83
607.36	500.87
607.51	472.79
607.67	507.90
607.82	531.30
607.98	538.32
608.13	587.47
608.29	629.60
608.44	615.56
608.60	716.20
608.75	842.59
608.91	873.02
609.06	905.79
609.22	866.00
609.37	922.17
609.53	1121.12
609.68	1184.31
609.84	1306.02
609.99	1404.32
610.15	1860.73
610.30	2251.60
610.46	2918.65
610.61	3662.94
