SpectraSuite Data File
++++++++++++++++++++++++++++++++++++
Date: Fri Oct 04 11:41:39 GMT-05:00 2013
User: price-jones
Dark Spectrum Present: No
Reference Spectrum Present: No
Number of Sampled Component Spectra: 1
Spectrometers: USB2+H05261
Integration Time (usec): 100000 (USB2+H05261)
Spectra Averaged: 1 (USB2+H05261)
Boxcar Smoothing: 0 (USB2+H05261)
Correct for Electrical Dark: No (USB2+H05261)
Strobe/Lamp Enabled: No (USB2+H05261)
Correct for Detector Non-linearity: No (USB2+H05261)
Correct for Stray Light: No (USB2+H05261)
Number of Pixels in Processed Spectrum: 2048
>>>>>Begin Processed Spectral Data<<<<<
365.73	37.45
365.92	37.45
366.12	37.45
366.32	0.00
366.52	0.00
366.72	21.06
366.91	0.00
367.11	0.00
367.31	0.00
367.51	0.00
367.70	28.09
367.90	0.00
368.10	0.00
368.30	0.00
368.49	0.00
368.69	4.68
368.89	0.00
369.09	0.00
369.28	25.75
369.48	0.00
369.68	0.00
369.87	2.34
370.07	0.00
370.27	67.88
370.47	37.45
370.66	135.75
370.86	205.97
371.06	194.26
371.25	201.29
371.45	140.43
371.65	217.67
371.84	105.32
372.04	163.84
372.24	149.79
372.44	175.54
372.63	173.20
372.83	337.04
373.03	142.77
373.22	212.99
373.42	196.60
373.62	189.58
373.81	224.69
374.01	156.82
374.21	231.71
374.40	184.90
374.60	241.08
374.79	227.03
374.99	210.65
375.19	163.84
375.38	215.33
375.58	191.92
375.78	224.69
375.97	276.18
376.17	243.42
376.37	241.08
376.56	166.18
376.76	184.90
376.95	180.22
377.15	234.05
377.35	334.70
377.54	271.50
377.74	215.33
377.93	234.05
378.13	299.59
378.33	180.22
378.52	229.37
378.72	236.39
378.91	238.73
379.11	131.07
379.31	248.10
379.50	58.51
379.70	360.44
379.89	220.01
380.09	222.35
380.28	234.05
380.48	234.05
380.68	266.82
380.87	177.88
381.07	166.18
381.26	327.68
381.46	184.90
381.65	252.78
381.85	189.58
382.04	180.22
382.24	243.42
382.43	220.01
382.63	182.56
382.83	177.88
383.02	149.79
383.22	170.86
383.41	271.50
383.61	187.24
383.80	245.76
384.00	234.05
384.19	215.33
384.39	222.35
384.58	182.56
384.78	175.54
384.97	220.01
385.17	271.50
385.36	196.60
385.56	212.99
385.75	227.03
385.95	189.58
386.14	292.57
386.34	191.92
386.53	301.93
386.72	180.22
386.92	212.99
387.11	301.93
387.31	205.97
387.50	227.03
387.70	250.44
387.89	159.16
388.09	222.35
388.28	290.23
388.48	234.05
388.67	269.16
388.86	273.84
389.06	259.80
389.25	299.59
389.45	362.78
389.64	311.29
389.84	299.59
390.03	322.99
390.22	248.10
390.42	259.80
390.61	362.78
390.81	337.04
391.00	308.95
391.19	334.70
391.39	341.72
391.58	269.16
391.78	210.65
391.97	273.84
392.16	234.05
392.36	259.80
392.55	264.48
392.75	147.45
392.94	210.65
393.13	163.84
393.33	196.60
393.52	201.29
393.71	280.86
393.91	234.05
394.10	283.20
394.29	320.65
394.49	325.33
394.68	283.20
394.88	297.25
395.07	313.63
395.26	285.55
395.46	205.97
395.65	330.02
395.84	212.99
396.04	306.61
396.23	229.37
396.42	205.97
396.62	255.12
396.81	196.60
397.00	198.95
397.19	301.93
397.39	276.18
397.58	327.68
397.77	306.61
397.97	388.53
398.16	386.19
398.35	372.15
398.55	344.06
398.74	315.97
398.93	479.81
399.12	397.89
399.32	451.72
399.51	337.04
399.70	440.02
399.90	477.47
400.09	418.96
400.28	421.30
400.47	379.17
400.67	404.91
400.86	526.62
401.05	430.66
401.24	454.06
401.44	444.70
401.63	470.45
401.82	409.59
402.01	397.89
402.21	433.00
402.40	402.57
402.59	517.26
402.78	388.53
402.97	489.17
403.17	458.74
403.36	404.91
403.55	407.25
403.74	470.45
403.93	512.58
404.13	580.45
404.32	566.41
404.51	545.34
404.70	512.58
404.89	475.13
405.09	524.28
405.28	433.00
405.47	414.27
405.66	400.23
405.85	444.70
406.05	393.21
406.24	407.25
406.43	435.34
406.62	372.15
406.81	418.96
407.00	376.83
407.20	449.38
407.39	409.59
407.58	418.96
407.77	395.55
407.96	458.74
408.15	444.70
408.34	449.38
408.54	496.19
408.73	566.41
408.92	442.36
409.11	477.47
409.30	435.34
409.49	360.44
409.68	353.42
409.87	447.04
410.07	512.58
410.26	425.98
410.45	430.66
410.64	482.15
410.83	456.40
411.02	496.19
411.21	479.81
411.40	456.40
411.59	531.30
411.78	517.26
411.98	442.36
412.17	486.83
412.36	512.58
412.55	519.60
412.74	526.62
412.93	552.37
413.12	451.72
413.31	599.18
413.50	596.84
413.69	514.92
413.88	543.00
414.07	440.02
414.26	454.06
414.45	461.09
414.64	531.30
414.83	521.94
415.02	617.90
415.22	580.45
415.41	533.64
415.60	491.51
415.79	571.09
415.98	573.43
416.17	566.41
416.36	540.66
416.55	561.73
416.74	559.39
416.93	535.98
417.12	482.15
417.31	585.13
417.50	524.28
417.69	580.45
417.88	594.50
418.07	531.30
418.26	517.26
418.45	634.29
418.64	559.39
418.83	510.24
419.02	648.33
419.21	580.45
419.39	559.39
419.58	482.15
419.77	629.60
419.96	547.69
420.15	554.71
420.34	531.30
420.53	566.41
420.72	578.11
420.91	617.90
421.10	566.41
421.29	664.71
421.48	592.16
421.67	629.60
421.86	606.20
422.05	526.62
422.24	486.83
422.43	538.32
422.61	510.24
422.80	573.43
422.99	547.69
423.18	486.83
423.37	468.11
423.56	566.41
423.75	517.26
423.94	580.45
424.13	557.05
424.32	503.22
424.50	524.28
424.69	587.47
424.88	631.94
425.07	519.60
425.26	538.32
425.45	535.98
425.64	500.87
425.83	519.60
426.01	587.47
426.20	550.03
426.39	547.69
426.58	489.17
426.77	519.60
426.96	538.32
427.15	458.74
427.33	521.94
427.52	543.00
427.71	475.13
427.90	514.92
428.09	547.69
428.28	559.39
428.46	575.77
428.65	484.49
428.84	564.07
429.03	554.71
429.22	489.17
429.40	475.13
429.59	472.79
429.78	449.38
429.97	433.00
430.16	367.46
430.34	358.10
430.53	425.98
430.72	425.98
430.91	491.51
431.10	533.64
431.28	587.47
431.47	631.94
431.66	561.73
431.85	631.94
432.03	550.03
432.22	547.69
432.41	573.43
432.60	526.62
432.79	587.47
432.97	638.97
433.16	631.94
433.35	613.22
433.54	573.43
433.72	540.66
433.91	477.47
434.10	622.58
434.28	648.33
434.47	620.24
434.66	624.92
434.85	650.67
435.03	697.48
435.22	1088.35
435.41	1551.78
435.59	1703.91
435.78	1355.17
435.97	945.58
436.16	861.32
436.34	638.97
436.53	578.11
436.72	648.33
436.90	575.77
437.09	603.86
437.28	613.22
437.46	648.33
437.65	599.18
437.84	575.77
438.02	603.86
438.21	617.90
438.40	540.66
438.58	601.52
438.77	667.05
438.96	674.07
439.14	620.24
439.33	704.50
439.52	674.07
439.70	667.05
439.89	620.24
440.08	657.69
440.26	650.67
440.45	678.76
440.63	655.35
440.82	669.39
441.01	692.80
441.19	657.69
441.38	711.52
441.57	739.61
441.75	697.48
441.94	767.70
442.12	697.48
442.31	683.44
442.50	690.46
442.68	674.07
442.87	657.69
443.05	702.16
443.24	774.72
443.43	800.46
443.61	709.18
443.80	793.44
443.98	760.67
444.17	653.01
444.35	784.08
444.54	732.59
444.73	751.31
444.91	807.48
445.10	748.97
445.28	723.23
445.47	685.78
445.65	622.58
445.84	730.25
446.02	636.63
446.21	620.24
446.39	683.44
446.58	702.16
446.77	681.10
446.95	734.93
447.14	748.97
447.32	812.17
447.51	699.82
447.69	709.18
447.88	786.42
448.06	730.25
448.25	702.16
448.43	755.99
448.62	732.59
448.80	737.27
448.99	781.74
449.17	667.05
449.36	702.16
449.54	755.99
449.73	732.59
449.91	793.44
450.10	847.27
450.28	854.30
450.46	725.57
450.65	755.99
450.83	713.86
451.02	809.83
451.20	678.76
451.39	716.20
451.57	763.01
451.76	713.86
451.94	741.95
452.13	732.59
452.31	753.65
452.49	709.18
452.68	720.88
452.86	704.50
453.05	688.12
453.23	718.54
453.42	685.78
453.60	634.29
453.78	730.25
453.97	765.36
454.15	760.67
454.34	704.50
454.52	784.08
454.70	704.50
454.89	641.31
455.07	702.16
455.26	692.80
455.44	744.29
455.62	777.06
455.81	791.10
455.99	781.74
456.17	744.29
456.36	777.06
456.54	774.72
456.73	746.63
456.91	779.40
457.09	875.36
457.28	830.89
457.46	777.06
457.64	809.83
457.83	830.89
458.01	641.31
458.19	727.91
458.38	763.01
458.56	753.65
458.74	758.33
458.93	777.06
459.11	760.67
459.29	755.99
459.48	699.82
459.66	772.38
459.84	763.01
460.03	849.61
460.21	772.38
460.39	758.33
460.57	800.46
460.76	755.99
460.94	767.70
461.12	868.34
461.31	812.17
461.49	723.23
461.67	760.67
461.85	821.53
462.04	819.19
462.22	924.51
462.40	837.91
462.59	861.32
462.77	784.08
462.95	812.17
463.13	741.95
463.32	842.59
463.50	814.51
463.68	765.36
463.86	805.14
464.05	716.20
464.23	763.01
464.41	800.46
464.59	711.52
464.78	793.44
464.96	791.10
465.14	830.89
465.32	720.88
465.50	863.66
465.69	861.32
465.87	821.53
466.05	840.25
466.23	727.91
466.41	702.16
466.60	767.70
466.78	774.72
466.96	816.85
467.14	807.48
467.32	763.01
467.51	802.80
467.69	748.97
467.87	814.51
468.05	819.19
468.23	812.17
468.41	828.55
468.60	791.10
468.78	805.14
468.96	868.34
469.14	805.14
469.32	767.70
469.50	744.29
469.69	791.10
469.87	758.33
470.05	861.32
470.23	739.61
470.41	821.53
470.59	730.25
470.77	730.25
470.95	861.32
471.14	858.98
471.32	695.14
471.50	866.00
471.68	793.44
471.86	891.74
472.04	891.74
472.22	833.23
472.40	732.59
472.58	727.91
472.77	868.34
472.95	779.40
473.13	940.90
473.31	889.40
473.49	786.42
473.67	788.76
473.85	894.08
474.03	894.08
474.21	896.43
474.39	912.81
474.57	856.64
474.75	945.58
474.93	903.45
475.12	854.30
475.30	882.38
475.48	952.60
475.66	798.12
475.84	786.42
476.02	877.70
476.20	851.96
476.38	837.91
476.56	884.72
476.74	894.08
476.92	908.13
477.10	926.85
477.28	976.00
477.46	854.30
477.64	873.02
477.82	917.49
478.00	926.85
478.18	947.92
478.36	901.11
478.54	959.62
478.72	912.81
478.90	950.26
479.08	966.64
479.26	926.85
479.44	950.26
479.62	929.19
479.80	971.32
479.98	861.32
480.16	903.45
480.34	943.24
480.52	957.28
480.70	985.37
480.88	968.98
481.06	1067.28
481.24	966.64
481.41	966.64
481.59	994.73
481.77	1034.52
481.95	1018.13
482.13	961.96
482.31	971.32
482.49	985.37
482.67	964.30
482.85	1050.90
483.03	1069.62
483.21	1144.52
483.39	1022.81
483.57	1013.45
483.74	1130.48
483.92	1174.95
484.10	1104.73
484.28	1114.10
484.46	1174.95
484.64	1249.85
484.82	1156.22
485.00	1144.52
485.18	1163.25
485.35	1118.78
485.53	1013.45
485.71	987.71
485.89	1032.18
486.07	919.83
486.25	1144.52
486.43	1064.94
486.61	1144.52
486.78	1107.07
486.96	1177.29
487.14	1235.80
487.32	1170.27
487.50	1163.25
487.68	1233.46
487.85	1235.80
488.03	1273.25
488.21	1287.29
488.39	1207.72
488.57	1233.46
488.75	1212.40
488.92	1390.28
489.10	1280.27
489.28	1394.96
489.46	1252.19
489.64	1348.15
489.81	1280.27
489.99	1352.83
490.17	1427.73
490.35	1364.53
490.53	1413.68
490.70	1310.70
490.88	1256.87
491.06	1299.00
491.24	1355.17
491.41	1366.87
491.59	1224.10
491.77	1284.95
491.95	1247.51
492.13	1287.29
492.30	1252.19
492.48	1235.80
492.66	1277.93
492.84	1380.92
493.01	1392.62
493.19	1306.02
493.37	1350.49
493.54	1364.53
493.72	1282.61
493.90	1334.11
494.08	1453.47
494.25	1441.77
494.43	1406.66
494.61	1481.56
494.79	1427.73
494.96	1406.66
495.14	1376.24
495.32	1413.68
495.49	1378.58
495.67	1385.60
495.85	1432.41
496.02	1373.89
496.20	1533.05
496.38	1387.94
496.55	1469.86
496.73	1444.11
496.91	1341.13
497.09	1439.43
497.26	1526.03
497.44	1474.54
497.62	1418.36
497.79	1376.24
497.97	1345.81
498.14	1341.13
498.32	1465.18
498.50	1411.34
498.67	1373.89
498.85	1472.20
499.03	1430.07
499.20	1423.05
499.38	1383.26
499.56	1523.69
499.73	1465.18
499.91	1387.94
500.08	1401.98
500.26	1362.19
500.44	1315.38
500.61	1409.00
500.79	1331.76
500.97	1287.29
501.14	1369.21
501.32	1355.17
501.49	1385.60
501.67	1331.76
501.84	1310.70
502.02	1390.28
502.20	1350.49
502.37	1301.34
502.55	1345.81
502.72	1277.93
502.90	1416.02
503.07	1423.05
503.25	1327.08
503.43	1329.42
503.60	1294.32
503.78	1130.48
503.95	1245.16
504.13	1336.45
504.30	1366.87
504.48	1441.77
504.65	1378.58
504.83	1437.09
505.01	1350.49
505.18	1425.39
505.36	1446.45
505.53	1500.28
505.71	1476.88
505.88	1519.01
506.06	1390.28
506.23	1462.83
506.41	1411.34
506.58	1413.68
506.76	1406.66
506.93	1493.26
507.11	1369.21
507.28	1390.28
507.46	1322.40
507.63	1373.89
507.81	1390.28
507.98	1350.49
508.16	1357.51
508.33	1394.96
508.50	1467.52
508.68	1430.07
508.85	1479.22
509.03	1516.67
509.20	1551.78
509.38	1472.20
509.55	1390.28
509.73	1479.22
509.90	1537.73
510.08	1373.89
510.25	1561.14
510.42	1535.39
510.60	1469.86
510.77	1488.58
510.95	1521.35
511.12	1357.51
511.30	1504.96
511.47	1483.90
511.64	1561.14
511.82	1460.49
511.99	1434.75
512.17	1425.39
512.34	1509.65
512.51	1507.30
512.69	1409.00
512.86	1462.83
513.04	1488.58
513.21	1514.33
513.38	1453.47
513.56	1366.87
513.73	1387.94
513.90	1385.60
514.08	1439.43
514.25	1369.21
514.43	1549.43
514.60	1334.11
514.77	1502.62
514.95	1455.81
515.12	1430.07
515.29	1483.90
515.47	1406.66
515.64	1467.52
515.81	1514.33
515.99	1465.18
516.16	1507.30
516.33	1306.02
516.51	1254.53
516.68	1249.85
516.85	1174.95
517.03	1228.78
517.20	1355.17
517.37	1441.77
517.54	1469.86
517.72	1490.92
517.89	1261.55
518.06	1231.12
518.24	1296.66
518.41	1458.15
518.58	1490.92
518.75	1352.83
518.93	1371.55
519.10	1425.39
519.27	1547.09
519.45	1427.73
519.62	1460.49
519.79	1465.18
519.96	1437.09
520.14	1423.05
520.31	1481.56
520.48	1493.26
520.65	1511.99
520.83	1455.81
521.00	1540.07
521.17	1397.30
521.34	1430.07
521.52	1472.20
521.69	1446.45
521.86	1535.39
522.03	1533.05
522.20	1516.67
522.38	1423.05
522.55	1432.41
522.72	1324.74
522.89	1378.58
523.07	1516.67
523.24	1500.28
523.41	1488.58
523.58	1528.37
523.75	1500.28
523.92	1544.75
524.10	1598.59
524.27	1577.52
524.44	1547.09
524.61	1490.92
524.78	1502.62
524.96	1535.39
525.13	1593.90
525.30	1530.71
525.47	1600.93
525.64	1467.52
525.81	1425.39
525.98	1430.07
526.16	1392.62
526.33	1345.81
526.50	1289.64
526.67	1245.16
526.84	1397.30
527.01	1320.06
527.18	1420.71
527.36	1551.78
527.53	1526.03
527.70	1647.74
527.87	1364.53
528.04	1530.71
528.21	1481.56
528.38	1500.28
528.55	1399.64
528.72	1549.43
528.89	1650.08
529.07	1652.42
529.24	1500.28
529.41	1465.18
529.58	1528.37
529.75	1448.79
529.92	1521.35
530.09	1502.62
530.26	1607.95
530.43	1614.97
530.60	1526.03
530.77	1591.56
530.94	1586.88
531.11	1603.27
531.28	1558.80
531.46	1617.31
531.63	1645.40
531.80	1547.09
531.97	1495.60
532.14	1469.86
532.31	1446.45
532.48	1437.09
532.65	1437.09
532.82	1467.52
532.99	1607.95
533.16	1558.80
533.33	1549.43
533.50	1612.63
533.67	1694.55
533.84	1533.05
534.01	1509.65
534.18	1521.35
534.35	1556.46
534.52	1514.33
534.69	1614.97
534.86	1584.54
535.03	1610.29
535.20	1626.67
535.37	1624.33
535.54	1631.35
535.71	1540.07
535.88	1579.86
536.05	1516.67
536.22	1519.01
536.38	1528.37
536.55	1638.38
536.72	1598.59
536.89	1469.86
537.06	1593.90
537.23	1650.08
537.40	1647.74
537.57	1720.29
537.74	1645.40
537.91	1624.33
538.08	1685.19
538.25	1717.95
538.42	1593.90
538.59	1788.17
538.75	1621.99
538.92	1626.67
539.09	1661.78
539.26	1717.95
539.43	1748.38
539.60	1722.63
539.77	1701.57
539.94	1774.13
540.11	1837.32
540.28	1858.39
540.44	1867.75
540.61	1837.32
540.78	2038.61
540.95	2022.22
541.12	2263.30
541.29	2434.16
541.46	2389.69
541.62	2518.42
541.79	2459.90
541.96	2413.09
542.13	2363.94
542.30	2331.17
542.47	2387.35
542.63	2155.63
542.80	2272.66
542.97	2267.98
543.14	2228.19
543.31	2260.96
543.48	2279.68
543.64	2132.23
543.81	2335.85
543.98	2310.11
544.15	2200.10
544.32	2291.38
544.48	2230.53
544.65	2232.87
544.82	2239.89
544.99	2195.42
545.16	2218.83
545.32	2289.04
545.49	2848.43
545.66	3721.45
545.83	4390.84
546.00	3854.86
546.16	3169.09
546.33	2623.74
546.50	2370.96
546.67	2136.91
546.83	2040.95
547.00	1959.03
547.17	2005.84
547.34	1968.39
547.50	1998.82
547.67	1933.28
547.84	1949.67
548.00	2008.18
548.17	1851.36
548.34	1952.01
548.51	1884.13
548.67	1856.04
548.84	1860.73
549.01	1916.90
549.18	1732.00
549.34	1877.11
549.51	1792.85
549.68	1774.13
549.84	1659.44
550.01	1666.46
550.18	1715.61
550.34	1757.74
550.51	1614.97
550.68	1795.19
550.84	1647.74
551.01	1629.01
551.18	1652.42
551.34	1629.01
551.51	1577.52
551.68	1666.46
551.84	1643.06
552.01	1558.80
552.18	1626.67
552.34	1568.16
552.51	1582.20
552.68	1624.33
552.84	1603.27
553.01	1565.82
553.18	1584.54
553.34	1629.01
553.51	1509.65
553.67	1547.09
553.84	1645.40
554.01	1554.12
554.17	1612.63
554.34	1624.33
554.51	1444.11
554.67	1500.28
554.84	1465.18
555.00	1547.09
555.17	1593.90
555.33	1575.18
555.50	1511.99
555.67	1474.54
555.83	1437.09
556.00	1409.00
556.16	1568.16
556.33	1320.06
556.50	1371.55
556.66	1413.68
556.83	1427.73
556.99	1416.02
557.16	1547.09
557.32	1420.71
557.49	1434.75
557.65	1544.75
557.82	1479.22
557.98	1350.49
558.15	1390.28
558.32	1331.76
558.48	1303.68
558.65	1294.32
558.81	1301.34
558.98	1343.47
559.14	1399.64
559.31	1387.94
559.47	1413.68
559.64	1341.13
559.80	1399.64
559.97	1357.51
560.13	1343.47
560.30	1317.72
560.46	1366.87
560.63	1324.74
560.79	1441.77
560.96	1479.22
561.12	1385.60
561.29	1310.70
561.45	1371.55
561.61	1401.98
561.78	1483.90
561.94	1378.58
562.11	1331.76
562.27	1317.72
562.44	1369.21
562.60	1380.92
562.77	1362.19
562.93	1411.34
563.10	1427.73
563.26	1462.83
563.42	1390.28
563.59	1345.81
563.75	1334.11
563.92	1348.15
564.08	1355.17
564.24	1378.58
564.41	1357.51
564.57	1289.64
564.74	1355.17
564.90	1469.86
565.07	1385.60
565.23	1287.29
565.39	1277.93
565.56	1343.47
565.72	1252.19
565.88	1226.44
566.05	1341.13
566.21	1270.91
566.38	1334.11
566.54	1284.95
566.70	1299.00
566.87	1322.40
567.03	1322.40
567.19	1310.70
567.36	1341.13
567.52	1338.79
567.68	1385.60
567.85	1341.13
568.01	1268.57
568.17	1247.51
568.34	1219.42
568.50	1177.29
568.66	1198.35
568.83	1280.27
568.99	1212.40
569.15	1170.27
569.32	1294.32
569.48	1214.74
569.64	1249.85
569.81	1310.70
569.97	1299.00
570.13	1322.40
570.30	1221.76
570.46	1259.21
570.62	1156.22
570.78	1135.16
570.95	1158.57
571.11	1179.63
571.27	1259.21
571.43	1275.59
571.60	1217.08
571.76	1151.54
571.92	1228.78
572.09	1217.08
572.25	1259.21
572.41	1198.35
572.57	1310.70
572.74	1310.70
572.90	1221.76
573.06	1235.80
573.22	1210.06
573.38	1249.85
573.55	1228.78
573.71	1263.89
573.87	1310.70
574.03	1217.08
574.20	1313.04
574.36	1186.65
574.52	1291.98
574.68	1214.74
574.84	1217.08
575.01	1177.29
575.17	1270.91
575.33	1261.55
575.49	1245.16
575.65	1266.23
575.82	1184.31
575.98	1263.89
576.14	1184.31
576.30	1373.89
576.46	1479.22
576.62	1657.10
576.79	1748.38
576.95	1596.25
577.11	1373.89
577.27	1348.15
577.43	1364.53
577.59	1203.04
577.75	1259.21
577.92	1224.10
578.08	1233.46
578.24	1191.33
578.40	1366.87
578.56	1502.62
578.72	1671.14
578.88	1638.38
579.04	1617.31
579.21	1446.45
579.37	1322.40
579.53	1345.81
579.69	1343.47
579.85	1387.94
580.01	1446.45
580.17	1369.21
580.33	1371.55
580.49	1284.95
580.65	1329.42
580.82	1214.74
580.98	1249.85
581.14	1322.40
581.30	1383.26
581.46	1217.08
581.62	1341.13
581.78	1355.17
581.94	1397.30
582.10	1392.62
582.26	1376.24
582.42	1500.28
582.58	1357.51
582.74	1392.62
582.90	1465.18
583.06	1371.55
583.22	1352.83
583.38	1364.53
583.54	1390.28
583.70	1371.55
583.86	1343.47
584.02	1371.55
584.18	1444.11
584.34	1437.09
584.50	1418.36
584.66	1523.69
584.82	1357.51
584.98	1387.94
585.14	1413.68
585.30	1322.40
585.46	1282.61
585.62	1270.91
585.78	1362.19
585.94	1249.85
586.10	1233.46
586.26	1352.83
586.42	1390.28
586.58	1444.11
586.74	1497.94
586.90	1500.28
587.06	1495.60
587.22	1526.03
587.38	1474.54
587.54	1394.96
587.70	1338.79
587.86	1188.99
588.02	1137.50
588.18	1191.33
588.34	1093.03
588.49	1086.01
588.65	1097.71
588.81	1025.15
588.97	1046.22
589.13	926.85
589.29	873.02
589.45	978.34
589.61	1055.58
589.77	1104.73
589.93	1146.86
590.08	1142.18
590.24	1137.50
590.40	1095.37
590.56	1170.27
590.72	1067.28
590.88	1111.75
591.04	1060.26
591.20	1121.12
591.35	1156.22
591.51	1151.54
591.67	1018.13
591.83	1074.31
591.99	1188.99
592.15	1174.95
592.31	1266.23
592.46	1100.05
592.62	1301.34
592.78	1350.49
592.94	1317.72
593.10	1221.76
593.26	1238.14
593.41	1252.19
593.57	1196.01
593.73	1219.42
593.89	1149.20
594.05	1090.69
594.20	971.32
594.36	1100.05
594.52	1039.20
594.68	938.55
594.84	1050.90
594.99	1043.88
595.15	1160.91
595.31	1088.35
595.47	1125.80
595.62	1097.71
595.78	1188.99
595.94	1146.86
596.10	1093.03
596.25	1128.14
596.41	985.37
596.57	1022.81
596.73	1153.88
596.88	1137.50
597.04	1125.80
597.20	1078.99
597.36	1032.18
597.51	1100.05
597.67	1111.75
597.83	1102.39
597.99	1179.63
598.14	1205.38
598.30	1163.25
598.46	1060.26
598.61	1137.50
598.77	1135.16
598.93	1226.44
599.09	1128.14
599.24	1172.61
599.40	1158.57
599.56	1177.29
599.71	1256.87
599.87	1128.14
600.03	1191.33
600.18	1128.14
600.34	1109.41
600.50	1046.22
600.65	1123.46
600.81	1205.38
600.97	1156.22
601.12	1156.22
601.28	1102.39
601.44	1088.35
601.59	1067.28
601.75	1163.25
601.91	1130.48
602.06	1107.07
602.22	1128.14
602.37	1050.90
602.53	1025.15
602.69	1053.24
