SpectraSuite Data File
++++++++++++++++++++++++++++++++++++
Date: Fri Oct 04 11:42:17 GMT-05:00 2013
User: price-jones
Dark Spectrum Present: No
Reference Spectrum Present: No
Number of Sampled Component Spectra: 1
Spectrometers: USB2+H05261
Integration Time (usec): 100000 (USB2+H05261)
Spectra Averaged: 1 (USB2+H05261)
Boxcar Smoothing: 0 (USB2+H05261)
Correct for Electrical Dark: No (USB2+H05261)
Strobe/Lamp Enabled: No (USB2+H05261)
Correct for Detector Non-linearity: No (USB2+H05261)
Correct for Stray Light: No (USB2+H05261)
Number of Pixels in Processed Spectrum: 2048
>>>>>Begin Processed Spectral Data<<<<<
365.73	74.90
365.92	74.90
366.12	74.90
366.32	0.00
366.52	0.00
366.72	0.00
366.91	0.00
367.11	0.00
367.31	0.00
367.51	0.00
367.70	0.00
367.90	0.00
368.10	0.00
368.30	0.00
368.49	0.00
368.69	18.72
368.89	0.00
369.09	0.00
369.28	0.00
369.48	0.00
369.68	35.11
369.87	9.36
370.07	18.72
370.27	0.00
370.47	173.20
370.66	585.13
370.86	589.82
371.06	751.31
371.25	777.06
371.45	653.01
371.65	727.91
371.84	657.69
372.04	624.92
372.24	688.12
372.44	711.52
372.63	706.84
372.83	688.12
373.03	674.07
373.22	613.22
373.42	603.86
373.62	725.57
373.81	699.82
374.01	770.04
374.21	669.39
374.40	634.29
374.60	744.29
374.79	730.25
374.99	795.78
375.19	814.51
375.38	882.38
375.58	821.53
375.78	781.74
375.97	732.59
376.17	856.64
376.37	784.08
376.56	774.72
376.76	912.81
376.95	936.21
377.15	1001.75
377.35	978.34
377.54	1057.92
377.74	1018.13
377.93	1083.67
378.13	1081.33
378.33	1006.43
378.52	997.07
378.72	936.21
378.91	896.43
379.11	896.43
379.31	908.13
379.50	816.85
379.70	851.96
379.89	1029.84
380.09	983.02
380.28	1020.47
380.48	971.32
380.68	1041.54
380.87	973.66
381.07	933.87
381.26	971.32
381.46	861.32
381.65	802.80
381.85	856.64
382.04	755.99
382.24	744.29
382.43	702.16
382.63	587.47
382.83	727.91
383.02	671.73
383.22	678.76
383.41	704.50
383.61	699.82
383.80	802.80
384.00	887.06
384.19	968.98
384.39	999.41
384.58	964.30
384.78	985.37
384.97	1064.94
385.17	954.94
385.36	931.53
385.56	873.02
385.75	901.11
385.95	1006.43
386.14	1064.94
386.34	1034.52
386.53	1055.58
386.72	943.24
386.92	994.73
387.11	1048.56
387.31	1041.54
387.50	912.81
387.70	976.00
387.89	1046.22
388.09	978.34
388.28	966.64
388.48	1055.58
388.67	1121.12
388.86	1205.38
389.06	1273.25
389.25	1294.32
389.45	1313.04
389.64	1287.29
389.84	1320.06
390.03	1226.44
390.22	1291.98
390.42	1308.36
390.61	1390.28
390.81	1488.58
391.00	1479.22
391.19	1607.95
391.39	1401.98
391.58	1411.34
391.78	1317.72
391.97	1184.31
392.16	1165.59
392.36	1100.05
392.55	933.87
392.75	767.70
392.94	671.73
393.13	718.54
393.33	638.97
393.52	851.96
393.71	1053.24
393.91	1181.97
394.10	1303.68
394.29	1380.92
394.49	1373.89
394.68	1474.54
394.88	1540.07
395.07	1612.63
395.26	1490.92
395.46	1425.39
395.65	1465.18
395.84	1268.57
396.04	1224.10
396.23	933.87
396.42	760.67
396.62	809.83
396.81	880.04
397.00	1109.41
397.19	1313.04
397.39	1551.78
397.58	1589.22
397.77	1799.87
397.97	1881.79
398.16	1811.57
398.35	1858.39
398.55	1907.54
398.74	2003.50
398.93	2038.61
399.12	2090.10
399.32	1884.13
399.51	1984.77
399.70	2204.78
399.90	2101.80
400.09	2134.57
400.28	2024.56
400.47	2031.58
400.67	2162.66
400.86	2279.68
401.05	2244.57
401.24	2284.36
401.44	2399.05
401.63	2256.28
401.82	2277.34
402.01	2282.02
402.21	2239.89
402.40	2279.68
402.59	2317.13
402.78	2136.91
402.97	2076.06
403.17	2146.27
403.36	2385.01
403.55	2359.26
403.74	2450.54
403.93	2356.92
404.13	2242.23
404.32	2284.36
404.51	2167.34
404.70	2375.64
404.89	2314.79
405.09	2413.09
405.28	2204.78
405.47	2235.21
405.66	2244.57
405.85	2183.72
406.05	2179.04
406.24	2324.15
406.43	2244.57
406.62	2298.41
406.81	2284.36
407.00	2305.43
407.20	2218.83
407.39	2385.01
407.58	2340.54
407.77	2523.10
407.96	2389.69
408.15	2450.54
408.34	2525.44
408.54	2712.68
408.73	2614.38
408.92	2532.46
409.11	2677.57
409.30	2401.39
409.49	2249.25
409.68	2165.00
409.87	2148.61
410.07	2176.70
410.26	2401.39
410.45	2312.45
410.64	2544.16
410.83	2651.83
411.02	2752.47
411.21	2878.86
411.40	2729.06
411.59	2710.34
411.78	2626.08
411.98	2658.85
412.17	2740.77
412.36	2623.74
412.55	2768.85
412.74	2658.85
412.93	2710.34
413.12	2619.06
413.31	2686.94
413.50	2836.73
413.69	2930.35
413.88	2958.44
414.07	2712.68
414.26	2895.24
414.45	2939.71
414.64	2796.94
414.83	2796.94
415.02	2841.41
415.22	2806.30
415.41	2972.48
415.60	2850.77
415.79	3012.27
415.98	3192.49
416.17	3087.17
416.36	3014.61
416.55	2995.89
416.74	2895.24
416.93	2818.00
417.12	2810.98
417.31	2864.82
417.50	2853.11
417.69	2946.73
417.88	3023.97
418.07	2993.55
418.26	2878.86
418.45	2829.71
418.64	3000.57
418.83	3098.87
419.02	3141.00
419.21	3185.47
419.39	2813.32
419.58	2773.53
419.77	2796.94
419.96	2855.45
420.15	3082.49
420.34	3038.02
420.53	3258.03
420.72	3276.75
420.91	3318.88
421.10	3222.92
421.29	3180.79
421.48	3077.80
421.67	3302.50
421.86	3138.66
422.05	3105.89
422.24	2710.34
422.43	2684.59
422.61	2876.52
422.80	3063.76
422.99	3155.04
423.18	3070.78
423.37	2925.67
423.56	2960.78
423.75	2984.18
423.94	3028.65
424.13	2888.22
424.32	2932.69
424.50	3026.31
424.69	2883.54
424.88	3009.93
425.07	2986.52
425.26	2946.73
425.45	2935.03
425.64	2871.84
425.83	2822.69
426.01	2972.48
426.20	3009.93
426.39	2958.44
426.58	2832.05
426.77	2649.49
426.96	2581.61
427.15	2661.19
427.33	2834.39
427.52	2825.03
427.71	2925.67
427.90	2974.82
428.09	2890.56
428.28	2841.41
428.46	2810.98
428.65	2801.62
428.84	2841.41
429.03	3002.91
429.22	2771.19
429.40	2569.91
429.59	2375.64
429.78	2143.93
429.97	2143.93
430.16	2218.83
430.34	2193.08
430.53	2129.89
430.72	2321.81
430.91	2342.88
431.10	2729.06
431.28	3056.74
431.47	3410.16
431.66	3435.91
431.85	3136.32
432.03	2881.20
432.22	2864.82
432.41	3000.57
432.60	3178.45
432.79	3351.65
432.97	3410.16
433.16	3382.07
433.35	3082.49
433.54	2839.07
433.72	2705.66
433.91	2715.02
434.10	2946.73
434.28	3185.47
434.47	3300.16
434.66	3396.12
434.85	3248.66
435.03	3227.60
435.22	3461.65
435.41	3941.46
435.59	4023.38
435.78	3740.18
435.97	3702.73
436.16	3576.34
436.34	3496.76
436.53	3384.41
436.72	3478.04
436.90	3461.65
437.09	3300.16
437.28	3229.94
437.46	3309.52
437.65	3342.28
437.84	3157.38
438.02	2883.54
438.21	2991.20
438.40	2972.48
438.58	3351.65
438.77	3389.10
438.96	3449.95
439.14	3452.29
439.33	3644.21
439.52	3571.66
439.70	3609.11
439.89	3435.91
440.08	3342.28
440.26	3335.26
440.45	3616.13
440.63	3726.13
440.82	4058.49
441.01	3861.88
441.19	3698.05
441.38	3962.53
441.57	4044.45
441.75	3988.27
441.94	4131.05
442.12	3960.19
442.31	4025.72
442.50	3999.98
442.68	3936.78
442.87	4032.74
443.05	3925.08
443.24	3946.14
443.43	4131.05
443.61	4210.62
443.80	4147.43
443.98	3967.21
444.17	3985.93
444.35	4187.22
444.54	4208.28
444.73	4142.75
444.91	4098.28
445.10	3889.97
445.28	3728.47
445.47	3765.92
445.65	3653.58
445.84	3770.60
446.02	3854.86
446.21	3936.78
446.39	4039.76
446.58	4035.08
446.77	4086.58
446.95	4109.98
447.14	4187.22
447.32	4215.30
447.51	4189.56
447.69	4098.28
447.88	4107.64
448.06	4079.55
448.25	4177.86
448.43	4191.90
448.62	3985.93
448.80	4109.98
448.99	3971.89
449.17	4212.96
449.36	4187.22
449.54	4280.84
449.73	4269.14
449.91	4456.38
450.10	4667.03
450.28	4573.41
450.46	4533.62
450.65	4601.49
450.83	4454.04
451.02	4271.48
451.20	4468.08
451.39	4362.76
451.57	4198.92
451.76	4442.34
451.94	4173.18
452.13	4337.01
452.31	3955.51
452.49	3960.19
452.68	3742.52
452.86	3922.74
453.05	4056.15
453.23	4208.28
453.42	4095.94
453.60	4329.99
453.78	4320.63
453.97	4404.89
454.15	4236.37
454.34	4161.47
454.52	4283.18
454.70	4231.69
454.89	4320.63
455.07	4098.28
455.26	4278.50
455.44	4414.25
455.62	4367.44
455.81	4505.53
455.99	4402.55
456.17	4432.97
456.36	4451.70
456.54	4542.98
456.73	4390.84
456.91	4615.54
457.09	4730.22
457.28	4561.70
457.46	4531.28
457.64	4571.07
457.83	4381.48
458.01	4313.61
458.19	4386.16
458.38	4393.19
458.56	4449.36
458.74	4542.98
458.93	4428.29
459.11	4355.74
459.29	4367.44
459.48	4325.31
459.66	4400.21
459.84	4435.32
460.03	4657.67
460.21	4507.87
460.39	4369.78
460.57	4695.11
460.76	4561.70
460.94	4697.46
461.12	4652.98
461.31	4660.01
461.49	4535.96
461.67	4648.30
461.85	4692.77
462.04	4709.16
462.22	4856.61
462.40	4802.78
462.59	4660.01
462.77	4690.43
462.95	4690.43
463.13	4676.39
463.32	4622.56
463.50	4674.05
463.68	4688.09
463.86	4648.30
464.05	4531.28
464.23	4374.46
464.41	4388.50
464.59	4283.18
464.78	4643.62
464.96	4454.04
465.14	4713.84
465.32	4592.13
465.50	4608.51
465.69	4734.90
465.87	4533.62
466.05	4535.96
466.23	4407.23
466.41	4257.43
466.60	4475.10
466.78	4442.34
466.96	4369.78
467.14	4456.38
467.32	4585.11
467.51	4587.45
467.69	4337.01
467.87	4629.58
468.05	4444.68
468.23	4535.96
468.41	4486.81
468.60	4601.49
468.78	4667.03
468.96	4660.01
469.14	4521.92
469.32	4713.84
469.50	4400.21
469.69	4566.39
469.87	4456.38
470.05	4290.20
470.23	4329.99
470.41	4376.80
470.59	4374.46
470.77	4428.29
470.95	4636.60
471.14	4552.34
471.32	4475.10
471.50	4858.95
471.68	4819.16
471.86	4978.32
472.04	4884.70
472.22	4851.93
472.40	4744.27
472.58	4636.60
472.77	4615.54
472.95	4713.84
473.13	4868.31
473.31	4798.10
473.49	4720.86
473.67	4755.97
473.85	4954.91
474.03	4999.38
474.21	5001.72
474.39	5083.64
474.57	5104.71
474.75	5081.30
474.93	4943.21
475.12	4837.89
475.30	4964.28
475.48	4870.65
475.66	4968.96
475.84	4971.30
476.02	5046.20
476.20	4957.25
476.38	4823.84
476.56	5095.35
476.74	5029.81
476.92	5097.69
477.10	5114.07
477.28	5334.08
477.46	5453.45
477.64	5441.75
477.82	5327.06
478.00	5425.36
478.18	5284.93
478.36	5266.21
478.54	5413.66
478.72	5408.98
478.90	5614.95
479.08	5652.39
479.26	5764.74
479.44	5755.38
479.62	5717.93
479.80	5638.35
479.98	5727.29
480.16	5720.27
480.34	5696.86
480.52	5841.98
480.70	5823.25
480.88	5701.54
481.06	5837.30
481.24	5804.53
481.41	5987.09
481.59	6162.63
481.77	6136.88
481.95	6071.35
482.13	6052.63
482.31	5989.43
482.49	6274.98
482.67	6235.19
482.85	6223.48
483.03	6253.91
483.21	6392.00
483.39	6422.43
483.57	6171.99
483.74	6171.99
483.92	6155.61
484.10	6242.21
484.28	6291.36
484.46	6480.94
484.64	6431.79
484.82	6459.88
485.00	6176.67
485.18	6274.98
485.35	6012.84
485.53	5591.54
485.71	5352.81
485.89	5015.77
486.07	5298.97
486.25	5671.12
486.43	6080.71
486.61	6036.24
486.78	6186.04
486.96	6033.90
487.14	6242.21
487.32	6375.62
487.50	6710.32
487.68	6822.66
487.85	7049.69
488.03	6906.92
488.21	6958.41
488.39	6642.44
488.57	6712.66
488.75	6544.14
488.92	6991.18
489.10	7005.22
489.28	7499.08
489.46	7456.95
489.64	7566.95
489.81	7548.23
489.99	7492.05
490.17	7382.05
490.35	7515.46
490.53	7581.00
490.70	7517.80
490.88	7449.93
491.06	7660.57
491.24	7531.84
491.41	7541.21
491.59	7180.76
491.77	6937.35
491.95	7145.66
492.13	7407.80
492.30	7545.89
492.48	7857.18
492.66	7976.55
492.84	7927.39
493.01	7999.95
493.19	7733.13
493.37	7831.43
493.54	7604.40
493.72	7747.17
493.90	7957.82
494.08	8320.60
494.25	8196.56
494.43	8655.30
494.61	8463.38
494.79	8624.87
494.96	8479.76
495.14	8236.35
495.32	8081.87
495.49	7955.48
495.67	8013.99
495.85	8372.10
496.02	8383.80
496.20	8648.28
496.38	8292.52
496.55	8498.49
496.73	8718.50
496.91	8568.70
497.09	8683.39
497.26	8938.51
497.44	8802.75
497.62	8332.31
497.79	8428.27
497.97	8063.15
498.14	7836.11
498.32	8121.66
498.50	8606.15
498.67	8718.50
498.85	8559.34
499.03	8760.63
499.20	8947.87
499.38	8826.16
499.56	8769.99
499.73	8805.10
499.91	8589.77
500.08	8402.52
500.26	8170.81
500.44	8222.30
500.61	8379.12
500.79	8432.95
500.97	8379.12
501.14	8283.16
501.32	8269.11
501.49	8168.47
501.67	8039.74
501.84	8571.04
502.02	8557.00
502.20	8531.25
502.37	8601.47
502.55	8606.15
502.72	8746.58
502.90	8938.51
503.07	8592.11
503.25	8456.36
503.43	8049.10
503.60	8086.55
503.78	7693.34
503.95	7969.52
504.13	8294.86
504.30	8711.47
504.48	8779.35
504.65	8690.41
504.83	8557.00
505.01	8690.41
505.18	8968.93
505.36	8975.95
505.53	8952.55
505.71	8980.64
505.88	9226.39
506.06	9092.98
506.23	8856.59
506.41	8676.37
506.58	8971.27
506.76	8720.84
506.93	8865.95
507.11	8676.37
507.28	9032.13
507.46	8596.79
507.63	8627.21
507.81	8292.52
507.98	8528.91
508.16	8636.58
508.33	8826.16
508.50	9025.11
508.68	9004.04
508.85	9462.79
509.03	9298.95
509.20	9369.16
509.38	9195.96
509.55	8926.80
509.73	8732.54
509.90	9088.30
510.08	9125.75
510.25	9291.93
510.42	8959.57
510.60	9135.11
510.77	9081.28
510.95	9420.66
511.12	9516.62
511.30	9504.92
511.47	9554.07
511.64	9671.09
511.82	9561.09
511.99	9170.22
512.17	9069.58
512.34	8950.21
512.51	8966.59
512.69	9060.21
512.86	9172.56
513.04	9046.17
513.21	9404.27
513.38	9298.95
513.56	8968.93
513.73	8814.46
513.90	8711.47
514.08	8844.88
514.25	8952.55
514.43	9085.96
514.60	9121.07
514.77	9050.85
514.95	9341.08
515.12	9055.53
515.29	9153.84
515.47	9284.91
515.64	9303.63
515.81	9254.48
515.99	9200.65
516.16	8718.50
516.33	8046.76
516.51	7623.12
516.68	7433.54
516.85	7503.76
517.03	7218.21
517.20	7992.93
517.37	8690.41
517.54	9156.18
517.72	8887.01
517.89	8308.90
518.06	7623.12
518.24	7758.88
518.41	8173.15
518.58	8868.29
518.75	8943.19
518.93	8800.41
519.10	8917.44
519.27	8954.89
519.45	8851.91
519.62	9188.94
519.79	9245.12
519.96	9146.81
520.14	9135.11
520.31	8788.71
520.48	8912.76
520.65	9011.06
520.83	9289.59
521.00	9348.10
521.17	9451.08
521.34	9118.73
521.52	9221.71
521.69	9446.40
521.86	9556.41
522.03	9664.07
522.20	9167.88
522.38	8739.56
522.55	8734.88
522.72	8966.59
522.89	8950.21
523.07	9088.30
523.24	9067.24
523.41	9413.63
523.58	9357.46
523.75	9706.20
523.92	9652.37
524.10	9570.45
524.27	9703.86
524.44	9579.81
524.61	9621.94
524.78	9493.21
524.96	9296.61
525.13	9483.85
525.30	9628.96
525.47	9500.23
525.64	9652.37
525.81	9334.06
525.98	9195.96
526.16	8760.63
526.33	8339.33
526.50	8105.28
526.67	8121.66
526.84	8198.90
527.01	8456.36
527.18	8683.39
527.36	8966.59
527.53	9315.33
527.70	9455.76
527.87	9303.63
528.04	9231.07
528.21	9217.03
528.38	9635.99
528.55	9832.59
528.72	9980.04
528.89	10029.20
529.07	9928.55
529.24	9633.64
529.41	9383.21
529.58	8994.68
529.75	9111.71
529.92	9504.92
530.09	9406.61
530.26	9731.95
530.43	9745.99
530.60	9909.83
530.77	9750.67
530.94	9926.21
531.11	9724.93
531.28	9654.71
531.46	9650.03
531.63	9734.29
531.80	9565.77
531.97	9570.45
532.14	9259.16
532.31	8812.12
532.48	8720.84
532.65	8664.66
532.82	8779.35
532.99	9036.81
533.16	9198.31
533.33	9579.81
533.50	9523.64
533.67	9322.35
533.84	9200.65
534.01	9238.09
534.18	9521.30
534.35	9399.59
534.52	9301.29
534.69	9549.39
534.86	9488.53
535.03	9554.07
535.20	9820.89
535.37	9734.29
535.54	10113.45
535.71	9760.03
535.88	9717.90
536.05	9570.45
536.22	9284.91
536.38	9315.33
536.55	9057.87
536.72	8997.02
536.89	8847.22
537.06	9195.96
537.23	9387.89
537.40	9331.72
537.57	9607.90
537.74	9500.23
537.91	9661.73
538.08	9439.38
538.25	9633.64
538.42	9579.81
538.59	9474.49
538.75	9350.44
538.92	9252.14
539.09	9282.56
539.26	9158.52
539.43	9137.45
539.60	9071.92
539.77	9011.06
539.94	9118.73
540.11	8919.78
540.28	8894.04
540.44	8706.79
540.61	8697.43
540.78	8978.30
540.95	9160.86
541.12	9357.46
541.29	9748.33
541.46	9617.26
541.62	9706.20
541.79	9383.21
541.96	9327.03
542.13	9233.41
542.30	9390.23
542.47	9537.68
542.63	9273.20
542.80	9369.16
542.97	9359.80
543.14	9219.37
543.31	9170.22
543.48	9322.35
543.64	9804.50
543.81	9865.36
543.98	9762.37
544.15	9518.96
544.32	9479.17
544.48	9497.89
544.65	9296.61
544.82	9439.38
544.99	9537.68
545.16	9575.13
545.32	9341.08
545.49	9844.29
545.66	10389.64
545.83	10401.34
546.00	9928.55
546.16	9504.92
546.33	9397.25
546.50	9114.05
546.67	9376.19
546.83	9221.71
547.00	9439.38
547.17	9270.86
547.34	9011.06
547.50	8840.20
547.67	9004.04
547.84	9151.49
548.00	8924.46
548.17	9338.74
548.34	9228.73
548.51	9235.75
548.67	9273.20
548.84	9315.33
549.01	9418.32
549.18	9109.36
549.34	9359.80
549.51	9296.61
549.68	9151.49
549.84	9198.31
550.01	9238.09
550.18	9254.48
550.34	9001.70
550.51	8943.19
550.68	9036.81
550.84	8980.64
551.01	8833.18
551.18	8861.27
551.34	8959.57
551.51	8842.54
551.68	9303.63
551.84	9231.07
552.01	9242.78
552.18	9170.22
552.34	8835.52
552.51	8781.69
552.68	8964.25
552.84	8699.77
553.01	9050.85
553.18	8931.48
553.34	9109.36
553.51	9088.30
553.67	9071.92
553.84	9254.48
554.01	8943.19
554.17	9011.06
554.34	8887.01
554.51	9235.75
554.67	9270.86
554.84	9015.74
555.00	9139.79
555.17	8922.12
555.33	8889.35
555.50	8985.32
555.67	8739.56
555.83	8882.33
556.00	8952.55
556.16	9004.04
556.33	8585.08
556.50	8643.60
556.66	8784.03
556.83	8437.63
556.99	8690.41
557.16	8781.69
557.32	8802.75
557.49	8854.25
557.65	8901.06
557.82	8674.03
557.98	8641.26
558.15	8472.74
558.32	8456.36
558.48	8128.68
558.65	8142.72
558.81	8098.25
558.98	8095.91
559.14	8395.50
559.31	8528.91
559.47	8500.83
559.64	8482.10
559.80	8278.47
559.97	8290.18
560.13	8578.06
560.30	8697.43
560.46	8699.77
560.63	8624.87
560.79	8793.39
560.96	8793.39
561.12	8308.90
561.29	8306.56
561.45	8138.04
561.61	8322.94
561.78	8465.72
561.94	8369.76
562.11	8463.38
562.27	8166.13
562.44	8411.89
562.60	8250.39
562.77	8393.16
562.93	8674.03
563.10	8437.63
563.26	8336.99
563.42	8451.67
563.59	8315.92
563.75	8234.00
563.92	8531.25
564.08	8351.03
564.24	8353.37
564.41	8163.79
564.57	8252.73
564.74	8184.85
564.90	8313.58
565.07	8236.35
565.23	8243.37
565.39	7943.78
565.56	7974.21
565.72	7854.84
565.88	7754.19
566.05	7812.71
566.21	8002.29
566.38	8161.45
566.54	8112.30
566.70	8224.64
566.87	8039.74
567.03	8100.59
567.19	8393.16
567.36	7943.78
567.52	8058.46
567.68	7859.52
567.85	7962.50
568.01	7669.94
568.17	7473.33
568.34	7492.05
568.50	7641.85
568.66	7302.47
568.83	7616.10
568.99	7618.44
569.15	7751.85
569.32	7625.47
569.48	7564.61
569.64	7428.86
569.81	7627.81
569.97	7445.24
570.13	7625.47
570.30	7456.95
570.46	7555.25
570.62	7302.47
570.78	7166.72
570.95	7363.33
571.11	7531.84
571.27	7691.00
571.43	7569.29
571.60	7592.70
571.76	7648.87
571.92	7742.49
572.09	7747.17
572.25	7683.98
572.41	7667.60
572.57	7667.60
572.74	7896.97
572.90	7651.21
573.06	7742.49
573.22	7679.30
573.38	7728.45
573.55	7513.12
573.71	7662.91
573.87	7517.80
574.03	7599.72
574.20	7255.66
574.36	7375.03
574.52	7576.31
574.68	7325.88
574.84	7470.99
575.01	7183.10
575.17	7442.90
575.33	7346.94
575.49	7440.56
575.65	7424.18
575.82	7360.98
575.98	7332.90
576.14	7356.30
576.30	7440.56
576.46	7538.87
576.62	7609.08
576.79	7510.78
576.95	7482.69
577.11	7534.18
577.27	7396.09
577.43	7407.80
577.59	7208.85
577.75	7206.51
577.92	7159.70
578.08	7119.91
578.24	7148.00
578.40	7204.17
578.56	7248.64
578.72	7386.73
578.88	7538.87
579.04	7428.86
579.21	7475.67
579.37	7321.20
579.53	7377.37
579.69	7538.87
579.85	7262.68
580.01	7485.03
580.17	7363.33
580.33	7389.07
580.49	7524.82
580.65	7569.29
580.82	7351.62
580.98	7534.18
581.14	7332.90
581.30	7246.30
581.46	7466.31
581.62	7695.68
581.78	7463.97
581.94	7466.31
582.10	7459.29
582.26	7583.34
582.42	7473.33
582.58	7655.89
582.74	7709.72
582.90	7524.82
583.06	7686.32
583.22	7426.52
583.38	7283.75
583.54	7417.16
583.70	7515.46
583.86	7639.51
584.02	7368.01
584.18	7365.67
584.34	7403.11
584.50	7316.51
584.66	7328.22
584.82	7133.95
584.98	7325.88
585.14	7133.95
585.30	7115.23
585.46	7197.15
585.62	7023.95
585.78	7021.61
585.94	7133.95
586.10	7070.76
586.26	7152.68
586.42	7204.17
586.58	7098.84
586.74	7199.49
586.90	6988.84
587.06	7089.48
587.22	7082.46
587.38	6871.81
587.54	6970.12
587.70	6548.82
587.86	6492.65
588.02	6420.09
588.18	6120.50
588.34	5893.47
588.49	5535.37
588.65	5394.93
588.81	5132.79
588.97	5083.64
589.13	5233.44
589.29	5060.24
589.45	5032.15
589.61	5268.55
589.77	5331.74
589.93	5682.82
590.08	5984.75
590.24	6115.82
590.40	5970.71
590.56	5975.39
590.72	6120.50
590.88	5893.47
591.04	5851.34
591.20	6031.56
591.35	5900.49
591.51	5851.34
591.67	5715.59
591.83	5750.70
591.99	5912.19
592.15	5746.02
592.31	5951.98
592.46	6249.23
592.62	6127.52
592.78	6106.46
592.94	6260.93
593.10	6396.68
593.26	6277.32
593.41	6532.44
593.57	6464.56
593.73	6064.33
593.89	5816.23
594.05	5675.80
594.20	5458.13
594.36	5678.14
594.52	5563.45
594.68	5530.69
594.84	5654.73
594.99	6003.47
595.15	6090.07
595.31	5944.96
595.47	6183.70
595.62	5991.77
595.78	6076.03
595.94	6139.23
596.10	6195.40
596.25	6160.29
596.41	5760.06
596.57	5959.00
596.73	6015.18
596.88	6171.99
597.04	6235.19
597.20	6136.88
