SpectraSuite Data File
++++++++++++++++++++++++++++++++++++
Date: Fri Oct 04 11:42:06 GMT-05:00 2013
User: price-jones
Dark Spectrum Present: No
Reference Spectrum Present: No
Number of Sampled Component Spectra: 1
Spectrometers: USB2+H05261
Integration Time (usec): 100000 (USB2+H05261)
Spectra Averaged: 1 (USB2+H05261)
Boxcar Smoothing: 0 (USB2+H05261)
Correct for Electrical Dark: No (USB2+H05261)
Strobe/Lamp Enabled: No (USB2+H05261)
Correct for Detector Non-linearity: No (USB2+H05261)
Correct for Stray Light: No (USB2+H05261)
Number of Pixels in Processed Spectrum: 2048
>>>>>Begin Processed Spectral Data<<<<<
365.73	105.32
365.92	105.32
366.12	105.32
366.32	4.68
366.52	0.00
366.72	0.00
366.91	0.00
367.11	0.00
367.31	0.00
367.51	0.00
367.70	0.00
367.90	0.00
368.10	0.00
368.30	0.00
368.49	0.00
368.69	28.09
368.89	0.00
369.09	0.00
369.28	0.00
369.48	0.00
369.68	0.00
369.87	0.00
370.07	0.00
370.27	0.00
370.47	86.60
370.66	16.38
370.86	98.30
371.06	95.96
371.25	84.26
371.45	95.96
371.65	147.45
371.84	74.90
372.04	37.45
372.24	14.04
372.44	79.58
372.63	119.37
372.83	187.24
373.03	114.69
373.22	142.77
373.42	84.26
373.62	98.30
373.81	107.66
374.01	142.77
374.21	217.67
374.40	110.01
374.60	173.20
374.79	142.77
374.99	142.77
375.19	117.03
375.38	135.75
375.58	88.94
375.78	117.03
375.97	58.51
376.17	126.39
376.37	152.13
376.56	105.32
376.76	60.85
376.95	102.98
377.15	135.75
377.35	88.94
377.54	112.35
377.74	60.85
377.93	121.71
378.13	112.35
378.33	79.58
378.52	79.58
378.72	70.22
378.91	161.50
379.11	121.71
379.31	65.54
379.50	88.94
379.70	154.48
379.89	145.11
380.09	14.04
380.28	147.45
380.48	105.32
380.68	28.09
380.87	72.56
381.07	124.05
381.26	138.09
381.46	159.16
381.65	149.79
381.85	102.98
382.04	39.79
382.24	65.54
382.43	124.05
382.63	110.01
382.83	95.96
383.02	133.41
383.22	149.79
383.41	112.35
383.61	91.28
383.80	67.88
384.00	58.51
384.19	95.96
384.39	133.41
384.58	74.90
384.78	114.69
384.97	84.26
385.17	72.56
385.36	149.79
385.56	149.79
385.75	84.26
385.95	159.16
386.14	100.64
386.34	121.71
386.53	119.37
386.72	72.56
386.92	163.84
387.11	138.09
387.31	131.07
387.50	126.39
387.70	112.35
387.89	187.24
388.09	65.54
388.28	149.79
388.48	77.24
388.67	133.41
388.86	93.62
389.06	77.24
389.25	114.69
389.45	124.05
389.64	124.05
389.84	147.45
390.03	131.07
390.22	124.05
390.42	60.85
390.61	112.35
390.81	95.96
391.00	63.19
391.19	102.98
391.39	110.01
391.58	131.07
391.78	95.96
391.97	100.64
392.16	161.50
392.36	145.11
392.55	159.16
392.75	105.32
392.94	91.28
393.13	119.37
393.33	95.96
393.52	95.96
393.71	131.07
393.91	9.36
394.10	98.30
394.29	70.22
394.49	93.62
394.68	74.90
394.88	222.35
395.07	110.01
395.26	60.85
395.46	124.05
395.65	152.13
395.84	88.94
396.04	140.43
396.23	72.56
396.42	84.26
396.62	117.03
396.81	140.43
397.00	147.45
397.19	131.07
397.39	189.58
397.58	196.60
397.77	138.09
397.97	191.92
398.16	156.82
398.35	182.56
398.55	133.41
398.74	98.30
398.93	105.32
399.12	65.54
399.32	91.28
399.51	77.24
399.70	100.64
399.90	91.28
400.09	140.43
400.28	184.90
400.47	131.07
400.67	72.56
400.86	145.11
401.05	114.69
401.24	140.43
401.44	124.05
401.63	175.54
401.82	173.20
402.01	84.26
402.21	121.71
402.40	126.39
402.59	117.03
402.78	180.22
402.97	119.37
403.17	142.77
403.36	142.77
403.55	215.33
403.74	245.76
403.93	479.81
404.13	973.66
404.32	1306.02
404.51	1245.16
404.70	868.34
404.89	407.25
405.09	224.69
405.28	117.03
405.47	84.26
405.66	128.73
405.85	149.79
406.05	117.03
406.24	131.07
406.43	126.39
406.62	135.75
406.81	189.58
407.00	156.82
407.20	227.03
407.39	245.76
407.58	327.68
407.77	241.08
407.96	198.95
408.15	227.03
408.34	35.11
408.54	58.51
408.73	121.71
408.92	107.66
409.11	131.07
409.30	177.88
409.49	149.79
409.68	173.20
409.87	201.29
410.07	126.39
410.26	161.50
410.45	154.48
410.64	133.41
410.83	100.64
411.02	142.77
411.21	93.62
411.40	198.95
411.59	119.37
411.78	180.22
411.98	210.65
412.17	147.45
412.36	91.28
412.55	77.24
412.74	161.50
412.93	156.82
413.12	121.71
413.31	114.69
413.50	208.31
413.69	166.18
413.88	159.16
414.07	245.76
414.26	138.09
414.45	95.96
414.64	149.79
414.83	180.22
415.02	182.56
415.22	105.32
415.41	145.11
415.60	180.22
415.79	184.90
415.98	163.84
416.17	128.73
416.36	173.20
416.55	168.52
416.74	163.84
416.93	159.16
417.12	140.43
417.31	121.71
417.50	149.79
417.69	198.95
417.88	100.64
418.07	159.16
418.26	147.45
418.45	145.11
418.64	163.84
418.83	163.84
419.02	117.03
419.21	128.73
419.39	93.62
419.58	187.24
419.77	215.33
419.96	154.48
420.15	203.63
420.34	163.84
420.53	126.39
420.72	191.92
420.91	170.86
421.10	149.79
421.29	173.20
421.48	173.20
421.67	231.71
421.86	168.52
422.05	196.60
422.24	156.82
422.43	161.50
422.61	194.26
422.80	149.79
422.99	166.18
423.18	152.13
423.37	149.79
423.56	145.11
423.75	194.26
423.94	198.95
424.13	184.90
424.32	107.66
424.50	128.73
424.69	189.58
424.88	266.82
425.07	177.88
425.26	187.24
425.45	119.37
425.64	159.16
425.83	117.03
426.01	182.56
426.20	170.86
426.39	138.09
426.58	60.85
426.77	126.39
426.96	180.22
427.15	166.18
427.33	189.58
427.52	175.54
427.71	142.77
427.90	177.88
428.09	180.22
428.28	194.26
428.46	250.44
428.65	224.69
428.84	159.16
429.03	208.31
429.22	205.97
429.40	217.67
429.59	208.31
429.78	138.09
429.97	154.48
430.16	163.84
430.34	154.48
430.53	180.22
430.72	140.43
430.91	227.03
431.10	170.86
431.28	175.54
431.47	198.95
431.66	203.63
431.85	234.05
432.03	238.73
432.22	257.46
432.41	184.90
432.60	135.75
432.79	161.50
432.97	187.24
433.16	257.46
433.35	208.31
433.54	245.76
433.72	243.42
433.91	276.18
434.10	273.84
434.28	353.42
434.47	327.68
434.66	353.42
434.85	400.23
435.03	741.95
435.22	2258.62
435.41	5041.51
435.59	6134.54
435.78	4442.34
435.97	2190.74
436.16	954.94
436.34	435.34
436.53	325.33
436.72	297.25
436.90	243.42
437.09	227.03
437.28	187.24
437.46	259.80
437.65	208.31
437.84	229.37
438.02	238.73
438.21	191.92
438.40	229.37
438.58	215.33
438.77	180.22
438.96	210.65
439.14	283.20
439.33	236.39
439.52	196.60
439.70	191.92
439.89	231.71
440.08	175.54
440.26	205.97
440.45	217.67
440.63	215.33
440.82	194.26
441.01	194.26
441.19	241.08
441.38	220.01
441.57	168.52
441.75	271.50
441.94	278.52
442.12	266.82
442.31	229.37
442.50	217.67
442.68	231.71
442.87	271.50
443.05	182.56
443.24	196.60
443.43	224.69
443.61	252.78
443.80	236.39
443.98	234.05
444.17	133.41
444.35	220.01
444.54	224.69
444.73	210.65
444.91	175.54
445.10	203.63
445.28	180.22
445.47	280.86
445.65	245.76
445.84	257.46
446.02	220.01
446.21	287.89
446.39	248.10
446.58	283.20
446.77	208.31
446.95	220.01
447.14	196.60
447.32	187.24
447.51	278.52
447.69	234.05
447.88	280.86
448.06	301.93
448.25	208.31
448.43	154.48
448.62	203.63
448.80	201.29
448.99	187.24
449.17	217.67
449.36	196.60
449.54	255.12
449.73	250.44
449.91	243.42
450.10	250.44
450.28	255.12
450.46	220.01
450.65	175.54
450.83	203.63
451.02	140.43
451.20	229.37
451.39	241.08
451.57	238.73
451.76	271.50
451.94	231.71
452.13	227.03
452.31	283.20
452.49	152.13
452.68	175.54
452.86	212.99
453.05	280.86
453.23	264.48
453.42	217.67
453.60	299.59
453.78	208.31
453.97	189.58
454.15	168.52
454.34	189.58
454.52	191.92
454.70	229.37
454.89	243.42
455.07	248.10
455.26	311.29
455.44	208.31
455.62	154.48
455.81	210.65
455.99	236.39
456.17	170.86
456.36	138.09
456.54	182.56
456.73	163.84
456.91	243.42
457.09	177.88
457.28	238.73
457.46	215.33
457.64	238.73
457.83	248.10
458.01	180.22
458.19	229.37
458.38	161.50
458.56	196.60
458.74	241.08
458.93	198.95
459.11	196.60
459.29	210.65
459.48	250.44
459.66	271.50
459.84	266.82
460.03	339.38
460.21	222.35
460.39	318.31
460.57	229.37
460.76	238.73
460.94	322.99
461.12	262.14
461.31	299.59
461.49	191.92
461.67	276.18
461.85	252.78
462.04	147.45
462.22	688.12
462.40	215.33
462.59	231.71
462.77	273.84
462.95	248.10
463.13	114.69
463.32	231.71
463.50	201.29
463.68	212.99
463.86	248.10
464.05	229.37
464.23	234.05
464.41	255.12
464.59	236.39
464.78	220.01
464.96	245.76
465.14	243.42
465.32	236.39
465.50	245.76
465.69	252.78
465.87	198.95
466.05	287.89
466.23	205.97
466.41	255.12
466.60	238.73
466.78	215.33
466.96	257.46
467.14	215.33
467.32	276.18
467.51	299.59
467.69	205.97
467.87	198.95
468.05	266.82
468.23	269.16
468.41	215.33
468.60	182.56
468.78	259.80
468.96	259.80
469.14	334.70
469.32	220.01
469.50	220.01
469.69	236.39
469.87	154.48
470.05	269.16
470.23	201.29
470.41	187.24
470.59	217.67
470.77	238.73
470.95	119.37
471.14	238.73
471.32	173.20
471.50	182.56
471.68	215.33
471.86	208.31
472.04	241.08
472.22	184.90
472.40	234.05
472.58	170.86
472.77	224.69
472.95	229.37
473.13	264.48
473.31	191.92
473.49	173.20
473.67	208.31
473.85	212.99
474.03	280.86
474.21	266.82
474.39	280.86
474.57	191.92
474.75	241.08
474.93	177.88
475.12	217.67
475.30	243.42
475.48	243.42
475.66	208.31
475.84	231.71
476.02	220.01
476.20	212.99
476.38	285.55
476.56	299.59
476.74	121.71
476.92	166.18
477.10	210.65
477.28	208.31
477.46	269.16
477.64	234.05
477.82	220.01
478.00	262.14
478.18	187.24
478.36	224.69
478.54	212.99
478.72	322.99
478.90	147.45
479.08	220.01
479.26	210.65
479.44	290.23
479.62	262.14
479.80	341.72
479.98	196.60
480.16	255.12
480.34	330.02
480.52	208.31
480.70	276.18
480.88	191.92
481.06	318.31
481.24	245.76
481.41	315.97
481.59	276.18
481.77	287.89
481.95	376.83
482.13	395.55
482.31	369.80
482.49	325.33
482.67	376.83
482.85	383.85
483.03	421.30
483.21	437.68
483.39	369.80
483.57	500.87
483.74	566.41
483.92	561.73
484.10	524.28
484.28	648.33
484.46	545.34
484.64	557.05
484.82	622.58
485.00	671.73
485.18	753.65
485.35	685.78
485.53	744.29
485.71	699.82
485.89	812.17
486.07	744.29
486.25	784.08
486.43	837.91
486.61	837.91
486.78	826.21
486.96	826.21
487.14	837.91
487.32	819.19
487.50	891.74
487.68	875.36
487.85	793.44
488.03	833.23
488.21	791.10
488.39	882.38
488.57	802.80
488.75	873.02
488.92	1181.97
489.10	924.51
489.28	959.62
489.46	896.43
489.64	861.32
489.81	746.63
489.99	823.87
490.17	866.00
490.35	823.87
490.53	741.95
490.70	774.72
490.88	823.87
491.06	889.40
491.24	826.21
491.41	940.90
491.59	777.06
491.77	882.38
491.95	741.95
492.13	767.70
492.30	739.61
492.48	671.73
492.66	732.59
492.84	699.82
493.01	713.86
493.19	685.78
493.37	688.12
493.54	688.12
493.72	610.88
493.90	711.52
494.08	723.23
494.25	685.78
494.43	613.22
494.61	585.13
494.79	622.58
494.96	582.79
495.14	561.73
495.32	645.99
495.49	650.67
495.67	636.63
495.85	645.99
496.02	580.45
496.20	645.99
496.38	547.69
496.55	629.60
496.73	624.92
496.91	653.01
497.09	655.35
497.26	545.34
497.44	550.03
497.62	479.81
497.79	526.62
497.97	528.96
498.14	528.96
498.32	524.28
498.50	437.68
498.67	465.77
498.85	514.92
499.03	482.15
499.20	475.13
499.38	423.64
499.56	376.83
499.73	388.53
499.91	407.25
500.08	449.38
500.26	404.91
500.44	320.65
500.61	273.84
500.79	383.85
500.97	372.15
501.14	360.44
501.32	402.57
501.49	379.17
501.67	330.02
501.84	351.08
502.02	290.23
502.20	327.68
502.37	292.57
502.55	346.40
502.72	285.55
502.90	245.76
503.07	358.10
503.25	280.86
503.43	273.84
503.60	332.36
503.78	294.91
503.95	294.91
504.13	346.40
504.30	278.52
504.48	294.91
504.65	322.99
504.83	297.25
505.01	311.29
505.18	264.48
505.36	259.80
505.53	222.35
505.71	227.03
505.88	248.10
506.06	231.71
506.23	238.73
506.41	273.84
506.58	285.55
506.76	257.46
506.93	297.25
507.11	266.82
507.28	184.90
507.46	210.65
507.63	259.80
507.81	348.74
507.98	313.63
508.16	273.84
508.33	294.91
508.50	374.49
508.68	411.93
508.85	259.80
509.03	292.57
509.20	241.08
509.38	271.50
509.55	304.27
509.73	301.93
509.90	325.33
510.08	184.90
510.25	276.18
510.42	203.63
510.60	346.40
510.77	227.03
510.95	264.48
511.12	264.48
511.30	374.49
511.47	278.52
511.64	273.84
511.82	280.86
511.99	259.80
512.17	161.50
512.34	236.39
512.51	315.97
512.69	264.48
512.86	278.52
513.04	292.57
513.21	290.23
513.38	292.57
513.56	297.25
513.73	301.93
513.90	285.55
514.08	264.48
514.25	301.93
514.43	238.73
514.60	241.08
514.77	243.42
514.95	334.70
515.12	290.23
515.29	250.44
515.47	257.46
515.64	294.91
515.81	269.16
515.99	271.50
516.16	294.91
516.33	337.04
516.51	285.55
516.68	229.37
516.85	285.55
517.03	252.78
517.20	243.42
517.37	313.63
517.54	259.80
517.72	334.70
517.89	215.33
518.06	229.37
518.24	283.20
518.41	287.89
518.58	292.57
518.75	248.10
518.93	238.73
519.10	189.58
519.27	234.05
519.45	264.48
519.62	212.99
519.79	255.12
519.96	241.08
520.14	255.12
520.31	283.20
520.48	304.27
520.65	212.99
520.83	337.04
521.00	248.10
521.17	248.10
521.34	280.86
521.52	301.93
521.69	264.48
521.86	252.78
522.03	252.78
522.20	257.46
522.38	205.97
522.55	262.14
522.72	196.60
522.89	259.80
523.07	322.99
523.24	290.23
523.41	301.93
523.58	212.99
523.75	332.36
523.92	205.97
524.10	344.06
524.27	259.80
524.44	264.48
524.61	278.52
524.78	278.52
524.96	266.82
525.13	306.61
525.30	341.72
525.47	243.42
525.64	313.63
525.81	191.92
525.98	334.70
526.16	266.82
526.33	208.31
526.50	292.57
526.67	234.05
526.84	243.42
527.01	173.20
527.18	276.18
527.36	222.35
527.53	264.48
527.70	301.93
527.87	278.52
528.04	271.50
528.21	269.16
528.38	308.95
528.55	292.57
528.72	372.15
528.89	334.70
529.07	299.59
529.24	308.95
529.41	271.50
529.58	334.70
529.75	252.78
529.92	287.89
530.09	273.84
530.26	287.89
530.43	315.97
530.60	325.33
530.77	259.80
530.94	306.61
531.11	294.91
531.28	259.80
531.46	299.59
531.63	358.10
531.80	304.27
531.97	395.55
532.14	311.29
532.31	250.44
532.48	320.65
532.65	339.38
532.82	430.66
532.99	435.34
533.16	449.38
533.33	540.66
533.50	493.85
533.67	472.79
533.84	362.78
534.01	397.89
534.18	409.59
534.35	379.17
534.52	383.85
534.69	383.85
534.86	348.74
535.03	339.38
535.20	400.23
535.37	465.77
535.54	468.11
535.71	477.47
535.88	442.36
536.05	425.98
536.22	531.30
536.38	489.17
536.55	557.05
536.72	531.30
536.89	475.13
537.06	540.66
537.23	608.54
537.40	617.90
537.57	645.99
537.74	772.38
537.91	781.74
538.08	908.13
538.25	1032.18
538.42	1083.67
538.59	1015.79
538.75	1022.81
538.92	1078.99
539.09	1163.25
539.26	1074.31
539.43	1238.14
539.60	1392.62
539.77	1493.26
539.94	1605.61
540.11	1715.61
540.28	1785.83
540.44	1989.46
540.61	1884.13
540.78	2188.40
540.95	2422.45
541.12	2640.12
541.29	3279.09
541.46	3653.58
541.62	4182.54
541.79	4645.96
541.96	5104.71
542.13	5460.47
542.30	5628.99
542.47	5757.72
542.63	5439.40
542.80	5430.04
542.97	5518.98
543.14	5612.60
543.31	5713.25
543.48	5841.98
543.64	5689.84
543.81	5483.88
543.98	5359.83
544.15	5348.12
544.32	5060.24
544.48	5015.77
544.65	4753.63
544.82	4545.32
544.99	4301.90
545.16	4322.97
545.32	4117.00
545.49	5703.89
545.66	9160.86
545.83	12339.30
546.00	11044.99
546.16	7255.66
546.33	4889.38
546.50	3574.00
546.67	2677.57
546.83	2230.53
547.00	2052.65
547.17	2069.03
547.34	1834.98
547.50	1739.02
547.67	1678.16
547.84	1675.82
548.00	1689.87
548.17	1834.98
548.34	1736.68
548.51	1792.85
548.67	1844.34
548.84	1935.62
549.01	1895.83
549.18	1961.37
549.34	2017.54
549.51	1781.15
549.68	1696.89
549.84	1600.93
550.01	1502.62
550.18	1493.26
550.34	1474.54
550.51	1364.53
550.68	1425.39
550.84	1378.58
551.01	1343.47
551.18	1277.93
551.34	1207.72
551.51	1174.95
551.68	1277.93
551.84	1221.76
552.01	1221.76
552.18	1121.12
552.34	1163.25
552.51	1212.40
552.68	1036.86
552.84	961.96
553.01	1022.81
553.18	968.98
553.34	873.02
553.51	877.70
553.67	786.42
553.84	819.19
554.01	772.38
554.17	718.54
554.34	624.92
554.51	557.05
554.67	500.87
554.84	582.79
555.00	512.58
555.17	411.93
555.33	589.82
555.50	503.22
555.67	545.34
555.83	400.23
556.00	454.06
556.16	528.96
556.33	423.64
556.50	351.08
556.66	341.72
556.83	472.79
556.99	383.85
557.16	390.87
557.32	379.17
557.49	332.36
557.65	379.17
557.82	337.04
557.98	327.68
558.15	273.84
558.32	348.74
558.48	292.57
558.65	337.04
558.81	386.19
558.98	318.31
559.14	290.23
559.31	308.95
559.47	318.31
559.64	285.55
559.80	369.80
559.97	315.97
560.13	311.29
560.30	271.50
560.46	283.20
560.63	311.29
560.79	297.25
560.96	383.85
561.12	360.44
561.29	322.99
561.45	362.78
561.61	332.36
561.78	351.08
561.94	283.20
562.11	355.76
562.27	271.50
562.44	292.57
562.60	299.59
562.77	222.35
562.93	367.46
563.10	322.99
563.26	344.06
563.42	290.23
563.59	285.55
563.75	337.04
563.92	304.27
564.08	322.99
564.24	325.33
564.41	355.76
564.57	322.99
564.74	273.84
564.90	278.52
565.07	257.46
565.23	210.65
565.39	243.42
565.56	311.29
565.72	194.26
565.88	215.33
566.05	234.05
566.21	243.42
566.38	313.63
566.54	259.80
566.70	269.16
566.87	255.12
567.03	255.12
567.19	294.91
567.36	290.23
567.52	234.05
567.68	255.12
567.85	332.36
568.01	299.59
568.17	241.08
568.34	346.40
568.50	346.40
568.66	299.59
568.83	332.36
568.99	231.71
569.15	271.50
569.32	297.25
569.48	231.71
569.64	269.16
569.81	299.59
569.97	262.14
570.13	283.20
570.30	210.65
570.46	259.80
570.62	273.84
570.78	234.05
570.95	255.12
571.11	241.08
571.27	285.55
571.43	301.93
571.60	325.33
571.76	276.18
571.92	266.82
572.09	241.08
572.25	304.27
572.41	308.95
572.57	327.68
572.74	348.74
572.90	346.40
573.06	346.40
573.22	285.55
573.38	383.85
573.55	407.25
573.71	344.06
573.87	372.15
574.03	320.65
574.20	322.99
574.36	411.93
574.52	337.04
574.68	330.02
574.84	334.70
575.01	388.53
575.17	376.83
575.33	325.33
575.49	369.80
575.65	444.70
575.82	369.80
575.98	360.44
576.14	365.12
576.30	533.64
576.46	1266.23
576.62	1966.05
576.79	2438.84
576.95	1732.00
577.11	1160.91
577.27	870.68
577.43	711.52
577.59	540.66
577.75	461.09
577.92	451.72
578.08	465.77
578.24	447.04
578.40	671.73
578.56	1177.29
578.72	1797.53
578.88	2310.11
579.04	1736.68
579.21	1270.91
579.37	966.64
579.53	966.64
579.69	896.43
579.85	1020.47
580.01	1158.57
580.17	1291.98
580.33	1107.07
580.49	933.87
580.65	952.60
580.82	833.23
580.98	711.52
581.14	770.04
581.30	868.34
581.46	943.24
581.62	856.64
581.78	973.66
581.94	1074.31
582.10	933.87
582.26	1020.47
582.42	1062.60
582.58	1043.88
582.74	1114.10
582.90	1256.87
583.06	1352.83
583.22	1275.59
583.38	1324.74
583.54	1324.74
583.70	1317.72
583.86	1282.61
584.02	1282.61
584.18	1254.53
584.34	1261.55
584.50	1214.74
584.66	1123.46
584.82	978.34
584.98	1027.50
585.14	1153.88
585.30	1029.84
585.46	1032.18
585.62	915.15
585.78	1008.77
585.94	1006.43
586.10	1034.52
586.26	1050.90
586.42	1207.72
586.58	1254.53
586.74	1526.03
586.90	1804.55
587.06	1921.58
587.22	1994.14
587.38	1858.39
587.54	1774.13
587.70	1631.35
587.86	1327.08
588.02	1228.78
588.18	1184.31
588.34	1025.15
588.49	985.37
588.65	1043.88
588.81	887.06
588.97	866.00
589.13	866.00
589.29	936.21
589.45	851.96
589.61	884.72
589.77	912.81
589.93	924.51
590.08	840.25
590.24	830.89
590.40	898.77
590.56	856.64
590.72	784.08
590.88	858.98
591.04	779.40
591.20	812.17
591.35	730.25
591.51	870.68
591.67	833.23
591.83	882.38
591.99	851.96
592.15	922.17
592.31	959.62
592.46	1123.46
592.62	1174.95
592.78	1238.14
592.94	1310.70
593.10	1158.57
593.26	1172.61
593.41	1114.10
593.57	1032.18
593.73	868.34
593.89	791.10
594.05	716.20
594.20	631.94
594.36	669.39
594.52	599.18
594.68	554.71
594.84	596.84
594.99	557.05
595.15	503.22
595.31	615.56
595.47	559.39
595.62	547.69
595.78	395.55
595.94	447.04
596.10	566.41
596.25	507.90
596.41	538.32
596.57	498.53
596.73	543.00
596.88	465.77
597.04	521.94
597.20	533.64
597.36	543.00
597.51	540.66
597.67	566.41
597.83	477.47
597.99	629.60
598.14	592.16
598.30	690.46
598.46	669.39
598.61	697.48
598.77	741.95
598.93	697.48
599.09	866.00
599.24	791.10
599.40	854.30
599.56	760.67
599.71	727.91
599.87	737.27
600.03	638.97
600.18	648.33
600.34	660.03
600.50	564.07
600.65	521.94
600.81	599.18
600.97	503.22
601.12	547.69
601.28	477.47
601.44	486.83
601.59	376.83
601.75	521.94
601.91	411.93
602.06	402.57
602.22	411.93
602.37	444.70
602.53	428.32
602.69	418.96
602.84	360.44
603.00	346.40
603.16	425.98
603.31	489.17
603.47	416.62
603.62	390.87
603.78	414.27
603.94	489.17
604.09	451.72
604.25	477.47
604.40	498.53
604.56	517.26
604.71	468.11
604.87	425.98
605.03	404.91
605.18	421.30
605.34	524.28
605.49	512.58
605.65	500.87
605.80	496.19
605.96	557.05
606.12	573.43
606.27	500.87
606.43	433.00
606.58	524.28
606.74	603.86
606.89	624.92
607.05	627.26
607.20	606.20
607.36	688.12
607.51	676.41
607.67	713.86
607.82	744.29
607.98	805.14
608.13	875.36
608.29	959.62
608.44	971.32
608.60	985.37
608.75	1123.46
608.91	1200.69
609.06	1277.93
609.22	1446.45
609.37	1530.71
609.53	1636.03
