SpectraSuite Data File
++++++++++++++++++++++++++++++++++++
Date: Fri Oct 04 11:42:30 GMT-05:00 2013
User: price-jones
Dark Spectrum Present: No
Reference Spectrum Present: No
Number of Sampled Component Spectra: 1
Spectrometers: USB2+H05261
Integration Time (usec): 100000 (USB2+H05261)
Spectra Averaged: 1 (USB2+H05261)
Boxcar Smoothing: 0 (USB2+H05261)
Correct for Electrical Dark: No (USB2+H05261)
Strobe/Lamp Enabled: No (USB2+H05261)
Correct for Detector Non-linearity: No (USB2+H05261)
Correct for Stray Light: No (USB2+H05261)
Number of Pixels in Processed Spectrum: 2048
>>>>>Begin Processed Spectral Data<<<<<
365.73	4.68
365.92	4.68
366.12	4.68
366.32	0.00
366.52	0.00
366.72	0.00
366.91	0.00
367.11	86.60
367.31	0.00
367.51	0.00
367.70	35.11
367.90	39.79
368.10	0.00
368.30	0.00
368.49	0.00
368.69	0.00
368.89	0.00
369.09	0.00
369.28	0.00
369.48	0.00
369.68	0.00
369.87	35.11
370.07	35.11
370.27	0.00
370.47	0.00
370.66	30.43
370.86	11.70
371.06	86.60
371.25	105.32
371.45	0.00
371.65	70.22
371.84	70.22
372.04	49.15
372.24	53.83
372.44	51.49
372.63	114.69
372.83	131.07
373.03	100.64
373.22	152.13
373.42	112.35
373.62	126.39
373.81	140.43
374.01	138.09
374.21	142.77
374.40	70.22
374.60	124.05
374.79	105.32
374.99	79.58
375.19	74.90
375.38	168.52
375.58	110.01
375.78	32.77
375.97	119.37
376.17	184.90
376.37	25.75
376.56	161.50
376.76	154.48
376.95	138.09
377.15	86.60
377.35	100.64
377.54	42.13
377.74	105.32
377.93	163.84
378.13	39.79
378.33	161.50
378.52	107.66
378.72	117.03
378.91	88.94
379.11	152.13
379.31	105.32
379.50	102.98
379.70	180.22
379.89	126.39
380.09	140.43
380.28	81.92
380.48	110.01
380.68	112.35
380.87	2.34
381.07	42.13
381.26	114.69
381.46	173.20
381.65	98.30
381.85	21.06
382.04	77.24
382.24	86.60
382.43	138.09
382.63	51.49
382.83	140.43
383.02	163.84
383.22	70.22
383.41	86.60
383.61	159.16
383.80	205.97
384.00	177.88
384.19	42.13
384.39	81.92
384.58	124.05
384.78	128.73
384.97	175.54
385.17	121.71
385.36	58.51
385.56	65.54
385.75	100.64
385.95	159.16
386.14	100.64
386.34	140.43
386.53	114.69
386.72	0.00
386.92	182.56
387.11	149.79
387.31	114.69
387.50	117.03
387.70	107.66
387.89	177.88
388.09	84.26
388.28	74.90
388.48	102.98
388.67	170.86
388.86	58.51
389.06	142.77
389.25	110.01
389.45	152.13
389.64	124.05
389.84	156.82
390.03	133.41
390.22	98.30
390.42	98.30
390.61	95.96
390.81	119.37
391.00	91.28
391.19	168.52
391.39	81.92
391.58	128.73
391.78	149.79
391.97	79.58
392.16	112.35
392.36	128.73
392.55	121.71
392.75	95.96
392.94	98.30
393.13	117.03
393.33	84.26
393.52	84.26
393.71	102.98
393.91	98.30
394.10	32.77
394.29	173.20
394.49	126.39
394.68	46.81
394.88	152.13
395.07	126.39
395.26	119.37
395.46	152.13
395.65	53.83
395.84	142.77
396.04	189.58
396.23	88.94
396.42	114.69
396.62	93.62
396.81	131.07
397.00	79.58
397.19	119.37
397.39	119.37
397.58	189.58
397.77	175.54
397.97	86.60
398.16	70.22
398.35	100.64
398.55	11.70
398.74	110.01
398.93	117.03
399.12	124.05
399.32	138.09
399.51	88.94
399.70	135.75
399.90	77.24
400.09	128.73
400.28	135.75
400.47	126.39
400.67	93.62
400.86	140.43
401.05	88.94
401.24	119.37
401.44	93.62
401.63	114.69
401.82	124.05
402.01	131.07
402.21	79.58
402.40	149.79
402.59	126.39
402.78	100.64
402.97	100.64
403.17	112.35
403.36	74.90
403.55	154.48
403.74	236.39
403.93	222.35
404.13	330.02
404.32	283.20
404.51	259.80
404.70	236.39
404.89	91.28
405.09	102.98
405.28	121.71
405.47	105.32
405.66	161.50
405.85	191.92
406.05	175.54
406.24	138.09
406.43	170.86
406.62	159.16
406.81	147.45
407.00	133.41
407.20	154.48
407.39	138.09
407.58	208.31
407.77	138.09
407.96	170.86
408.15	154.48
408.34	149.79
408.54	117.03
408.73	187.24
408.92	138.09
409.11	194.26
409.30	105.32
409.49	114.69
409.68	110.01
409.87	133.41
410.07	100.64
410.26	86.60
410.45	159.16
410.64	203.63
410.83	152.13
411.02	58.51
411.21	182.56
411.40	159.16
411.59	168.52
411.78	133.41
411.98	140.43
412.17	124.05
412.36	105.32
412.55	138.09
412.74	149.79
412.93	156.82
413.12	93.62
413.31	184.90
413.50	159.16
413.69	102.98
413.88	156.82
414.07	196.60
414.26	121.71
414.45	70.22
414.64	91.28
414.83	145.11
415.02	102.98
415.22	170.86
415.41	166.18
415.60	140.43
415.79	58.51
415.98	114.69
416.17	131.07
416.36	114.69
416.55	126.39
416.74	86.60
416.93	86.60
417.12	135.75
417.31	128.73
417.50	163.84
417.69	163.84
417.88	196.60
418.07	114.69
418.26	77.24
418.45	128.73
418.64	189.58
418.83	191.92
419.02	156.82
419.21	128.73
419.39	124.05
419.58	102.98
419.77	86.60
419.96	175.54
420.15	203.63
420.34	156.82
420.53	128.73
420.72	128.73
420.91	163.84
421.10	112.35
421.29	215.33
421.48	163.84
421.67	168.52
421.86	46.81
422.05	91.28
422.24	163.84
422.43	196.60
422.61	102.98
422.80	131.07
422.99	140.43
423.18	212.99
423.37	135.75
423.56	117.03
423.75	79.58
423.94	114.69
424.13	217.67
424.32	133.41
424.50	182.56
424.69	117.03
424.88	215.33
425.07	177.88
425.26	177.88
425.45	163.84
425.64	154.48
425.83	100.64
426.01	128.73
426.20	140.43
426.39	191.92
426.58	149.79
426.77	177.88
426.96	154.48
427.15	145.11
427.33	173.20
427.52	189.58
427.71	147.45
427.90	140.43
428.09	107.66
428.28	102.98
428.46	140.43
428.65	175.54
428.84	121.71
429.03	227.03
429.22	121.71
429.40	159.16
429.59	128.73
429.78	243.42
429.97	145.11
430.16	189.58
430.34	114.69
430.53	205.97
430.72	117.03
430.91	196.60
431.10	124.05
431.28	210.65
431.47	191.92
431.66	140.43
431.85	145.11
432.03	81.92
432.22	173.20
432.41	217.67
432.60	196.60
432.79	170.86
432.97	161.50
433.16	180.22
433.35	126.39
433.54	86.60
433.72	208.31
433.91	147.45
434.10	152.13
434.28	159.16
434.47	107.66
434.66	245.76
434.85	266.82
435.03	224.69
435.22	603.86
435.41	985.37
435.59	1086.01
435.78	770.04
435.97	411.93
436.16	241.08
436.34	177.88
436.53	189.58
436.72	154.48
436.90	191.92
437.09	161.50
437.28	210.65
437.46	191.92
437.65	114.69
437.84	201.29
438.02	133.41
438.21	133.41
438.40	128.73
438.58	149.79
438.77	210.65
438.96	138.09
439.14	126.39
439.33	126.39
439.52	163.84
439.70	105.32
439.89	177.88
440.08	114.69
440.26	149.79
440.45	166.18
440.63	191.92
440.82	194.26
441.01	152.13
441.19	114.69
441.38	173.20
441.57	152.13
441.75	191.92
441.94	241.08
442.12	184.90
442.31	180.22
442.50	156.82
442.68	152.13
442.87	161.50
443.05	163.84
443.24	149.79
443.43	159.16
443.61	187.24
443.80	145.11
443.98	110.01
444.17	175.54
444.35	203.63
444.54	175.54
444.73	189.58
444.91	238.73
445.10	133.41
445.28	149.79
445.47	243.42
445.65	196.60
445.84	175.54
446.02	156.82
446.21	105.32
446.39	131.07
446.58	198.95
446.77	126.39
446.95	149.79
447.14	173.20
447.32	220.01
447.51	163.84
447.69	173.20
447.88	102.98
448.06	189.58
448.25	231.71
448.43	119.37
448.62	159.16
448.80	217.67
448.99	177.88
449.17	243.42
449.36	191.92
449.54	234.05
449.73	168.52
449.91	112.35
450.10	124.05
450.28	163.84
450.46	161.50
450.65	231.71
450.83	154.48
451.02	175.54
451.20	166.18
451.39	98.30
451.57	196.60
451.76	189.58
451.94	198.95
452.13	159.16
452.31	208.31
452.49	196.60
452.68	166.18
452.86	187.24
453.05	189.58
453.23	133.41
453.42	86.60
453.60	313.63
453.78	152.13
453.97	152.13
454.15	210.65
454.34	121.71
454.52	133.41
454.70	152.13
454.89	140.43
455.07	124.05
455.26	201.29
455.44	170.86
455.62	187.24
455.81	140.43
455.99	205.97
456.17	189.58
456.36	248.10
456.54	142.77
456.73	124.05
456.91	170.86
457.09	271.50
457.28	187.24
457.46	173.20
457.64	245.76
457.83	152.13
458.01	163.84
458.19	184.90
458.38	189.58
458.56	156.82
458.74	252.78
458.93	149.79
459.11	201.29
459.29	187.24
459.48	255.12
459.66	224.69
459.84	222.35
460.03	262.14
460.21	128.73
460.39	145.11
460.57	184.90
460.76	135.75
460.94	170.86
461.12	119.37
461.31	154.48
461.49	203.63
461.67	196.60
461.85	180.22
462.04	175.54
462.22	341.72
462.40	196.60
462.59	215.33
462.77	201.29
462.95	203.63
463.13	166.18
463.32	147.45
463.50	222.35
463.68	215.33
463.86	121.71
464.05	201.29
464.23	189.58
464.41	161.50
464.59	189.58
464.78	205.97
464.96	145.11
465.14	245.76
465.32	208.31
465.50	175.54
465.69	189.58
465.87	166.18
466.05	255.12
466.23	168.52
466.41	131.07
466.60	170.86
466.78	154.48
466.96	205.97
467.14	194.26
467.32	182.56
467.51	198.95
467.69	156.82
467.87	243.42
468.05	203.63
468.23	248.10
468.41	93.62
468.60	145.11
468.78	210.65
468.96	175.54
469.14	269.16
469.32	121.71
469.50	173.20
469.69	173.20
469.87	217.67
470.05	224.69
470.23	198.95
470.41	112.35
470.59	180.22
470.77	163.84
470.95	117.03
471.14	222.35
471.32	191.92
471.50	159.16
471.68	173.20
471.86	241.08
472.04	138.09
472.22	156.82
472.40	220.01
472.58	252.78
472.77	135.75
472.95	131.07
473.13	276.18
473.31	168.52
473.49	142.77
473.67	145.11
473.85	170.86
474.03	205.97
474.21	166.18
474.39	215.33
474.57	194.26
474.75	168.52
474.93	128.73
475.12	131.07
475.30	201.29
475.48	170.86
475.66	159.16
475.84	203.63
476.02	194.26
476.20	222.35
476.38	168.52
476.56	208.31
476.74	180.22
476.92	177.88
477.10	203.63
477.28	198.95
477.46	98.30
477.64	121.71
477.82	98.30
478.00	196.60
478.18	187.24
478.36	220.01
478.54	264.48
478.72	187.24
478.90	121.71
479.08	222.35
479.26	215.33
479.44	280.86
479.62	154.48
479.80	156.82
479.98	133.41
480.16	168.52
480.34	252.78
480.52	163.84
480.70	182.56
480.88	264.48
481.06	234.05
481.24	173.20
481.41	234.05
481.59	173.20
481.77	203.63
481.95	182.56
482.13	297.25
482.31	177.88
482.49	210.65
482.67	276.18
482.85	259.80
483.03	229.37
483.21	187.24
483.39	227.03
483.57	217.67
483.74	191.92
483.92	245.76
484.10	191.92
484.28	269.16
484.46	290.23
484.64	262.14
484.82	234.05
485.00	220.01
485.18	292.57
485.35	283.20
485.53	231.71
485.71	325.33
485.89	290.23
486.07	205.97
486.25	428.32
486.43	271.50
486.61	327.68
486.78	262.14
486.96	250.44
487.14	241.08
487.32	308.95
487.50	283.20
487.68	346.40
487.85	248.10
488.03	262.14
488.21	313.63
488.39	348.74
488.57	318.31
488.75	147.45
488.92	507.90
489.10	243.42
489.28	311.29
489.46	266.82
489.64	306.61
489.81	248.10
489.99	304.27
490.17	304.27
490.35	308.95
490.53	276.18
490.70	341.72
490.88	285.55
491.06	325.33
491.24	315.97
491.41	262.14
491.59	318.31
491.77	276.18
491.95	248.10
492.13	283.20
492.30	386.19
492.48	234.05
492.66	299.59
492.84	229.37
493.01	212.99
493.19	255.12
493.37	304.27
493.54	292.57
493.72	243.42
493.90	266.82
494.08	301.93
494.25	252.78
494.43	306.61
494.61	313.63
494.79	334.70
494.96	325.33
495.14	276.18
495.32	297.25
495.49	311.29
495.67	313.63
495.85	245.76
496.02	264.48
496.20	278.52
496.38	339.38
496.55	229.37
496.73	241.08
496.91	220.01
497.09	325.33
497.26	322.99
497.44	222.35
497.62	320.65
497.79	273.84
497.97	283.20
498.14	255.12
498.32	285.55
498.50	290.23
498.67	248.10
498.85	306.61
499.03	269.16
499.20	257.46
499.38	280.86
499.56	234.05
499.73	290.23
499.91	248.10
500.08	311.29
500.26	250.44
500.44	210.65
500.61	215.33
500.79	339.38
500.97	273.84
501.14	243.42
501.32	257.46
501.49	280.86
501.67	250.44
501.84	205.97
502.02	220.01
502.20	292.57
502.37	351.08
502.55	217.67
502.72	245.76
502.90	234.05
503.07	222.35
503.25	273.84
503.43	224.69
503.60	196.60
503.78	166.18
503.95	212.99
504.13	184.90
504.30	224.69
504.48	243.42
504.65	264.48
504.83	266.82
505.01	311.29
505.18	294.91
505.36	201.29
505.53	217.67
505.71	269.16
505.88	264.48
506.06	271.50
506.23	241.08
506.41	191.92
506.58	266.82
506.76	201.29
506.93	236.39
507.11	229.37
507.28	212.99
507.46	163.84
507.63	229.37
507.81	341.72
507.98	252.78
508.16	273.84
508.33	182.56
508.50	327.68
508.68	306.61
508.85	292.57
509.03	173.20
509.20	194.26
509.38	339.38
509.55	262.14
509.73	236.39
509.90	208.31
510.08	283.20
510.25	227.03
510.42	187.24
510.60	315.97
510.77	250.44
510.95	283.20
511.12	201.29
511.30	245.76
511.47	269.16
511.64	299.59
511.82	203.63
511.99	315.97
512.17	269.16
512.34	245.76
512.51	194.26
512.69	259.80
512.86	234.05
513.04	173.20
513.21	273.84
513.38	266.82
513.56	245.76
513.73	245.76
513.90	212.99
514.08	142.77
514.25	325.33
514.43	203.63
514.60	243.42
514.77	276.18
514.95	299.59
515.12	262.14
515.29	168.52
515.47	222.35
515.64	229.37
515.81	262.14
515.99	243.42
516.16	238.73
516.33	217.67
516.51	210.65
516.68	229.37
516.85	215.33
517.03	212.99
517.20	234.05
517.37	227.03
517.54	220.01
517.72	201.29
517.89	191.92
518.06	238.73
518.24	285.55
518.41	276.18
518.58	248.10
518.75	168.52
518.93	210.65
519.10	238.73
519.27	255.12
519.45	215.33
519.62	245.76
519.79	227.03
519.96	264.48
520.14	250.44
520.31	248.10
520.48	252.78
520.65	175.54
520.83	217.67
521.00	229.37
521.17	280.86
521.34	168.52
521.52	276.18
521.69	285.55
521.86	241.08
522.03	313.63
522.20	306.61
522.38	271.50
522.55	173.20
522.72	273.84
522.89	257.46
523.07	273.84
523.24	320.65
523.41	248.10
523.58	283.20
523.75	236.39
523.92	234.05
524.10	245.76
524.27	173.20
524.44	264.48
524.61	287.89
524.78	175.54
524.96	266.82
525.13	308.95
525.30	285.55
525.47	248.10
525.64	280.86
525.81	222.35
525.98	259.80
526.16	191.92
526.33	285.55
526.50	250.44
526.67	273.84
526.84	205.97
527.01	222.35
527.18	318.31
527.36	262.14
527.53	252.78
527.70	264.48
527.87	198.95
528.04	266.82
528.21	245.76
528.38	273.84
528.55	271.50
528.72	280.86
528.89	308.95
529.07	250.44
529.24	264.48
529.41	313.63
529.58	292.57
529.75	229.37
529.92	292.57
530.09	215.33
530.26	306.61
530.43	248.10
530.60	276.18
530.77	229.37
530.94	330.02
531.11	299.59
531.28	231.71
531.46	273.84
531.63	257.46
531.80	259.80
531.97	266.82
532.14	313.63
532.31	266.82
532.48	262.14
532.65	407.25
532.82	227.03
532.99	287.89
533.16	322.99
533.33	294.91
533.50	299.59
533.67	327.68
533.84	217.67
534.01	262.14
534.18	287.89
534.35	280.86
534.52	259.80
534.69	344.06
534.86	285.55
535.03	369.80
535.20	299.59
535.37	348.74
535.54	332.36
535.71	304.27
535.88	369.80
536.05	344.06
536.22	332.36
536.38	285.55
536.55	236.39
536.72	297.25
536.89	407.25
537.06	388.53
537.23	360.44
537.40	325.33
537.57	301.93
537.74	376.83
537.91	395.55
538.08	318.31
538.25	491.51
538.42	433.00
538.59	400.23
538.75	383.85
538.92	444.70
539.09	524.28
539.26	449.38
539.43	592.16
539.60	535.98
539.77	580.45
539.94	571.09
540.11	641.31
540.28	732.59
540.44	685.78
540.61	695.14
540.78	765.36
540.95	866.00
541.12	978.34
541.29	1048.56
541.46	1139.84
541.62	1219.42
541.79	1172.61
541.96	1207.72
542.13	1259.21
542.30	1165.59
542.47	1235.80
542.63	1097.71
542.80	1128.14
542.97	1071.97
543.14	1109.41
543.31	1114.10
543.48	1053.24
543.64	1050.90
543.81	1055.58
543.98	1020.47
544.15	1025.15
544.32	997.07
544.48	950.26
544.65	877.70
544.82	1156.22
544.99	1043.88
545.16	1025.15
545.32	973.66
545.49	1544.75
545.66	2401.39
545.83	2747.79
546.00	2377.98
546.16	1640.72
546.33	1254.53
546.50	1104.73
546.67	936.21
546.83	781.74
547.00	807.48
547.17	711.52
547.34	702.16
547.50	704.50
547.67	664.71
547.84	606.20
548.00	664.71
548.17	683.44
548.34	641.31
548.51	709.18
548.67	617.90
548.84	596.84
549.01	641.31
549.18	559.39
549.34	692.80
549.51	564.07
549.68	547.69
549.84	599.18
550.01	519.60
550.18	566.41
550.34	521.94
550.51	458.74
550.68	564.07
550.84	435.34
551.01	470.45
551.18	489.17
551.34	472.79
551.51	437.68
551.68	458.74
551.84	498.53
552.01	418.96
552.18	442.36
552.34	414.27
552.51	461.09
552.68	402.57
552.84	360.44
553.01	365.12
553.18	365.12
553.34	365.12
553.51	367.46
553.67	344.06
553.84	435.34
554.01	292.57
554.17	386.19
554.34	236.39
554.51	351.08
554.67	334.70
554.84	353.42
555.00	315.97
555.17	238.73
555.33	252.78
555.50	269.16
555.67	255.12
555.83	259.80
556.00	224.69
556.16	400.23
556.33	276.18
556.50	271.50
556.66	292.57
556.83	285.55
556.99	243.42
557.16	313.63
557.32	227.03
557.49	224.69
557.65	241.08
557.82	285.55
557.98	252.78
558.15	280.86
558.32	238.73
558.48	252.78
558.65	294.91
558.81	285.55
558.98	308.95
559.14	306.61
559.31	346.40
559.47	306.61
559.64	311.29
559.80	294.91
559.97	215.33
560.13	285.55
560.30	248.10
560.46	252.78
560.63	285.55
560.79	234.05
560.96	236.39
561.12	187.24
561.29	227.03
561.45	313.63
561.61	224.69
561.78	341.72
561.94	294.91
562.11	301.93
562.27	290.23
562.44	138.09
562.60	234.05
562.77	250.44
562.93	362.78
563.10	280.86
563.26	252.78
563.42	308.95
563.59	236.39
563.75	248.10
563.92	264.48
564.08	276.18
564.24	341.72
564.41	388.53
564.57	255.12
564.74	205.97
564.90	229.37
565.07	271.50
565.23	227.03
565.39	290.23
565.56	212.99
565.72	238.73
565.88	259.80
566.05	210.65
566.21	273.84
566.38	220.01
566.54	220.01
566.70	189.58
566.87	276.18
567.03	177.88
567.19	318.31
567.36	283.20
567.52	241.08
567.68	231.71
567.85	217.67
568.01	212.99
568.17	259.80
568.34	217.67
568.50	271.50
568.66	234.05
568.83	327.68
568.99	227.03
569.15	248.10
569.32	217.67
569.48	243.42
569.64	255.12
569.81	227.03
569.97	287.89
570.13	294.91
570.30	252.78
570.46	159.16
570.62	245.76
570.78	283.20
570.95	241.08
571.11	285.55
571.27	259.80
571.43	220.01
571.60	271.50
571.76	266.82
571.92	196.60
572.09	255.12
572.25	245.76
572.41	194.26
572.57	236.39
572.74	224.69
572.90	330.02
573.06	283.20
573.22	297.25
573.38	257.46
573.55	262.14
573.71	301.93
573.87	383.85
574.03	215.33
574.20	245.76
574.36	271.50
574.52	252.78
574.68	259.80
574.84	208.31
575.01	283.20
575.17	285.55
575.33	203.63
575.49	283.20
575.65	238.73
575.82	241.08
575.98	327.68
576.14	308.95
576.30	337.04
576.46	482.15
576.62	704.50
576.79	748.97
576.95	678.76
577.11	395.55
577.27	393.21
577.43	372.15
577.59	369.80
577.75	255.12
577.92	252.78
578.08	248.10
578.24	278.52
578.40	339.38
578.56	531.30
578.72	660.03
578.88	592.16
579.04	463.43
579.21	447.04
579.37	362.78
579.53	374.49
579.69	393.21
579.85	418.96
580.01	423.64
580.17	381.51
580.33	393.21
580.49	369.80
580.65	311.29
580.82	409.59
580.98	348.74
581.14	297.25
581.30	355.76
581.46	447.04
581.62	433.00
581.78	346.40
581.94	365.12
582.10	379.17
582.26	425.98
582.42	367.46
582.58	503.22
582.74	393.21
582.90	395.55
583.06	393.21
583.22	332.36
583.38	353.42
583.54	411.93
583.70	400.23
583.86	440.02
584.02	337.04
584.18	407.25
584.34	379.17
584.50	524.28
584.66	379.17
584.82	372.15
584.98	407.25
585.14	369.80
585.30	369.80
585.46	400.23
585.62	400.23
585.78	308.95
585.94	386.19
586.10	376.83
586.26	358.10
586.42	358.10
586.58	465.77
586.74	561.73
586.90	475.13
587.06	599.18
587.22	603.86
587.38	465.77
587.54	479.81
587.70	512.58
587.86	456.40
588.02	322.99
588.18	407.25
588.34	461.09
588.49	292.57
588.65	344.06
588.81	337.04
588.97	299.59
589.13	334.70
589.29	301.93
589.45	351.08
589.61	311.29
589.77	390.87
589.93	337.04
590.08	344.06
590.24	252.78
590.40	355.76
590.56	280.86
590.72	308.95
590.88	285.55
591.04	351.08
591.20	390.87
591.35	365.12
591.51	304.27
591.67	330.02
591.83	369.80
591.99	402.57
592.15	418.96
592.31	390.87
592.46	442.36
592.62	390.87
592.78	414.27
592.94	454.06
593.10	524.28
593.26	376.83
593.41	444.70
593.57	332.36
593.73	388.53
593.89	276.18
594.05	348.74
594.20	273.84
594.36	287.89
594.52	351.08
594.68	234.05
594.84	292.57
594.99	339.38
595.15	315.97
595.31	262.14
595.47	248.10
595.62	241.08
595.78	320.65
595.94	306.61
596.10	341.72
596.25	313.63
596.41	290.23
596.57	280.86
596.73	313.63
596.88	278.52
597.04	334.70
597.20	348.74
597.36	365.12
597.51	255.12
597.67	301.93
597.83	332.36
597.99	381.51
598.14	341.72
598.30	315.97
598.46	222.35
598.61	299.59
598.77	362.78
598.93	372.15
599.09	430.66
599.24	374.49
599.40	313.63
599.56	311.29
599.71	313.63
599.87	313.63
600.03	360.44
600.18	318.31
600.34	308.95
600.50	241.08
600.65	308.95
600.81	271.50
600.97	418.96
601.12	355.76
601.28	351.08
601.44	311.29
601.59	238.73
601.75	292.57
601.91	201.29
602.06	224.69
602.22	351.08
602.37	325.33
602.53	299.59
602.69	241.08
602.84	222.35
603.00	234.05
603.16	257.46
603.31	346.40
603.47	313.63
603.62	280.86
603.78	280.86
603.94	320.65
604.09	311.29
604.25	269.16
604.40	351.08
604.56	285.55
604.71	245.76
604.87	187.24
605.03	222.35
605.18	259.80
605.34	355.76
605.49	210.65
605.65	273.84
605.80	318.31
605.96	386.19
606.12	266.82
606.27	327.68
606.43	355.76
606.58	278.52
606.74	280.86
606.89	315.97
607.05	330.02
607.20	308.95
607.36	337.04
607.51	304.27
607.67	334.70
607.82	318.31
607.98	353.42
608.13	339.38
608.29	341.72
608.44	362.78
608.60	425.98
608.75	493.85
608.91	458.74
609.06	454.06
609.22	465.77
609.37	505.56
609.53	615.56
609.68	671.73
609.84	594.50
609.99	753.65
610.15	861.32
610.30	1041.54
610.46	1336.45
610.61	1563.48
610.76	1909.88
610.92	2319.47
611.07	2530.12
611.23	2733.75
