SpectraSuite Data File
++++++++++++++++++++++++++++++++++++
Date: Fri Oct 04 11:42:16 GMT-05:00 2013
User: price-jones
Dark Spectrum Present: No
Reference Spectrum Present: No
Number of Sampled Component Spectra: 1
Spectrometers: USB2+H05261
Integration Time (usec): 100000 (USB2+H05261)
Spectra Averaged: 1 (USB2+H05261)
Boxcar Smoothing: 0 (USB2+H05261)
Correct for Electrical Dark: No (USB2+H05261)
Strobe/Lamp Enabled: No (USB2+H05261)
Correct for Detector Non-linearity: No (USB2+H05261)
Correct for Stray Light: No (USB2+H05261)
Number of Pixels in Processed Spectrum: 2048
>>>>>Begin Processed Spectral Data<<<<<
365.73	37.45
365.92	37.45
366.12	37.45
366.32	0.00
366.52	0.00
366.72	0.00
366.91	0.00
367.11	0.00
367.31	0.00
367.51	0.00
367.70	0.00
367.90	0.00
368.10	0.00
368.30	0.00
368.49	0.00
368.69	0.00
368.89	0.00
369.09	0.00
369.28	0.00
369.48	0.00
369.68	0.00
369.87	67.88
370.07	0.00
370.27	0.00
370.47	0.00
370.66	149.79
370.86	168.52
371.06	140.43
371.25	201.29
371.45	175.54
371.65	259.80
371.84	117.03
372.04	187.24
372.24	182.56
372.44	273.84
372.63	187.24
372.83	315.97
373.03	182.56
373.22	231.71
373.42	217.67
373.62	222.35
373.81	238.73
374.01	290.23
374.21	255.12
374.40	262.14
374.60	264.48
374.79	198.95
374.99	269.16
375.19	318.31
375.38	238.73
375.58	248.10
375.78	280.86
375.97	294.91
376.17	299.59
376.37	320.65
376.56	360.44
376.76	180.22
376.95	224.69
377.15	292.57
377.35	344.06
377.54	374.49
377.74	278.52
377.93	243.42
378.13	337.04
378.33	320.65
378.52	301.93
378.72	334.70
378.91	241.08
379.11	255.12
379.31	250.44
379.50	290.23
379.70	379.17
379.89	292.57
380.09	341.72
380.28	315.97
380.48	241.08
380.68	325.33
380.87	280.86
381.07	287.89
381.26	379.17
381.46	271.50
381.65	264.48
381.85	198.95
382.04	210.65
382.24	266.82
382.43	285.55
382.63	283.20
382.83	201.29
383.02	255.12
383.22	322.99
383.41	227.03
383.61	198.95
383.80	259.80
384.00	308.95
384.19	241.08
384.39	285.55
384.58	283.20
384.78	337.04
384.97	325.33
385.17	262.14
385.36	315.97
385.56	304.27
385.75	259.80
385.95	285.55
386.14	411.93
386.34	320.65
386.53	353.42
386.72	297.25
386.92	365.12
387.11	304.27
387.31	355.76
387.50	294.91
387.70	262.14
387.89	276.18
388.09	339.38
388.28	299.59
388.48	287.89
388.67	306.61
388.86	339.38
389.06	262.14
389.25	451.72
389.45	344.06
389.64	325.33
389.84	294.91
390.03	386.19
390.22	315.97
390.42	320.65
390.61	367.46
390.81	362.78
391.00	386.19
391.19	390.87
391.39	388.53
391.58	322.99
391.78	266.82
391.97	395.55
392.16	332.36
392.36	344.06
392.55	299.59
392.75	196.60
392.94	229.37
393.13	264.48
393.33	166.18
393.52	320.65
393.71	400.23
393.91	383.85
394.10	327.68
394.29	297.25
394.49	327.68
394.68	393.21
394.88	428.32
395.07	400.23
395.26	390.87
395.46	402.57
395.65	400.23
395.84	421.30
396.04	299.59
396.23	191.92
396.42	257.46
396.62	215.33
396.81	306.61
397.00	283.20
397.19	404.91
397.39	444.70
397.58	461.09
397.77	454.06
397.97	440.02
398.16	519.60
398.35	594.50
398.55	418.96
398.74	507.90
398.93	458.74
399.12	458.74
399.32	498.53
399.51	435.34
399.70	613.22
399.90	496.19
400.09	564.07
400.28	554.71
400.47	547.69
400.67	575.77
400.86	519.60
401.05	585.13
401.24	571.09
401.44	545.34
401.63	622.58
401.82	596.84
402.01	545.34
402.21	594.50
402.40	631.94
402.59	608.54
402.78	557.05
402.97	535.98
403.17	550.03
403.36	568.75
403.55	587.47
403.74	538.32
403.93	592.16
404.13	606.20
404.32	674.07
404.51	674.07
404.70	704.50
404.89	580.45
405.09	580.45
405.28	507.90
405.47	547.69
405.66	594.50
405.85	606.20
406.05	589.82
406.24	552.37
406.43	606.20
406.62	603.86
406.81	580.45
407.00	575.77
407.20	540.66
407.39	601.52
407.58	557.05
407.77	613.22
407.96	594.50
408.15	608.54
408.34	578.11
408.54	608.54
408.73	617.90
408.92	702.16
409.11	606.20
409.30	533.64
409.49	505.56
409.68	566.41
409.87	505.56
410.07	484.49
410.26	587.47
410.45	655.35
410.64	580.45
410.83	587.47
411.02	674.07
411.21	592.16
411.40	683.44
411.59	746.63
411.78	620.24
411.98	594.50
412.17	573.43
412.36	622.58
412.55	664.71
412.74	655.35
412.93	678.76
413.12	636.63
413.31	660.03
413.50	695.14
413.69	669.39
413.88	723.23
414.07	695.14
414.26	620.24
414.45	587.47
414.64	699.82
414.83	662.37
415.02	648.33
415.22	709.18
415.41	688.12
415.60	688.12
415.79	725.57
415.98	809.83
416.17	741.95
416.36	748.97
416.55	760.67
416.74	631.94
416.93	650.67
417.12	751.31
417.31	699.82
417.50	711.52
417.69	737.27
417.88	685.78
418.07	718.54
418.26	748.97
418.45	702.16
418.64	711.52
418.83	751.31
419.02	718.54
419.21	683.44
419.39	683.44
419.58	624.92
419.77	695.14
419.96	765.36
420.15	866.00
420.34	849.61
420.53	755.99
420.72	723.23
420.91	767.70
421.10	830.89
421.29	737.27
421.48	767.70
421.67	842.59
421.86	648.33
422.05	823.87
422.24	695.14
422.43	645.99
422.61	690.46
422.80	791.10
422.99	774.72
423.18	730.25
423.37	704.50
423.56	753.65
423.75	777.06
423.94	692.80
424.13	641.31
424.32	732.59
424.50	730.25
424.69	713.86
424.88	800.46
425.07	755.99
425.26	699.82
425.45	713.86
425.64	667.05
425.83	629.60
426.01	676.41
426.20	781.74
426.39	636.63
426.58	741.95
426.77	674.07
426.96	690.46
427.15	704.50
427.33	692.80
427.52	704.50
427.71	786.42
427.90	739.61
428.09	695.14
428.28	709.18
428.46	706.84
428.65	641.31
428.84	662.37
429.03	624.92
429.22	671.73
429.40	564.07
429.59	599.18
429.78	606.20
429.97	564.07
430.16	526.62
430.34	543.00
430.53	517.26
430.72	566.41
430.91	681.10
431.10	650.67
431.28	823.87
431.47	800.46
431.66	812.17
431.85	674.07
432.03	702.16
432.22	720.88
432.41	739.61
432.60	765.36
432.79	744.29
432.97	784.08
433.16	919.83
433.35	685.78
433.54	643.65
433.72	657.69
433.91	713.86
434.10	781.74
434.28	763.01
434.47	833.23
434.66	866.00
434.85	837.91
435.03	849.61
435.22	1149.20
435.41	1661.78
435.59	1638.38
435.78	1385.60
435.97	1121.12
436.16	966.64
436.34	905.79
436.53	833.23
436.72	856.64
436.90	697.48
437.09	866.00
437.28	732.59
437.46	786.42
437.65	863.66
437.84	763.01
438.02	798.12
438.21	727.91
438.40	765.36
438.58	774.72
438.77	856.64
438.96	814.51
439.14	861.32
439.33	910.47
439.52	833.23
439.70	805.14
439.89	908.13
440.08	840.25
440.26	854.30
440.45	755.99
440.63	870.68
440.82	971.32
441.01	894.08
441.19	835.57
441.38	983.02
441.57	922.17
441.75	933.87
441.94	983.02
442.12	922.17
442.31	919.83
442.50	915.15
442.68	919.83
442.87	905.79
443.05	922.17
443.24	1043.88
443.43	945.58
443.61	1011.11
443.80	882.38
443.98	964.30
444.17	966.64
444.35	929.19
444.54	912.81
444.73	954.94
444.91	894.08
445.10	858.98
445.28	821.53
445.47	884.72
445.65	882.38
445.84	887.06
446.02	858.98
446.21	976.00
446.39	945.58
446.58	940.90
446.77	924.51
446.95	964.30
447.14	994.73
447.32	1027.50
447.51	882.38
447.69	980.68
447.88	877.70
448.06	957.28
448.25	1053.24
448.43	1004.09
448.62	908.13
448.80	945.58
448.99	1039.20
449.17	908.13
449.36	959.62
449.54	992.39
449.73	950.26
449.91	1088.35
450.10	1020.47
450.28	1074.31
450.46	1153.88
450.65	1018.13
450.83	1018.13
451.02	964.30
451.20	1011.11
451.39	1060.26
451.57	999.41
451.76	1027.50
451.94	1018.13
452.13	1114.10
452.31	968.98
452.49	868.34
452.68	954.94
452.86	915.15
453.05	936.21
453.23	945.58
453.42	1020.47
453.60	915.15
453.78	1081.33
453.97	950.26
454.15	929.19
454.34	999.41
454.52	931.53
454.70	947.92
454.89	929.19
455.07	961.96
455.26	976.00
455.44	1083.67
455.62	1011.11
455.81	1006.43
455.99	1149.20
456.17	1032.18
456.36	1034.52
456.54	964.30
456.73	1083.67
456.91	1104.73
457.09	1025.15
457.28	1100.05
457.46	1067.28
457.64	1060.26
457.83	1020.47
458.01	950.26
458.19	1004.09
458.38	999.41
458.56	936.21
458.74	1067.28
458.93	1015.79
459.11	1006.43
459.29	1015.79
459.48	997.07
459.66	1048.56
459.84	1008.77
460.03	1116.44
460.21	1083.67
460.39	1008.77
460.57	1086.01
460.76	1083.67
460.94	966.64
461.12	1100.05
461.31	973.66
461.49	1050.90
461.67	1144.52
461.85	1088.35
462.04	1083.67
462.22	1263.89
462.40	1137.50
462.59	1034.52
462.77	1076.65
462.95	1074.31
463.13	1013.45
463.32	1071.97
463.50	1032.18
463.68	1116.44
463.86	1064.94
464.05	1146.86
464.23	1015.79
464.41	1146.86
464.59	1015.79
464.78	1025.15
464.96	1107.07
465.14	945.58
465.32	1011.11
465.50	1050.90
465.69	1170.27
465.87	1111.75
466.05	1076.65
466.23	1039.20
466.41	901.11
466.60	1081.33
466.78	1067.28
466.96	997.07
467.14	1116.44
467.32	980.68
467.51	1039.20
467.69	1104.73
467.87	1135.16
468.05	1050.90
468.23	1163.25
468.41	1062.60
468.60	992.39
468.78	1097.71
468.96	1041.54
469.14	1060.26
469.32	1109.41
469.50	884.72
469.69	980.68
469.87	1053.24
470.05	978.34
470.23	983.02
470.41	1020.47
470.59	1102.39
470.77	1144.52
470.95	978.34
471.14	1139.84
471.32	1022.81
471.50	1118.78
471.68	1095.37
471.86	1111.75
472.04	1088.35
472.22	1158.57
472.40	1001.75
472.58	1018.13
472.77	1050.90
472.95	1076.65
473.13	1130.48
473.31	1121.12
473.49	1074.31
473.67	1090.69
473.85	1200.69
474.03	1210.06
474.21	1107.07
474.39	1205.38
474.57	1163.25
474.75	1114.10
474.93	1137.50
475.12	1095.37
475.30	1172.61
475.48	1107.07
475.66	1036.86
475.84	1118.78
476.02	1071.97
476.20	1142.18
476.38	1151.54
476.56	1188.99
476.74	1156.22
476.92	1196.01
477.10	1184.31
477.28	1174.95
477.46	1268.57
477.64	1170.27
477.82	1212.40
478.00	1160.91
478.18	1259.21
478.36	1212.40
478.54	1163.25
478.72	1221.76
478.90	1158.57
479.08	1273.25
479.26	1373.89
479.44	1376.24
479.62	1277.93
479.80	1270.91
479.98	1226.44
480.16	1233.46
480.34	1320.06
480.52	1270.91
480.70	1263.89
480.88	1282.61
481.06	1380.92
481.24	1413.68
481.41	1420.71
481.59	1394.96
481.77	1399.64
481.95	1259.21
482.13	1476.88
482.31	1488.58
482.49	1425.39
482.67	1376.24
482.85	1423.05
483.03	1397.30
483.21	1472.20
483.39	1465.18
483.57	1418.36
483.74	1420.71
483.92	1495.60
484.10	1444.11
484.28	1385.60
484.46	1406.66
484.64	1495.60
484.82	1474.54
485.00	1458.15
485.18	1350.49
485.35	1481.56
485.53	1303.68
485.71	1249.85
485.89	1240.48
486.07	1256.87
486.25	1369.21
486.43	1397.30
486.61	1509.65
486.78	1427.73
486.96	1455.81
487.14	1427.73
487.32	1497.94
487.50	1612.63
487.68	1593.90
487.85	1586.88
488.03	1685.19
488.21	1703.91
488.39	1589.22
488.57	1479.22
488.75	1584.54
488.92	1919.24
489.10	1647.74
489.28	1706.25
489.46	1717.95
489.64	1736.68
489.81	1776.47
489.99	1652.42
490.17	1722.63
490.35	1902.86
490.53	1832.64
490.70	1774.13
490.88	1699.23
491.06	1680.50
491.24	1830.30
491.41	1727.32
491.59	1689.87
491.77	1547.09
491.95	1537.73
492.13	1631.35
492.30	1767.10
492.48	1802.21
492.66	1837.32
492.84	1797.53
493.01	1823.28
493.19	1816.26
493.37	1760.08
493.54	1746.04
493.72	1830.30
493.90	1783.49
494.08	1809.23
494.25	1888.81
494.43	1863.07
494.61	1797.53
494.79	1839.66
494.96	1886.47
495.14	1893.49
495.32	1778.81
495.49	1785.83
495.67	1909.88
495.85	1837.32
496.02	1849.02
496.20	1954.35
496.38	1914.56
496.55	1961.37
496.73	1961.37
496.91	1942.64
497.09	1968.39
497.26	1949.67
497.44	1839.66
497.62	1914.56
497.79	1923.92
497.97	1874.77
498.14	1771.79
498.32	1792.85
498.50	1851.36
498.67	1916.90
498.85	1940.30
499.03	1930.94
499.20	1982.43
499.38	1984.77
499.56	1991.80
499.73	1989.46
499.91	1952.01
500.08	1842.00
500.26	1872.43
500.44	1937.96
500.61	1825.62
500.79	1844.34
500.97	1809.23
501.14	1762.42
501.32	1785.83
501.49	1736.68
501.67	1827.96
501.84	1792.85
502.02	1839.66
502.20	1867.75
502.37	1968.39
502.55	1863.07
502.72	1863.07
502.90	1933.28
503.07	1823.28
503.25	1842.00
503.43	1823.28
503.60	1694.55
503.78	1614.97
503.95	1760.08
504.13	1778.81
504.30	1996.48
504.48	1827.96
504.65	1827.96
504.83	1858.39
505.01	1863.07
505.18	1944.99
505.36	2040.95
505.53	1989.46
505.71	2012.86
505.88	2045.63
506.06	1898.17
506.23	1909.88
506.41	1900.52
506.58	1977.75
506.76	1898.17
506.93	1837.32
507.11	2026.90
507.28	1893.49
507.46	1844.34
507.63	1888.81
507.81	1867.75
507.98	1851.36
508.16	1879.45
508.33	1870.09
508.50	1987.11
508.68	1966.05
508.85	2062.01
509.03	2090.10
509.20	1944.99
509.38	1928.60
509.55	1900.52
509.73	1989.46
509.90	1926.26
510.08	1949.67
510.25	2080.74
510.42	2015.20
510.60	1966.05
510.77	1952.01
510.95	2012.86
511.12	2108.82
511.30	2087.76
511.47	2066.69
511.64	2026.90
511.82	2036.27
511.99	2008.18
512.17	2104.14
512.34	1937.96
512.51	1980.09
512.69	1956.69
512.86	2005.84
513.04	1996.48
513.21	1898.17
513.38	2038.61
513.56	1935.62
513.73	1916.90
513.90	1893.49
514.08	1895.83
514.25	1942.64
514.43	2001.16
514.60	1989.46
514.77	1823.28
514.95	1952.01
515.12	1933.28
515.29	2106.48
515.47	2083.08
515.64	2045.63
515.81	2033.93
515.99	2019.88
516.16	1935.62
516.33	1881.79
516.51	1607.95
516.68	1605.61
516.85	1544.75
517.03	1703.91
517.20	1811.57
517.37	1900.52
517.54	2003.50
517.72	1895.83
517.89	1743.70
518.06	1720.29
518.24	1701.57
518.41	1844.34
518.58	1933.28
518.75	1863.07
518.93	1853.70
519.10	1881.79
519.27	1877.11
519.45	1980.09
519.62	2029.24
519.79	2003.50
519.96	1944.99
520.14	1923.92
520.31	1956.69
520.48	1895.83
520.65	1935.62
520.83	1940.30
521.00	2113.50
521.17	1949.67
521.34	1935.62
521.52	1921.58
521.69	2038.61
521.86	1966.05
522.03	1977.75
522.20	2080.74
522.38	1872.43
522.55	1842.00
522.72	1956.69
522.89	1947.33
523.07	1970.73
523.24	1893.49
523.41	2097.12
523.58	2071.37
523.75	2118.18
523.92	2078.40
524.10	2073.71
524.27	1937.96
524.44	2052.65
524.61	2066.69
524.78	2015.20
524.96	2029.24
525.13	2029.24
525.30	2005.84
525.47	2146.27
525.64	2174.36
525.81	2083.08
525.98	2040.95
526.16	1886.47
526.33	1832.64
526.50	1757.74
526.67	1760.08
526.84	1776.47
527.01	1788.17
527.18	1942.64
527.36	1900.52
527.53	1982.43
527.70	2155.63
527.87	2017.54
528.04	1989.46
528.21	2047.97
528.38	2010.52
528.55	2026.90
528.72	2179.04
528.89	2143.93
529.07	2120.53
529.24	2057.33
529.41	2029.24
529.58	2057.33
529.75	1989.46
529.92	2038.61
530.09	2062.01
530.26	2097.12
530.43	2104.14
530.60	2057.33
530.77	2216.49
530.94	2111.16
531.11	2195.42
531.28	2153.29
531.46	2071.37
531.63	2043.29
531.80	2010.52
531.97	2080.74
532.14	1933.28
532.31	1954.35
532.48	1827.96
532.65	1891.15
532.82	1973.07
532.99	1970.73
533.16	2038.61
533.33	2080.74
533.50	2129.89
533.67	2033.93
533.84	2078.40
534.01	2064.35
534.18	2033.93
534.35	1944.99
534.52	2022.22
534.69	2139.25
534.86	2127.55
535.03	2090.10
535.20	2085.42
535.37	2157.97
535.54	2120.53
535.71	2153.29
535.88	2190.74
536.05	1998.82
536.22	2008.18
536.38	2150.95
536.55	1935.62
536.72	2005.84
536.89	1900.52
537.06	2099.46
537.23	2165.00
537.40	2043.29
537.57	2064.35
537.74	2066.69
537.91	2202.44
538.08	2157.97
538.25	2139.25
538.42	2050.31
538.59	2193.08
538.75	2148.61
538.92	2038.61
539.09	2188.40
539.26	2181.38
539.43	2146.27
539.60	2174.36
539.77	2265.64
539.94	2321.81
540.11	2150.95
540.28	2314.79
540.44	2139.25
540.61	2321.81
540.78	2455.22
540.95	2504.37
541.12	2691.62
541.29	2782.90
541.46	2710.34
541.62	2757.15
541.79	2778.22
541.96	2736.09
542.13	2626.08
542.30	2565.23
542.47	2644.81
542.63	2516.08
542.80	2588.63
542.97	2661.19
543.14	2476.29
543.31	2579.27
543.48	2555.86
543.64	2630.76
543.81	2745.45
543.98	2684.59
544.15	2525.44
544.32	2483.31
544.48	2555.86
544.65	2567.57
544.82	2612.04
544.99	2541.82
545.16	2605.02
545.32	2499.69
545.49	3012.27
545.66	3824.44
545.83	4287.86
546.00	4065.51
546.16	3316.54
546.33	2944.39
546.50	2630.76
546.67	2527.78
546.83	2408.41
547.00	2438.84
547.17	2282.02
547.34	2380.32
547.50	2333.51
547.67	2165.00
547.84	2279.68
548.00	2286.70
548.17	2345.22
548.34	2366.28
548.51	2312.45
548.67	2347.56
548.84	2296.07
549.01	2256.28
549.18	2277.34
549.34	2314.79
549.51	2258.62
549.68	2204.78
549.84	2237.55
550.01	2127.55
550.18	2176.70
550.34	2108.82
550.51	2090.10
550.68	2125.21
550.84	2010.52
551.01	2073.71
551.18	2106.48
551.34	2015.20
551.51	2113.50
551.68	2087.76
551.84	2050.31
552.01	2162.66
552.18	2024.56
552.34	2017.54
552.51	1898.17
552.68	1980.09
552.84	1994.14
553.01	2092.44
553.18	1973.07
553.34	1994.14
553.51	1954.35
553.67	1998.82
553.84	2246.91
554.01	1982.43
554.17	1968.39
554.34	2005.84
554.51	1961.37
554.67	2005.84
554.84	1968.39
555.00	1942.64
555.17	2005.84
555.33	1888.81
555.50	1959.03
555.67	1937.96
555.83	1853.70
556.00	1898.17
556.16	2097.12
556.33	1949.67
556.50	1830.30
556.66	1816.26
556.83	1959.03
556.99	1853.70
557.16	1820.94
557.32	1905.20
557.49	1818.60
557.65	1928.60
557.82	1921.58
557.98	1937.96
558.15	1776.47
558.32	1748.38
558.48	1811.57
558.65	1834.98
558.81	1907.54
558.98	1760.08
559.14	1837.32
559.31	1888.81
559.47	1811.57
559.64	1790.51
559.80	1795.19
559.97	1668.80
560.13	1706.25
560.30	1706.25
560.46	1799.87
560.63	1764.76
560.79	1877.11
560.96	1914.56
561.12	1778.81
561.29	1856.04
561.45	1802.21
561.61	1799.87
561.78	1942.64
561.94	1771.79
562.11	1839.66
562.27	1856.04
562.44	1853.70
562.60	1849.02
562.77	1874.77
562.93	1834.98
563.10	1757.74
563.26	1893.49
563.42	1827.96
563.59	1832.64
563.75	1813.92
563.92	1879.45
564.08	1771.79
564.24	1844.34
564.41	1853.70
564.57	1872.43
564.74	1722.63
564.90	1741.36
565.07	1708.59
565.23	1823.28
565.39	1680.50
565.56	1685.19
565.72	1823.28
565.88	1647.74
566.05	1715.61
566.21	1788.17
566.38	1699.23
566.54	1727.32
566.70	1734.34
566.87	1879.45
567.03	1734.34
567.19	1832.64
567.36	1753.06
567.52	1685.19
567.68	1741.36
567.85	1746.04
568.01	1657.10
568.17	1675.82
568.34	1687.53
568.50	1582.20
568.66	1565.82
568.83	1743.70
568.99	1619.65
569.15	1715.61
569.32	1554.12
569.48	1645.40
569.64	1621.99
569.81	1612.63
569.97	1647.74
570.13	1619.65
570.30	1638.38
570.46	1657.10
570.62	1476.88
570.78	1519.01
570.95	1519.01
571.11	1605.61
571.27	1699.23
571.43	1626.67
571.60	1703.91
571.76	1675.82
571.92	1593.90
572.09	1661.78
572.25	1699.23
572.41	1650.08
572.57	1624.33
572.74	1717.95
572.90	1652.42
573.06	1666.46
573.22	1654.76
573.38	1659.44
573.55	1680.50
573.71	1739.02
573.87	1717.95
574.03	1647.74
574.20	1582.20
574.36	1568.16
574.52	1598.59
574.68	1549.43
574.84	1659.44
575.01	1600.93
575.17	1675.82
575.33	1533.05
575.49	1636.03
575.65	1593.90
575.82	1652.42
575.98	1699.23
576.14	1600.93
576.30	1626.67
576.46	1842.00
576.62	1935.62
576.79	2005.84
576.95	1853.70
577.11	1710.93
577.27	1710.93
577.43	1706.25
577.59	1727.32
577.75	1591.56
577.92	1582.20
578.08	1607.95
578.24	1490.92
578.40	1734.34
578.56	1753.06
578.72	1914.56
578.88	1949.67
579.04	1994.14
579.21	1746.04
579.37	1659.44
579.53	1701.57
579.69	1818.60
579.85	1764.76
580.01	1703.91
580.17	1689.87
580.33	1680.50
580.49	1734.34
580.65	1680.50
580.82	1699.23
580.98	1685.19
581.14	1720.29
581.30	1687.53
581.46	1664.12
581.62	1713.27
581.78	1732.00
581.94	1720.29
582.10	1715.61
582.26	1760.08
582.42	1722.63
582.58	1706.25
582.74	1781.15
582.90	1806.89
583.06	1722.63
583.22	1755.40
583.38	1788.17
583.54	1739.02
583.70	1811.57
583.86	1757.74
584.02	1799.87
584.18	1771.79
584.34	1802.21
584.50	1661.78
584.66	1692.21
584.82	1624.33
584.98	1673.48
585.14	1664.12
585.30	1626.67
585.46	1568.16
585.62	1598.59
585.78	1621.99
585.94	1558.80
586.10	1666.46
586.26	1631.35
586.42	1675.82
586.58	1795.19
586.74	1673.48
586.90	1764.76
587.06	1856.04
587.22	1710.93
587.38	1741.36
587.54	1708.59
587.70	1675.82
587.86	1605.61
588.02	1455.81
588.18	1509.65
588.34	1432.41
588.49	1219.42
588.65	1252.19
588.81	1219.42
588.97	1224.10
589.13	1254.53
589.29	1146.86
589.45	1196.01
589.61	1242.82
589.77	1331.76
589.93	1303.68
590.08	1306.02
590.24	1355.17
590.40	1509.65
590.56	1371.55
590.72	1437.09
590.88	1394.96
591.04	1404.32
591.20	1409.00
591.35	1359.85
591.51	1301.34
591.67	1343.47
591.83	1423.05
591.99	1348.15
592.15	1406.66
592.31	1474.54
592.46	1537.73
592.62	1537.73
592.78	1631.35
592.94	1607.95
593.10	1614.97
593.26	1523.69
593.41	1528.37
593.57	1530.71
593.73	1476.88
593.89	1397.30
594.05	1348.15
594.20	1245.16
594.36	1331.76
594.52	1287.29
594.68	1266.23
594.84	1413.68
594.99	1322.40
595.15	1364.53
595.31	1364.53
595.47	1437.09
595.62	1301.34
595.78	1317.72
595.94	1383.26
596.10	1451.13
596.25	1413.68
596.41	1404.32
596.57	1301.34
596.73	1329.42
596.88	1376.24
597.04	1411.34
597.20	1413.68
597.36	1409.00
597.51	1369.21
597.67	1401.98
597.83	1359.85
597.99	1444.11
598.14	1481.56
598.30	1423.05
598.46	1406.66
598.61	1427.73
598.77	1373.89
598.93	1455.81
599.09	1474.54
599.24	1446.45
599.40	1469.86
599.56	1504.96
599.71	1502.62
599.87	1352.83
600.03	1406.66
600.18	1497.94
600.34	1472.20
600.50	1392.62
600.65	1366.87
600.81	1385.60
600.97	1476.88
