SpectraSuite Data File
++++++++++++++++++++++++++++++++++++
Date: Fri Oct 04 11:41:53 GMT-05:00 2013
User: price-jones
Dark Spectrum Present: No
Reference Spectrum Present: No
Number of Sampled Component Spectra: 1
Spectrometers: USB2+H05261
Integration Time (usec): 100000 (USB2+H05261)
Spectra Averaged: 1 (USB2+H05261)
Boxcar Smoothing: 0 (USB2+H05261)
Correct for Electrical Dark: No (USB2+H05261)
Strobe/Lamp Enabled: No (USB2+H05261)
Correct for Detector Non-linearity: No (USB2+H05261)
Correct for Stray Light: No (USB2+H05261)
Number of Pixels in Processed Spectrum: 2048
>>>>>Begin Processed Spectral Data<<<<<
365.73	58.51
365.92	58.51
366.12	58.51
366.32	0.00
366.52	0.00
366.72	0.00
366.91	0.00
367.11	0.00
367.31	0.00
367.51	0.00
367.70	0.00
367.90	0.00
368.10	0.00
368.30	0.00
368.49	0.00
368.69	0.00
368.89	0.00
369.09	0.00
369.28	0.00
369.48	0.00
369.68	25.75
369.87	0.00
370.07	0.00
370.27	65.54
370.47	60.85
370.66	37.45
370.86	49.15
371.06	100.64
371.25	35.11
371.45	0.00
371.65	102.98
371.84	44.47
372.04	88.94
372.24	86.60
372.44	70.22
372.63	49.15
372.83	86.60
373.03	74.90
373.22	88.94
373.42	159.16
373.62	117.03
373.81	46.81
374.01	184.90
374.21	102.98
374.40	119.37
374.60	163.84
374.79	107.66
374.99	154.48
375.19	95.96
375.38	105.32
375.58	149.79
375.78	147.45
375.97	177.88
376.17	224.69
376.37	170.86
376.56	119.37
376.76	191.92
376.95	131.07
377.15	124.05
377.35	147.45
377.54	81.92
377.74	84.26
377.93	105.32
378.13	138.09
378.33	203.63
378.52	184.90
378.72	154.48
378.91	121.71
379.11	88.94
379.31	161.50
379.50	110.01
379.70	168.52
379.89	124.05
380.09	100.64
380.28	95.96
380.48	84.26
380.68	128.73
380.87	30.43
381.07	86.60
381.26	114.69
381.46	105.32
381.65	124.05
381.85	117.03
382.04	121.71
382.24	100.64
382.43	110.01
382.63	88.94
382.83	138.09
383.02	156.82
383.22	215.33
383.41	77.24
383.61	145.11
383.80	121.71
384.00	182.56
384.19	121.71
384.39	60.85
384.58	42.13
384.78	138.09
384.97	121.71
385.17	93.62
385.36	145.11
385.56	140.43
385.75	114.69
385.95	154.48
386.14	110.01
386.34	105.32
386.53	102.98
386.72	124.05
386.92	86.60
387.11	63.19
387.31	119.37
387.50	102.98
387.70	72.56
387.89	124.05
388.09	91.28
388.28	93.62
388.48	86.60
388.67	145.11
388.86	100.64
389.06	98.30
389.25	102.98
389.45	93.62
389.64	175.54
389.84	140.43
390.03	107.66
390.22	142.77
390.42	147.45
390.61	105.32
390.81	72.56
391.00	121.71
391.19	110.01
391.39	114.69
391.58	110.01
391.78	135.75
391.97	168.52
392.16	95.96
392.36	154.48
392.55	159.16
392.75	42.13
392.94	39.79
393.13	98.30
393.33	9.36
393.52	102.98
393.71	166.18
393.91	79.58
394.10	42.13
394.29	91.28
394.49	149.79
394.68	98.30
394.88	163.84
395.07	168.52
395.26	140.43
395.46	133.41
395.65	114.69
395.84	168.52
396.04	161.50
396.23	98.30
396.42	119.37
396.62	107.66
396.81	72.56
397.00	133.41
397.19	70.22
397.39	154.48
397.58	159.16
397.77	168.52
397.97	168.52
398.16	196.60
398.35	145.11
398.55	152.13
398.74	142.77
398.93	110.01
399.12	60.85
399.32	93.62
399.51	72.56
399.70	124.05
399.90	112.35
400.09	177.88
400.28	112.35
400.47	138.09
400.67	168.52
400.86	149.79
401.05	100.64
401.24	168.52
401.44	121.71
401.63	145.11
401.82	131.07
402.01	142.77
402.21	86.60
402.40	79.58
402.59	159.16
402.78	110.01
402.97	135.75
403.17	156.82
403.36	217.67
403.55	243.42
403.74	463.43
403.93	1350.49
404.13	2825.03
404.32	3349.31
404.51	2766.51
404.70	1554.12
404.89	674.07
405.09	301.93
405.28	222.35
405.47	142.77
405.66	234.05
405.85	177.88
406.05	112.35
406.24	147.45
406.43	175.54
406.62	112.35
406.81	262.14
407.00	285.55
407.20	402.57
407.39	545.34
407.58	517.26
407.77	355.76
407.96	227.03
408.15	152.13
408.34	140.43
408.54	93.62
408.73	145.11
408.92	138.09
409.11	105.32
409.30	124.05
409.49	147.45
409.68	170.86
409.87	135.75
410.07	161.50
410.26	220.01
410.45	142.77
410.64	166.18
410.83	93.62
411.02	234.05
411.21	126.39
411.40	182.56
411.59	198.95
411.78	182.56
411.98	175.54
412.17	191.92
412.36	215.33
412.55	112.35
412.74	117.03
412.93	243.42
413.12	168.52
413.31	248.10
413.50	126.39
413.69	140.43
413.88	201.29
414.07	182.56
414.26	255.12
414.45	175.54
414.64	180.22
414.83	154.48
415.02	88.94
415.22	180.22
415.41	170.86
415.60	180.22
415.79	175.54
415.98	227.03
416.17	210.65
416.36	175.54
416.55	215.33
416.74	220.01
416.93	234.05
417.12	245.76
417.31	161.50
417.50	140.43
417.69	201.29
417.88	149.79
418.07	147.45
418.26	124.05
418.45	229.37
418.64	257.46
418.83	234.05
419.02	248.10
419.21	234.05
419.39	196.60
419.58	198.95
419.77	212.99
419.96	201.29
420.15	231.71
420.34	205.97
420.53	145.11
420.72	194.26
420.91	131.07
421.10	205.97
421.29	166.18
421.48	224.69
421.67	208.31
421.86	194.26
422.05	187.24
422.24	222.35
422.43	194.26
422.61	138.09
422.80	241.08
422.99	217.67
423.18	241.08
423.37	266.82
423.56	196.60
423.75	222.35
423.94	170.86
424.13	224.69
424.32	234.05
424.50	222.35
424.69	241.08
424.88	222.35
425.07	222.35
425.26	163.84
425.45	273.84
425.64	243.42
425.83	205.97
426.01	245.76
426.20	241.08
426.39	196.60
426.58	276.18
426.77	201.29
426.96	205.97
427.15	229.37
427.33	278.52
427.52	318.31
427.71	278.52
427.90	100.64
428.09	194.26
428.28	248.10
428.46	224.69
428.65	255.12
428.84	220.01
429.03	266.82
429.22	245.76
429.40	198.95
429.59	290.23
429.78	278.52
429.97	276.18
430.16	229.37
430.34	259.80
430.53	269.16
430.72	205.97
430.91	203.63
431.10	243.42
431.28	304.27
431.47	224.69
431.66	318.31
431.85	177.88
432.03	294.91
432.22	360.44
432.41	330.02
432.60	318.31
432.79	241.08
432.97	287.89
433.16	287.89
433.35	325.33
433.54	397.89
433.72	337.04
433.91	367.46
434.10	421.30
434.28	531.30
434.47	573.43
434.66	634.29
434.85	793.44
435.03	2518.42
435.22	8358.05
435.41	15466.26
435.59	13778.73
435.78	8718.50
435.97	4208.28
436.16	1652.42
436.34	732.59
436.53	484.49
436.72	383.85
436.90	334.70
437.09	315.97
437.28	301.93
437.46	353.42
437.65	315.97
437.84	362.78
438.02	346.40
438.21	271.50
438.40	238.73
438.58	276.18
438.77	315.97
438.96	278.52
439.14	308.95
439.33	308.95
439.52	276.18
439.70	250.44
439.89	276.18
440.08	306.61
440.26	234.05
440.45	313.63
440.63	283.20
440.82	294.91
441.01	276.18
441.19	283.20
441.38	379.17
441.57	297.25
441.75	315.97
441.94	297.25
442.12	285.55
442.31	301.93
442.50	278.52
442.68	367.46
442.87	163.84
443.05	224.69
443.24	229.37
443.43	252.78
443.61	390.87
443.80	318.31
443.98	245.76
444.17	416.62
444.35	383.85
444.54	283.20
444.73	351.08
444.91	355.76
445.10	320.65
445.28	227.03
445.47	227.03
445.65	346.40
445.84	245.76
446.02	255.12
446.21	269.16
446.39	313.63
446.58	337.04
446.77	285.55
446.95	292.57
447.14	351.08
447.32	280.86
447.51	248.10
447.69	325.33
447.88	315.97
448.06	379.17
448.25	227.03
448.43	262.14
448.62	290.23
448.80	341.72
448.99	301.93
449.17	344.06
449.36	252.78
449.54	318.31
449.73	311.29
449.91	355.76
450.10	215.33
450.28	320.65
450.46	355.76
450.65	407.25
450.83	353.42
451.02	194.26
451.20	322.99
451.39	269.16
451.57	308.95
451.76	304.27
451.94	313.63
452.13	278.52
452.31	322.99
452.49	283.20
452.68	332.36
452.86	297.25
453.05	334.70
453.23	266.82
453.42	170.86
453.60	259.80
453.78	248.10
453.97	229.37
454.15	210.65
454.34	231.71
454.52	318.31
454.70	334.70
454.89	278.52
455.07	243.42
455.26	280.86
455.44	360.44
455.62	285.55
455.81	285.55
455.99	271.50
456.17	315.97
456.36	322.99
456.54	290.23
456.73	208.31
456.91	322.99
457.09	351.08
457.28	337.04
457.46	266.82
457.64	367.46
457.83	285.55
458.01	283.20
458.19	243.42
458.38	285.55
458.56	224.69
458.74	304.27
458.93	297.25
459.11	271.50
459.29	304.27
459.48	287.89
459.66	308.95
459.84	250.44
460.03	339.38
460.21	306.61
460.39	262.14
460.57	351.08
460.76	339.38
460.94	351.08
461.12	376.83
461.31	360.44
461.49	283.20
461.67	332.36
461.85	301.93
462.04	201.29
462.22	767.70
462.40	325.33
462.59	308.95
462.77	264.48
462.95	259.80
463.13	376.83
463.32	322.99
463.50	245.76
463.68	273.84
463.86	311.29
464.05	320.65
464.23	315.97
464.41	330.02
464.59	269.16
464.78	322.99
464.96	271.50
465.14	287.89
465.32	266.82
465.50	308.95
465.69	301.93
465.87	322.99
466.05	315.97
466.23	294.91
466.41	262.14
466.60	311.29
466.78	294.91
466.96	353.42
467.14	383.85
467.32	276.18
467.51	280.86
467.69	278.52
467.87	339.38
468.05	255.12
468.23	311.29
468.41	325.33
468.60	280.86
468.78	287.89
468.96	255.12
469.14	250.44
469.32	308.95
469.50	236.39
469.69	271.50
469.87	299.59
470.05	304.27
470.23	297.25
470.41	320.65
470.59	266.82
470.77	327.68
470.95	337.04
471.14	348.74
471.32	273.84
471.50	311.29
471.68	299.59
471.86	344.06
472.04	287.89
472.22	241.08
472.40	320.65
472.58	292.57
472.77	285.55
472.95	294.91
473.13	362.78
473.31	332.36
473.49	313.63
473.67	276.18
473.85	294.91
474.03	245.76
474.21	287.89
474.39	341.72
474.57	337.04
474.75	290.23
474.93	313.63
475.12	257.46
475.30	250.44
475.48	266.82
475.66	313.63
475.84	304.27
476.02	332.36
476.20	227.03
476.38	318.31
476.56	271.50
476.74	318.31
476.92	236.39
477.10	257.46
477.28	320.65
477.46	290.23
477.64	339.38
477.82	255.12
478.00	339.38
478.18	348.74
478.36	292.57
478.54	330.02
478.72	283.20
478.90	315.97
479.08	372.15
479.26	348.74
479.44	332.36
479.62	311.29
479.80	372.15
479.98	395.55
480.16	311.29
480.34	435.34
480.52	346.40
480.70	397.89
480.88	407.25
481.06	472.79
481.24	435.34
481.41	472.79
481.59	535.98
481.77	559.39
481.95	535.98
482.13	643.65
482.31	603.86
482.49	594.50
482.67	688.12
482.85	751.31
483.03	760.67
483.21	795.78
483.39	763.01
483.57	903.45
483.74	933.87
483.92	903.45
484.10	957.28
484.28	1111.75
484.46	1128.14
484.64	1186.65
484.82	1177.29
485.00	1289.64
485.18	1261.55
485.35	1343.47
485.53	1458.15
485.71	1535.39
485.89	1416.02
486.07	1586.88
486.25	1614.97
486.43	1732.00
486.61	1614.97
486.78	1596.25
486.96	1521.35
487.14	1614.97
487.32	1600.93
487.50	1582.20
487.68	1547.09
487.85	1474.54
488.03	1629.01
488.21	1530.71
488.39	1416.02
488.57	1413.68
488.75	1383.26
488.92	1600.93
489.10	1355.17
489.28	1277.93
489.46	1280.27
489.64	1291.98
489.81	1320.06
489.99	1301.34
490.17	1315.38
490.35	1373.89
490.53	1153.88
490.70	1193.67
490.88	1128.14
491.06	1242.82
491.24	1322.40
491.41	1331.76
491.59	1273.25
491.77	1158.57
491.95	1170.27
492.13	1179.63
492.30	1125.80
492.48	1055.58
492.66	1135.16
492.84	1111.75
493.01	1107.07
493.19	1071.97
493.37	976.00
493.54	1104.73
493.72	1004.09
493.90	1006.43
494.08	882.38
494.25	976.00
494.43	929.19
494.61	891.74
494.79	915.15
494.96	976.00
495.14	866.00
495.32	926.85
495.49	952.60
495.67	856.64
495.85	837.91
496.02	903.45
496.20	976.00
496.38	854.30
496.55	866.00
496.73	821.53
496.91	800.46
497.09	894.08
497.26	755.99
497.44	763.01
497.62	842.59
497.79	706.84
497.97	781.74
498.14	770.04
498.32	676.41
498.50	711.52
498.67	755.99
498.85	681.10
499.03	634.29
499.20	667.05
499.38	631.94
499.56	566.41
499.73	676.41
499.91	610.88
500.08	535.98
500.26	564.07
500.44	566.41
500.61	622.58
500.79	491.51
500.97	524.28
501.14	636.63
501.32	524.28
501.49	484.49
501.67	514.92
501.84	535.98
502.02	465.77
502.20	461.09
502.37	561.73
502.55	533.64
502.72	423.64
502.90	437.68
503.07	470.45
503.25	461.09
503.43	414.27
503.60	320.65
503.78	381.51
503.95	386.19
504.13	327.68
504.30	411.93
504.48	430.66
504.65	454.06
504.83	315.97
505.01	360.44
505.18	416.62
505.36	306.61
505.53	348.74
505.71	332.36
505.88	365.12
506.06	320.65
506.23	325.33
506.41	383.85
506.58	341.72
506.76	367.46
506.93	322.99
507.11	348.74
507.28	330.02
507.46	290.23
507.63	360.44
507.81	318.31
507.98	397.89
508.16	461.09
508.33	325.33
508.50	383.85
508.68	330.02
508.85	423.64
509.03	411.93
509.20	320.65
509.38	407.25
509.55	372.15
509.73	458.74
509.90	388.53
510.08	402.57
510.25	337.04
510.42	330.02
510.60	322.99
510.77	348.74
510.95	454.06
511.12	283.20
511.30	301.93
511.47	287.89
511.64	444.70
511.82	278.52
511.99	337.04
512.17	325.33
512.34	320.65
512.51	409.59
512.69	322.99
512.86	294.91
513.04	308.95
513.21	278.52
513.38	339.38
513.56	353.42
513.73	308.95
513.90	327.68
514.08	325.33
514.25	365.12
514.43	320.65
514.60	315.97
514.77	243.42
514.95	344.06
515.12	341.72
515.29	294.91
515.47	381.51
515.64	358.10
515.81	311.29
515.99	313.63
516.16	297.25
516.33	313.63
516.51	332.36
516.68	330.02
516.85	299.59
517.03	285.55
517.20	269.16
517.37	315.97
517.54	252.78
517.72	301.93
517.89	255.12
518.06	285.55
518.24	386.19
518.41	327.68
518.58	397.89
518.75	276.18
518.93	339.38
519.10	297.25
519.27	313.63
519.45	290.23
519.62	306.61
519.79	332.36
519.96	229.37
520.14	177.88
520.31	252.78
520.48	308.95
520.65	320.65
520.83	409.59
521.00	332.36
521.17	304.27
521.34	278.52
521.52	365.12
521.69	358.10
521.86	315.97
522.03	250.44
522.20	346.40
522.38	294.91
522.55	269.16
522.72	297.25
522.89	280.86
523.07	372.15
523.24	297.25
523.41	276.18
523.58	313.63
523.75	208.31
523.92	386.19
524.10	292.57
524.27	290.23
524.44	294.91
524.61	292.57
524.78	416.62
524.96	341.72
525.13	224.69
525.30	348.74
525.47	297.25
525.64	276.18
525.81	351.08
525.98	273.84
526.16	348.74
526.33	299.59
526.50	299.59
526.67	264.48
526.84	243.42
527.01	276.18
527.18	416.62
527.36	379.17
527.53	416.62
527.70	372.15
527.87	269.16
528.04	369.80
528.21	334.70
528.38	276.18
528.55	435.34
528.72	379.17
528.89	386.19
529.07	386.19
529.24	322.99
529.41	421.30
529.58	383.85
529.75	334.70
529.92	402.57
530.09	322.99
530.26	442.36
530.43	358.10
530.60	465.77
530.77	358.10
530.94	372.15
531.11	379.17
531.28	386.19
531.46	351.08
531.63	395.55
531.80	482.15
531.97	440.02
532.14	496.19
532.31	613.22
532.48	725.57
532.65	711.52
532.82	791.10
532.99	858.98
533.16	947.92
533.33	966.64
533.50	898.77
533.67	851.96
533.84	784.08
534.01	723.23
534.18	662.37
534.35	641.31
534.52	575.77
534.69	702.16
534.86	662.37
535.03	711.52
535.20	744.29
535.37	744.29
535.54	702.16
535.71	772.38
535.88	936.21
536.05	863.66
536.22	990.05
536.38	1041.54
536.55	1132.82
536.72	1181.97
536.89	1387.94
537.06	1472.20
537.23	1565.82
537.40	1762.42
537.57	1804.55
537.74	1900.52
537.91	1884.13
538.08	1865.41
538.25	1991.80
538.42	2066.69
538.59	2150.95
538.75	2204.78
538.92	2420.11
539.09	2597.99
539.26	2885.88
539.43	3218.24
539.60	3557.61
539.77	4016.36
539.94	4395.53
540.11	4770.01
540.28	5413.66
540.44	5727.29
540.61	6480.94
540.78	7358.64
540.95	8987.66
541.12	10438.79
541.29	11442.88
541.46	11960.14
541.62	11777.58
541.79	11321.17
541.96	10689.23
542.13	9886.42
542.30	9069.58
542.47	8681.05
542.63	8229.32
542.80	7887.61
542.97	7899.31
543.14	7864.20
543.31	7878.24
543.48	7880.58
543.64	8002.29
543.81	8285.50
543.98	8095.91
544.15	8224.64
544.32	8334.65
544.48	8210.60
544.65	8044.42
544.82	8053.78
544.99	8215.28
545.16	8353.37
545.32	8863.61
545.49	17568.06
545.66	28849.44
545.83	32732.39
546.00	26277.19
546.16	18523.00
546.33	13479.15
546.50	10033.88
546.67	8091.23
546.83	7162.04
547.00	7019.27
547.17	6656.48
547.34	6366.26
547.50	6155.61
547.67	5926.24
547.84	5598.56
548.00	5486.22
548.17	5181.95
548.34	5146.84
548.51	4975.98
548.67	4697.46
548.84	4458.72
549.01	4287.86
549.18	4088.92
549.34	3941.46
549.51	3829.12
549.68	3618.47
549.84	3496.76
550.01	3426.54
550.18	3293.13
550.34	3251.00
550.51	3082.49
550.68	2860.13
550.84	2665.87
551.01	2424.80
551.18	2473.95
551.34	2382.67
551.51	2244.57
551.68	2256.28
551.84	2064.35
552.01	2064.35
552.18	2026.90
552.34	1783.49
552.51	1788.17
552.68	1757.74
552.84	1661.78
553.01	1584.54
553.18	1551.78
553.34	1556.46
553.51	1582.20
553.67	1397.30
553.84	1493.26
554.01	1350.49
554.17	1287.29
554.34	1179.63
554.51	1181.97
554.67	1107.07
554.84	973.66
555.00	1006.43
555.17	945.58
555.33	959.62
555.50	854.30
555.67	767.70
555.83	791.10
556.00	800.46
556.16	861.32
556.33	805.14
556.50	770.04
556.66	678.76
556.83	690.46
556.99	690.46
557.16	608.54
557.32	643.65
557.49	627.26
557.65	585.13
557.82	638.97
557.98	606.20
558.15	535.98
558.32	564.07
558.48	554.71
558.65	486.83
558.81	620.24
558.98	603.86
559.14	543.00
559.31	596.84
559.47	547.69
559.64	496.19
559.80	575.77
559.97	475.13
560.13	552.37
560.30	451.72
560.46	507.90
560.63	500.87
560.79	493.85
560.96	472.79
561.12	428.32
561.29	496.19
561.45	456.40
561.61	524.28
561.78	521.94
561.94	510.24
562.11	496.19
562.27	411.93
562.44	451.72
562.60	484.49
562.77	468.11
562.93	538.32
563.10	475.13
563.26	355.76
563.42	482.15
563.59	543.00
563.75	362.78
563.92	458.74
564.08	519.60
564.24	428.32
564.41	510.24
564.57	418.96
564.74	425.98
564.90	451.72
565.07	510.24
565.23	512.58
565.39	400.23
565.56	418.96
565.72	381.51
565.88	245.76
566.05	376.83
566.21	407.25
566.38	365.12
566.54	465.77
566.70	374.49
566.87	421.30
567.03	381.51
567.19	337.04
567.36	351.08
567.52	465.77
567.68	440.02
567.85	332.36
568.01	397.89
568.17	440.02
568.34	458.74
568.50	505.56
568.66	372.15
568.83	470.45
568.99	390.87
569.15	400.23
569.32	383.85
569.48	395.55
569.64	297.25
569.81	376.83
569.97	355.76
570.13	416.62
570.30	327.68
570.46	294.91
570.62	388.53
570.78	339.38
570.95	285.55
571.11	404.91
571.27	271.50
571.43	290.23
571.60	367.46
571.76	297.25
571.92	348.74
572.09	315.97
572.25	376.83
572.41	358.10
572.57	358.10
572.74	393.21
572.90	386.19
573.06	346.40
573.22	311.29
573.38	383.85
573.55	456.40
573.71	346.40
573.87	414.27
574.03	451.72
574.20	325.33
574.36	362.78
574.52	423.64
574.68	430.66
574.84	423.64
575.01	400.23
575.17	463.43
575.33	526.62
575.49	500.87
575.65	545.34
575.82	514.92
575.98	564.07
576.14	517.26
576.30	1411.34
576.46	4095.94
576.62	5621.97
576.79	5371.53
576.95	3878.27
577.11	2633.10
577.27	1732.00
577.43	1359.85
577.59	894.08
577.75	800.46
577.92	610.88
578.08	741.95
578.24	709.18
578.40	1327.08
578.56	3571.66
578.72	4880.02
578.88	4901.08
579.04	3559.95
579.21	2581.61
579.37	1982.43
579.53	1586.88
579.69	1692.21
579.85	2047.97
580.01	2186.06
580.17	2017.54
580.33	1811.57
580.49	1579.86
580.65	1481.56
580.82	1334.11
580.98	1343.47
581.14	1284.95
581.30	1458.15
581.46	1476.88
581.62	1528.37
581.78	1703.91
581.94	1863.07
582.10	1710.93
582.26	1827.96
582.42	2099.46
582.58	1998.82
582.74	2141.59
582.90	2183.72
583.06	2148.61
583.22	2115.84
583.38	2080.74
583.54	2132.23
583.70	2188.40
583.86	2099.46
584.02	2141.59
584.18	2022.22
584.34	1942.64
584.50	1959.03
584.66	2001.16
584.82	1926.26
584.98	1858.39
585.14	1916.90
585.30	1874.77
585.46	1827.96
585.62	1739.02
585.78	1748.38
585.94	1769.44
586.10	1893.49
586.26	1959.03
586.42	2279.68
586.58	2794.60
586.74	3318.88
586.90	3709.75
587.06	4018.70
587.22	3934.44
587.38	3403.14
587.54	2902.26
587.70	2562.89
587.86	2251.60
588.02	1893.49
588.18	1713.27
588.34	1577.52
588.49	1439.43
588.65	1366.87
588.81	1268.57
588.97	1341.13
589.13	1221.76
589.29	1254.53
589.45	1193.67
589.61	1174.95
589.77	1291.98
589.93	1291.98
590.08	1327.08
590.24	1348.15
590.40	1390.28
590.56	1432.41
590.72	1397.30
590.88	1446.45
591.04	1558.80
591.20	1544.75
591.35	1699.23
591.51	1619.65
591.67	1654.76
591.83	1839.66
591.99	1923.92
592.15	2038.61
592.31	2382.67
592.46	2478.63
592.62	2736.09
592.78	2860.13
592.94	2820.35
593.10	2885.88
593.26	2684.59
593.41	2438.84
593.57	2275.00
593.73	2054.99
593.89	1778.81
594.05	1605.61
594.20	1451.13
594.36	1385.60
594.52	1284.95
594.68	1306.02
594.84	1299.00
594.99	1172.61
595.15	1125.80
595.31	1181.97
595.47	1210.06
595.62	1053.24
595.78	1123.46
595.94	1083.67
596.10	1048.56
596.25	1137.50
596.41	1158.57
596.57	1125.80
596.73	1055.58
596.88	1116.44
597.04	1060.26
597.20	990.05
597.36	1224.10
597.51	1156.22
597.67	1205.38
597.83	1200.69
597.99	1399.64
598.14	1397.30
598.30	1448.79
598.46	1542.41
598.61	1694.55
598.77	1687.53
598.93	1802.21
599.09	1774.13
599.24	1811.57
599.40	1783.49
599.56	1659.44
599.71	1619.65
599.87	1561.14
600.03	1528.37
600.18	1387.94
600.34	1331.76
600.50	1277.93
600.65	1144.52
600.81	1156.22
600.97	1107.07
601.12	938.55
601.28	1043.88
601.44	905.79
601.59	910.47
601.75	828.55
601.91	723.23
602.06	814.51
602.22	950.26
602.37	812.17
602.53	683.44
602.69	758.33
602.84	744.29
603.00	781.74
603.16	744.29
603.31	858.98
603.47	905.79
603.62	866.00
603.78	880.04
603.94	800.46
604.09	936.21
604.25	905.79
604.40	854.30
604.56	896.43
604.71	877.70
604.87	943.24
605.03	978.34
605.18	952.60
605.34	849.61
605.49	957.28
605.65	1050.90
605.80	994.73
605.96	1114.10
606.12	1114.10
606.27	1125.80
606.43	1130.48
606.58	1259.21
606.74	1247.51
606.89	1289.64
607.05	1310.70
607.20	1441.77
607.36	1439.43
