SpectraSuite Data File
++++++++++++++++++++++++++++++++++++
Date: Fri Oct 04 11:41:44 GMT-05:00 2013
User: price-jones
Dark Spectrum Present: No
Reference Spectrum Present: No
Number of Sampled Component Spectra: 1
Spectrometers: USB2+H05261
Integration Time (usec): 100000 (USB2+H05261)
Spectra Averaged: 1 (USB2+H05261)
Boxcar Smoothing: 0 (USB2+H05261)
Correct for Electrical Dark: No (USB2+H05261)
Strobe/Lamp Enabled: No (USB2+H05261)
Correct for Detector Non-linearity: No (USB2+H05261)
Correct for Stray Light: No (USB2+H05261)
Number of Pixels in Processed Spectrum: 2048
>>>>>Begin Processed Spectral Data<<<<<
365.73	21.06
365.92	21.06
366.12	21.06
366.32	0.00
366.52	0.00
366.72	0.00
366.91	0.00
367.11	0.00
367.31	0.00
367.51	0.00
367.70	0.00
367.90	0.00
368.10	0.00
368.30	0.00
368.49	0.00
368.69	0.00
368.89	0.00
369.09	0.00
369.28	0.00
369.48	0.00
369.68	0.00
369.87	0.00
370.07	0.00
370.27	0.00
370.47	72.56
370.66	0.00
370.86	0.00
371.06	86.60
371.25	175.54
371.45	77.24
371.65	102.98
371.84	74.90
372.04	84.26
372.24	175.54
372.44	79.58
372.63	119.37
372.83	147.45
373.03	105.32
373.22	84.26
373.42	49.15
373.62	95.96
373.81	86.60
374.01	114.69
374.21	163.84
374.40	135.75
374.60	241.08
374.79	161.50
374.99	124.05
375.19	170.86
375.38	161.50
375.58	180.22
375.78	191.92
375.97	231.71
376.17	182.56
376.37	95.96
376.56	147.45
376.76	74.90
376.95	142.77
377.15	107.66
377.35	189.58
377.54	182.56
377.74	117.03
377.93	203.63
378.13	131.07
378.33	88.94
378.52	110.01
378.72	149.79
378.91	163.84
379.11	91.28
379.31	138.09
379.50	133.41
379.70	159.16
379.89	163.84
380.09	124.05
380.28	198.95
380.48	107.66
380.68	98.30
380.87	128.73
381.07	114.69
381.26	93.62
381.46	140.43
381.65	93.62
381.85	114.69
382.04	91.28
382.24	154.48
382.43	166.18
382.63	147.45
382.83	93.62
383.02	152.13
383.22	149.79
383.41	100.64
383.61	168.52
383.80	152.13
384.00	93.62
384.19	110.01
384.39	163.84
384.58	84.26
384.78	135.75
384.97	229.37
385.17	110.01
385.36	51.49
385.56	224.69
385.75	60.85
385.95	121.71
386.14	124.05
386.34	91.28
386.53	84.26
386.72	142.77
386.92	180.22
387.11	191.92
387.31	79.58
387.50	105.32
387.70	79.58
387.89	70.22
388.09	110.01
388.28	63.19
388.48	114.69
388.67	180.22
388.86	147.45
389.06	117.03
389.25	102.98
389.45	152.13
389.64	135.75
389.84	152.13
390.03	117.03
390.22	133.41
390.42	98.30
390.61	95.96
390.81	35.11
391.00	107.66
391.19	149.79
391.39	128.73
391.58	121.71
391.78	135.75
391.97	124.05
392.16	133.41
392.36	161.50
392.55	70.22
392.75	119.37
392.94	102.98
393.13	102.98
393.33	133.41
393.52	138.09
393.71	149.79
393.91	145.11
394.10	124.05
394.29	95.96
394.49	119.37
394.68	159.16
394.88	149.79
395.07	102.98
395.26	168.52
395.46	170.86
395.65	114.69
395.84	126.39
396.04	189.58
396.23	140.43
396.42	117.03
396.62	107.66
396.81	81.92
397.00	100.64
397.19	140.43
397.39	65.54
397.58	156.82
397.77	138.09
397.97	156.82
398.16	126.39
398.35	117.03
398.55	107.66
398.74	60.85
398.93	140.43
399.12	152.13
399.32	154.48
399.51	124.05
399.70	168.52
399.90	159.16
400.09	140.43
400.28	135.75
400.47	135.75
400.67	180.22
400.86	189.58
401.05	187.24
401.24	180.22
401.44	154.48
401.63	217.67
401.82	191.92
402.01	196.60
402.21	215.33
402.40	147.45
402.59	124.05
402.78	168.52
402.97	131.07
403.17	161.50
403.36	287.89
403.55	205.97
403.74	744.29
403.93	1846.68
404.13	4777.03
404.32	6665.85
404.51	5643.03
404.70	3391.44
404.89	1282.61
405.09	514.92
405.28	297.25
405.47	220.01
405.66	222.35
405.85	217.67
406.05	163.84
406.24	126.39
406.43	154.48
406.62	168.52
406.81	285.55
407.00	341.72
407.20	554.71
407.39	929.19
407.58	983.02
407.77	645.99
407.96	414.27
408.15	250.44
408.34	212.99
408.54	229.37
408.73	184.90
408.92	177.88
409.11	114.69
409.30	163.84
409.49	212.99
409.68	95.96
409.87	229.37
410.07	210.65
410.26	187.24
410.45	224.69
410.64	168.52
410.83	189.58
411.02	220.01
411.21	194.26
411.40	203.63
411.59	217.67
411.78	210.65
411.98	210.65
412.17	173.20
412.36	203.63
412.55	210.65
412.74	205.97
412.93	278.52
413.12	184.90
413.31	271.50
413.50	156.82
413.69	222.35
413.88	245.76
414.07	222.35
414.26	212.99
414.45	248.10
414.64	234.05
414.83	306.61
415.02	257.46
415.22	156.82
415.41	346.40
415.60	238.73
415.79	250.44
415.98	229.37
416.17	241.08
416.36	243.42
416.55	257.46
416.74	238.73
416.93	210.65
417.12	154.48
417.31	229.37
417.50	276.18
417.69	315.97
417.88	163.84
418.07	180.22
418.26	245.76
418.45	203.63
418.64	301.93
418.83	236.39
419.02	238.73
419.21	280.86
419.39	306.61
419.58	252.78
419.77	215.33
419.96	231.71
420.15	287.89
420.34	222.35
420.53	238.73
420.72	290.23
420.91	287.89
421.10	290.23
421.29	280.86
421.48	351.08
421.67	367.46
421.86	241.08
422.05	257.46
422.24	248.10
422.43	215.33
422.61	264.48
422.80	299.59
422.99	320.65
423.18	269.16
423.37	404.91
423.56	294.91
423.75	201.29
423.94	255.12
424.13	278.52
424.32	215.33
424.50	341.72
424.69	283.20
424.88	365.12
425.07	252.78
425.26	285.55
425.45	339.38
425.64	292.57
425.83	292.57
426.01	320.65
426.20	339.38
426.39	355.76
426.58	327.68
426.77	278.52
426.96	325.33
427.15	353.42
427.33	325.33
427.52	273.84
427.71	304.27
427.90	315.97
428.09	313.63
428.28	367.46
428.46	273.84
428.65	285.55
428.84	304.27
429.03	322.99
429.22	407.25
429.40	404.91
429.59	311.29
429.78	339.38
429.97	332.36
430.16	351.08
430.34	273.84
430.53	376.83
430.72	414.27
430.91	318.31
431.10	238.73
431.28	393.21
431.47	491.51
431.66	365.12
431.85	339.38
432.03	449.38
432.22	411.93
432.41	397.89
432.60	496.19
432.79	390.87
432.97	395.55
433.16	465.77
433.35	550.03
433.54	575.77
433.72	571.09
433.91	596.84
434.10	645.99
434.28	807.48
434.47	915.15
434.66	1006.43
434.85	1280.27
435.03	3152.70
435.22	11999.93
435.41	27517.68
435.59	30162.48
435.78	19318.78
435.97	9518.96
436.16	3719.11
436.34	1364.53
436.53	826.21
436.72	648.33
436.90	631.94
437.09	547.69
437.28	498.53
437.46	517.26
437.65	489.17
437.84	444.70
438.02	521.94
438.21	540.66
438.40	440.02
438.58	477.47
438.77	521.94
438.96	397.89
439.14	442.36
439.33	456.40
439.52	374.49
439.70	390.87
439.89	421.30
440.08	379.17
440.26	407.25
440.45	444.70
440.63	416.62
440.82	458.74
441.01	421.30
441.19	463.43
441.38	461.09
441.57	348.74
441.75	543.00
441.94	514.92
442.12	444.70
442.31	360.44
442.50	521.94
442.68	482.15
442.87	404.91
443.05	449.38
443.24	510.24
443.43	491.51
443.61	454.06
443.80	374.49
443.98	472.79
444.17	390.87
444.35	547.69
444.54	418.96
444.73	477.47
444.91	491.51
445.10	454.06
445.28	440.02
445.47	491.51
445.65	484.49
445.84	428.32
446.02	383.85
446.21	351.08
446.39	428.32
446.58	458.74
446.77	458.74
446.95	397.89
447.14	365.12
447.32	461.09
447.51	381.51
447.69	484.49
447.88	423.64
448.06	425.98
448.25	447.04
448.43	374.49
448.62	416.62
448.80	451.72
448.99	411.93
449.17	472.79
449.36	397.89
449.54	528.96
449.73	444.70
449.91	512.58
450.10	477.47
450.28	475.13
450.46	496.19
450.65	435.34
450.83	449.38
451.02	472.79
451.20	367.46
451.39	437.68
451.57	390.87
451.76	383.85
451.94	327.68
452.13	451.72
452.31	425.98
452.49	486.83
452.68	400.23
452.86	472.79
453.05	442.36
453.23	456.40
453.42	388.53
453.60	423.64
453.78	465.77
453.97	414.27
454.15	411.93
454.34	341.72
454.52	435.34
454.70	430.66
454.89	418.96
455.07	437.68
455.26	421.30
455.44	507.90
455.62	428.32
455.81	479.81
455.99	484.49
456.17	456.40
456.36	447.04
456.54	414.27
456.73	367.46
456.91	428.32
457.09	372.15
457.28	423.64
457.46	470.45
457.64	479.81
457.83	404.91
458.01	402.57
458.19	496.19
458.38	383.85
458.56	444.70
458.74	339.38
458.93	414.27
459.11	440.02
459.29	489.17
459.48	470.45
459.66	362.78
459.84	409.59
460.03	496.19
460.21	386.19
460.39	463.43
460.57	393.21
460.76	306.61
460.94	374.49
461.12	423.64
461.31	411.93
461.49	402.57
461.67	430.66
461.85	374.49
462.04	379.17
462.22	538.32
462.40	404.91
462.59	411.93
462.77	388.53
462.95	383.85
463.13	390.87
463.32	447.04
463.50	397.89
463.68	369.80
463.86	390.87
464.05	386.19
464.23	418.96
464.41	440.02
464.59	496.19
464.78	451.72
464.96	430.66
465.14	465.77
465.32	456.40
465.50	381.51
465.69	404.91
465.87	379.17
466.05	463.43
466.23	428.32
466.41	411.93
466.60	362.78
466.78	440.02
466.96	414.27
467.14	461.09
467.32	435.34
467.51	505.56
467.69	463.43
467.87	428.32
468.05	402.57
468.23	447.04
468.41	400.23
468.60	407.25
468.78	379.17
468.96	435.34
469.14	430.66
469.32	376.83
469.50	383.85
469.69	421.30
469.87	383.85
470.05	351.08
470.23	339.38
470.41	402.57
470.59	320.65
470.77	376.83
470.95	358.10
471.14	341.72
471.32	348.74
471.50	433.00
471.68	414.27
471.86	353.42
472.04	322.99
472.22	379.17
472.40	400.23
472.58	351.08
472.77	416.62
472.95	367.46
473.13	435.34
473.31	411.93
473.49	414.27
473.67	400.23
473.85	390.87
474.03	451.72
474.21	400.23
474.39	365.12
474.57	475.13
474.75	456.40
474.93	379.17
475.12	334.70
475.30	346.40
475.48	355.76
475.66	442.36
475.84	381.51
476.02	458.74
476.20	407.25
476.38	362.78
476.56	477.47
476.74	437.68
476.92	386.19
477.10	458.74
477.28	468.11
477.46	477.47
477.64	454.06
477.82	409.59
478.00	484.49
478.18	454.06
478.36	498.53
478.54	440.02
478.72	423.64
478.90	486.83
479.08	524.28
479.26	578.11
479.44	451.72
479.62	533.64
479.80	571.09
479.98	575.77
480.16	500.87
480.34	585.13
480.52	664.71
480.70	657.69
480.88	599.18
481.06	676.41
481.24	758.33
481.41	697.48
481.59	784.08
481.77	809.83
481.95	833.23
482.13	849.61
482.31	980.68
482.49	1032.18
482.67	1114.10
482.85	1078.99
483.03	1299.00
483.21	1315.38
483.39	1270.91
483.57	1446.45
483.74	1626.67
483.92	1535.39
484.10	1792.85
484.28	1884.13
484.46	1867.75
484.64	1940.30
484.82	2111.16
485.00	2097.12
485.18	2146.27
485.35	2396.71
485.53	2548.84
485.71	2693.96
485.89	2818.00
486.07	2726.72
486.25	2913.97
486.43	2899.92
486.61	2932.69
486.78	3000.57
486.96	2878.86
487.14	2909.29
487.32	2895.24
487.50	2850.77
487.68	2757.15
487.85	2841.41
488.03	2871.84
488.21	2759.49
488.39	2722.04
488.57	2560.55
488.75	2509.05
488.92	2640.12
489.10	2368.62
489.28	2436.50
489.46	2347.56
489.64	2349.90
489.81	2249.25
489.99	2237.55
490.17	2204.78
490.35	2265.64
490.53	2242.23
490.70	2296.07
490.88	2235.21
491.06	2284.36
491.24	2476.29
491.41	2523.10
491.59	2356.92
491.77	2197.76
491.95	2113.50
492.13	2038.61
492.30	1921.58
492.48	2052.65
492.66	1937.96
492.84	1907.54
493.01	2022.22
493.19	1872.43
493.37	1881.79
493.54	1893.49
493.72	1732.00
493.90	1785.83
494.08	1825.62
494.25	1715.61
494.43	1640.72
494.61	1736.68
494.79	1652.42
494.96	1584.54
495.14	1659.44
495.32	1530.71
495.49	1472.20
495.67	1511.99
495.85	1455.81
496.02	1401.98
496.20	1441.77
496.38	1345.81
496.55	1434.75
496.73	1460.49
496.91	1343.47
497.09	1336.45
497.26	1306.02
497.44	1308.36
497.62	1299.00
497.79	1217.08
497.97	1142.18
498.14	1254.53
498.32	1219.42
498.50	1062.60
498.67	1315.38
498.85	1050.90
499.03	1074.31
499.20	997.07
499.38	1132.82
499.56	1083.67
499.73	1041.54
499.91	929.19
500.08	954.94
500.26	933.87
500.44	884.72
500.61	851.96
500.79	807.48
500.97	833.23
501.14	854.30
501.32	812.17
501.49	720.88
501.67	720.88
501.84	690.46
502.02	704.50
502.20	683.44
502.37	683.44
502.55	634.29
502.72	629.60
502.90	779.40
503.07	681.10
503.25	641.31
503.43	634.29
503.60	608.54
503.78	573.43
503.95	561.73
504.13	521.94
504.30	547.69
504.48	514.92
504.65	547.69
504.83	540.66
505.01	571.09
505.18	517.26
505.36	507.90
505.53	498.53
505.71	550.03
505.88	496.19
506.06	507.90
506.23	557.05
506.41	519.60
506.58	561.73
506.76	528.96
506.93	472.79
507.11	444.70
507.28	386.19
507.46	437.68
507.63	428.32
507.81	479.81
507.98	475.13
508.16	414.27
508.33	423.64
508.50	421.30
508.68	451.72
508.85	435.34
509.03	486.83
509.20	486.83
509.38	482.15
509.55	510.24
509.73	444.70
509.90	402.57
510.08	482.15
510.25	458.74
510.42	505.56
510.60	397.89
510.77	451.72
510.95	400.23
511.12	395.55
511.30	454.06
511.47	463.43
511.64	468.11
511.82	407.25
511.99	442.36
512.17	400.23
512.34	381.51
512.51	470.45
512.69	390.87
512.86	437.68
513.04	407.25
513.21	381.51
513.38	318.31
513.56	425.98
513.73	365.12
513.90	381.51
514.08	325.33
514.25	414.27
514.43	360.44
514.60	344.06
514.77	386.19
514.95	381.51
515.12	341.72
515.29	447.04
515.47	369.80
515.64	325.33
515.81	308.95
515.99	428.32
516.16	437.68
516.33	496.19
516.51	383.85
516.68	379.17
516.85	330.02
517.03	367.46
517.20	372.15
517.37	393.21
517.54	353.42
517.72	353.42
517.89	318.31
518.06	227.03
518.24	400.23
518.41	386.19
518.58	390.87
518.75	304.27
518.93	393.21
519.10	395.55
519.27	372.15
519.45	381.51
519.62	325.33
519.79	416.62
519.96	290.23
520.14	292.57
520.31	372.15
520.48	325.33
520.65	285.55
520.83	341.72
521.00	367.46
521.17	337.04
521.34	334.70
521.52	395.55
521.69	374.49
521.86	332.36
522.03	362.78
522.20	388.53
522.38	337.04
522.55	379.17
522.72	294.91
522.89	367.46
523.07	404.91
523.24	355.76
523.41	397.89
523.58	351.08
523.75	341.72
523.92	362.78
524.10	351.08
524.27	248.10
524.44	297.25
524.61	388.53
524.78	313.63
524.96	409.59
525.13	334.70
525.30	386.19
525.47	418.96
525.64	327.68
525.81	400.23
525.98	327.68
526.16	435.34
526.33	397.89
526.50	358.10
526.67	365.12
526.84	381.51
527.01	386.19
527.18	484.49
527.36	496.19
527.53	444.70
527.70	465.77
527.87	344.06
528.04	484.49
528.21	458.74
528.38	447.04
528.55	463.43
528.72	468.11
528.89	531.30
529.07	458.74
529.24	482.15
529.41	507.90
529.58	458.74
529.75	510.24
529.92	512.58
530.09	484.49
530.26	535.98
530.43	456.40
530.60	496.19
530.77	491.51
530.94	517.26
531.11	557.05
531.28	545.34
531.46	543.00
531.63	533.64
531.80	601.52
531.97	704.50
532.14	765.36
532.31	1001.75
532.48	997.07
532.65	1228.78
532.82	1245.16
532.99	1582.20
533.16	1776.47
533.33	1767.10
533.50	1671.14
533.67	1399.64
533.84	1317.72
534.01	1172.61
534.18	1083.67
534.35	971.32
534.52	987.71
534.69	1076.65
534.86	1149.20
535.03	1210.06
535.20	1228.78
535.37	1224.10
535.54	1163.25
535.71	1308.36
535.88	1455.81
536.05	1509.65
536.22	1708.59
536.38	1661.78
536.55	2064.35
536.72	2218.83
536.89	2434.16
537.06	2700.98
537.23	2986.52
537.40	3206.53
537.57	3389.10
537.74	3543.57
537.91	3829.12
538.08	3913.38
538.25	3946.14
538.42	4037.42
538.59	4058.49
538.75	4198.92
538.92	4358.08
539.09	4844.91
539.26	5317.70
539.43	6064.33
539.60	6881.18
539.77	7646.53
539.94	8451.67
540.11	9348.10
540.28	10258.57
540.44	11583.31
540.61	12704.43
540.78	14422.38
540.95	17104.64
541.12	20638.84
541.29	23606.64
541.46	24343.91
541.62	24018.58
541.79	23468.55
541.96	21532.93
542.13	20102.86
542.30	18787.48
542.47	17724.88
542.63	16786.32
542.80	15999.90
542.97	16074.80
543.14	15723.72
543.31	15744.78
543.48	16016.29
543.64	16201.19
543.81	16292.47
543.98	16343.96
544.15	16683.34
544.32	16329.92
544.48	16432.90
544.65	16231.62
544.82	16229.27
544.99	16147.36
545.16	16439.92
545.32	17387.84
545.49	28510.07
545.66	51573.70
545.83	58518.07
546.00	53179.31
546.16	38487.77
546.33	28950.09
546.50	21736.56
546.67	16568.65
546.83	14960.70
547.00	14024.49
547.17	13593.83
547.34	12720.81
547.50	12566.34
547.67	12217.60
547.84	11370.32
548.00	10944.34
548.17	10693.91
548.34	10015.15
548.51	9877.06
548.67	9462.79
548.84	9294.27
549.01	8629.56
549.18	8219.96
549.34	7866.54
549.51	7431.20
549.68	7162.04
549.84	6991.18
550.01	6794.58
550.18	6284.34
550.34	6186.04
550.51	5874.74
550.68	5549.41
550.84	5053.22
551.01	4959.60
551.18	4690.43
551.34	4440.00
551.51	4278.50
551.68	4227.01
551.84	3927.42
552.01	3927.42
552.18	3667.62
552.34	3492.08
552.51	3424.20
552.68	3269.73
552.84	3190.15
553.01	3023.97
553.18	2974.82
553.34	2808.64
553.51	2902.26
553.67	2738.43
553.84	2733.75
554.01	2431.82
554.17	2188.40
554.34	2169.68
554.51	2083.08
554.67	1980.09
554.84	1774.13
555.00	1668.80
555.17	1579.86
555.33	1561.14
555.50	1481.56
555.67	1455.81
555.83	1427.73
556.00	1303.68
556.16	1423.05
556.33	1231.12
556.50	1299.00
556.66	1121.12
556.83	1123.46
556.99	1137.50
557.16	1004.09
557.32	983.02
557.49	1053.24
557.65	964.30
557.82	940.90
557.98	933.87
558.15	922.17
558.32	891.74
558.48	873.02
558.65	887.06
558.81	882.38
558.98	814.51
559.14	844.93
559.31	802.80
559.47	833.23
559.64	748.97
559.80	788.76
559.97	716.20
560.13	690.46
560.30	800.46
560.46	800.46
560.63	833.23
560.79	730.25
560.96	660.03
561.12	653.01
561.29	730.25
561.45	669.39
561.61	697.48
561.78	793.44
561.94	737.27
562.11	692.80
562.27	851.96
562.44	681.10
562.60	746.63
562.77	709.18
562.93	709.18
563.10	624.92
563.26	650.67
563.42	723.23
563.59	697.48
563.75	564.07
563.92	645.99
564.08	641.31
564.24	641.31
564.41	622.58
564.57	622.58
564.74	615.56
564.90	638.97
565.07	617.90
565.23	547.69
565.39	601.52
565.56	561.73
565.72	507.90
565.88	493.85
566.05	500.87
566.21	615.56
566.38	592.16
566.54	603.86
566.70	575.77
566.87	603.86
567.03	594.50
567.19	641.31
567.36	606.20
567.52	587.47
567.68	606.20
567.85	631.94
568.01	603.86
568.17	533.64
568.34	545.34
568.50	645.99
568.66	594.50
568.83	678.76
568.99	526.62
569.15	617.90
569.32	564.07
569.48	521.94
569.64	493.85
569.81	451.72
569.97	519.60
570.13	524.28
570.30	433.00
570.46	437.68
570.62	407.25
570.78	447.04
570.95	372.15
571.11	379.17
571.27	428.32
571.43	423.64
571.60	517.26
571.76	454.06
571.92	512.58
572.09	390.87
572.25	491.51
572.41	418.96
572.57	390.87
572.74	437.68
572.90	521.94
573.06	472.79
573.22	461.09
573.38	437.68
573.55	451.72
573.71	547.69
573.87	451.72
574.03	463.43
574.20	486.83
574.36	514.92
574.52	547.69
574.68	505.56
574.84	645.99
575.01	573.43
575.17	629.60
575.33	653.01
575.49	781.74
575.65	753.65
575.82	826.21
575.98	915.15
576.14	894.08
576.30	1970.73
576.46	5865.38
576.62	10937.32
576.79	11871.20
576.95	8142.72
577.11	5495.58
577.27	3730.81
577.43	2530.12
577.59	1734.34
577.75	1287.29
577.92	1240.48
578.08	1261.55
578.24	1270.91
578.40	1975.41
578.56	5392.59
578.72	9423.00
578.88	10312.40
579.04	7616.10
579.21	5261.52
579.37	4088.92
579.53	3159.72
579.69	3126.96
579.85	3749.54
580.01	4266.80
580.17	4124.02
580.33	3623.15
580.49	3002.91
580.65	2752.47
580.82	2441.18
580.98	2413.09
581.14	2520.76
581.30	2682.25
581.46	2663.53
581.62	3035.67
581.78	3169.09
581.94	3445.27
582.10	3555.27
582.26	3772.94
582.42	3889.97
582.58	4021.04
582.74	4079.55
582.90	4049.13
583.06	4222.33
583.22	4243.39
583.38	4131.05
583.54	4168.49
583.70	4159.13
583.86	4102.96
584.02	3978.91
584.18	4044.45
584.34	3908.69
584.50	3786.99
584.66	3688.68
584.82	3637.19
584.98	3581.02
585.14	3590.38
585.30	3627.83
585.46	3503.78
585.62	3574.00
585.78	3419.52
585.94	3445.27
586.10	3569.32
586.26	3705.07
586.42	4301.90
586.58	4964.28
586.74	6188.38
586.90	7513.12
587.06	8182.51
587.22	7698.02
587.38	7091.82
587.54	6057.31
587.70	5352.81
587.86	4360.42
588.02	3810.39
588.18	3386.76
588.34	3021.63
588.49	2743.11
588.65	2640.12
588.81	2499.69
588.97	2331.17
589.13	2265.64
589.29	2258.62
589.45	2406.07
589.61	2275.00
589.77	2324.15
589.93	2335.85
590.08	2340.54
590.24	2459.90
590.40	2548.84
590.56	2740.77
590.72	2785.24
590.88	2705.66
591.04	2693.96
591.20	3042.70
591.35	3187.81
591.51	3201.85
591.67	3258.03
591.83	3571.66
591.99	3967.21
592.15	4142.75
592.31	4524.26
592.46	4980.66
592.62	5495.58
592.78	5577.50
592.94	5874.74
593.10	5722.61
593.26	5521.32
593.41	5041.51
593.57	4449.36
593.73	4035.08
593.89	3522.51
594.05	3159.72
594.20	2949.08
594.36	2513.74
594.52	2420.11
594.68	2328.83
594.84	2289.04
594.99	2303.09
595.15	2083.08
595.31	2059.67
595.47	2169.68
595.62	2139.25
595.78	2078.40
595.94	2083.08
596.10	2202.44
596.25	2162.66
596.41	2019.88
596.57	2090.10
596.73	1982.43
596.88	2078.40
597.04	2115.84
597.20	2132.23
597.36	2181.38
597.51	2207.13
597.67	2267.98
597.83	2434.16
597.99	2544.16
598.14	2506.71
598.30	2787.58
598.46	3087.17
598.61	3108.23
598.77	3225.26
598.93	3400.80
599.09	3449.95
599.24	3707.41
599.40	3400.80
599.56	3447.61
599.71	3344.63
599.87	3115.25
600.03	2913.97
600.18	2738.43
600.34	2597.99
600.50	2331.17
600.65	2253.94
600.81	2179.04
600.97	1980.09
601.12	1916.90
601.28	1909.88
601.44	1664.12
601.59	1694.55
601.75	1666.46
601.91	1575.18
602.06	1568.16
602.22	1418.36
602.37	1399.64
602.53	1380.92
602.69	1411.34
602.84	1394.96
603.00	1413.68
603.16	1425.39
603.31	1528.37
603.47	1458.15
603.62	1558.80
603.78	1516.67
603.94	1554.12
604.09	1570.50
604.25	1572.84
604.40	1547.09
604.56	1584.54
604.71	1682.85
604.87	1617.31
605.03	1757.74
605.18	1685.19
605.34	1727.32
605.49	1774.13
