SpectraSuite Data File
++++++++++++++++++++++++++++++++++++
Date: Fri Oct 04 11:42:03 GMT-05:00 2013
User: price-jones
Dark Spectrum Present: No
Reference Spectrum Present: No
Number of Sampled Component Spectra: 1
Spectrometers: USB2+H05261
Integration Time (usec): 100000 (USB2+H05261)
Spectra Averaged: 1 (USB2+H05261)
Boxcar Smoothing: 0 (USB2+H05261)
Correct for Electrical Dark: No (USB2+H05261)
Strobe/Lamp Enabled: No (USB2+H05261)
Correct for Detector Non-linearity: No (USB2+H05261)
Correct for Stray Light: No (USB2+H05261)
Number of Pixels in Processed Spectrum: 2048
>>>>>Begin Processed Spectral Data<<<<<
365.73	114.69
365.92	114.69
366.12	114.69
366.32	0.00
366.52	0.00
366.72	0.00
366.91	0.00
367.11	0.00
367.31	0.00
367.51	0.00
367.70	0.00
367.90	0.00
368.10	0.00
368.30	0.00
368.49	0.00
368.69	0.00
368.89	0.00
369.09	0.00
369.28	0.00
369.48	0.00
369.68	0.00
369.87	14.04
370.07	0.00
370.27	32.77
370.47	60.85
370.66	0.00
370.86	53.83
371.06	105.32
371.25	152.13
371.45	39.79
371.65	84.26
371.84	42.13
372.04	0.00
372.24	105.32
372.44	84.26
372.63	133.41
372.83	198.95
373.03	86.60
373.22	88.94
373.42	107.66
373.62	86.60
373.81	175.54
374.01	194.26
374.21	166.18
374.40	210.65
374.60	156.82
374.79	173.20
374.99	135.75
375.19	163.84
375.38	166.18
375.58	102.98
375.78	159.16
375.97	168.52
376.17	201.29
376.37	196.60
376.56	156.82
376.76	112.35
376.95	65.54
377.15	175.54
377.35	91.28
377.54	229.37
377.74	140.43
377.93	67.88
378.13	88.94
378.33	154.48
378.52	124.05
378.72	135.75
378.91	77.24
379.11	128.73
379.31	149.79
379.50	72.56
379.70	145.11
379.89	145.11
380.09	142.77
380.28	163.84
380.48	168.52
380.68	93.62
380.87	121.71
381.07	140.43
381.26	119.37
381.46	187.24
381.65	126.39
381.85	42.13
382.04	121.71
382.24	102.98
382.43	128.73
382.63	149.79
382.83	184.90
383.02	107.66
383.22	168.52
383.41	133.41
383.61	117.03
383.80	168.52
384.00	149.79
384.19	91.28
384.39	98.30
384.58	133.41
384.78	65.54
384.97	140.43
385.17	100.64
385.36	177.88
385.56	147.45
385.75	147.45
385.95	110.01
386.14	112.35
386.34	95.96
386.53	166.18
386.72	110.01
386.92	147.45
387.11	63.19
387.31	100.64
387.50	114.69
387.70	168.52
387.89	159.16
388.09	102.98
388.28	44.47
388.48	46.81
388.67	100.64
388.86	70.22
389.06	147.45
389.25	168.52
389.45	110.01
389.64	128.73
389.84	189.58
390.03	91.28
390.22	142.77
390.42	159.16
390.61	131.07
390.81	133.41
391.00	175.54
391.19	133.41
391.39	163.84
391.58	98.30
391.78	149.79
391.97	131.07
392.16	107.66
392.36	119.37
392.55	184.90
392.75	131.07
392.94	149.79
393.13	74.90
393.33	105.32
393.52	117.03
393.71	112.35
393.91	152.13
394.10	4.68
394.29	65.54
394.49	149.79
394.68	119.37
394.88	168.52
395.07	86.60
395.26	145.11
395.46	117.03
395.65	170.86
395.84	161.50
396.04	159.16
396.23	156.82
396.42	133.41
396.62	128.73
396.81	170.86
397.00	79.58
397.19	102.98
397.39	170.86
397.58	114.69
397.77	131.07
397.97	170.86
398.16	140.43
398.35	189.58
398.55	79.58
398.74	166.18
398.93	149.79
399.12	203.63
399.32	196.60
399.51	142.77
399.70	140.43
399.90	163.84
400.09	107.66
400.28	217.67
400.47	156.82
400.67	124.05
400.86	215.33
401.05	175.54
401.24	177.88
401.44	161.50
401.63	163.84
401.82	170.86
402.01	126.39
402.21	210.65
402.40	203.63
402.59	203.63
402.78	166.18
402.97	182.56
403.17	250.44
403.36	301.93
403.55	397.89
403.74	753.65
403.93	2251.60
404.13	5523.66
404.32	8327.63
404.51	7815.05
404.70	4938.53
404.89	1912.22
405.09	606.20
405.28	264.48
405.47	250.44
405.66	208.31
405.85	180.22
406.05	131.07
406.24	189.58
406.43	224.69
406.62	224.69
406.81	273.84
407.00	388.53
407.20	636.63
407.39	1064.94
407.58	1362.19
407.77	957.28
407.96	561.73
408.15	264.48
408.34	231.71
408.54	278.52
408.73	220.01
408.92	191.92
409.11	259.80
409.30	198.95
409.49	168.52
409.68	189.58
409.87	212.99
410.07	196.60
410.26	222.35
410.45	229.37
410.64	149.79
410.83	166.18
411.02	212.99
411.21	210.65
411.40	252.78
411.59	208.31
411.78	271.50
411.98	196.60
412.17	133.41
412.36	259.80
412.55	184.90
412.74	182.56
412.93	334.70
413.12	276.18
413.31	271.50
413.50	224.69
413.69	224.69
413.88	262.14
414.07	299.59
414.26	203.63
414.45	271.50
414.64	273.84
414.83	208.31
415.02	180.22
415.22	283.20
415.41	227.03
415.60	257.46
415.79	264.48
415.98	234.05
416.17	250.44
416.36	285.55
416.55	255.12
416.74	320.65
416.93	278.52
417.12	287.89
417.31	205.97
417.50	276.18
417.69	332.36
417.88	215.33
418.07	173.20
418.26	259.80
418.45	257.46
418.64	327.68
418.83	292.57
419.02	285.55
419.21	250.44
419.39	386.19
419.58	278.52
419.77	201.29
419.96	308.95
420.15	320.65
420.34	287.89
420.53	280.86
420.72	332.36
420.91	355.76
421.10	292.57
421.29	290.23
421.48	315.97
421.67	234.05
421.86	287.89
422.05	337.04
422.24	337.04
422.43	311.29
422.61	287.89
422.80	313.63
422.99	315.97
423.18	290.23
423.37	330.02
423.56	271.50
423.75	341.72
423.94	290.23
424.13	262.14
424.32	269.16
424.50	308.95
424.69	231.71
424.88	358.10
425.07	313.63
425.26	360.44
425.45	393.21
425.64	308.95
425.83	360.44
426.01	344.06
426.20	421.30
426.39	390.87
426.58	388.53
426.77	395.55
426.96	400.23
427.15	383.85
427.33	322.99
427.52	440.02
427.71	355.76
427.90	390.87
428.09	411.93
428.28	278.52
428.46	358.10
428.65	411.93
428.84	400.23
429.03	421.30
429.22	318.31
429.40	360.44
429.59	383.85
429.78	496.19
429.97	360.44
430.16	388.53
430.34	346.40
430.53	411.93
430.72	449.38
430.91	465.77
431.10	421.30
431.28	390.87
431.47	496.19
431.66	393.21
431.85	447.04
432.03	456.40
432.22	533.64
432.41	425.98
432.60	617.90
432.79	386.19
432.97	456.40
433.16	496.19
433.35	603.86
433.54	676.41
433.72	814.51
433.91	763.01
434.10	741.95
434.28	968.98
434.47	1167.93
434.66	1181.97
434.85	1551.78
435.03	3597.40
435.22	13139.77
435.41	33883.94
435.59	42171.77
435.78	28074.73
435.97	13256.79
436.16	5231.10
436.34	1785.83
436.53	1076.65
436.72	858.98
436.90	727.91
437.09	648.33
437.28	594.50
437.46	575.77
437.65	547.69
437.84	578.11
438.02	552.37
438.21	547.69
438.40	477.47
438.58	521.94
438.77	526.62
438.96	484.49
439.14	601.52
439.33	550.03
439.52	589.82
439.70	545.34
439.89	582.79
440.08	456.40
440.26	461.09
440.45	610.88
440.63	547.69
440.82	596.84
441.01	493.85
441.19	489.17
441.38	524.28
441.57	543.00
441.75	582.79
441.94	603.86
442.12	514.92
442.31	545.34
442.50	575.77
442.68	531.30
442.87	479.81
443.05	547.69
443.24	585.13
443.43	592.16
443.61	547.69
443.80	517.26
443.98	444.70
444.17	554.71
444.35	510.24
444.54	482.15
444.73	519.60
444.91	521.94
445.10	507.90
445.28	531.30
445.47	472.79
445.65	479.81
445.84	447.04
446.02	449.38
446.21	566.41
446.39	528.96
446.58	540.66
446.77	510.24
446.95	447.04
447.14	547.69
447.32	550.03
447.51	454.06
447.69	470.45
447.88	465.77
448.06	477.47
448.25	489.17
448.43	482.15
448.62	519.60
448.80	472.79
448.99	507.90
449.17	458.74
449.36	461.09
449.54	472.79
449.73	587.47
449.91	608.54
450.10	475.13
450.28	468.11
450.46	557.05
450.65	538.32
450.83	552.37
451.02	517.26
451.20	461.09
451.39	554.71
451.57	454.06
451.76	463.43
451.94	538.32
452.13	519.60
452.31	543.00
452.49	503.22
452.68	470.45
452.86	496.19
453.05	479.81
453.23	444.70
453.42	411.93
453.60	461.09
453.78	533.64
453.97	524.28
454.15	458.74
454.34	468.11
454.52	514.92
454.70	566.41
454.89	498.53
455.07	550.03
455.26	526.62
455.44	540.66
455.62	472.79
455.81	496.19
455.99	503.22
456.17	442.36
456.36	592.16
456.54	496.19
456.73	472.79
456.91	514.92
457.09	573.43
457.28	526.62
457.46	484.49
457.64	535.98
457.83	500.87
458.01	498.53
458.19	550.03
458.38	566.41
458.56	524.28
458.74	440.02
458.93	477.47
459.11	521.94
459.29	437.68
459.48	496.19
459.66	503.22
459.84	507.90
460.03	599.18
460.21	468.11
460.39	465.77
460.57	461.09
460.76	496.19
460.94	517.26
461.12	463.43
461.31	543.00
461.49	498.53
461.67	519.60
461.85	521.94
462.04	477.47
462.22	940.90
462.40	540.66
462.59	463.43
462.77	430.66
462.95	498.53
463.13	411.93
463.32	517.26
463.50	454.06
463.68	449.38
463.86	486.83
464.05	416.62
464.23	484.49
464.41	550.03
464.59	458.74
464.78	470.45
464.96	489.17
465.14	517.26
465.32	531.30
465.50	428.32
465.69	503.22
465.87	425.98
466.05	470.45
466.23	475.13
466.41	500.87
466.60	512.58
466.78	578.11
466.96	587.47
467.14	514.92
467.32	540.66
467.51	533.64
467.69	491.51
467.87	514.92
468.05	479.81
468.23	472.79
468.41	507.90
468.60	447.04
468.78	444.70
468.96	580.45
469.14	524.28
469.32	507.90
469.50	442.36
469.69	440.02
469.87	468.11
470.05	484.49
470.23	479.81
470.41	360.44
470.59	512.58
470.77	435.34
470.95	535.98
471.14	538.32
471.32	528.96
471.50	566.41
471.68	477.47
471.86	472.79
472.04	470.45
472.22	482.15
472.40	451.72
472.58	454.06
472.77	479.81
472.95	458.74
473.13	477.47
473.31	528.96
473.49	491.51
473.67	458.74
473.85	514.92
474.03	468.11
474.21	505.56
474.39	465.77
474.57	477.47
474.75	440.02
474.93	444.70
475.12	390.87
475.30	447.04
475.48	531.30
475.66	454.06
475.84	447.04
476.02	418.96
476.20	486.83
476.38	402.57
476.56	512.58
476.74	395.55
476.92	477.47
477.10	451.72
477.28	526.62
477.46	484.49
477.64	519.60
477.82	491.51
478.00	486.83
478.18	475.13
478.36	589.82
478.54	535.98
478.72	589.82
478.90	606.20
479.08	641.31
479.26	571.09
479.44	709.18
479.62	664.71
479.80	660.03
479.98	641.31
480.16	667.05
480.34	734.93
480.52	744.29
480.70	763.01
480.88	727.91
481.06	851.96
481.24	875.36
481.41	812.17
481.59	968.98
481.77	1004.09
481.95	1128.14
482.13	1081.33
482.31	1160.91
482.49	1219.42
482.67	1310.70
482.85	1476.88
483.03	1544.75
483.21	1652.42
483.39	1776.47
483.57	1811.57
483.74	1930.94
483.92	2143.93
484.10	2106.48
484.28	2347.56
484.46	2443.52
484.64	2654.17
484.82	2541.82
485.00	2785.24
485.18	2820.35
485.35	3166.74
485.53	3227.60
485.71	3365.69
485.89	3559.95
486.07	3616.13
486.25	3749.54
486.43	3665.28
486.61	3735.50
486.78	3660.60
486.96	3749.54
487.14	3775.28
487.32	3641.87
487.50	3637.19
487.68	3529.53
487.85	3581.02
488.03	3545.91
488.21	3562.30
488.39	3515.48
488.57	3358.67
488.75	3192.49
488.92	3419.52
489.10	3096.53
489.28	3026.31
489.46	2902.26
489.64	2775.88
489.81	2909.29
489.99	2881.20
490.17	2822.69
490.35	2874.18
490.53	2855.45
490.70	2628.42
490.88	2810.98
491.06	2925.67
491.24	3030.99
491.41	3225.26
491.59	3000.57
491.77	2843.75
491.95	2698.64
492.13	2724.38
492.30	2455.22
492.48	2462.24
492.66	2413.09
492.84	2382.67
493.01	2502.03
493.19	2338.20
493.37	2406.07
493.54	2307.77
493.72	2307.77
493.90	2190.74
494.08	2162.66
494.25	2190.74
494.43	2193.08
494.61	2125.21
494.79	2129.89
494.96	2036.27
495.14	2125.21
495.32	1987.11
495.49	2052.65
495.67	1900.52
495.85	1895.83
496.02	1846.68
496.20	1858.39
496.38	1778.81
496.55	1753.06
496.73	1790.51
496.91	1769.44
497.09	1732.00
497.26	1734.34
497.44	1598.59
497.62	1640.72
497.79	1554.12
497.97	1528.37
498.14	1549.43
498.32	1446.45
498.50	1493.26
498.67	1420.71
498.85	1394.96
499.03	1376.24
499.20	1345.81
499.38	1324.74
499.56	1186.65
499.73	1313.04
499.91	1203.04
500.08	1149.20
500.26	1093.03
500.44	1170.27
500.61	1142.18
500.79	1067.28
500.97	999.41
501.14	992.39
501.32	1029.84
501.49	976.00
501.67	959.62
501.84	873.02
502.02	877.70
502.20	894.08
502.37	873.02
502.55	800.46
502.72	781.74
502.90	830.89
503.07	800.46
503.25	774.72
503.43	692.80
503.60	683.44
503.78	720.88
503.95	664.71
504.13	697.48
504.30	737.27
504.48	667.05
504.65	671.73
504.83	669.39
505.01	620.24
505.18	683.44
505.36	620.24
505.53	594.50
505.71	566.41
505.88	660.03
506.06	552.37
506.23	550.03
506.41	610.88
506.58	519.60
506.76	543.00
506.93	475.13
507.11	496.19
507.28	505.56
507.46	526.62
507.63	547.69
507.81	514.92
507.98	505.56
508.16	517.26
508.33	498.53
508.50	535.98
508.68	540.66
508.85	571.09
509.03	486.83
509.20	545.34
509.38	493.85
509.55	624.92
509.73	566.41
509.90	524.28
510.08	512.58
510.25	524.28
510.42	540.66
510.60	496.19
510.77	489.17
510.95	482.15
511.12	491.51
511.30	482.15
511.47	444.70
511.64	482.15
511.82	393.21
511.99	409.59
512.17	517.26
512.34	449.38
512.51	449.38
512.69	447.04
512.86	510.24
513.04	400.23
513.21	500.87
513.38	463.43
513.56	475.13
513.73	430.66
513.90	414.27
514.08	423.64
514.25	489.17
514.43	463.43
514.60	320.65
514.77	433.00
514.95	362.78
515.12	376.83
515.29	428.32
515.47	475.13
515.64	442.36
515.81	390.87
515.99	428.32
516.16	407.25
516.33	461.09
516.51	425.98
516.68	346.40
516.85	472.79
517.03	327.68
517.20	458.74
517.37	468.11
517.54	461.09
517.72	386.19
517.89	313.63
518.06	308.95
518.24	482.15
518.41	390.87
518.58	407.25
518.75	393.21
518.93	402.57
519.10	435.34
519.27	379.17
519.45	386.19
519.62	514.92
519.79	414.27
519.96	362.78
520.14	360.44
520.31	482.15
520.48	369.80
520.65	414.27
520.83	362.78
521.00	355.76
521.17	411.93
521.34	369.80
521.52	437.68
521.69	386.19
521.86	360.44
522.03	367.46
522.20	409.59
522.38	397.89
522.55	423.64
522.72	334.70
522.89	451.72
523.07	437.68
523.24	482.15
523.41	414.27
523.58	423.64
523.75	322.99
523.92	358.10
524.10	290.23
524.27	402.57
524.44	360.44
524.61	496.19
524.78	334.70
524.96	437.68
525.13	393.21
525.30	407.25
525.47	521.94
525.64	458.74
525.81	407.25
525.98	407.25
526.16	454.06
526.33	442.36
526.50	416.62
526.67	482.15
526.84	418.96
527.01	528.96
527.18	552.37
527.36	514.92
527.53	552.37
527.70	517.26
527.87	580.45
528.04	545.34
528.21	454.06
528.38	514.92
528.55	528.96
528.72	510.24
528.89	507.90
529.07	503.22
529.24	475.13
529.41	645.99
529.58	547.69
529.75	540.66
529.92	575.77
530.09	578.11
530.26	603.86
530.43	636.63
530.60	608.54
530.77	629.60
530.94	535.98
531.11	568.75
531.28	671.73
531.46	641.31
531.63	734.93
531.80	800.46
531.97	748.97
532.14	919.83
532.31	1050.90
532.48	1205.38
532.65	1467.52
532.82	1521.35
532.99	1849.02
533.16	2115.84
533.33	2242.23
533.50	2120.53
533.67	1806.89
533.84	1462.83
534.01	1366.87
534.18	1380.92
534.35	1259.21
534.52	1313.04
534.69	1418.36
534.86	1385.60
535.03	1268.57
535.20	1446.45
535.37	1547.09
535.54	1565.82
535.71	1682.85
535.88	1739.02
536.05	1830.30
536.22	2092.44
536.38	2218.83
536.55	2541.82
536.72	2834.39
536.89	3033.33
537.06	3276.75
537.23	3805.71
537.40	4201.26
537.57	4287.86
537.74	4414.25
537.91	4788.74
538.08	4870.65
538.25	4978.32
538.42	5151.52
538.59	5240.46
538.75	5226.42
538.92	5685.16
539.09	6054.97
539.26	6689.25
539.43	7726.11
539.60	8615.51
539.77	9898.13
539.94	11052.01
540.11	12203.55
540.28	13324.67
540.44	14733.67
540.61	16203.53
540.78	18401.29
540.95	21968.27
541.12	26436.35
541.29	29919.07
541.46	31552.76
541.62	31601.91
541.79	30625.91
541.96	28374.31
542.13	25930.80
542.30	24634.14
542.47	22995.76
542.63	21692.08
542.80	20903.32
542.97	20788.64
543.14	20758.21
543.31	20688.00
543.48	20573.31
543.64	20779.28
543.81	21025.03
543.98	21109.29
544.15	21156.10
544.32	21680.38
544.48	21301.22
544.65	20746.51
544.82	20816.72
544.99	20992.26
545.16	21298.88
545.32	22754.69
545.49	34253.74
545.66	57195.67
545.83	65535.00
546.00	62679.55
546.16	51107.94
546.33	38052.43
546.50	28500.70
546.67	21792.73
546.83	19250.91
547.00	18328.74
547.17	17362.09
547.34	16985.27
547.50	16402.47
547.67	15611.37
547.84	15150.29
548.00	14448.13
548.17	14239.82
548.34	13364.46
548.51	12727.83
548.67	12100.57
548.84	11571.61
549.01	11250.96
549.18	10628.37
549.34	10368.57
549.51	9881.74
549.68	9462.79
549.84	9167.88
550.01	8793.39
550.18	8400.18
550.34	7943.78
550.51	7566.95
550.68	7129.27
550.84	6768.83
551.01	6502.01
551.18	6223.48
551.34	5713.25
551.51	5647.71
551.68	5186.63
551.84	5214.71
552.01	4844.91
552.18	4798.10
552.34	4585.11
552.51	4411.91
552.68	4163.81
552.84	4128.70
553.01	3939.12
553.18	3887.63
553.34	3623.15
553.51	3576.34
553.67	3468.67
553.84	3220.58
554.01	3098.87
554.17	2925.67
554.34	2738.43
554.51	2499.69
554.67	2455.22
554.84	2333.51
555.00	2113.50
555.17	1989.46
555.33	1916.90
555.50	1804.55
555.67	1788.17
555.83	1713.27
556.00	1572.84
556.16	1764.76
556.33	1605.61
556.50	1479.22
556.66	1355.17
556.83	1397.30
556.99	1341.13
557.16	1357.51
557.32	1233.46
557.49	1266.23
557.65	1186.65
557.82	1116.44
557.98	1128.14
558.15	1011.11
558.32	1170.27
558.48	1104.73
558.65	1034.52
558.81	1008.77
558.98	1008.77
559.14	961.96
559.31	978.34
559.47	957.28
559.64	926.85
559.80	929.19
559.97	887.06
560.13	940.90
560.30	917.49
560.46	873.02
560.63	837.91
560.79	884.72
560.96	882.38
561.12	851.96
561.29	884.72
561.45	880.04
561.61	800.46
561.78	978.34
561.94	858.98
562.11	905.79
562.27	950.26
562.44	891.74
562.60	919.83
562.77	802.80
562.93	973.66
563.10	760.67
563.26	788.76
563.42	833.23
563.59	835.57
563.75	809.83
563.92	741.95
564.08	718.54
564.24	695.14
564.41	819.19
564.57	713.86
564.74	751.31
564.90	734.93
565.07	653.01
565.23	699.82
565.39	650.67
565.56	699.82
565.72	585.13
565.88	648.33
566.05	589.82
566.21	699.82
566.38	720.88
566.54	688.12
566.70	723.23
566.87	674.07
567.03	617.90
567.19	695.14
567.36	629.60
567.52	655.35
567.68	716.20
567.85	727.91
568.01	662.37
568.17	713.86
568.34	671.73
568.50	706.84
568.66	723.23
568.83	741.95
568.99	671.73
569.15	624.92
569.32	692.80
569.48	620.24
569.64	599.18
569.81	585.13
569.97	491.51
570.13	545.34
570.30	568.75
570.46	500.87
570.62	500.87
570.78	503.22
570.95	435.34
571.11	578.11
571.27	484.49
571.43	493.85
571.60	486.83
571.76	512.58
571.92	507.90
572.09	472.79
572.25	489.17
572.41	585.13
572.57	517.26
572.74	564.07
572.90	531.30
573.06	554.71
573.22	615.56
573.38	582.79
573.55	573.43
573.71	645.99
573.87	613.22
574.03	613.22
574.20	528.96
574.36	620.24
574.52	624.92
574.68	657.69
574.84	671.73
575.01	634.29
575.17	692.80
575.33	744.29
575.49	844.93
575.65	877.70
575.82	947.92
575.98	997.07
576.14	1132.82
576.30	2118.18
576.46	6710.32
576.62	13493.19
576.79	16643.55
576.95	11592.67
577.11	7447.58
577.27	4999.38
577.43	3384.41
577.59	2090.10
577.75	1666.46
577.92	1558.80
578.08	1511.99
578.24	1547.09
578.40	2408.41
578.56	6218.80
578.72	11978.86
578.88	15426.47
579.04	11150.31
579.21	6911.60
579.37	5313.02
579.53	3908.69
579.69	3655.92
579.85	4624.90
580.01	5617.29
580.17	5420.68
580.33	4697.46
580.49	3976.57
580.65	3447.61
580.82	3096.53
580.98	3089.51
581.14	3131.64
581.30	3323.56
581.46	3552.93
581.62	3684.00
581.78	3922.74
581.94	4486.81
582.10	4629.58
582.26	4674.05
582.42	4985.34
582.58	5198.33
582.74	5268.55
582.90	5479.19
583.06	5350.46
583.22	5359.83
583.38	5252.16
583.54	5336.42
583.70	5350.46
583.86	5235.78
584.02	5210.03
584.18	5029.81
584.34	5055.56
584.50	4994.70
584.66	4819.16
584.82	4844.91
584.98	4697.46
585.14	4697.46
585.30	4531.28
585.46	4617.88
585.62	4409.57
585.78	4498.51
585.94	4435.32
586.10	4592.13
586.26	4950.23
586.42	5535.37
586.58	6216.46
586.74	7648.87
586.90	9043.83
587.06	10340.49
587.22	10771.15
587.38	9432.36
587.54	8142.72
587.70	6792.23
587.86	5874.74
588.02	4877.68
588.18	4442.34
588.34	3948.48
588.49	3604.42
588.65	3318.88
588.81	3265.05
588.97	3052.06
589.13	3108.23
589.29	3073.12
589.45	2902.26
589.61	3052.06
589.77	3056.74
589.93	2888.22
590.08	2963.12
590.24	3239.30
590.40	3141.00
590.56	3344.63
590.72	3342.28
590.88	3485.06
591.04	3688.68
591.20	3808.05
591.35	3850.18
591.51	3981.25
591.67	4182.54
591.83	4545.32
591.99	4833.21
592.15	5179.61
592.31	5631.33
592.46	6099.44
592.62	6927.99
592.78	7162.04
592.94	7459.29
593.10	7475.67
593.26	7307.15
593.41	6679.89
593.57	5844.32
593.73	5144.50
593.89	4587.45
594.05	4292.54
594.20	3686.34
594.36	3398.46
594.52	3138.66
594.68	2991.20
594.84	3033.33
594.99	2827.37
595.15	2799.28
595.31	2703.32
595.47	2689.28
595.62	2635.44
595.78	2506.71
595.94	2644.81
596.10	2862.48
596.25	2619.06
596.41	2619.06
596.57	2647.15
596.73	2686.94
596.88	2698.64
597.04	2567.57
597.20	2689.28
597.36	2764.17
597.51	2799.28
597.67	2939.71
597.83	3075.46
597.99	3297.81
598.14	3393.78
598.30	3599.74
598.46	3712.09
598.61	3906.35
598.77	4070.19
598.93	4325.31
599.09	4432.97
599.24	4348.72
599.40	4248.07
599.56	4306.59
599.71	4142.75
599.87	4009.34
600.03	3742.52
600.18	3496.76
600.34	3229.94
600.50	3117.59
600.65	2902.26
600.81	2778.22
600.97	2530.12
601.12	2349.90
601.28	2296.07
601.44	2106.48
601.59	2125.21
601.75	2024.56
601.91	1959.03
602.06	1867.75
602.22	1926.26
602.37	1774.13
602.53	1755.40
602.69	1764.76
602.84	1853.70
603.00	1797.53
603.16	1739.02
603.31	1788.17
603.47	1729.66
603.62	1795.19
603.78	1902.86
603.94	1872.43
604.09	1968.39
604.25	1987.11
604.40	2078.40
604.56	2120.53
604.71	2111.16
604.87	2076.06
605.03	2190.74
