SpectraSuite Data File
++++++++++++++++++++++++++++++++++++
Date: Fri Oct 04 11:42:01 GMT-05:00 2013
User: price-jones
Dark Spectrum Present: No
Reference Spectrum Present: No
Number of Sampled Component Spectra: 1
Spectrometers: USB2+H05261
Integration Time (usec): 100000 (USB2+H05261)
Spectra Averaged: 1 (USB2+H05261)
Boxcar Smoothing: 0 (USB2+H05261)
Correct for Electrical Dark: No (USB2+H05261)
Strobe/Lamp Enabled: No (USB2+H05261)
Correct for Detector Non-linearity: No (USB2+H05261)
Correct for Stray Light: No (USB2+H05261)
Number of Pixels in Processed Spectrum: 2048
>>>>>Begin Processed Spectral Data<<<<<
365.73	51.49
365.92	51.49
366.12	51.49
366.32	7.02
366.52	0.00
366.72	0.00
366.91	0.00
367.11	0.00
367.31	0.00
367.51	0.00
367.70	0.00
367.90	0.00
368.10	0.00
368.30	28.09
368.49	0.00
368.69	0.00
368.89	0.00
369.09	0.00
369.28	0.00
369.48	0.00
369.68	9.36
369.87	0.00
370.07	53.83
370.27	44.47
370.47	0.00
370.66	25.75
370.86	44.47
371.06	9.36
371.25	84.26
371.45	67.88
371.65	138.09
371.84	53.83
372.04	65.54
372.24	42.13
372.44	53.83
372.63	128.73
372.83	175.54
373.03	114.69
373.22	88.94
373.42	70.22
373.62	135.75
373.81	142.77
374.01	135.75
374.21	231.71
374.40	128.73
374.60	147.45
374.79	77.24
374.99	145.11
375.19	135.75
375.38	180.22
375.58	149.79
375.78	168.52
375.97	168.52
376.17	196.60
376.37	98.30
376.56	77.24
376.76	105.32
376.95	42.13
377.15	112.35
377.35	145.11
377.54	88.94
377.74	121.71
377.93	100.64
378.13	161.50
378.33	138.09
378.52	44.47
378.72	135.75
378.91	170.86
379.11	166.18
379.31	154.48
379.50	25.75
379.70	77.24
379.89	133.41
380.09	131.07
380.28	91.28
380.48	124.05
380.68	77.24
380.87	42.13
381.07	184.90
381.26	128.73
381.46	105.32
381.65	168.52
381.85	100.64
382.04	86.60
382.24	142.77
382.43	145.11
382.63	133.41
382.83	119.37
383.02	161.50
383.22	95.96
383.41	81.92
383.61	124.05
383.80	39.79
384.00	163.84
384.19	60.85
384.39	98.30
384.58	35.11
384.78	126.39
384.97	114.69
385.17	147.45
385.36	100.64
385.56	81.92
385.75	60.85
385.95	67.88
386.14	110.01
386.34	177.88
386.53	88.94
386.72	79.58
386.92	166.18
387.11	117.03
387.31	128.73
387.50	60.85
387.70	91.28
387.89	154.48
388.09	128.73
388.28	107.66
388.48	79.58
388.67	149.79
388.86	100.64
389.06	133.41
389.25	91.28
389.45	189.58
389.64	131.07
389.84	126.39
390.03	135.75
390.22	51.49
390.42	98.30
390.61	102.98
390.81	117.03
391.00	117.03
391.19	147.45
391.39	91.28
391.58	152.13
391.78	149.79
391.97	81.92
392.16	102.98
392.36	98.30
392.55	159.16
392.75	154.48
392.94	126.39
393.13	124.05
393.33	210.65
393.52	110.01
393.71	126.39
393.91	170.86
394.10	140.43
394.29	53.83
394.49	138.09
394.68	117.03
394.88	102.98
395.07	56.17
395.26	140.43
395.46	114.69
395.65	79.58
395.84	100.64
396.04	100.64
396.23	100.64
396.42	102.98
396.62	102.98
396.81	154.48
397.00	117.03
397.19	133.41
397.39	72.56
397.58	259.80
397.77	79.58
397.97	98.30
398.16	102.98
398.35	140.43
398.55	81.92
398.74	128.73
398.93	114.69
399.12	100.64
399.32	145.11
399.51	93.62
399.70	135.75
399.90	145.11
400.09	105.32
400.28	191.92
400.47	74.90
400.67	138.09
400.86	142.77
401.05	131.07
401.24	100.64
401.44	187.24
401.63	102.98
401.82	67.88
402.01	140.43
402.21	191.92
402.40	152.13
402.59	161.50
402.78	156.82
402.97	128.73
403.17	145.11
403.36	72.56
403.55	86.60
403.74	201.29
403.93	423.64
404.13	636.63
404.32	620.24
404.51	545.34
404.70	353.42
404.89	152.13
405.09	173.20
405.28	135.75
405.47	107.66
405.66	124.05
405.85	107.66
406.05	117.03
406.24	42.13
406.43	77.24
406.62	117.03
406.81	229.37
407.00	208.31
407.20	177.88
407.39	187.24
407.58	159.16
407.77	124.05
407.96	98.30
408.15	154.48
408.34	161.50
408.54	156.82
408.73	102.98
408.92	100.64
409.11	126.39
409.30	234.05
409.49	159.16
409.68	124.05
409.87	140.43
410.07	93.62
410.26	182.56
410.45	93.62
410.64	121.71
410.83	177.88
411.02	81.92
411.21	147.45
411.40	105.32
411.59	126.39
411.78	110.01
411.98	121.71
412.17	110.01
412.36	142.77
412.55	77.24
412.74	161.50
412.93	175.54
413.12	128.73
413.31	147.45
413.50	105.32
413.69	184.90
413.88	121.71
414.07	177.88
414.26	105.32
414.45	201.29
414.64	196.60
414.83	152.13
415.02	182.56
415.22	187.24
415.41	110.01
415.60	110.01
415.79	72.56
415.98	140.43
416.17	93.62
416.36	81.92
416.55	152.13
416.74	159.16
416.93	184.90
417.12	121.71
417.31	147.45
417.50	126.39
417.69	234.05
417.88	222.35
418.07	140.43
418.26	177.88
418.45	166.18
418.64	163.84
418.83	187.24
419.02	147.45
419.21	91.28
419.39	77.24
419.58	107.66
419.77	138.09
419.96	128.73
420.15	198.95
420.34	175.54
420.53	140.43
420.72	149.79
420.91	154.48
421.10	147.45
421.29	173.20
421.48	194.26
421.67	152.13
421.86	128.73
422.05	191.92
422.24	149.79
422.43	133.41
422.61	147.45
422.80	88.94
422.99	159.16
423.18	117.03
423.37	152.13
423.56	88.94
423.75	149.79
423.94	93.62
424.13	117.03
424.32	168.52
424.50	170.86
424.69	133.41
424.88	191.92
425.07	105.32
425.26	138.09
425.45	142.77
425.64	149.79
425.83	159.16
426.01	180.22
426.20	212.99
426.39	203.63
426.58	126.39
426.77	91.28
426.96	234.05
427.15	189.58
427.33	187.24
427.52	170.86
427.71	135.75
427.90	189.58
428.09	131.07
428.28	133.41
428.46	126.39
428.65	142.77
428.84	149.79
429.03	224.69
429.22	140.43
429.40	159.16
429.59	203.63
429.78	227.03
429.97	180.22
430.16	149.79
430.34	175.54
430.53	191.92
430.72	154.48
430.91	154.48
431.10	145.11
431.28	196.60
431.47	196.60
431.66	159.16
431.85	198.95
432.03	140.43
432.22	140.43
432.41	161.50
432.60	187.24
432.79	147.45
432.97	149.79
433.16	215.33
433.35	166.18
433.54	163.84
433.72	154.48
433.91	229.37
434.10	180.22
434.28	177.88
434.47	212.99
434.66	182.56
434.85	278.52
435.03	594.50
435.22	1607.95
435.41	2352.24
435.59	2272.66
435.78	1476.88
435.97	774.72
436.16	421.30
436.34	205.97
436.53	152.13
436.72	210.65
436.90	250.44
437.09	201.29
437.28	159.16
437.46	210.65
437.65	114.69
437.84	133.41
438.02	156.82
438.21	182.56
438.40	182.56
438.58	154.48
438.77	177.88
438.96	273.84
439.14	191.92
439.33	229.37
439.52	142.77
439.70	170.86
439.89	229.37
440.08	119.37
440.26	117.03
440.45	217.67
440.63	241.08
440.82	175.54
441.01	170.86
441.19	194.26
441.38	128.73
441.57	168.52
441.75	231.71
441.94	173.20
442.12	147.45
442.31	142.77
442.50	159.16
442.68	177.88
442.87	252.78
443.05	189.58
443.24	191.92
443.43	278.52
443.61	201.29
443.80	163.84
443.98	86.60
444.17	166.18
444.35	173.20
444.54	184.90
444.73	205.97
444.91	161.50
445.10	184.90
445.28	234.05
445.47	220.01
445.65	173.20
445.84	238.73
446.02	198.95
446.21	159.16
446.39	133.41
446.58	224.69
446.77	201.29
446.95	208.31
447.14	170.86
447.32	250.44
447.51	227.03
447.69	205.97
447.88	154.48
448.06	182.56
448.25	212.99
448.43	159.16
448.62	175.54
448.80	91.28
448.99	205.97
449.17	138.09
449.36	238.73
449.54	98.30
449.73	180.22
449.91	152.13
450.10	135.75
450.28	208.31
450.46	189.58
450.65	236.39
450.83	112.35
451.02	187.24
451.20	161.50
451.39	126.39
451.57	184.90
451.76	142.77
451.94	156.82
452.13	187.24
452.31	229.37
452.49	161.50
452.68	145.11
452.86	184.90
453.05	220.01
453.23	217.67
453.42	156.82
453.60	142.77
453.78	234.05
453.97	138.09
454.15	138.09
454.34	187.24
454.52	135.75
454.70	212.99
454.89	175.54
455.07	182.56
455.26	231.71
455.44	224.69
455.62	105.32
455.81	187.24
455.99	198.95
456.17	152.13
456.36	334.70
456.54	166.18
456.73	175.54
456.91	145.11
457.09	212.99
457.28	238.73
457.46	152.13
457.64	287.89
457.83	173.20
458.01	210.65
458.19	231.71
458.38	140.43
458.56	189.58
458.74	182.56
458.93	241.08
459.11	191.92
459.29	262.14
459.48	154.48
459.66	217.67
459.84	220.01
460.03	201.29
460.21	173.20
460.39	194.26
460.57	227.03
460.76	257.46
460.94	154.48
461.12	236.39
461.31	168.52
461.49	229.37
461.67	187.24
461.85	224.69
462.04	166.18
462.22	634.29
462.40	222.35
462.59	215.33
462.77	180.22
462.95	187.24
463.13	234.05
463.32	231.71
463.50	187.24
463.68	91.28
463.86	210.65
464.05	131.07
464.23	255.12
464.41	210.65
464.59	147.45
464.78	238.73
464.96	166.18
465.14	166.18
465.32	189.58
465.50	203.63
465.69	173.20
465.87	138.09
466.05	173.20
466.23	147.45
466.41	154.48
466.60	135.75
466.78	177.88
466.96	241.08
467.14	238.73
467.32	189.58
467.51	198.95
467.69	198.95
467.87	276.18
468.05	205.97
468.23	184.90
468.41	241.08
468.60	227.03
468.78	222.35
468.96	194.26
469.14	210.65
469.32	156.82
469.50	198.95
469.69	163.84
469.87	201.29
470.05	203.63
470.23	180.22
470.41	156.82
470.59	154.48
470.77	117.03
470.95	184.90
471.14	194.26
471.32	205.97
471.50	252.78
471.68	173.20
471.86	128.73
472.04	187.24
472.22	173.20
472.40	168.52
472.58	112.35
472.77	159.16
472.95	222.35
473.13	280.86
473.31	252.78
473.49	191.92
473.67	154.48
473.85	194.26
474.03	215.33
474.21	77.24
474.39	227.03
474.57	241.08
474.75	168.52
474.93	266.82
475.12	107.66
475.30	154.48
475.48	201.29
475.66	149.79
475.84	215.33
476.02	187.24
476.20	205.97
476.38	271.50
476.56	266.82
476.74	166.18
476.92	215.33
477.10	266.82
477.28	231.71
477.46	238.73
477.64	245.76
477.82	276.18
478.00	170.86
478.18	222.35
478.36	145.11
478.54	159.16
478.72	170.86
478.90	168.52
479.08	198.95
479.26	182.56
479.44	182.56
479.62	208.31
479.80	182.56
479.98	161.50
480.16	182.56
480.34	234.05
480.52	149.79
480.70	180.22
480.88	217.67
481.06	229.37
481.24	175.54
481.41	203.63
481.59	231.71
481.77	259.80
481.95	215.33
482.13	222.35
482.31	383.85
482.49	180.22
482.67	266.82
482.85	238.73
483.03	264.48
483.21	248.10
483.39	290.23
483.57	248.10
483.74	318.31
483.92	255.12
484.10	299.59
484.28	311.29
484.46	423.64
484.64	351.08
484.82	360.44
485.00	372.15
485.18	372.15
485.35	337.04
485.53	262.14
485.71	411.93
485.89	346.40
486.07	372.15
486.25	404.91
486.43	393.21
486.61	414.27
486.78	404.91
486.96	341.72
487.14	388.53
487.32	369.80
487.50	425.98
487.68	444.70
487.85	444.70
488.03	400.23
488.21	362.78
488.39	386.19
488.57	383.85
488.75	409.59
488.92	650.67
489.10	472.79
489.28	386.19
489.46	337.04
489.64	257.46
489.81	414.27
489.99	355.76
490.17	299.59
490.35	362.78
490.53	348.74
490.70	372.15
490.88	479.81
491.06	313.63
491.24	407.25
491.41	362.78
491.59	400.23
491.77	290.23
491.95	344.06
492.13	369.80
492.30	320.65
492.48	367.46
492.66	376.83
492.84	346.40
493.01	348.74
493.19	287.89
493.37	325.33
493.54	255.12
493.72	362.78
493.90	379.17
494.08	334.70
494.25	367.46
494.43	334.70
494.61	337.04
494.79	358.10
494.96	297.25
495.14	313.63
495.32	212.99
495.49	250.44
495.67	313.63
495.85	250.44
496.02	304.27
496.20	315.97
496.38	381.51
496.55	278.52
496.73	241.08
496.91	330.02
497.09	315.97
497.26	262.14
497.44	283.20
497.62	325.33
497.79	257.46
497.97	327.68
498.14	327.68
498.32	313.63
498.50	297.25
498.67	273.84
498.85	238.73
499.03	205.97
499.20	308.95
499.38	311.29
499.56	294.91
499.73	304.27
499.91	271.50
500.08	306.61
500.26	332.36
500.44	301.93
500.61	318.31
500.79	299.59
500.97	304.27
501.14	224.69
501.32	290.23
501.49	212.99
501.67	222.35
501.84	259.80
502.02	189.58
502.20	311.29
502.37	290.23
502.55	278.52
502.72	210.65
502.90	257.46
503.07	308.95
503.25	243.42
503.43	198.95
503.60	220.01
503.78	269.16
503.95	318.31
504.13	262.14
504.30	292.57
504.48	245.76
504.65	269.16
504.83	262.14
505.01	301.93
505.18	285.55
505.36	262.14
505.53	210.65
505.71	217.67
505.88	304.27
506.06	175.54
506.23	245.76
506.41	271.50
506.58	217.67
506.76	257.46
506.93	285.55
507.11	231.71
507.28	159.16
507.46	215.33
507.63	205.97
507.81	238.73
507.98	229.37
508.16	224.69
508.33	224.69
508.50	273.84
508.68	271.50
508.85	276.18
509.03	259.80
509.20	217.67
509.38	290.23
509.55	248.10
509.73	341.72
509.90	262.14
510.08	276.18
510.25	191.92
510.42	217.67
510.60	222.35
510.77	294.91
510.95	306.61
511.12	241.08
511.30	212.99
511.47	271.50
511.64	299.59
511.82	273.84
511.99	241.08
512.17	294.91
512.34	245.76
512.51	196.60
512.69	257.46
512.86	269.16
513.04	212.99
513.21	201.29
513.38	217.67
513.56	224.69
513.73	262.14
513.90	250.44
514.08	203.63
514.25	238.73
514.43	264.48
514.60	161.50
514.77	252.78
514.95	243.42
515.12	224.69
515.29	266.82
515.47	241.08
515.64	290.23
515.81	257.46
515.99	203.63
516.16	262.14
516.33	238.73
516.51	241.08
516.68	210.65
516.85	210.65
517.03	187.24
517.20	243.42
517.37	208.31
517.54	271.50
517.72	243.42
517.89	194.26
518.06	231.71
518.24	245.76
518.41	238.73
518.58	266.82
518.75	238.73
518.93	224.69
519.10	259.80
519.27	189.58
519.45	315.97
519.62	212.99
519.79	273.84
519.96	259.80
520.14	236.39
520.31	299.59
520.48	271.50
520.65	210.65
520.83	327.68
521.00	173.20
521.17	264.48
521.34	205.97
521.52	269.16
521.69	203.63
521.86	255.12
522.03	201.29
522.20	315.97
522.38	212.99
522.55	217.67
522.72	198.95
522.89	220.01
523.07	297.25
523.24	264.48
523.41	238.73
523.58	271.50
523.75	194.26
523.92	283.20
524.10	238.73
524.27	224.69
524.44	351.08
524.61	304.27
524.78	313.63
524.96	201.29
525.13	196.60
525.30	304.27
525.47	292.57
525.64	227.03
525.81	252.78
525.98	280.86
526.16	241.08
526.33	231.71
526.50	236.39
526.67	217.67
526.84	196.60
527.01	325.33
527.18	283.20
527.36	248.10
527.53	285.55
527.70	337.04
527.87	313.63
528.04	344.06
528.21	245.76
528.38	227.03
528.55	297.25
528.72	308.95
528.89	287.89
529.07	315.97
529.24	283.20
529.41	283.20
529.58	194.26
529.75	234.05
529.92	220.01
530.09	255.12
530.26	257.46
530.43	285.55
530.60	301.93
530.77	196.60
530.94	278.52
531.11	306.61
531.28	283.20
531.46	215.33
531.63	255.12
531.80	318.31
531.97	278.52
532.14	271.50
532.31	266.82
532.48	297.25
532.65	374.49
532.82	313.63
532.99	353.42
533.16	308.95
533.33	362.78
533.50	411.93
533.67	320.65
533.84	294.91
534.01	346.40
534.18	322.99
534.35	332.36
534.52	250.44
534.69	362.78
534.86	348.74
535.03	299.59
535.20	330.02
535.37	278.52
535.54	339.38
535.71	294.91
535.88	337.04
536.05	313.63
536.22	327.68
536.38	428.32
536.55	386.19
536.72	353.42
536.89	423.64
537.06	348.74
537.23	447.04
537.40	447.04
537.57	404.91
537.74	491.51
537.91	465.77
538.08	414.27
538.25	594.50
538.42	491.51
538.59	496.19
538.75	482.15
538.92	519.60
539.09	571.09
539.26	566.41
539.43	709.18
539.60	660.03
539.77	821.53
539.94	837.91
540.11	837.91
540.28	990.05
540.44	1027.50
540.61	973.66
540.78	1172.61
540.95	1343.47
541.12	1685.19
541.29	1614.97
541.46	1818.60
541.62	1769.44
541.79	1696.89
541.96	1621.99
542.13	1582.20
542.30	1584.54
542.47	1507.30
542.63	1404.32
542.80	1404.32
542.97	1425.39
543.14	1364.53
543.31	1418.36
543.48	1418.36
543.64	1406.66
543.81	1446.45
543.98	1348.15
544.15	1446.45
544.32	1348.15
544.48	1310.70
544.65	1369.21
544.82	1385.60
544.99	1343.47
545.16	1383.26
545.32	1469.86
545.49	2431.82
545.66	3911.04
545.83	4215.30
546.00	3590.38
546.16	2504.37
546.33	1856.04
546.50	1472.20
546.67	1296.66
546.83	1226.44
547.00	1196.01
547.17	1025.15
547.34	1123.46
547.50	994.73
547.67	1032.18
547.84	912.81
548.00	976.00
548.17	835.57
548.34	894.08
548.51	891.74
548.67	870.68
548.84	767.70
549.01	823.87
549.18	753.65
549.34	690.46
549.51	732.59
549.68	674.07
549.84	671.73
550.01	531.30
550.18	713.86
550.34	671.73
550.51	662.37
550.68	617.90
550.84	580.45
551.01	505.56
551.18	622.58
551.34	547.69
551.51	606.20
551.68	505.56
551.84	566.41
552.01	524.28
552.18	442.36
552.34	482.15
552.51	451.72
552.68	451.72
552.84	449.38
553.01	505.56
553.18	451.72
553.34	454.06
553.51	444.70
553.67	447.04
553.84	461.09
554.01	346.40
554.17	367.46
554.34	339.38
554.51	411.93
554.67	376.83
554.84	379.17
555.00	330.02
555.17	365.12
555.33	311.29
555.50	330.02
555.67	320.65
555.83	290.23
556.00	315.97
556.16	423.64
556.33	332.36
556.50	280.86
556.66	325.33
556.83	283.20
556.99	229.37
557.16	355.76
557.32	379.17
557.49	238.73
557.65	365.12
557.82	313.63
557.98	271.50
558.15	287.89
558.32	262.14
558.48	294.91
558.65	332.36
558.81	278.52
558.98	285.55
559.14	327.68
559.31	229.37
559.47	266.82
559.64	301.93
559.80	276.18
559.97	184.90
560.13	243.42
560.30	184.90
560.46	308.95
560.63	280.86
560.79	304.27
560.96	243.42
561.12	241.08
561.29	271.50
561.45	287.89
561.61	229.37
561.78	330.02
561.94	271.50
562.11	292.57
562.27	337.04
562.44	250.44
562.60	292.57
562.77	313.63
562.93	327.68
563.10	191.92
563.26	290.23
563.42	330.02
563.59	229.37
563.75	269.16
563.92	276.18
564.08	252.78
564.24	365.12
564.41	369.80
564.57	269.16
564.74	271.50
564.90	266.82
565.07	266.82
565.23	238.73
565.39	255.12
565.56	278.52
565.72	271.50
565.88	222.35
566.05	135.75
566.21	215.33
566.38	294.91
566.54	283.20
566.70	287.89
566.87	227.03
567.03	196.60
567.19	283.20
567.36	262.14
567.52	250.44
567.68	290.23
567.85	294.91
568.01	234.05
568.17	341.72
568.34	259.80
568.50	191.92
568.66	278.52
568.83	243.42
568.99	194.26
569.15	217.67
569.32	241.08
569.48	161.50
569.64	156.82
569.81	280.86
569.97	212.99
570.13	222.35
570.30	285.55
570.46	182.56
570.62	266.82
570.78	231.71
570.95	248.10
571.11	330.02
571.27	292.57
571.43	208.31
571.60	236.39
571.76	243.42
571.92	245.76
572.09	212.99
572.25	205.97
572.41	238.73
572.57	243.42
572.74	318.31
572.90	264.48
573.06	243.42
573.22	243.42
573.38	287.89
573.55	276.18
573.71	259.80
573.87	238.73
574.03	269.16
574.20	248.10
574.36	262.14
574.52	301.93
574.68	227.03
574.84	294.91
575.01	351.08
575.17	245.76
575.33	184.90
575.49	304.27
575.65	351.08
575.82	292.57
575.98	315.97
576.14	337.04
576.30	402.57
576.46	741.95
576.62	891.74
576.79	938.55
576.95	784.08
577.11	566.41
577.27	416.62
577.43	400.23
577.59	344.06
577.75	222.35
577.92	210.65
578.08	318.31
578.24	346.40
578.40	440.02
578.56	669.39
578.72	875.36
578.88	880.04
579.04	617.90
579.21	561.73
579.37	435.34
579.53	393.21
579.69	517.26
579.85	444.70
580.01	561.73
580.17	430.66
580.33	437.68
580.49	407.25
580.65	362.78
580.82	435.34
580.98	287.89
581.14	334.70
581.30	374.49
581.46	447.04
581.62	461.09
581.78	315.97
581.94	475.13
582.10	395.55
582.26	489.17
582.42	489.17
582.58	449.38
582.74	557.05
582.90	477.47
583.06	470.45
583.22	479.81
583.38	470.45
583.54	456.40
583.70	505.56
583.86	482.15
584.02	433.00
584.18	547.69
584.34	496.19
584.50	561.73
584.66	531.30
584.82	463.43
584.98	482.15
585.14	454.06
585.30	381.51
585.46	468.11
585.62	486.83
585.78	458.74
585.94	465.77
586.10	507.90
586.26	468.11
586.42	596.84
586.58	617.90
586.74	599.18
586.90	702.16
587.06	683.44
587.22	706.84
587.38	653.01
587.54	533.64
587.70	580.45
587.86	498.53
588.02	498.53
588.18	409.59
588.34	344.06
588.49	367.46
588.65	400.23
588.81	372.15
588.97	351.08
589.13	341.72
589.29	348.74
589.45	379.17
589.61	341.72
589.77	339.38
589.93	255.12
590.08	379.17
590.24	315.97
590.40	465.77
590.56	379.17
590.72	365.12
590.88	386.19
591.04	425.98
591.20	411.93
591.35	451.72
591.51	362.78
591.67	344.06
591.83	433.00
591.99	489.17
592.15	559.39
592.31	521.94
592.46	589.82
592.62	521.94
592.78	545.34
592.94	526.62
593.10	550.03
593.26	477.47
593.41	479.81
593.57	447.04
593.73	407.25
593.89	386.19
594.05	454.06
594.20	334.70
594.36	397.89
594.52	358.10
594.68	341.72
594.84	400.23
594.99	447.04
595.15	386.19
595.31	428.32
595.47	355.76
595.62	304.27
595.78	381.51
595.94	332.36
596.10	372.15
596.25	353.42
596.41	348.74
596.57	304.27
596.73	423.64
596.88	369.80
597.04	339.38
597.20	273.84
597.36	294.91
597.51	386.19
597.67	304.27
597.83	344.06
597.99	404.91
598.14	386.19
598.30	400.23
598.46	365.12
598.61	416.62
598.77	330.02
598.93	372.15
599.09	447.04
599.24	491.51
599.40	435.34
599.56	411.93
599.71	409.59
599.87	397.89
600.03	388.53
600.18	367.46
600.34	404.91
600.50	308.95
600.65	318.31
600.81	332.36
600.97	283.20
601.12	273.84
601.28	313.63
601.44	351.08
601.59	257.46
601.75	301.93
601.91	283.20
602.06	322.99
602.22	374.49
602.37	269.16
602.53	318.31
602.69	428.32
602.84	273.84
603.00	248.10
603.16	325.33
603.31	318.31
603.47	271.50
603.62	189.58
603.78	208.31
603.94	313.63
604.09	250.44
604.25	297.25
604.40	271.50
604.56	322.99
604.71	292.57
604.87	285.55
605.03	330.02
605.18	250.44
605.34	369.80
605.49	372.15
605.65	355.76
605.80	283.20
605.96	339.38
606.12	353.42
606.27	315.97
606.43	341.72
606.58	341.72
606.74	416.62
606.89	306.61
607.05	287.89
607.20	346.40
607.36	383.85
607.51	332.36
607.67	320.65
607.82	442.36
607.98	449.38
608.13	430.66
608.29	482.15
608.44	540.66
608.60	491.51
608.75	582.79
608.91	596.84
609.06	568.75
609.22	674.07
609.37	624.92
609.53	741.95
609.68	868.34
609.84	779.40
609.99	1029.84
610.15	1203.04
610.30	1427.73
610.46	1734.34
610.61	2139.25
610.76	2722.04
610.92	3227.60
