SpectraSuite Data File
++++++++++++++++++++++++++++++++++++
Date: Fri Oct 04 11:41:54 GMT-05:00 2013
User: price-jones
Dark Spectrum Present: No
Reference Spectrum Present: No
Number of Sampled Component Spectra: 1
Spectrometers: USB2+H05261
Integration Time (usec): 100000 (USB2+H05261)
Spectra Averaged: 1 (USB2+H05261)
Boxcar Smoothing: 0 (USB2+H05261)
Correct for Electrical Dark: No (USB2+H05261)
Strobe/Lamp Enabled: No (USB2+H05261)
Correct for Detector Non-linearity: No (USB2+H05261)
Correct for Stray Light: No (USB2+H05261)
Number of Pixels in Processed Spectrum: 2048
>>>>>Begin Processed Spectral Data<<<<<
365.73	30.43
365.92	30.43
366.12	30.43
366.32	0.00
366.52	0.00
366.72	0.00
366.91	0.00
367.11	0.00
367.31	0.00
367.51	9.36
367.70	7.02
367.90	0.00
368.10	0.00
368.30	0.00
368.49	0.00
368.69	0.00
368.89	0.00
369.09	0.00
369.28	0.00
369.48	0.00
369.68	0.00
369.87	0.00
370.07	18.72
370.27	77.24
370.47	58.51
370.66	16.38
370.86	32.77
371.06	53.83
371.25	117.03
371.45	9.36
371.65	124.05
371.84	114.69
372.04	112.35
372.24	98.30
372.44	84.26
372.63	86.60
372.83	140.43
373.03	67.88
373.22	110.01
373.42	93.62
373.62	126.39
373.81	100.64
374.01	147.45
374.21	222.35
374.40	175.54
374.60	107.66
374.79	128.73
374.99	149.79
375.19	208.31
375.38	124.05
375.58	154.48
375.78	124.05
375.97	114.69
376.17	166.18
376.37	184.90
376.56	112.35
376.76	168.52
376.95	117.03
377.15	124.05
377.35	154.48
377.54	56.17
377.74	16.38
377.93	128.73
378.13	138.09
378.33	98.30
378.52	35.11
378.72	79.58
378.91	117.03
379.11	182.56
379.31	142.77
379.50	154.48
379.70	203.63
379.89	128.73
380.09	161.50
380.28	128.73
380.48	142.77
380.68	63.19
380.87	86.60
381.07	133.41
381.26	58.51
381.46	161.50
381.65	119.37
381.85	126.39
382.04	114.69
382.24	152.13
382.43	124.05
382.63	56.17
382.83	88.94
383.02	163.84
383.22	201.29
383.41	81.92
383.61	140.43
383.80	187.24
384.00	149.79
384.19	117.03
384.39	30.43
384.58	138.09
384.78	67.88
384.97	133.41
385.17	152.13
385.36	81.92
385.56	63.19
385.75	133.41
385.95	149.79
386.14	84.26
386.34	156.82
386.53	201.29
386.72	117.03
386.92	93.62
387.11	121.71
387.31	196.60
387.50	112.35
387.70	74.90
387.89	145.11
388.09	126.39
388.28	30.43
388.48	180.22
388.67	170.86
388.86	182.56
389.06	74.90
389.25	166.18
389.45	210.65
389.64	140.43
389.84	105.32
390.03	124.05
390.22	133.41
390.42	98.30
390.61	56.17
390.81	166.18
391.00	128.73
391.19	128.73
391.39	0.00
391.58	138.09
391.78	152.13
391.97	147.45
392.16	140.43
392.36	114.69
392.55	154.48
392.75	88.94
392.94	126.39
393.13	154.48
393.33	44.47
393.52	100.64
393.71	138.09
393.91	77.24
394.10	107.66
394.29	124.05
394.49	88.94
394.68	105.32
394.88	152.13
395.07	42.13
395.26	142.77
395.46	138.09
395.65	128.73
395.84	168.52
396.04	229.37
396.23	142.77
396.42	175.54
396.62	95.96
396.81	102.98
397.00	152.13
397.19	156.82
397.39	107.66
397.58	145.11
397.77	189.58
397.97	105.32
398.16	154.48
398.35	91.28
398.55	133.41
398.74	102.98
398.93	170.86
399.12	93.62
399.32	128.73
399.51	159.16
399.70	145.11
399.90	187.24
400.09	131.07
400.28	217.67
400.47	100.64
400.67	224.69
400.86	149.79
401.05	196.60
401.24	159.16
401.44	168.52
401.63	119.37
401.82	135.75
402.01	91.28
402.21	173.20
402.40	191.92
402.59	283.20
402.78	163.84
402.97	259.80
403.17	166.18
403.36	278.52
403.55	299.59
403.74	601.52
403.93	2085.42
404.13	5198.33
404.32	7590.36
404.51	6647.12
404.70	4313.61
404.89	1633.69
405.09	510.24
405.28	177.88
405.47	217.67
405.66	245.76
405.85	241.08
406.05	102.98
406.24	152.13
406.43	222.35
406.62	262.14
406.81	231.71
407.00	395.55
407.20	573.43
407.39	1107.07
407.58	1083.67
407.77	784.08
407.96	409.59
408.15	222.35
408.34	184.90
408.54	180.22
408.73	212.99
408.92	175.54
409.11	311.29
409.30	238.73
409.49	208.31
409.68	191.92
409.87	217.67
410.07	187.24
410.26	166.18
410.45	189.58
410.64	215.33
410.83	163.84
411.02	170.86
411.21	203.63
411.40	215.33
411.59	191.92
411.78	252.78
411.98	175.54
412.17	187.24
412.36	215.33
412.55	201.29
412.74	227.03
412.93	248.10
413.12	201.29
413.31	184.90
413.50	217.67
413.69	203.63
413.88	182.56
414.07	231.71
414.26	210.65
414.45	229.37
414.64	184.90
414.83	224.69
415.02	215.33
415.22	231.71
415.41	313.63
415.60	311.29
415.79	212.99
415.98	297.25
416.17	205.97
416.36	198.95
416.55	294.91
416.74	255.12
416.93	210.65
417.12	278.52
417.31	245.76
417.50	243.42
417.69	304.27
417.88	259.80
418.07	217.67
418.26	210.65
418.45	252.78
418.64	280.86
418.83	250.44
419.02	264.48
419.21	210.65
419.39	292.57
419.58	287.89
419.77	241.08
419.96	330.02
420.15	304.27
420.34	224.69
420.53	257.46
420.72	313.63
420.91	325.33
421.10	269.16
421.29	245.76
421.48	301.93
421.67	301.93
421.86	229.37
422.05	273.84
422.24	355.76
422.43	313.63
422.61	252.78
422.80	315.97
422.99	311.29
423.18	325.33
423.37	365.12
423.56	278.52
423.75	315.97
423.94	245.76
424.13	334.70
424.32	304.27
424.50	341.72
424.69	313.63
424.88	365.12
425.07	276.18
425.26	255.12
425.45	306.61
425.64	257.46
425.83	278.52
426.01	386.19
426.20	358.10
426.39	313.63
426.58	318.31
426.77	332.36
426.96	344.06
427.15	400.23
427.33	297.25
427.52	341.72
427.71	362.78
427.90	351.08
428.09	430.66
428.28	297.25
428.46	367.46
428.65	404.91
428.84	346.40
429.03	433.00
429.22	390.87
429.40	425.98
429.59	386.19
429.78	397.89
429.97	320.65
430.16	397.89
430.34	388.53
430.53	337.04
430.72	334.70
430.91	477.47
431.10	372.15
431.28	407.25
431.47	449.38
431.66	407.25
431.85	348.74
432.03	390.87
432.22	435.34
432.41	402.57
432.60	416.62
432.79	456.40
432.97	517.26
433.16	585.13
433.35	526.62
433.54	587.47
433.72	702.16
433.91	734.93
434.10	816.85
434.28	828.55
434.47	1034.52
434.66	1130.48
434.85	1359.85
435.03	3541.23
435.22	13322.33
435.41	31550.42
435.59	35842.96
435.78	23669.84
435.97	11702.68
436.16	4571.07
436.34	1502.62
436.53	882.38
436.72	798.12
436.90	741.95
437.09	599.18
437.28	524.28
437.46	524.28
437.65	517.26
437.84	496.19
438.02	538.32
438.21	540.66
438.40	503.22
438.58	418.96
438.77	552.37
438.96	517.26
439.14	498.53
439.33	454.06
439.52	418.96
439.70	456.40
439.89	449.38
440.08	468.11
440.26	479.81
440.45	505.56
440.63	416.62
440.82	428.32
441.01	533.64
441.19	496.19
441.38	491.51
441.57	411.93
441.75	510.24
441.94	510.24
442.12	491.51
442.31	421.30
442.50	461.09
442.68	472.79
442.87	517.26
443.05	510.24
443.24	451.72
443.43	491.51
443.61	554.71
443.80	477.47
443.98	547.69
444.17	503.22
444.35	479.81
444.54	528.96
444.73	430.66
444.91	510.24
445.10	477.47
445.28	454.06
445.47	458.74
445.65	365.12
445.84	402.57
446.02	418.96
446.21	465.77
446.39	433.00
446.58	433.00
446.77	465.77
446.95	470.45
447.14	524.28
447.32	538.32
447.51	517.26
447.69	561.73
447.88	493.85
448.06	510.24
448.25	414.27
448.43	451.72
448.62	425.98
448.80	547.69
448.99	491.51
449.17	465.77
449.36	430.66
449.54	435.34
449.73	428.32
449.91	463.43
450.10	479.81
450.28	524.28
450.46	519.60
450.65	470.45
450.83	454.06
451.02	538.32
451.20	437.68
451.39	505.56
451.57	468.11
451.76	493.85
451.94	493.85
452.13	425.98
452.31	470.45
452.49	500.87
452.68	468.11
452.86	458.74
453.05	514.92
453.23	440.02
453.42	489.17
453.60	447.04
453.78	454.06
453.97	447.04
454.15	428.32
454.34	437.68
454.52	540.66
454.70	475.13
454.89	500.87
455.07	475.13
455.26	458.74
455.44	423.64
455.62	493.85
455.81	440.02
455.99	451.72
456.17	521.94
456.36	404.91
456.54	463.43
456.73	479.81
456.91	456.40
457.09	421.30
457.28	489.17
457.46	442.36
457.64	440.02
457.83	472.79
458.01	491.51
458.19	454.06
458.38	430.66
458.56	440.02
458.74	421.30
458.93	503.22
459.11	456.40
459.29	447.04
459.48	418.96
459.66	482.15
459.84	449.38
460.03	505.56
460.21	482.15
460.39	423.64
460.57	496.19
460.76	458.74
460.94	505.56
461.12	519.60
461.31	489.17
461.49	308.95
461.67	437.68
461.85	505.56
462.04	500.87
462.22	866.00
462.40	526.62
462.59	545.34
462.77	468.11
462.95	540.66
463.13	421.30
463.32	449.38
463.50	444.70
463.68	414.27
463.86	421.30
464.05	428.32
464.23	435.34
464.41	477.47
464.59	444.70
464.78	505.56
464.96	500.87
465.14	470.45
465.32	404.91
465.50	496.19
465.69	540.66
465.87	437.68
466.05	519.60
466.23	456.40
466.41	440.02
466.60	505.56
466.78	521.94
466.96	470.45
467.14	479.81
467.32	479.81
467.51	528.96
467.69	442.36
467.87	465.77
468.05	472.79
468.23	437.68
468.41	414.27
468.60	482.15
468.78	397.89
468.96	447.04
469.14	465.77
469.32	360.44
469.50	416.62
469.69	379.17
469.87	407.25
470.05	397.89
470.23	383.85
470.41	348.74
470.59	472.79
470.77	433.00
470.95	397.89
471.14	397.89
471.32	472.79
471.50	442.36
471.68	503.22
471.86	397.89
472.04	444.70
472.22	416.62
472.40	468.11
472.58	409.59
472.77	465.77
472.95	404.91
473.13	456.40
473.31	500.87
473.49	435.34
473.67	430.66
473.85	477.47
474.03	512.58
474.21	531.30
474.39	472.79
474.57	503.22
474.75	489.17
474.93	393.21
475.12	383.85
475.30	418.96
475.48	500.87
475.66	489.17
475.84	456.40
476.02	400.23
476.20	461.09
476.38	475.13
476.56	533.64
476.74	472.79
476.92	463.43
477.10	463.43
477.28	468.11
477.46	418.96
477.64	486.83
477.82	437.68
478.00	468.11
478.18	475.13
478.36	475.13
478.54	568.75
478.72	486.83
478.90	538.32
479.08	543.00
479.26	653.01
479.44	561.73
479.62	512.58
479.80	578.11
479.98	589.82
480.16	561.73
480.34	669.39
480.52	704.50
480.70	720.88
480.88	669.39
481.06	688.12
481.24	753.65
481.41	837.91
481.59	847.27
481.77	887.06
481.95	992.39
482.13	1088.35
482.31	1046.22
482.49	1139.84
482.67	1226.44
482.85	1306.02
483.03	1413.68
483.21	1572.84
483.39	1556.46
483.57	1685.19
483.74	1818.60
483.92	1844.34
484.10	1923.92
484.28	2054.99
484.46	2157.97
484.64	2373.30
484.82	2349.90
485.00	2523.10
485.18	2668.21
485.35	2958.44
485.53	2970.14
485.71	3075.46
485.89	3389.10
486.07	3176.11
486.25	3314.20
486.43	3372.71
486.61	3361.01
486.78	3353.99
486.96	3372.71
487.14	3286.11
487.32	3482.72
487.50	3316.54
487.68	3274.41
487.85	3087.17
488.03	3176.11
488.21	3248.66
488.39	3070.78
488.57	3000.57
488.75	2935.03
488.92	3201.85
489.10	2834.39
489.28	2729.06
489.46	2576.93
489.64	2705.66
489.81	2626.08
489.99	2560.55
490.17	2616.72
490.35	2668.21
490.53	2532.46
490.70	2502.03
490.88	2597.99
491.06	2644.81
491.24	2871.84
491.41	2806.30
491.59	2710.34
491.77	2583.95
491.95	2487.99
492.13	2415.43
492.30	2333.51
492.48	2272.66
492.66	2289.04
492.84	2239.89
493.01	2193.08
493.19	2209.47
493.37	2197.76
493.54	2167.34
493.72	2008.18
493.90	1970.73
494.08	2017.54
494.25	2017.54
494.43	2111.16
494.61	1893.49
494.79	1811.57
494.96	1853.70
495.14	1975.41
495.32	1774.13
495.49	1778.81
495.67	1797.53
495.85	1661.78
496.02	1657.10
496.20	1666.46
496.38	1645.40
496.55	1605.61
496.73	1591.56
496.91	1565.82
497.09	1561.14
497.26	1563.48
497.44	1523.69
497.62	1514.33
497.79	1460.49
497.97	1406.66
498.14	1416.02
498.32	1291.98
498.50	1320.06
498.67	1348.15
498.85	1174.95
499.03	1249.85
499.20	1191.33
499.38	1249.85
499.56	1142.18
499.73	1203.04
499.91	1142.18
500.08	1174.95
500.26	1149.20
500.44	924.51
500.61	954.94
500.79	950.26
500.97	1083.67
501.14	1039.20
501.32	926.85
501.49	933.87
501.67	821.53
501.84	828.55
502.02	816.85
502.20	861.32
502.37	753.65
502.55	741.95
502.72	711.52
502.90	734.93
503.07	648.33
503.25	739.61
503.43	683.44
503.60	655.35
503.78	648.33
503.95	641.31
504.13	648.33
504.30	650.67
504.48	601.52
504.65	578.11
504.83	624.92
505.01	624.92
505.18	596.84
505.36	505.56
505.53	547.69
505.71	550.03
505.88	545.34
506.06	538.32
506.23	489.17
506.41	526.62
506.58	437.68
506.76	538.32
506.93	496.19
507.11	510.24
507.28	440.02
507.46	573.43
507.63	470.45
507.81	491.51
507.98	545.34
508.16	454.06
508.33	526.62
508.50	517.26
508.68	526.62
508.85	500.87
509.03	531.30
509.20	512.58
509.38	531.30
509.55	594.50
509.73	435.34
509.90	510.24
510.08	458.74
510.25	444.70
510.42	397.89
510.60	447.04
510.77	477.47
510.95	430.66
511.12	465.77
511.30	454.06
511.47	472.79
511.64	475.13
511.82	449.38
511.99	461.09
512.17	437.68
512.34	505.56
512.51	477.47
512.69	475.13
512.86	538.32
513.04	470.45
513.21	388.53
513.38	440.02
513.56	369.80
513.73	308.95
513.90	402.57
514.08	407.25
514.25	505.56
514.43	362.78
514.60	341.72
514.77	390.87
514.95	423.64
515.12	360.44
515.29	353.42
515.47	423.64
515.64	362.78
515.81	360.44
515.99	435.34
516.16	404.91
516.33	411.93
516.51	418.96
516.68	433.00
516.85	367.46
517.03	440.02
517.20	416.62
517.37	421.30
517.54	393.21
517.72	351.08
517.89	337.04
518.06	402.57
518.24	386.19
518.41	447.04
518.58	348.74
518.75	369.80
518.93	365.12
519.10	358.10
519.27	330.02
519.45	381.51
519.62	367.46
519.79	411.93
519.96	325.33
520.14	425.98
520.31	395.55
520.48	381.51
520.65	414.27
520.83	482.15
521.00	330.02
521.17	440.02
521.34	411.93
521.52	351.08
521.69	390.87
521.86	360.44
522.03	320.65
522.20	409.59
522.38	414.27
522.55	409.59
522.72	358.10
522.89	430.66
523.07	442.36
523.24	407.25
523.41	351.08
523.58	351.08
523.75	395.55
523.92	374.49
524.10	395.55
524.27	423.64
524.44	339.38
524.61	393.21
524.78	374.49
524.96	383.85
525.13	468.11
525.30	423.64
525.47	482.15
525.64	489.17
525.81	458.74
525.98	409.59
526.16	358.10
526.33	379.17
526.50	386.19
526.67	400.23
526.84	416.62
527.01	475.13
527.18	517.26
527.36	571.09
527.53	535.98
527.70	489.17
527.87	451.72
528.04	425.98
528.21	379.17
528.38	440.02
528.55	475.13
528.72	486.83
528.89	552.37
529.07	458.74
529.24	547.69
529.41	580.45
529.58	484.49
529.75	500.87
529.92	475.13
530.09	535.98
530.26	535.98
530.43	592.16
530.60	517.26
530.77	557.05
530.94	566.41
531.11	688.12
531.28	575.77
531.46	631.94
531.63	650.67
531.80	730.25
531.97	692.80
532.14	868.34
532.31	952.60
532.48	1146.86
532.65	1313.04
532.82	1465.18
532.99	1724.97
533.16	2047.97
533.33	2017.54
533.50	1940.30
533.67	1652.42
533.84	1448.79
534.01	1320.06
534.18	1188.99
534.35	1114.10
534.52	1210.06
534.69	1299.00
534.86	1240.48
535.03	1233.46
535.20	1282.61
535.37	1387.94
535.54	1521.35
535.71	1493.26
535.88	1659.44
536.05	1781.15
536.22	1856.04
536.38	2057.33
536.55	2279.68
536.72	2560.55
536.89	2663.53
537.06	3122.27
537.23	3295.47
537.40	3679.32
537.57	3908.69
537.74	4187.22
537.91	4376.80
538.08	4542.98
538.25	4533.62
538.42	4685.75
538.59	4720.86
538.75	4858.95
538.92	5123.43
539.09	5526.00
539.26	6249.23
539.43	7098.84
539.60	8004.63
539.77	8865.95
539.94	9888.76
540.11	11005.20
540.28	12166.10
540.44	13275.52
540.61	14546.43
540.78	16910.37
540.95	20222.23
541.12	23950.70
541.29	27124.47
541.46	28680.92
541.62	28491.34
541.79	27419.38
541.96	25668.66
542.13	23522.38
542.30	22038.48
542.47	20475.01
542.63	19550.49
542.80	19255.59
542.97	18836.63
543.14	18307.67
543.31	18621.30
543.48	18635.35
543.64	18838.97
543.81	19005.15
543.98	19337.51
544.15	19222.82
544.32	19609.01
544.48	19852.42
544.65	19087.07
544.82	19339.85
544.99	19489.64
545.16	19381.98
545.32	20280.74
545.49	32205.77
545.66	56109.66
545.83	63468.31
546.00	60062.83
546.16	46354.31
546.33	34834.19
546.50	25633.55
546.67	19737.74
546.83	17729.56
547.00	16655.25
547.17	15838.41
547.34	15192.42
547.50	14445.79
547.67	14160.24
547.84	13418.29
548.00	13207.64
548.17	12524.21
548.34	11899.28
548.51	11548.20
548.67	11131.59
548.84	10532.41
549.01	9951.96
549.18	9533.00
549.34	9193.62
549.51	8755.94
549.68	8657.64
549.84	8266.77
550.01	7815.05
550.18	7555.25
550.34	7183.10
550.51	6794.58
550.68	6457.54
550.84	6284.34
551.01	5699.20
551.18	5530.69
551.34	5057.90
551.51	5046.20
551.68	4858.95
551.84	4592.13
552.01	4313.61
552.18	4184.88
552.34	4074.87
552.51	3896.99
552.68	3822.09
552.84	3552.93
553.01	3529.53
553.18	3566.98
553.34	3393.78
553.51	3251.00
553.67	3124.62
553.84	2995.89
554.01	2892.90
554.17	2729.06
554.34	2483.31
554.51	2352.24
554.67	2211.81
554.84	2113.50
555.00	2043.29
555.17	1849.02
555.33	1870.09
555.50	1626.67
555.67	1629.01
555.83	1540.07
556.00	1493.26
556.16	1678.16
556.33	1362.19
556.50	1329.42
556.66	1280.27
556.83	1280.27
556.99	1303.68
557.16	1219.42
557.32	1167.93
557.49	1252.19
557.65	1186.65
557.82	1039.20
557.98	1069.62
558.15	997.07
558.32	1039.20
558.48	1029.84
558.65	1081.33
558.81	891.74
558.98	844.93
559.14	908.13
559.31	926.85
559.47	1015.79
559.64	842.59
559.80	905.79
559.97	805.14
560.13	924.51
560.30	807.48
560.46	821.53
560.63	826.21
560.79	933.87
560.96	828.55
561.12	777.06
561.29	880.04
561.45	851.96
561.61	821.53
561.78	877.70
561.94	821.53
562.11	812.17
562.27	828.55
562.44	791.10
562.60	814.51
562.77	821.53
562.93	835.57
563.10	765.36
563.26	674.07
563.42	884.72
563.59	793.44
563.75	636.63
563.92	744.29
564.08	655.35
564.24	732.59
564.41	760.67
564.57	648.33
564.74	638.97
564.90	716.20
565.07	629.60
565.23	524.28
565.39	648.33
565.56	636.63
565.72	592.16
565.88	634.29
566.05	641.31
566.21	594.50
566.38	638.97
566.54	601.52
566.70	641.31
566.87	685.78
567.03	622.58
567.19	676.41
567.36	571.09
567.52	622.58
567.68	706.84
567.85	624.92
568.01	608.54
568.17	582.79
568.34	709.18
568.50	716.20
568.66	554.71
568.83	730.25
568.99	592.16
569.15	601.52
569.32	610.88
569.48	587.47
569.64	493.85
569.81	538.32
569.97	503.22
570.13	491.51
570.30	580.45
570.46	538.32
570.62	472.79
570.78	437.68
570.95	423.64
571.11	500.87
571.27	535.98
571.43	458.74
571.60	507.90
571.76	519.60
571.92	519.60
572.09	531.30
572.25	433.00
572.41	416.62
572.57	430.66
572.74	528.96
572.90	533.64
573.06	491.51
573.22	519.60
573.38	540.66
573.55	496.19
573.71	547.69
573.87	587.47
574.03	638.97
574.20	540.66
574.36	601.52
574.52	531.30
574.68	566.41
574.84	582.79
575.01	627.26
575.17	683.44
575.33	718.54
575.49	866.00
575.65	809.83
575.82	856.64
575.98	926.85
576.14	1078.99
576.30	1907.54
576.46	6249.23
576.62	12315.90
576.79	14494.94
576.95	10551.14
577.11	6537.12
577.27	4493.83
577.43	2991.20
577.59	2017.54
577.75	1591.56
577.92	1465.18
578.08	1409.00
578.24	1432.41
578.40	2303.09
578.56	6164.97
578.72	11499.05
578.88	13282.54
579.04	9607.90
579.21	6438.81
579.37	4734.90
579.53	3740.18
579.69	3501.44
579.85	4215.30
580.01	5067.26
580.17	4814.48
580.33	4224.67
580.49	3571.66
580.65	3227.60
580.82	2829.71
580.98	2745.45
581.14	2822.69
581.30	2904.60
581.46	3208.87
581.62	3482.72
581.78	3679.32
581.94	3990.61
582.10	4212.96
582.26	4416.59
582.42	4645.96
582.58	4660.01
582.74	4873.00
582.90	4774.69
583.06	4901.08
583.22	4938.53
583.38	4924.49
583.54	4868.31
583.70	4868.31
583.86	4720.86
584.02	4498.51
584.18	4667.03
584.34	4531.28
584.50	4432.97
584.66	4477.44
584.82	4369.78
584.98	4315.95
585.14	4271.48
585.30	4229.35
585.46	4060.83
585.62	4009.34
585.78	4060.83
585.94	4030.40
586.10	4266.80
586.26	4444.68
586.42	4870.65
586.58	5977.73
586.74	7194.81
586.90	8741.90
587.06	9540.02
587.22	9427.68
587.38	8674.03
587.54	7368.01
587.70	6256.25
587.86	5261.52
588.02	4568.73
588.18	3997.64
588.34	3599.74
588.49	3276.75
588.65	2981.84
588.81	2949.08
588.97	2719.70
589.13	2670.55
589.29	2609.70
589.45	2579.27
589.61	2649.49
589.77	2803.96
589.93	2738.43
590.08	2813.32
590.24	2810.98
590.40	3007.59
590.56	3155.04
590.72	3056.74
590.88	3105.89
591.04	3288.45
591.20	3442.93
591.35	3712.09
591.51	3709.75
591.67	3866.56
591.83	4112.32
591.99	4435.32
592.15	4816.82
592.31	5181.95
592.46	5757.72
592.62	6282.00
592.78	6672.87
592.94	6773.51
593.10	6857.77
593.26	6410.73
593.41	5935.60
593.57	5399.62
593.73	4781.71
593.89	4252.75
594.05	3581.02
594.20	3353.99
594.36	3141.00
594.52	2810.98
594.68	2834.39
594.84	2647.15
594.99	2656.51
595.15	2516.08
595.31	2459.90
595.47	2490.33
595.62	2438.84
595.78	2319.47
595.94	2277.34
596.10	2462.24
596.25	2415.43
596.41	2595.65
596.57	2392.03
596.73	2401.39
596.88	2361.60
597.04	2385.01
597.20	2448.20
597.36	2380.32
597.51	2497.35
597.67	2726.72
597.83	2808.64
597.99	2963.12
598.14	3019.29
598.30	3150.36
598.46	3391.44
598.61	3691.02
598.77	3873.59
598.93	3833.80
599.09	3985.93
599.24	4189.56
599.40	4009.34
599.56	3988.27
599.71	3838.48
599.87	3623.15
600.03	3349.31
600.18	3155.04
600.34	3021.63
600.50	2722.04
600.65	2597.99
600.81	2497.35
600.97	2307.77
601.12	2225.85
601.28	2167.34
601.44	2019.88
601.59	1811.57
601.75	1956.69
601.91	1888.81
602.06	1771.79
602.22	1781.15
602.37	1652.42
602.53	1596.25
602.69	1650.08
602.84	1570.50
603.00	1507.30
603.16	1664.12
603.31	1757.74
603.47	1753.06
603.62	1785.83
603.78	1781.15
603.94	1813.92
604.09	1748.38
604.25	1748.38
604.40	1877.11
604.56	1966.05
604.71	1813.92
604.87	1818.60
605.03	1867.75
605.18	1944.99
