SpectraSuite Data File
++++++++++++++++++++++++++++++++++++
Date: Fri Oct 04 11:42:16 GMT-05:00 2013
User: price-jones
Dark Spectrum Present: No
Reference Spectrum Present: No
Number of Sampled Component Spectra: 1
Spectrometers: USB2+H05261
Integration Time (usec): 100000 (USB2+H05261)
Spectra Averaged: 1 (USB2+H05261)
Boxcar Smoothing: 0 (USB2+H05261)
Correct for Electrical Dark: No (USB2+H05261)
Strobe/Lamp Enabled: No (USB2+H05261)
Correct for Detector Non-linearity: No (USB2+H05261)
Correct for Stray Light: No (USB2+H05261)
Number of Pixels in Processed Spectrum: 2048
>>>>>Begin Processed Spectral Data<<<<<
365.73	60.85
365.92	60.85
366.12	60.85
366.32	0.00
366.52	0.00
366.72	0.00
366.91	0.00
367.11	0.00
367.31	0.00
367.51	0.00
367.70	0.00
367.90	0.00
368.10	0.00
368.30	0.00
368.49	0.00
368.69	0.00
368.89	0.00
369.09	0.00
369.28	0.00
369.48	18.72
369.68	0.00
369.87	0.00
370.07	0.00
370.27	0.00
370.47	25.75
370.66	161.50
370.86	168.52
371.06	252.78
371.25	198.95
371.45	128.73
371.65	196.60
371.84	294.91
372.04	245.76
372.24	198.95
372.44	222.35
372.63	175.54
372.83	210.65
373.03	147.45
373.22	212.99
373.42	245.76
373.62	252.78
373.81	224.69
374.01	243.42
374.21	306.61
374.40	234.05
374.60	297.25
374.79	255.12
374.99	224.69
375.19	269.16
375.38	278.52
375.58	196.60
375.78	283.20
375.97	276.18
376.17	292.57
376.37	287.89
376.56	287.89
376.76	238.73
376.95	245.76
377.15	243.42
377.35	220.01
377.54	238.73
377.74	334.70
377.93	315.97
378.13	341.72
378.33	278.52
378.52	283.20
378.72	245.76
378.91	201.29
379.11	266.82
379.31	269.16
379.50	322.99
379.70	332.36
379.89	290.23
380.09	259.80
380.28	318.31
380.48	308.95
380.68	315.97
380.87	262.14
381.07	222.35
381.26	243.42
381.46	224.69
381.65	306.61
381.85	234.05
382.04	147.45
382.24	236.39
382.43	161.50
382.63	173.20
382.83	224.69
383.02	227.03
383.22	203.63
383.41	234.05
383.61	308.95
383.80	220.01
384.00	290.23
384.19	273.84
384.39	372.15
384.58	266.82
384.78	290.23
384.97	297.25
385.17	264.48
385.36	271.50
385.56	229.37
385.75	238.73
385.95	269.16
386.14	374.49
386.34	322.99
386.53	283.20
386.72	238.73
386.92	346.40
387.11	327.68
387.31	301.93
387.50	276.18
387.70	273.84
387.89	264.48
388.09	243.42
388.28	217.67
388.48	266.82
388.67	327.68
388.86	369.80
389.06	318.31
389.25	418.96
389.45	330.02
389.64	414.27
389.84	374.49
390.03	365.12
390.22	358.10
390.42	355.76
390.61	315.97
390.81	369.80
391.00	365.12
391.19	358.10
391.39	372.15
391.58	393.21
391.78	320.65
391.97	374.49
392.16	322.99
392.36	327.68
392.55	322.99
392.75	271.50
392.94	262.14
393.13	217.67
393.33	231.71
393.52	241.08
393.71	341.72
393.91	294.91
394.10	318.31
394.29	369.80
394.49	400.23
394.68	409.59
394.88	416.62
395.07	416.62
395.26	367.46
395.46	353.42
395.65	416.62
395.84	334.70
396.04	320.65
396.23	294.91
396.42	236.39
396.62	135.75
396.81	353.42
397.00	283.20
397.19	404.91
397.39	355.76
397.58	470.45
397.77	418.96
397.97	414.27
398.16	435.34
398.35	507.90
398.55	496.19
398.74	463.43
398.93	505.56
399.12	470.45
399.32	524.28
399.51	447.04
399.70	489.17
399.90	500.87
400.09	484.49
400.28	528.96
400.47	442.36
400.67	521.94
400.86	545.34
401.05	526.62
401.24	589.82
401.44	550.03
401.63	561.73
401.82	641.31
402.01	444.70
402.21	503.22
402.40	517.26
402.59	538.32
402.78	440.02
402.97	470.45
403.17	468.11
403.36	433.00
403.55	533.64
403.74	578.11
403.93	533.64
404.13	688.12
404.32	606.20
404.51	554.71
404.70	634.29
404.89	636.63
405.09	596.84
405.28	512.58
405.47	477.47
405.66	524.28
405.85	517.26
406.05	479.81
406.24	456.40
406.43	404.91
406.62	535.98
406.81	557.05
407.00	582.79
407.20	491.51
407.39	479.81
407.58	545.34
407.77	580.45
407.96	545.34
408.15	603.86
408.34	559.39
408.54	657.69
408.73	521.94
408.92	594.50
409.11	571.09
409.30	613.22
409.49	479.81
409.68	470.45
409.87	505.56
410.07	538.32
410.26	540.66
410.45	585.13
410.64	519.60
410.83	613.22
411.02	606.20
411.21	702.16
411.40	671.73
411.59	615.56
411.78	631.94
411.98	580.45
412.17	557.05
412.36	582.79
412.55	608.54
412.74	678.76
412.93	610.88
413.12	540.66
413.31	585.13
413.50	620.24
413.69	678.76
413.88	650.67
414.07	697.48
414.26	620.24
414.45	592.16
414.64	641.31
414.83	608.54
415.02	587.47
415.22	706.84
415.41	648.33
415.60	624.92
415.79	711.52
415.98	664.71
416.17	681.10
416.36	767.70
416.55	681.10
416.74	727.91
416.93	753.65
417.12	681.10
417.31	685.78
417.50	683.44
417.69	650.67
417.88	671.73
418.07	603.86
418.26	653.01
418.45	587.47
418.64	624.92
418.83	718.54
419.02	606.20
419.21	601.52
419.39	620.24
419.58	634.29
419.77	674.07
419.96	622.58
420.15	751.31
420.34	660.03
420.53	807.48
420.72	777.06
420.91	760.67
421.10	734.93
421.29	690.46
421.48	723.23
421.67	709.18
421.86	763.01
422.05	657.69
422.24	603.86
422.43	641.31
422.61	601.52
422.80	774.72
422.99	727.91
423.18	657.69
423.37	784.08
423.56	620.24
423.75	681.10
423.94	645.99
424.13	671.73
424.32	617.90
424.50	620.24
424.69	648.33
424.88	718.54
425.07	655.35
425.26	779.40
425.45	631.94
425.64	585.13
425.83	627.26
426.01	760.67
426.20	688.12
426.39	732.59
426.58	624.92
426.77	545.34
426.96	599.18
427.15	587.47
427.33	641.31
427.52	683.44
427.71	636.63
427.90	631.94
428.09	634.29
428.28	610.88
428.46	638.97
428.65	655.35
428.84	664.71
429.03	674.07
429.22	552.37
429.40	533.64
429.59	491.51
429.78	468.11
429.97	482.15
430.16	521.94
430.34	547.69
430.53	535.98
430.72	524.28
430.91	585.13
431.10	631.94
431.28	737.27
431.47	765.36
431.66	739.61
431.85	683.44
432.03	664.71
432.22	739.61
432.41	667.05
432.60	732.59
432.79	730.25
432.97	791.10
433.16	732.59
433.35	711.52
433.54	653.01
433.72	718.54
433.91	716.20
434.10	732.59
434.28	739.61
434.47	664.71
434.66	802.80
434.85	767.70
435.03	898.77
435.22	1088.35
435.41	1633.69
435.59	1650.08
435.78	1460.49
435.97	1083.67
436.16	947.92
436.34	887.06
436.53	716.20
436.72	767.70
436.90	814.51
437.09	732.59
437.28	739.61
437.46	777.06
437.65	716.20
437.84	704.50
438.02	746.63
438.21	615.56
438.40	685.78
438.58	711.52
438.77	812.17
438.96	678.76
439.14	727.91
439.33	805.14
439.52	819.19
439.70	765.36
439.89	819.19
440.08	709.18
440.26	730.25
440.45	744.29
440.63	763.01
440.82	774.72
441.01	823.87
441.19	835.57
441.38	840.25
441.57	866.00
441.75	819.19
441.94	931.53
442.12	863.66
442.31	908.13
442.50	833.23
442.68	875.36
442.87	842.59
443.05	767.70
443.24	973.66
443.43	873.02
443.61	961.96
443.80	854.30
443.98	884.72
444.17	779.40
444.35	882.38
444.54	964.30
444.73	966.64
444.91	938.55
445.10	837.91
445.28	812.17
445.47	791.10
445.65	847.27
445.84	807.48
446.02	866.00
446.21	917.49
446.39	905.79
446.58	887.06
446.77	880.04
446.95	922.17
447.14	980.68
447.32	936.21
447.51	901.11
447.69	868.34
447.88	891.74
448.06	992.39
448.25	896.43
448.43	887.06
448.62	915.15
448.80	847.27
448.99	945.58
449.17	901.11
449.36	922.17
449.54	940.90
449.73	875.36
449.91	858.98
450.10	891.74
450.28	992.39
450.46	1034.52
450.65	1015.79
450.83	917.49
451.02	968.98
451.20	1013.45
451.39	919.83
451.57	924.51
451.76	950.26
451.94	940.90
452.13	891.74
452.31	870.68
452.49	926.85
452.68	861.32
452.86	933.87
453.05	875.36
453.23	894.08
453.42	828.55
453.60	898.77
453.78	910.47
453.97	947.92
454.15	933.87
454.34	954.94
454.52	971.32
454.70	910.47
454.89	840.25
455.07	880.04
455.26	926.85
455.44	903.45
455.62	901.11
455.81	954.94
455.99	987.71
456.17	898.77
456.36	929.19
456.54	976.00
456.73	936.21
456.91	945.58
457.09	1008.77
457.28	919.83
457.46	1100.05
457.64	1053.24
457.83	947.92
458.01	917.49
458.19	985.37
458.38	976.00
458.56	926.85
458.74	938.55
458.93	915.15
459.11	1055.58
459.29	922.17
459.48	985.37
459.66	924.51
459.84	990.05
460.03	1050.90
460.21	936.21
460.39	1015.79
460.57	985.37
460.76	999.41
460.94	947.92
461.12	1036.86
461.31	961.96
461.49	957.28
461.67	1095.37
461.85	1078.99
462.04	994.73
462.22	1146.86
462.40	1071.97
462.59	954.94
462.77	964.30
462.95	940.90
463.13	910.47
463.32	1018.13
463.50	980.68
463.68	1041.54
463.86	1025.15
464.05	866.00
464.23	976.00
464.41	910.47
464.59	870.68
464.78	952.60
464.96	999.41
465.14	896.43
465.32	861.32
465.50	1011.11
465.69	938.55
465.87	866.00
466.05	1027.50
466.23	952.60
466.41	940.90
466.60	912.81
466.78	947.92
466.96	938.55
467.14	938.55
467.32	994.73
467.51	966.64
467.69	985.37
467.87	910.47
468.05	1071.97
468.23	978.34
468.41	1078.99
468.60	954.94
468.78	1011.11
468.96	1020.47
469.14	997.07
469.32	994.73
469.50	936.21
469.69	1008.77
469.87	938.55
470.05	912.81
470.23	849.61
470.41	894.08
470.59	978.34
470.77	957.28
470.95	966.64
471.14	1041.54
471.32	987.71
471.50	1083.67
471.68	1062.60
471.86	985.37
472.04	1004.09
472.22	1083.67
472.40	978.34
472.58	931.53
472.77	901.11
472.95	976.00
473.13	1074.31
473.31	1095.37
473.49	1001.75
473.67	1057.92
473.85	1107.07
474.03	1036.86
474.21	1025.15
474.39	1039.20
474.57	1118.78
474.75	1036.86
474.93	1086.01
475.12	1036.86
475.30	1022.81
475.48	1055.58
475.66	1109.41
475.84	1053.24
476.02	1060.26
476.20	1032.18
476.38	1036.86
476.56	1057.92
476.74	1130.48
476.92	1137.50
477.10	1132.82
477.28	1205.38
477.46	1060.26
477.64	1057.92
477.82	1132.82
478.00	1097.71
478.18	1146.86
478.36	1090.69
478.54	1074.31
478.72	1093.03
478.90	1137.50
479.08	1142.18
479.26	1217.08
479.44	1179.63
479.62	1181.97
479.80	1184.31
479.98	1205.38
480.16	1207.72
480.34	1275.59
480.52	1280.27
480.70	1296.66
480.88	1217.08
481.06	1221.76
481.24	1228.78
481.41	1259.21
481.59	1322.40
481.77	1219.42
481.95	1217.08
482.13	1233.46
482.31	1322.40
482.49	1242.82
482.67	1313.04
482.85	1366.87
483.03	1362.19
483.21	1343.47
483.39	1364.53
483.57	1256.87
483.74	1439.43
483.92	1334.11
484.10	1214.74
484.28	1378.58
484.46	1366.87
484.64	1299.00
484.82	1420.71
485.00	1306.02
485.18	1210.06
485.35	1352.83
485.53	1245.16
485.71	1160.91
485.89	1097.71
486.07	1137.50
486.25	1397.30
486.43	1490.92
486.61	1420.71
486.78	1357.51
486.96	1409.00
487.14	1493.26
487.32	1404.32
487.50	1359.85
487.68	1448.79
487.85	1483.90
488.03	1544.75
488.21	1533.05
488.39	1551.78
488.57	1519.01
488.75	1394.96
488.92	1689.87
489.10	1617.31
489.28	1717.95
489.46	1584.54
489.64	1565.82
489.81	1591.56
489.99	1636.03
490.17	1582.20
490.35	1664.12
490.53	1591.56
490.70	1561.14
490.88	1596.25
491.06	1544.75
491.24	1643.06
491.41	1586.88
491.59	1579.86
491.77	1474.54
491.95	1472.20
492.13	1558.80
492.30	1631.35
492.48	1577.52
492.66	1621.99
492.84	1715.61
493.01	1739.02
493.19	1689.87
493.37	1689.87
493.54	1563.48
493.72	1617.31
493.90	1706.25
494.08	1631.35
494.25	1753.06
494.43	1802.21
494.61	1753.06
494.79	1804.55
494.96	1781.15
495.14	1778.81
495.32	1687.53
495.49	1729.66
495.67	1757.74
495.85	1717.95
496.02	1788.17
496.20	1764.76
496.38	1811.57
496.55	1774.13
496.73	1860.73
496.91	1839.66
497.09	1870.09
497.26	1790.51
497.44	1839.66
497.62	1722.63
497.79	1654.76
497.97	1764.76
498.14	1614.97
498.32	1732.00
498.50	1685.19
498.67	1872.43
498.85	1839.66
499.03	1837.32
499.20	1771.79
499.38	1746.04
499.56	1853.70
499.73	1802.21
499.91	1739.02
500.08	1865.41
500.26	1673.48
500.44	1762.42
500.61	1767.10
500.79	1621.99
500.97	1734.34
501.14	1727.32
501.32	1582.20
501.49	1680.50
501.67	1682.85
501.84	1699.23
502.02	1654.76
502.20	1774.13
502.37	1806.89
502.55	1734.34
502.72	1792.85
502.90	1764.76
503.07	1685.19
503.25	1640.72
503.43	1549.43
503.60	1570.50
503.78	1544.75
503.95	1724.97
504.13	1619.65
504.30	1832.64
504.48	1722.63
504.65	1849.02
504.83	1708.59
505.01	1753.06
505.18	1881.79
505.36	1774.13
505.53	1809.23
505.71	1895.83
505.88	1879.45
506.06	1823.28
506.23	1804.55
506.41	1764.76
506.58	1811.57
506.76	1748.38
506.93	1802.21
507.11	1762.42
507.28	1729.66
507.46	1724.97
507.63	1659.44
507.81	1659.44
507.98	1750.72
508.16	1778.81
508.33	1867.75
508.50	1926.26
508.68	1844.34
508.85	1842.00
509.03	1827.96
509.20	1867.75
509.38	1952.01
509.55	1870.09
509.73	1764.76
509.90	1799.87
510.08	1659.44
510.25	1853.70
510.42	1860.73
510.60	1849.02
510.77	1879.45
510.95	1937.96
511.12	1842.00
511.30	1849.02
511.47	1954.35
511.64	1926.26
511.82	1870.09
511.99	1842.00
512.17	1820.94
512.34	1832.64
512.51	1884.13
512.69	1914.56
512.86	1870.09
513.04	1858.39
513.21	1792.85
513.38	1846.68
513.56	1813.92
513.73	1717.95
513.90	1797.53
514.08	1813.92
514.25	1778.81
514.43	1860.73
514.60	1753.06
514.77	1870.09
514.95	1844.34
515.12	1813.92
515.29	1792.85
515.47	1877.11
515.64	1877.11
515.81	1813.92
515.99	1874.77
516.16	1804.55
516.33	1598.59
516.51	1575.18
516.68	1460.49
516.85	1481.56
517.03	1572.84
517.20	1680.50
517.37	1802.21
517.54	1891.15
517.72	1792.85
517.89	1652.42
518.06	1570.50
518.24	1589.22
518.41	1703.91
518.58	1734.34
518.75	1666.46
518.93	1767.10
519.10	1806.89
519.27	1701.57
519.45	1809.23
519.62	2001.16
519.79	1923.92
519.96	1818.60
520.14	1823.28
520.31	1816.26
520.48	1750.72
520.65	1724.97
520.83	1809.23
521.00	1790.51
521.17	1872.43
521.34	1834.98
521.52	1820.94
521.69	1820.94
521.86	1919.24
522.03	1984.77
522.20	1804.55
522.38	1813.92
522.55	1846.68
522.72	1809.23
522.89	1823.28
523.07	1849.02
523.24	1914.56
523.41	1893.49
523.58	1952.01
523.75	1916.90
523.92	1860.73
524.10	1977.75
524.27	1870.09
524.44	1902.86
524.61	1877.11
524.78	1881.79
524.96	1851.36
525.13	1849.02
525.30	1975.41
525.47	1952.01
525.64	1966.05
525.81	1881.79
525.98	1860.73
526.16	1699.23
526.33	1589.22
526.50	1617.31
526.67	1619.65
526.84	1624.33
527.01	1614.97
527.18	1748.38
527.36	1767.10
527.53	1970.73
527.70	1802.21
527.87	1802.21
528.04	1734.34
528.21	1858.39
528.38	1959.03
528.55	1940.30
528.72	1926.26
528.89	1930.94
529.07	1919.24
529.24	1870.09
529.41	1844.34
529.58	1872.43
529.75	1860.73
529.92	1860.73
530.09	2022.22
530.26	1987.11
530.43	1902.86
530.60	1846.68
530.77	1963.71
530.94	2010.52
531.11	1818.60
531.28	1933.28
531.46	1858.39
531.63	1956.69
531.80	1970.73
531.97	1919.24
532.14	1877.11
532.31	1853.70
532.48	1823.28
532.65	1823.28
532.82	1792.85
532.99	1961.37
533.16	1811.57
533.33	1879.45
533.50	1902.86
533.67	1816.26
533.84	1856.04
534.01	1813.92
534.18	1928.60
534.35	1963.71
534.52	1856.04
534.69	1987.11
534.86	1909.88
535.03	1975.41
535.20	1933.28
535.37	1902.86
535.54	1968.39
535.71	1968.39
535.88	1930.94
536.05	1865.41
536.22	2043.29
536.38	1863.07
536.55	1825.62
536.72	1753.06
536.89	1865.41
537.06	1856.04
537.23	1954.35
537.40	2003.50
537.57	1928.60
537.74	1991.80
537.91	2017.54
538.08	1860.73
538.25	2029.24
538.42	1954.35
538.59	2080.74
538.75	1977.75
538.92	1916.90
539.09	1989.46
539.26	1947.33
539.43	2090.10
539.60	2111.16
539.77	2080.74
539.94	2073.71
540.11	2169.68
540.28	2118.18
540.44	2143.93
540.61	2165.00
540.78	2239.89
540.95	2228.19
541.12	2492.67
541.29	2640.12
541.46	2764.17
541.62	2668.21
541.79	2644.81
541.96	2581.61
542.13	2588.63
542.30	2532.46
542.47	2516.08
542.63	2434.16
542.80	2490.33
542.97	2471.61
543.14	2349.90
543.31	2492.67
543.48	2551.18
543.64	2562.89
543.81	2597.99
543.98	2434.16
544.15	2462.24
544.32	2445.86
544.48	2462.24
544.65	2637.78
544.82	2410.75
544.99	2352.24
545.16	2401.39
545.32	2406.07
545.49	2775.88
545.66	3698.05
545.83	4166.15
546.00	3936.78
546.16	3145.68
546.33	2806.30
546.50	2551.18
546.67	2347.56
546.83	2417.77
547.00	2225.85
547.17	2167.34
547.34	2207.13
547.50	2064.35
547.67	2127.55
547.84	2052.65
548.00	2092.44
548.17	2146.27
548.34	2134.57
548.51	2211.81
548.67	2228.19
548.84	2113.50
549.01	2146.27
549.18	2064.35
549.34	2136.91
549.51	2099.46
549.68	2062.01
549.84	2092.44
550.01	1982.43
550.18	2076.06
550.34	2101.80
550.51	1982.43
550.68	1996.48
550.84	1937.96
551.01	1952.01
551.18	1912.22
551.34	1935.62
551.51	1935.62
551.68	1968.39
551.84	2024.56
552.01	1825.62
552.18	1977.75
552.34	1802.21
552.51	1888.81
552.68	1909.88
552.84	1804.55
553.01	1916.90
553.18	1952.01
553.34	1888.81
553.51	1842.00
553.67	1905.20
553.84	1923.92
554.01	1933.28
554.17	1806.89
554.34	1877.11
554.51	1900.52
554.67	1839.66
554.84	1872.43
555.00	1811.57
555.17	1811.57
555.33	1834.98
555.50	1734.34
555.67	1881.79
555.83	1750.72
556.00	1813.92
556.16	1844.34
556.33	1689.87
556.50	1661.78
556.66	1727.32
556.83	1640.72
556.99	1788.17
557.16	1661.78
557.32	1727.32
557.49	1783.49
557.65	1727.32
557.82	1680.50
557.98	1710.93
558.15	1643.06
558.32	1645.40
558.48	1540.07
558.65	1706.25
558.81	1680.50
558.98	1762.42
559.14	1724.97
559.31	1724.97
559.47	1717.95
559.64	1717.95
559.80	1729.66
559.97	1493.26
560.13	1685.19
560.30	1806.89
560.46	1643.06
560.63	1834.98
560.79	1769.44
560.96	1614.97
561.12	1673.48
561.29	1678.16
561.45	1659.44
561.61	1722.63
561.78	1710.93
561.94	1673.48
562.11	1652.42
562.27	1633.69
562.44	1633.69
562.60	1687.53
562.77	1703.91
562.93	1722.63
563.10	1722.63
563.26	1664.12
563.42	1654.76
563.59	1692.21
563.75	1598.59
563.92	1724.97
564.08	1661.78
564.24	1621.99
564.41	1722.63
564.57	1633.69
564.74	1652.42
564.90	1577.52
565.07	1657.10
565.23	1626.67
565.39	1629.01
565.56	1577.52
565.72	1516.67
565.88	1488.58
566.05	1537.73
566.21	1652.42
566.38	1565.82
566.54	1694.55
566.70	1629.01
566.87	1577.52
567.03	1598.59
567.19	1633.69
567.36	1652.42
567.52	1584.54
567.68	1666.46
567.85	1551.78
568.01	1556.46
568.17	1626.67
568.34	1596.25
568.50	1533.05
568.66	1479.22
568.83	1519.01
568.99	1516.67
569.15	1621.99
569.32	1610.29
569.48	1500.28
569.64	1504.96
569.81	1530.71
569.97	1507.30
570.13	1528.37
570.30	1451.13
570.46	1551.78
570.62	1516.67
570.78	1479.22
570.95	1441.77
571.11	1455.81
571.27	1540.07
571.43	1481.56
571.60	1605.61
571.76	1509.65
571.92	1533.05
572.09	1570.50
572.25	1610.29
572.41	1575.18
572.57	1476.88
572.74	1582.20
572.90	1547.09
573.06	1509.65
573.22	1542.41
573.38	1469.86
573.55	1575.18
573.71	1533.05
573.87	1519.01
574.03	1521.35
574.20	1540.07
574.36	1668.80
574.52	1584.54
574.68	1561.14
574.84	1446.45
575.01	1446.45
575.17	1465.18
575.33	1397.30
575.49	1521.35
575.65	1430.07
575.82	1441.77
575.98	1570.50
576.14	1511.99
576.30	1549.43
576.46	1760.08
576.62	1895.83
576.79	1935.62
576.95	1856.04
577.11	1631.35
577.27	1694.55
577.43	1610.29
577.59	1523.69
577.75	1507.30
577.92	1432.41
578.08	1467.52
578.24	1460.49
578.40	1514.33
578.56	1664.12
578.72	1860.73
578.88	1820.94
579.04	1717.95
579.21	1666.46
579.37	1575.18
579.53	1650.08
579.69	1638.38
579.85	1561.14
580.01	1551.78
580.17	1607.95
580.33	1629.01
580.49	1570.50
580.65	1493.26
580.82	1502.62
580.98	1598.59
581.14	1530.71
581.30	1533.05
581.46	1668.80
581.62	1734.34
581.78	1579.86
581.94	1603.27
582.10	1605.61
582.26	1633.69
582.42	1657.10
582.58	1696.89
582.74	1638.38
582.90	1666.46
583.06	1638.38
583.22	1626.67
583.38	1671.14
583.54	1575.18
583.70	1589.22
583.86	1586.88
584.02	1659.44
584.18	1607.95
584.34	1633.69
584.50	1671.14
584.66	1657.10
584.82	1621.99
584.98	1619.65
585.14	1549.43
585.30	1626.67
585.46	1488.58
585.62	1502.62
585.78	1420.71
585.94	1547.09
586.10	1528.37
586.26	1504.96
586.42	1664.12
586.58	1647.74
586.74	1664.12
586.90	1661.78
587.06	1640.72
587.22	1612.63
587.38	1549.43
587.54	1605.61
587.70	1600.93
587.86	1500.28
588.02	1371.55
588.18	1420.71
588.34	1324.74
588.49	1273.25
588.65	1128.14
588.81	1158.57
588.97	1107.07
589.13	1067.28
589.29	1231.12
589.45	1158.57
589.61	1184.31
589.77	1228.78
589.93	1249.85
590.08	1270.91
590.24	1291.98
590.40	1268.57
590.56	1336.45
590.72	1284.95
590.88	1320.06
591.04	1291.98
591.20	1280.27
591.35	1301.34
591.51	1266.23
591.67	1207.72
591.83	1348.15
591.99	1313.04
592.15	1401.98
592.31	1420.71
592.46	1469.86
592.62	1460.49
592.78	1507.30
592.94	1394.96
593.10	1430.07
593.26	1439.43
593.41	1444.11
593.57	1378.58
593.73	1310.70
593.89	1268.57
594.05	1219.42
594.20	1231.12
594.36	1219.42
594.52	1109.41
594.68	1167.93
594.84	1291.98
594.99	1306.02
595.15	1341.13
595.31	1240.48
595.47	1331.76
595.62	1273.25
595.78	1315.38
595.94	1385.60
596.10	1313.04
596.25	1359.85
596.41	1233.46
596.57	1263.89
596.73	1240.48
596.88	1299.00
597.04	1315.38
597.20	1219.42
597.36	1385.60
597.51	1294.32
597.67	1282.61
597.83	1369.21
597.99	1254.53
598.14	1256.87
598.30	1341.13
598.46	1308.36
598.61	1324.74
598.77	1334.11
598.93	1416.02
599.09	1411.34
599.24	1453.47
599.40	1544.75
599.56	1406.66
599.71	1411.34
599.87	1392.62
600.03	1385.60
600.18	1378.58
600.34	1369.21
600.50	1308.36
600.65	1322.40
600.81	1383.26
600.97	1320.06
601.12	1352.83
601.28	1362.19
601.44	1306.02
601.59	1259.21
601.75	1198.35
