SpectraSuite Data File
++++++++++++++++++++++++++++++++++++
Date: Fri Oct 04 11:41:44 GMT-05:00 2013
User: price-jones
Dark Spectrum Present: No
Reference Spectrum Present: No
Number of Sampled Component Spectra: 1
Spectrometers: USB2+H05261
Integration Time (usec): 100000 (USB2+H05261)
Spectra Averaged: 1 (USB2+H05261)
Boxcar Smoothing: 0 (USB2+H05261)
Correct for Electrical Dark: No (USB2+H05261)
Strobe/Lamp Enabled: No (USB2+H05261)
Correct for Detector Non-linearity: No (USB2+H05261)
Correct for Stray Light: No (USB2+H05261)
Number of Pixels in Processed Spectrum: 2048
>>>>>Begin Processed Spectral Data<<<<<
365.73	32.77
365.92	32.77
366.12	32.77
366.32	0.00
366.52	0.00
366.72	0.00
366.91	0.00
367.11	0.00
367.31	0.00
367.51	0.00
367.70	0.00
367.90	0.00
368.10	0.00
368.30	0.00
368.49	0.00
368.69	0.00
368.89	0.00
369.09	0.00
369.28	0.00
369.48	0.00
369.68	0.00
369.87	0.00
370.07	32.77
370.27	0.00
370.47	51.49
370.66	11.70
370.86	98.30
371.06	131.07
371.25	110.01
371.45	39.79
371.65	149.79
371.84	32.77
372.04	65.54
372.24	44.47
372.44	154.48
372.63	81.92
372.83	189.58
373.03	77.24
373.22	107.66
373.42	133.41
373.62	95.96
373.81	72.56
374.01	177.88
374.21	138.09
374.40	128.73
374.60	147.45
374.79	191.92
374.99	145.11
375.19	145.11
375.38	180.22
375.58	166.18
375.78	121.71
375.97	163.84
376.17	124.05
376.37	112.35
376.56	159.16
376.76	163.84
376.95	147.45
377.15	238.73
377.35	161.50
377.54	124.05
377.74	131.07
377.93	63.19
378.13	63.19
378.33	208.31
378.52	72.56
378.72	177.88
378.91	154.48
379.11	114.69
379.31	196.60
379.50	133.41
379.70	182.56
379.89	147.45
380.09	88.94
380.28	84.26
380.48	152.13
380.68	175.54
380.87	135.75
381.07	102.98
381.26	222.35
381.46	191.92
381.65	124.05
381.85	128.73
382.04	138.09
382.24	210.65
382.43	140.43
382.63	152.13
382.83	112.35
383.02	140.43
383.22	163.84
383.41	203.63
383.61	102.98
383.80	119.37
384.00	156.82
384.19	147.45
384.39	105.32
384.58	135.75
384.78	91.28
384.97	79.58
385.17	131.07
385.36	138.09
385.56	102.98
385.75	63.19
385.95	93.62
386.14	86.60
386.34	145.11
386.53	93.62
386.72	107.66
386.92	194.26
387.11	135.75
387.31	187.24
387.50	152.13
387.70	117.03
387.89	149.79
388.09	67.88
388.28	112.35
388.48	88.94
388.67	102.98
388.86	142.77
389.06	63.19
389.25	177.88
389.45	154.48
389.64	168.52
389.84	184.90
390.03	95.96
390.22	159.16
390.42	131.07
390.61	102.98
390.81	133.41
391.00	135.75
391.19	140.43
391.39	119.37
391.58	112.35
391.78	67.88
391.97	117.03
392.16	149.79
392.36	217.67
392.55	114.69
392.75	95.96
392.94	126.39
393.13	114.69
393.33	159.16
393.52	98.30
393.71	100.64
393.91	128.73
394.10	95.96
394.29	149.79
394.49	168.52
394.68	98.30
394.88	140.43
395.07	114.69
395.26	138.09
395.46	145.11
395.65	86.60
395.84	119.37
396.04	161.50
396.23	128.73
396.42	135.75
396.62	182.56
396.81	149.79
397.00	161.50
397.19	154.48
397.39	166.18
397.58	70.22
397.77	126.39
397.97	88.94
398.16	140.43
398.35	140.43
398.55	77.24
398.74	215.33
398.93	163.84
399.12	140.43
399.32	212.99
399.51	159.16
399.70	184.90
399.90	163.84
400.09	177.88
400.28	234.05
400.47	184.90
400.67	196.60
400.86	147.45
401.05	175.54
401.24	196.60
401.44	210.65
401.63	243.42
401.82	159.16
402.01	135.75
402.21	203.63
402.40	212.99
402.59	196.60
402.78	175.54
402.97	173.20
403.17	220.01
403.36	273.84
403.55	262.14
403.74	674.07
403.93	2106.48
404.13	5399.62
404.32	8301.88
404.51	8037.40
404.70	4973.64
404.89	1856.04
405.09	601.52
405.28	285.55
405.47	222.35
405.66	259.80
405.85	250.44
406.05	177.88
406.24	215.33
406.43	189.58
406.62	205.97
406.81	325.33
407.00	435.34
407.20	662.37
407.39	1015.79
407.58	1151.54
407.77	840.25
407.96	531.30
408.15	287.89
408.34	184.90
408.54	182.56
408.73	119.37
408.92	234.05
409.11	194.26
409.30	287.89
409.49	212.99
409.68	138.09
409.87	168.52
410.07	170.86
410.26	196.60
410.45	212.99
410.64	187.24
410.83	203.63
411.02	215.33
411.21	215.33
411.40	224.69
411.59	222.35
411.78	196.60
411.98	196.60
412.17	145.11
412.36	243.42
412.55	245.76
412.74	250.44
412.93	304.27
413.12	241.08
413.31	227.03
413.50	227.03
413.69	278.52
413.88	262.14
414.07	259.80
414.26	245.76
414.45	224.69
414.64	194.26
414.83	271.50
415.02	222.35
415.22	290.23
415.41	287.89
415.60	259.80
415.79	273.84
415.98	376.83
416.17	250.44
416.36	262.14
416.55	222.35
416.74	304.27
416.93	273.84
417.12	271.50
417.31	262.14
417.50	252.78
417.69	383.85
417.88	301.93
418.07	203.63
418.26	205.97
418.45	210.65
418.64	346.40
418.83	297.25
419.02	259.80
419.21	400.23
419.39	372.15
419.58	250.44
419.77	238.73
419.96	220.01
420.15	306.61
420.34	299.59
420.53	383.85
420.72	276.18
420.91	339.38
421.10	386.19
421.29	339.38
421.48	339.38
421.67	297.25
421.86	257.46
422.05	234.05
422.24	294.91
422.43	332.36
422.61	355.76
422.80	292.57
422.99	297.25
423.18	348.74
423.37	351.08
423.56	374.49
423.75	379.17
423.94	285.55
424.13	344.06
424.32	407.25
424.50	353.42
424.69	346.40
424.88	367.46
425.07	388.53
425.26	365.12
425.45	313.63
425.64	287.89
425.83	477.47
426.01	372.15
426.20	360.44
426.39	351.08
426.58	353.42
426.77	332.36
426.96	449.38
427.15	369.80
427.33	362.78
427.52	365.12
427.71	379.17
427.90	423.64
428.09	428.32
428.28	372.15
428.46	414.27
428.65	407.25
428.84	461.09
429.03	444.70
429.22	421.30
429.40	390.87
429.59	348.74
429.78	411.93
429.97	425.98
430.16	416.62
430.34	381.51
430.53	400.23
430.72	367.46
430.91	416.62
431.10	440.02
431.28	442.36
431.47	433.00
431.66	440.02
431.85	454.06
432.03	514.92
432.22	535.98
432.41	465.77
432.60	475.13
432.79	568.75
432.97	463.43
433.16	582.79
433.35	613.22
433.54	711.52
433.72	819.19
433.91	723.23
434.10	779.40
434.28	896.43
434.47	1132.82
434.66	1242.82
434.85	1500.28
435.03	3564.64
435.22	13025.08
435.41	33371.36
435.59	41720.05
435.78	28371.97
435.97	13961.30
436.16	5174.92
436.34	1739.02
436.53	1071.97
436.72	767.70
436.90	706.84
437.09	681.10
437.28	587.47
437.46	571.09
437.65	575.77
437.84	566.41
438.02	575.77
438.21	489.17
438.40	526.62
438.58	524.28
438.77	440.02
438.96	503.22
439.14	564.07
439.33	564.07
439.52	470.45
439.70	580.45
439.89	557.05
440.08	571.09
440.26	503.22
440.45	535.98
440.63	524.28
440.82	545.34
441.01	463.43
441.19	505.56
441.38	456.40
441.57	552.37
441.75	526.62
441.94	554.71
442.12	472.79
442.31	528.96
442.50	451.72
442.68	461.09
442.87	447.04
443.05	557.05
443.24	550.03
443.43	599.18
443.61	573.43
443.80	517.26
443.98	477.47
444.17	496.19
444.35	510.24
444.54	461.09
444.73	456.40
444.91	554.71
445.10	493.85
445.28	498.53
445.47	589.82
445.65	496.19
445.84	449.38
446.02	437.68
446.21	512.58
446.39	521.94
446.58	564.07
446.77	479.81
446.95	524.28
447.14	547.69
447.32	613.22
447.51	505.56
447.69	482.15
447.88	552.37
448.06	622.58
448.25	475.13
448.43	540.66
448.62	538.32
448.80	533.64
448.99	498.53
449.17	507.90
449.36	468.11
449.54	477.47
449.73	533.64
449.91	564.07
450.10	475.13
450.28	517.26
450.46	557.05
450.65	454.06
450.83	465.77
451.02	540.66
451.20	477.47
451.39	538.32
451.57	564.07
451.76	543.00
451.94	547.69
452.13	526.62
452.31	561.73
452.49	479.81
452.68	503.22
452.86	554.71
453.05	547.69
453.23	531.30
453.42	491.51
453.60	547.69
453.78	526.62
453.97	543.00
454.15	500.87
454.34	423.64
454.52	550.03
454.70	533.64
454.89	545.34
455.07	538.32
455.26	491.51
455.44	564.07
455.62	568.75
455.81	503.22
455.99	531.30
456.17	543.00
456.36	512.58
456.54	535.98
456.73	416.62
456.91	514.92
457.09	486.83
457.28	512.58
457.46	505.56
457.64	484.49
457.83	519.60
458.01	470.45
458.19	421.30
458.38	440.02
458.56	540.66
458.74	512.58
458.93	468.11
459.11	437.68
459.29	461.09
459.48	531.30
459.66	456.40
459.84	500.87
460.03	601.52
460.21	613.22
460.39	505.56
460.57	456.40
460.76	514.92
460.94	580.45
461.12	517.26
461.31	505.56
461.49	430.66
461.67	486.83
461.85	552.37
462.04	468.11
462.22	580.45
462.40	493.85
462.59	524.28
462.77	428.32
462.95	477.47
463.13	552.37
463.32	538.32
463.50	505.56
463.68	531.30
463.86	547.69
464.05	477.47
464.23	486.83
464.41	578.11
464.59	575.77
464.78	535.98
464.96	566.41
465.14	440.02
465.32	425.98
465.50	512.58
465.69	458.74
465.87	433.00
466.05	552.37
466.23	442.36
466.41	533.64
466.60	491.51
466.78	510.24
466.96	507.90
467.14	444.70
467.32	519.60
467.51	580.45
467.69	554.71
467.87	519.60
468.05	484.49
468.23	521.94
468.41	409.59
468.60	404.91
468.78	409.59
468.96	444.70
469.14	458.74
469.32	449.38
469.50	463.43
469.69	472.79
469.87	496.19
470.05	423.64
470.23	383.85
470.41	369.80
470.59	381.51
470.77	421.30
470.95	482.15
471.14	538.32
471.32	484.49
471.50	421.30
471.68	512.58
471.86	472.79
472.04	538.32
472.22	498.53
472.40	376.83
472.58	477.47
472.77	407.25
472.95	428.32
473.13	526.62
473.31	472.79
473.49	423.64
473.67	463.43
473.85	451.72
474.03	463.43
474.21	512.58
474.39	545.34
474.57	468.11
474.75	393.21
474.93	503.22
475.12	369.80
475.30	435.34
475.48	433.00
475.66	418.96
475.84	404.91
476.02	468.11
476.20	500.87
476.38	531.30
476.56	491.51
476.74	500.87
476.92	512.58
477.10	468.11
477.28	528.96
477.46	500.87
477.64	594.50
477.82	543.00
478.00	566.41
478.18	561.73
478.36	547.69
478.54	538.32
478.72	638.97
478.90	601.52
479.08	552.37
479.26	629.60
479.44	601.52
479.62	662.37
479.80	636.63
479.98	629.60
480.16	718.54
480.34	753.65
480.52	833.23
480.70	837.91
480.88	807.48
481.06	798.12
481.24	856.64
481.41	887.06
481.59	1006.43
481.77	999.41
481.95	968.98
482.13	1214.74
482.31	1158.57
482.49	1296.66
482.67	1348.15
482.85	1465.18
483.03	1640.72
483.21	1640.72
483.39	1785.83
483.57	1858.39
483.74	2071.37
483.92	2125.21
484.10	2069.03
484.28	2197.76
484.46	2462.24
484.64	2516.08
484.82	2640.12
485.00	2754.81
485.18	3119.93
485.35	3194.83
485.53	3197.17
485.71	3417.18
485.89	3634.85
486.07	3714.43
486.25	3758.90
486.43	3817.41
486.61	3906.35
486.78	3815.07
486.96	3775.28
487.14	3822.09
487.32	3798.69
487.50	3712.09
487.68	3609.11
487.85	3578.68
488.03	3658.26
488.21	3501.44
488.39	3466.33
488.57	3442.93
488.75	3225.26
488.92	3623.15
489.10	3286.11
489.28	3232.28
489.46	3056.74
489.64	2946.73
489.81	2942.05
489.99	2956.10
490.17	2949.08
490.35	2925.67
490.53	2850.77
490.70	2761.83
490.88	2796.94
491.06	3028.65
491.24	3225.26
491.41	3295.47
491.59	2986.52
491.77	2698.64
491.95	2860.13
492.13	2609.70
492.30	2635.44
492.48	2532.46
492.66	2422.45
492.84	2492.67
493.01	2602.68
493.19	2363.94
493.37	2291.38
493.54	2347.56
493.72	2307.77
493.90	2338.20
494.08	2275.00
494.25	2211.81
494.43	2125.21
494.61	2202.44
494.79	2118.18
494.96	2195.42
495.14	2066.69
495.32	2045.63
495.49	1923.92
495.67	1954.35
495.85	2024.56
496.02	2024.56
496.20	1937.96
496.38	1909.88
496.55	1748.38
496.73	1767.10
496.91	1856.04
497.09	1769.44
497.26	1799.87
497.44	1675.82
497.62	1612.63
497.79	1516.67
497.97	1619.65
498.14	1572.84
498.32	1572.84
498.50	1479.22
498.67	1460.49
498.85	1376.24
499.03	1322.40
499.20	1322.40
499.38	1275.59
499.56	1380.92
499.73	1357.51
499.91	1270.91
500.08	1268.57
500.26	1231.12
500.44	1181.97
500.61	1104.73
500.79	1067.28
500.97	1034.52
501.14	1057.92
501.32	1125.80
501.49	1011.11
501.67	922.17
501.84	933.87
502.02	884.72
502.20	917.49
502.37	887.06
502.55	844.93
502.72	727.91
502.90	800.46
503.07	795.78
503.25	676.41
503.43	678.76
503.60	671.73
503.78	671.73
503.95	725.57
504.13	655.35
504.30	671.73
504.48	706.84
504.65	732.59
504.83	688.12
505.01	587.47
505.18	657.69
505.36	571.09
505.53	606.20
505.71	547.69
505.88	615.56
506.06	554.71
506.23	507.90
506.41	613.22
506.58	535.98
506.76	540.66
506.93	461.09
507.11	545.34
507.28	521.94
507.46	505.56
507.63	550.03
507.81	482.15
507.98	507.90
508.16	552.37
508.33	587.47
508.50	510.24
508.68	552.37
508.85	545.34
509.03	571.09
509.20	470.45
509.38	578.11
509.55	575.77
509.73	533.64
509.90	533.64
510.08	498.53
510.25	582.79
510.42	543.00
510.60	468.11
510.77	554.71
510.95	430.66
511.12	449.38
511.30	484.49
511.47	498.53
511.64	503.22
511.82	535.98
511.99	489.17
512.17	463.43
512.34	433.00
512.51	484.49
512.69	447.04
512.86	498.53
513.04	430.66
513.21	390.87
513.38	449.38
513.56	369.80
513.73	365.12
513.90	437.68
514.08	442.36
514.25	449.38
514.43	440.02
514.60	428.32
514.77	472.79
514.95	390.87
515.12	332.36
515.29	430.66
515.47	440.02
515.64	376.83
515.81	447.04
515.99	479.81
516.16	374.49
516.33	454.06
516.51	383.85
516.68	400.23
516.85	407.25
517.03	454.06
517.20	430.66
517.37	416.62
517.54	355.76
517.72	393.21
517.89	386.19
518.06	355.76
518.24	421.30
518.41	397.89
518.58	365.12
518.75	346.40
518.93	465.77
519.10	505.56
519.27	365.12
519.45	390.87
519.62	397.89
519.79	442.36
519.96	386.19
520.14	397.89
520.31	461.09
520.48	421.30
520.65	360.44
520.83	428.32
521.00	376.83
521.17	374.49
521.34	393.21
521.52	386.19
521.69	351.08
521.86	348.74
522.03	388.53
522.20	472.79
522.38	374.49
522.55	404.91
522.72	447.04
522.89	449.38
523.07	484.49
523.24	430.66
523.41	327.68
523.58	337.04
523.75	348.74
523.92	372.15
524.10	386.19
524.27	374.49
524.44	360.44
524.61	369.80
524.78	351.08
524.96	421.30
525.13	360.44
525.30	397.89
525.47	428.32
525.64	421.30
525.81	418.96
525.98	479.81
526.16	388.53
526.33	454.06
526.50	313.63
526.67	468.11
526.84	491.51
527.01	463.43
527.18	533.64
527.36	545.34
527.53	603.86
527.70	596.84
527.87	454.06
528.04	454.06
528.21	512.58
528.38	547.69
528.55	442.36
528.72	519.60
528.89	564.07
529.07	552.37
529.24	507.90
529.41	545.34
529.58	507.90
529.75	507.90
529.92	585.13
530.09	568.75
530.26	638.97
530.43	615.56
530.60	653.01
530.77	582.79
530.94	660.03
531.11	613.22
531.28	648.33
531.46	510.24
531.63	713.86
531.80	688.12
531.97	779.40
532.14	875.36
532.31	1018.13
532.48	1214.74
532.65	1254.53
532.82	1526.03
532.99	1921.58
533.16	2209.47
533.33	2256.28
533.50	2249.25
533.67	1895.83
533.84	1589.22
534.01	1504.96
534.18	1291.98
534.35	1231.12
534.52	1217.08
534.69	1287.29
534.86	1280.27
535.03	1409.00
535.20	1514.33
535.37	1636.03
535.54	1621.99
535.71	1736.68
535.88	1853.70
536.05	1935.62
536.22	2054.99
536.38	2321.81
536.55	2499.69
536.72	2806.30
536.89	3045.04
537.06	3522.51
537.23	3726.13
537.40	4098.28
537.57	4395.53
537.74	4755.97
537.91	4858.95
538.08	5069.60
538.25	5048.54
538.42	5102.37
538.59	5336.42
538.75	5359.83
538.92	5706.23
539.09	6197.74
539.26	7056.72
539.43	7840.79
539.60	8814.46
539.77	10033.88
539.94	11461.60
540.11	12383.77
540.28	13682.77
540.44	15049.64
540.61	16496.10
540.78	18925.57
540.95	22429.35
541.12	27145.53
541.29	31089.34
541.46	33219.22
541.62	32381.31
541.79	31072.95
541.96	29074.13
542.13	27030.85
542.30	25397.15
542.47	23585.58
542.63	22431.69
542.80	21343.35
542.97	21076.52
543.14	21153.76
543.31	21029.71
543.48	20943.11
543.64	21661.66
543.81	21572.72
543.98	21888.69
544.15	21537.61
544.32	21876.99
544.48	21802.09
544.65	21317.60
544.82	21495.48
544.99	21455.69
545.16	22104.02
545.32	22946.61
545.49	34251.40
545.66	57195.67
545.83	65535.00
546.00	63093.82
546.16	51339.65
546.33	38904.38
546.50	29490.75
546.67	22906.82
546.83	19812.63
547.00	19222.82
547.17	18174.26
547.34	17483.80
547.50	16837.81
547.67	15995.22
547.84	15232.21
548.00	14647.07
548.17	14246.84
548.34	13577.45
548.51	13238.07
548.67	12603.78
548.84	11770.55
549.01	11353.94
549.18	10977.11
549.34	10499.64
549.51	10036.22
549.68	9865.36
549.84	9291.93
550.01	8816.80
550.18	8582.74
550.34	8215.28
550.51	7772.92
550.68	7475.67
550.84	6815.64
551.01	6633.08
551.18	6026.88
551.34	5785.80
551.51	5731.97
551.68	5476.85
551.84	5146.84
552.01	5004.07
552.18	4793.42
552.34	4709.16
552.51	4578.09
552.68	4341.69
552.84	4060.83
553.01	3911.04
553.18	3936.78
553.34	3719.11
553.51	3716.77
553.67	3524.85
553.84	3358.67
554.01	3082.49
554.17	2972.48
554.34	2778.22
554.51	2497.35
554.67	2544.16
554.84	2305.43
555.00	2246.91
555.17	2078.40
555.33	2017.54
555.50	1923.92
555.67	1767.10
555.83	1816.26
556.00	1631.35
556.16	1739.02
556.33	1502.62
556.50	1537.73
556.66	1399.64
556.83	1474.54
556.99	1357.51
557.16	1331.76
557.32	1313.04
557.49	1231.12
557.65	1200.69
557.82	1282.61
557.98	1149.20
558.15	1095.37
558.32	1039.20
558.48	1081.33
558.65	1011.11
558.81	1093.03
558.98	1064.94
559.14	1046.22
559.31	994.73
559.47	954.94
559.64	973.66
559.80	896.43
559.97	840.25
560.13	933.87
560.30	830.89
560.46	887.06
560.63	915.15
560.79	926.85
560.96	971.32
561.12	884.72
561.29	863.66
561.45	819.19
561.61	905.79
561.78	959.62
561.94	856.64
562.11	922.17
562.27	889.40
562.44	873.02
562.60	922.17
562.77	884.72
562.93	866.00
563.10	809.83
563.26	814.51
563.42	798.12
563.59	842.59
563.75	746.63
563.92	823.87
564.08	767.70
564.24	779.40
564.41	795.78
564.57	695.14
564.74	791.10
564.90	777.06
565.07	772.38
565.23	725.57
565.39	601.52
565.56	681.10
565.72	702.16
565.88	676.41
566.05	692.80
566.21	596.84
566.38	692.80
566.54	763.01
566.70	723.23
566.87	814.51
567.03	702.16
567.19	730.25
567.36	671.73
567.52	734.93
567.68	713.86
567.85	674.07
568.01	709.18
568.17	690.46
568.34	793.44
568.50	809.83
568.66	713.86
568.83	767.70
568.99	634.29
569.15	681.10
569.32	622.58
569.48	596.84
569.64	608.54
569.81	571.09
569.97	564.07
570.13	589.82
570.30	531.30
570.46	510.24
570.62	519.60
570.78	524.28
570.95	421.30
571.11	531.30
571.27	519.60
571.43	496.19
571.60	517.26
571.76	489.17
571.92	512.58
572.09	503.22
572.25	498.53
572.41	486.83
572.57	491.51
572.74	594.50
572.90	557.05
573.06	580.45
573.22	631.94
573.38	601.52
573.55	594.50
573.71	580.45
573.87	543.00
574.03	585.13
574.20	718.54
574.36	645.99
574.52	620.24
574.68	751.31
574.84	711.52
575.01	734.93
575.17	791.10
575.33	772.38
575.49	849.61
575.65	837.91
575.82	954.94
575.98	1181.97
576.14	1224.10
576.30	2083.08
576.46	6602.65
576.62	13399.57
576.79	16901.01
576.95	11964.82
577.11	7578.65
577.27	5357.49
577.43	3527.19
577.59	2310.11
577.75	1743.70
577.92	1460.49
578.08	1535.39
578.24	1593.90
578.40	2267.98
578.56	6094.76
578.72	12161.42
578.88	15033.26
579.04	11138.61
579.21	7192.47
579.37	5336.42
579.53	4049.13
579.69	3929.76
579.85	4699.80
580.01	5643.03
580.17	5631.33
580.33	4950.23
580.49	3992.95
580.65	3552.93
580.82	3323.56
580.98	3225.26
581.14	3119.93
581.30	3372.71
581.46	3634.85
581.62	3875.93
581.78	4088.92
581.94	4468.08
582.10	4737.24
582.26	4959.60
582.42	5121.09
582.58	5263.86
582.74	5369.19
582.90	5406.64
583.06	5490.90
583.22	5486.22
583.38	5483.88
583.54	5605.58
583.70	5490.90
583.86	5509.62
584.02	5266.21
584.18	5228.76
584.34	5174.92
584.50	5046.20
584.66	4908.10
584.82	4945.55
584.98	4910.44
585.14	4720.86
585.30	4727.88
585.46	4606.17
585.62	4713.84
585.78	4702.14
585.94	4461.06
586.10	4779.37
586.26	4903.42
586.42	5427.70
586.58	6530.09
586.74	7932.08
586.90	9825.57
587.06	10944.34
587.22	10614.33
587.38	9738.97
587.54	8538.27
587.70	7091.82
587.86	6059.65
588.02	5165.56
588.18	4355.74
588.34	4049.13
588.49	3639.53
588.65	3496.76
588.81	3351.65
588.97	3213.56
589.13	3056.74
589.29	3042.70
589.45	2970.14
589.61	3026.31
589.77	3068.44
589.93	3073.12
590.08	3213.56
590.24	3077.80
590.40	3471.01
590.56	3424.20
590.72	3459.31
590.88	3611.45
591.04	3674.64
591.20	3892.31
591.35	4046.79
591.51	4222.33
591.67	4245.73
591.83	4538.30
591.99	4973.64
592.15	5355.15
592.31	5834.96
592.46	6392.00
592.62	6918.62
592.78	7456.95
592.94	7770.58
593.10	7801.01
593.26	7440.56
593.41	6764.15
593.57	5984.75
593.73	5455.79
593.89	4877.68
594.05	4156.79
594.20	3796.35
594.36	3592.72
594.52	3180.79
594.68	3098.87
594.84	3014.61
594.99	2867.16
595.15	2825.03
595.31	2717.36
595.47	2736.09
595.62	2614.38
595.78	2712.68
595.94	2661.19
596.10	2869.50
596.25	2778.22
596.41	2815.66
596.57	2651.83
596.73	2682.25
596.88	2761.83
597.04	2733.75
597.20	2635.44
597.36	2911.63
597.51	3000.57
597.67	2906.95
597.83	3098.87
597.99	3201.85
598.14	3442.93
598.30	3606.77
598.46	3847.84
598.61	4077.21
598.77	4306.59
598.93	4482.13
599.09	4594.47
599.24	4676.39
599.40	4671.71
599.56	4498.51
599.71	4290.20
599.87	4088.92
600.03	3929.76
600.18	3545.91
600.34	3475.70
600.50	3068.44
600.65	2986.52
600.81	2757.15
600.97	2602.68
601.12	2590.97
601.28	2377.98
601.44	2209.47
601.59	2214.15
601.75	2143.93
601.91	1994.14
602.06	1961.37
602.22	1982.43
602.37	1746.04
602.53	1860.73
602.69	1837.32
602.84	1872.43
603.00	1661.78
603.16	1816.26
603.31	1891.15
603.47	1874.77
603.62	1874.77
603.78	1937.96
603.94	1975.41
604.09	1996.48
604.25	2165.00
604.40	2127.55
604.56	2108.82
604.71	2169.68
604.87	2146.27
