SpectraSuite Data File
++++++++++++++++++++++++++++++++++++
Date: Fri Oct 04 11:41:39 GMT-05:00 2013
User: price-jones
Dark Spectrum Present: No
Reference Spectrum Present: No
Number of Sampled Component Spectra: 1
Spectrometers: USB2+H05261
Integration Time (usec): 100000 (USB2+H05261)
Spectra Averaged: 1 (USB2+H05261)
Boxcar Smoothing: 0 (USB2+H05261)
Correct for Electrical Dark: No (USB2+H05261)
Strobe/Lamp Enabled: No (USB2+H05261)
Correct for Detector Non-linearity: No (USB2+H05261)
Correct for Stray Light: No (USB2+H05261)
Number of Pixels in Processed Spectrum: 2048
>>>>>Begin Processed Spectral Data<<<<<
365.73	51.49
365.92	51.49
366.12	51.49
366.32	0.00
366.52	0.00
366.72	0.00
366.91	0.00
367.11	0.00
367.31	0.00
367.51	0.00
367.70	0.00
367.90	0.00
368.10	0.00
368.30	0.00
368.49	0.00
368.69	0.00
368.89	0.00
369.09	0.00
369.28	0.00
369.48	0.00
369.68	11.70
369.87	7.02
370.07	0.00
370.27	0.00
370.47	107.66
370.66	0.00
370.86	100.64
371.06	121.71
371.25	145.11
371.45	32.77
371.65	128.73
371.84	56.17
372.04	37.45
372.24	65.54
372.44	63.19
372.63	166.18
372.83	114.69
373.03	112.35
373.22	121.71
373.42	110.01
373.62	140.43
373.81	112.35
374.01	100.64
374.21	138.09
374.40	156.82
374.60	138.09
374.79	91.28
374.99	138.09
375.19	154.48
375.38	126.39
375.58	138.09
375.78	98.30
375.97	135.75
376.17	133.41
376.37	91.28
376.56	161.50
376.76	72.56
376.95	105.32
377.15	102.98
377.35	163.84
377.54	177.88
377.74	72.56
377.93	152.13
378.13	88.94
378.33	107.66
378.52	119.37
378.72	126.39
378.91	145.11
379.11	51.49
379.31	98.30
379.50	114.69
379.70	100.64
379.89	133.41
380.09	88.94
380.28	102.98
380.48	44.47
380.68	91.28
380.87	28.09
381.07	117.03
381.26	131.07
381.46	114.69
381.65	110.01
381.85	93.62
382.04	105.32
382.24	156.82
382.43	112.35
382.63	95.96
382.83	163.84
383.02	140.43
383.22	161.50
383.41	49.15
383.61	131.07
383.80	135.75
384.00	142.77
384.19	74.90
384.39	105.32
384.58	149.79
384.78	149.79
384.97	95.96
385.17	79.58
385.36	166.18
385.56	156.82
385.75	74.90
385.95	117.03
386.14	88.94
386.34	102.98
386.53	56.17
386.72	84.26
386.92	79.58
387.11	102.98
387.31	177.88
387.50	184.90
387.70	72.56
387.89	156.82
388.09	126.39
388.28	65.54
388.48	79.58
388.67	63.19
388.86	147.45
389.06	51.49
389.25	124.05
389.45	114.69
389.64	107.66
389.84	65.54
390.03	154.48
390.22	84.26
390.42	72.56
390.61	133.41
390.81	100.64
391.00	77.24
391.19	198.95
391.39	154.48
391.58	163.84
391.78	117.03
391.97	173.20
392.16	105.32
392.36	105.32
392.55	142.77
392.75	119.37
392.94	140.43
393.13	147.45
393.33	131.07
393.52	58.51
393.71	133.41
393.91	100.64
394.10	98.30
394.29	30.43
394.49	110.01
394.68	161.50
394.88	161.50
395.07	135.75
395.26	102.98
395.46	175.54
395.65	187.24
395.84	140.43
396.04	131.07
396.23	67.88
396.42	110.01
396.62	112.35
396.81	91.28
397.00	86.60
397.19	124.05
397.39	86.60
397.58	100.64
397.77	107.66
397.97	67.88
398.16	98.30
398.35	124.05
398.55	133.41
398.74	107.66
398.93	198.95
399.12	124.05
399.32	77.24
399.51	46.81
399.70	147.45
399.90	140.43
400.09	74.90
400.28	98.30
400.47	107.66
400.67	182.56
400.86	131.07
401.05	152.13
401.24	114.69
401.44	124.05
401.63	100.64
401.82	147.45
402.01	65.54
402.21	95.96
402.40	142.77
402.59	117.03
402.78	145.11
402.97	74.90
403.17	58.51
403.36	88.94
403.55	156.82
403.74	140.43
403.93	145.11
404.13	154.48
404.32	245.76
404.51	229.37
404.70	102.98
404.89	46.81
405.09	177.88
405.28	72.56
405.47	110.01
405.66	67.88
405.85	140.43
406.05	102.98
406.24	140.43
406.43	152.13
406.62	131.07
406.81	170.86
407.00	152.13
407.20	121.71
407.39	70.22
407.58	140.43
407.77	124.05
407.96	173.20
408.15	112.35
408.34	166.18
408.54	119.37
408.73	168.52
408.92	126.39
409.11	156.82
409.30	201.29
409.49	135.75
409.68	112.35
409.87	124.05
410.07	114.69
410.26	131.07
410.45	102.98
410.64	156.82
410.83	149.79
411.02	114.69
411.21	152.13
411.40	201.29
411.59	147.45
411.78	95.96
411.98	133.41
412.17	138.09
412.36	128.73
412.55	112.35
412.74	142.77
412.93	170.86
413.12	65.54
413.31	107.66
413.50	163.84
413.69	135.75
413.88	114.69
414.07	161.50
414.26	110.01
414.45	163.84
414.64	126.39
414.83	147.45
415.02	100.64
415.22	138.09
415.41	194.26
415.60	156.82
415.79	91.28
415.98	65.54
416.17	191.92
416.36	79.58
416.55	152.13
416.74	149.79
416.93	91.28
417.12	149.79
417.31	110.01
417.50	154.48
417.69	201.29
417.88	212.99
418.07	124.05
418.26	117.03
418.45	173.20
418.64	117.03
418.83	86.60
419.02	149.79
419.21	173.20
419.39	154.48
419.58	128.73
419.77	149.79
419.96	184.90
420.15	191.92
420.34	93.62
420.53	67.88
420.72	117.03
420.91	182.56
421.10	114.69
421.29	138.09
421.48	138.09
421.67	135.75
421.86	114.69
422.05	105.32
422.24	131.07
422.43	159.16
422.61	107.66
422.80	170.86
422.99	128.73
423.18	74.90
423.37	147.45
423.56	79.58
423.75	102.98
423.94	140.43
424.13	145.11
424.32	133.41
424.50	128.73
424.69	194.26
424.88	215.33
425.07	133.41
425.26	210.65
425.45	217.67
425.64	70.22
425.83	170.86
426.01	159.16
426.20	168.52
426.39	49.15
426.58	107.66
426.77	133.41
426.96	107.66
427.15	140.43
427.33	156.82
427.52	65.54
427.71	110.01
427.90	77.24
428.09	147.45
428.28	102.98
428.46	124.05
428.65	133.41
428.84	154.48
429.03	168.52
429.22	198.95
429.40	84.26
429.59	30.43
429.78	212.99
429.97	117.03
430.16	189.58
430.34	159.16
430.53	133.41
430.72	177.88
430.91	138.09
431.10	102.98
431.28	133.41
431.47	182.56
431.66	184.90
431.85	117.03
432.03	161.50
432.22	241.08
432.41	110.01
432.60	128.73
432.79	79.58
432.97	133.41
433.16	156.82
433.35	117.03
433.54	140.43
433.72	149.79
433.91	156.82
434.10	112.35
434.28	189.58
434.47	196.60
434.66	187.24
434.85	128.73
435.03	201.29
435.22	514.92
435.41	999.41
435.59	999.41
435.78	709.18
435.97	440.02
436.16	294.91
436.34	149.79
436.53	227.03
436.72	208.31
436.90	156.82
437.09	227.03
437.28	63.19
437.46	135.75
437.65	196.60
437.84	212.99
438.02	161.50
438.21	210.65
438.40	102.98
438.58	163.84
438.77	208.31
438.96	210.65
439.14	142.77
439.33	168.52
439.52	182.56
439.70	177.88
439.89	163.84
440.08	149.79
440.26	166.18
440.45	189.58
440.63	145.11
440.82	152.13
441.01	147.45
441.19	147.45
441.38	170.86
441.57	131.07
441.75	224.69
441.94	138.09
442.12	210.65
442.31	147.45
442.50	119.37
442.68	201.29
442.87	173.20
443.05	102.98
443.24	98.30
443.43	189.58
443.61	231.71
443.80	138.09
443.98	142.77
444.17	110.01
444.35	175.54
444.54	154.48
444.73	159.16
444.91	194.26
445.10	105.32
445.28	170.86
445.47	177.88
445.65	180.22
445.84	170.86
446.02	231.71
446.21	100.64
446.39	93.62
446.58	187.24
446.77	175.54
446.95	156.82
447.14	175.54
447.32	126.39
447.51	184.90
447.69	196.60
447.88	149.79
448.06	241.08
448.25	208.31
448.43	210.65
448.62	91.28
448.80	210.65
448.99	198.95
449.17	189.58
449.36	112.35
449.54	149.79
449.73	187.24
449.91	194.26
450.10	152.13
450.28	292.57
450.46	161.50
450.65	142.77
450.83	95.96
451.02	140.43
451.20	107.66
451.39	180.22
451.57	149.79
451.76	156.82
451.94	224.69
452.13	212.99
452.31	177.88
452.49	65.54
452.68	100.64
452.86	187.24
453.05	227.03
453.23	180.22
453.42	72.56
453.60	124.05
453.78	166.18
453.97	257.46
454.15	152.13
454.34	149.79
454.52	191.92
454.70	201.29
454.89	140.43
455.07	173.20
455.26	248.10
455.44	255.12
455.62	201.29
455.81	147.45
455.99	170.86
456.17	159.16
456.36	166.18
456.54	191.92
456.73	184.90
456.91	243.42
457.09	166.18
457.28	262.14
457.46	194.26
457.64	220.01
457.83	184.90
458.01	173.20
458.19	147.45
458.38	100.64
458.56	147.45
458.74	133.41
458.93	222.35
459.11	208.31
459.29	156.82
459.48	212.99
459.66	222.35
459.84	210.65
460.03	212.99
460.21	205.97
460.39	138.09
460.57	189.58
460.76	163.84
460.94	229.37
461.12	257.46
461.31	147.45
461.49	175.54
461.67	194.26
461.85	182.56
462.04	154.48
462.22	341.72
462.40	208.31
462.59	149.79
462.77	182.56
462.95	203.63
463.13	180.22
463.32	124.05
463.50	222.35
463.68	163.84
463.86	205.97
464.05	173.20
464.23	259.80
464.41	140.43
464.59	124.05
464.78	107.66
464.96	149.79
465.14	114.69
465.32	168.52
465.50	238.73
465.69	196.60
465.87	126.39
466.05	154.48
466.23	128.73
466.41	191.92
466.60	163.84
466.78	220.01
466.96	138.09
467.14	128.73
467.32	98.30
467.51	119.37
467.69	224.69
467.87	91.28
468.05	175.54
468.23	161.50
468.41	180.22
468.60	131.07
468.78	117.03
468.96	234.05
469.14	142.77
469.32	149.79
469.50	149.79
469.69	102.98
469.87	147.45
470.05	203.63
470.23	173.20
470.41	126.39
470.59	117.03
470.77	147.45
470.95	170.86
471.14	205.97
471.32	154.48
471.50	117.03
471.68	180.22
471.86	180.22
472.04	173.20
472.22	163.84
472.40	159.16
472.58	154.48
472.77	184.90
472.95	175.54
473.13	241.08
473.31	238.73
473.49	180.22
473.67	166.18
473.85	234.05
474.03	210.65
474.21	161.50
474.39	187.24
474.57	259.80
474.75	156.82
474.93	180.22
475.12	182.56
475.30	114.69
475.48	187.24
475.66	105.32
475.84	138.09
476.02	126.39
476.20	191.92
476.38	217.67
476.56	229.37
476.74	126.39
476.92	182.56
477.10	142.77
477.28	166.18
477.46	147.45
477.64	205.97
477.82	102.98
478.00	205.97
478.18	175.54
478.36	147.45
478.54	142.77
478.72	91.28
478.90	149.79
479.08	175.54
479.26	222.35
479.44	107.66
479.62	238.73
479.80	173.20
479.98	177.88
480.16	243.42
480.34	238.73
480.52	135.75
480.70	189.58
480.88	182.56
481.06	152.13
481.24	248.10
481.41	210.65
481.59	175.54
481.77	184.90
481.95	238.73
482.13	203.63
482.31	191.92
482.49	152.13
482.67	276.18
482.85	196.60
483.03	245.76
483.21	173.20
483.39	212.99
483.57	280.86
483.74	266.82
483.92	203.63
484.10	194.26
484.28	238.73
484.46	259.80
484.64	299.59
484.82	238.73
485.00	257.46
485.18	299.59
485.35	280.86
485.53	201.29
485.71	299.59
485.89	285.55
486.07	262.14
486.25	379.17
486.43	276.18
486.61	315.97
486.78	304.27
486.96	255.12
487.14	320.65
487.32	257.46
487.50	280.86
487.68	308.95
487.85	212.99
488.03	229.37
488.21	285.55
488.39	287.89
488.57	313.63
488.75	229.37
488.92	486.83
489.10	248.10
489.28	311.29
489.46	269.16
489.64	304.27
489.81	241.08
489.99	287.89
490.17	273.84
490.35	332.36
490.53	252.78
490.70	311.29
490.88	276.18
491.06	294.91
491.24	271.50
491.41	318.31
491.59	327.68
491.77	187.24
491.95	229.37
492.13	301.93
492.30	276.18
492.48	259.80
492.66	259.80
492.84	348.74
493.01	304.27
493.19	217.67
493.37	269.16
493.54	294.91
493.72	313.63
493.90	346.40
494.08	257.46
494.25	271.50
494.43	257.46
494.61	248.10
494.79	250.44
494.96	287.89
495.14	283.20
495.32	257.46
495.49	283.20
495.67	271.50
495.85	184.90
496.02	166.18
496.20	337.04
496.38	285.55
496.55	250.44
496.73	229.37
496.91	250.44
497.09	231.71
497.26	208.31
497.44	238.73
497.62	276.18
497.79	227.03
497.97	264.48
498.14	362.78
498.32	285.55
498.50	264.48
498.67	196.60
498.85	245.76
499.03	243.42
499.20	299.59
499.38	189.58
499.56	245.76
499.73	287.89
499.91	241.08
500.08	311.29
500.26	163.84
500.44	278.52
500.61	278.52
500.79	170.86
500.97	191.92
501.14	252.78
501.32	238.73
501.49	252.78
501.67	220.01
501.84	161.50
502.02	236.39
502.20	227.03
502.37	259.80
502.55	159.16
502.72	229.37
502.90	273.84
503.07	252.78
503.25	222.35
503.43	168.52
503.60	234.05
503.78	212.99
503.95	250.44
504.13	156.82
504.30	182.56
504.48	196.60
504.65	262.14
504.83	285.55
505.01	250.44
505.18	191.92
505.36	196.60
505.53	142.77
505.71	236.39
505.88	266.82
506.06	245.76
506.23	217.67
506.41	177.88
506.58	203.63
506.76	241.08
506.93	184.90
507.11	257.46
507.28	175.54
507.46	243.42
507.63	194.26
507.81	224.69
507.98	231.71
508.16	215.33
508.33	248.10
508.50	224.69
508.68	203.63
508.85	198.95
509.03	198.95
509.20	187.24
509.38	248.10
509.55	241.08
509.73	222.35
509.90	215.33
510.08	217.67
510.25	243.42
510.42	290.23
510.60	238.73
510.77	255.12
510.95	231.71
511.12	297.25
511.30	266.82
511.47	227.03
511.64	262.14
511.82	229.37
511.99	163.84
512.17	243.42
512.34	234.05
512.51	287.89
512.69	264.48
512.86	271.50
513.04	205.97
513.21	241.08
513.38	266.82
513.56	189.58
513.73	227.03
513.90	177.88
514.08	182.56
514.25	264.48
514.43	266.82
514.60	145.11
514.77	250.44
514.95	198.95
515.12	173.20
515.29	241.08
515.47	243.42
515.64	234.05
515.81	313.63
515.99	278.52
516.16	215.33
516.33	231.71
516.51	250.44
516.68	220.01
516.85	224.69
517.03	140.43
517.20	248.10
517.37	243.42
517.54	243.42
517.72	252.78
517.89	215.33
518.06	177.88
518.24	210.65
518.41	306.61
518.58	271.50
518.75	168.52
518.93	252.78
519.10	285.55
519.27	161.50
519.45	145.11
519.62	231.71
519.79	222.35
519.96	238.73
520.14	238.73
520.31	290.23
520.48	280.86
520.65	278.52
520.83	257.46
521.00	299.59
521.17	220.01
521.34	142.77
521.52	280.86
521.69	203.63
521.86	191.92
522.03	210.65
522.20	348.74
522.38	217.67
522.55	278.52
522.72	229.37
522.89	217.67
523.07	287.89
523.24	196.60
523.41	231.71
523.58	215.33
523.75	292.57
523.92	262.14
524.10	210.65
524.27	222.35
524.44	236.39
524.61	245.76
524.78	259.80
524.96	227.03
525.13	175.54
525.30	306.61
525.47	222.35
525.64	255.12
525.81	234.05
525.98	210.65
526.16	147.45
526.33	294.91
526.50	203.63
526.67	182.56
526.84	248.10
527.01	208.31
527.18	201.29
527.36	257.46
527.53	187.24
527.70	311.29
527.87	334.70
528.04	168.52
528.21	271.50
528.38	306.61
528.55	241.08
528.72	245.76
528.89	290.23
529.07	227.03
529.24	238.73
529.41	269.16
529.58	222.35
529.75	332.36
529.92	224.69
530.09	145.11
530.26	220.01
530.43	234.05
530.60	315.97
530.77	203.63
530.94	294.91
531.11	198.95
531.28	241.08
531.46	308.95
531.63	248.10
531.80	220.01
531.97	290.23
532.14	313.63
532.31	201.29
532.48	224.69
532.65	259.80
532.82	245.76
532.99	220.01
533.16	243.42
533.33	276.18
533.50	280.86
533.67	248.10
533.84	257.46
534.01	308.95
534.18	280.86
534.35	278.52
534.52	290.23
534.69	301.93
534.86	376.83
535.03	322.99
535.20	304.27
535.37	264.48
535.54	322.99
535.71	224.69
535.88	341.72
536.05	273.84
536.22	248.10
536.38	313.63
536.55	313.63
536.72	337.04
536.89	355.76
537.06	304.27
537.23	301.93
537.40	369.80
537.57	390.87
537.74	395.55
537.91	461.09
538.08	503.22
538.25	383.85
538.42	379.17
538.59	344.06
538.75	418.96
538.92	458.74
539.09	430.66
539.26	449.38
539.43	510.24
539.60	552.37
539.77	477.47
539.94	578.11
540.11	631.94
540.28	610.88
540.44	692.80
540.61	655.35
540.78	816.85
540.95	760.67
541.12	933.87
541.29	1095.37
541.46	1128.14
541.62	1156.22
541.79	1109.41
541.96	1118.78
542.13	1062.60
542.30	1015.79
542.47	1006.43
542.63	959.62
542.80	968.98
542.97	985.37
543.14	887.06
543.31	1006.43
543.48	990.05
543.64	971.32
543.81	933.87
543.98	931.53
544.15	936.21
544.32	1020.47
544.48	992.39
544.65	861.32
544.82	812.17
544.99	966.64
545.16	936.21
545.32	1006.43
545.49	1565.82
545.66	2244.57
545.83	2792.26
546.00	2385.01
546.16	1785.83
546.33	1242.82
546.50	983.02
546.67	828.55
546.83	739.61
547.00	741.95
547.17	765.36
547.34	622.58
547.50	608.54
547.67	653.01
547.84	543.00
548.00	695.14
548.17	657.69
548.34	610.88
548.51	603.86
548.67	681.10
548.84	662.37
549.01	575.77
549.18	594.50
549.34	528.96
549.51	557.05
549.68	472.79
549.84	479.81
550.01	465.77
550.18	500.87
550.34	575.77
550.51	482.15
550.68	580.45
550.84	449.38
551.01	355.76
551.18	444.70
551.34	447.04
551.51	458.74
551.68	440.02
551.84	402.57
552.01	437.68
552.18	376.83
552.34	409.59
552.51	386.19
552.68	444.70
552.84	358.10
553.01	313.63
553.18	320.65
553.34	287.89
553.51	285.55
553.67	390.87
553.84	379.17
554.01	318.31
554.17	346.40
554.34	339.38
554.51	322.99
554.67	264.48
554.84	351.08
555.00	320.65
555.17	292.57
555.33	224.69
555.50	266.82
555.67	252.78
555.83	212.99
556.00	250.44
556.16	503.22
556.33	325.33
556.50	299.59
556.66	231.71
556.83	236.39
556.99	262.14
557.16	243.42
557.32	114.69
557.49	210.65
557.65	238.73
557.82	255.12
557.98	259.80
558.15	243.42
558.32	196.60
558.48	227.03
558.65	198.95
558.81	201.29
558.98	269.16
559.14	194.26
559.31	189.58
559.47	360.44
559.64	217.67
559.80	217.67
559.97	259.80
560.13	252.78
560.30	201.29
560.46	255.12
560.63	203.63
560.79	238.73
560.96	238.73
561.12	238.73
561.29	327.68
561.45	217.67
561.61	234.05
561.78	313.63
561.94	203.63
562.11	273.84
562.27	236.39
562.44	255.12
562.60	217.67
562.77	255.12
562.93	276.18
563.10	304.27
563.26	255.12
563.42	257.46
563.59	276.18
563.75	238.73
563.92	222.35
564.08	227.03
564.24	334.70
564.41	339.38
564.57	198.95
564.74	287.89
564.90	266.82
565.07	262.14
565.23	201.29
565.39	203.63
565.56	241.08
565.72	241.08
565.88	252.78
566.05	205.97
566.21	250.44
566.38	264.48
566.54	210.65
566.70	198.95
566.87	285.55
567.03	217.67
567.19	269.16
567.36	234.05
567.52	222.35
567.68	238.73
567.85	196.60
568.01	208.31
568.17	238.73
568.34	280.86
568.50	229.37
568.66	189.58
568.83	311.29
568.99	215.33
569.15	215.33
569.32	163.84
569.48	271.50
569.64	145.11
569.81	229.37
569.97	212.99
570.13	222.35
570.30	201.29
570.46	227.03
570.62	259.80
570.78	147.45
570.95	203.63
571.11	154.48
571.27	234.05
571.43	187.24
571.60	222.35
571.76	140.43
571.92	236.39
572.09	231.71
572.25	257.46
572.41	187.24
572.57	276.18
572.74	276.18
572.90	236.39
573.06	217.67
573.22	273.84
573.38	241.08
573.55	262.14
573.71	285.55
573.87	241.08
574.03	189.58
574.20	182.56
574.36	259.80
574.52	271.50
574.68	222.35
574.84	257.46
575.01	227.03
575.17	299.59
575.33	205.97
575.49	243.42
575.65	236.39
575.82	252.78
575.98	271.50
576.14	280.86
576.30	297.25
576.46	456.40
576.62	744.29
576.79	718.54
576.95	545.34
577.11	461.09
577.27	325.33
577.43	299.59
577.59	304.27
577.75	264.48
577.92	285.55
578.08	215.33
578.24	339.38
578.40	315.97
578.56	514.92
578.72	599.18
578.88	624.92
579.04	524.28
579.21	407.25
579.37	301.93
579.53	351.08
579.69	390.87
579.85	285.55
580.01	440.02
580.17	290.23
580.33	407.25
580.49	383.85
580.65	337.04
580.82	372.15
580.98	294.91
581.14	381.51
581.30	397.89
581.46	337.04
581.62	355.76
581.78	358.10
581.94	367.46
582.10	255.12
582.26	393.21
582.42	407.25
582.58	421.30
582.74	362.78
582.90	433.00
583.06	304.27
583.22	388.53
583.38	400.23
583.54	409.59
583.70	418.96
583.86	374.49
584.02	393.21
584.18	437.68
584.34	322.99
584.50	374.49
584.66	376.83
584.82	320.65
584.98	271.50
585.14	337.04
585.30	388.53
585.46	416.62
585.62	322.99
585.78	360.44
585.94	395.55
586.10	367.46
586.26	386.19
586.42	423.64
586.58	454.06
586.74	521.94
586.90	564.07
587.06	528.96
587.22	557.05
587.38	454.06
587.54	463.43
587.70	465.77
587.86	404.91
588.02	381.51
588.18	365.12
588.34	341.72
588.49	311.29
588.65	353.42
588.81	236.39
588.97	299.59
589.13	205.97
589.29	292.57
589.45	306.61
589.61	292.57
589.77	344.06
589.93	355.76
590.08	287.89
590.24	227.03
590.40	308.95
590.56	332.36
590.72	313.63
590.88	250.44
591.04	341.72
591.20	315.97
591.35	379.17
591.51	334.70
591.67	273.84
591.83	372.15
591.99	360.44
592.15	416.62
592.31	423.64
592.46	428.32
592.62	510.24
592.78	418.96
592.94	449.38
593.10	449.38
593.26	461.09
593.41	423.64
593.57	437.68
593.73	301.93
593.89	327.68
594.05	320.65
594.20	322.99
594.36	278.52
594.52	348.74
594.68	287.89
594.84	351.08
594.99	334.70
595.15	334.70
595.31	243.42
595.47	320.65
595.62	238.73
595.78	271.50
595.94	311.29
596.10	266.82
596.25	255.12
596.41	320.65
596.57	313.63
596.73	273.84
596.88	306.61
597.04	334.70
597.20	236.39
597.36	339.38
597.51	308.95
597.67	210.65
597.83	245.76
597.99	390.87
598.14	311.29
598.30	360.44
598.46	245.76
598.61	369.80
598.77	372.15
598.93	367.46
599.09	379.17
599.24	463.43
599.40	395.55
599.56	299.59
599.71	264.48
599.87	306.61
600.03	304.27
600.18	299.59
600.34	276.18
600.50	311.29
600.65	304.27
600.81	245.76
600.97	241.08
601.12	386.19
601.28	369.80
601.44	304.27
601.59	287.89
601.75	290.23
601.91	227.03
602.06	259.80
602.22	318.31
602.37	285.55
602.53	229.37
602.69	259.80
602.84	278.52
603.00	243.42
603.16	189.58
603.31	313.63
603.47	203.63
603.62	177.88
603.78	304.27
603.94	161.50
604.09	201.29
604.25	220.01
604.40	231.71
604.56	217.67
604.71	234.05
604.87	250.44
605.03	280.86
605.18	325.33
605.34	285.55
605.49	187.24
605.65	330.02
605.80	224.69
605.96	308.95
606.12	250.44
606.27	308.95
606.43	299.59
606.58	243.42
606.74	266.82
606.89	351.08
607.05	299.59
607.20	299.59
607.36	308.95
607.51	278.52
607.67	283.20
607.82	313.63
607.98	404.91
608.13	444.70
608.29	379.17
608.44	433.00
608.60	425.98
608.75	458.74
608.91	514.92
609.06	489.17
609.22	531.30
609.37	482.15
609.53	498.53
609.68	589.82
609.84	683.44
609.99	770.04
610.15	901.11
610.30	1071.97
610.46	1249.85
610.61	1526.03
610.76	1900.52
610.92	2317.13
611.07	2499.69
611.23	2724.38
611.38	2546.50
