SpectraSuite Data File
++++++++++++++++++++++++++++++++++++
Date: Fri Oct 04 11:42:13 GMT-05:00 2013
User: price-jones
Dark Spectrum Present: No
Reference Spectrum Present: No
Number of Sampled Component Spectra: 1
Spectrometers: USB2+H05261
Integration Time (usec): 100000 (USB2+H05261)
Spectra Averaged: 1 (USB2+H05261)
Boxcar Smoothing: 0 (USB2+H05261)
Correct for Electrical Dark: No (USB2+H05261)
Strobe/Lamp Enabled: No (USB2+H05261)
Correct for Detector Non-linearity: No (USB2+H05261)
Correct for Stray Light: No (USB2+H05261)
Number of Pixels in Processed Spectrum: 2048
>>>>>Begin Processed Spectral Data<<<<<
365.73	42.13
365.92	42.13
366.12	42.13
366.32	0.00
366.52	0.00
366.72	0.00
366.91	0.00
367.11	0.00
367.31	0.00
367.51	0.00
367.70	0.00
367.90	0.00
368.10	0.00
368.30	0.00
368.49	0.00
368.69	0.00
368.89	0.00
369.09	0.00
369.28	0.00
369.48	0.00
369.68	0.00
369.87	0.00
370.07	0.00
370.27	53.83
370.47	0.00
370.66	58.51
370.86	81.92
371.06	39.79
371.25	63.19
371.45	58.51
371.65	114.69
371.84	98.30
372.04	53.83
372.24	126.39
372.44	217.67
372.63	67.88
372.83	102.98
373.03	117.03
373.22	93.62
373.42	147.45
373.62	60.85
373.81	159.16
374.01	126.39
374.21	180.22
374.40	65.54
374.60	133.41
374.79	194.26
374.99	77.24
375.19	152.13
375.38	152.13
375.58	119.37
375.78	98.30
375.97	154.48
376.17	149.79
376.37	107.66
376.56	138.09
376.76	105.32
376.95	95.96
377.15	152.13
377.35	95.96
377.54	77.24
377.74	23.41
377.93	126.39
378.13	128.73
378.33	42.13
378.52	117.03
378.72	72.56
378.91	191.92
379.11	84.26
379.31	86.60
379.50	93.62
379.70	135.75
379.89	124.05
380.09	70.22
380.28	72.56
380.48	88.94
380.68	91.28
380.87	35.11
381.07	91.28
381.26	124.05
381.46	152.13
381.65	135.75
381.85	140.43
382.04	65.54
382.24	147.45
382.43	142.77
382.63	37.45
382.83	100.64
383.02	77.24
383.22	161.50
383.41	128.73
383.61	88.94
383.80	156.82
384.00	175.54
384.19	88.94
384.39	133.41
384.58	70.22
384.78	98.30
384.97	107.66
385.17	159.16
385.36	100.64
385.56	135.75
385.75	53.83
385.95	133.41
386.14	86.60
386.34	107.66
386.53	135.75
386.72	117.03
386.92	147.45
387.11	187.24
387.31	46.81
387.50	95.96
387.70	60.85
387.89	163.84
388.09	98.30
388.28	77.24
388.48	49.15
388.67	70.22
388.86	140.43
389.06	147.45
389.25	102.98
389.45	128.73
389.64	46.81
389.84	102.98
390.03	98.30
390.22	117.03
390.42	133.41
390.61	117.03
390.81	112.35
391.00	58.51
391.19	131.07
391.39	100.64
391.58	138.09
391.78	131.07
391.97	107.66
392.16	133.41
392.36	147.45
392.55	161.50
392.75	107.66
392.94	124.05
393.13	161.50
393.33	42.13
393.52	79.58
393.71	110.01
393.91	126.39
394.10	124.05
394.29	131.07
394.49	79.58
394.68	100.64
394.88	184.90
395.07	142.77
395.26	60.85
395.46	173.20
395.65	119.37
395.84	110.01
396.04	234.05
396.23	110.01
396.42	95.96
396.62	86.60
396.81	114.69
397.00	86.60
397.19	166.18
397.39	102.98
397.58	149.79
397.77	72.56
397.97	72.56
398.16	119.37
398.35	93.62
398.55	114.69
398.74	161.50
398.93	161.50
399.12	149.79
399.32	126.39
399.51	98.30
399.70	77.24
399.90	145.11
400.09	98.30
400.28	175.54
400.47	102.98
400.67	84.26
400.86	93.62
401.05	105.32
401.24	100.64
401.44	102.98
401.63	63.19
401.82	117.03
402.01	124.05
402.21	191.92
402.40	138.09
402.59	21.06
402.78	105.32
402.97	72.56
403.17	102.98
403.36	32.77
403.55	117.03
403.74	126.39
403.93	168.52
404.13	231.71
404.32	278.52
404.51	234.05
404.70	173.20
404.89	114.69
405.09	107.66
405.28	74.90
405.47	131.07
405.66	121.71
405.85	161.50
406.05	107.66
406.24	133.41
406.43	191.92
406.62	121.71
406.81	112.35
407.00	126.39
407.20	140.43
407.39	119.37
407.58	117.03
407.77	138.09
407.96	201.29
408.15	142.77
408.34	145.11
408.54	112.35
408.73	112.35
408.92	126.39
409.11	166.18
409.30	184.90
409.49	98.30
409.68	117.03
409.87	177.88
410.07	126.39
410.26	154.48
410.45	100.64
410.64	170.86
410.83	121.71
411.02	210.65
411.21	147.45
411.40	152.13
411.59	163.84
411.78	142.77
411.98	84.26
412.17	93.62
412.36	98.30
412.55	53.83
412.74	145.11
412.93	243.42
413.12	133.41
413.31	91.28
413.50	107.66
413.69	100.64
413.88	156.82
414.07	159.16
414.26	180.22
414.45	95.96
414.64	201.29
414.83	170.86
415.02	152.13
415.22	152.13
415.41	110.01
415.60	60.85
415.79	145.11
415.98	149.79
416.17	138.09
416.36	182.56
416.55	84.26
416.74	147.45
416.93	161.50
417.12	117.03
417.31	156.82
417.50	95.96
417.69	145.11
417.88	173.20
418.07	112.35
418.26	53.83
418.45	88.94
418.64	217.67
418.83	161.50
419.02	119.37
419.21	163.84
419.39	142.77
419.58	124.05
419.77	63.19
419.96	166.18
420.15	196.60
420.34	145.11
420.53	212.99
420.72	180.22
420.91	163.84
421.10	135.75
421.29	166.18
421.48	163.84
421.67	131.07
421.86	177.88
422.05	159.16
422.24	74.90
422.43	145.11
422.61	131.07
422.80	203.63
422.99	105.32
423.18	58.51
423.37	187.24
423.56	187.24
423.75	196.60
423.94	145.11
424.13	131.07
424.32	77.24
424.50	156.82
424.69	138.09
424.88	173.20
425.07	154.48
425.26	98.30
425.45	182.56
425.64	152.13
425.83	145.11
426.01	210.65
426.20	128.73
426.39	117.03
426.58	173.20
426.77	98.30
426.96	166.18
427.15	140.43
427.33	126.39
427.52	173.20
427.71	177.88
427.90	147.45
428.09	138.09
428.28	154.48
428.46	173.20
428.65	119.37
428.84	180.22
429.03	236.39
429.22	110.01
429.40	156.82
429.59	107.66
429.78	182.56
429.97	198.95
430.16	107.66
430.34	51.49
430.53	187.24
430.72	77.24
430.91	234.05
431.10	105.32
431.28	140.43
431.47	170.86
431.66	147.45
431.85	142.77
432.03	154.48
432.22	231.71
432.41	124.05
432.60	161.50
432.79	126.39
432.97	147.45
433.16	198.95
433.35	180.22
433.54	163.84
433.72	177.88
433.91	117.03
434.10	227.03
434.28	205.97
434.47	77.24
434.66	229.37
434.85	145.11
435.03	236.39
435.22	681.10
435.41	1116.44
435.59	1144.52
435.78	931.53
435.97	582.79
436.16	273.84
436.34	180.22
436.53	189.58
436.72	234.05
436.90	152.13
437.09	175.54
437.28	133.41
437.46	140.43
437.65	180.22
437.84	124.05
438.02	163.84
438.21	180.22
438.40	182.56
438.58	140.43
438.77	189.58
438.96	114.69
439.14	175.54
439.33	126.39
439.52	142.77
439.70	93.62
439.89	201.29
440.08	205.97
440.26	133.41
440.45	248.10
440.63	280.86
440.82	131.07
441.01	187.24
441.19	149.79
441.38	88.94
441.57	187.24
441.75	154.48
441.94	131.07
442.12	229.37
442.31	102.98
442.50	140.43
442.68	196.60
442.87	161.50
443.05	210.65
443.24	152.13
443.43	217.67
443.61	184.90
443.80	119.37
443.98	133.41
444.17	220.01
444.35	203.63
444.54	264.48
444.73	170.86
444.91	72.56
445.10	124.05
445.28	175.54
445.47	194.26
445.65	175.54
445.84	168.52
446.02	131.07
446.21	201.29
446.39	194.26
446.58	131.07
446.77	77.24
446.95	177.88
447.14	145.11
447.32	187.24
447.51	117.03
447.69	215.33
447.88	180.22
448.06	161.50
448.25	198.95
448.43	215.33
448.62	112.35
448.80	250.44
448.99	156.82
449.17	163.84
449.36	152.13
449.54	112.35
449.73	147.45
449.91	215.33
450.10	201.29
450.28	287.89
450.46	224.69
450.65	189.58
450.83	152.13
451.02	110.01
451.20	210.65
451.39	161.50
451.57	182.56
451.76	168.52
451.94	173.20
452.13	152.13
452.31	180.22
452.49	205.97
452.68	149.79
452.86	229.37
453.05	255.12
453.23	161.50
453.42	191.92
453.60	166.18
453.78	112.35
453.97	124.05
454.15	152.13
454.34	147.45
454.52	124.05
454.70	264.48
454.89	161.50
455.07	58.51
455.26	156.82
455.44	163.84
455.62	140.43
455.81	149.79
455.99	220.01
456.17	187.24
456.36	189.58
456.54	124.05
456.73	149.79
456.91	154.48
457.09	194.26
457.28	210.65
457.46	241.08
457.64	166.18
457.83	124.05
458.01	203.63
458.19	203.63
458.38	252.78
458.56	121.71
458.74	159.16
458.93	220.01
459.11	140.43
459.29	196.60
459.48	215.33
459.66	175.54
459.84	203.63
460.03	217.67
460.21	163.84
460.39	173.20
460.57	236.39
460.76	215.33
460.94	177.88
461.12	208.31
461.31	198.95
461.49	168.52
461.67	112.35
461.85	238.73
462.04	173.20
462.22	278.52
462.40	196.60
462.59	166.18
462.77	229.37
462.95	177.88
463.13	142.77
463.32	191.92
463.50	133.41
463.68	220.01
463.86	198.95
464.05	138.09
464.23	152.13
464.41	187.24
464.59	210.65
464.78	170.86
464.96	175.54
465.14	133.41
465.32	191.92
465.50	212.99
465.69	173.20
465.87	168.52
466.05	112.35
466.23	119.37
466.41	114.69
466.60	241.08
466.78	173.20
466.96	166.18
467.14	194.26
467.32	212.99
467.51	173.20
467.69	208.31
467.87	175.54
468.05	194.26
468.23	212.99
468.41	285.55
468.60	187.24
468.78	159.16
468.96	140.43
469.14	124.05
469.32	266.82
469.50	203.63
469.69	168.52
469.87	173.20
470.05	88.94
470.23	194.26
470.41	161.50
470.59	147.45
470.77	152.13
470.95	166.18
471.14	217.67
471.32	145.11
471.50	210.65
471.68	173.20
471.86	201.29
472.04	163.84
472.22	142.77
472.40	154.48
472.58	182.56
472.77	184.90
472.95	227.03
473.13	203.63
473.31	245.76
473.49	201.29
473.67	140.43
473.85	180.22
474.03	182.56
474.21	173.20
474.39	189.58
474.57	238.73
474.75	217.67
474.93	220.01
475.12	217.67
475.30	149.79
475.48	173.20
475.66	152.13
475.84	203.63
476.02	140.43
476.20	161.50
476.38	175.54
476.56	234.05
476.74	198.95
476.92	189.58
477.10	229.37
477.28	231.71
477.46	177.88
477.64	126.39
477.82	152.13
478.00	215.33
478.18	184.90
478.36	236.39
478.54	166.18
478.72	201.29
478.90	180.22
479.08	243.42
479.26	271.50
479.44	159.16
479.62	215.33
479.80	159.16
479.98	170.86
480.16	184.90
480.34	198.95
480.52	229.37
480.70	222.35
480.88	257.46
481.06	222.35
481.24	238.73
481.41	112.35
481.59	252.78
481.77	184.90
481.95	196.60
482.13	236.39
482.31	217.67
482.49	138.09
482.67	222.35
482.85	210.65
483.03	161.50
483.21	269.16
483.39	248.10
483.57	287.89
483.74	285.55
483.92	212.99
484.10	325.33
484.28	245.76
484.46	259.80
484.64	325.33
484.82	304.27
485.00	196.60
485.18	255.12
485.35	236.39
485.53	280.86
485.71	325.33
485.89	259.80
486.07	341.72
486.25	369.80
486.43	409.59
486.61	241.08
486.78	383.85
486.96	376.83
487.14	362.78
487.32	306.61
487.50	344.06
487.68	332.36
487.85	320.65
488.03	306.61
488.21	313.63
488.39	259.80
488.57	334.70
488.75	269.16
488.92	589.82
489.10	355.76
489.28	407.25
489.46	315.97
489.64	339.38
489.81	327.68
489.99	404.91
490.17	311.29
490.35	386.19
490.53	320.65
490.70	236.39
490.88	367.46
491.06	294.91
491.24	334.70
491.41	383.85
491.59	287.89
491.77	337.04
491.95	276.18
492.13	283.20
492.30	241.08
492.48	400.23
492.66	325.33
492.84	337.04
493.01	266.82
493.19	322.99
493.37	376.83
493.54	273.84
493.72	266.82
493.90	330.02
494.08	283.20
494.25	308.95
494.43	262.14
494.61	332.36
494.79	273.84
494.96	322.99
495.14	301.93
495.32	276.18
495.49	271.50
495.67	332.36
495.85	278.52
496.02	262.14
496.20	311.29
496.38	287.89
496.55	278.52
496.73	278.52
496.91	304.27
497.09	236.39
497.26	292.57
497.44	182.56
497.62	245.76
497.79	290.23
497.97	259.80
498.14	285.55
498.32	273.84
498.50	315.97
498.67	278.52
498.85	301.93
499.03	330.02
499.20	220.01
499.38	273.84
499.56	259.80
499.73	301.93
499.91	234.05
500.08	283.20
500.26	229.37
500.44	245.76
500.61	257.46
500.79	248.10
500.97	304.27
501.14	292.57
501.32	285.55
501.49	320.65
501.67	255.12
501.84	255.12
502.02	241.08
502.20	294.91
502.37	264.48
502.55	236.39
502.72	220.01
502.90	264.48
503.07	264.48
503.25	285.55
503.43	224.69
503.60	241.08
503.78	196.60
503.95	236.39
504.13	238.73
504.30	262.14
504.48	311.29
504.65	266.82
504.83	285.55
505.01	227.03
505.18	236.39
505.36	191.92
505.53	278.52
505.71	175.54
505.88	283.20
506.06	210.65
506.23	177.88
506.41	238.73
506.58	163.84
506.76	184.90
506.93	215.33
507.11	280.86
507.28	248.10
507.46	201.29
507.63	234.05
507.81	276.18
507.98	227.03
508.16	248.10
508.33	255.12
508.50	222.35
508.68	259.80
508.85	264.48
509.03	231.71
509.20	203.63
509.38	308.95
509.55	259.80
509.73	287.89
509.90	269.16
510.08	224.69
510.25	283.20
510.42	269.16
510.60	245.76
510.77	341.72
510.95	269.16
511.12	259.80
511.30	292.57
511.47	215.33
511.64	250.44
511.82	194.26
511.99	198.95
512.17	163.84
512.34	243.42
512.51	222.35
512.69	238.73
512.86	294.91
513.04	208.31
513.21	264.48
513.38	208.31
513.56	266.82
513.73	177.88
513.90	241.08
514.08	222.35
514.25	166.18
514.43	222.35
514.60	191.92
514.77	224.69
514.95	248.10
515.12	245.76
515.29	210.65
515.47	236.39
515.64	311.29
515.81	229.37
515.99	266.82
516.16	252.78
516.33	285.55
516.51	217.67
516.68	252.78
516.85	194.26
517.03	257.46
517.20	264.48
517.37	255.12
517.54	217.67
517.72	220.01
517.89	205.97
518.06	215.33
518.24	264.48
518.41	304.27
518.58	252.78
518.75	224.69
518.93	238.73
519.10	285.55
519.27	280.86
519.45	269.16
519.62	191.92
519.79	292.57
519.96	285.55
520.14	266.82
520.31	276.18
520.48	227.03
520.65	238.73
520.83	325.33
521.00	325.33
521.17	294.91
521.34	205.97
521.52	238.73
521.69	252.78
521.86	234.05
522.03	318.31
522.20	292.57
522.38	191.92
522.55	250.44
522.72	262.14
522.89	278.52
523.07	285.55
523.24	264.48
523.41	287.89
523.58	220.01
523.75	229.37
523.92	203.63
524.10	273.84
524.27	301.93
524.44	315.97
524.61	369.80
524.78	292.57
524.96	245.76
525.13	259.80
525.30	264.48
525.47	259.80
525.64	290.23
525.81	332.36
525.98	304.27
526.16	269.16
526.33	241.08
526.50	208.31
526.67	227.03
526.84	243.42
527.01	205.97
527.18	245.76
527.36	229.37
527.53	236.39
527.70	278.52
527.87	290.23
528.04	294.91
528.21	304.27
528.38	227.03
528.55	283.20
528.72	250.44
528.89	236.39
529.07	325.33
529.24	348.74
529.41	325.33
529.58	285.55
529.75	273.84
529.92	285.55
530.09	257.46
530.26	292.57
530.43	292.57
530.60	231.71
530.77	285.55
530.94	320.65
531.11	264.48
531.28	271.50
531.46	290.23
531.63	280.86
531.80	259.80
531.97	243.42
532.14	299.59
532.31	297.25
532.48	311.29
532.65	344.06
532.82	308.95
532.99	318.31
533.16	250.44
533.33	332.36
533.50	301.93
533.67	287.89
533.84	294.91
534.01	315.97
534.18	222.35
534.35	318.31
534.52	273.84
534.69	290.23
534.86	273.84
535.03	273.84
535.20	313.63
535.37	360.44
535.54	362.78
535.71	365.12
535.88	348.74
536.05	269.16
536.22	379.17
536.38	341.72
536.55	285.55
536.72	318.31
536.89	304.27
537.06	362.78
537.23	421.30
537.40	397.89
537.57	414.27
537.74	376.83
537.91	458.74
538.08	440.02
538.25	491.51
538.42	423.64
538.59	461.09
538.75	514.92
538.92	507.90
539.09	491.51
539.26	486.83
539.43	561.73
539.60	601.52
539.77	592.16
539.94	634.29
540.11	734.93
540.28	755.99
540.44	709.18
540.61	866.00
540.78	901.11
540.95	992.39
541.12	1149.20
541.29	1240.48
541.46	1383.26
541.62	1387.94
541.79	1418.36
541.96	1327.08
542.13	1252.19
542.30	1177.29
542.47	1198.35
542.63	1060.26
542.80	1135.16
542.97	1160.91
543.14	1097.71
543.31	1102.39
543.48	1125.80
543.64	1100.05
543.81	1170.27
543.98	1123.46
544.15	1137.50
544.32	1177.29
544.48	1102.39
544.65	1090.69
544.82	1046.22
544.99	1008.77
545.16	1128.14
545.32	1203.04
545.49	1783.49
545.66	2661.19
545.83	3213.56
546.00	2902.26
546.16	2113.50
546.33	1593.90
546.50	1132.82
546.67	1018.13
546.83	999.41
547.00	903.45
547.17	849.61
547.34	830.89
547.50	788.76
547.67	770.04
547.84	723.23
548.00	784.08
548.17	744.29
548.34	732.59
548.51	842.59
548.67	821.53
548.84	645.99
549.01	676.41
549.18	727.91
549.34	711.52
549.51	587.47
549.68	657.69
549.84	622.58
550.01	573.43
550.18	631.94
550.34	615.56
550.51	543.00
550.68	594.50
550.84	470.45
551.01	500.87
551.18	496.19
551.34	491.51
551.51	465.77
551.68	458.74
551.84	456.40
552.01	456.40
552.18	383.85
552.34	437.68
552.51	454.06
552.68	458.74
552.84	433.00
553.01	451.72
553.18	414.27
553.34	418.96
553.51	411.93
553.67	428.32
553.84	418.96
554.01	346.40
554.17	334.70
554.34	376.83
554.51	367.46
554.67	358.10
554.84	411.93
555.00	276.18
555.17	330.02
555.33	337.04
555.50	351.08
555.67	337.04
555.83	243.42
556.00	294.91
556.16	470.45
556.33	301.93
556.50	257.46
556.66	320.65
556.83	313.63
556.99	271.50
557.16	283.20
557.32	257.46
557.49	292.57
557.65	320.65
557.82	313.63
557.98	341.72
558.15	283.20
558.32	205.97
558.48	241.08
558.65	313.63
558.81	243.42
558.98	264.48
559.14	348.74
559.31	280.86
559.47	264.48
559.64	294.91
559.80	292.57
559.97	177.88
560.13	315.97
560.30	245.76
560.46	311.29
560.63	236.39
560.79	283.20
560.96	301.93
561.12	266.82
561.29	280.86
561.45	262.14
561.61	311.29
561.78	381.51
561.94	222.35
562.11	337.04
562.27	285.55
562.44	255.12
562.60	201.29
562.77	276.18
562.93	365.12
563.10	238.73
563.26	238.73
563.42	320.65
563.59	266.82
563.75	287.89
563.92	308.95
564.08	245.76
564.24	229.37
564.41	306.61
564.57	252.78
564.74	205.97
564.90	322.99
565.07	271.50
565.23	287.89
565.39	212.99
565.56	250.44
565.72	208.31
565.88	217.67
566.05	187.24
566.21	259.80
566.38	311.29
566.54	255.12
566.70	283.20
566.87	273.84
567.03	229.37
567.19	292.57
567.36	280.86
567.52	262.14
567.68	262.14
567.85	280.86
568.01	180.22
568.17	238.73
568.34	299.59
568.50	313.63
568.66	283.20
568.83	346.40
568.99	313.63
569.15	266.82
569.32	269.16
569.48	297.25
569.64	269.16
569.81	283.20
569.97	187.24
570.13	294.91
570.30	238.73
570.46	264.48
570.62	180.22
570.78	222.35
570.95	241.08
571.11	287.89
571.27	252.78
571.43	194.26
571.60	252.78
571.76	299.59
571.92	308.95
572.09	271.50
572.25	229.37
572.41	203.63
572.57	276.18
572.74	278.52
572.90	248.10
573.06	257.46
573.22	194.26
573.38	234.05
573.55	191.92
573.71	259.80
573.87	334.70
574.03	306.61
574.20	264.48
574.36	152.13
574.52	241.08
574.68	234.05
574.84	203.63
575.01	337.04
575.17	222.35
575.33	257.46
575.49	308.95
575.65	325.33
575.82	248.10
575.98	327.68
576.14	283.20
576.30	311.29
576.46	470.45
576.62	725.57
576.79	830.89
576.95	678.76
577.11	428.32
577.27	402.57
577.43	402.57
577.59	290.23
577.75	318.31
577.92	294.91
578.08	215.33
578.24	255.12
578.40	416.62
578.56	564.07
578.72	727.91
578.88	748.97
579.04	564.07
579.21	538.32
579.37	421.30
579.53	402.57
579.69	379.17
579.85	425.98
580.01	479.81
580.17	468.11
580.33	437.68
580.49	381.51
580.65	367.46
580.82	390.87
580.98	341.72
581.14	348.74
581.30	409.59
581.46	374.49
581.62	409.59
581.78	346.40
581.94	414.27
582.10	358.10
582.26	416.62
582.42	428.32
582.58	416.62
582.74	397.89
582.90	498.53
583.06	528.96
583.22	454.06
583.38	479.81
583.54	411.93
583.70	479.81
583.86	465.77
584.02	456.40
584.18	482.15
584.34	461.09
584.50	458.74
584.66	437.68
584.82	411.93
584.98	456.40
585.14	425.98
585.30	470.45
585.46	402.57
585.62	402.57
585.78	351.08
585.94	386.19
586.10	418.96
586.26	411.93
586.42	409.59
586.58	564.07
586.74	524.28
586.90	587.47
587.06	610.88
587.22	631.94
587.38	624.92
587.54	559.39
587.70	550.03
587.86	477.47
588.02	437.68
588.18	402.57
588.34	379.17
588.49	313.63
588.65	297.25
588.81	266.82
588.97	365.12
589.13	278.52
589.29	358.10
589.45	374.49
589.61	306.61
589.77	330.02
589.93	402.57
590.08	330.02
590.24	365.12
590.40	369.80
590.56	402.57
590.72	440.02
590.88	315.97
591.04	334.70
591.20	330.02
591.35	369.80
591.51	367.46
591.67	355.76
591.83	407.25
591.99	421.30
592.15	416.62
592.31	477.47
592.46	491.51
592.62	461.09
592.78	430.66
592.94	486.83
593.10	535.98
593.26	479.81
593.41	524.28
593.57	442.36
593.73	362.78
593.89	360.44
594.05	372.15
594.20	304.27
594.36	365.12
594.52	362.78
594.68	379.17
594.84	344.06
594.99	360.44
595.15	376.83
595.31	304.27
595.47	315.97
595.62	290.23
595.78	287.89
595.94	362.78
596.10	292.57
596.25	358.10
596.41	278.52
596.57	234.05
596.73	292.57
596.88	325.33
597.04	264.48
597.20	322.99
597.36	374.49
597.51	210.65
597.67	308.95
597.83	348.74
597.99	402.57
598.14	262.14
598.30	383.85
598.46	360.44
598.61	351.08
598.77	386.19
598.93	322.99
599.09	395.55
599.24	484.49
599.40	337.04
599.56	365.12
599.71	407.25
599.87	376.83
600.03	332.36
600.18	229.37
600.34	313.63
600.50	358.10
600.65	299.59
600.81	257.46
600.97	332.36
601.12	341.72
601.28	355.76
601.44	388.53
601.59	311.29
601.75	325.33
601.91	266.82
602.06	262.14
602.22	369.80
602.37	297.25
602.53	271.50
602.69	325.33
602.84	248.10
603.00	290.23
603.16	313.63
603.31	294.91
603.47	278.52
603.62	231.71
603.78	320.65
603.94	308.95
604.09	236.39
604.25	362.78
604.40	287.89
604.56	280.86
604.71	299.59
604.87	271.50
605.03	208.31
605.18	271.50
605.34	255.12
605.49	360.44
605.65	276.18
605.80	308.95
605.96	348.74
606.12	325.33
606.27	278.52
606.43	248.10
606.58	292.57
606.74	311.29
606.89	334.70
607.05	374.49
607.20	294.91
607.36	346.40
607.51	322.99
607.67	341.72
607.82	313.63
607.98	320.65
608.13	400.23
608.29	425.98
608.44	468.11
608.60	397.89
608.75	531.30
608.91	505.56
609.06	491.51
609.22	683.44
609.37	695.14
609.53	662.37
609.68	802.80
609.84	819.19
609.99	784.08
610.15	994.73
610.30	1177.29
610.46	1483.90
610.61	1750.72
610.76	2282.02
610.92	2633.10
611.07	2956.10
611.23	3038.02
