SpectraSuite Data File
++++++++++++++++++++++++++++++++++++
Date: Fri Oct 04 11:42:24 GMT-05:00 2013
User: price-jones
Dark Spectrum Present: No
Reference Spectrum Present: No
Number of Sampled Component Spectra: 1
Spectrometers: USB2+H05261
Integration Time (usec): 100000 (USB2+H05261)
Spectra Averaged: 1 (USB2+H05261)
Boxcar Smoothing: 0 (USB2+H05261)
Correct for Electrical Dark: No (USB2+H05261)
Strobe/Lamp Enabled: No (USB2+H05261)
Correct for Detector Non-linearity: No (USB2+H05261)
Correct for Stray Light: No (USB2+H05261)
Number of Pixels in Processed Spectrum: 2048
>>>>>Begin Processed Spectral Data<<<<<
365.73	98.30
365.92	98.30
366.12	98.30
366.32	0.00
366.52	0.00
366.72	0.00
366.91	0.00
367.11	0.00
367.31	0.00
367.51	0.00
367.70	0.00
367.90	0.00
368.10	0.00
368.30	0.00
368.49	0.00
368.69	0.00
368.89	0.00
369.09	0.00
369.28	0.00
369.48	18.72
369.68	14.04
369.87	0.00
370.07	0.00
370.27	0.00
370.47	238.73
370.66	519.60
370.86	613.22
371.06	664.71
371.25	653.01
371.45	507.90
371.65	519.60
371.84	510.24
372.04	533.64
372.24	580.45
372.44	617.90
372.63	617.90
372.83	634.29
373.03	564.07
373.22	526.62
373.42	538.32
373.62	552.37
373.81	601.52
374.01	631.94
374.21	571.09
374.40	533.64
374.60	568.75
374.79	603.86
374.99	615.56
375.19	718.54
375.38	781.74
375.58	758.33
375.78	732.59
375.97	695.14
376.17	688.12
376.37	730.25
376.56	777.06
376.76	702.16
376.95	844.93
377.15	940.90
377.35	837.91
377.54	943.24
377.74	936.21
377.93	837.91
378.13	816.85
378.33	798.12
378.52	791.10
378.72	767.70
378.91	814.51
379.11	800.46
379.31	695.14
379.50	779.40
379.70	748.97
379.89	791.10
380.09	828.55
380.28	901.11
380.48	950.26
380.68	964.30
380.87	816.85
381.07	807.48
381.26	819.19
381.46	727.91
381.65	767.70
381.85	718.54
382.04	662.37
382.24	592.16
382.43	571.09
382.63	578.11
382.83	592.16
383.02	648.33
383.22	622.58
383.41	580.45
383.61	634.29
383.80	765.36
384.00	800.46
384.19	851.96
384.39	908.13
384.58	910.47
384.78	823.87
384.97	847.27
385.17	837.91
385.36	746.63
385.56	823.87
385.75	751.31
385.95	877.70
386.14	917.49
386.34	802.80
386.53	868.34
386.72	896.43
386.92	896.43
387.11	954.94
387.31	861.32
387.50	772.38
387.70	835.57
387.89	894.08
388.09	863.66
388.28	819.19
388.48	835.57
388.67	933.87
388.86	1067.28
389.06	1057.92
389.25	1020.47
389.45	1191.33
389.64	1153.88
389.84	1055.58
390.03	1153.88
390.22	1088.35
390.42	1231.12
390.61	1186.65
390.81	1146.86
391.00	1282.61
391.19	1345.81
391.39	1174.95
391.58	1107.07
391.78	1076.65
391.97	1032.18
392.16	919.83
392.36	910.47
392.55	851.96
392.75	690.46
392.94	517.26
393.13	559.39
393.33	713.86
393.52	748.97
393.71	936.21
393.91	999.41
394.10	1097.71
394.29	1111.75
394.49	1156.22
394.68	1224.10
394.88	1308.36
395.07	1329.42
395.26	1350.49
395.46	1301.34
395.65	1188.99
395.84	1191.33
396.04	1137.50
396.23	786.42
396.42	753.65
396.62	678.76
396.81	690.46
397.00	947.92
397.19	1060.26
397.39	1172.61
397.58	1448.79
397.77	1502.62
397.97	1528.37
398.16	1603.27
398.35	1671.14
398.55	1636.03
398.74	1729.66
398.93	1790.51
399.12	1647.74
399.32	1776.47
399.51	1755.40
399.70	1783.49
399.90	1877.11
400.09	1863.07
400.28	1748.38
400.47	1746.04
400.67	1874.77
400.86	1926.26
401.05	1888.81
401.24	1994.14
401.44	2029.24
401.63	2031.58
401.82	1827.96
402.01	1947.33
402.21	1989.46
402.40	2008.18
402.59	2008.18
402.78	1874.77
402.97	1858.39
403.17	1907.54
403.36	1977.75
403.55	2069.03
403.74	2160.31
403.93	2141.59
404.13	2129.89
404.32	2160.31
404.51	2162.66
404.70	2235.21
404.89	2094.78
405.09	1980.09
405.28	1851.36
405.47	1933.28
405.66	2026.90
405.85	1930.94
406.05	1919.24
406.24	1865.41
406.43	1973.07
406.62	1947.33
406.81	1973.07
407.00	2005.84
407.20	1914.56
407.39	2003.50
407.58	1961.37
407.77	2031.58
407.96	2122.87
408.15	2019.88
408.34	2099.46
408.54	2263.30
408.73	2197.76
408.92	2216.49
409.11	2181.38
409.30	2146.27
409.49	1895.83
409.68	1937.96
409.87	1832.64
410.07	1788.17
410.26	1942.64
410.45	2071.37
410.64	2094.78
410.83	2284.36
411.02	2242.23
411.21	2399.05
411.40	2216.49
411.59	2410.75
411.78	2282.02
411.98	2265.64
412.17	2441.18
412.36	2319.47
412.55	2270.32
412.74	2282.02
412.93	2188.40
413.12	2211.81
413.31	2340.54
413.50	2469.27
413.69	2471.61
413.88	2352.24
414.07	2289.04
414.26	2340.54
414.45	2333.51
414.64	2520.76
414.83	2485.65
415.02	2487.99
415.22	2450.54
415.41	2345.22
415.60	2417.77
415.79	2670.55
415.98	2560.55
416.17	2630.76
416.36	2614.38
416.55	2476.29
416.74	2539.48
416.93	2422.45
417.12	2429.48
417.31	2408.41
417.50	2506.71
417.69	2649.49
417.88	2537.14
418.07	2523.10
418.26	2516.08
418.45	2530.12
418.64	2665.87
418.83	2710.34
419.02	2492.67
419.21	2541.82
419.39	2534.80
419.58	2399.05
419.77	2377.98
419.96	2520.76
420.15	2672.89
420.34	2595.65
420.53	2747.79
420.72	2775.88
420.91	2766.51
421.10	2719.70
421.29	2740.77
421.48	2736.09
421.67	2761.83
421.86	2593.31
422.05	2553.52
422.24	2312.45
422.43	2183.72
422.61	2452.88
422.80	2712.68
422.99	2581.61
423.18	2431.82
423.37	2616.72
423.56	2520.76
423.75	2541.82
423.94	2593.31
424.13	2469.27
424.32	2483.31
424.50	2422.45
424.69	2492.67
424.88	2602.68
425.07	2420.11
425.26	2478.63
425.45	2541.82
425.64	2464.58
425.83	2368.62
426.01	2626.08
426.20	2579.27
426.39	2595.65
426.58	2340.54
426.77	2146.27
426.96	2214.15
427.15	2249.25
427.33	2466.92
427.52	2523.10
427.71	2485.65
427.90	2499.69
428.09	2413.09
428.28	2429.48
428.46	2338.20
428.65	2242.23
428.84	2375.64
429.03	2408.41
429.22	2326.49
429.40	2186.06
429.59	2069.03
429.78	1851.36
429.97	1834.98
430.16	1837.32
430.34	1837.32
430.53	1823.28
430.72	1818.60
430.91	2010.52
431.10	2174.36
431.28	2654.17
431.47	2890.56
431.66	2846.09
431.85	2605.02
432.03	2637.78
432.22	2520.76
432.41	2429.48
432.60	2682.25
432.79	2768.85
432.97	2892.90
433.16	2928.01
433.35	2754.81
433.54	2537.14
433.72	2356.92
433.91	2361.60
434.10	2509.05
434.28	2813.32
434.47	2782.90
434.66	2930.35
434.85	2808.64
435.03	2904.60
435.22	3583.36
435.41	4739.58
435.59	4793.42
435.78	3981.25
435.97	3634.85
436.16	3274.41
436.34	3155.04
436.53	3038.02
436.72	3077.80
436.90	2829.71
437.09	2745.45
437.28	2829.71
437.46	2832.05
437.65	2913.97
437.84	2708.00
438.02	2518.42
438.21	2434.16
438.40	2558.21
438.58	2733.75
438.77	2836.73
438.96	2888.22
439.14	3045.04
439.33	2963.12
439.52	3129.30
439.70	3089.51
439.89	2995.89
440.08	2867.16
440.26	2928.01
440.45	3063.76
440.63	3227.60
440.82	3180.79
441.01	3328.24
441.19	3194.83
441.38	3197.17
441.57	3295.47
441.75	3611.45
441.94	3555.27
442.12	3372.71
442.31	3396.12
442.50	3391.44
442.68	3353.99
442.87	3468.67
443.05	3417.18
443.24	3391.44
443.43	3522.51
443.61	3520.17
443.80	3602.08
443.98	3337.60
444.17	3321.22
444.35	3604.42
444.54	3489.74
444.73	3480.38
444.91	3311.86
445.10	3403.14
445.28	3138.66
445.47	3084.83
445.65	3124.62
445.84	3206.53
446.02	3297.81
446.21	3307.18
446.39	3438.25
446.58	3288.45
446.77	3417.18
446.95	3377.39
447.14	3681.66
447.32	3557.61
447.51	3588.04
447.69	3468.67
447.88	3431.23
448.06	3536.55
448.25	3459.31
448.43	3566.98
448.62	3445.27
448.80	3494.42
448.99	3428.88
449.17	3501.44
449.36	3433.57
449.54	3492.08
449.73	3705.07
449.91	3719.11
450.10	3765.92
450.28	3983.59
450.46	3679.32
450.65	3885.29
450.83	3786.99
451.02	3637.19
451.20	3576.34
451.39	3763.58
451.57	3681.66
451.76	3644.21
451.94	3684.00
452.13	3559.95
452.31	3375.05
452.49	3262.71
452.68	3337.60
452.86	3363.35
453.05	3267.39
453.23	3534.21
453.42	3576.34
453.60	3599.74
453.78	3831.46
453.97	3618.47
454.15	3618.47
454.34	3480.38
454.52	3606.77
454.70	3377.39
454.89	3480.38
455.07	3581.02
455.26	3552.93
455.44	3723.79
455.62	3927.42
455.81	3801.03
455.99	3775.28
456.17	3749.54
456.36	3709.75
456.54	3927.42
456.73	3815.07
456.91	3840.82
457.09	3845.50
457.28	3913.38
457.46	3871.25
457.64	3946.14
457.83	3758.90
458.01	3669.96
458.19	3651.24
458.38	3730.81
458.56	3824.44
458.74	3679.32
458.93	3852.52
459.11	3644.21
459.29	3709.75
459.48	3641.87
459.66	3742.52
459.84	3824.44
460.03	3833.80
460.21	3838.48
460.39	4035.08
460.57	3822.09
460.76	3981.25
460.94	3838.48
461.12	3882.95
461.31	3932.10
461.49	3819.75
461.67	3948.48
461.85	3899.33
462.04	3866.56
462.22	4119.34
462.40	3976.57
462.59	4067.85
462.77	3873.59
462.95	3990.61
463.13	3871.25
463.32	3847.84
463.50	3810.39
463.68	3812.73
463.86	3850.18
464.05	3786.99
464.23	3728.47
464.41	3852.52
464.59	3604.42
464.78	3918.06
464.96	3822.09
465.14	3735.50
465.32	3822.09
465.50	3875.93
465.69	4093.60
465.87	3810.39
466.05	3845.50
466.23	3852.52
466.41	3595.06
466.60	3688.68
466.78	3658.26
466.96	3707.41
467.14	3831.46
467.32	3889.97
467.51	3826.78
467.69	3822.09
467.87	3796.35
468.05	3735.50
468.23	3822.09
468.41	3779.97
468.60	3840.82
468.78	3801.03
468.96	3770.60
469.14	3794.01
469.32	3854.86
469.50	3777.62
469.69	3803.37
469.87	3789.33
470.05	3770.60
470.23	3693.37
470.41	3885.29
470.59	3805.71
470.77	3742.52
470.95	3901.67
471.14	3929.76
471.32	3836.14
471.50	4138.07
471.68	4168.49
471.86	4100.62
472.04	4196.58
472.22	4250.41
472.40	4002.32
472.58	3719.11
472.77	3794.01
472.95	3929.76
473.13	4002.32
473.31	3904.01
473.49	4049.13
473.67	4023.38
473.85	4121.68
474.03	4121.68
474.21	4292.54
474.39	4325.31
474.57	4191.90
474.75	4184.88
474.93	4086.58
475.12	4070.19
475.30	4042.11
475.48	4189.56
475.66	4063.17
475.84	4154.45
476.02	4257.43
476.20	4009.34
476.38	4032.74
476.56	4238.71
476.74	4203.60
476.92	4301.90
477.10	4421.27
477.28	4472.76
477.46	4456.38
477.64	4484.47
477.82	4596.81
478.00	4512.55
478.18	4484.47
478.36	4365.10
478.54	4524.26
478.72	4430.63
478.90	4493.83
479.08	4716.18
479.26	4816.82
479.44	4730.22
479.62	4713.84
479.80	4655.33
479.98	4695.11
480.16	4821.50
480.34	4622.56
480.52	4795.76
480.70	4821.50
480.88	4870.65
481.06	4945.55
481.24	4994.70
481.41	5048.54
481.59	5270.89
481.77	5207.69
481.95	5217.05
482.13	5025.13
482.31	5053.22
482.49	5254.50
482.67	5076.62
482.85	5313.02
483.03	5270.89
483.21	5380.89
483.39	5149.18
483.57	5135.14
483.74	5174.92
483.92	5151.52
484.10	5324.72
484.28	5439.40
484.46	5509.62
484.64	5495.58
484.82	5348.12
485.00	5465.15
485.18	5273.23
485.35	5130.45
485.53	4905.76
485.71	4386.16
485.89	4358.08
486.07	4564.04
486.25	4894.06
486.43	5287.27
486.61	5291.95
486.78	5081.30
486.96	5221.74
487.14	5378.55
487.32	5561.11
487.50	5668.78
487.68	5881.77
487.85	5975.39
488.03	5987.09
488.21	5778.78
488.39	5893.47
488.57	5628.99
488.75	5589.20
488.92	6043.26
489.10	6148.59
489.28	6303.06
489.46	6368.60
489.64	6157.95
489.81	6525.41
489.99	6527.75
490.17	6448.18
490.35	6445.84
490.53	6413.07
490.70	6293.70
490.88	6232.85
491.06	6424.77
491.24	6464.56
491.41	6342.85
491.59	6108.80
491.77	5898.15
491.95	5940.28
492.13	6183.70
492.30	6438.81
492.48	6417.75
492.66	6558.18
492.84	6984.16
493.01	6829.68
493.19	6509.03
493.37	6448.18
493.54	6422.43
493.72	6546.48
493.90	6780.53
494.08	6878.83
494.25	7012.24
494.43	6932.67
494.61	7077.78
494.79	7063.74
494.96	7070.76
495.14	6848.41
495.32	6876.49
495.49	6651.80
495.67	6883.52
495.85	7143.32
496.02	7063.74
496.20	7056.72
496.38	7094.16
496.55	7112.89
496.73	7351.62
496.91	7075.44
497.09	7485.03
497.26	7503.76
497.44	7131.61
497.62	6974.80
497.79	6862.45
497.97	6679.89
498.14	6537.12
498.32	6817.98
498.50	7014.59
498.67	7192.47
498.85	7169.06
499.03	7391.41
499.20	7234.60
499.38	7363.33
499.56	7133.95
499.73	7447.58
499.91	7157.36
500.08	6855.43
500.26	6752.45
500.44	6963.09
500.61	6977.14
500.79	6930.33
500.97	6946.71
501.14	6829.68
501.32	6766.49
501.49	6956.07
501.67	6771.17
501.84	7016.93
502.02	6888.20
502.20	7035.65
502.37	7112.89
502.55	7042.67
502.72	7159.70
502.90	7091.82
503.07	7265.02
503.25	7082.46
503.43	6759.47
503.60	6619.04
503.78	6368.60
503.95	6417.75
504.13	6698.61
504.30	7227.57
504.48	7300.13
504.65	7300.13
504.83	7368.01
505.01	7368.01
505.18	7384.39
505.36	7510.78
505.53	7213.53
505.71	7449.93
505.88	7510.78
506.06	7595.04
506.23	7276.73
506.41	7232.26
506.58	7323.54
506.76	7309.49
506.93	7288.43
507.11	7192.47
507.28	7056.72
507.46	7342.26
507.63	7049.69
507.81	6937.35
507.98	6916.28
508.16	7101.19
508.33	7227.57
508.50	7571.63
508.68	7555.25
508.85	7765.90
509.03	7719.09
509.20	7588.02
509.38	7618.44
509.55	7433.54
509.73	7162.04
509.90	7456.95
510.08	7456.95
510.25	7403.11
510.42	7496.74
510.60	7534.18
510.77	7417.16
510.95	7679.30
511.12	7559.93
511.30	7892.29
511.47	7779.94
511.64	7824.41
511.82	7826.75
511.99	7482.69
512.17	7548.23
512.34	7456.95
512.51	7482.69
512.69	7595.04
512.86	7527.16
513.04	7581.00
513.21	7660.57
513.38	7447.58
513.56	7410.14
513.73	7272.04
513.90	7211.19
514.08	7164.38
514.25	7396.09
514.43	7368.01
514.60	7529.50
514.77	7470.99
514.95	7337.58
515.12	7456.95
515.29	7564.61
515.47	7536.52
515.64	7789.30
515.81	7559.93
515.99	7669.94
516.16	7258.00
516.33	6740.74
516.51	6408.39
516.68	6076.03
516.85	6036.24
517.03	6141.57
517.20	6567.54
517.37	7087.14
517.54	7609.08
517.72	7433.54
517.89	6841.39
518.06	6457.54
518.24	6342.85
518.41	6738.40
518.58	7059.06
518.75	7311.83
518.93	7286.09
519.10	7045.01
519.27	7382.05
519.45	7433.54
519.62	7599.72
519.79	7765.90
519.96	7620.78
520.14	7702.70
520.31	7272.04
520.48	7192.47
520.65	7349.28
520.83	7456.95
521.00	7864.20
521.17	7805.69
521.34	7548.23
521.52	7536.52
521.69	7707.38
521.86	7751.85
522.03	7850.16
522.20	7719.09
522.38	7250.98
522.55	7356.30
522.72	7351.62
522.89	7445.24
523.07	7529.50
523.24	7447.58
523.41	7789.30
523.58	7765.90
523.75	7826.75
523.92	8018.68
524.10	7885.26
524.27	7960.16
524.44	7969.52
524.61	7819.73
524.78	7543.55
524.96	7925.05
525.13	7653.55
525.30	7808.03
525.47	7878.24
525.64	7939.10
525.81	7470.99
525.98	7431.20
526.16	7096.50
526.33	6827.34
526.50	6820.32
526.67	6614.35
526.84	6684.57
527.01	6970.12
527.18	7190.13
527.36	7396.09
527.53	7576.31
527.70	7747.17
527.87	7625.47
528.04	7616.10
528.21	7576.31
528.38	7744.83
528.55	7992.93
528.72	7969.52
528.89	8170.81
529.07	8070.17
529.24	7859.52
529.41	7669.94
529.58	7740.15
529.75	7391.41
529.92	7903.99
530.09	7637.17
530.26	7810.37
530.43	8044.42
530.60	7946.12
530.77	8011.65
530.94	8142.72
531.11	7985.91
531.28	7946.12
531.46	7756.54
531.63	7784.62
531.80	8032.72
531.97	7927.39
532.14	7536.52
532.31	7197.15
532.48	7068.42
532.65	7171.40
532.82	7103.53
532.99	7494.40
533.16	7779.94
533.33	7911.01
533.50	7976.55
533.67	7597.38
533.84	7712.07
534.01	7712.07
534.18	7672.28
534.35	7700.36
534.52	7691.00
534.69	7658.23
534.86	7691.00
535.03	7918.03
535.20	7918.03
535.37	8063.15
535.54	8084.21
535.71	8126.34
535.88	7950.80
536.05	7861.86
536.22	7716.75
536.38	7655.89
536.55	7569.29
536.72	7517.80
536.89	7190.13
537.06	7384.39
537.23	7747.17
537.40	7838.45
537.57	8039.74
537.74	7999.95
537.91	7960.16
538.08	7932.08
538.25	7873.56
538.42	7922.71
538.59	7943.78
538.75	7887.61
538.92	7737.81
539.09	7749.51
539.26	7606.74
539.43	7623.12
539.60	7943.78
539.77	7868.88
539.94	7943.78
540.11	7789.30
540.28	7695.68
540.44	7655.89
540.61	7925.05
540.78	7899.31
540.95	8135.70
541.12	8627.21
541.29	8755.94
541.46	8732.54
541.62	8973.61
541.79	8945.53
541.96	8566.36
542.13	8636.58
542.30	8423.59
542.47	8571.04
542.63	8496.14
542.80	8454.02
542.97	8374.44
543.14	8308.90
543.31	8149.75
543.48	8446.99
543.64	8823.82
543.81	8877.65
543.98	9085.96
544.15	8482.10
544.32	8346.35
544.48	8397.84
544.65	8468.06
544.82	8477.42
544.99	8280.82
545.16	8362.73
545.32	8222.30
545.49	9518.96
545.66	11089.46
545.83	11918.01
546.00	11047.33
546.16	9767.06
546.33	9362.14
546.50	8561.68
546.67	8564.02
546.83	8297.20
547.00	8430.61
547.17	7859.52
547.34	7911.01
547.50	7756.54
547.67	7953.14
547.84	7974.21
548.00	8184.85
548.17	8126.34
548.34	8161.45
548.51	7960.16
548.67	8145.06
548.84	8049.10
549.01	7978.89
549.18	7868.88
549.34	7964.84
549.51	7676.96
549.68	7679.30
549.84	7761.22
550.01	7719.09
550.18	7698.02
550.34	7716.75
550.51	7864.20
550.68	7740.15
550.84	7501.42
551.01	7566.95
551.18	7648.87
551.34	7564.61
551.51	7665.25
551.68	7737.81
551.84	7712.07
552.01	7541.21
552.18	7676.96
552.34	7349.28
552.51	7220.55
552.68	7080.12
552.84	7353.96
553.01	7330.56
553.18	7236.94
553.34	7377.37
553.51	7557.59
553.67	7536.52
553.84	7489.71
554.01	7344.60
554.17	7262.68
554.34	7375.03
554.51	7527.16
554.67	7595.04
554.84	7475.67
555.00	7569.29
555.17	7431.20
555.33	7400.77
555.50	7255.66
555.67	7293.11
555.83	7246.30
556.00	7047.35
556.16	7229.91
556.33	7133.95
556.50	6839.05
556.66	7276.73
556.83	6993.52
556.99	6848.41
557.16	7012.24
557.32	6953.73
557.49	7101.19
557.65	7136.29
557.82	7087.14
557.98	7171.40
558.15	6939.69
558.32	6855.43
558.48	6494.99
558.65	6511.37
558.81	6658.82
558.98	6707.98
559.14	6796.92
559.31	6810.96
559.47	6778.19
559.64	6832.02
559.80	6750.10
559.97	6761.81
560.13	6892.88
560.30	7000.54
560.46	7162.04
560.63	7037.99
560.79	7180.76
560.96	6944.37
561.12	6752.45
561.29	6757.13
561.45	6548.82
561.61	6878.83
561.78	6942.03
561.94	6778.19
562.11	6815.64
562.27	6633.08
562.44	6796.92
562.60	6817.98
562.77	6960.75
562.93	6906.92
563.10	7197.15
563.26	6923.30
563.42	6729.04
563.59	6719.68
563.75	6857.77
563.92	6918.62
564.08	6822.66
564.24	6768.83
564.41	6829.68
564.57	6846.07
564.74	6808.62
564.90	6881.18
565.07	6712.66
565.23	6731.38
565.39	6532.44
565.56	6368.60
565.72	6279.66
565.88	6415.41
566.05	6368.60
566.21	6583.93
566.38	6473.92
566.54	6445.84
566.70	6707.98
566.87	6621.38
567.03	6719.68
567.19	6813.30
567.36	6665.85
567.52	6609.67
567.68	6590.95
567.85	6417.75
568.01	6363.92
568.17	6190.72
568.34	6050.28
568.50	6031.56
568.66	6052.63
568.83	6282.00
568.99	6310.08
569.15	6452.86
569.32	6286.68
569.48	6216.46
569.64	6064.33
569.81	6047.94
569.97	6059.65
570.13	6181.35
570.30	6298.38
570.46	6120.50
570.62	6153.27
570.78	5755.38
570.95	5813.89
571.11	6083.05
571.27	6136.88
571.43	5987.09
571.60	6232.85
571.76	6202.42
571.92	6270.30
572.09	6129.86
572.25	6244.55
572.41	6216.46
572.57	6176.67
572.74	6153.27
572.90	6141.57
573.06	6216.46
573.22	6293.70
573.38	6136.88
573.55	6162.63
573.71	6286.68
573.87	6204.76
574.03	6066.67
574.20	6017.52
574.36	5923.90
574.52	6005.81
574.68	5951.98
574.84	5930.92
575.01	5856.02
575.17	5823.25
575.33	5921.56
575.49	5905.17
575.65	5886.45
575.82	6064.33
575.98	5900.49
576.14	5900.49
576.30	6232.85
576.46	6487.96
576.62	6640.10
576.79	6668.19
576.95	6394.34
577.11	6274.98
577.27	6066.67
577.43	6101.78
577.59	5926.24
577.75	5865.38
577.92	5736.65
578.08	5802.19
578.24	5771.76
578.40	5900.49
578.56	6174.33
578.72	6504.35
578.88	6597.97
579.04	6396.68
579.21	6319.45
579.37	6221.14
579.53	6125.18
579.69	5966.03
579.85	6094.76
580.01	6251.57
580.17	6132.20
580.33	6157.95
580.49	6076.03
580.65	6071.35
580.82	5982.41
580.98	6113.48
581.14	6097.10
581.30	6221.14
581.46	6113.48
581.62	6101.78
581.78	6076.03
581.94	6249.23
582.10	6303.06
582.26	6277.32
582.42	6218.80
582.58	6417.75
582.74	6324.13
582.90	6267.95
583.06	6291.36
583.22	6310.08
583.38	6127.52
583.54	6307.74
583.70	6342.85
583.86	6190.72
584.02	6066.67
584.18	6394.34
584.34	6225.82
584.50	6246.89
584.66	6113.48
584.82	6010.50
584.98	6038.58
585.14	5973.05
585.30	5912.19
585.46	5682.82
585.62	5650.05
585.78	5657.07
585.94	5785.80
586.10	5844.32
586.26	5914.53
586.42	5902.83
586.58	5951.98
586.74	6108.80
586.90	6146.25
587.06	6108.80
587.22	6106.46
587.38	5907.51
587.54	5863.04
587.70	5668.78
587.86	5423.02
588.02	5156.20
588.18	5060.24
588.34	4837.89
588.49	4620.22
588.65	4365.10
588.81	4077.21
588.97	4175.52
589.13	4252.75
589.29	4344.03
589.45	4337.01
589.61	4362.76
589.77	4475.10
589.93	4774.69
590.08	4704.48
590.24	4961.94
590.40	4999.38
590.56	4917.47
590.72	5022.79
590.88	4770.01
591.04	5022.79
591.20	5029.81
591.35	4805.12
591.51	4837.89
591.67	4774.69
591.83	4828.53
591.99	4816.82
592.15	4922.15
592.31	5118.75
592.46	5210.03
592.62	5226.42
592.78	5305.99
592.94	5217.05
593.10	5322.38
593.26	5446.43
593.41	5399.62
593.57	5345.78
593.73	5088.32
593.89	4849.59
594.05	4634.26
594.20	4737.24
594.36	4552.34
594.52	4498.51
594.68	4589.79
594.84	4613.20
594.99	5004.07
595.15	5076.62
595.31	4966.62
595.47	4887.04
595.62	4858.95
595.78	4940.87
595.94	5263.86
596.10	5111.73
596.25	5043.85
596.41	4807.46
596.57	4791.08
596.73	4863.63
596.88	4943.21
597.04	5025.13
597.20	5032.15
597.36	4891.72
597.51	4912.78
