SpectraSuite Data File
++++++++++++++++++++++++++++++++++++
Date: Fri Oct 04 11:41:52 GMT-05:00 2013
User: price-jones
Dark Spectrum Present: No
Reference Spectrum Present: No
Number of Sampled Component Spectra: 1
Spectrometers: USB2+H05261
Integration Time (usec): 100000 (USB2+H05261)
Spectra Averaged: 1 (USB2+H05261)
Boxcar Smoothing: 0 (USB2+H05261)
Correct for Electrical Dark: No (USB2+H05261)
Strobe/Lamp Enabled: No (USB2+H05261)
Correct for Detector Non-linearity: No (USB2+H05261)
Correct for Stray Light: No (USB2+H05261)
Number of Pixels in Processed Spectrum: 2048
>>>>>Begin Processed Spectral Data<<<<<
365.73	25.75
365.92	25.75
366.12	25.75
366.32	0.00
366.52	0.00
366.72	0.00
366.91	0.00
367.11	0.00
367.31	0.00
367.51	0.00
367.70	0.00
367.90	0.00
368.10	0.00
368.30	0.00
368.49	0.00
368.69	0.00
368.89	0.00
369.09	0.00
369.28	35.11
369.48	0.00
369.68	0.00
369.87	0.00
370.07	42.13
370.27	49.15
370.47	0.00
370.66	23.41
370.86	56.17
371.06	110.01
371.25	107.66
371.45	93.62
371.65	110.01
371.84	0.00
372.04	74.90
372.24	112.35
372.44	86.60
372.63	110.01
372.83	168.52
373.03	100.64
373.22	112.35
373.42	72.56
373.62	110.01
373.81	91.28
374.01	81.92
374.21	107.66
374.40	117.03
374.60	168.52
374.79	187.24
374.99	110.01
375.19	145.11
375.38	140.43
375.58	102.98
375.78	100.64
375.97	133.41
376.17	161.50
376.37	135.75
376.56	128.73
376.76	100.64
376.95	93.62
377.15	74.90
377.35	121.71
377.54	133.41
377.74	149.79
377.93	79.58
378.13	114.69
378.33	102.98
378.52	119.37
378.72	175.54
378.91	168.52
379.11	107.66
379.31	65.54
379.50	102.98
379.70	152.13
379.89	180.22
380.09	100.64
380.28	65.54
380.48	81.92
380.68	88.94
380.87	88.94
381.07	131.07
381.26	105.32
381.46	133.41
381.65	112.35
381.85	93.62
382.04	126.39
382.24	128.73
382.43	135.75
382.63	166.18
382.83	88.94
383.02	119.37
383.22	102.98
383.41	112.35
383.61	100.64
383.80	114.69
384.00	74.90
384.19	133.41
384.39	163.84
384.58	163.84
384.78	86.60
384.97	100.64
385.17	140.43
385.36	77.24
385.56	74.90
385.75	105.32
385.95	60.85
386.14	102.98
386.34	72.56
386.53	131.07
386.72	102.98
386.92	131.07
387.11	138.09
387.31	77.24
387.50	0.00
387.70	98.30
387.89	70.22
388.09	0.00
388.28	70.22
388.48	98.30
388.67	112.35
388.86	131.07
389.06	114.69
389.25	131.07
389.45	63.19
389.64	79.58
389.84	149.79
390.03	117.03
390.22	168.52
390.42	107.66
390.61	126.39
390.81	79.58
391.00	145.11
391.19	86.60
391.39	98.30
391.58	168.52
391.78	128.73
391.97	177.88
392.16	81.92
392.36	86.60
392.55	173.20
392.75	53.83
392.94	53.83
393.13	117.03
393.33	72.56
393.52	81.92
393.71	93.62
393.91	88.94
394.10	114.69
394.29	131.07
394.49	117.03
394.68	170.86
394.88	147.45
395.07	203.63
395.26	133.41
395.46	100.64
395.65	156.82
395.84	145.11
396.04	187.24
396.23	100.64
396.42	163.84
396.62	121.71
396.81	107.66
397.00	107.66
397.19	159.16
397.39	170.86
397.58	112.35
397.77	107.66
397.97	182.56
398.16	131.07
398.35	145.11
398.55	91.28
398.74	126.39
398.93	112.35
399.12	72.56
399.32	189.58
399.51	124.05
399.70	166.18
399.90	86.60
400.09	152.13
400.28	133.41
400.47	70.22
400.67	175.54
400.86	138.09
401.05	152.13
401.24	119.37
401.44	100.64
401.63	112.35
401.82	138.09
402.01	119.37
402.21	126.39
402.40	154.48
402.59	119.37
402.78	175.54
402.97	140.43
403.17	135.75
403.36	173.20
403.55	187.24
403.74	365.12
403.93	954.94
404.13	1659.44
404.32	1881.79
404.51	1348.15
404.70	891.74
404.89	402.57
405.09	217.67
405.28	138.09
405.47	124.05
405.66	126.39
405.85	128.73
406.05	152.13
406.24	79.58
406.43	49.15
406.62	255.12
406.81	168.52
407.00	248.10
407.20	241.08
407.39	325.33
407.58	358.10
407.77	320.65
407.96	217.67
408.15	128.73
408.34	117.03
408.54	152.13
408.73	170.86
408.92	105.32
409.11	217.67
409.30	140.43
409.49	198.95
409.68	114.69
409.87	147.45
410.07	173.20
410.26	121.71
410.45	161.50
410.64	105.32
410.83	131.07
411.02	182.56
411.21	212.99
411.40	124.05
411.59	117.03
411.78	163.84
411.98	154.48
412.17	131.07
412.36	149.79
412.55	138.09
412.74	149.79
412.93	231.71
413.12	128.73
413.31	210.65
413.50	168.52
413.69	142.77
413.88	187.24
414.07	212.99
414.26	208.31
414.45	170.86
414.64	166.18
414.83	236.39
415.02	131.07
415.22	182.56
415.41	161.50
415.60	203.63
415.79	205.97
415.98	196.60
416.17	105.32
416.36	102.98
416.55	229.37
416.74	159.16
416.93	98.30
417.12	138.09
417.31	208.31
417.50	166.18
417.69	180.22
417.88	114.69
418.07	152.13
418.26	112.35
418.45	217.67
418.64	168.52
418.83	175.54
419.02	180.22
419.21	175.54
419.39	224.69
419.58	166.18
419.77	175.54
419.96	231.71
420.15	241.08
420.34	208.31
420.53	234.05
420.72	187.24
420.91	229.37
421.10	142.77
421.29	212.99
421.48	180.22
421.67	264.48
421.86	212.99
422.05	215.33
422.24	124.05
422.43	215.33
422.61	182.56
422.80	135.75
422.99	138.09
423.18	196.60
423.37	187.24
423.56	212.99
423.75	198.95
423.94	189.58
424.13	184.90
424.32	163.84
424.50	159.16
424.69	168.52
424.88	241.08
425.07	224.69
425.26	119.37
425.45	231.71
425.64	98.30
425.83	210.65
426.01	234.05
426.20	287.89
426.39	133.41
426.58	182.56
426.77	222.35
426.96	124.05
427.15	212.99
427.33	156.82
427.52	196.60
427.71	191.92
427.90	173.20
428.09	182.56
428.28	152.13
428.46	212.99
428.65	259.80
428.84	196.60
429.03	187.24
429.22	245.76
429.40	215.33
429.59	189.58
429.78	224.69
429.97	205.97
430.16	135.75
430.34	196.60
430.53	191.92
430.72	201.29
430.91	210.65
431.10	110.01
431.28	255.12
431.47	210.65
431.66	236.39
431.85	128.73
432.03	229.37
432.22	278.52
432.41	224.69
432.60	280.86
432.79	231.71
432.97	220.01
433.16	245.76
433.35	264.48
433.54	276.18
433.72	271.50
433.91	283.20
434.10	278.52
434.28	388.53
434.47	348.74
434.66	395.55
434.85	447.04
435.03	1605.61
435.22	5090.67
435.41	7817.39
435.59	6719.68
435.78	4320.63
435.97	2216.49
436.16	901.11
436.34	423.64
436.53	304.27
436.72	327.68
436.90	238.73
437.09	269.16
437.28	227.03
437.46	229.37
437.65	262.14
437.84	196.60
438.02	220.01
438.21	287.89
438.40	238.73
438.58	175.54
438.77	205.97
438.96	255.12
439.14	198.95
439.33	210.65
439.52	224.69
439.70	212.99
439.89	234.05
440.08	215.33
440.26	229.37
440.45	238.73
440.63	252.78
440.82	278.52
441.01	236.39
441.19	203.63
441.38	161.50
441.57	217.67
441.75	283.20
441.94	285.55
442.12	222.35
442.31	238.73
442.50	133.41
442.68	238.73
442.87	205.97
443.05	184.90
443.24	217.67
443.43	168.52
443.61	280.86
443.80	250.44
443.98	168.52
444.17	255.12
444.35	304.27
444.54	184.90
444.73	276.18
444.91	250.44
445.10	234.05
445.28	245.76
445.47	177.88
445.65	161.50
445.84	301.93
446.02	220.01
446.21	241.08
446.39	236.39
446.58	238.73
446.77	189.58
446.95	203.63
447.14	248.10
447.32	283.20
447.51	264.48
447.69	208.31
447.88	231.71
448.06	182.56
448.25	189.58
448.43	276.18
448.62	201.29
448.80	241.08
448.99	252.78
449.17	184.90
449.36	250.44
449.54	191.92
449.73	191.92
449.91	217.67
450.10	252.78
450.28	271.50
450.46	322.99
450.65	271.50
450.83	271.50
451.02	203.63
451.20	198.95
451.39	276.18
451.57	269.16
451.76	198.95
451.94	245.76
452.13	257.46
452.31	283.20
452.49	259.80
452.68	166.18
452.86	212.99
453.05	252.78
453.23	175.54
453.42	184.90
453.60	205.97
453.78	227.03
453.97	208.31
454.15	156.82
454.34	175.54
454.52	189.58
454.70	238.73
454.89	229.37
455.07	243.42
455.26	255.12
455.44	269.16
455.62	220.01
455.81	252.78
455.99	259.80
456.17	196.60
456.36	243.42
456.54	203.63
456.73	220.01
456.91	191.92
457.09	220.01
457.28	166.18
457.46	227.03
457.64	276.18
457.83	170.86
458.01	252.78
458.19	194.26
458.38	227.03
458.56	243.42
458.74	208.31
458.93	245.76
459.11	198.95
459.29	238.73
459.48	278.52
459.66	273.84
459.84	215.33
460.03	351.08
460.21	243.42
460.39	175.54
460.57	306.61
460.76	269.16
460.94	220.01
461.12	290.23
461.31	287.89
461.49	262.14
461.67	217.67
461.85	248.10
462.04	217.67
462.22	723.23
462.40	257.46
462.59	294.91
462.77	168.52
462.95	177.88
463.13	182.56
463.32	250.44
463.50	241.08
463.68	266.82
463.86	243.42
464.05	250.44
464.23	227.03
464.41	353.42
464.59	290.23
464.78	252.78
464.96	145.11
465.14	236.39
465.32	175.54
465.50	205.97
465.69	231.71
465.87	184.90
466.05	287.89
466.23	138.09
466.41	287.89
466.60	210.65
466.78	203.63
466.96	252.78
467.14	292.57
467.32	264.48
467.51	229.37
467.69	243.42
467.87	266.82
468.05	196.60
468.23	166.18
468.41	266.82
468.60	276.18
468.78	229.37
468.96	266.82
469.14	306.61
469.32	238.73
469.50	201.29
469.69	231.71
469.87	212.99
470.05	266.82
470.23	222.35
470.41	156.82
470.59	175.54
470.77	266.82
470.95	194.26
471.14	257.46
471.32	182.56
471.50	203.63
471.68	215.33
471.86	308.95
472.04	248.10
472.22	191.92
472.40	245.76
472.58	198.95
472.77	203.63
472.95	297.25
473.13	271.50
473.31	198.95
473.49	187.24
473.67	203.63
473.85	210.65
474.03	280.86
474.21	196.60
474.39	248.10
474.57	325.33
474.75	168.52
474.93	215.33
475.12	248.10
475.30	154.48
475.48	215.33
475.66	175.54
475.84	189.58
476.02	229.37
476.20	250.44
476.38	203.63
476.56	337.04
476.74	212.99
476.92	315.97
477.10	320.65
477.28	248.10
477.46	168.52
477.64	236.39
477.82	133.41
478.00	241.08
478.18	220.01
478.36	212.99
478.54	224.69
478.72	227.03
478.90	257.46
479.08	276.18
479.26	278.52
479.44	266.82
479.62	259.80
479.80	301.93
479.98	194.26
480.16	271.50
480.34	250.44
480.52	290.23
480.70	322.99
480.88	250.44
481.06	315.97
481.24	273.84
481.41	327.68
481.59	376.83
481.77	344.06
481.95	351.08
482.13	423.64
482.31	355.76
482.49	376.83
482.67	421.30
482.85	447.04
483.03	510.24
483.21	503.22
483.39	531.30
483.57	505.56
483.74	578.11
483.92	575.77
484.10	538.32
484.28	636.63
484.46	706.84
484.64	695.14
484.82	631.94
485.00	713.86
485.18	730.25
485.35	772.38
485.53	748.97
485.71	840.25
485.89	823.87
486.07	784.08
486.25	912.81
486.43	868.34
486.61	919.83
486.78	744.29
486.96	840.25
487.14	844.93
487.32	809.83
487.50	816.85
487.68	844.93
487.85	788.76
488.03	770.04
488.21	795.78
488.39	760.67
488.57	802.80
488.75	816.85
488.92	990.05
489.10	779.40
489.28	821.53
489.46	727.91
489.64	603.86
489.81	702.16
489.99	772.38
490.17	706.84
490.35	711.52
490.53	650.67
490.70	655.35
490.88	660.03
491.06	709.18
491.24	786.42
491.41	805.14
491.59	758.33
491.77	678.76
491.95	641.31
492.13	638.97
492.30	730.25
492.48	552.37
492.66	578.11
492.84	615.56
493.01	671.73
493.19	645.99
493.37	566.41
493.54	643.65
493.72	613.22
493.90	603.86
494.08	582.79
494.25	571.09
494.43	580.45
494.61	585.13
494.79	519.60
494.96	533.64
495.14	603.86
495.32	575.77
495.49	578.11
495.67	561.73
495.85	521.94
496.02	470.45
496.20	512.58
496.38	547.69
496.55	521.94
496.73	500.87
496.91	468.11
497.09	514.92
497.26	524.28
497.44	514.92
497.62	449.38
497.79	433.00
497.97	514.92
498.14	425.98
498.32	416.62
498.50	454.06
498.67	458.74
498.85	440.02
499.03	458.74
499.20	454.06
499.38	358.10
499.56	461.09
499.73	456.40
499.91	400.23
500.08	468.11
500.26	416.62
500.44	339.38
500.61	484.49
500.79	376.83
500.97	365.12
501.14	379.17
501.32	383.85
501.49	414.27
501.67	397.89
501.84	402.57
502.02	283.20
502.20	348.74
502.37	330.02
502.55	393.21
502.72	290.23
502.90	334.70
503.07	339.38
503.25	351.08
503.43	346.40
503.60	290.23
503.78	311.29
503.95	241.08
504.13	374.49
504.30	297.25
504.48	402.57
504.65	290.23
504.83	276.18
505.01	315.97
505.18	262.14
505.36	177.88
505.53	238.73
505.71	245.76
505.88	362.78
506.06	311.29
506.23	259.80
506.41	217.67
506.58	292.57
506.76	299.59
506.93	257.46
507.11	290.23
507.28	243.42
507.46	285.55
507.63	257.46
507.81	212.99
507.98	294.91
508.16	231.71
508.33	273.84
508.50	322.99
508.68	255.12
508.85	311.29
509.03	212.99
509.20	290.23
509.38	304.27
509.55	414.27
509.73	318.31
509.90	304.27
510.08	241.08
510.25	360.44
510.42	238.73
510.60	264.48
510.77	269.16
510.95	330.02
511.12	301.93
511.30	334.70
511.47	318.31
511.64	297.25
511.82	220.01
511.99	276.18
512.17	313.63
512.34	318.31
512.51	210.65
512.69	234.05
512.86	205.97
513.04	248.10
513.21	173.20
513.38	238.73
513.56	318.31
513.73	290.23
513.90	308.95
514.08	269.16
514.25	259.80
514.43	259.80
514.60	243.42
514.77	198.95
514.95	252.78
515.12	189.58
515.29	269.16
515.47	318.31
515.64	285.55
515.81	252.78
515.99	224.69
516.16	327.68
516.33	276.18
516.51	276.18
516.68	252.78
516.85	257.46
517.03	276.18
517.20	304.27
517.37	269.16
517.54	301.93
517.72	259.80
517.89	217.67
518.06	175.54
518.24	297.25
518.41	269.16
518.58	191.92
518.75	215.33
518.93	224.69
519.10	229.37
519.27	252.78
519.45	205.97
519.62	278.52
519.79	276.18
519.96	264.48
520.14	222.35
520.31	231.71
520.48	212.99
520.65	292.57
520.83	353.42
521.00	294.91
521.17	212.99
521.34	255.12
521.52	339.38
521.69	285.55
521.86	262.14
522.03	313.63
522.20	287.89
522.38	259.80
522.55	238.73
522.72	252.78
522.89	269.16
523.07	280.86
523.24	322.99
523.41	234.05
523.58	238.73
523.75	306.61
523.92	262.14
524.10	262.14
524.27	243.42
524.44	201.29
524.61	224.69
524.78	313.63
524.96	280.86
525.13	194.26
525.30	245.76
525.47	304.27
525.64	320.65
525.81	285.55
525.98	217.67
526.16	252.78
526.33	299.59
526.50	163.84
526.67	297.25
526.84	299.59
527.01	283.20
527.18	283.20
527.36	327.68
527.53	273.84
527.70	285.55
527.87	358.10
528.04	315.97
528.21	269.16
528.38	285.55
528.55	351.08
528.72	348.74
528.89	390.87
529.07	278.52
529.24	259.80
529.41	278.52
529.58	374.49
529.75	369.80
529.92	383.85
530.09	299.59
530.26	318.31
530.43	325.33
530.60	304.27
530.77	372.15
530.94	346.40
531.11	367.46
531.28	224.69
531.46	276.18
531.63	372.15
531.80	308.95
531.97	250.44
532.14	423.64
532.31	397.89
532.48	440.02
532.65	491.51
532.82	524.28
532.99	545.34
533.16	606.20
533.33	545.34
533.50	524.28
533.67	587.47
533.84	486.83
534.01	425.98
534.18	369.80
534.35	365.12
534.52	376.83
534.69	475.13
534.86	454.06
535.03	479.81
535.20	418.96
535.37	454.06
535.54	524.28
535.71	538.32
535.88	531.30
536.05	475.13
536.22	638.97
536.38	706.84
536.55	580.45
536.72	660.03
536.89	709.18
537.06	819.19
537.23	922.17
537.40	819.19
537.57	985.37
537.74	1043.88
537.91	1015.79
538.08	1013.45
538.25	1097.71
538.42	1095.37
538.59	1109.41
538.75	1114.10
538.92	1165.59
539.09	1373.89
539.26	1462.83
539.43	1565.82
539.60	1802.21
539.77	2005.84
539.94	2188.40
540.11	2335.85
540.28	2429.48
540.44	2696.30
540.61	3075.46
540.78	3604.42
540.95	4014.02
541.12	4844.91
541.29	5268.55
541.46	5441.75
541.62	5177.26
541.79	5123.43
541.96	4758.31
542.13	4564.04
542.30	4236.37
542.47	4030.40
542.63	3791.67
542.80	3801.03
542.97	3644.21
543.14	3658.26
543.31	3803.37
543.48	3686.34
543.64	3838.48
543.81	3744.86
543.98	3875.93
544.15	3868.91
544.32	3915.72
544.48	3889.97
544.65	3660.60
544.82	3684.00
544.99	3770.60
545.16	3932.10
545.32	4252.75
545.49	8332.31
545.66	12175.47
545.83	13406.59
546.00	11012.22
546.16	7836.11
546.33	5708.57
546.50	4507.87
546.67	3777.62
546.83	3447.61
547.00	3176.11
547.17	3073.12
547.34	2843.75
547.50	2799.28
547.67	2712.68
547.84	2551.18
548.00	2548.84
548.17	2370.96
548.34	2317.13
548.51	2216.49
548.67	2272.66
548.84	2099.46
549.01	2036.27
549.18	1987.11
549.34	1837.32
549.51	1797.53
549.68	1785.83
549.84	1722.63
550.01	1636.03
550.18	1687.53
550.34	1617.31
550.51	1364.53
550.68	1446.45
550.84	1266.23
551.01	1259.21
551.18	1203.04
551.34	1188.99
551.51	1228.78
551.68	1050.90
551.84	1083.67
552.01	1114.10
552.18	961.96
552.34	983.02
552.51	873.02
552.68	985.37
552.84	882.38
553.01	887.06
553.18	922.17
553.34	858.98
553.51	753.65
553.67	800.46
553.84	805.14
554.01	692.80
554.17	676.41
554.34	653.01
554.51	650.67
554.67	695.14
554.84	636.63
555.00	531.30
555.17	559.39
555.33	554.71
555.50	599.18
555.67	479.81
555.83	519.60
556.00	449.38
556.16	566.41
556.33	479.81
556.50	379.17
556.66	404.91
556.83	404.91
556.99	425.98
557.16	400.23
557.32	393.21
557.49	379.17
557.65	468.11
557.82	306.61
557.98	437.68
558.15	358.10
558.32	362.78
558.48	313.63
558.65	358.10
558.81	390.87
558.98	292.57
559.14	421.30
559.31	348.74
559.47	355.76
559.64	386.19
559.80	341.72
559.97	315.97
560.13	311.29
560.30	430.66
560.46	348.74
560.63	386.19
560.79	376.83
560.96	358.10
561.12	313.63
561.29	348.74
561.45	318.31
561.61	341.72
561.78	367.46
561.94	330.02
562.11	360.44
562.27	353.42
562.44	341.72
562.60	327.68
562.77	397.89
562.93	353.42
563.10	297.25
563.26	322.99
563.42	362.78
563.59	255.12
563.75	339.38
563.92	320.65
564.08	292.57
564.24	334.70
564.41	337.04
564.57	257.46
564.74	236.39
564.90	341.72
565.07	416.62
565.23	301.93
565.39	292.57
565.56	355.76
565.72	259.80
565.88	327.68
566.05	334.70
566.21	257.46
566.38	341.72
566.54	344.06
566.70	304.27
566.87	346.40
567.03	227.03
567.19	299.59
567.36	318.31
567.52	276.18
567.68	362.78
567.85	252.78
568.01	229.37
568.17	234.05
568.34	339.38
568.50	334.70
568.66	325.33
568.83	400.23
568.99	353.42
569.15	330.02
569.32	330.02
569.48	271.50
569.64	299.59
569.81	280.86
569.97	194.26
570.13	245.76
570.30	311.29
570.46	273.84
570.62	339.38
570.78	301.93
570.95	292.57
571.11	285.55
571.27	257.46
571.43	287.89
571.60	285.55
571.76	290.23
571.92	308.95
572.09	315.97
572.25	280.86
572.41	236.39
572.57	271.50
572.74	337.04
572.90	301.93
573.06	227.03
573.22	351.08
573.38	353.42
573.55	318.31
573.71	252.78
573.87	243.42
574.03	278.52
574.20	313.63
574.36	250.44
574.52	255.12
574.68	390.87
574.84	374.49
575.01	297.25
575.17	332.36
575.33	311.29
575.49	351.08
575.65	374.49
575.82	355.76
575.98	407.25
576.14	362.78
576.30	971.32
576.46	1870.09
576.62	2476.29
576.79	2408.41
576.95	1825.62
577.11	1210.06
577.27	936.21
577.43	709.18
577.59	507.90
577.75	447.04
577.92	416.62
578.08	472.79
578.24	395.55
578.40	866.00
578.56	1724.97
578.72	2111.16
578.88	2300.75
579.04	1600.93
579.21	1263.89
579.37	1053.24
579.53	868.34
579.69	901.11
579.85	987.71
580.01	1050.90
580.17	1022.81
580.33	870.68
580.49	781.74
580.65	793.44
580.82	662.37
580.98	676.41
581.14	676.41
581.30	725.57
581.46	676.41
581.62	842.59
581.78	826.21
581.94	922.17
582.10	968.98
582.26	964.30
582.42	980.68
582.58	1034.52
582.74	1015.79
582.90	1132.82
583.06	1109.41
583.22	1064.94
583.38	1071.97
583.54	1095.37
583.70	1074.31
583.86	990.05
584.02	1046.22
584.18	1025.15
584.34	997.07
584.50	990.05
584.66	973.66
584.82	912.81
584.98	938.55
585.14	940.90
585.30	1008.77
585.46	847.27
585.62	929.19
585.78	866.00
585.94	936.21
586.10	1001.75
586.26	1060.26
586.42	1069.62
586.58	1327.08
586.74	1591.56
586.90	1708.59
587.06	1834.98
587.22	1809.23
587.38	1549.43
587.54	1441.77
587.70	1261.55
587.86	1067.28
588.02	961.96
588.18	947.92
588.34	847.27
588.49	706.84
588.65	713.86
588.81	695.14
588.97	669.39
589.13	683.44
589.29	622.58
589.45	645.99
589.61	606.20
589.77	669.39
589.93	622.58
590.08	657.69
590.24	660.03
590.40	699.82
590.56	800.46
590.72	737.27
590.88	688.12
591.04	821.53
591.20	732.59
591.35	837.91
591.51	851.96
591.67	793.44
591.83	971.32
591.99	919.83
592.15	1067.28
592.31	1095.37
592.46	1142.18
592.62	1228.78
592.78	1308.36
592.94	1261.55
593.10	1324.74
593.26	1224.10
593.41	1095.37
593.57	1025.15
593.73	987.71
593.89	912.81
594.05	798.12
594.20	788.76
594.36	744.29
594.52	638.97
594.68	610.88
594.84	641.31
594.99	629.60
595.15	624.92
595.31	627.26
595.47	571.09
595.62	559.39
595.78	566.41
595.94	603.86
596.10	629.60
596.25	559.39
596.41	617.90
596.57	543.00
596.73	521.94
596.88	603.86
597.04	575.77
597.20	634.29
597.36	709.18
597.51	674.07
597.67	559.39
597.83	711.52
597.99	678.76
598.14	685.78
598.30	739.61
598.46	739.61
598.61	748.97
598.77	835.57
598.93	952.60
599.09	833.23
599.24	849.61
599.40	931.53
599.56	819.19
599.71	753.65
599.87	763.01
600.03	720.88
600.18	720.88
600.34	711.52
600.50	645.99
600.65	580.45
600.81	589.82
600.97	526.62
601.12	578.11
601.28	571.09
601.44	543.00
601.59	514.92
601.75	500.87
601.91	461.09
602.06	423.64
602.22	519.60
602.37	423.64
602.53	489.17
602.69	472.79
602.84	442.36
603.00	395.55
603.16	589.82
603.31	451.72
603.47	456.40
603.62	486.83
603.78	461.09
603.94	491.51
604.09	531.30
604.25	472.79
604.40	578.11
604.56	498.53
604.71	468.11
604.87	489.17
605.03	561.73
605.18	603.86
605.34	526.62
605.49	564.07
605.65	547.69
605.80	486.83
605.96	571.09
606.12	594.50
606.27	608.54
606.43	587.47
606.58	580.45
606.74	594.50
606.89	662.37
607.05	716.20
607.20	753.65
607.36	770.04
607.51	819.19
607.67	873.02
607.82	826.21
607.98	1025.15
608.13	1039.20
608.29	1025.15
608.44	1160.91
608.60	1177.29
608.75	1247.51
608.91	1371.55
609.06	1495.60
609.22	1792.85
609.37	1816.26
609.53	2026.90
