SpectraSuite Data File
++++++++++++++++++++++++++++++++++++
Date: Fri Oct 04 11:42:04 GMT-05:00 2013
User: price-jones
Dark Spectrum Present: No
Reference Spectrum Present: No
Number of Sampled Component Spectra: 1
Spectrometers: USB2+H05261
Integration Time (usec): 100000 (USB2+H05261)
Spectra Averaged: 1 (USB2+H05261)
Boxcar Smoothing: 0 (USB2+H05261)
Correct for Electrical Dark: No (USB2+H05261)
Strobe/Lamp Enabled: No (USB2+H05261)
Correct for Detector Non-linearity: No (USB2+H05261)
Correct for Stray Light: No (USB2+H05261)
Number of Pixels in Processed Spectrum: 2048
>>>>>Begin Processed Spectral Data<<<<<
365.73	58.51
365.92	58.51
366.12	58.51
366.32	0.00
366.52	0.00
366.72	0.00
366.91	0.00
367.11	0.00
367.31	0.00
367.51	0.00
367.70	0.00
367.90	0.00
368.10	0.00
368.30	0.00
368.49	0.00
368.69	0.00
368.89	0.00
369.09	0.00
369.28	0.00
369.48	0.00
369.68	23.41
369.87	0.00
370.07	0.00
370.27	23.41
370.47	7.02
370.66	42.13
370.86	46.81
371.06	159.16
371.25	152.13
371.45	16.38
371.65	39.79
371.84	88.94
372.04	95.96
372.24	107.66
372.44	110.01
372.63	77.24
372.83	198.95
373.03	131.07
373.22	102.98
373.42	110.01
373.62	63.19
373.81	119.37
374.01	98.30
374.21	39.79
374.40	110.01
374.60	95.96
374.79	63.19
374.99	126.39
375.19	114.69
375.38	124.05
375.58	126.39
375.78	203.63
375.97	140.43
376.17	194.26
376.37	98.30
376.56	166.18
376.76	102.98
376.95	180.22
377.15	198.95
377.35	133.41
377.54	32.77
377.74	133.41
377.93	159.16
378.13	56.17
378.33	128.73
378.52	152.13
378.72	138.09
378.91	131.07
379.11	79.58
379.31	121.71
379.50	110.01
379.70	182.56
379.89	149.79
380.09	86.60
380.28	114.69
380.48	107.66
380.68	65.54
380.87	32.77
381.07	74.90
381.26	74.90
381.46	124.05
381.65	102.98
381.85	112.35
382.04	105.32
382.24	88.94
382.43	133.41
382.63	215.33
382.83	156.82
383.02	184.90
383.22	184.90
383.41	53.83
383.61	72.56
383.80	67.88
384.00	161.50
384.19	117.03
384.39	25.75
384.58	149.79
384.78	142.77
384.97	140.43
385.17	63.19
385.36	121.71
385.56	46.81
385.75	84.26
385.95	91.28
386.14	84.26
386.34	95.96
386.53	138.09
386.72	88.94
386.92	156.82
387.11	86.60
387.31	133.41
387.50	124.05
387.70	67.88
387.89	173.20
388.09	149.79
388.28	0.00
388.48	117.03
388.67	140.43
388.86	117.03
389.06	131.07
389.25	142.77
389.45	149.79
389.64	140.43
389.84	95.96
390.03	121.71
390.22	161.50
390.42	133.41
390.61	159.16
390.81	60.85
391.00	117.03
391.19	140.43
391.39	138.09
391.58	168.52
391.78	16.38
391.97	163.84
392.16	142.77
392.36	177.88
392.55	112.35
392.75	91.28
392.94	112.35
393.13	140.43
393.33	138.09
393.52	147.45
393.71	135.75
393.91	145.11
394.10	110.01
394.29	163.84
394.49	95.96
394.68	95.96
394.88	201.29
395.07	154.48
395.26	107.66
395.46	131.07
395.65	154.48
395.84	163.84
396.04	203.63
396.23	93.62
396.42	166.18
396.62	198.95
396.81	105.32
397.00	93.62
397.19	70.22
397.39	152.13
397.58	140.43
397.77	84.26
397.97	72.56
398.16	86.60
398.35	156.82
398.55	128.73
398.74	196.60
398.93	154.48
399.12	128.73
399.32	145.11
399.51	147.45
399.70	126.39
399.90	98.30
400.09	156.82
400.28	131.07
400.47	217.67
400.67	135.75
400.86	126.39
401.05	161.50
401.24	152.13
401.44	166.18
401.63	163.84
401.82	140.43
402.01	224.69
402.21	224.69
402.40	194.26
402.59	81.92
402.78	205.97
402.97	131.07
403.17	255.12
403.36	266.82
403.55	262.14
403.74	568.75
403.93	1790.51
404.13	4109.98
404.32	5174.92
404.51	4655.33
404.70	2750.13
404.89	1022.81
405.09	400.23
405.28	203.63
405.47	170.86
405.66	166.18
405.85	201.29
406.05	79.58
406.24	217.67
406.43	175.54
406.62	173.20
406.81	287.89
407.00	287.89
407.20	491.51
407.39	713.86
407.58	758.33
407.77	580.45
407.96	337.04
408.15	131.07
408.34	180.22
408.54	163.84
408.73	227.03
408.92	205.97
409.11	149.79
409.30	163.84
409.49	105.32
409.68	119.37
409.87	175.54
410.07	154.48
410.26	142.77
410.45	149.79
410.64	194.26
410.83	149.79
411.02	175.54
411.21	117.03
411.40	168.52
411.59	173.20
411.78	210.65
411.98	166.18
412.17	98.30
412.36	191.92
412.55	205.97
412.74	191.92
412.93	194.26
413.12	131.07
413.31	259.80
413.50	182.56
413.69	227.03
413.88	166.18
414.07	177.88
414.26	161.50
414.45	215.33
414.64	257.46
414.83	257.46
415.02	231.71
415.22	217.67
415.41	222.35
415.60	189.58
415.79	229.37
415.98	276.18
416.17	201.29
416.36	147.45
416.55	191.92
416.74	238.73
416.93	168.52
417.12	241.08
417.31	159.16
417.50	184.90
417.69	266.82
417.88	212.99
418.07	182.56
418.26	177.88
418.45	170.86
418.64	231.71
418.83	292.57
419.02	212.99
419.21	191.92
419.39	182.56
419.58	255.12
419.77	205.97
419.96	210.65
420.15	220.01
420.34	278.52
420.53	259.80
420.72	177.88
420.91	287.89
421.10	220.01
421.29	276.18
421.48	187.24
421.67	243.42
421.86	252.78
422.05	287.89
422.24	245.76
422.43	358.10
422.61	264.48
422.80	255.12
422.99	332.36
423.18	283.20
423.37	280.86
423.56	301.93
423.75	273.84
423.94	191.92
424.13	189.58
424.32	224.69
424.50	252.78
424.69	234.05
424.88	259.80
425.07	290.23
425.26	278.52
425.45	294.91
425.64	269.16
425.83	278.52
426.01	341.72
426.20	208.31
426.39	327.68
426.58	264.48
426.77	292.57
426.96	325.33
427.15	327.68
427.33	341.72
427.52	346.40
427.71	297.25
427.90	311.29
428.09	271.50
428.28	215.33
428.46	313.63
428.65	292.57
428.84	348.74
429.03	341.72
429.22	301.93
429.40	280.86
429.59	243.42
429.78	304.27
429.97	308.95
430.16	262.14
430.34	257.46
430.53	276.18
430.72	269.16
430.91	334.70
431.10	243.42
431.28	287.89
431.47	304.27
431.66	294.91
431.85	318.31
432.03	264.48
432.22	362.78
432.41	428.32
432.60	372.15
432.79	418.96
432.97	400.23
433.16	440.02
433.35	540.66
433.54	528.96
433.72	573.43
433.91	517.26
434.10	528.96
434.28	723.23
434.47	812.17
434.66	809.83
434.85	1004.09
435.03	3049.72
435.22	11131.59
435.41	23543.45
435.59	23339.82
435.78	14927.94
435.97	7279.07
436.16	2874.18
436.34	1025.15
436.53	704.50
436.72	681.10
436.90	538.32
437.09	470.45
437.28	409.59
437.46	425.98
437.65	414.27
437.84	423.64
438.02	341.72
438.21	372.15
438.40	404.91
438.58	346.40
438.77	376.83
438.96	400.23
439.14	304.27
439.33	376.83
439.52	433.00
439.70	400.23
439.89	461.09
440.08	369.80
440.26	334.70
440.45	472.79
440.63	414.27
440.82	334.70
441.01	365.12
441.19	325.33
441.38	346.40
441.57	423.64
441.75	421.30
441.94	425.98
442.12	430.66
442.31	360.44
442.50	386.19
442.68	348.74
442.87	376.83
443.05	351.08
443.24	362.78
443.43	411.93
443.61	402.57
443.80	372.15
443.98	348.74
444.17	313.63
444.35	353.42
444.54	369.80
444.73	351.08
444.91	330.02
445.10	341.72
445.28	386.19
445.47	395.55
445.65	404.91
445.84	332.36
446.02	367.46
446.21	369.80
446.39	360.44
446.58	395.55
446.77	397.89
446.95	337.04
447.14	311.29
447.32	367.46
447.51	372.15
447.69	390.87
447.88	322.99
448.06	423.64
448.25	355.76
448.43	362.78
448.62	397.89
448.80	383.85
448.99	383.85
449.17	435.34
449.36	365.12
449.54	428.32
449.73	397.89
449.91	463.43
450.10	421.30
450.28	428.32
450.46	421.30
450.65	369.80
450.83	411.93
451.02	379.17
451.20	355.76
451.39	416.62
451.57	407.25
451.76	414.27
451.94	304.27
452.13	423.64
452.31	463.43
452.49	400.23
452.68	360.44
452.86	383.85
453.05	475.13
453.23	411.93
453.42	365.12
453.60	376.83
453.78	454.06
453.97	388.53
454.15	344.06
454.34	287.89
454.52	339.38
454.70	421.30
454.89	433.00
455.07	437.68
455.26	456.40
455.44	423.64
455.62	367.46
455.81	348.74
455.99	374.49
456.17	411.93
456.36	297.25
456.54	339.38
456.73	409.59
456.91	334.70
457.09	451.72
457.28	383.85
457.46	430.66
457.64	367.46
457.83	318.31
458.01	386.19
458.19	468.11
458.38	353.42
458.56	465.77
458.74	334.70
458.93	304.27
459.11	322.99
459.29	344.06
459.48	386.19
459.66	423.64
459.84	351.08
460.03	428.32
460.21	369.80
460.39	325.33
460.57	393.21
460.76	461.09
460.94	351.08
461.12	505.56
461.31	390.87
461.49	407.25
461.67	365.12
461.85	351.08
462.04	346.40
462.22	777.06
462.40	421.30
462.59	463.43
462.77	351.08
462.95	381.51
463.13	315.97
463.32	376.83
463.50	330.02
463.68	339.38
463.86	337.04
464.05	297.25
464.23	397.89
464.41	517.26
464.59	395.55
464.78	411.93
464.96	311.29
465.14	285.55
465.32	344.06
465.50	351.08
465.69	395.55
465.87	383.85
466.05	372.15
466.23	365.12
466.41	358.10
466.60	397.89
466.78	383.85
466.96	388.53
467.14	367.46
467.32	369.80
467.51	423.64
467.69	383.85
467.87	416.62
468.05	369.80
468.23	386.19
468.41	355.76
468.60	304.27
468.78	278.52
468.96	346.40
469.14	348.74
469.32	266.82
469.50	320.65
469.69	297.25
469.87	341.72
470.05	341.72
470.23	337.04
470.41	290.23
470.59	287.89
470.77	425.98
470.95	358.10
471.14	414.27
471.32	376.83
471.50	369.80
471.68	379.17
471.86	369.80
472.04	301.93
472.22	313.63
472.40	320.65
472.58	285.55
472.77	372.15
472.95	351.08
473.13	372.15
473.31	365.12
473.49	273.84
473.67	248.10
473.85	266.82
474.03	414.27
474.21	334.70
474.39	346.40
474.57	344.06
474.75	322.99
474.93	360.44
475.12	322.99
475.30	334.70
475.48	454.06
475.66	416.62
475.84	397.89
476.02	388.53
476.20	397.89
476.38	322.99
476.56	395.55
476.74	393.21
476.92	353.42
477.10	318.31
477.28	447.04
477.46	334.70
477.64	421.30
477.82	404.91
478.00	393.21
478.18	416.62
478.36	430.66
478.54	365.12
478.72	379.17
478.90	444.70
479.08	425.98
479.26	416.62
479.44	486.83
479.62	461.09
479.80	409.59
479.98	493.85
480.16	484.49
480.34	524.28
480.52	517.26
480.70	580.45
480.88	587.47
481.06	498.53
481.24	552.37
481.41	671.73
481.59	697.48
481.77	702.16
481.95	767.70
482.13	784.08
482.31	877.70
482.49	791.10
482.67	924.51
482.85	1025.15
483.03	1060.26
483.21	1132.82
483.39	1174.95
483.57	1249.85
483.74	1219.42
483.92	1212.40
484.10	1338.79
484.28	1444.11
484.46	1563.48
484.64	1661.78
484.82	1614.97
485.00	1675.82
485.18	1799.87
485.35	2019.88
485.53	2036.27
485.71	2045.63
485.89	2324.15
486.07	2225.85
486.25	2319.47
486.43	2328.83
486.61	2214.15
486.78	2342.88
486.96	2242.23
487.14	2335.85
487.32	2321.81
487.50	2214.15
487.68	2157.97
487.85	2181.38
488.03	2321.81
488.21	2251.60
488.39	2146.27
488.57	2150.95
488.75	2052.65
488.92	2401.39
489.10	2008.18
489.28	2022.22
489.46	1914.56
489.64	1764.76
489.81	1895.83
489.99	1856.04
490.17	1818.60
490.35	1900.52
490.53	1694.55
490.70	1650.08
490.88	1715.61
491.06	1851.36
491.24	2031.58
491.41	2059.67
491.59	1933.28
491.77	1732.00
491.95	1668.80
492.13	1629.01
492.30	1673.48
492.48	1577.52
492.66	1547.09
492.84	1605.61
493.01	1540.07
493.19	1556.46
493.37	1467.52
493.54	1451.13
493.72	1472.20
493.90	1511.99
494.08	1416.02
494.25	1394.96
494.43	1380.92
494.61	1376.24
494.79	1329.42
494.96	1413.68
495.14	1263.89
495.32	1315.38
495.49	1299.00
495.67	1186.65
495.85	1224.10
496.02	1193.67
496.20	1219.42
496.38	1198.35
496.55	1205.38
496.73	1177.29
496.91	1142.18
497.09	1095.37
497.26	1090.69
497.44	1104.73
497.62	1107.07
497.79	1071.97
497.97	983.02
498.14	994.73
498.32	1001.75
498.50	1001.75
498.67	910.47
498.85	866.00
499.03	842.59
499.20	908.13
499.38	795.78
499.56	873.02
499.73	919.83
499.91	875.36
500.08	856.64
500.26	777.06
500.44	753.65
500.61	744.29
500.79	720.88
500.97	746.63
501.14	746.63
501.32	620.24
501.49	648.33
501.67	674.07
501.84	596.84
502.02	566.41
502.20	585.13
502.37	606.20
502.55	655.35
502.72	552.37
502.90	617.90
503.07	528.96
503.25	559.39
503.43	528.96
503.60	430.66
503.78	568.75
503.95	407.25
504.13	519.60
504.30	425.98
504.48	568.75
504.65	547.69
504.83	472.79
505.01	465.77
505.18	461.09
505.36	465.77
505.53	454.06
505.71	468.11
505.88	461.09
506.06	444.70
506.23	421.30
506.41	339.38
506.58	409.59
506.76	418.96
506.93	414.27
507.11	402.57
507.28	367.46
507.46	430.66
507.63	465.77
507.81	423.64
507.98	351.08
508.16	395.55
508.33	397.89
508.50	430.66
508.68	409.59
508.85	318.31
509.03	404.91
509.20	418.96
509.38	447.04
509.55	458.74
509.73	423.64
509.90	470.45
510.08	306.61
510.25	440.02
510.42	360.44
510.60	360.44
510.77	407.25
510.95	341.72
511.12	365.12
511.30	407.25
511.47	395.55
511.64	395.55
511.82	365.12
511.99	332.36
512.17	360.44
512.34	374.49
512.51	346.40
512.69	393.21
512.86	491.51
513.04	339.38
513.21	351.08
513.38	440.02
513.56	297.25
513.73	379.17
513.90	334.70
514.08	423.64
514.25	322.99
514.43	369.80
514.60	322.99
514.77	299.59
514.95	428.32
515.12	344.06
515.29	301.93
515.47	287.89
515.64	369.80
515.81	306.61
515.99	348.74
516.16	255.12
516.33	423.64
516.51	283.20
516.68	304.27
516.85	271.50
517.03	280.86
517.20	355.76
517.37	311.29
517.54	318.31
517.72	358.10
517.89	262.14
518.06	220.01
518.24	358.10
518.41	339.38
518.58	355.76
518.75	308.95
518.93	355.76
519.10	353.42
519.27	315.97
519.45	339.38
519.62	322.99
519.79	461.09
519.96	348.74
520.14	379.17
520.31	327.68
520.48	304.27
520.65	388.53
520.83	334.70
521.00	390.87
521.17	292.57
521.34	318.31
521.52	390.87
521.69	358.10
521.86	287.89
522.03	266.82
522.20	325.33
522.38	257.46
522.55	330.02
522.72	299.59
522.89	360.44
523.07	463.43
523.24	367.46
523.41	341.72
523.58	311.29
523.75	290.23
523.92	322.99
524.10	301.93
524.27	334.70
524.44	365.12
524.61	325.33
524.78	285.55
524.96	337.04
525.13	245.76
525.30	409.59
525.47	297.25
525.64	351.08
525.81	388.53
525.98	344.06
526.16	311.29
526.33	376.83
526.50	290.23
526.67	365.12
526.84	327.68
527.01	320.65
527.18	477.47
527.36	425.98
527.53	456.40
527.70	500.87
527.87	311.29
528.04	463.43
528.21	358.10
528.38	353.42
528.55	423.64
528.72	451.72
528.89	444.70
529.07	379.17
529.24	402.57
529.41	414.27
529.58	433.00
529.75	416.62
529.92	454.06
530.09	425.98
530.26	433.00
530.43	425.98
530.60	470.45
530.77	395.55
530.94	465.77
531.11	425.98
531.28	442.36
531.46	503.22
531.63	496.19
531.80	559.39
531.97	594.50
532.14	753.65
532.31	699.82
532.48	814.51
532.65	898.77
532.82	1046.22
532.99	1207.72
533.16	1320.06
533.33	1338.79
533.50	1369.21
533.67	1107.07
533.84	1076.65
534.01	917.49
534.18	837.91
534.35	837.91
534.52	884.72
534.69	929.19
534.86	957.28
535.03	992.39
535.20	917.49
535.37	1001.75
535.54	1011.11
535.71	1139.84
535.88	1214.74
536.05	1181.97
536.22	1376.24
536.38	1364.53
536.55	1547.09
536.72	1643.06
536.89	1921.58
537.06	2076.06
537.23	2244.57
537.40	2525.44
537.57	2766.51
537.74	2944.39
537.91	3000.57
538.08	3005.25
538.25	3026.31
538.42	3049.72
538.59	3225.26
538.75	3241.64
538.92	3332.92
539.09	3929.76
539.26	4142.75
539.43	4678.73
539.60	5284.93
539.77	5879.43
539.94	6537.12
540.11	7335.24
540.28	7845.48
540.44	8814.46
540.61	9549.39
540.78	11157.33
540.95	13310.63
541.12	15908.62
541.29	17446.35
541.46	18604.92
541.62	18412.99
541.79	17652.32
541.96	16086.50
542.13	15211.14
542.30	13921.51
542.47	13275.52
542.63	12287.81
542.80	12236.32
542.97	12107.59
543.14	12226.96
543.31	12058.44
543.48	12304.20
543.64	12210.57
543.81	12402.50
543.98	12343.99
544.15	12599.10
544.32	12664.64
544.48	12568.68
544.65	12353.35
544.82	12081.85
544.99	12163.76
545.16	12615.49
545.32	13483.83
545.49	23367.91
545.66	43379.49
545.83	50096.83
546.00	41287.05
546.16	29041.37
546.33	21216.96
546.50	15974.16
546.67	12772.30
546.83	11037.97
547.00	10995.84
547.17	10043.24
547.34	9687.48
547.50	9331.72
547.67	8985.32
547.84	8816.80
548.00	8575.72
548.17	8138.04
548.34	7779.94
548.51	7581.00
548.67	7269.70
548.84	6827.34
549.01	6523.07
549.18	5975.39
549.34	5909.85
549.51	5626.65
549.68	5617.29
549.84	5474.51
550.01	5109.39
550.18	4933.85
550.34	4882.36
550.51	4416.59
550.68	4219.99
550.84	4018.70
551.01	3822.09
551.18	3590.38
551.34	3473.36
551.51	3236.96
551.68	3084.83
551.84	3091.85
552.01	2951.42
552.18	2855.45
552.34	2740.77
552.51	2626.08
552.68	2499.69
552.84	2385.01
553.01	2382.67
553.18	2272.66
553.34	2218.83
553.51	2167.34
553.67	2022.22
553.84	2026.90
554.01	1914.56
554.17	1748.38
554.34	1605.61
554.51	1607.95
554.67	1521.35
554.84	1394.96
555.00	1320.06
555.17	1268.57
555.33	1306.02
555.50	1263.89
555.67	1233.46
555.83	1132.82
556.00	1046.22
556.16	1226.44
556.33	1069.62
556.50	940.90
556.66	964.30
556.83	961.96
556.99	924.51
557.16	952.60
557.32	826.21
557.49	863.66
557.65	800.46
557.82	753.65
557.98	795.78
558.15	741.95
558.32	795.78
558.48	709.18
558.65	692.80
558.81	718.54
558.98	695.14
559.14	641.31
559.31	606.20
559.47	636.63
559.64	660.03
559.80	561.73
559.97	610.88
560.13	613.22
560.30	631.94
560.46	601.52
560.63	617.90
560.79	578.11
560.96	540.66
561.12	482.15
561.29	697.48
561.45	461.09
561.61	645.99
561.78	636.63
561.94	599.18
562.11	645.99
562.27	589.82
562.44	655.35
562.60	662.37
562.77	585.13
562.93	521.94
563.10	582.79
563.26	528.96
563.42	568.75
563.59	587.47
563.75	594.50
563.92	671.73
564.08	538.32
564.24	512.58
564.41	655.35
564.57	461.09
564.74	498.53
564.90	540.66
565.07	550.03
565.23	514.92
565.39	479.81
565.56	512.58
565.72	456.40
565.88	486.83
566.05	498.53
566.21	425.98
566.38	528.96
566.54	447.04
566.70	461.09
566.87	500.87
567.03	554.71
567.19	468.11
567.36	496.19
567.52	503.22
567.68	564.07
567.85	571.09
568.01	514.92
568.17	552.37
568.34	507.90
568.50	500.87
568.66	521.94
568.83	568.75
568.99	510.24
569.15	528.96
569.32	489.17
569.48	500.87
569.64	468.11
569.81	440.02
569.97	519.60
570.13	423.64
570.30	414.27
570.46	475.13
570.62	447.04
570.78	428.32
570.95	367.46
571.11	444.70
571.27	437.68
571.43	477.47
571.60	388.53
571.76	327.68
571.92	409.59
572.09	407.25
572.25	369.80
572.41	362.78
572.57	393.21
572.74	451.72
572.90	393.21
573.06	409.59
573.22	358.10
573.38	498.53
573.55	463.43
573.71	411.93
573.87	447.04
574.03	390.87
574.20	374.49
574.36	425.98
574.52	491.51
574.68	519.60
574.84	545.34
575.01	521.94
575.17	535.98
575.33	564.07
575.49	552.37
575.65	674.07
575.82	601.52
575.98	760.67
576.14	798.12
576.30	1647.74
576.46	5163.22
576.62	8248.05
576.79	8222.30
576.95	6052.63
577.11	4018.70
577.27	2750.13
577.43	1898.17
577.59	1310.70
577.75	1020.47
577.92	1001.75
578.08	952.60
578.24	966.64
578.40	1879.45
578.56	4999.38
578.72	7728.45
578.88	7740.15
579.04	5858.36
579.21	3976.57
579.37	2986.52
579.53	2408.41
579.69	2244.57
579.85	2771.19
580.01	3384.41
580.17	3026.31
580.33	2689.28
580.49	2289.04
580.65	2043.29
580.82	1937.96
580.98	1853.70
581.14	1961.37
581.30	1954.35
581.46	2094.78
581.62	2265.64
581.78	2396.71
581.94	2705.66
582.10	2789.92
582.26	2883.54
582.42	2958.44
582.58	3038.02
582.74	3206.53
582.90	3152.70
583.06	3204.19
583.22	3197.17
583.38	3187.81
583.54	3138.66
583.70	3068.44
583.86	3047.38
584.02	3194.83
584.18	2986.52
584.34	2899.92
584.50	2860.13
584.66	2913.97
584.82	2787.58
584.98	2794.60
585.14	2799.28
585.30	2761.83
585.46	2647.15
585.62	2607.36
585.78	2647.15
585.94	2691.62
586.10	2757.15
586.26	3002.91
586.42	3286.11
586.58	3894.65
586.74	4596.81
586.90	5633.67
587.06	5989.43
587.22	5872.40
587.38	5280.25
587.54	4648.30
587.70	4018.70
587.86	3302.50
588.02	2827.37
588.18	2567.57
588.34	2221.17
588.49	2136.91
588.65	1921.58
588.81	1858.39
588.97	1774.13
589.13	1926.26
589.29	1820.94
589.45	1863.07
589.61	1757.74
589.77	1914.56
589.93	1727.32
590.08	1893.49
590.24	1970.73
590.40	1956.69
590.56	2024.56
590.72	1963.71
590.88	2176.70
591.04	2249.25
591.20	2141.59
591.35	2366.28
591.51	2539.48
591.67	2450.54
591.83	2705.66
591.99	2890.56
592.15	3045.04
592.31	3318.88
592.46	3623.15
592.62	4007.00
592.78	4234.03
592.94	4355.74
593.10	4222.33
593.26	4102.96
593.41	3740.18
593.57	3370.37
593.73	3012.27
593.89	2637.78
594.05	2363.94
594.20	2157.97
594.36	2036.27
594.52	1811.57
594.68	1715.61
594.84	1750.72
594.99	1708.59
595.15	1671.14
595.31	1556.46
595.47	1549.43
595.62	1654.76
595.78	1544.75
595.94	1582.20
596.10	1631.35
596.25	1603.27
596.41	1486.24
596.57	1523.69
596.73	1643.06
596.88	1570.50
597.04	1481.56
597.20	1575.18
597.36	1600.93
597.51	1530.71
597.67	1668.80
597.83	1865.41
597.99	1970.73
598.14	2106.48
598.30	2099.46
598.46	2195.42
598.61	2462.24
598.77	2525.44
598.93	2553.52
599.09	2579.27
599.24	2619.06
599.40	2670.55
599.56	2595.65
599.71	2469.27
599.87	2340.54
600.03	2225.85
600.18	2003.50
600.34	1961.37
600.50	1879.45
600.65	1652.42
600.81	1659.44
600.97	1605.61
601.12	1526.03
601.28	1350.49
601.44	1303.68
601.59	1282.61
601.75	1254.53
601.91	1235.80
602.06	1170.27
602.22	1153.88
602.37	1090.69
602.53	999.41
602.69	1109.41
602.84	1081.33
603.00	1107.07
603.16	1055.58
603.31	1181.97
603.47	1104.73
603.62	1158.57
603.78	1142.18
603.94	1086.01
604.09	1200.69
604.25	1266.23
604.40	1226.44
604.56	1299.00
604.71	1287.29
604.87	1308.36
605.03	1263.89
605.18	1416.02
605.34	1380.92
605.49	1322.40
605.65	1434.75
605.80	1331.76
605.96	1533.05
606.12	1671.14
