SpectraSuite Data File
++++++++++++++++++++++++++++++++++++
Date: Fri Oct 04 11:42:13 GMT-05:00 2013
User: price-jones
Dark Spectrum Present: No
Reference Spectrum Present: No
Number of Sampled Component Spectra: 1
Spectrometers: USB2+H05261
Integration Time (usec): 100000 (USB2+H05261)
Spectra Averaged: 1 (USB2+H05261)
Boxcar Smoothing: 0 (USB2+H05261)
Correct for Electrical Dark: No (USB2+H05261)
Strobe/Lamp Enabled: No (USB2+H05261)
Correct for Detector Non-linearity: No (USB2+H05261)
Correct for Stray Light: No (USB2+H05261)
Number of Pixels in Processed Spectrum: 2048
>>>>>Begin Processed Spectral Data<<<<<
365.73	72.56
365.92	72.56
366.12	72.56
366.32	0.00
366.52	0.00
366.72	0.00
366.91	0.00
367.11	0.00
367.31	0.00
367.51	0.00
367.70	0.00
367.90	0.00
368.10	0.00
368.30	0.00
368.49	0.00
368.69	0.00
368.89	0.00
369.09	0.00
369.28	0.00
369.48	0.00
369.68	0.00
369.87	0.00
370.07	0.00
370.27	0.00
370.47	0.00
370.66	0.00
370.86	0.00
371.06	63.19
371.25	121.71
371.45	84.26
371.65	105.32
371.84	30.43
372.04	65.54
372.24	95.96
372.44	117.03
372.63	177.88
372.83	175.54
373.03	121.71
373.22	105.32
373.42	60.85
373.62	65.54
373.81	105.32
374.01	198.95
374.21	102.98
374.40	140.43
374.60	147.45
374.79	63.19
374.99	110.01
375.19	16.38
375.38	149.79
375.58	58.51
375.78	154.48
375.97	175.54
376.17	196.60
376.37	131.07
376.56	154.48
376.76	140.43
376.95	180.22
377.15	145.11
377.35	117.03
377.54	131.07
377.74	138.09
377.93	133.41
378.13	105.32
378.33	145.11
378.52	131.07
378.72	145.11
378.91	117.03
379.11	42.13
379.31	30.43
379.50	53.83
379.70	88.94
379.89	81.92
380.09	53.83
380.28	161.50
380.48	117.03
380.68	88.94
380.87	114.69
381.07	105.32
381.26	159.16
381.46	145.11
381.65	173.20
381.85	145.11
382.04	117.03
382.24	98.30
382.43	102.98
382.63	86.60
382.83	77.24
383.02	81.92
383.22	124.05
383.41	65.54
383.61	154.48
383.80	107.66
384.00	110.01
384.19	42.13
384.39	119.37
384.58	86.60
384.78	124.05
384.97	114.69
385.17	102.98
385.36	119.37
385.56	201.29
385.75	51.49
385.95	126.39
386.14	147.45
386.34	170.86
386.53	107.66
386.72	102.98
386.92	154.48
387.11	91.28
387.31	114.69
387.50	110.01
387.70	189.58
387.89	102.98
388.09	86.60
388.28	114.69
388.48	128.73
388.67	124.05
388.86	74.90
389.06	77.24
389.25	140.43
389.45	126.39
389.64	88.94
389.84	107.66
390.03	98.30
390.22	112.35
390.42	86.60
390.61	121.71
390.81	72.56
391.00	145.11
391.19	88.94
391.39	81.92
391.58	161.50
391.78	46.81
391.97	42.13
392.16	114.69
392.36	131.07
392.55	175.54
392.75	110.01
392.94	112.35
393.13	177.88
393.33	131.07
393.52	95.96
393.71	100.64
393.91	131.07
394.10	79.58
394.29	128.73
394.49	95.96
394.68	67.88
394.88	79.58
395.07	119.37
395.26	133.41
395.46	107.66
395.65	154.48
395.84	114.69
396.04	217.67
396.23	114.69
396.42	128.73
396.62	121.71
396.81	86.60
397.00	133.41
397.19	140.43
397.39	74.90
397.58	154.48
397.77	18.72
397.97	65.54
398.16	51.49
398.35	60.85
398.55	117.03
398.74	53.83
398.93	79.58
399.12	112.35
399.32	133.41
399.51	121.71
399.70	84.26
399.90	138.09
400.09	74.90
400.28	163.84
400.47	154.48
400.67	152.13
400.86	65.54
401.05	121.71
401.24	124.05
401.44	77.24
401.63	208.31
401.82	140.43
402.01	119.37
402.21	42.13
402.40	119.37
402.59	56.17
402.78	30.43
402.97	175.54
403.17	100.64
403.36	145.11
403.55	95.96
403.74	187.24
403.93	173.20
404.13	285.55
404.32	297.25
404.51	234.05
404.70	210.65
404.89	156.82
405.09	212.99
405.28	128.73
405.47	112.35
405.66	112.35
405.85	140.43
406.05	124.05
406.24	117.03
406.43	86.60
406.62	60.85
406.81	163.84
407.00	194.26
407.20	163.84
407.39	126.39
407.58	112.35
407.77	56.17
407.96	117.03
408.15	173.20
408.34	126.39
408.54	156.82
408.73	152.13
408.92	105.32
409.11	189.58
409.30	198.95
409.49	119.37
409.68	145.11
409.87	105.32
410.07	93.62
410.26	114.69
410.45	63.19
410.64	128.73
410.83	145.11
411.02	93.62
411.21	196.60
411.40	152.13
411.59	119.37
411.78	180.22
411.98	124.05
412.17	191.92
412.36	86.60
412.55	145.11
412.74	133.41
412.93	117.03
413.12	149.79
413.31	159.16
413.50	140.43
413.69	135.75
413.88	161.50
414.07	117.03
414.26	110.01
414.45	72.56
414.64	184.90
414.83	170.86
415.02	142.77
415.22	128.73
415.41	128.73
415.60	128.73
415.79	131.07
415.98	163.84
416.17	166.18
416.36	100.64
416.55	154.48
416.74	105.32
416.93	201.29
417.12	133.41
417.31	131.07
417.50	117.03
417.69	184.90
417.88	173.20
418.07	100.64
418.26	117.03
418.45	135.75
418.64	133.41
418.83	203.63
419.02	161.50
419.21	131.07
419.39	152.13
419.58	110.01
419.77	119.37
419.96	236.39
420.15	105.32
420.34	154.48
420.53	124.05
420.72	149.79
420.91	119.37
421.10	224.69
421.29	124.05
421.48	194.26
421.67	173.20
421.86	145.11
422.05	121.71
422.24	107.66
422.43	110.01
422.61	105.32
422.80	91.28
422.99	102.98
423.18	149.79
423.37	208.31
423.56	175.54
423.75	154.48
423.94	140.43
424.13	189.58
424.32	72.56
424.50	156.82
424.69	215.33
424.88	159.16
425.07	159.16
425.26	168.52
425.45	210.65
425.64	95.96
425.83	175.54
426.01	191.92
426.20	187.24
426.39	166.18
426.58	98.30
426.77	154.48
426.96	168.52
427.15	114.69
427.33	126.39
427.52	227.03
427.71	119.37
427.90	177.88
428.09	184.90
428.28	142.77
428.46	124.05
428.65	163.84
428.84	117.03
429.03	231.71
429.22	88.94
429.40	191.92
429.59	112.35
429.78	203.63
429.97	121.71
430.16	138.09
430.34	149.79
430.53	138.09
430.72	180.22
430.91	191.92
431.10	147.45
431.28	212.99
431.47	177.88
431.66	187.24
431.85	131.07
432.03	194.26
432.22	245.76
432.41	117.03
432.60	180.22
432.79	149.79
432.97	95.96
433.16	159.16
433.35	205.97
433.54	163.84
433.72	187.24
433.91	154.48
434.10	161.50
434.28	175.54
434.47	166.18
434.66	191.92
434.85	203.63
435.03	318.31
435.22	678.76
435.41	1219.42
435.59	1369.21
435.78	954.94
435.97	528.96
436.16	339.38
436.34	166.18
436.53	191.92
436.72	182.56
436.90	238.73
437.09	168.52
437.28	128.73
437.46	131.07
437.65	198.95
437.84	119.37
438.02	168.52
438.21	198.95
438.40	166.18
438.58	161.50
438.77	175.54
438.96	166.18
439.14	170.86
439.33	182.56
439.52	173.20
439.70	166.18
439.89	177.88
440.08	220.01
440.26	121.71
440.45	163.84
440.63	145.11
440.82	177.88
441.01	222.35
441.19	187.24
441.38	175.54
441.57	161.50
441.75	184.90
441.94	255.12
442.12	208.31
442.31	194.26
442.50	126.39
442.68	126.39
442.87	259.80
443.05	159.16
443.24	168.52
443.43	196.60
443.61	259.80
443.80	147.45
443.98	152.13
444.17	210.65
444.35	208.31
444.54	110.01
444.73	210.65
444.91	159.16
445.10	140.43
445.28	117.03
445.47	152.13
445.65	182.56
445.84	191.92
446.02	138.09
446.21	140.43
446.39	152.13
446.58	161.50
446.77	156.82
446.95	222.35
447.14	168.52
447.32	138.09
447.51	177.88
447.69	175.54
447.88	180.22
448.06	236.39
448.25	198.95
448.43	112.35
448.62	173.20
448.80	175.54
448.99	126.39
449.17	154.48
449.36	170.86
449.54	145.11
449.73	133.41
449.91	238.73
450.10	170.86
450.28	252.78
450.46	231.71
450.65	201.29
450.83	210.65
451.02	133.41
451.20	203.63
451.39	102.98
451.57	234.05
451.76	168.52
451.94	166.18
452.13	163.84
452.31	220.01
452.49	159.16
452.68	175.54
452.86	196.60
453.05	250.44
453.23	156.82
453.42	166.18
453.60	140.43
453.78	140.43
453.97	168.52
454.15	224.69
454.34	154.48
454.52	121.71
454.70	187.24
454.89	149.79
455.07	145.11
455.26	269.16
455.44	196.60
455.62	145.11
455.81	189.58
455.99	161.50
456.17	203.63
456.36	227.03
456.54	229.37
456.73	140.43
456.91	140.43
457.09	154.48
457.28	252.78
457.46	177.88
457.64	163.84
457.83	257.46
458.01	163.84
458.19	124.05
458.38	191.92
458.56	128.73
458.74	102.98
458.93	184.90
459.11	238.73
459.29	187.24
459.48	166.18
459.66	259.80
459.84	175.54
460.03	278.52
460.21	191.92
460.39	107.66
460.57	189.58
460.76	133.41
460.94	175.54
461.12	180.22
461.31	243.42
461.49	149.79
461.67	170.86
461.85	196.60
462.04	198.95
462.22	330.02
462.40	241.08
462.59	269.16
462.77	149.79
462.95	215.33
463.13	217.67
463.32	180.22
463.50	135.75
463.68	163.84
463.86	175.54
464.05	215.33
464.23	208.31
464.41	133.41
464.59	175.54
464.78	187.24
464.96	166.18
465.14	149.79
465.32	222.35
465.50	212.99
465.69	187.24
465.87	131.07
466.05	248.10
466.23	107.66
466.41	187.24
466.60	177.88
466.78	145.11
466.96	180.22
467.14	159.16
467.32	278.52
467.51	201.29
467.69	187.24
467.87	189.58
468.05	201.29
468.23	210.65
468.41	154.48
468.60	189.58
468.78	175.54
468.96	208.31
469.14	231.71
469.32	175.54
469.50	147.45
469.69	236.39
469.87	159.16
470.05	149.79
470.23	208.31
470.41	159.16
470.59	180.22
470.77	194.26
470.95	182.56
471.14	250.44
471.32	198.95
471.50	180.22
471.68	177.88
471.86	154.48
472.04	105.32
472.22	252.78
472.40	163.84
472.58	238.73
472.77	224.69
472.95	173.20
473.13	229.37
473.31	184.90
473.49	159.16
473.67	135.75
473.85	102.98
474.03	217.67
474.21	138.09
474.39	156.82
474.57	259.80
474.75	166.18
474.93	191.92
475.12	189.58
475.30	271.50
475.48	177.88
475.66	159.16
475.84	229.37
476.02	234.05
476.20	198.95
476.38	180.22
476.56	227.03
476.74	184.90
476.92	168.52
477.10	208.31
477.28	215.33
477.46	128.73
477.64	189.58
477.82	196.60
478.00	166.18
478.18	189.58
478.36	196.60
478.54	184.90
478.72	212.99
478.90	170.86
479.08	224.69
479.26	166.18
479.44	156.82
479.62	255.12
479.80	231.71
479.98	145.11
480.16	126.39
480.34	180.22
480.52	170.86
480.70	241.08
480.88	227.03
481.06	187.24
481.24	210.65
481.41	231.71
481.59	264.48
481.77	205.97
481.95	238.73
482.13	280.86
482.31	273.84
482.49	276.18
482.67	250.44
482.85	259.80
483.03	238.73
483.21	259.80
483.39	264.48
483.57	189.58
483.74	280.86
483.92	271.50
484.10	194.26
484.28	271.50
484.46	297.25
484.64	231.71
484.82	337.04
485.00	271.50
485.18	330.02
485.35	262.14
485.53	330.02
485.71	250.44
485.89	276.18
486.07	231.71
486.25	376.83
486.43	374.49
486.61	322.99
486.78	341.72
486.96	294.91
487.14	273.84
487.32	276.18
487.50	390.87
487.68	383.85
487.85	327.68
488.03	294.91
488.21	320.65
488.39	334.70
488.57	332.36
488.75	236.39
488.92	519.60
489.10	311.29
489.28	330.02
489.46	248.10
489.64	273.84
489.81	313.63
489.99	327.68
490.17	292.57
490.35	418.96
490.53	372.15
490.70	287.89
490.88	294.91
491.06	341.72
491.24	285.55
491.41	341.72
491.59	287.89
491.77	241.08
491.95	304.27
492.13	283.20
492.30	320.65
492.48	308.95
492.66	273.84
492.84	322.99
493.01	315.97
493.19	325.33
493.37	320.65
493.54	322.99
493.72	308.95
493.90	234.05
494.08	269.16
494.25	257.46
494.43	252.78
494.61	287.89
494.79	301.93
494.96	266.82
495.14	337.04
495.32	276.18
495.49	301.93
495.67	269.16
495.85	280.86
496.02	337.04
496.20	322.99
496.38	266.82
496.55	280.86
496.73	299.59
496.91	280.86
497.09	320.65
497.26	245.76
497.44	278.52
497.62	297.25
497.79	280.86
497.97	311.29
498.14	304.27
498.32	341.72
498.50	294.91
498.67	241.08
498.85	358.10
499.03	243.42
499.20	341.72
499.38	276.18
499.56	273.84
499.73	299.59
499.91	341.72
500.08	287.89
500.26	311.29
500.44	266.82
500.61	266.82
500.79	194.26
500.97	290.23
501.14	243.42
501.32	210.65
501.49	339.38
501.67	229.37
501.84	283.20
502.02	236.39
502.20	299.59
502.37	322.99
502.55	285.55
502.72	255.12
502.90	262.14
503.07	294.91
503.25	280.86
503.43	205.97
503.60	271.50
503.78	245.76
503.95	280.86
504.13	210.65
504.30	264.48
504.48	283.20
504.65	292.57
504.83	306.61
505.01	229.37
505.18	238.73
505.36	231.71
505.53	248.10
505.71	180.22
505.88	292.57
506.06	229.37
506.23	259.80
506.41	306.61
506.58	238.73
506.76	135.75
506.93	238.73
507.11	175.54
507.28	227.03
507.46	273.84
507.63	276.18
507.81	187.24
507.98	241.08
508.16	241.08
508.33	220.01
508.50	351.08
508.68	227.03
508.85	266.82
509.03	215.33
509.20	187.24
509.38	238.73
509.55	311.29
509.73	297.25
509.90	252.78
510.08	196.60
510.25	231.71
510.42	238.73
510.60	222.35
510.77	210.65
510.95	227.03
511.12	278.52
511.30	266.82
511.47	241.08
511.64	358.10
511.82	220.01
511.99	266.82
512.17	266.82
512.34	278.52
512.51	266.82
512.69	196.60
512.86	220.01
513.04	241.08
513.21	227.03
513.38	315.97
513.56	220.01
513.73	276.18
513.90	196.60
514.08	252.78
514.25	297.25
514.43	262.14
514.60	184.90
514.77	187.24
514.95	227.03
515.12	198.95
515.29	297.25
515.47	266.82
515.64	273.84
515.81	287.89
515.99	313.63
516.16	250.44
516.33	276.18
516.51	168.52
516.68	184.90
516.85	203.63
517.03	189.58
517.20	304.27
517.37	212.99
517.54	215.33
517.72	212.99
517.89	212.99
518.06	227.03
518.24	215.33
518.41	217.67
518.58	184.90
518.75	292.57
518.93	189.58
519.10	278.52
519.27	276.18
519.45	220.01
519.62	327.68
519.79	252.78
519.96	210.65
520.14	278.52
520.31	248.10
520.48	224.69
520.65	227.03
520.83	276.18
521.00	297.25
521.17	250.44
521.34	198.95
521.52	280.86
521.69	262.14
521.86	236.39
522.03	241.08
522.20	271.50
522.38	264.48
522.55	269.16
522.72	215.33
522.89	290.23
523.07	374.49
523.24	241.08
523.41	259.80
523.58	325.33
523.75	187.24
523.92	287.89
524.10	236.39
524.27	264.48
524.44	276.18
524.61	259.80
524.78	217.67
524.96	243.42
525.13	166.18
525.30	304.27
525.47	276.18
525.64	259.80
525.81	255.12
525.98	245.76
526.16	264.48
526.33	236.39
526.50	241.08
526.67	273.84
526.84	238.73
527.01	262.14
527.18	243.42
527.36	262.14
527.53	266.82
527.70	283.20
527.87	271.50
528.04	252.78
528.21	177.88
528.38	325.33
528.55	236.39
528.72	241.08
528.89	297.25
529.07	259.80
529.24	238.73
529.41	358.10
529.58	313.63
529.75	234.05
529.92	376.83
530.09	278.52
530.26	334.70
530.43	236.39
530.60	334.70
530.77	259.80
530.94	348.74
531.11	299.59
531.28	238.73
531.46	266.82
531.63	262.14
531.80	255.12
531.97	294.91
532.14	322.99
532.31	287.89
532.48	280.86
532.65	306.61
532.82	348.74
532.99	355.76
533.16	325.33
533.33	334.70
533.50	280.86
533.67	280.86
533.84	266.82
534.01	276.18
534.18	290.23
534.35	304.27
534.52	269.16
534.69	346.40
534.86	280.86
535.03	255.12
535.20	290.23
535.37	337.04
535.54	344.06
535.71	259.80
535.88	297.25
536.05	318.31
536.22	259.80
536.38	351.08
536.55	341.72
536.72	353.42
536.89	320.65
537.06	365.12
537.23	362.78
537.40	428.32
537.57	442.36
537.74	447.04
537.91	409.59
538.08	550.03
538.25	402.57
538.42	421.30
538.59	463.43
538.75	456.40
538.92	519.60
539.09	566.41
539.26	606.20
539.43	547.69
539.60	573.43
539.77	589.82
539.94	688.12
540.11	763.01
540.28	786.42
540.44	837.91
540.61	765.36
540.78	994.73
540.95	1025.15
541.12	1256.87
541.29	1231.12
541.46	1474.54
541.62	1380.92
541.79	1341.13
541.96	1434.75
542.13	1270.91
542.30	1364.53
542.47	1284.95
542.63	1086.01
542.80	1160.91
542.97	1181.97
543.14	1167.93
543.31	1240.48
543.48	1165.59
543.64	1158.57
543.81	1132.82
543.98	1160.91
544.15	1172.61
544.32	1165.59
544.48	1217.08
544.65	1097.71
544.82	1146.86
544.99	1165.59
545.16	1039.20
545.32	1214.74
545.49	1834.98
545.66	2637.78
545.83	3428.88
546.00	2995.89
546.16	2183.72
546.33	1617.31
546.50	1259.21
546.67	1034.52
546.83	1039.20
547.00	889.40
547.17	924.51
547.34	805.14
547.50	901.11
547.67	788.76
547.84	744.29
548.00	692.80
548.17	767.70
548.34	748.97
548.51	842.59
548.67	786.42
548.84	706.84
549.01	681.10
549.18	744.29
549.34	648.33
549.51	547.69
549.68	664.71
549.84	683.44
550.01	573.43
550.18	713.86
550.34	629.60
550.51	545.34
550.68	552.37
550.84	528.96
551.01	599.18
551.18	484.49
551.34	519.60
551.51	472.79
551.68	379.17
551.84	409.59
552.01	435.34
552.18	535.98
552.34	428.32
552.51	386.19
552.68	458.74
552.84	407.25
553.01	409.59
553.18	482.15
553.34	372.15
553.51	404.91
553.67	423.64
553.84	402.57
554.01	341.72
554.17	327.68
554.34	318.31
554.51	360.44
554.67	374.49
554.84	379.17
555.00	355.76
555.17	337.04
555.33	379.17
555.50	320.65
555.67	280.86
555.83	365.12
556.00	372.15
556.16	510.24
556.33	318.31
556.50	290.23
556.66	287.89
556.83	294.91
556.99	318.31
557.16	301.93
557.32	341.72
557.49	297.25
557.65	255.12
557.82	262.14
557.98	278.52
558.15	241.08
558.32	217.67
558.48	304.27
558.65	304.27
558.81	278.52
558.98	322.99
559.14	311.29
559.31	269.16
559.47	327.68
559.64	269.16
559.80	250.44
559.97	266.82
560.13	315.97
560.30	278.52
560.46	234.05
560.63	283.20
560.79	287.89
560.96	318.31
561.12	283.20
561.29	236.39
561.45	292.57
561.61	332.36
561.78	374.49
561.94	255.12
562.11	287.89
562.27	208.31
562.44	304.27
562.60	255.12
562.77	339.38
562.93	395.55
563.10	294.91
563.26	241.08
563.42	266.82
563.59	245.76
563.75	220.01
563.92	311.29
564.08	304.27
564.24	297.25
564.41	299.59
564.57	332.36
564.74	269.16
564.90	271.50
565.07	318.31
565.23	313.63
565.39	245.76
565.56	301.93
565.72	308.95
565.88	255.12
566.05	198.95
566.21	201.29
566.38	231.71
566.54	243.42
566.70	220.01
566.87	273.84
567.03	182.56
567.19	294.91
567.36	238.73
567.52	217.67
567.68	325.33
567.85	355.76
568.01	205.97
568.17	238.73
568.34	264.48
568.50	348.74
568.66	203.63
568.83	360.44
568.99	266.82
569.15	308.95
569.32	271.50
569.48	215.33
569.64	236.39
569.81	205.97
569.97	271.50
570.13	269.16
570.30	255.12
570.46	273.84
570.62	194.26
570.78	163.84
570.95	248.10
571.11	264.48
571.27	337.04
571.43	234.05
571.60	252.78
571.76	215.33
571.92	243.42
572.09	311.29
572.25	262.14
572.41	203.63
572.57	245.76
572.74	259.80
572.90	215.33
573.06	287.89
573.22	252.78
573.38	273.84
573.55	344.06
573.71	248.10
573.87	222.35
574.03	229.37
574.20	156.82
574.36	205.97
574.52	238.73
574.68	241.08
574.84	220.01
575.01	318.31
575.17	262.14
575.33	280.86
575.49	276.18
575.65	245.76
575.82	294.91
575.98	241.08
576.14	224.69
576.30	308.95
576.46	582.79
576.62	802.80
576.79	758.33
576.95	636.63
577.11	440.02
577.27	334.70
577.43	402.57
577.59	379.17
577.75	339.38
577.92	327.68
578.08	259.80
578.24	266.82
578.40	365.12
578.56	500.87
578.72	697.48
578.88	809.83
579.04	634.29
579.21	554.71
579.37	479.81
579.53	393.21
579.69	390.87
579.85	482.15
580.01	533.64
580.17	435.34
580.33	367.46
580.49	390.87
580.65	418.96
580.82	416.62
580.98	386.19
581.14	355.76
581.30	388.53
581.46	365.12
581.62	407.25
581.78	397.89
581.94	433.00
582.10	472.79
582.26	393.21
582.42	367.46
582.58	498.53
582.74	465.77
582.90	510.24
583.06	510.24
583.22	395.55
583.38	500.87
583.54	482.15
583.70	505.56
583.86	414.27
584.02	437.68
584.18	430.66
584.34	454.06
584.50	489.17
584.66	465.77
584.82	468.11
584.98	418.96
585.14	435.34
585.30	447.04
585.46	510.24
585.62	477.47
585.78	402.57
585.94	421.30
586.10	444.70
586.26	411.93
586.42	505.56
586.58	393.21
586.74	503.22
586.90	613.22
587.06	711.52
587.22	767.70
587.38	589.82
587.54	545.34
587.70	524.28
587.86	500.87
588.02	379.17
588.18	425.98
588.34	332.36
588.49	386.19
588.65	334.70
588.81	306.61
588.97	339.38
589.13	358.10
589.29	407.25
589.45	397.89
589.61	339.38
589.77	346.40
589.93	327.68
590.08	372.15
590.24	325.33
590.40	327.68
590.56	407.25
590.72	395.55
590.88	313.63
591.04	407.25
591.20	393.21
591.35	400.23
591.51	409.59
591.67	369.80
591.83	327.68
591.99	418.96
592.15	414.27
592.31	463.43
592.46	386.19
592.62	564.07
592.78	496.19
592.94	507.90
593.10	521.94
593.26	423.64
593.41	496.19
593.57	461.09
593.73	353.42
593.89	320.65
594.05	355.76
594.20	365.12
594.36	308.95
594.52	315.97
594.68	285.55
594.84	383.85
594.99	313.63
595.15	355.76
595.31	313.63
595.47	365.12
595.62	278.52
595.78	346.40
595.94	360.44
596.10	285.55
596.25	346.40
596.41	360.44
596.57	304.27
596.73	299.59
596.88	374.49
597.04	348.74
597.20	271.50
597.36	351.08
597.51	252.78
597.67	259.80
597.83	308.95
597.99	425.98
598.14	358.10
598.30	351.08
598.46	278.52
598.61	332.36
598.77	437.68
598.93	337.04
599.09	318.31
599.24	402.57
599.40	458.74
599.56	388.53
599.71	430.66
599.87	397.89
600.03	367.46
600.18	400.23
600.34	358.10
600.50	362.78
600.65	236.39
600.81	346.40
600.97	262.14
601.12	327.68
601.28	276.18
601.44	360.44
601.59	224.69
601.75	400.23
601.91	262.14
602.06	308.95
602.22	362.78
602.37	304.27
602.53	231.71
602.69	325.33
602.84	198.95
603.00	280.86
603.16	259.80
603.31	269.16
603.47	287.89
603.62	287.89
603.78	332.36
603.94	322.99
604.09	301.93
604.25	344.06
604.40	252.78
604.56	318.31
604.71	339.38
604.87	339.38
605.03	278.52
605.18	315.97
605.34	330.02
605.49	337.04
605.65	278.52
605.80	297.25
605.96	299.59
606.12	386.19
606.27	330.02
606.43	315.97
606.58	332.36
606.74	301.93
606.89	322.99
607.05	372.15
607.20	294.91
607.36	400.23
607.51	341.72
607.67	358.10
607.82	332.36
607.98	475.13
608.13	449.38
608.29	531.30
608.44	454.06
608.60	421.30
608.75	538.32
608.91	559.39
609.06	568.75
609.22	678.76
609.37	587.47
609.53	636.63
609.68	709.18
609.84	805.14
609.99	854.30
610.15	1097.71
610.30	1247.51
610.46	1554.12
610.61	1811.57
610.76	2282.02
610.92	2621.40
