SpectraSuite Data File
++++++++++++++++++++++++++++++++++++
Date: Fri Oct 04 11:41:49 GMT-05:00 2013
User: price-jones
Dark Spectrum Present: No
Reference Spectrum Present: No
Number of Sampled Component Spectra: 1
Spectrometers: USB2+H05261
Integration Time (usec): 100000 (USB2+H05261)
Spectra Averaged: 1 (USB2+H05261)
Boxcar Smoothing: 0 (USB2+H05261)
Correct for Electrical Dark: No (USB2+H05261)
Strobe/Lamp Enabled: No (USB2+H05261)
Correct for Detector Non-linearity: No (USB2+H05261)
Correct for Stray Light: No (USB2+H05261)
Number of Pixels in Processed Spectrum: 2048
>>>>>Begin Processed Spectral Data<<<<<
365.73	74.90
365.92	74.90
366.12	74.90
366.32	0.00
366.52	0.00
366.72	0.00
366.91	0.00
367.11	0.00
367.31	0.00
367.51	0.00
367.70	0.00
367.90	0.00
368.10	0.00
368.30	0.00
368.49	0.00
368.69	0.00
368.89	0.00
369.09	0.00
369.28	0.00
369.48	0.00
369.68	0.00
369.87	0.00
370.07	0.00
370.27	65.54
370.47	18.72
370.66	60.85
370.86	42.13
371.06	147.45
371.25	121.71
371.45	74.90
371.65	114.69
371.84	0.00
372.04	0.00
372.24	86.60
372.44	88.94
372.63	135.75
372.83	72.56
373.03	110.01
373.22	88.94
373.42	88.94
373.62	67.88
373.81	131.07
374.01	161.50
374.21	81.92
374.40	121.71
374.60	128.73
374.79	140.43
374.99	163.84
375.19	117.03
375.38	208.31
375.58	98.30
375.78	131.07
375.97	135.75
376.17	133.41
376.37	140.43
376.56	128.73
376.76	110.01
376.95	110.01
377.15	133.41
377.35	131.07
377.54	161.50
377.74	138.09
377.93	117.03
378.13	170.86
378.33	117.03
378.52	79.58
378.72	145.11
378.91	138.09
379.11	95.96
379.31	135.75
379.50	84.26
379.70	124.05
379.89	98.30
380.09	128.73
380.28	102.98
380.48	77.24
380.68	91.28
380.87	114.69
381.07	161.50
381.26	112.35
381.46	201.29
381.65	133.41
381.85	53.83
382.04	177.88
382.24	161.50
382.43	124.05
382.63	159.16
382.83	117.03
383.02	145.11
383.22	175.54
383.41	124.05
383.61	102.98
383.80	133.41
384.00	110.01
384.19	112.35
384.39	107.66
384.58	175.54
384.78	119.37
384.97	81.92
385.17	124.05
385.36	128.73
385.56	140.43
385.75	100.64
385.95	110.01
386.14	119.37
386.34	119.37
386.53	119.37
386.72	51.49
386.92	140.43
387.11	131.07
387.31	154.48
387.50	131.07
387.70	117.03
387.89	86.60
388.09	124.05
388.28	135.75
388.48	112.35
388.67	107.66
388.86	72.56
389.06	184.90
389.25	114.69
389.45	163.84
389.64	133.41
389.84	177.88
390.03	100.64
390.22	81.92
390.42	168.52
390.61	173.20
390.81	81.92
391.00	86.60
391.19	215.33
391.39	126.39
391.58	74.90
391.78	70.22
391.97	126.39
392.16	51.49
392.36	154.48
392.55	98.30
392.75	105.32
392.94	79.58
393.13	173.20
393.33	91.28
393.52	86.60
393.71	166.18
393.91	152.13
394.10	91.28
394.29	79.58
394.49	128.73
394.68	131.07
394.88	147.45
395.07	133.41
395.26	117.03
395.46	126.39
395.65	177.88
395.84	86.60
396.04	191.92
396.23	117.03
396.42	105.32
396.62	191.92
396.81	147.45
397.00	98.30
397.19	147.45
397.39	98.30
397.58	95.96
397.77	182.56
397.97	215.33
398.16	74.90
398.35	196.60
398.55	163.84
398.74	128.73
398.93	166.18
399.12	145.11
399.32	142.77
399.51	196.60
399.70	93.62
399.90	140.43
400.09	159.16
400.28	166.18
400.47	189.58
400.67	51.49
400.86	187.24
401.05	93.62
401.24	170.86
401.44	198.95
401.63	168.52
401.82	191.92
402.01	149.79
402.21	196.60
402.40	177.88
402.59	182.56
402.78	208.31
402.97	248.10
403.17	271.50
403.36	315.97
403.55	393.21
403.74	833.23
403.93	2253.94
404.13	5738.99
404.32	9444.06
404.51	9165.54
404.70	5685.16
404.89	2267.98
405.09	671.73
405.28	341.72
405.47	215.33
405.66	243.42
405.85	222.35
406.05	285.55
406.24	229.37
406.43	245.76
406.62	220.01
406.81	224.69
407.00	397.89
407.20	674.07
407.39	1224.10
407.58	1357.51
407.77	1008.77
407.96	585.13
408.15	341.72
408.34	201.29
408.54	250.44
408.73	227.03
408.92	255.12
409.11	201.29
409.30	234.05
409.49	173.20
409.68	173.20
409.87	257.46
410.07	224.69
410.26	248.10
410.45	210.65
410.64	224.69
410.83	210.65
411.02	224.69
411.21	175.54
411.40	234.05
411.59	189.58
411.78	306.61
411.98	273.84
412.17	248.10
412.36	196.60
412.55	250.44
412.74	238.73
412.93	217.67
413.12	191.92
413.31	269.16
413.50	224.69
413.69	255.12
413.88	238.73
414.07	224.69
414.26	243.42
414.45	222.35
414.64	313.63
414.83	227.03
415.02	297.25
415.22	311.29
415.41	299.59
415.60	255.12
415.79	234.05
415.98	355.76
416.17	243.42
416.36	287.89
416.55	297.25
416.74	322.99
416.93	287.89
417.12	311.29
417.31	322.99
417.50	257.46
417.69	327.68
417.88	259.80
418.07	353.42
418.26	220.01
418.45	269.16
418.64	264.48
418.83	320.65
419.02	215.33
419.21	292.57
419.39	358.10
419.58	266.82
419.77	327.68
419.96	339.38
420.15	360.44
420.34	320.65
420.53	320.65
420.72	381.51
420.91	299.59
421.10	346.40
421.29	348.74
421.48	341.72
421.67	313.63
421.86	353.42
422.05	348.74
422.24	362.78
422.43	437.68
422.61	290.23
422.80	252.78
422.99	337.04
423.18	294.91
423.37	344.06
423.56	397.89
423.75	271.50
423.94	304.27
424.13	341.72
424.32	311.29
424.50	318.31
424.69	339.38
424.88	290.23
425.07	355.76
425.26	386.19
425.45	334.70
425.64	229.37
425.83	383.85
426.01	442.36
426.20	365.12
426.39	339.38
426.58	400.23
426.77	362.78
426.96	416.62
427.15	383.85
427.33	416.62
427.52	360.44
427.71	400.23
427.90	393.21
428.09	428.32
428.28	383.85
428.46	351.08
428.65	418.96
428.84	407.25
429.03	409.59
429.22	404.91
429.40	491.51
429.59	425.98
429.78	444.70
429.97	318.31
430.16	423.64
430.34	411.93
430.53	425.98
430.72	486.83
430.91	477.47
431.10	500.87
431.28	416.62
431.47	521.94
431.66	491.51
431.85	489.17
432.03	505.56
432.22	603.86
432.41	449.38
432.60	589.82
432.79	603.86
432.97	575.77
433.16	566.41
433.35	650.67
433.54	744.29
433.72	840.25
433.91	833.23
434.10	821.53
434.28	983.02
434.47	1259.21
434.66	1383.26
434.85	1713.27
435.03	3939.12
435.22	14235.14
435.41	35739.98
435.59	46560.28
435.78	33610.09
435.97	15751.81
436.16	5689.84
436.34	2038.61
436.53	1270.91
436.72	896.43
436.90	718.54
437.09	660.03
437.28	603.86
437.46	585.13
437.65	610.88
437.84	664.71
438.02	594.50
438.21	589.82
438.40	550.03
438.58	566.41
438.77	505.56
438.96	573.43
439.14	559.39
439.33	592.16
439.52	580.45
439.70	500.87
439.89	638.97
440.08	568.75
440.26	568.75
440.45	557.05
440.63	568.75
440.82	622.58
441.01	608.54
441.19	540.66
441.38	545.34
441.57	601.52
441.75	627.26
441.94	568.75
442.12	615.56
442.31	575.77
442.50	491.51
442.68	550.03
442.87	589.82
443.05	540.66
443.24	575.77
443.43	617.90
443.61	571.09
443.80	601.52
443.98	528.96
444.17	447.04
444.35	524.28
444.54	505.56
444.73	582.79
444.91	610.88
445.10	507.90
445.28	472.79
445.47	587.47
445.65	573.43
445.84	517.26
446.02	526.62
446.21	484.49
446.39	552.37
446.58	524.28
446.77	594.50
446.95	573.43
447.14	552.37
447.32	580.45
447.51	547.69
447.69	533.64
447.88	606.20
448.06	557.05
448.25	510.24
448.43	543.00
448.62	561.73
448.80	573.43
448.99	550.03
449.17	627.26
449.36	571.09
449.54	566.41
449.73	528.96
449.91	552.37
450.10	479.81
450.28	603.86
450.46	601.52
450.65	650.67
450.83	540.66
451.02	552.37
451.20	636.63
451.39	533.64
451.57	496.19
451.76	552.37
451.94	580.45
452.13	578.11
452.31	622.58
452.49	582.79
452.68	561.73
452.86	561.73
453.05	571.09
453.23	503.22
453.42	521.94
453.60	505.56
453.78	503.22
453.97	545.34
454.15	538.32
454.34	507.90
454.52	540.66
454.70	566.41
454.89	592.16
455.07	531.30
455.26	592.16
455.44	552.37
455.62	463.43
455.81	643.65
455.99	552.37
456.17	538.32
456.36	505.56
456.54	629.60
456.73	543.00
456.91	519.60
457.09	561.73
457.28	601.52
457.46	550.03
457.64	599.18
457.83	594.50
458.01	559.39
458.19	557.05
458.38	566.41
458.56	634.29
458.74	521.94
458.93	566.41
459.11	550.03
459.29	500.87
459.48	543.00
459.66	603.86
459.84	500.87
460.03	667.05
460.21	524.28
460.39	580.45
460.57	585.13
460.76	566.41
460.94	528.96
461.12	521.94
461.31	550.03
461.49	550.03
461.67	437.68
461.85	592.16
462.04	526.62
462.22	940.90
462.40	538.32
462.59	554.71
462.77	582.79
462.95	582.79
463.13	575.77
463.32	554.71
463.50	519.60
463.68	571.09
463.86	594.50
464.05	498.53
464.23	634.29
464.41	608.54
464.59	514.92
464.78	610.88
464.96	482.15
465.14	500.87
465.32	608.54
465.50	543.00
465.69	475.13
465.87	451.72
466.05	514.92
466.23	514.92
466.41	526.62
466.60	613.22
466.78	678.76
466.96	631.94
467.14	535.98
467.32	589.82
467.51	557.05
467.69	496.19
467.87	484.49
468.05	519.60
468.23	517.26
468.41	540.66
468.60	449.38
468.78	477.47
468.96	517.26
469.14	484.49
469.32	447.04
469.50	430.66
469.69	505.56
469.87	477.47
470.05	533.64
470.23	491.51
470.41	510.24
470.59	538.32
470.77	547.69
470.95	512.58
471.14	507.90
471.32	575.77
471.50	524.28
471.68	463.43
471.86	500.87
472.04	535.98
472.22	486.83
472.40	484.49
472.58	514.92
472.77	482.15
472.95	482.15
473.13	465.77
473.31	578.11
473.49	498.53
473.67	510.24
473.85	545.34
474.03	503.22
474.21	526.62
474.39	596.84
474.57	461.09
474.75	484.49
474.93	528.96
475.12	566.41
475.30	547.69
475.48	585.13
475.66	526.62
475.84	606.20
476.02	479.81
476.20	568.75
476.38	475.13
476.56	561.73
476.74	428.32
476.92	510.24
477.10	456.40
477.28	557.05
477.46	566.41
477.64	543.00
477.82	582.79
478.00	557.05
478.18	601.52
478.36	521.94
478.54	517.26
478.72	599.18
478.90	547.69
479.08	636.63
479.26	725.57
479.44	622.58
479.62	704.50
479.80	671.73
479.98	648.33
480.16	727.91
480.34	767.70
480.52	807.48
480.70	870.68
480.88	905.79
481.06	952.60
481.24	875.36
481.41	957.28
481.59	1139.84
481.77	1083.67
481.95	1268.57
482.13	1270.91
482.31	1401.98
482.49	1406.66
482.67	1540.07
482.85	1579.86
483.03	1734.34
483.21	1919.24
483.39	1809.23
483.57	1970.73
483.74	2270.32
483.92	2230.53
484.10	2436.50
484.28	2649.49
484.46	2722.04
484.64	2911.63
484.82	2932.69
485.00	2991.20
485.18	3276.75
485.35	3585.70
485.53	3786.99
485.71	3857.20
485.89	4037.42
486.07	4222.33
486.25	4201.26
486.43	4161.47
486.61	4283.18
486.78	4145.09
486.96	4180.20
487.14	4156.79
487.32	4126.36
487.50	4079.55
487.68	4196.58
487.85	4126.36
488.03	4135.73
488.21	3896.99
488.39	3803.37
488.57	3861.88
488.75	3655.92
488.92	3847.84
489.10	3438.25
489.28	3510.80
489.46	3440.59
489.64	3428.88
489.81	3325.90
489.99	3272.07
490.17	3155.04
490.35	3215.90
490.53	3061.42
490.70	3054.40
490.88	3112.91
491.06	3335.26
491.24	3562.30
491.41	3620.81
491.59	3471.01
491.77	3199.51
491.95	3258.03
492.13	2930.35
492.30	2906.95
492.48	2834.39
492.66	2794.60
492.84	2719.70
493.01	2729.06
493.19	2822.69
493.37	2607.36
493.54	2621.40
493.72	2551.18
493.90	2551.18
494.08	2471.61
494.25	2438.84
494.43	2520.76
494.61	2422.45
494.79	2340.54
494.96	2331.17
495.14	2260.96
495.32	2155.63
495.49	2256.28
495.67	2125.21
495.85	2113.50
496.02	2062.01
496.20	2073.71
496.38	2078.40
496.55	1937.96
496.73	1949.67
496.91	1928.60
497.09	1923.92
497.26	1926.26
497.44	1947.33
497.62	1804.55
497.79	1685.19
497.97	1748.38
498.14	1717.95
498.32	1767.10
498.50	1675.82
498.67	1586.88
498.85	1544.75
499.03	1511.99
499.20	1366.87
499.38	1427.73
499.56	1441.77
499.73	1404.32
499.91	1352.83
500.08	1397.30
500.26	1217.08
500.44	1277.93
500.61	1256.87
500.79	1170.27
500.97	1097.71
501.14	1041.54
501.32	1081.33
501.49	1041.54
501.67	990.05
501.84	903.45
502.02	933.87
502.20	1025.15
502.37	882.38
502.55	833.23
502.72	847.27
502.90	819.19
503.07	741.95
503.25	896.43
503.43	751.31
503.60	784.08
503.78	788.76
503.95	755.99
504.13	685.78
504.30	737.27
504.48	720.88
504.65	727.91
504.83	765.36
505.01	716.20
505.18	617.90
505.36	636.63
505.53	683.44
505.71	669.39
505.88	702.16
506.06	690.46
506.23	629.60
506.41	603.86
506.58	557.05
506.76	603.86
506.93	512.58
507.11	528.96
507.28	533.64
507.46	552.37
507.63	521.94
507.81	568.75
507.98	510.24
508.16	585.13
508.33	496.19
508.50	554.71
508.68	582.79
508.85	533.64
509.03	610.88
509.20	641.31
509.38	587.47
509.55	547.69
509.73	606.20
509.90	489.17
510.08	561.73
510.25	650.67
510.42	500.87
510.60	526.62
510.77	559.39
510.95	554.71
511.12	463.43
511.30	514.92
511.47	510.24
511.64	575.77
511.82	482.15
511.99	613.22
512.17	524.28
512.34	571.09
512.51	435.34
512.69	423.64
512.86	561.73
513.04	535.98
513.21	503.22
513.38	519.60
513.56	423.64
513.73	461.09
513.90	465.77
514.08	470.45
514.25	484.49
514.43	482.15
514.60	463.43
514.77	484.49
514.95	489.17
515.12	507.90
515.29	411.93
515.47	414.27
515.64	425.98
515.81	362.78
515.99	484.49
516.16	472.79
516.33	472.79
516.51	468.11
516.68	435.34
516.85	416.62
517.03	423.64
517.20	402.57
517.37	430.66
517.54	477.47
517.72	402.57
517.89	418.96
518.06	390.87
518.24	423.64
518.41	472.79
518.58	341.72
518.75	393.21
518.93	416.62
519.10	386.19
519.27	346.40
519.45	442.36
519.62	454.06
519.79	425.98
519.96	388.53
520.14	383.85
520.31	444.70
520.48	449.38
520.65	381.51
520.83	442.36
521.00	390.87
521.17	447.04
521.34	423.64
521.52	409.59
521.69	365.12
521.86	435.34
522.03	465.77
522.20	430.66
522.38	430.66
522.55	383.85
522.72	407.25
522.89	383.85
523.07	390.87
523.24	404.91
523.41	442.36
523.58	421.30
523.75	435.34
523.92	351.08
524.10	407.25
524.27	489.17
524.44	456.40
524.61	421.30
524.78	418.96
524.96	517.26
525.13	461.09
525.30	393.21
525.47	479.81
525.64	437.68
525.81	451.72
525.98	411.93
526.16	433.00
526.33	454.06
526.50	425.98
526.67	503.22
526.84	463.43
527.01	493.85
527.18	486.83
527.36	528.96
527.53	547.69
527.70	580.45
527.87	514.92
528.04	557.05
528.21	526.62
528.38	571.09
528.55	554.71
528.72	505.56
528.89	594.50
529.07	514.92
529.24	566.41
529.41	559.39
529.58	601.52
529.75	624.92
529.92	550.03
530.09	634.29
530.26	650.67
530.43	578.11
530.60	692.80
530.77	634.29
530.94	671.73
531.11	685.78
531.28	739.61
531.46	758.33
531.63	814.51
531.80	734.93
531.97	901.11
532.14	901.11
532.31	1102.39
532.48	1294.32
532.65	1647.74
532.82	1774.13
532.99	2069.03
533.16	2438.84
533.33	2614.38
533.50	2324.15
533.67	2047.97
533.84	1757.74
534.01	1509.65
534.18	1423.05
534.35	1416.02
534.52	1341.13
534.69	1448.79
534.86	1579.86
535.03	1437.09
535.20	1497.94
535.37	1708.59
535.54	1813.92
535.71	1853.70
535.88	1994.14
536.05	2139.25
536.22	2291.38
536.38	2537.14
536.55	2649.49
536.72	3098.87
536.89	3330.58
537.06	3681.66
537.23	4142.75
537.40	4667.03
537.57	5097.69
537.74	5207.69
537.91	5397.28
538.08	5589.20
538.25	5533.03
538.42	5776.44
538.59	5916.87
538.75	6106.46
538.92	6424.77
539.09	6888.20
539.26	7836.11
539.43	8629.56
539.60	9905.15
539.77	11061.37
539.94	12140.36
540.11	13860.65
540.28	15154.97
540.44	17022.72
540.61	18434.06
540.78	20999.29
540.95	25383.11
541.12	29855.87
541.29	35035.48
541.46	36566.19
541.62	36299.37
541.79	34881.00
541.96	32854.10
542.13	30244.40
542.30	28074.73
542.47	26494.86
542.63	24968.84
542.80	24049.00
542.97	23295.35
543.14	23466.21
543.31	23346.84
543.48	23398.34
543.64	24030.28
543.81	24114.54
543.98	24451.58
544.15	24687.97
544.32	25177.14
544.48	24854.15
544.65	24584.99
544.82	24208.16
544.99	24254.97
545.16	25013.31
545.32	25755.26
545.49	38541.60
545.66	59531.53
545.83	65535.00
546.00	65535.00
546.16	56949.92
546.33	42974.58
546.50	32840.06
546.67	25605.46
546.83	22389.56
547.00	21715.49
547.17	20599.05
547.34	19606.67
547.50	18932.59
547.67	18141.49
547.84	17329.33
548.00	16774.62
548.17	16077.14
548.34	15339.87
548.51	14789.85
548.67	14115.77
548.84	13429.99
549.01	12564.00
549.18	12369.73
549.34	11641.82
549.51	11318.83
549.68	10942.00
549.84	10445.81
550.01	10087.71
550.18	9481.51
550.34	9144.47
550.51	8526.57
550.68	8212.94
550.84	7756.54
551.01	7382.05
551.18	7068.42
551.34	6792.23
551.51	6413.07
551.68	6108.80
551.84	5748.36
552.01	5661.76
552.18	5547.07
552.34	5076.62
552.51	4884.70
552.68	4746.61
552.84	4493.83
553.01	4404.89
553.18	4306.59
553.34	4117.00
553.51	3918.06
553.67	3932.10
553.84	3817.41
554.01	3576.34
554.17	3328.24
554.34	3012.27
554.51	2874.18
554.67	2700.98
554.84	2679.91
555.00	2415.43
555.17	2267.98
555.33	2146.27
555.50	2064.35
555.67	2052.65
555.83	1970.73
556.00	1816.26
556.16	1954.35
556.33	1734.34
556.50	1654.76
556.66	1626.67
556.83	1493.26
556.99	1596.25
557.16	1467.52
557.32	1448.79
557.49	1343.47
557.65	1357.51
557.82	1301.34
557.98	1348.15
558.15	1224.10
558.32	1254.53
558.48	1186.65
558.65	1203.04
558.81	1179.63
558.98	1100.05
559.14	1069.62
559.31	1086.01
559.47	968.98
559.64	1011.11
559.80	971.32
559.97	1055.58
560.13	1029.84
560.30	1008.77
560.46	992.39
560.63	945.58
560.79	1013.45
560.96	950.26
561.12	938.55
561.29	990.05
561.45	971.32
561.61	964.30
561.78	997.07
561.94	957.28
562.11	910.47
562.27	1018.13
562.44	936.21
562.60	940.90
562.77	968.98
562.93	1018.13
563.10	858.98
563.26	842.59
563.42	851.96
563.59	884.72
563.75	868.34
563.92	837.91
564.08	837.91
564.24	880.04
564.41	840.25
564.57	711.52
564.74	767.70
564.90	777.06
565.07	732.59
565.23	819.19
565.39	821.53
565.56	798.12
565.72	755.99
565.88	744.29
566.05	725.57
566.21	713.86
566.38	734.93
566.54	741.95
566.70	781.74
566.87	877.70
567.03	744.29
567.19	786.42
567.36	819.19
567.52	779.40
567.68	779.40
567.85	720.88
568.01	704.50
568.17	737.27
568.34	856.64
568.50	823.87
568.66	784.08
568.83	926.85
568.99	767.70
569.15	716.20
569.32	692.80
569.48	648.33
569.64	688.12
569.81	617.90
569.97	629.60
570.13	627.26
570.30	559.39
570.46	477.47
570.62	517.26
570.78	524.28
570.95	489.17
571.11	613.22
571.27	603.86
571.43	554.71
571.60	627.26
571.76	573.43
571.92	645.99
572.09	526.62
572.25	599.18
572.41	524.28
572.57	634.29
572.74	645.99
572.90	657.69
573.06	631.94
573.22	641.31
573.38	615.56
573.55	657.69
573.71	552.37
573.87	620.24
574.03	610.88
574.20	631.94
574.36	734.93
574.52	662.37
574.68	660.03
574.84	774.72
575.01	767.70
575.17	823.87
575.33	842.59
575.49	922.17
575.65	917.49
575.82	1097.71
575.98	1102.39
576.14	1247.51
576.30	2218.83
576.46	6953.73
576.62	15311.78
576.79	20760.55
576.95	14672.82
577.11	8641.26
577.27	5806.87
577.43	3901.67
577.59	2485.65
577.75	1921.58
577.92	1652.42
578.08	1687.53
578.24	1755.40
578.40	2684.59
578.56	6604.99
578.72	14221.10
578.88	18347.46
579.04	13153.81
579.21	8351.03
579.37	6139.23
579.53	4641.28
579.69	4145.09
579.85	4999.38
580.01	6225.82
580.17	6274.98
580.33	5331.74
580.49	4472.76
580.65	4053.81
580.82	3747.20
580.98	3492.08
581.14	3541.23
581.30	3798.69
581.46	3929.76
581.62	4252.75
581.78	4451.70
581.94	5062.58
582.10	5233.44
582.26	5757.72
582.42	5774.10
582.58	5907.51
582.74	6017.52
582.90	6057.31
583.06	6190.72
583.22	6422.43
583.38	6092.41
583.54	6176.67
583.70	6038.58
583.86	5877.09
584.02	5888.79
584.18	5872.40
584.34	5811.55
584.50	5582.18
584.66	5570.48
584.82	5455.79
584.98	5518.98
585.14	5301.31
585.30	5146.84
585.46	5057.90
585.62	4980.66
585.78	5109.39
585.94	5261.52
586.10	5210.03
586.26	5671.12
586.42	6108.80
586.58	7321.20
586.74	8802.75
586.90	10918.60
587.06	11969.50
587.22	12161.42
587.38	10956.05
587.54	9502.58
587.70	8006.97
587.86	6761.81
588.02	5731.97
588.18	5139.82
588.34	4557.02
588.49	4058.49
588.65	3920.40
588.81	3632.51
588.97	3599.74
589.13	3557.61
589.29	3339.94
589.45	3325.90
589.61	3251.00
589.77	3496.76
589.93	3412.50
590.08	3492.08
590.24	3501.44
590.40	3705.07
590.56	3988.27
590.72	4042.11
590.88	4037.42
591.04	4009.34
591.20	4418.93
591.35	4468.08
591.51	4779.37
591.67	4952.57
591.83	5146.84
591.99	5561.11
592.15	6073.69
592.31	6630.74
592.46	7356.30
592.62	7871.22
592.78	8456.36
592.94	8702.11
593.10	8564.02
593.26	8454.02
593.41	7775.26
593.57	6860.11
593.73	6139.23
593.89	5334.08
594.05	4716.18
594.20	4372.12
594.36	4091.26
594.52	3550.59
594.68	3435.91
594.84	3365.69
594.99	3178.45
595.15	3075.46
595.31	3063.76
595.47	3105.89
595.62	2993.55
595.78	2888.22
595.94	2939.71
596.10	3049.72
596.25	3110.57
596.41	3194.83
596.57	2906.95
596.73	2949.08
596.88	3143.34
597.04	3023.97
597.20	2970.14
597.36	3141.00
597.51	3295.47
597.67	3382.07
597.83	3506.12
597.99	3562.30
598.14	3922.74
598.30	4065.51
598.46	4308.93
598.61	4648.30
598.77	4751.29
598.93	5107.05
599.09	5163.22
599.24	5427.70
599.40	5327.06
599.56	5088.32
599.71	4828.53
599.87	4535.96
600.03	4369.78
600.18	4074.87
600.34	3777.62
600.50	3555.27
600.65	3332.92
600.81	3066.10
600.97	2902.26
601.12	2712.68
601.28	2605.02
601.44	2658.85
601.59	2541.82
601.75	2277.34
601.91	2230.53
602.06	2129.89
602.22	2113.50
602.37	1996.48
602.53	2010.52
602.69	2036.27
602.84	1919.24
603.00	2040.95
603.16	2071.37
603.31	2052.65
603.47	2090.10
603.62	2078.40
603.78	2167.34
603.94	2279.68
604.09	2253.94
604.25	2282.02
604.40	2333.51
604.56	2321.81
604.71	2349.90
604.87	2380.32
