SpectraSuite Data File
++++++++++++++++++++++++++++++++++++
Date: Fri Oct 04 11:42:26 GMT-05:00 2013
User: price-jones
Dark Spectrum Present: No
Reference Spectrum Present: No
Number of Sampled Component Spectra: 1
Spectrometers: USB2+H05261
Integration Time (usec): 100000 (USB2+H05261)
Spectra Averaged: 1 (USB2+H05261)
Boxcar Smoothing: 0 (USB2+H05261)
Correct for Electrical Dark: No (USB2+H05261)
Strobe/Lamp Enabled: No (USB2+H05261)
Correct for Detector Non-linearity: No (USB2+H05261)
Correct for Stray Light: No (USB2+H05261)
Number of Pixels in Processed Spectrum: 2048
>>>>>Begin Processed Spectral Data<<<<<
365.73	49.15
365.92	49.15
366.12	49.15
366.32	0.00
366.52	0.00
366.72	0.00
366.91	0.00
367.11	0.00
367.31	0.00
367.51	0.00
367.70	0.00
367.90	0.00
368.10	0.00
368.30	0.00
368.49	0.00
368.69	58.51
368.89	0.00
369.09	0.00
369.28	0.00
369.48	0.00
369.68	0.00
369.87	16.38
370.07	0.00
370.27	46.81
370.47	0.00
370.66	0.00
370.86	0.00
371.06	79.58
371.25	67.88
371.45	16.38
371.65	67.88
371.84	53.83
372.04	102.98
372.24	107.66
372.44	102.98
372.63	93.62
372.83	105.32
373.03	91.28
373.22	124.05
373.42	65.54
373.62	32.77
373.81	117.03
374.01	194.26
374.21	170.86
374.40	88.94
374.60	149.79
374.79	173.20
374.99	133.41
375.19	154.48
375.38	142.77
375.58	95.96
375.78	88.94
375.97	98.30
376.17	145.11
376.37	100.64
376.56	189.58
376.76	128.73
376.95	72.56
377.15	163.84
377.35	170.86
377.54	74.90
377.74	70.22
377.93	147.45
378.13	51.49
378.33	142.77
378.52	100.64
378.72	58.51
378.91	159.16
379.11	121.71
379.31	117.03
379.50	114.69
379.70	133.41
379.89	72.56
380.09	100.64
380.28	100.64
380.48	93.62
380.68	81.92
380.87	25.75
381.07	105.32
381.26	124.05
381.46	121.71
381.65	14.04
381.85	79.58
382.04	86.60
382.24	145.11
382.43	107.66
382.63	56.17
382.83	107.66
383.02	156.82
383.22	140.43
383.41	110.01
383.61	67.88
383.80	152.13
384.00	126.39
384.19	110.01
384.39	77.24
384.58	110.01
384.78	135.75
384.97	60.85
385.17	142.77
385.36	100.64
385.56	88.94
385.75	39.79
385.95	88.94
386.14	65.54
386.34	100.64
386.53	100.64
386.72	91.28
386.92	93.62
387.11	180.22
387.31	140.43
387.50	175.54
387.70	21.06
387.89	105.32
388.09	182.56
388.28	79.58
388.48	126.39
388.67	79.58
388.86	117.03
389.06	53.83
389.25	128.73
389.45	102.98
389.64	126.39
389.84	117.03
390.03	184.90
390.22	119.37
390.42	159.16
390.61	74.90
390.81	56.17
391.00	102.98
391.19	124.05
391.39	84.26
391.58	163.84
391.78	112.35
391.97	128.73
392.16	74.90
392.36	67.88
392.55	145.11
392.75	84.26
392.94	156.82
393.13	163.84
393.33	51.49
393.52	88.94
393.71	95.96
393.91	135.75
394.10	252.78
394.29	58.51
394.49	88.94
394.68	131.07
394.88	159.16
395.07	138.09
395.26	93.62
395.46	102.98
395.65	166.18
395.84	77.24
396.04	210.65
396.23	110.01
396.42	124.05
396.62	135.75
396.81	88.94
397.00	119.37
397.19	163.84
397.39	91.28
397.58	128.73
397.77	117.03
397.97	91.28
398.16	135.75
398.35	107.66
398.55	124.05
398.74	156.82
398.93	119.37
399.12	91.28
399.32	212.99
399.51	133.41
399.70	203.63
399.90	128.73
400.09	142.77
400.28	184.90
400.47	124.05
400.67	110.01
400.86	84.26
401.05	145.11
401.24	168.52
401.44	84.26
401.63	102.98
401.82	175.54
402.01	168.52
402.21	133.41
402.40	117.03
402.59	133.41
402.78	53.83
402.97	107.66
403.17	161.50
403.36	163.84
403.55	149.79
403.74	152.13
403.93	468.11
404.13	657.69
404.32	683.44
404.51	491.51
404.70	397.89
404.89	234.05
405.09	231.71
405.28	102.98
405.47	128.73
405.66	98.30
405.85	124.05
406.05	86.60
406.24	117.03
406.43	156.82
406.62	77.24
406.81	236.39
407.00	173.20
407.20	177.88
407.39	182.56
407.58	241.08
407.77	177.88
407.96	264.48
408.15	173.20
408.34	175.54
408.54	142.77
408.73	114.69
408.92	58.51
409.11	98.30
409.30	107.66
409.49	170.86
409.68	119.37
409.87	163.84
410.07	149.79
410.26	98.30
410.45	98.30
410.64	91.28
410.83	81.92
411.02	161.50
411.21	135.75
411.40	142.77
411.59	121.71
411.78	93.62
411.98	156.82
412.17	95.96
412.36	163.84
412.55	161.50
412.74	133.41
412.93	173.20
413.12	135.75
413.31	145.11
413.50	152.13
413.69	175.54
413.88	149.79
414.07	166.18
414.26	112.35
414.45	95.96
414.64	184.90
414.83	156.82
415.02	156.82
415.22	166.18
415.41	126.39
415.60	133.41
415.79	119.37
415.98	222.35
416.17	159.16
416.36	114.69
416.55	161.50
416.74	140.43
416.93	182.56
417.12	114.69
417.31	187.24
417.50	175.54
417.69	196.60
417.88	182.56
418.07	100.64
418.26	98.30
418.45	135.75
418.64	161.50
418.83	145.11
419.02	114.69
419.21	102.98
419.39	173.20
419.58	126.39
419.77	79.58
419.96	159.16
420.15	252.78
420.34	166.18
420.53	135.75
420.72	119.37
420.91	107.66
421.10	105.32
421.29	159.16
421.48	177.88
421.67	212.99
421.86	159.16
422.05	198.95
422.24	152.13
422.43	182.56
422.61	131.07
422.80	161.50
422.99	102.98
423.18	159.16
423.37	229.37
423.56	145.11
423.75	166.18
423.94	168.52
424.13	138.09
424.32	152.13
424.50	278.52
424.69	152.13
424.88	135.75
425.07	81.92
425.26	175.54
425.45	112.35
425.64	156.82
425.83	124.05
426.01	201.29
426.20	140.43
426.39	131.07
426.58	187.24
426.77	196.60
426.96	201.29
427.15	163.84
427.33	147.45
427.52	149.79
427.71	152.13
427.90	252.78
428.09	168.52
428.28	107.66
428.46	161.50
428.65	180.22
428.84	224.69
429.03	203.63
429.22	180.22
429.40	163.84
429.59	248.10
429.78	215.33
429.97	184.90
430.16	128.73
430.34	147.45
430.53	177.88
430.72	79.58
430.91	163.84
431.10	149.79
431.28	196.60
431.47	166.18
431.66	133.41
431.85	117.03
432.03	170.86
432.22	194.26
432.41	224.69
432.60	203.63
432.79	140.43
432.97	201.29
433.16	201.29
433.35	154.48
433.54	217.67
433.72	124.05
433.91	220.01
434.10	194.26
434.28	184.90
434.47	182.56
434.66	330.02
434.85	224.69
435.03	566.41
435.22	1748.38
435.41	2558.21
435.59	2581.61
435.78	1706.25
435.97	866.00
436.16	423.64
436.34	156.82
436.53	243.42
436.72	212.99
436.90	168.52
437.09	201.29
437.28	194.26
437.46	147.45
437.65	159.16
437.84	217.67
438.02	166.18
438.21	147.45
438.40	133.41
438.58	77.24
438.77	182.56
438.96	224.69
439.14	133.41
439.33	187.24
439.52	98.30
439.70	196.60
439.89	236.39
440.08	154.48
440.26	201.29
440.45	234.05
440.63	203.63
440.82	180.22
441.01	224.69
441.19	105.32
441.38	128.73
441.57	142.77
441.75	194.26
441.94	142.77
442.12	252.78
442.31	187.24
442.50	131.07
442.68	227.03
442.87	177.88
443.05	173.20
443.24	168.52
443.43	149.79
443.61	252.78
443.80	156.82
443.98	201.29
444.17	114.69
444.35	159.16
444.54	161.50
444.73	168.52
444.91	203.63
445.10	205.97
445.28	182.56
445.47	184.90
445.65	198.95
445.84	163.84
446.02	166.18
446.21	161.50
446.39	198.95
446.58	215.33
446.77	173.20
446.95	196.60
447.14	203.63
447.32	149.79
447.51	208.31
447.69	145.11
447.88	262.14
448.06	252.78
448.25	198.95
448.43	131.07
448.62	227.03
448.80	252.78
448.99	201.29
449.17	191.92
449.36	147.45
449.54	173.20
449.73	262.14
449.91	243.42
450.10	138.09
450.28	203.63
450.46	245.76
450.65	105.32
450.83	187.24
451.02	147.45
451.20	194.26
451.39	166.18
451.57	196.60
451.76	168.52
451.94	124.05
452.13	128.73
452.31	184.90
452.49	234.05
452.68	212.99
452.86	180.22
453.05	156.82
453.23	159.16
453.42	168.52
453.60	201.29
453.78	131.07
453.97	220.01
454.15	173.20
454.34	159.16
454.52	145.11
454.70	229.37
454.89	238.73
455.07	212.99
455.26	229.37
455.44	196.60
455.62	110.01
455.81	222.35
455.99	212.99
456.17	135.75
456.36	210.65
456.54	149.79
456.73	215.33
456.91	198.95
457.09	102.98
457.28	283.20
457.46	170.86
457.64	117.03
457.83	110.01
458.01	184.90
458.19	215.33
458.38	142.77
458.56	191.92
458.74	175.54
458.93	203.63
459.11	210.65
459.29	191.92
459.48	177.88
459.66	234.05
459.84	250.44
460.03	294.91
460.21	220.01
460.39	208.31
460.57	262.14
460.76	252.78
460.94	173.20
461.12	187.24
461.31	264.48
461.49	194.26
461.67	208.31
461.85	215.33
462.04	170.86
462.22	327.68
462.40	222.35
462.59	212.99
462.77	161.50
462.95	152.13
463.13	173.20
463.32	189.58
463.50	177.88
463.68	173.20
463.86	205.97
464.05	194.26
464.23	203.63
464.41	229.37
464.59	198.95
464.78	224.69
464.96	196.60
465.14	191.92
465.32	252.78
465.50	184.90
465.69	243.42
465.87	163.84
466.05	217.67
466.23	177.88
466.41	161.50
466.60	102.98
466.78	201.29
466.96	245.76
467.14	154.48
467.32	187.24
467.51	229.37
467.69	184.90
467.87	196.60
468.05	147.45
468.23	287.89
468.41	175.54
468.60	180.22
468.78	276.18
468.96	236.39
469.14	198.95
469.32	126.39
469.50	154.48
469.69	131.07
469.87	271.50
470.05	243.42
470.23	196.60
470.41	220.01
470.59	194.26
470.77	198.95
470.95	173.20
471.14	238.73
471.32	290.23
471.50	222.35
471.68	191.92
471.86	210.65
472.04	208.31
472.22	163.84
472.40	152.13
472.58	224.69
472.77	189.58
472.95	201.29
473.13	173.20
473.31	177.88
473.49	163.84
473.67	175.54
473.85	241.08
474.03	161.50
474.21	161.50
474.39	215.33
474.57	203.63
474.75	187.24
474.93	191.92
475.12	140.43
475.30	124.05
475.48	229.37
475.66	182.56
475.84	198.95
476.02	156.82
476.20	198.95
476.38	184.90
476.56	243.42
476.74	133.41
476.92	135.75
477.10	238.73
477.28	135.75
477.46	182.56
477.64	208.31
477.82	191.92
478.00	175.54
478.18	210.65
478.36	220.01
478.54	142.77
478.72	227.03
478.90	229.37
479.08	269.16
479.26	198.95
479.44	161.50
479.62	166.18
479.80	194.26
479.98	259.80
480.16	217.67
480.34	320.65
480.52	175.54
480.70	210.65
480.88	220.01
481.06	248.10
481.24	191.92
481.41	145.11
481.59	243.42
481.77	262.14
481.95	224.69
482.13	327.68
482.31	278.52
482.49	229.37
482.67	341.72
482.85	304.27
483.03	290.23
483.21	393.21
483.39	330.02
483.57	245.76
483.74	341.72
483.92	339.38
484.10	334.70
484.28	332.36
484.46	409.59
484.64	327.68
484.82	451.72
485.00	395.55
485.18	449.38
485.35	379.17
485.53	353.42
485.71	421.30
485.89	456.40
486.07	468.11
486.25	486.83
486.43	475.13
486.61	498.53
486.78	484.49
486.96	461.09
487.14	547.69
487.32	451.72
487.50	538.32
487.68	521.94
487.85	543.00
488.03	526.62
488.21	411.93
488.39	468.11
488.57	580.45
488.75	531.30
488.92	741.95
489.10	575.77
489.28	500.87
489.46	533.64
489.64	468.11
489.81	442.36
489.99	496.19
490.17	461.09
490.35	477.47
490.53	416.62
490.70	447.04
490.88	407.25
491.06	461.09
491.24	580.45
491.41	610.88
491.59	535.98
491.77	484.49
491.95	400.23
492.13	451.72
492.30	447.04
492.48	414.27
492.66	423.64
492.84	437.68
493.01	449.38
493.19	442.36
493.37	416.62
493.54	440.02
493.72	393.21
493.90	383.85
494.08	461.09
494.25	414.27
494.43	404.91
494.61	348.74
494.79	339.38
494.96	372.15
495.14	425.98
495.32	390.87
495.49	376.83
495.67	456.40
495.85	355.76
496.02	374.49
496.20	416.62
496.38	362.78
496.55	449.38
496.73	416.62
496.91	383.85
497.09	372.15
497.26	390.87
497.44	325.33
497.62	311.29
497.79	339.38
497.97	367.46
498.14	404.91
498.32	376.83
498.50	365.12
498.67	341.72
498.85	327.68
499.03	379.17
499.20	337.04
499.38	325.33
499.56	315.97
499.73	334.70
499.91	294.91
500.08	351.08
500.26	271.50
500.44	287.89
500.61	294.91
500.79	276.18
500.97	243.42
501.14	339.38
501.32	269.16
501.49	266.82
501.67	313.63
501.84	262.14
502.02	238.73
502.20	269.16
502.37	234.05
502.55	264.48
502.72	259.80
502.90	322.99
503.07	252.78
503.25	152.13
503.43	220.01
503.60	161.50
503.78	290.23
503.95	217.67
504.13	215.33
504.30	227.03
504.48	294.91
504.65	287.89
504.83	273.84
505.01	257.46
505.18	276.18
505.36	212.99
505.53	250.44
505.71	210.65
505.88	278.52
506.06	262.14
506.23	222.35
506.41	177.88
506.58	210.65
506.76	198.95
506.93	255.12
507.11	210.65
507.28	292.57
507.46	175.54
507.63	210.65
507.81	203.63
507.98	201.29
508.16	273.84
508.33	252.78
508.50	259.80
508.68	332.36
508.85	243.42
509.03	229.37
509.20	250.44
509.38	245.76
509.55	259.80
509.73	245.76
509.90	229.37
510.08	198.95
510.25	276.18
510.42	315.97
510.60	215.33
510.77	238.73
510.95	266.82
511.12	191.92
511.30	217.67
511.47	271.50
511.64	231.71
511.82	224.69
511.99	259.80
512.17	224.69
512.34	189.58
512.51	243.42
512.69	299.59
512.86	301.93
513.04	276.18
513.21	280.86
513.38	250.44
513.56	255.12
513.73	208.31
513.90	278.52
514.08	311.29
514.25	194.26
514.43	264.48
514.60	245.76
514.77	187.24
514.95	243.42
515.12	212.99
515.29	325.33
515.47	217.67
515.64	285.55
515.81	297.25
515.99	257.46
516.16	280.86
516.33	262.14
516.51	290.23
516.68	210.65
516.85	222.35
517.03	250.44
517.20	241.08
517.37	257.46
517.54	271.50
517.72	152.13
517.89	212.99
518.06	304.27
518.24	245.76
518.41	255.12
518.58	297.25
518.75	220.01
518.93	241.08
519.10	234.05
519.27	222.35
519.45	257.46
519.62	290.23
519.79	344.06
519.96	175.54
520.14	224.69
520.31	208.31
520.48	297.25
520.65	238.73
520.83	252.78
521.00	273.84
521.17	229.37
521.34	217.67
521.52	229.37
521.69	276.18
521.86	220.01
522.03	238.73
522.20	273.84
522.38	234.05
522.55	147.45
522.72	191.92
522.89	287.89
523.07	320.65
523.24	245.76
523.41	262.14
523.58	280.86
523.75	259.80
523.92	290.23
524.10	250.44
524.27	250.44
524.44	234.05
524.61	313.63
524.78	191.92
524.96	269.16
525.13	276.18
525.30	229.37
525.47	353.42
525.64	299.59
525.81	285.55
525.98	280.86
526.16	243.42
526.33	217.67
526.50	287.89
526.67	257.46
526.84	191.92
527.01	278.52
527.18	252.78
527.36	243.42
527.53	276.18
527.70	362.78
527.87	257.46
528.04	278.52
528.21	280.86
528.38	234.05
528.55	301.93
528.72	264.48
528.89	269.16
529.07	299.59
529.24	304.27
529.41	259.80
529.58	220.01
529.75	276.18
529.92	269.16
530.09	234.05
530.26	301.93
530.43	283.20
530.60	278.52
530.77	292.57
530.94	205.97
531.11	238.73
531.28	304.27
531.46	231.71
531.63	234.05
531.80	332.36
531.97	184.90
532.14	271.50
532.31	285.55
532.48	222.35
532.65	285.55
532.82	320.65
532.99	322.99
533.16	477.47
533.33	339.38
533.50	383.85
533.67	290.23
533.84	416.62
534.01	322.99
534.18	376.83
534.35	313.63
534.52	315.97
534.69	353.42
534.86	315.97
535.03	322.99
535.20	320.65
535.37	337.04
535.54	358.10
535.71	280.86
535.88	388.53
536.05	334.70
536.22	365.12
536.38	346.40
536.55	482.15
536.72	414.27
536.89	451.72
537.06	447.04
537.23	430.66
537.40	482.15
537.57	489.17
537.74	571.09
537.91	634.29
538.08	634.29
538.25	613.22
538.42	573.43
538.59	638.97
538.75	641.31
538.92	688.12
539.09	685.78
539.26	634.29
539.43	870.68
539.60	821.53
539.77	943.24
539.94	971.32
540.11	1064.94
540.28	1076.65
540.44	1158.57
540.61	1172.61
540.78	1322.40
540.95	1467.52
541.12	1760.08
541.29	1877.11
541.46	2064.35
541.62	2153.29
541.79	2415.43
541.96	2555.86
542.13	2548.84
542.30	2700.98
542.47	2583.95
542.63	2469.27
542.80	2581.61
542.97	2626.08
543.14	2539.48
543.31	2661.19
543.48	2579.27
543.64	2567.57
543.81	2551.18
543.98	2532.46
544.15	2492.67
544.32	2298.41
544.48	2246.91
544.65	2331.17
544.82	2169.68
544.99	2174.36
545.16	2129.89
545.32	2010.52
545.49	3679.32
545.66	5591.54
545.83	6106.46
546.00	5046.20
546.16	3311.86
546.33	2478.63
546.50	1774.13
546.67	1446.45
546.83	1343.47
547.00	1170.27
547.17	1041.54
547.34	1025.15
547.50	1128.14
547.67	1020.47
547.84	1046.22
548.00	1071.97
548.17	968.98
548.34	1015.79
548.51	1015.79
548.67	1090.69
548.84	1039.20
549.01	1064.94
549.18	1067.28
549.34	971.32
549.51	1011.11
549.68	861.32
549.84	968.98
550.01	816.85
550.18	807.48
550.34	882.38
550.51	758.33
550.68	919.83
550.84	791.10
551.01	655.35
551.18	765.36
551.34	706.84
551.51	716.20
551.68	767.70
551.84	650.67
552.01	739.61
552.18	608.54
552.34	730.25
552.51	695.14
552.68	573.43
552.84	622.58
553.01	613.22
553.18	662.37
553.34	622.58
553.51	575.77
553.67	472.79
553.84	571.09
554.01	496.19
554.17	465.77
554.34	491.51
554.51	400.23
554.67	386.19
554.84	360.44
555.00	409.59
555.17	290.23
555.33	484.49
555.50	346.40
555.67	353.42
555.83	280.86
556.00	369.80
556.16	479.81
556.33	367.46
556.50	360.44
556.66	299.59
556.83	257.46
556.99	292.57
557.16	306.61
557.32	299.59
557.49	325.33
557.65	344.06
557.82	360.44
557.98	301.93
558.15	248.10
558.32	255.12
558.48	346.40
558.65	379.17
558.81	292.57
558.98	313.63
559.14	332.36
559.31	301.93
559.47	379.17
559.64	243.42
559.80	280.86
559.97	283.20
560.13	271.50
560.30	311.29
560.46	280.86
560.63	205.97
560.79	297.25
560.96	299.59
561.12	266.82
561.29	266.82
561.45	257.46
561.61	259.80
561.78	337.04
561.94	191.92
562.11	304.27
562.27	259.80
562.44	318.31
562.60	255.12
562.77	271.50
562.93	311.29
563.10	248.10
563.26	294.91
563.42	243.42
563.59	292.57
563.75	301.93
563.92	248.10
564.08	332.36
564.24	287.89
564.41	358.10
564.57	259.80
564.74	278.52
564.90	299.59
565.07	278.52
565.23	299.59
565.39	264.48
565.56	231.71
565.72	168.52
565.88	191.92
566.05	273.84
566.21	248.10
566.38	229.37
566.54	311.29
566.70	257.46
566.87	287.89
567.03	210.65
567.19	236.39
567.36	222.35
567.52	301.93
567.68	266.82
567.85	283.20
568.01	217.67
568.17	222.35
568.34	264.48
568.50	379.17
568.66	299.59
568.83	348.74
568.99	259.80
569.15	292.57
569.32	283.20
569.48	278.52
569.64	259.80
569.81	280.86
569.97	210.65
570.13	332.36
570.30	266.82
570.46	327.68
570.62	266.82
570.78	264.48
570.95	201.29
571.11	327.68
571.27	332.36
571.43	198.95
571.60	234.05
571.76	231.71
571.92	241.08
572.09	257.46
572.25	262.14
572.41	217.67
572.57	259.80
572.74	311.29
572.90	292.57
573.06	327.68
573.22	266.82
573.38	227.03
573.55	276.18
573.71	243.42
573.87	212.99
574.03	236.39
574.20	313.63
574.36	330.02
574.52	290.23
574.68	273.84
574.84	285.55
575.01	266.82
575.17	358.10
575.33	337.04
575.49	280.86
575.65	313.63
575.82	255.12
575.98	334.70
576.14	348.74
576.30	461.09
576.46	910.47
576.62	1149.20
576.79	1170.27
576.95	994.73
577.11	692.80
577.27	510.24
577.43	442.36
577.59	372.15
577.75	334.70
577.92	360.44
578.08	313.63
578.24	355.76
578.40	425.98
578.56	915.15
578.72	1102.39
578.88	1184.31
579.04	919.83
579.21	786.42
579.37	681.10
579.53	540.66
579.69	582.79
579.85	634.29
580.01	678.76
580.17	615.56
580.33	596.84
580.49	505.56
580.65	496.19
580.82	510.24
580.98	484.49
581.14	470.45
581.30	545.34
581.46	526.62
581.62	603.86
581.78	540.66
581.94	547.69
582.10	582.79
582.26	592.16
582.42	627.26
582.58	599.18
582.74	734.93
582.90	697.48
583.06	758.33
583.22	669.39
583.38	767.70
583.54	676.41
583.70	816.85
583.86	624.92
584.02	711.52
584.18	774.72
584.34	547.69
584.50	734.93
584.66	627.26
584.82	580.45
584.98	582.79
585.14	545.34
585.30	636.63
585.46	545.34
585.62	580.45
585.78	568.75
585.94	613.22
586.10	575.77
586.26	594.50
586.42	814.51
586.58	772.38
586.74	873.02
586.90	1039.20
587.06	1053.24
587.22	1041.54
587.38	964.30
587.54	814.51
587.70	746.63
587.86	793.44
588.02	615.56
588.18	592.16
588.34	559.39
588.49	557.05
588.65	517.26
588.81	543.00
588.97	528.96
589.13	491.51
589.29	463.43
589.45	489.17
589.61	475.13
589.77	580.45
589.93	517.26
590.08	531.30
590.24	503.22
590.40	468.11
590.56	566.41
590.72	540.66
590.88	379.17
591.04	435.34
591.20	479.81
591.35	526.62
591.51	514.92
591.67	486.83
591.83	486.83
591.99	585.13
592.15	596.84
592.31	596.84
592.46	582.79
592.62	716.20
592.78	706.84
592.94	667.05
593.10	681.10
593.26	601.52
593.41	697.48
593.57	587.47
593.73	500.87
593.89	482.15
594.05	484.49
594.20	414.27
594.36	390.87
594.52	447.04
594.68	416.62
594.84	344.06
594.99	425.98
595.15	297.25
595.31	365.12
595.47	360.44
595.62	355.76
595.78	341.72
595.94	372.15
596.10	423.64
596.25	311.29
596.41	332.36
596.57	414.27
596.73	369.80
596.88	339.38
597.04	322.99
597.20	344.06
597.36	308.95
597.51	315.97
597.67	327.68
597.83	334.70
597.99	454.06
598.14	425.98
598.30	447.04
598.46	437.68
598.61	463.43
598.77	444.70
598.93	489.17
599.09	472.79
599.24	458.74
599.40	519.60
599.56	500.87
599.71	479.81
599.87	468.11
600.03	468.11
600.18	402.57
600.34	390.87
600.50	376.83
600.65	404.91
600.81	404.91
600.97	304.27
601.12	360.44
601.28	348.74
601.44	269.16
601.59	372.15
601.75	339.38
601.91	325.33
602.06	337.04
602.22	351.08
602.37	374.49
602.53	299.59
602.69	332.36
602.84	215.33
603.00	301.93
603.16	280.86
603.31	311.29
603.47	325.33
603.62	369.80
603.78	339.38
603.94	351.08
604.09	294.91
604.25	369.80
604.40	304.27
604.56	250.44
604.71	381.51
604.87	332.36
605.03	322.99
605.18	369.80
605.34	393.21
605.49	325.33
605.65	341.72
605.80	301.93
605.96	339.38
606.12	341.72
606.27	416.62
606.43	313.63
606.58	435.34
606.74	376.83
606.89	479.81
607.05	435.34
607.20	374.49
607.36	442.36
607.51	416.62
607.67	468.11
607.82	491.51
607.98	540.66
608.13	587.47
608.29	535.98
608.44	552.37
608.60	596.84
608.75	643.65
608.91	692.80
609.06	737.27
609.22	844.93
609.37	821.53
609.53	947.92
609.68	1095.37
609.84	1132.82
609.99	1280.27
610.15	1572.84
610.30	1956.69
610.46	2347.56
610.61	2986.52
