SpectraSuite Data File
++++++++++++++++++++++++++++++++++++
Date: Fri Oct 04 11:42:14 GMT-05:00 2013
User: price-jones
Dark Spectrum Present: No
Reference Spectrum Present: No
Number of Sampled Component Spectra: 1
Spectrometers: USB2+H05261
Integration Time (usec): 100000 (USB2+H05261)
Spectra Averaged: 1 (USB2+H05261)
Boxcar Smoothing: 0 (USB2+H05261)
Correct for Electrical Dark: No (USB2+H05261)
Strobe/Lamp Enabled: No (USB2+H05261)
Correct for Detector Non-linearity: No (USB2+H05261)
Correct for Stray Light: No (USB2+H05261)
Number of Pixels in Processed Spectrum: 2048
>>>>>Begin Processed Spectral Data<<<<<
365.73	0.00
365.92	0.00
366.12	0.00
366.32	46.81
366.52	0.00
366.72	0.00
366.91	0.00
367.11	0.00
367.31	0.00
367.51	0.00
367.70	0.00
367.90	0.00
368.10	0.00
368.30	0.00
368.49	0.00
368.69	0.00
368.89	0.00
369.09	0.00
369.28	0.00
369.48	0.00
369.68	0.00
369.87	0.00
370.07	0.00
370.27	60.85
370.47	70.22
370.66	37.45
370.86	46.81
371.06	84.26
371.25	145.11
371.45	124.05
371.65	126.39
371.84	79.58
372.04	4.68
372.24	58.51
372.44	166.18
372.63	131.07
372.83	142.77
373.03	44.47
373.22	81.92
373.42	138.09
373.62	58.51
373.81	121.71
374.01	110.01
374.21	88.94
374.40	84.26
374.60	114.69
374.79	84.26
374.99	98.30
375.19	105.32
375.38	124.05
375.58	117.03
375.78	142.77
375.97	72.56
376.17	227.03
376.37	187.24
376.56	119.37
376.76	77.24
376.95	119.37
377.15	107.66
377.35	91.28
377.54	187.24
377.74	39.79
377.93	161.50
378.13	142.77
378.33	49.15
378.52	145.11
378.72	107.66
378.91	100.64
379.11	114.69
379.31	53.83
379.50	93.62
379.70	145.11
379.89	114.69
380.09	51.49
380.28	86.60
380.48	114.69
380.68	91.28
380.87	126.39
381.07	81.92
381.26	100.64
381.46	81.92
381.65	131.07
381.85	51.49
382.04	114.69
382.24	191.92
382.43	74.90
382.63	95.96
382.83	74.90
383.02	79.58
383.22	140.43
383.41	100.64
383.61	133.41
383.80	88.94
384.00	44.47
384.19	35.11
384.39	77.24
384.58	88.94
384.78	65.54
384.97	81.92
385.17	170.86
385.36	107.66
385.56	203.63
385.75	98.30
385.95	84.26
386.14	126.39
386.34	166.18
386.53	91.28
386.72	37.45
386.92	93.62
387.11	159.16
387.31	81.92
387.50	131.07
387.70	16.38
387.89	93.62
388.09	35.11
388.28	196.60
388.48	100.64
388.67	194.26
388.86	126.39
389.06	133.41
389.25	56.17
389.45	138.09
389.64	84.26
389.84	88.94
390.03	72.56
390.22	117.03
390.42	44.47
390.61	88.94
390.81	18.72
391.00	107.66
391.19	98.30
391.39	65.54
391.58	39.79
391.78	72.56
391.97	140.43
392.16	128.73
392.36	119.37
392.55	149.79
392.75	107.66
392.94	98.30
393.13	126.39
393.33	91.28
393.52	119.37
393.71	147.45
393.91	149.79
394.10	30.43
394.29	56.17
394.49	149.79
394.68	67.88
394.88	81.92
395.07	138.09
395.26	124.05
395.46	77.24
395.65	77.24
395.84	145.11
396.04	140.43
396.23	124.05
396.42	110.01
396.62	121.71
396.81	142.77
397.00	65.54
397.19	117.03
397.39	128.73
397.58	110.01
397.77	180.22
397.97	154.48
398.16	100.64
398.35	133.41
398.55	140.43
398.74	102.98
398.93	147.45
399.12	128.73
399.32	187.24
399.51	102.98
399.70	182.56
399.90	128.73
400.09	72.56
400.28	100.64
400.47	88.94
400.67	145.11
400.86	138.09
401.05	93.62
401.24	201.29
401.44	142.77
401.63	142.77
401.82	187.24
402.01	70.22
402.21	60.85
402.40	28.09
402.59	161.50
402.78	198.95
402.97	142.77
403.17	70.22
403.36	131.07
403.55	93.62
403.74	152.13
403.93	182.56
404.13	212.99
404.32	243.42
404.51	245.76
404.70	280.86
404.89	161.50
405.09	145.11
405.28	166.18
405.47	70.22
405.66	105.32
405.85	220.01
406.05	100.64
406.24	102.98
406.43	149.79
406.62	28.09
406.81	166.18
407.00	201.29
407.20	145.11
407.39	65.54
407.58	187.24
407.77	147.45
407.96	187.24
408.15	140.43
408.34	124.05
408.54	168.52
408.73	88.94
408.92	70.22
409.11	65.54
409.30	161.50
409.49	131.07
409.68	124.05
409.87	175.54
410.07	126.39
410.26	77.24
410.45	196.60
410.64	135.75
410.83	98.30
411.02	140.43
411.21	135.75
411.40	88.94
411.59	212.99
411.78	142.77
411.98	95.96
412.17	102.98
412.36	88.94
412.55	124.05
412.74	105.32
412.93	156.82
413.12	119.37
413.31	135.75
413.50	107.66
413.69	140.43
413.88	138.09
414.07	126.39
414.26	140.43
414.45	163.84
414.64	119.37
414.83	119.37
415.02	145.11
415.22	145.11
415.41	156.82
415.60	105.32
415.79	175.54
415.98	156.82
416.17	138.09
416.36	208.31
416.55	88.94
416.74	133.41
416.93	102.98
417.12	91.28
417.31	156.82
417.50	88.94
417.69	175.54
417.88	91.28
418.07	105.32
418.26	88.94
418.45	100.64
418.64	163.84
418.83	177.88
419.02	95.96
419.21	180.22
419.39	203.63
419.58	128.73
419.77	238.73
419.96	220.01
420.15	131.07
420.34	149.79
420.53	159.16
420.72	142.77
420.91	184.90
421.10	187.24
421.29	138.09
421.48	166.18
421.67	133.41
421.86	74.90
422.05	124.05
422.24	154.48
422.43	131.07
422.61	131.07
422.80	182.56
422.99	142.77
423.18	198.95
423.37	119.37
423.56	140.43
423.75	102.98
423.94	110.01
424.13	133.41
424.32	149.79
424.50	117.03
424.69	212.99
424.88	126.39
425.07	72.56
425.26	126.39
425.45	147.45
425.64	133.41
425.83	51.49
426.01	131.07
426.20	112.35
426.39	210.65
426.58	182.56
426.77	147.45
426.96	145.11
427.15	131.07
427.33	168.52
427.52	166.18
427.71	124.05
427.90	149.79
428.09	112.35
428.28	95.96
428.46	196.60
428.65	140.43
428.84	140.43
429.03	194.26
429.22	163.84
429.40	77.24
429.59	142.77
429.78	147.45
429.97	32.77
430.16	128.73
430.34	91.28
430.53	112.35
430.72	112.35
430.91	152.13
431.10	58.51
431.28	222.35
431.47	166.18
431.66	159.16
431.85	159.16
432.03	135.75
432.22	243.42
432.41	79.58
432.60	102.98
432.79	187.24
432.97	173.20
433.16	205.97
433.35	121.71
433.54	140.43
433.72	182.56
433.91	149.79
434.10	177.88
434.28	138.09
434.47	212.99
434.66	271.50
434.85	227.03
435.03	273.84
435.22	896.43
435.41	1301.34
435.59	1521.35
435.78	1179.63
435.97	575.77
436.16	287.89
436.34	149.79
436.53	149.79
436.72	257.46
436.90	152.13
437.09	177.88
437.28	241.08
437.46	110.01
437.65	198.95
437.84	107.66
438.02	220.01
438.21	126.39
438.40	53.83
438.58	124.05
438.77	166.18
438.96	147.45
439.14	105.32
439.33	170.86
439.52	128.73
439.70	196.60
439.89	194.26
440.08	121.71
440.26	117.03
440.45	201.29
440.63	187.24
440.82	224.69
441.01	170.86
441.19	133.41
441.38	205.97
441.57	154.48
441.75	128.73
441.94	208.31
442.12	217.67
442.31	163.84
442.50	177.88
442.68	152.13
442.87	168.52
443.05	161.50
443.24	245.76
443.43	252.78
443.61	196.60
443.80	248.10
443.98	145.11
444.17	168.52
444.35	107.66
444.54	215.33
444.73	107.66
444.91	189.58
445.10	159.16
445.28	110.01
445.47	154.48
445.65	177.88
445.84	145.11
446.02	156.82
446.21	194.26
446.39	93.62
446.58	138.09
446.77	168.52
446.95	112.35
447.14	161.50
447.32	217.67
447.51	142.77
447.69	180.22
447.88	65.54
448.06	269.16
448.25	168.52
448.43	135.75
448.62	119.37
448.80	152.13
448.99	112.35
449.17	156.82
449.36	154.48
449.54	147.45
449.73	159.16
449.91	287.89
450.10	121.71
450.28	229.37
450.46	278.52
450.65	212.99
450.83	175.54
451.02	170.86
451.20	191.92
451.39	110.01
451.57	156.82
451.76	215.33
451.94	177.88
452.13	163.84
452.31	215.33
452.49	198.95
452.68	170.86
452.86	229.37
453.05	180.22
453.23	187.24
453.42	191.92
453.60	163.84
453.78	215.33
453.97	217.67
454.15	121.71
454.34	145.11
454.52	198.95
454.70	173.20
454.89	126.39
455.07	135.75
455.26	215.33
455.44	205.97
455.62	191.92
455.81	149.79
455.99	224.69
456.17	227.03
456.36	238.73
456.54	271.50
456.73	131.07
456.91	156.82
457.09	212.99
457.28	175.54
457.46	173.20
457.64	182.56
457.83	224.69
458.01	152.13
458.19	159.16
458.38	152.13
458.56	212.99
458.74	182.56
458.93	189.58
459.11	187.24
459.29	110.01
459.48	210.65
459.66	264.48
459.84	238.73
460.03	248.10
460.21	257.46
460.39	264.48
460.57	280.86
460.76	187.24
460.94	170.86
461.12	191.92
461.31	187.24
461.49	182.56
461.67	191.92
461.85	159.16
462.04	203.63
462.22	234.05
462.40	229.37
462.59	208.31
462.77	198.95
462.95	194.26
463.13	131.07
463.32	191.92
463.50	184.90
463.68	135.75
463.86	147.45
464.05	191.92
464.23	201.29
464.41	236.39
464.59	135.75
464.78	182.56
464.96	131.07
465.14	117.03
465.32	241.08
465.50	140.43
465.69	271.50
465.87	187.24
466.05	182.56
466.23	166.18
466.41	173.20
466.60	145.11
466.78	163.84
466.96	203.63
467.14	180.22
467.32	189.58
467.51	145.11
467.69	142.77
467.87	189.58
468.05	205.97
468.23	191.92
468.41	231.71
468.60	196.60
468.78	180.22
468.96	110.01
469.14	187.24
469.32	154.48
469.50	177.88
469.69	198.95
469.87	110.01
470.05	196.60
470.23	124.05
470.41	152.13
470.59	217.67
470.77	208.31
470.95	142.77
471.14	201.29
471.32	184.90
471.50	241.08
471.68	297.25
471.86	152.13
472.04	175.54
472.22	168.52
472.40	133.41
472.58	166.18
472.77	156.82
472.95	177.88
473.13	180.22
473.31	250.44
473.49	168.52
473.67	147.45
473.85	182.56
474.03	194.26
474.21	278.52
474.39	177.88
474.57	278.52
474.75	189.58
474.93	156.82
475.12	212.99
475.30	121.71
475.48	252.78
475.66	220.01
475.84	210.65
476.02	198.95
476.20	294.91
476.38	222.35
476.56	280.86
476.74	177.88
476.92	182.56
477.10	180.22
477.28	255.12
477.46	138.09
477.64	194.26
477.82	147.45
478.00	177.88
478.18	133.41
478.36	227.03
478.54	210.65
478.72	93.62
478.90	234.05
479.08	224.69
479.26	271.50
479.44	205.97
479.62	140.43
479.80	163.84
479.98	217.67
480.16	117.03
480.34	182.56
480.52	205.97
480.70	210.65
480.88	250.44
481.06	112.35
481.24	198.95
481.41	210.65
481.59	205.97
481.77	203.63
481.95	177.88
482.13	212.99
482.31	231.71
482.49	170.86
482.67	227.03
482.85	287.89
483.03	212.99
483.21	245.76
483.39	269.16
483.57	306.61
483.74	201.29
483.92	180.22
484.10	297.25
484.28	332.36
484.46	383.85
484.64	369.80
484.82	264.48
485.00	210.65
485.18	341.72
485.35	355.76
485.53	376.83
485.71	365.12
485.89	294.91
486.07	367.46
486.25	383.85
486.43	374.49
486.61	369.80
486.78	416.62
486.96	344.06
487.14	358.10
487.32	360.44
487.50	390.87
487.68	313.63
487.85	379.17
488.03	351.08
488.21	360.44
488.39	365.12
488.57	367.46
488.75	355.76
488.92	587.47
489.10	430.66
489.28	362.78
489.46	283.20
489.64	341.72
489.81	376.83
489.99	374.49
490.17	332.36
490.35	425.98
490.53	283.20
490.70	351.08
490.88	327.68
491.06	313.63
491.24	348.74
491.41	437.68
491.59	386.19
491.77	393.21
491.95	308.95
492.13	285.55
492.30	280.86
492.48	339.38
492.66	376.83
492.84	234.05
493.01	243.42
493.19	353.42
493.37	341.72
493.54	372.15
493.72	301.93
493.90	301.93
494.08	262.14
494.25	257.46
494.43	353.42
494.61	299.59
494.79	290.23
494.96	236.39
495.14	306.61
495.32	278.52
495.49	271.50
495.67	271.50
495.85	262.14
496.02	290.23
496.20	330.02
496.38	234.05
496.55	306.61
496.73	259.80
496.91	306.61
497.09	358.10
497.26	271.50
497.44	318.31
497.62	266.82
497.79	304.27
497.97	301.93
498.14	306.61
498.32	308.95
498.50	245.76
498.67	264.48
498.85	294.91
499.03	208.31
499.20	294.91
499.38	175.54
499.56	322.99
499.73	327.68
499.91	248.10
500.08	334.70
500.26	299.59
500.44	262.14
500.61	280.86
500.79	278.52
500.97	229.37
501.14	255.12
501.32	327.68
501.49	269.16
501.67	306.61
501.84	304.27
502.02	306.61
502.20	259.80
502.37	248.10
502.55	245.76
502.72	236.39
502.90	294.91
503.07	236.39
503.25	257.46
503.43	177.88
503.60	189.58
503.78	285.55
503.95	222.35
504.13	220.01
504.30	245.76
504.48	322.99
504.65	285.55
504.83	318.31
505.01	191.92
505.18	243.42
505.36	299.59
505.53	227.03
505.71	222.35
505.88	262.14
506.06	224.69
506.23	238.73
506.41	273.84
506.58	266.82
506.76	248.10
506.93	198.95
507.11	156.82
507.28	234.05
507.46	248.10
507.63	311.29
507.81	231.71
507.98	250.44
508.16	220.01
508.33	194.26
508.50	220.01
508.68	163.84
508.85	259.80
509.03	255.12
509.20	264.48
509.38	330.02
509.55	292.57
509.73	224.69
509.90	278.52
510.08	194.26
510.25	196.60
510.42	262.14
510.60	285.55
510.77	201.29
510.95	257.46
511.12	201.29
511.30	266.82
511.47	245.76
511.64	259.80
511.82	201.29
511.99	292.57
512.17	201.29
512.34	250.44
512.51	287.89
512.69	250.44
512.86	290.23
513.04	245.76
513.21	297.25
513.38	255.12
513.56	238.73
513.73	287.89
513.90	252.78
514.08	231.71
514.25	287.89
514.43	173.20
514.60	278.52
514.77	255.12
514.95	245.76
515.12	175.54
515.29	205.97
515.47	262.14
515.64	201.29
515.81	278.52
515.99	252.78
516.16	262.14
516.33	271.50
516.51	222.35
516.68	173.20
516.85	173.20
517.03	215.33
517.20	257.46
517.37	259.80
517.54	250.44
517.72	276.18
517.89	152.13
518.06	210.65
518.24	285.55
518.41	250.44
518.58	346.40
518.75	231.71
518.93	201.29
519.10	248.10
519.27	210.65
519.45	250.44
519.62	299.59
519.79	236.39
519.96	147.45
520.14	236.39
520.31	259.80
520.48	236.39
520.65	287.89
520.83	187.24
521.00	285.55
521.17	278.52
521.34	341.72
521.52	301.93
521.69	255.12
521.86	191.92
522.03	224.69
522.20	184.90
522.38	255.12
522.55	262.14
522.72	243.42
522.89	205.97
523.07	287.89
523.24	278.52
523.41	262.14
523.58	220.01
523.75	241.08
523.92	304.27
524.10	287.89
524.27	250.44
524.44	217.67
524.61	257.46
524.78	189.58
524.96	201.29
525.13	229.37
525.30	308.95
525.47	311.29
525.64	210.65
525.81	255.12
525.98	299.59
526.16	210.65
526.33	194.26
526.50	215.33
526.67	212.99
526.84	236.39
527.01	266.82
527.18	271.50
527.36	245.76
527.53	273.84
527.70	313.63
527.87	184.90
528.04	339.38
528.21	166.18
528.38	292.57
528.55	330.02
528.72	339.38
528.89	290.23
529.07	313.63
529.24	243.42
529.41	306.61
529.58	306.61
529.75	252.78
529.92	278.52
530.09	273.84
530.26	308.95
530.43	276.18
530.60	292.57
530.77	332.36
530.94	212.99
531.11	266.82
531.28	259.80
531.46	257.46
531.63	262.14
531.80	250.44
531.97	294.91
532.14	325.33
532.31	362.78
532.48	287.89
532.65	332.36
532.82	330.02
532.99	369.80
533.16	315.97
533.33	355.76
533.50	334.70
533.67	315.97
533.84	362.78
534.01	276.18
534.18	320.65
534.35	266.82
534.52	315.97
534.69	416.62
534.86	334.70
535.03	301.93
535.20	301.93
535.37	386.19
535.54	381.51
535.71	339.38
535.88	355.76
536.05	367.46
536.22	301.93
536.38	355.76
536.55	346.40
536.72	423.64
536.89	292.57
537.06	315.97
537.23	411.93
537.40	449.38
537.57	440.02
537.74	496.19
537.91	533.64
538.08	484.49
538.25	451.72
538.42	353.42
538.59	465.77
538.75	451.72
538.92	491.51
539.09	561.73
539.26	545.34
539.43	645.99
539.60	648.33
539.77	704.50
539.94	781.74
540.11	788.76
540.28	898.77
540.44	947.92
540.61	919.83
540.78	1018.13
540.95	1193.67
541.12	1390.28
541.29	1495.60
541.46	1624.33
541.62	1610.29
541.79	1577.52
541.96	1458.15
542.13	1500.28
542.30	1385.60
542.47	1313.04
542.63	1399.64
542.80	1259.21
542.97	1259.21
543.14	1308.36
543.31	1362.19
543.48	1217.08
543.64	1315.38
543.81	1334.11
543.98	1165.59
544.15	1165.59
544.32	1240.48
544.48	1310.70
544.65	1210.06
544.82	1233.46
544.99	1226.44
545.16	1235.80
545.32	1324.74
545.49	2047.97
545.66	3061.42
545.83	3840.82
546.00	3543.57
546.16	2457.56
546.33	1806.89
546.50	1418.36
546.67	1146.86
546.83	1036.86
547.00	957.28
547.17	950.26
547.34	961.96
547.50	863.66
547.67	835.57
547.84	802.80
548.00	873.02
548.17	861.32
548.34	716.20
548.51	847.27
548.67	727.91
548.84	781.74
549.01	758.33
549.18	706.84
549.34	727.91
549.51	739.61
549.68	692.80
549.84	744.29
550.01	601.52
550.18	744.29
550.34	613.22
550.51	503.22
550.68	578.11
550.84	517.26
551.01	566.41
551.18	526.62
551.34	554.71
551.51	547.69
551.68	540.66
551.84	517.26
552.01	512.58
552.18	484.49
552.34	479.81
552.51	379.17
552.68	390.87
552.84	395.55
553.01	423.64
553.18	468.11
553.34	437.68
553.51	372.15
553.67	379.17
553.84	421.30
554.01	383.85
554.17	372.15
554.34	341.72
554.51	386.19
554.67	351.08
554.84	369.80
555.00	341.72
555.17	365.12
555.33	346.40
555.50	388.53
555.67	402.57
555.83	332.36
556.00	348.74
556.16	489.17
556.33	358.10
556.50	339.38
556.66	346.40
556.83	236.39
556.99	306.61
557.16	318.31
557.32	266.82
557.49	311.29
557.65	259.80
557.82	217.67
557.98	292.57
558.15	238.73
558.32	276.18
558.48	318.31
558.65	271.50
558.81	262.14
558.98	250.44
559.14	332.36
559.31	234.05
559.47	236.39
559.64	210.65
559.80	325.33
559.97	227.03
560.13	262.14
560.30	278.52
560.46	278.52
560.63	273.84
560.79	292.57
560.96	372.15
561.12	231.71
561.29	280.86
561.45	248.10
561.61	322.99
561.78	381.51
561.94	306.61
562.11	278.52
562.27	301.93
562.44	194.26
562.60	180.22
562.77	257.46
562.93	311.29
563.10	255.12
563.26	297.25
563.42	325.33
563.59	194.26
563.75	292.57
563.92	229.37
564.08	322.99
564.24	304.27
564.41	290.23
564.57	273.84
564.74	320.65
564.90	266.82
565.07	262.14
565.23	166.18
565.39	283.20
565.56	264.48
565.72	273.84
565.88	271.50
566.05	217.67
566.21	287.89
566.38	294.91
566.54	301.93
566.70	269.16
566.87	262.14
567.03	266.82
567.19	325.33
567.36	222.35
567.52	220.01
567.68	320.65
567.85	280.86
568.01	252.78
568.17	248.10
568.34	238.73
568.50	210.65
568.66	243.42
568.83	276.18
568.99	271.50
569.15	311.29
569.32	248.10
569.48	259.80
569.64	320.65
569.81	273.84
569.97	212.99
570.13	290.23
570.30	215.33
570.46	234.05
570.62	227.03
570.78	224.69
570.95	259.80
571.11	273.84
571.27	337.04
571.43	337.04
571.60	238.73
571.76	245.76
571.92	262.14
572.09	234.05
572.25	294.91
572.41	248.10
572.57	262.14
572.74	283.20
572.90	266.82
573.06	269.16
573.22	241.08
573.38	278.52
573.55	259.80
573.71	292.57
573.87	273.84
574.03	234.05
574.20	292.57
574.36	248.10
574.52	283.20
574.68	243.42
574.84	285.55
575.01	215.33
575.17	224.69
575.33	180.22
575.49	297.25
575.65	210.65
575.82	306.61
575.98	315.97
576.14	311.29
576.30	269.16
576.46	566.41
576.62	770.04
576.79	929.19
576.95	767.70
577.11	503.22
577.27	428.32
577.43	425.98
577.59	308.95
577.75	332.36
577.92	212.99
578.08	313.63
578.24	308.95
578.40	395.55
578.56	601.52
578.72	805.14
578.88	910.47
579.04	725.57
579.21	547.69
579.37	524.28
579.53	451.72
579.69	496.19
579.85	400.23
580.01	395.55
580.17	568.75
580.33	425.98
580.49	435.34
580.65	365.12
580.82	337.04
580.98	416.62
581.14	376.83
581.30	475.13
581.46	388.53
581.62	486.83
581.78	486.83
581.94	421.30
582.10	365.12
582.26	442.36
582.42	468.11
582.58	463.43
582.74	489.17
582.90	585.13
583.06	470.45
583.22	458.74
583.38	430.66
583.54	468.11
583.70	528.96
583.86	468.11
584.02	440.02
584.18	531.30
584.34	484.49
584.50	451.72
584.66	461.09
584.82	461.09
584.98	444.70
585.14	442.36
585.30	456.40
585.46	437.68
585.62	416.62
585.78	400.23
585.94	451.72
586.10	393.21
586.26	435.34
586.42	573.43
586.58	585.13
586.74	571.09
586.90	674.07
587.06	706.84
587.22	809.83
587.38	580.45
587.54	608.54
587.70	608.54
587.86	482.15
588.02	393.21
588.18	447.04
588.34	369.80
588.49	360.44
588.65	301.93
588.81	416.62
588.97	369.80
589.13	360.44
589.29	353.42
589.45	395.55
589.61	322.99
589.77	351.08
589.93	444.70
590.08	372.15
590.24	351.08
590.40	341.72
590.56	355.76
590.72	327.68
590.88	374.49
591.04	362.78
591.20	379.17
591.35	379.17
591.51	358.10
591.67	437.68
591.83	348.74
591.99	425.98
592.15	465.77
592.31	500.87
592.46	477.47
592.62	531.30
592.78	531.30
592.94	550.03
593.10	543.00
593.26	535.98
593.41	517.26
593.57	521.94
593.73	383.85
593.89	409.59
594.05	304.27
594.20	320.65
594.36	477.47
594.52	353.42
594.68	297.25
594.84	341.72
594.99	334.70
595.15	325.33
595.31	383.85
595.47	416.62
595.62	276.18
595.78	287.89
595.94	241.08
596.10	325.33
596.25	315.97
596.41	290.23
596.57	355.76
596.73	353.42
596.88	393.21
597.04	308.95
597.20	369.80
597.36	374.49
597.51	280.86
597.67	243.42
597.83	365.12
597.99	308.95
598.14	322.99
598.30	407.25
598.46	365.12
598.61	442.36
598.77	390.87
598.93	379.17
599.09	418.96
599.24	411.93
599.40	400.23
599.56	421.30
599.71	393.21
599.87	393.21
600.03	367.46
600.18	444.70
600.34	304.27
600.50	327.68
600.65	334.70
600.81	400.23
600.97	334.70
601.12	294.91
601.28	330.02
601.44	322.99
601.59	299.59
601.75	248.10
601.91	297.25
602.06	311.29
602.22	418.96
602.37	262.14
602.53	297.25
602.69	276.18
602.84	266.82
603.00	259.80
603.16	266.82
603.31	306.61
603.47	248.10
603.62	248.10
603.78	285.55
603.94	358.10
604.09	297.25
604.25	292.57
604.40	308.95
604.56	262.14
604.71	383.85
604.87	322.99
605.03	313.63
605.18	287.89
605.34	301.93
605.49	348.74
605.65	318.31
605.80	273.84
605.96	257.46
606.12	322.99
606.27	348.74
606.43	353.42
606.58	337.04
606.74	306.61
606.89	344.06
607.05	386.19
607.20	365.12
607.36	313.63
607.51	386.19
607.67	381.51
607.82	327.68
607.98	486.83
608.13	449.38
608.29	393.21
608.44	418.96
608.60	475.13
608.75	533.64
608.91	615.56
609.06	660.03
609.22	580.45
609.37	671.73
609.53	746.63
609.68	770.04
609.84	915.15
609.99	924.51
610.15	1102.39
610.30	1444.11
610.46	1647.74
610.61	2090.10
610.76	2712.68
610.92	3288.45
611.07	3592.72
611.23	3754.22
