SpectraSuite Data File
++++++++++++++++++++++++++++++++++++
Date: Fri Oct 04 11:42:15 GMT-05:00 2013
User: price-jones
Dark Spectrum Present: No
Reference Spectrum Present: No
Number of Sampled Component Spectra: 1
Spectrometers: USB2+H05261
Integration Time (usec): 100000 (USB2+H05261)
Spectra Averaged: 1 (USB2+H05261)
Boxcar Smoothing: 0 (USB2+H05261)
Correct for Electrical Dark: No (USB2+H05261)
Strobe/Lamp Enabled: No (USB2+H05261)
Correct for Detector Non-linearity: No (USB2+H05261)
Correct for Stray Light: No (USB2+H05261)
Number of Pixels in Processed Spectrum: 2048
>>>>>Begin Processed Spectral Data<<<<<
365.73	0.00
365.92	0.00
366.12	0.00
366.32	0.00
366.52	0.00
366.72	0.00
366.91	0.00
367.11	0.00
367.31	0.00
367.51	0.00
367.70	0.00
367.90	0.00
368.10	0.00
368.30	0.00
368.49	0.00
368.69	0.00
368.89	23.41
369.09	0.00
369.28	0.00
369.48	0.00
369.68	0.00
369.87	0.00
370.07	9.36
370.27	63.19
370.47	60.85
370.66	266.82
370.86	313.63
371.06	322.99
371.25	315.97
371.45	290.23
371.65	299.59
371.84	229.37
372.04	304.27
372.24	362.78
372.44	325.33
372.63	379.17
372.83	304.27
373.03	346.40
373.22	280.86
373.42	245.76
373.62	395.55
373.81	351.08
374.01	353.42
374.21	358.10
374.40	320.65
374.60	337.04
374.79	306.61
374.99	388.53
375.19	397.89
375.38	372.15
375.58	346.40
375.78	428.32
375.97	386.19
376.17	477.47
376.37	407.25
376.56	409.59
376.76	376.83
376.95	433.00
377.15	500.87
377.35	409.59
377.54	503.22
377.74	479.81
377.93	479.81
378.13	381.51
378.33	451.72
378.52	400.23
378.72	458.74
378.91	449.38
379.11	402.57
379.31	372.15
379.50	416.62
379.70	454.06
379.89	491.51
380.09	491.51
380.28	524.28
380.48	510.24
380.68	491.51
380.87	418.96
381.07	351.08
381.26	472.79
381.46	402.57
381.65	444.70
381.85	348.74
382.04	344.06
382.24	315.97
382.43	351.08
382.63	266.82
382.83	367.46
383.02	362.78
383.22	505.56
383.41	322.99
383.61	341.72
383.80	376.83
384.00	437.68
384.19	451.72
384.39	477.47
384.58	409.59
384.78	435.34
384.97	454.06
385.17	421.30
385.36	447.04
385.56	423.64
385.75	411.93
385.95	444.70
386.14	528.96
386.34	496.19
386.53	421.30
386.72	463.43
386.92	416.62
387.11	528.96
387.31	479.81
387.50	531.30
387.70	447.04
387.89	477.47
388.09	435.34
388.28	402.57
388.48	461.09
388.67	528.96
388.86	500.87
389.06	535.98
389.25	512.58
389.45	592.16
389.64	599.18
389.84	535.98
390.03	613.22
390.22	650.67
390.42	657.69
390.61	641.31
390.81	669.39
391.00	695.14
391.19	571.09
391.39	683.44
391.58	561.73
391.78	575.77
391.97	582.79
392.16	521.94
392.36	479.81
392.55	404.91
392.75	372.15
392.94	358.10
393.13	313.63
393.33	346.40
393.52	390.87
393.71	528.96
393.91	521.94
394.10	564.07
394.29	575.77
394.49	540.66
394.68	716.20
394.88	655.35
395.07	676.41
395.26	685.78
395.46	622.58
395.65	692.80
395.84	559.39
396.04	503.22
396.23	482.15
396.42	416.62
396.62	346.40
396.81	421.30
397.00	540.66
397.19	622.58
397.39	653.01
397.58	795.78
397.77	753.65
397.97	774.72
398.16	802.80
398.35	873.02
398.55	770.04
398.74	842.59
398.93	877.70
399.12	847.27
399.32	849.61
399.51	847.27
399.70	994.73
399.90	910.47
400.09	919.83
400.28	961.96
400.47	1029.84
400.67	950.26
400.86	987.71
401.05	971.32
401.24	1029.84
401.44	985.37
401.63	983.02
401.82	947.92
402.01	983.02
402.21	997.07
402.40	940.90
402.59	1008.77
402.78	882.38
402.97	936.21
403.17	929.19
403.36	919.83
403.55	1039.20
403.74	978.34
403.93	1001.75
404.13	938.55
404.32	1034.52
404.51	1022.81
404.70	1137.50
404.89	1020.47
405.09	1100.05
405.28	919.83
405.47	964.30
405.66	959.62
405.85	873.02
406.05	926.85
406.24	994.73
406.43	1034.52
406.62	1004.09
406.81	992.39
407.00	938.55
407.20	964.30
407.39	894.08
407.58	959.62
407.77	1008.77
407.96	1090.69
408.15	1111.75
408.34	1093.03
408.54	1015.79
408.73	1053.24
408.92	1004.09
409.11	1116.44
409.30	1013.45
409.49	924.51
409.68	908.13
409.87	873.02
410.07	926.85
410.26	929.19
410.45	1025.15
410.64	1057.92
410.83	1121.12
411.02	1170.27
411.21	1114.10
411.40	1118.78
411.59	1170.27
411.78	1184.31
411.98	1102.39
412.17	1076.65
412.36	1086.01
412.55	1046.22
412.74	1153.88
412.93	1207.72
413.12	1107.07
413.31	1242.82
413.50	1221.76
413.69	1207.72
413.88	1198.35
414.07	1170.27
414.26	1118.78
414.45	1064.94
414.64	1172.61
414.83	1191.33
415.02	1224.10
415.22	1191.33
415.41	1214.74
415.60	1186.65
415.79	1308.36
415.98	1320.06
416.17	1383.26
416.36	1380.92
416.55	1186.65
416.74	1203.04
416.93	1277.93
417.12	1214.74
417.31	1135.16
417.50	1313.04
417.69	1245.16
417.88	1277.93
418.07	1205.38
418.26	1139.84
418.45	1247.51
418.64	1299.00
418.83	1306.02
419.02	1198.35
419.21	1355.17
419.39	1160.91
419.58	1203.04
419.77	1142.18
419.96	1174.95
420.15	1378.58
420.34	1294.32
420.53	1376.24
420.72	1481.56
420.91	1266.23
421.10	1233.46
421.29	1327.08
421.48	1359.85
421.67	1404.32
421.86	1308.36
422.05	1233.46
422.24	1203.04
422.43	1163.25
422.61	1240.48
422.80	1249.85
422.99	1299.00
423.18	1291.98
423.37	1345.81
423.56	1268.57
423.75	1315.38
423.94	1294.32
424.13	1163.25
424.32	1284.95
424.50	1334.11
424.69	1205.38
424.88	1259.21
425.07	1203.04
425.26	1266.23
425.45	1090.69
425.64	1167.93
425.83	1221.76
426.01	1289.64
426.20	1287.29
426.39	1287.29
426.58	1193.67
426.77	1151.54
426.96	1174.95
427.15	1116.44
427.33	1188.99
427.52	1174.95
427.71	1310.70
427.90	1165.59
428.09	1146.86
428.28	1203.04
428.46	1156.22
428.65	1165.59
428.84	1193.67
429.03	1160.91
429.22	1076.65
429.40	1060.26
429.59	1060.26
429.78	912.81
429.97	908.13
430.16	833.23
430.34	903.45
430.53	931.53
430.72	940.90
430.91	1043.88
431.10	1196.01
431.28	1390.28
431.47	1434.75
431.66	1493.26
431.85	1362.19
432.03	1324.74
432.22	1252.19
432.41	1205.38
432.60	1357.51
432.79	1369.21
432.97	1462.83
433.16	1392.62
433.35	1280.27
433.54	1245.16
433.72	1144.52
433.91	1259.21
434.10	1146.86
434.28	1343.47
434.47	1364.53
434.66	1423.05
434.85	1404.32
435.03	1519.01
435.22	1755.40
435.41	2127.55
435.59	2183.72
435.78	1926.26
435.97	1685.19
436.16	1647.74
436.34	1619.65
436.53	1500.28
436.72	1490.92
436.90	1380.92
437.09	1406.66
437.28	1397.30
437.46	1399.64
437.65	1446.45
437.84	1313.04
438.02	1188.99
438.21	1196.01
438.40	1191.33
438.58	1420.71
438.77	1448.79
438.96	1404.32
439.14	1495.60
439.33	1451.13
439.52	1535.39
439.70	1572.84
439.89	1472.20
440.08	1427.73
440.26	1378.58
440.45	1530.71
440.63	1579.86
440.82	1626.67
441.01	1626.67
441.19	1551.78
441.38	1603.27
441.57	1696.89
441.75	1715.61
441.94	1748.38
442.12	1659.44
442.31	1776.47
442.50	1790.51
442.68	1703.91
442.87	1612.63
443.05	1715.61
443.24	1612.63
443.43	1619.65
443.61	1652.42
443.80	1764.76
443.98	1617.31
444.17	1603.27
444.35	1774.13
444.54	1785.83
444.73	1760.08
444.91	1680.50
445.10	1612.63
445.28	1448.79
445.47	1521.35
445.65	1586.88
445.84	1652.42
446.02	1675.82
446.21	1643.06
446.39	1671.14
446.58	1652.42
446.77	1748.38
446.95	1741.36
447.14	1720.29
447.32	1830.30
447.51	1703.91
447.69	1722.63
447.88	1715.61
448.06	1785.83
448.25	1732.00
448.43	1767.10
448.62	1727.32
448.80	1689.87
448.99	1652.42
449.17	1750.72
449.36	1790.51
449.54	1877.11
449.73	1757.74
449.91	1886.47
450.10	1844.34
450.28	1907.54
450.46	1935.62
450.65	1820.94
450.83	1916.90
451.02	1863.07
451.20	1795.19
451.39	1762.42
451.57	1809.23
451.76	1746.04
451.94	1797.53
452.13	1743.70
452.31	1727.32
452.49	1671.14
452.68	1561.14
452.86	1661.78
453.05	1715.61
453.23	1598.59
453.42	1685.19
453.60	1757.74
453.78	1802.21
453.97	1736.68
454.15	1797.53
454.34	1715.61
454.52	1694.55
454.70	1837.32
454.89	1687.53
455.07	1797.53
455.26	1743.70
455.44	1909.88
455.62	1930.94
455.81	1902.86
455.99	1891.15
456.17	1746.04
456.36	1872.43
456.54	1881.79
456.73	1870.09
456.91	1916.90
457.09	1884.13
457.28	1977.75
457.46	1856.04
457.64	1933.28
457.83	1844.34
458.01	1879.45
458.19	1825.62
458.38	1778.81
458.56	1753.06
458.74	1949.67
458.93	1933.28
459.11	1944.99
459.29	1865.41
459.48	1865.41
459.66	1806.89
459.84	1820.94
460.03	1895.83
460.21	1778.81
460.39	1900.52
460.57	1884.13
460.76	2003.50
460.94	1736.68
461.12	1991.80
461.31	1961.37
461.49	1870.09
461.67	2012.86
461.85	2022.22
462.04	2022.22
462.22	2071.37
462.40	1968.39
462.59	2043.29
462.77	1940.30
462.95	1961.37
463.13	1966.05
463.32	1860.73
463.50	1923.92
463.68	1973.07
463.86	1785.83
464.05	1898.17
464.23	1942.64
464.41	1921.58
464.59	1863.07
464.78	1921.58
464.96	1853.70
465.14	1963.71
465.32	1863.07
465.50	1954.35
465.69	1980.09
465.87	1968.39
466.05	1856.04
466.23	1879.45
466.41	1785.83
466.60	1860.73
466.78	1802.21
466.96	1827.96
467.14	1811.57
467.32	1937.96
467.51	1846.68
467.69	1853.70
467.87	1902.86
468.05	1937.96
468.23	1863.07
468.41	1933.28
468.60	1944.99
468.78	1872.43
468.96	1767.10
469.14	2019.88
469.32	1877.11
469.50	1905.20
469.69	1879.45
469.87	1813.92
470.05	1860.73
470.23	1877.11
470.41	1879.45
470.59	1732.00
470.77	1858.39
470.95	1846.68
471.14	1851.36
471.32	2043.29
471.50	2052.65
471.68	1998.82
471.86	2036.27
472.04	2052.65
472.22	2012.86
472.40	1888.81
472.58	1860.73
472.77	1996.48
472.95	1872.43
473.13	2031.58
473.31	1895.83
473.49	1973.07
473.67	2005.84
473.85	2064.35
474.03	2071.37
474.21	2085.42
474.39	2062.01
474.57	2047.97
474.75	2076.06
474.93	2127.55
475.12	2069.03
475.30	2050.31
475.48	1928.60
475.66	2064.35
475.84	2036.27
476.02	1961.37
476.20	1987.11
476.38	2111.16
476.56	2087.76
476.74	2160.31
476.92	2209.47
477.10	2153.29
477.28	2319.47
477.46	2200.10
477.64	2260.96
477.82	2218.83
478.00	2172.02
478.18	2228.19
478.36	2244.57
478.54	2221.17
478.72	2340.54
478.90	2333.51
479.08	2356.92
479.26	2345.22
479.44	2436.50
479.62	2342.88
479.80	2284.36
479.98	2286.70
480.16	2333.51
480.34	2403.73
480.52	2396.71
480.70	2469.27
480.88	2354.58
481.06	2464.58
481.24	2438.84
481.41	2487.99
481.59	2466.92
481.77	2553.52
481.95	2633.10
482.13	2574.59
482.31	2466.92
482.49	2471.61
482.67	2595.65
482.85	2633.10
483.03	2590.97
483.21	2686.94
483.39	2682.25
483.57	2581.61
483.74	2558.21
483.92	2600.34
484.10	2736.09
484.28	2633.10
484.46	2698.64
484.64	2717.36
484.82	2588.63
485.00	2574.59
485.18	2539.48
485.35	2511.39
485.53	2366.28
485.71	2090.10
485.89	2146.27
486.07	2200.10
486.25	2502.03
486.43	2548.84
486.61	2574.59
486.78	2621.40
486.96	2647.15
487.14	2689.28
487.32	2787.58
487.50	2778.22
487.68	2867.16
487.85	2883.54
488.03	2956.10
488.21	2862.48
488.39	2862.48
488.57	2808.64
488.75	2724.38
488.92	2972.48
489.10	3056.74
489.28	3197.17
489.46	3178.45
489.64	3155.04
489.81	3220.58
489.99	3246.32
490.17	3077.80
490.35	3225.26
490.53	3176.11
490.70	3101.21
490.88	2998.23
491.06	3159.72
491.24	3141.00
491.41	3131.64
491.59	2986.52
491.77	2839.07
491.95	2944.39
492.13	3056.74
492.30	3208.87
492.48	3281.43
492.66	3368.03
492.84	3370.37
493.01	3309.52
493.19	3262.71
493.37	3183.13
493.54	3190.15
493.72	3281.43
493.90	3370.37
494.08	3403.14
494.25	3351.65
494.43	3515.48
494.61	3520.17
494.79	3438.25
494.96	3419.52
495.14	3461.65
495.32	3339.94
495.49	3304.84
495.67	3363.35
495.85	3370.37
496.02	3571.66
496.20	3463.99
496.38	3419.52
496.55	3463.99
496.73	3550.59
496.91	3487.40
497.09	3627.83
497.26	3667.62
497.44	3566.98
497.62	3686.34
497.79	3562.30
497.97	3335.26
498.14	3314.20
498.32	3435.91
498.50	3480.38
498.67	3548.25
498.85	3618.47
499.03	3524.85
499.20	3517.83
499.38	3492.08
499.56	3637.19
499.73	3686.34
499.91	3442.93
500.08	3393.78
500.26	3386.76
500.44	3442.93
500.61	3363.35
500.79	3351.65
500.97	3272.07
501.14	3314.20
501.32	3262.71
501.49	3204.19
501.67	3389.10
501.84	3466.33
502.02	3398.46
502.20	3405.48
502.37	3494.42
502.55	3541.23
502.72	3510.80
502.90	3613.79
503.07	3604.42
503.25	3550.59
503.43	3328.24
503.60	3372.71
503.78	3290.79
503.95	3192.49
504.13	3335.26
504.30	3538.89
504.48	3583.36
504.65	3468.67
504.83	3543.57
505.01	3534.21
505.18	3473.36
505.36	3588.04
505.53	3595.06
505.71	3723.79
505.88	3651.24
506.06	3651.24
506.23	3630.17
506.41	3585.70
506.58	3644.21
506.76	3581.02
506.93	3679.32
507.11	3536.55
507.28	3510.80
507.46	3639.53
507.63	3391.44
507.81	3503.78
507.98	3445.27
508.16	3538.89
508.33	3585.70
508.50	3665.28
508.68	3625.49
508.85	3714.43
509.03	3581.02
509.20	3838.48
509.38	3754.22
509.55	3789.33
509.73	3555.27
509.90	3609.11
510.08	3723.79
510.25	3674.64
510.42	3576.34
510.60	3623.15
510.77	3840.82
510.95	3782.31
511.12	3845.50
511.30	3838.48
511.47	3808.05
511.64	3911.04
511.82	3819.75
511.99	3714.43
512.17	3665.28
512.34	3681.66
512.51	3613.79
512.69	3808.05
512.86	3754.22
513.04	3726.13
513.21	3840.82
513.38	3754.22
513.56	3660.60
513.73	3592.72
513.90	3655.92
514.08	3543.57
514.25	3679.32
514.43	3754.22
514.60	3648.90
514.77	3669.96
514.95	3695.71
515.12	3655.92
515.29	3679.32
515.47	3803.37
515.64	3709.75
515.81	3648.90
515.99	3754.22
516.16	3473.36
516.33	3335.26
516.51	3162.06
516.68	2944.39
516.85	2949.08
517.03	3068.44
517.20	3297.81
517.37	3550.59
517.54	3723.79
517.72	3618.47
517.89	3407.82
518.06	3110.57
518.24	3349.31
518.41	3368.03
518.58	3461.65
518.75	3588.04
518.93	3543.57
519.10	3466.33
519.27	3574.00
519.45	3714.43
519.62	3829.12
519.79	3735.50
519.96	3735.50
520.14	3754.22
520.31	3597.40
520.48	3737.84
520.65	3583.36
520.83	3695.71
521.00	3777.62
521.17	3691.02
521.34	3735.50
521.52	3803.37
521.69	3887.63
521.86	3733.15
522.03	3794.01
522.20	3653.58
522.38	3480.38
522.55	3602.08
522.72	3581.02
522.89	3684.00
523.07	3756.56
523.24	3625.49
523.41	3805.71
523.58	3906.35
523.75	3791.67
523.92	3971.89
524.10	3992.95
524.27	3885.29
524.44	3950.82
524.61	3939.12
524.78	3810.39
524.96	3737.84
525.13	3803.37
525.30	3925.08
525.47	3981.25
525.64	3812.73
525.81	3826.78
525.98	3510.80
526.16	3566.98
526.33	3304.84
526.50	3386.76
526.67	3122.27
526.84	3297.81
527.01	3424.20
527.18	3524.85
527.36	3772.94
527.53	3819.75
527.70	3836.14
527.87	3681.66
528.04	3655.92
528.21	3770.60
528.38	3829.12
528.55	3852.52
528.72	3978.91
528.89	3978.91
529.07	3918.06
529.24	3915.72
529.41	3702.73
529.58	3803.37
529.75	3756.56
529.92	3667.62
530.09	3852.52
530.26	3857.20
530.43	3971.89
530.60	4072.53
530.77	3887.63
530.94	4135.73
531.11	3971.89
531.28	3941.46
531.46	3833.80
531.63	3988.27
531.80	3817.41
531.97	3812.73
532.14	3775.28
532.31	3571.66
532.48	3468.67
532.65	3506.12
532.82	3576.34
532.99	3784.65
533.16	3765.92
533.33	3967.21
533.50	3904.01
533.67	3798.69
533.84	3772.94
534.01	3740.18
534.18	3784.65
534.35	3889.97
534.52	3927.42
534.69	3747.20
534.86	3920.40
535.03	3913.38
535.20	3918.06
535.37	4049.13
535.54	3978.91
535.71	3971.89
535.88	3974.23
536.05	3955.51
536.22	3955.51
536.38	3847.84
536.55	3681.66
536.72	3634.85
536.89	3644.21
537.06	3801.03
537.23	3929.76
537.40	3946.14
537.57	3925.08
537.74	3978.91
537.91	3981.25
538.08	4004.66
538.25	3871.25
538.42	3796.35
538.59	4018.70
538.75	3854.86
538.92	3826.78
539.09	3822.09
539.26	3808.05
539.43	3866.56
539.60	3871.25
539.77	3810.39
539.94	3920.40
540.11	3754.22
540.28	3805.71
540.44	3969.55
540.61	3868.91
540.78	3932.10
540.95	4037.42
541.12	4262.12
541.29	4348.72
541.46	4505.53
541.62	4344.03
541.79	4468.08
541.96	4337.01
542.13	4227.01
542.30	4367.44
542.47	4320.63
542.63	4262.12
542.80	4210.62
542.97	4208.28
543.14	4182.54
543.31	4180.20
543.48	4315.95
543.64	4351.06
543.81	4461.06
543.98	4524.26
544.15	4255.09
544.32	4109.98
544.48	4196.58
544.65	4175.52
544.82	4234.03
544.99	4299.56
545.16	4227.01
545.32	4161.47
545.49	4634.26
545.66	5474.51
545.83	5933.26
546.00	5516.64
546.16	4856.61
546.33	4442.34
546.50	4318.29
546.67	4301.90
546.83	4025.72
547.00	4056.15
547.17	4018.70
547.34	3934.44
547.50	3985.93
547.67	3948.48
547.84	3964.87
548.00	3871.25
548.17	3962.53
548.34	3955.51
548.51	3955.51
548.67	4058.49
548.84	3894.65
549.01	4021.04
549.18	4007.00
549.34	3882.95
549.51	3999.98
549.68	4004.66
549.84	3885.29
550.01	3843.16
550.18	3826.78
550.34	3908.69
550.51	3791.67
550.68	3733.15
550.84	3864.22
551.01	3740.18
551.18	3892.31
551.34	3772.94
551.51	3829.12
551.68	3796.35
551.84	3831.46
552.01	3868.91
552.18	3737.84
552.34	3735.50
552.51	3655.92
552.68	3616.13
552.84	3543.57
553.01	3702.73
553.18	3655.92
553.34	3669.96
553.51	3595.06
553.67	3660.60
553.84	3822.09
554.01	3845.50
554.17	3569.32
554.34	3644.21
554.51	3562.30
554.67	3810.39
554.84	3660.60
555.00	3726.13
555.17	3637.19
555.33	3744.86
555.50	3482.72
555.67	3676.98
555.83	3463.99
556.00	3496.76
556.16	3777.62
556.33	3651.24
556.50	3515.48
556.66	3520.17
556.83	3536.55
556.99	3510.80
557.16	3499.10
557.32	3482.72
557.49	3471.01
557.65	3541.23
557.82	3574.00
557.98	3475.70
558.15	3496.76
558.32	3372.71
558.48	3283.77
558.65	3279.09
558.81	3260.37
558.98	3400.80
559.14	3421.86
559.31	3426.54
559.47	3442.93
559.64	3454.63
559.80	3419.52
559.97	3274.41
560.13	3377.39
560.30	3496.76
560.46	3559.95
560.63	3456.97
560.79	3517.83
560.96	3602.08
561.12	3449.95
561.29	3346.97
561.45	3337.60
561.61	3325.90
561.78	3569.32
561.94	3349.31
562.11	3311.86
562.27	3344.63
562.44	3314.20
562.60	3480.38
562.77	3506.12
562.93	3506.12
563.10	3529.53
563.26	3421.86
563.42	3372.71
563.59	3290.79
563.75	3372.71
563.92	3428.88
564.08	3424.20
564.24	3335.26
564.41	3391.44
564.57	3513.14
564.74	3386.76
564.90	3300.16
565.07	3346.97
565.23	3208.87
565.39	3141.00
565.56	3236.96
565.72	3229.94
565.88	3159.72
566.05	3229.94
566.21	3183.13
566.38	3108.23
566.54	3251.00
566.70	3330.58
566.87	3337.60
567.03	3368.03
567.19	3323.56
567.36	3438.25
567.52	3246.32
567.68	3152.70
567.85	3215.90
568.01	3133.98
568.17	3045.04
568.34	3009.93
568.50	3180.79
568.66	2944.39
568.83	3117.59
568.99	2991.20
569.15	3014.61
569.32	3035.67
569.48	2993.55
569.64	3030.99
569.81	3115.25
569.97	2958.44
570.13	3133.98
570.30	3138.66
570.46	3005.25
570.62	2904.60
570.78	2937.37
570.95	2972.48
571.11	2998.23
571.27	2970.14
571.43	3026.31
571.60	2963.12
571.76	3070.78
571.92	3122.27
572.09	3208.87
572.25	3108.23
572.41	3112.91
572.57	3066.10
572.74	3180.79
572.90	3141.00
573.06	2956.10
573.22	3211.22
573.38	3070.78
573.55	3021.63
573.71	3115.25
573.87	2963.12
574.03	2911.63
574.20	3115.25
574.36	2977.16
574.52	3038.02
574.68	3124.62
574.84	2895.24
575.01	2928.01
575.17	2967.80
575.33	2937.37
575.49	3042.70
575.65	3096.53
575.82	3035.67
575.98	2981.84
576.14	2895.24
576.30	3026.31
576.46	3185.47
576.62	3309.52
576.79	3508.46
576.95	3297.81
577.11	3101.21
577.27	3047.38
577.43	3005.25
577.59	3012.27
577.75	3019.29
577.92	2881.20
578.08	2923.33
578.24	2876.52
578.40	2981.84
578.56	3276.75
578.72	3316.54
578.88	3361.01
579.04	3260.37
579.21	3169.09
579.37	3049.72
579.53	3049.72
579.69	3138.66
579.85	2993.55
580.01	3227.60
580.17	3082.49
580.33	2939.71
580.49	3063.76
580.65	3033.33
580.82	3091.85
580.98	3218.24
581.14	2920.99
581.30	3211.22
581.46	3110.57
581.62	3068.44
581.78	3204.19
581.94	3112.91
582.10	3133.98
582.26	3190.15
582.42	3059.08
582.58	3227.60
582.74	3220.58
582.90	3096.53
583.06	3112.91
583.22	3185.47
583.38	3150.36
583.54	3234.62
583.70	3232.28
583.86	3180.79
584.02	3229.94
584.18	3253.34
584.34	3211.22
584.50	3073.12
584.66	3042.70
584.82	2963.12
584.98	3101.21
585.14	3045.04
585.30	3014.61
585.46	2928.01
585.62	2888.22
585.78	2867.16
585.94	2867.16
586.10	2925.67
586.26	2984.18
586.42	3059.08
586.58	3073.12
586.74	3066.10
586.90	3063.76
587.06	3073.12
587.22	3063.76
587.38	2981.84
587.54	2967.80
587.70	2846.09
587.86	2888.22
588.02	2668.21
588.18	2487.99
588.34	2593.31
588.49	2321.81
588.65	2239.89
588.81	2169.68
588.97	2209.47
589.13	2167.34
589.29	2125.21
589.45	2193.08
589.61	2296.07
589.77	2277.34
589.93	2314.79
590.08	2342.88
590.24	2530.12
590.40	2445.86
590.56	2595.65
590.72	2497.35
590.88	2438.84
591.04	2544.16
591.20	2485.65
591.35	2551.18
591.51	2623.74
591.67	2483.31
591.83	2434.16
591.99	2502.03
592.15	2485.65
592.31	2565.23
592.46	2621.40
592.62	2684.59
592.78	2602.68
592.94	2551.18
593.10	2663.53
593.26	2689.28
593.41	2787.58
593.57	2731.41
593.73	2654.17
593.89	2513.74
594.05	2382.67
594.20	2370.96
594.36	2310.11
594.52	2394.37
594.68	2265.64
594.84	2298.41
594.99	2534.80
595.15	2438.84
595.31	2497.35
595.47	2523.10
595.62	2452.88
595.78	2583.95
595.94	2607.36
596.10	2649.49
596.25	2555.86
596.41	2555.86
596.57	2436.50
596.73	2513.74
596.88	2637.78
597.04	2586.29
597.20	2459.90
597.36	2452.88
597.51	2551.18
597.67	2605.02
597.83	2485.65
597.99	2574.59
598.14	2619.06
598.30	2502.03
598.46	2609.70
