SpectraSuite Data File
++++++++++++++++++++++++++++++++++++
Date: Fri Oct 04 11:41:54 GMT-05:00 2013
User: price-jones
Dark Spectrum Present: No
Reference Spectrum Present: No
Number of Sampled Component Spectra: 1
Spectrometers: USB2+H05261
Integration Time (usec): 100000 (USB2+H05261)
Spectra Averaged: 1 (USB2+H05261)
Boxcar Smoothing: 0 (USB2+H05261)
Correct for Electrical Dark: No (USB2+H05261)
Strobe/Lamp Enabled: No (USB2+H05261)
Correct for Detector Non-linearity: No (USB2+H05261)
Correct for Stray Light: No (USB2+H05261)
Number of Pixels in Processed Spectrum: 2048
>>>>>Begin Processed Spectral Data<<<<<
365.73	35.11
365.92	35.11
366.12	35.11
366.32	0.00
366.52	0.00
366.72	0.00
366.91	0.00
367.11	0.00
367.31	0.00
367.51	0.00
367.70	0.00
367.90	0.00
368.10	18.72
368.30	14.04
368.49	0.00
368.69	81.92
368.89	0.00
369.09	0.00
369.28	0.00
369.48	0.00
369.68	0.00
369.87	0.00
370.07	0.00
370.27	46.81
370.47	7.02
370.66	0.00
370.86	0.00
371.06	51.49
371.25	121.71
371.45	49.15
371.65	91.28
371.84	107.66
372.04	49.15
372.24	51.49
372.44	0.00
372.63	154.48
372.83	105.32
373.03	86.60
373.22	72.56
373.42	119.37
373.62	86.60
373.81	86.60
374.01	149.79
374.21	152.13
374.40	119.37
374.60	128.73
374.79	147.45
374.99	98.30
375.19	142.77
375.38	161.50
375.58	159.16
375.78	119.37
375.97	145.11
376.17	128.73
376.37	131.07
376.56	98.30
376.76	79.58
376.95	112.35
377.15	114.69
377.35	126.39
377.54	173.20
377.74	81.92
377.93	98.30
378.13	124.05
378.33	194.26
378.52	138.09
378.72	133.41
378.91	86.60
379.11	154.48
379.31	88.94
379.50	74.90
379.70	88.94
379.89	140.43
380.09	70.22
380.28	60.85
380.48	107.66
380.68	102.98
380.87	91.28
381.07	126.39
381.26	168.52
381.46	126.39
381.65	105.32
381.85	135.75
382.04	128.73
382.24	138.09
382.43	77.24
382.63	88.94
382.83	133.41
383.02	138.09
383.22	98.30
383.41	117.03
383.61	67.88
383.80	44.47
384.00	81.92
384.19	124.05
384.39	74.90
384.58	102.98
384.78	112.35
384.97	128.73
385.17	140.43
385.36	184.90
385.56	102.98
385.75	102.98
385.95	124.05
386.14	95.96
386.34	30.43
386.53	152.13
386.72	77.24
386.92	114.69
387.11	128.73
387.31	74.90
387.50	175.54
387.70	98.30
387.89	119.37
388.09	67.88
388.28	91.28
388.48	124.05
388.67	131.07
388.86	72.56
389.06	98.30
389.25	98.30
389.45	201.29
389.64	154.48
389.84	140.43
390.03	119.37
390.22	77.24
390.42	119.37
390.61	88.94
390.81	65.54
391.00	86.60
391.19	203.63
391.39	135.75
391.58	147.45
391.78	131.07
391.97	91.28
392.16	86.60
392.36	135.75
392.55	147.45
392.75	145.11
392.94	81.92
393.13	98.30
393.33	86.60
393.52	145.11
393.71	198.95
393.91	124.05
394.10	149.79
394.29	110.01
394.49	63.19
394.68	142.77
394.88	128.73
395.07	177.88
395.26	105.32
395.46	112.35
395.65	124.05
395.84	98.30
396.04	189.58
396.23	86.60
396.42	88.94
396.62	84.26
396.81	166.18
397.00	154.48
397.19	161.50
397.39	95.96
397.58	182.56
397.77	147.45
397.97	107.66
398.16	177.88
398.35	114.69
398.55	133.41
398.74	119.37
398.93	58.51
399.12	135.75
399.32	105.32
399.51	131.07
399.70	60.85
399.90	70.22
400.09	135.75
400.28	112.35
400.47	131.07
400.67	105.32
400.86	121.71
401.05	131.07
401.24	180.22
401.44	124.05
401.63	128.73
401.82	159.16
402.01	86.60
402.21	114.69
402.40	124.05
402.59	161.50
402.78	198.95
402.97	170.86
403.17	191.92
403.36	182.56
403.55	201.29
403.74	369.80
403.93	830.89
404.13	1502.62
404.32	1551.78
404.51	1359.85
404.70	723.23
404.89	376.83
405.09	234.05
405.28	133.41
405.47	154.48
405.66	156.82
405.85	182.56
406.05	140.43
406.24	128.73
406.43	170.86
406.62	105.32
406.81	140.43
407.00	276.18
407.20	322.99
407.39	358.10
407.58	351.08
407.77	271.50
407.96	227.03
408.15	152.13
408.34	180.22
408.54	86.60
408.73	229.37
408.92	140.43
409.11	140.43
409.30	152.13
409.49	107.66
409.68	166.18
409.87	112.35
410.07	124.05
410.26	177.88
410.45	142.77
410.64	84.26
410.83	152.13
411.02	124.05
411.21	168.52
411.40	201.29
411.59	114.69
411.78	149.79
411.98	135.75
412.17	152.13
412.36	212.99
412.55	163.84
412.74	147.45
412.93	177.88
413.12	156.82
413.31	161.50
413.50	201.29
413.69	91.28
413.88	110.01
414.07	152.13
414.26	112.35
414.45	117.03
414.64	114.69
414.83	180.22
415.02	98.30
415.22	128.73
415.41	184.90
415.60	152.13
415.79	128.73
415.98	142.77
416.17	152.13
416.36	133.41
416.55	84.26
416.74	95.96
416.93	133.41
417.12	133.41
417.31	156.82
417.50	105.32
417.69	257.46
417.88	114.69
418.07	198.95
418.26	173.20
418.45	166.18
418.64	280.86
418.83	138.09
419.02	93.62
419.21	194.26
419.39	205.97
419.58	173.20
419.77	187.24
419.96	145.11
420.15	173.20
420.34	117.03
420.53	196.60
420.72	182.56
420.91	147.45
421.10	142.77
421.29	173.20
421.48	234.05
421.67	142.77
421.86	159.16
422.05	131.07
422.24	131.07
422.43	121.71
422.61	124.05
422.80	124.05
422.99	180.22
423.18	128.73
423.37	191.92
423.56	191.92
423.75	154.48
423.94	175.54
424.13	238.73
424.32	163.84
424.50	163.84
424.69	72.56
424.88	182.56
425.07	161.50
425.26	128.73
425.45	145.11
425.64	182.56
425.83	205.97
426.01	124.05
426.20	187.24
426.39	208.31
426.58	117.03
426.77	147.45
426.96	184.90
427.15	161.50
427.33	173.20
427.52	152.13
427.71	196.60
427.90	173.20
428.09	163.84
428.28	138.09
428.46	210.65
428.65	201.29
428.84	163.84
429.03	135.75
429.22	187.24
429.40	208.31
429.59	140.43
429.78	156.82
429.97	142.77
430.16	215.33
430.34	205.97
430.53	175.54
430.72	140.43
430.91	205.97
431.10	236.39
431.28	212.99
431.47	133.41
431.66	255.12
431.85	231.71
432.03	163.84
432.22	227.03
432.41	196.60
432.60	238.73
432.79	210.65
432.97	231.71
433.16	245.76
433.35	154.48
433.54	280.86
433.72	287.89
433.91	187.24
434.10	255.12
434.28	327.68
434.47	334.70
434.66	353.42
434.85	550.03
435.03	1540.07
435.22	4535.96
435.41	7000.54
435.59	6188.38
435.78	3946.14
435.97	2008.18
436.16	800.46
436.34	379.17
436.53	266.82
436.72	313.63
436.90	271.50
437.09	243.42
437.28	198.95
437.46	154.48
437.65	243.42
437.84	133.41
438.02	280.86
438.21	280.86
438.40	241.08
438.58	175.54
438.77	241.08
438.96	205.97
439.14	191.92
439.33	210.65
439.52	154.48
439.70	252.78
439.89	283.20
440.08	210.65
440.26	250.44
440.45	208.31
440.63	259.80
440.82	163.84
441.01	306.61
441.19	248.10
441.38	196.60
441.57	184.90
441.75	231.71
441.94	257.46
442.12	241.08
442.31	224.69
442.50	177.88
442.68	264.48
442.87	248.10
443.05	205.97
443.24	243.42
443.43	196.60
443.61	245.76
443.80	222.35
443.98	229.37
444.17	217.67
444.35	243.42
444.54	212.99
444.73	259.80
444.91	234.05
445.10	203.63
445.28	248.10
445.47	210.65
445.65	180.22
445.84	217.67
446.02	220.01
446.21	177.88
446.39	205.97
446.58	212.99
446.77	243.42
446.95	189.58
447.14	290.23
447.32	236.39
447.51	238.73
447.69	203.63
447.88	276.18
448.06	266.82
448.25	248.10
448.43	243.42
448.62	234.05
448.80	203.63
448.99	222.35
449.17	184.90
449.36	187.24
449.54	245.76
449.73	198.95
449.91	276.18
450.10	238.73
450.28	229.37
450.46	180.22
450.65	245.76
450.83	208.31
451.02	217.67
451.20	177.88
451.39	224.69
451.57	266.82
451.76	215.33
451.94	234.05
452.13	215.33
452.31	205.97
452.49	248.10
452.68	276.18
452.86	220.01
453.05	243.42
453.23	234.05
453.42	203.63
453.60	175.54
453.78	159.16
453.97	217.67
454.15	175.54
454.34	229.37
454.52	163.84
454.70	248.10
454.89	227.03
455.07	255.12
455.26	173.20
455.44	241.08
455.62	262.14
455.81	177.88
455.99	280.86
456.17	241.08
456.36	191.92
456.54	208.31
456.73	173.20
456.91	175.54
457.09	269.16
457.28	163.84
457.46	250.44
457.64	276.18
457.83	198.95
458.01	184.90
458.19	271.50
458.38	271.50
458.56	205.97
458.74	224.69
458.93	294.91
459.11	241.08
459.29	255.12
459.48	210.65
459.66	273.84
459.84	220.01
460.03	250.44
460.21	203.63
460.39	217.67
460.57	273.84
460.76	255.12
460.94	280.86
461.12	245.76
461.31	205.97
461.49	177.88
461.67	208.31
461.85	224.69
462.04	231.71
462.22	706.84
462.40	201.29
462.59	269.16
462.77	159.16
462.95	227.03
463.13	308.95
463.32	241.08
463.50	215.33
463.68	168.52
463.86	215.33
464.05	255.12
464.23	290.23
464.41	224.69
464.59	168.52
464.78	217.67
464.96	264.48
465.14	152.13
465.32	196.60
465.50	259.80
465.69	257.46
465.87	196.60
466.05	180.22
466.23	205.97
466.41	234.05
466.60	191.92
466.78	220.01
466.96	250.44
467.14	231.71
467.32	231.71
467.51	201.29
467.69	201.29
467.87	205.97
468.05	205.97
468.23	252.78
468.41	231.71
468.60	159.16
468.78	210.65
468.96	236.39
469.14	210.65
469.32	210.65
469.50	215.33
469.69	212.99
469.87	161.50
470.05	245.76
470.23	236.39
470.41	191.92
470.59	208.31
470.77	208.31
470.95	194.26
471.14	259.80
471.32	210.65
471.50	252.78
471.68	241.08
471.86	262.14
472.04	227.03
472.22	215.33
472.40	205.97
472.58	227.03
472.77	215.33
472.95	173.20
473.13	308.95
473.31	184.90
473.49	191.92
473.67	212.99
473.85	168.52
474.03	210.65
474.21	222.35
474.39	320.65
474.57	283.20
474.75	241.08
474.93	297.25
475.12	257.46
475.30	154.48
475.48	212.99
475.66	252.78
475.84	224.69
476.02	248.10
476.20	273.84
476.38	252.78
476.56	220.01
476.74	212.99
476.92	236.39
477.10	201.29
477.28	243.42
477.46	276.18
477.64	182.56
477.82	276.18
478.00	205.97
478.18	320.65
478.36	273.84
478.54	257.46
478.72	294.91
478.90	245.76
479.08	280.86
479.26	215.33
479.44	292.57
479.62	264.48
479.80	217.67
479.98	315.97
480.16	276.18
480.34	327.68
480.52	264.48
480.70	334.70
480.88	276.18
481.06	285.55
481.24	358.10
481.41	259.80
481.59	339.38
481.77	360.44
481.95	379.17
482.13	421.30
482.31	416.62
482.49	421.30
482.67	442.36
482.85	489.17
483.03	423.64
483.21	416.62
483.39	486.83
483.57	531.30
483.74	571.09
483.92	564.07
484.10	552.37
484.28	599.18
484.46	667.05
484.64	669.39
484.82	596.84
485.00	695.14
485.18	760.67
485.35	739.61
485.53	770.04
485.71	819.19
485.89	697.48
486.07	805.14
486.25	858.98
486.43	866.00
486.61	828.55
486.78	823.87
486.96	809.83
487.14	809.83
487.32	739.61
487.50	760.67
487.68	833.23
487.85	786.42
488.03	779.40
488.21	847.27
488.39	674.07
488.57	716.20
488.75	713.86
488.92	1025.15
489.10	760.67
489.28	746.63
489.46	713.86
489.64	732.59
489.81	760.67
489.99	692.80
490.17	685.78
490.35	758.33
490.53	648.33
490.70	692.80
490.88	734.93
491.06	706.84
491.24	774.72
491.41	751.31
491.59	706.84
491.77	592.16
491.95	653.01
492.13	571.09
492.30	575.77
492.48	610.88
492.66	540.66
492.84	524.28
493.01	671.73
493.19	564.07
493.37	653.01
493.54	650.67
493.72	533.64
493.90	634.29
494.08	566.41
494.25	526.62
494.43	547.69
494.61	496.19
494.79	493.85
494.96	498.53
495.14	528.96
495.32	531.30
495.49	547.69
495.67	423.64
495.85	479.81
496.02	498.53
496.20	524.28
496.38	491.51
496.55	538.32
496.73	451.72
496.91	573.43
497.09	468.11
497.26	533.64
497.44	561.73
497.62	440.02
497.79	517.26
497.97	451.72
498.14	404.91
498.32	461.09
498.50	400.23
498.67	470.45
498.85	425.98
499.03	423.64
499.20	451.72
499.38	447.04
499.56	409.59
499.73	418.96
499.91	444.70
500.08	456.40
500.26	411.93
500.44	416.62
500.61	379.17
500.79	332.36
500.97	407.25
501.14	320.65
501.32	297.25
501.49	346.40
501.67	381.51
501.84	374.49
502.02	294.91
502.20	304.27
502.37	341.72
502.55	346.40
502.72	273.84
502.90	365.12
503.07	318.31
503.25	360.44
503.43	248.10
503.60	290.23
503.78	294.91
503.95	297.25
504.13	250.44
504.30	327.68
504.48	351.08
504.65	311.29
504.83	313.63
505.01	318.31
505.18	262.14
505.36	259.80
505.53	269.16
505.71	318.31
505.88	322.99
506.06	306.61
506.23	283.20
506.41	341.72
506.58	351.08
506.76	313.63
506.93	248.10
507.11	283.20
507.28	308.95
507.46	248.10
507.63	189.58
507.81	355.76
507.98	250.44
508.16	332.36
508.33	276.18
508.50	304.27
508.68	322.99
508.85	348.74
509.03	294.91
509.20	241.08
509.38	304.27
509.55	365.12
509.73	266.82
509.90	397.89
510.08	311.29
510.25	205.97
510.42	320.65
510.60	308.95
510.77	311.29
510.95	264.48
511.12	365.12
511.30	327.68
511.47	280.86
511.64	365.12
511.82	234.05
511.99	280.86
512.17	280.86
512.34	266.82
512.51	292.57
512.69	238.73
512.86	255.12
513.04	227.03
513.21	280.86
513.38	227.03
513.56	308.95
513.73	297.25
513.90	238.73
514.08	222.35
514.25	299.59
514.43	255.12
514.60	245.76
514.77	334.70
514.95	241.08
515.12	208.31
515.29	262.14
515.47	201.29
515.64	208.31
515.81	287.89
515.99	292.57
516.16	229.37
516.33	262.14
516.51	203.63
516.68	229.37
516.85	351.08
517.03	306.61
517.20	266.82
517.37	269.16
517.54	283.20
517.72	257.46
517.89	212.99
518.06	271.50
518.24	278.52
518.41	269.16
518.58	252.78
518.75	327.68
518.93	346.40
519.10	276.18
519.27	278.52
519.45	266.82
519.62	320.65
519.79	320.65
519.96	243.42
520.14	201.29
520.31	325.33
520.48	217.67
520.65	278.52
520.83	264.48
521.00	280.86
521.17	203.63
521.34	210.65
521.52	212.99
521.69	212.99
521.86	238.73
522.03	334.70
522.20	250.44
522.38	234.05
522.55	292.57
522.72	271.50
522.89	337.04
523.07	280.86
523.24	290.23
523.41	264.48
523.58	196.60
523.75	220.01
523.92	243.42
524.10	283.20
524.27	337.04
524.44	285.55
524.61	330.02
524.78	250.44
524.96	273.84
525.13	285.55
525.30	276.18
525.47	290.23
525.64	376.83
525.81	252.78
525.98	318.31
526.16	229.37
526.33	313.63
526.50	341.72
526.67	215.33
526.84	177.88
527.01	360.44
527.18	330.02
527.36	351.08
527.53	290.23
527.70	334.70
527.87	269.16
528.04	409.59
528.21	306.61
528.38	339.38
528.55	290.23
528.72	360.44
528.89	238.73
529.07	292.57
529.24	306.61
529.41	353.42
529.58	320.65
529.75	271.50
529.92	348.74
530.09	313.63
530.26	290.23
530.43	313.63
530.60	308.95
530.77	313.63
530.94	355.76
531.11	259.80
531.28	313.63
531.46	315.97
531.63	381.51
531.80	339.38
531.97	344.06
532.14	402.57
532.31	337.04
532.48	493.85
532.65	475.13
532.82	463.43
532.99	526.62
533.16	580.45
533.33	547.69
533.50	528.96
533.67	475.13
533.84	444.70
534.01	418.96
534.18	423.64
534.35	416.62
534.52	423.64
534.69	360.44
534.86	411.93
535.03	463.43
535.20	409.59
535.37	393.21
535.54	489.17
535.71	500.87
535.88	582.79
536.05	528.96
536.22	561.73
536.38	608.54
536.55	631.94
536.72	718.54
536.89	678.76
537.06	772.38
537.23	842.59
537.40	877.70
537.57	943.24
537.74	1013.45
537.91	987.71
538.08	1069.62
538.25	971.32
538.42	1069.62
538.59	1128.14
538.75	1043.88
538.92	1245.16
539.09	1352.83
539.26	1380.92
539.43	1493.26
539.60	1753.06
539.77	1863.07
539.94	1987.11
540.11	2176.70
540.28	2544.16
540.44	2822.69
540.61	2920.99
540.78	3459.31
540.95	4028.06
541.12	4816.82
541.29	5022.79
541.46	5380.89
541.62	5280.25
541.79	5041.51
541.96	4641.28
542.13	4383.82
542.30	4086.58
542.47	3955.51
542.63	3791.67
542.80	3726.13
542.97	3749.54
543.14	3691.02
543.31	3658.26
543.48	3616.13
543.64	3836.14
543.81	3779.97
543.98	3712.09
544.15	3756.56
544.32	3861.88
544.48	3742.52
544.65	3494.42
544.82	3747.20
544.99	3768.26
545.16	3901.67
545.32	4063.17
545.49	8252.73
545.66	12807.41
545.83	13462.76
546.00	11169.04
546.16	7875.90
546.33	5799.85
546.50	4327.65
546.67	3602.08
546.83	3267.39
547.00	3101.21
547.17	2925.67
547.34	2768.85
547.50	2752.47
547.67	2752.47
547.84	2579.27
548.00	2492.67
548.17	2363.94
548.34	2317.13
548.51	2286.70
548.67	2141.59
548.84	2179.04
549.01	1926.26
549.18	1827.96
549.34	1872.43
549.51	1783.49
549.68	1827.96
549.84	1645.40
550.01	1575.18
550.18	1680.50
550.34	1528.37
550.51	1540.07
550.68	1373.89
550.84	1268.57
551.01	1238.14
551.18	1184.31
551.34	1104.73
551.51	1121.12
551.68	1167.93
551.84	1060.26
552.01	1015.79
552.18	999.41
552.34	954.94
552.51	1022.81
552.68	959.62
552.84	891.74
553.01	887.06
553.18	805.14
553.34	842.59
553.51	748.97
553.67	812.17
553.84	821.53
554.01	624.92
554.17	732.59
554.34	645.99
554.51	653.01
554.67	519.60
554.84	594.50
555.00	571.09
555.17	528.96
555.33	500.87
555.50	484.49
555.67	596.84
555.83	468.11
556.00	454.06
556.16	650.67
556.33	430.66
556.50	463.43
556.66	489.17
556.83	528.96
556.99	374.49
557.16	402.57
557.32	341.72
557.49	386.19
557.65	379.17
557.82	390.87
557.98	390.87
558.15	322.99
558.32	428.32
558.48	418.96
558.65	351.08
558.81	315.97
558.98	346.40
559.14	327.68
559.31	348.74
559.47	362.78
559.64	358.10
559.80	341.72
559.97	294.91
560.13	262.14
560.30	339.38
560.46	294.91
560.63	435.34
560.79	351.08
560.96	409.59
561.12	348.74
561.29	351.08
561.45	395.55
561.61	280.86
561.78	428.32
561.94	390.87
562.11	430.66
562.27	315.97
562.44	367.46
562.60	355.76
562.77	334.70
562.93	383.85
563.10	297.25
563.26	276.18
563.42	383.85
563.59	301.93
563.75	271.50
563.92	437.68
564.08	348.74
564.24	351.08
564.41	330.02
564.57	285.55
564.74	348.74
564.90	327.68
565.07	327.68
565.23	334.70
565.39	276.18
565.56	341.72
565.72	287.89
565.88	325.33
566.05	325.33
566.21	276.18
566.38	337.04
566.54	294.91
566.70	257.46
566.87	273.84
567.03	241.08
567.19	294.91
567.36	358.10
567.52	259.80
567.68	353.42
567.85	367.46
568.01	348.74
568.17	339.38
568.34	292.57
568.50	299.59
568.66	266.82
568.83	297.25
568.99	304.27
569.15	313.63
569.32	311.29
569.48	290.23
569.64	245.76
569.81	294.91
569.97	175.54
570.13	224.69
570.30	191.92
570.46	280.86
570.62	255.12
570.78	203.63
570.95	243.42
571.11	280.86
571.27	320.65
571.43	266.82
571.60	306.61
571.76	222.35
571.92	231.71
572.09	266.82
572.25	294.91
572.41	292.57
572.57	318.31
572.74	297.25
572.90	304.27
573.06	278.52
573.22	292.57
573.38	276.18
573.55	325.33
573.71	271.50
573.87	248.10
574.03	229.37
574.20	215.33
574.36	334.70
574.52	222.35
574.68	327.68
574.84	252.78
575.01	308.95
575.17	327.68
575.33	325.33
575.49	337.04
575.65	397.89
575.82	423.64
575.98	369.80
576.14	416.62
576.30	753.65
576.46	1879.45
576.62	2490.33
576.79	2511.39
576.95	1739.02
577.11	1219.42
577.27	898.77
577.43	636.63
577.59	566.41
577.75	545.34
577.92	486.83
578.08	414.27
578.24	421.30
578.40	791.10
578.56	1778.81
578.72	2204.78
578.88	2129.89
579.04	1633.69
579.21	1111.75
579.37	856.64
579.53	746.63
579.69	910.47
579.85	1008.77
580.01	1083.67
580.17	1086.01
580.33	917.49
580.49	828.55
580.65	814.51
580.82	676.41
580.98	657.69
581.14	688.12
581.30	690.46
581.46	847.27
581.62	826.21
581.78	755.99
581.94	980.68
582.10	891.74
582.26	987.71
582.42	1069.62
582.58	1015.79
582.74	990.05
582.90	1088.35
583.06	1151.54
583.22	1090.69
583.38	1123.46
583.54	1074.31
583.70	1149.20
583.86	1032.18
584.02	994.73
584.18	1104.73
584.34	945.58
584.50	1006.43
584.66	917.49
584.82	959.62
584.98	978.34
585.14	919.83
585.30	912.81
585.46	891.74
585.62	844.93
585.78	922.17
585.94	910.47
586.10	924.51
586.26	877.70
586.42	1193.67
586.58	1200.69
586.74	1575.18
586.90	1851.36
587.06	1998.82
587.22	1842.00
587.38	1605.61
587.54	1390.28
587.70	1263.89
587.86	1125.80
588.02	968.98
588.18	924.51
588.34	884.72
588.49	791.10
588.65	713.86
588.81	695.14
588.97	713.86
589.13	592.16
589.29	648.33
589.45	660.03
589.61	599.18
589.77	678.76
589.93	643.65
590.08	645.99
590.24	697.48
590.40	739.61
590.56	746.63
590.72	688.12
590.88	653.01
591.04	760.67
591.20	858.98
591.35	873.02
591.51	847.27
591.67	854.30
591.83	870.68
591.99	985.37
592.15	983.02
592.31	1062.60
592.46	1125.80
592.62	1322.40
592.78	1315.38
592.94	1364.53
593.10	1254.53
593.26	1228.78
593.41	1128.14
593.57	1109.41
593.73	931.53
593.89	880.04
594.05	779.40
594.20	774.72
594.36	613.22
594.52	601.52
594.68	608.54
594.84	615.56
594.99	671.73
595.15	657.69
595.31	657.69
595.47	634.29
595.62	571.09
595.78	622.58
595.94	643.65
596.10	655.35
596.25	528.96
596.41	631.94
596.57	528.96
596.73	517.26
596.88	594.50
597.04	561.73
597.20	573.43
597.36	613.22
597.51	533.64
597.67	631.94
597.83	655.35
597.99	723.23
598.14	688.12
598.30	779.40
598.46	798.12
598.61	758.33
598.77	861.32
598.93	819.19
599.09	844.93
599.24	779.40
599.40	905.79
599.56	798.12
599.71	800.46
599.87	751.31
600.03	760.67
600.18	739.61
600.34	685.78
600.50	554.71
600.65	615.56
600.81	519.60
600.97	524.28
601.12	650.67
601.28	561.73
601.44	486.83
601.59	514.92
601.75	463.43
601.91	421.30
602.06	489.17
602.22	510.24
602.37	514.92
602.53	435.34
602.69	500.87
602.84	404.91
603.00	449.38
603.16	500.87
603.31	454.06
603.47	451.72
603.62	421.30
603.78	566.41
603.94	575.77
604.09	503.22
604.25	456.40
604.40	491.51
604.56	528.96
604.71	514.92
604.87	458.74
605.03	528.96
605.18	517.26
605.34	512.58
605.49	596.84
605.65	564.07
605.80	493.85
605.96	622.58
606.12	552.37
606.27	592.16
606.43	596.84
606.58	657.69
606.74	669.39
606.89	653.01
607.05	699.82
607.20	678.76
607.36	751.31
607.51	802.80
607.67	887.06
607.82	725.57
607.98	950.26
608.13	999.41
608.29	1102.39
608.44	1181.97
608.60	1121.12
608.75	1341.13
608.91	1430.07
609.06	1591.56
609.22	1610.29
609.37	1902.86
609.53	2026.90
609.68	2312.45
