SpectraSuite Data File
++++++++++++++++++++++++++++++++++++
Date: Fri Oct 04 11:42:21 GMT-05:00 2013
User: price-jones
Dark Spectrum Present: No
Reference Spectrum Present: No
Number of Sampled Component Spectra: 1
Spectrometers: USB2+H05261
Integration Time (usec): 100000 (USB2+H05261)
Spectra Averaged: 1 (USB2+H05261)
Boxcar Smoothing: 0 (USB2+H05261)
Correct for Electrical Dark: No (USB2+H05261)
Strobe/Lamp Enabled: No (USB2+H05261)
Correct for Detector Non-linearity: No (USB2+H05261)
Correct for Stray Light: No (USB2+H05261)
Number of Pixels in Processed Spectrum: 2048
>>>>>Begin Processed Spectral Data<<<<<
365.73	42.13
365.92	42.13
366.12	42.13
366.32	0.00
366.52	0.00
366.72	0.00
366.91	0.00
367.11	0.00
367.31	0.00
367.51	0.00
367.70	0.00
367.90	0.00
368.10	0.00
368.30	0.00
368.49	0.00
368.69	0.00
368.89	0.00
369.09	0.00
369.28	0.00
369.48	0.00
369.68	0.00
369.87	0.00
370.07	4.68
370.27	102.98
370.47	18.72
370.66	51.49
370.86	81.92
371.06	95.96
371.25	177.88
371.45	0.00
371.65	117.03
371.84	11.70
372.04	88.94
372.24	60.85
372.44	128.73
372.63	194.26
372.83	74.90
373.03	149.79
373.22	77.24
373.42	135.75
373.62	173.20
373.81	133.41
374.01	126.39
374.21	166.18
374.40	110.01
374.60	152.13
374.79	187.24
374.99	95.96
375.19	156.82
375.38	175.54
375.58	173.20
375.78	70.22
375.97	79.58
376.17	147.45
376.37	145.11
376.56	107.66
376.76	126.39
376.95	72.56
377.15	194.26
377.35	70.22
377.54	128.73
377.74	161.50
377.93	124.05
378.13	142.77
378.33	121.71
378.52	105.32
378.72	77.24
378.91	100.64
379.11	95.96
379.31	145.11
379.50	135.75
379.70	196.60
379.89	140.43
380.09	152.13
380.28	67.88
380.48	79.58
380.68	140.43
380.87	53.83
381.07	110.01
381.26	98.30
381.46	142.77
381.65	182.56
381.85	182.56
382.04	173.20
382.24	107.66
382.43	84.26
382.63	79.58
382.83	135.75
383.02	149.79
383.22	131.07
383.41	159.16
383.61	156.82
383.80	119.37
384.00	121.71
384.19	110.01
384.39	107.66
384.58	98.30
384.78	67.88
384.97	110.01
385.17	105.32
385.36	110.01
385.56	93.62
385.75	93.62
385.95	135.75
386.14	51.49
386.34	147.45
386.53	119.37
386.72	156.82
386.92	126.39
387.11	145.11
387.31	81.92
387.50	98.30
387.70	84.26
387.89	117.03
388.09	67.88
388.28	138.09
388.48	65.54
388.67	88.94
388.86	135.75
389.06	112.35
389.25	152.13
389.45	126.39
389.64	56.17
389.84	124.05
390.03	161.50
390.22	152.13
390.42	133.41
390.61	105.32
390.81	42.13
391.00	166.18
391.19	182.56
391.39	95.96
391.58	79.58
391.78	42.13
391.97	46.81
392.16	28.09
392.36	147.45
392.55	175.54
392.75	135.75
392.94	140.43
393.13	65.54
393.33	91.28
393.52	74.90
393.71	224.69
393.91	70.22
394.10	161.50
394.29	117.03
394.49	124.05
394.68	117.03
394.88	126.39
395.07	140.43
395.26	131.07
395.46	79.58
395.65	95.96
395.84	133.41
396.04	229.37
396.23	184.90
396.42	72.56
396.62	91.28
396.81	168.52
397.00	60.85
397.19	121.71
397.39	46.81
397.58	177.88
397.77	117.03
397.97	98.30
398.16	124.05
398.35	170.86
398.55	102.98
398.74	91.28
398.93	189.58
399.12	133.41
399.32	177.88
399.51	138.09
399.70	102.98
399.90	156.82
400.09	117.03
400.28	149.79
400.47	84.26
400.67	133.41
400.86	177.88
401.05	170.86
401.24	121.71
401.44	56.17
401.63	117.03
401.82	168.52
402.01	135.75
402.21	161.50
402.40	107.66
402.59	131.07
402.78	121.71
402.97	131.07
403.17	159.16
403.36	126.39
403.55	259.80
403.74	519.60
403.93	1404.32
404.13	2818.00
404.32	3262.71
404.51	2670.55
404.70	1519.01
404.89	617.90
405.09	301.93
405.28	245.76
405.47	184.90
405.66	180.22
405.85	161.50
406.05	191.92
406.24	53.83
406.43	100.64
406.62	177.88
406.81	189.58
407.00	292.57
407.20	451.72
407.39	493.85
407.58	517.26
407.77	425.98
407.96	292.57
408.15	191.92
408.34	140.43
408.54	168.52
408.73	173.20
408.92	203.63
409.11	107.66
409.30	145.11
409.49	93.62
409.68	215.33
409.87	175.54
410.07	138.09
410.26	128.73
410.45	107.66
410.64	156.82
410.83	145.11
411.02	133.41
411.21	161.50
411.40	142.77
411.59	117.03
411.78	131.07
411.98	227.03
412.17	196.60
412.36	138.09
412.55	124.05
412.74	191.92
412.93	194.26
413.12	114.69
413.31	182.56
413.50	152.13
413.69	170.86
413.88	184.90
414.07	149.79
414.26	154.48
414.45	95.96
414.64	182.56
414.83	283.20
415.02	194.26
415.22	229.37
415.41	159.16
415.60	212.99
415.79	198.95
415.98	191.92
416.17	227.03
416.36	140.43
416.55	159.16
416.74	299.59
416.93	257.46
417.12	182.56
417.31	142.77
417.50	222.35
417.69	196.60
417.88	227.03
418.07	189.58
418.26	210.65
418.45	156.82
418.64	241.08
418.83	220.01
419.02	147.45
419.21	189.58
419.39	145.11
419.58	196.60
419.77	67.88
419.96	220.01
420.15	304.27
420.34	168.52
420.53	252.78
420.72	227.03
420.91	201.29
421.10	166.18
421.29	215.33
421.48	243.42
421.67	222.35
421.86	145.11
422.05	198.95
422.24	161.50
422.43	245.76
422.61	231.71
422.80	276.18
422.99	290.23
423.18	189.58
423.37	222.35
423.56	173.20
423.75	234.05
423.94	105.32
424.13	135.75
424.32	243.42
424.50	180.22
424.69	222.35
424.88	248.10
425.07	163.84
425.26	217.67
425.45	257.46
425.64	280.86
425.83	250.44
426.01	306.61
426.20	215.33
426.39	287.89
426.58	215.33
426.77	280.86
426.96	241.08
427.15	222.35
427.33	283.20
427.52	215.33
427.71	217.67
427.90	177.88
428.09	217.67
428.28	264.48
428.46	184.90
428.65	224.69
428.84	262.14
429.03	236.39
429.22	203.63
429.40	269.16
429.59	170.86
429.78	173.20
429.97	252.78
430.16	231.71
430.34	257.46
430.53	201.29
430.72	205.97
430.91	262.14
431.10	180.22
431.28	241.08
431.47	280.86
431.66	327.68
431.85	245.76
432.03	217.67
432.22	372.15
432.41	266.82
432.60	273.84
432.79	287.89
432.97	344.06
433.16	241.08
433.35	311.29
433.54	358.10
433.72	465.77
433.91	379.17
434.10	416.62
434.28	418.96
434.47	465.77
434.66	592.16
434.85	795.78
435.03	2326.49
435.22	8088.89
435.41	14951.34
435.59	13247.43
435.78	8636.58
435.97	4311.27
436.16	1673.48
436.34	706.84
436.53	510.24
436.72	421.30
436.90	367.46
437.09	365.12
437.28	283.20
437.46	341.72
437.65	353.42
437.84	416.62
438.02	313.63
438.21	386.19
438.40	358.10
438.58	283.20
438.77	299.59
438.96	304.27
439.14	306.61
439.33	276.18
439.52	297.25
439.70	325.33
439.89	390.87
440.08	301.93
440.26	332.36
440.45	313.63
440.63	325.33
440.82	334.70
441.01	280.86
441.19	290.23
441.38	269.16
441.57	299.59
441.75	304.27
441.94	297.25
442.12	264.48
442.31	367.46
442.50	266.82
442.68	320.65
442.87	299.59
443.05	287.89
443.24	285.55
443.43	325.33
443.61	271.50
443.80	390.87
443.98	243.42
444.17	299.59
444.35	269.16
444.54	287.89
444.73	259.80
444.91	360.44
445.10	304.27
445.28	255.12
445.47	264.48
445.65	304.27
445.84	290.23
446.02	264.48
446.21	264.48
446.39	369.80
446.58	292.57
446.77	248.10
446.95	208.31
447.14	311.29
447.32	339.38
447.51	311.29
447.69	283.20
447.88	322.99
448.06	292.57
448.25	299.59
448.43	313.63
448.62	292.57
448.80	269.16
448.99	271.50
449.17	325.33
449.36	365.12
449.54	332.36
449.73	299.59
449.91	322.99
450.10	276.18
450.28	301.93
450.46	407.25
450.65	334.70
450.83	320.65
451.02	304.27
451.20	241.08
451.39	332.36
451.57	341.72
451.76	222.35
451.94	262.14
452.13	376.83
452.31	355.76
452.49	304.27
452.68	306.61
452.86	348.74
453.05	287.89
453.23	304.27
453.42	285.55
453.60	252.78
453.78	257.46
453.97	290.23
454.15	287.89
454.34	294.91
454.52	369.80
454.70	367.46
454.89	367.46
455.07	318.31
455.26	322.99
455.44	301.93
455.62	308.95
455.81	264.48
455.99	322.99
456.17	308.95
456.36	304.27
456.54	308.95
456.73	346.40
456.91	196.60
457.09	294.91
457.28	369.80
457.46	308.95
457.64	278.52
457.83	266.82
458.01	285.55
458.19	299.59
458.38	252.78
458.56	250.44
458.74	255.12
458.93	276.18
459.11	285.55
459.29	304.27
459.48	322.99
459.66	322.99
459.84	285.55
460.03	301.93
460.21	292.57
460.39	381.51
460.57	404.91
460.76	311.29
460.94	320.65
461.12	367.46
461.31	278.52
461.49	294.91
461.67	264.48
461.85	308.95
462.04	210.65
462.22	386.19
462.40	383.85
462.59	344.06
462.77	257.46
462.95	315.97
463.13	313.63
463.32	294.91
463.50	285.55
463.68	348.74
463.86	367.46
464.05	248.10
464.23	250.44
464.41	400.23
464.59	234.05
464.78	294.91
464.96	241.08
465.14	297.25
465.32	266.82
465.50	318.31
465.69	318.31
465.87	341.72
466.05	318.31
466.23	290.23
466.41	325.33
466.60	308.95
466.78	271.50
466.96	374.49
467.14	236.39
467.32	285.55
467.51	266.82
467.69	276.18
467.87	365.12
468.05	280.86
468.23	306.61
468.41	308.95
468.60	318.31
468.78	278.52
468.96	278.52
469.14	285.55
469.32	290.23
469.50	315.97
469.69	308.95
469.87	294.91
470.05	273.84
470.23	238.73
470.41	280.86
470.59	358.10
470.77	369.80
470.95	325.33
471.14	334.70
471.32	287.89
471.50	301.93
471.68	358.10
471.86	264.48
472.04	217.67
472.22	346.40
472.40	315.97
472.58	311.29
472.77	292.57
472.95	353.42
473.13	330.02
473.31	280.86
473.49	250.44
473.67	259.80
473.85	290.23
474.03	318.31
474.21	280.86
474.39	346.40
474.57	341.72
474.75	341.72
474.93	341.72
475.12	287.89
475.30	252.78
475.48	264.48
475.66	372.15
475.84	280.86
476.02	346.40
476.20	250.44
476.38	301.93
476.56	400.23
476.74	376.83
476.92	318.31
477.10	273.84
477.28	271.50
477.46	266.82
477.64	339.38
477.82	290.23
478.00	255.12
478.18	315.97
478.36	325.33
478.54	250.44
478.72	243.42
478.90	292.57
479.08	411.93
479.26	341.72
479.44	379.17
479.62	348.74
479.80	297.25
479.98	348.74
480.16	386.19
480.34	367.46
480.52	355.76
480.70	472.79
480.88	425.98
481.06	386.19
481.24	423.64
481.41	395.55
481.59	503.22
481.77	519.60
481.95	554.71
482.13	550.03
482.31	669.39
482.49	594.50
482.67	638.97
482.85	692.80
483.03	753.65
483.21	812.17
483.39	774.72
483.57	809.83
483.74	866.00
483.92	973.66
484.10	889.40
484.28	1032.18
484.46	1163.25
484.64	1198.35
484.82	1156.22
485.00	1233.46
485.18	1188.99
485.35	1366.87
485.53	1369.21
485.71	1446.45
485.89	1462.83
486.07	1420.71
486.25	1598.59
486.43	1596.25
486.61	1533.05
486.78	1558.80
486.96	1502.62
487.14	1603.27
487.32	1521.35
487.50	1535.39
487.68	1591.56
487.85	1446.45
488.03	1507.30
488.21	1413.68
488.39	1378.58
488.57	1282.61
488.75	1343.47
488.92	1582.20
489.10	1256.87
489.28	1308.36
489.46	1317.72
489.64	1280.27
489.81	1184.31
489.99	1327.08
490.17	1188.99
490.35	1329.42
490.53	1179.63
490.70	1240.48
490.88	1130.48
491.06	1338.79
491.24	1336.45
491.41	1308.36
491.59	1275.59
491.77	1184.31
491.95	1181.97
492.13	1097.71
492.30	1036.86
492.48	1097.71
492.66	1107.07
492.84	1095.37
493.01	1027.50
493.19	1041.54
493.37	1001.75
493.54	952.60
493.72	1018.13
493.90	931.53
494.08	952.60
494.25	1011.11
494.43	957.28
494.61	898.77
494.79	919.83
494.96	884.72
495.14	851.96
495.32	880.04
495.49	847.27
495.67	851.96
495.85	840.25
496.02	826.21
496.20	861.32
496.38	870.68
496.55	896.43
496.73	706.84
496.91	819.19
497.09	833.23
497.26	830.89
497.44	744.29
497.62	786.42
497.79	702.16
497.97	730.25
498.14	758.33
498.32	697.48
498.50	763.01
498.67	638.97
498.85	650.67
499.03	573.43
499.20	587.47
499.38	645.99
499.56	594.50
499.73	706.84
499.91	702.16
500.08	575.77
500.26	543.00
500.44	568.75
500.61	589.82
500.79	491.51
500.97	554.71
501.14	545.34
501.32	578.11
501.49	601.52
501.67	428.32
501.84	404.91
502.02	484.49
502.20	533.64
502.37	512.58
502.55	416.62
502.72	400.23
502.90	503.22
503.07	442.36
503.25	505.56
503.43	435.34
503.60	454.06
503.78	411.93
503.95	409.59
504.13	376.83
504.30	451.72
504.48	411.93
504.65	454.06
504.83	339.38
505.01	374.49
505.18	397.89
505.36	351.08
505.53	379.17
505.71	388.53
505.88	428.32
506.06	330.02
506.23	362.78
506.41	388.53
506.58	397.89
506.76	297.25
506.93	315.97
507.11	418.96
507.28	308.95
507.46	358.10
507.63	313.63
507.81	266.82
507.98	334.70
508.16	273.84
508.33	388.53
508.50	376.83
508.68	304.27
508.85	367.46
509.03	322.99
509.20	299.59
509.38	397.89
509.55	411.93
509.73	369.80
509.90	339.38
510.08	360.44
510.25	297.25
510.42	348.74
510.60	311.29
510.77	327.68
510.95	346.40
511.12	339.38
511.30	334.70
511.47	320.65
511.64	355.76
511.82	374.49
511.99	271.50
512.17	395.55
512.34	269.16
512.51	306.61
512.69	304.27
512.86	311.29
513.04	294.91
513.21	311.29
513.38	318.31
513.56	262.14
513.73	264.48
513.90	220.01
514.08	376.83
514.25	367.46
514.43	304.27
514.60	278.52
514.77	327.68
514.95	351.08
515.12	337.04
515.29	301.93
515.47	304.27
515.64	360.44
515.81	299.59
515.99	297.25
516.16	325.33
516.33	372.15
516.51	292.57
516.68	294.91
516.85	236.39
517.03	262.14
517.20	292.57
517.37	320.65
517.54	320.65
517.72	238.73
517.89	304.27
518.06	262.14
518.24	358.10
518.41	308.95
518.58	320.65
518.75	287.89
518.93	318.31
519.10	337.04
519.27	348.74
519.45	341.72
519.62	341.72
519.79	332.36
519.96	280.86
520.14	294.91
520.31	269.16
520.48	402.57
520.65	278.52
520.83	351.08
521.00	271.50
521.17	278.52
521.34	248.10
521.52	306.61
521.69	229.37
521.86	294.91
522.03	283.20
522.20	330.02
522.38	362.78
522.55	351.08
522.72	236.39
522.89	332.36
523.07	313.63
523.24	250.44
523.41	231.71
523.58	341.72
523.75	337.04
523.92	404.91
524.10	280.86
524.27	294.91
524.44	245.76
524.61	393.21
524.78	294.91
524.96	374.49
525.13	327.68
525.30	337.04
525.47	346.40
525.64	327.68
525.81	304.27
525.98	374.49
526.16	301.93
526.33	330.02
526.50	306.61
526.67	269.16
526.84	285.55
527.01	320.65
527.18	390.87
527.36	369.80
527.53	449.38
527.70	423.64
527.87	320.65
528.04	376.83
528.21	304.27
528.38	407.25
528.55	358.10
528.72	381.51
528.89	393.21
529.07	358.10
529.24	355.76
529.41	444.70
529.58	433.00
529.75	404.91
529.92	318.31
530.09	383.85
530.26	409.59
530.43	428.32
530.60	360.44
530.77	390.87
530.94	458.74
531.11	458.74
531.28	421.30
531.46	400.23
531.63	418.96
531.80	475.13
531.97	477.47
532.14	622.58
532.31	566.41
532.48	660.03
532.65	704.50
532.82	695.14
532.99	889.40
533.16	1025.15
533.33	957.28
533.50	945.58
533.67	784.08
533.84	727.91
534.01	653.01
534.18	636.63
534.35	669.39
534.52	603.86
534.69	681.10
534.86	627.26
535.03	685.78
535.20	763.01
535.37	788.76
535.54	774.72
535.71	847.27
535.88	866.00
536.05	877.70
536.22	910.47
536.38	1086.01
536.55	1123.46
536.72	1111.75
536.89	1383.26
537.06	1413.68
537.23	1652.42
537.40	1776.47
537.57	1816.26
537.74	1884.13
537.91	1968.39
538.08	1952.01
538.25	1963.71
538.42	2005.84
538.59	2120.53
538.75	2113.50
538.92	2270.32
539.09	2457.56
539.26	2768.85
539.43	3126.96
539.60	3548.25
539.77	3981.25
539.94	4269.14
540.11	4772.35
540.28	5195.99
540.44	5710.91
540.61	6260.93
540.78	7222.89
540.95	8334.65
541.12	10066.64
541.29	10925.62
541.46	11360.96
541.62	11318.83
541.79	10752.42
541.96	10120.48
542.13	9350.44
542.30	8816.80
542.47	8388.48
542.63	8028.04
542.80	7674.62
542.97	7658.23
543.14	7681.64
543.31	7648.87
543.48	7829.09
543.64	7578.65
543.81	8051.44
543.98	7770.58
544.15	7824.41
544.32	8131.02
544.48	8009.31
544.65	7700.36
544.82	7826.75
544.99	7691.00
545.16	7737.81
545.32	8547.64
545.49	16819.09
545.66	27620.66
545.83	31297.64
546.00	24840.11
546.16	17554.02
546.33	13144.45
546.50	9703.86
546.67	7852.50
546.83	6977.14
547.00	6682.23
547.17	6368.60
547.34	6057.31
547.50	5912.19
547.67	5818.57
547.84	5390.25
548.00	5296.63
548.17	5011.09
548.34	4903.42
548.51	4819.16
548.67	4430.63
548.84	4386.16
549.01	4266.80
549.18	4044.45
549.34	3735.50
549.51	3681.66
549.68	3513.14
549.84	3471.01
550.01	3288.45
550.18	3155.04
550.34	3164.40
550.51	2878.86
550.68	2775.88
550.84	2523.10
551.01	2417.77
551.18	2347.56
551.34	2263.30
551.51	2228.19
551.68	2026.90
551.84	2045.63
552.01	1984.77
552.18	1893.49
552.34	1748.38
552.51	1792.85
552.68	1703.91
552.84	1643.06
553.01	1584.54
553.18	1612.63
553.34	1465.18
553.51	1359.85
553.67	1390.28
553.84	1383.26
554.01	1291.98
554.17	1268.57
554.34	1104.73
554.51	1104.73
554.67	1083.67
554.84	1004.09
555.00	882.38
555.17	861.32
555.33	894.08
555.50	868.34
555.67	847.27
555.83	702.16
556.00	678.76
556.16	877.70
556.33	793.44
556.50	699.82
556.66	657.69
556.83	580.45
556.99	634.29
557.16	643.65
557.32	592.16
557.49	650.67
557.65	606.20
557.82	559.39
557.98	608.54
558.15	547.69
558.32	550.03
558.48	444.70
558.65	559.39
558.81	564.07
558.98	475.13
559.14	498.53
559.31	510.24
559.47	554.71
559.64	470.45
559.80	465.77
559.97	489.17
560.13	433.00
560.30	538.32
560.46	475.13
560.63	463.43
560.79	433.00
560.96	545.34
561.12	428.32
561.29	517.26
561.45	409.59
561.61	517.26
561.78	573.43
561.94	535.98
562.11	510.24
562.27	456.40
562.44	468.11
562.60	440.02
562.77	379.17
562.93	496.19
563.10	477.47
563.26	444.70
563.42	500.87
563.59	531.30
563.75	428.32
563.92	423.64
564.08	372.15
564.24	505.56
564.41	477.47
564.57	421.30
564.74	425.98
564.90	416.62
565.07	440.02
565.23	472.79
565.39	393.21
565.56	351.08
565.72	397.89
565.88	449.38
566.05	325.33
566.21	400.23
566.38	358.10
566.54	395.55
566.70	416.62
566.87	346.40
567.03	433.00
567.19	360.44
567.36	390.87
567.52	423.64
567.68	418.96
567.85	311.29
568.01	428.32
568.17	351.08
568.34	409.59
568.50	386.19
568.66	379.17
568.83	510.24
568.99	348.74
569.15	440.02
569.32	297.25
569.48	348.74
569.64	353.42
569.81	355.76
569.97	322.99
570.13	400.23
570.30	360.44
570.46	290.23
570.62	322.99
570.78	325.33
570.95	266.82
571.11	381.51
571.27	388.53
571.43	334.70
571.60	409.59
571.76	337.04
571.92	379.17
572.09	325.33
572.25	360.44
572.41	397.89
572.57	330.02
572.74	393.21
572.90	360.44
573.06	294.91
573.22	383.85
573.38	369.80
573.55	322.99
573.71	320.65
573.87	421.30
574.03	327.68
574.20	337.04
574.36	400.23
574.52	362.78
574.68	414.27
574.84	393.21
575.01	421.30
575.17	433.00
575.33	425.98
575.49	479.81
575.65	554.71
575.82	524.28
575.98	519.60
576.14	709.18
576.30	1341.13
576.46	3777.62
576.62	5167.90
576.79	5104.71
576.95	3702.73
577.11	2532.46
577.27	1774.13
577.43	1233.46
577.59	994.73
577.75	739.61
577.92	711.52
578.08	725.57
578.24	709.18
578.40	1291.98
578.56	3581.02
578.72	4709.16
578.88	4697.46
579.04	3623.15
579.21	2609.70
579.37	1966.05
579.53	1551.78
579.69	1671.14
579.85	1853.70
580.01	2181.38
580.17	1982.43
580.33	1743.70
580.49	1460.49
580.65	1378.58
580.82	1231.12
580.98	1207.72
581.14	1200.69
581.30	1357.51
581.46	1439.43
581.62	1547.09
581.78	1638.38
581.94	1652.42
582.10	1743.70
582.26	1989.46
582.42	2043.29
582.58	2059.67
582.74	2190.74
582.90	2129.89
583.06	2193.08
583.22	2071.37
583.38	2136.91
583.54	2031.58
583.70	2019.88
583.86	2101.80
584.02	2047.97
584.18	1905.20
584.34	1846.68
584.50	1881.79
584.66	1886.47
584.82	1816.26
584.98	1722.63
585.14	1863.07
585.30	1764.76
585.46	1701.57
585.62	1708.59
585.78	1771.79
585.94	1851.36
586.10	1832.64
586.26	1944.99
586.42	2183.72
586.58	2642.46
586.74	3241.64
586.90	3588.04
587.06	3794.01
587.22	3714.43
587.38	3274.41
587.54	2906.95
587.70	2450.54
587.86	2228.19
588.02	1902.86
588.18	1706.25
588.34	1551.78
588.49	1390.28
588.65	1383.26
588.81	1310.70
588.97	1282.61
589.13	1151.54
589.29	1219.42
589.45	1214.74
589.61	1210.06
589.77	1158.57
589.93	1203.04
590.08	1156.22
590.24	1301.34
590.40	1378.58
590.56	1430.07
590.72	1413.68
590.88	1369.21
591.04	1401.98
591.20	1511.99
591.35	1568.16
591.51	1589.22
591.67	1579.86
591.83	1806.89
591.99	1968.39
592.15	2153.29
592.31	2246.91
592.46	2487.99
592.62	2502.03
592.78	2733.75
592.94	2759.49
593.10	2696.30
593.26	2558.21
593.41	2429.48
593.57	2188.40
593.73	2010.52
593.89	1724.97
594.05	1554.12
594.20	1504.96
594.36	1296.66
594.52	1210.06
594.68	1228.78
594.84	1181.97
594.99	1205.38
595.15	1034.52
595.31	1153.88
595.47	990.05
595.62	1071.97
595.78	1088.35
595.94	1114.10
596.10	1114.10
596.25	1020.47
596.41	1071.97
596.57	1114.10
596.73	1057.92
596.88	1100.05
597.04	1022.81
597.20	1174.95
597.36	1132.82
597.51	1193.67
597.67	1160.91
597.83	1380.92
597.99	1256.87
598.14	1268.57
598.30	1455.81
598.46	1469.86
598.61	1556.46
598.77	1640.72
598.93	1671.14
599.09	1722.63
599.24	1746.04
599.40	1755.40
599.56	1673.48
599.71	1584.54
599.87	1448.79
600.03	1301.34
600.18	1284.95
600.34	1245.16
600.50	1228.78
600.65	1139.84
600.81	978.34
600.97	1032.18
601.12	1055.58
601.28	1060.26
601.44	903.45
601.59	833.23
601.75	847.27
601.91	772.38
602.06	891.74
602.22	924.51
602.37	730.25
602.53	779.40
602.69	793.44
602.84	753.65
603.00	741.95
603.16	826.21
603.31	779.40
603.47	807.48
603.62	837.91
603.78	812.17
603.94	938.55
604.09	800.46
604.25	868.34
604.40	856.64
604.56	905.79
604.71	931.53
604.87	800.46
605.03	866.00
605.18	919.83
605.34	940.90
605.49	968.98
605.65	929.19
605.80	938.55
605.96	994.73
606.12	1100.05
606.27	1006.43
606.43	1144.52
606.58	1207.72
606.74	1221.76
606.89	1299.00
607.05	1313.04
607.20	1437.09
607.36	1446.45
