SpectraSuite Data File
++++++++++++++++++++++++++++++++++++
Date: Fri Oct 04 11:42:02 GMT-05:00 2013
User: price-jones
Dark Spectrum Present: No
Reference Spectrum Present: No
Number of Sampled Component Spectra: 1
Spectrometers: USB2+H05261
Integration Time (usec): 100000 (USB2+H05261)
Spectra Averaged: 1 (USB2+H05261)
Boxcar Smoothing: 0 (USB2+H05261)
Correct for Electrical Dark: No (USB2+H05261)
Strobe/Lamp Enabled: No (USB2+H05261)
Correct for Detector Non-linearity: No (USB2+H05261)
Correct for Stray Light: No (USB2+H05261)
Number of Pixels in Processed Spectrum: 2048
>>>>>Begin Processed Spectral Data<<<<<
365.73	25.75
365.92	25.75
366.12	25.75
366.32	0.00
366.52	0.00
366.72	0.00
366.91	0.00
367.11	0.00
367.31	0.00
367.51	0.00
367.70	0.00
367.90	0.00
368.10	0.00
368.30	4.68
368.49	0.00
368.69	0.00
368.89	0.00
369.09	0.00
369.28	0.00
369.48	0.00
369.68	28.09
369.87	0.00
370.07	0.00
370.27	72.56
370.47	42.13
370.66	0.00
370.86	56.17
371.06	60.85
371.25	102.98
371.45	131.07
371.65	93.62
371.84	60.85
372.04	9.36
372.24	107.66
372.44	98.30
372.63	128.73
372.83	128.73
373.03	63.19
373.22	102.98
373.42	42.13
373.62	142.77
373.81	131.07
374.01	131.07
374.21	196.60
374.40	154.48
374.60	152.13
374.79	110.01
374.99	145.11
375.19	152.13
375.38	163.84
375.58	100.64
375.78	114.69
375.97	161.50
376.17	98.30
376.37	105.32
376.56	124.05
376.76	110.01
376.95	91.28
377.15	117.03
377.35	77.24
377.54	166.18
377.74	107.66
377.93	60.85
378.13	131.07
378.33	147.45
378.52	119.37
378.72	163.84
378.91	135.75
379.11	88.94
379.31	140.43
379.50	131.07
379.70	180.22
379.89	159.16
380.09	105.32
380.28	100.64
380.48	84.26
380.68	126.39
380.87	74.90
381.07	170.86
381.26	114.69
381.46	166.18
381.65	121.71
381.85	67.88
382.04	126.39
382.24	70.22
382.43	149.79
382.63	93.62
382.83	14.04
383.02	147.45
383.22	119.37
383.41	152.13
383.61	81.92
383.80	180.22
384.00	119.37
384.19	124.05
384.39	147.45
384.58	110.01
384.78	117.03
384.97	95.96
385.17	114.69
385.36	65.54
385.56	168.52
385.75	63.19
385.95	121.71
386.14	138.09
386.34	133.41
386.53	86.60
386.72	107.66
386.92	114.69
387.11	124.05
387.31	163.84
387.50	88.94
387.70	126.39
387.89	77.24
388.09	56.17
388.28	88.94
388.48	100.64
388.67	152.13
388.86	142.77
389.06	58.51
389.25	124.05
389.45	112.35
389.64	112.35
389.84	135.75
390.03	212.99
390.22	168.52
390.42	72.56
390.61	126.39
390.81	105.32
391.00	147.45
391.19	145.11
391.39	140.43
391.58	152.13
391.78	72.56
391.97	126.39
392.16	107.66
392.36	117.03
392.55	175.54
392.75	142.77
392.94	18.72
393.13	147.45
393.33	138.09
393.52	138.09
393.71	201.29
393.91	135.75
394.10	32.77
394.29	102.98
394.49	67.88
394.68	121.71
394.88	145.11
395.07	154.48
395.26	95.96
395.46	131.07
395.65	147.45
395.84	131.07
396.04	203.63
396.23	126.39
396.42	81.92
396.62	110.01
396.81	105.32
397.00	46.81
397.19	126.39
397.39	138.09
397.58	194.26
397.77	84.26
397.97	208.31
398.16	168.52
398.35	95.96
398.55	67.88
398.74	177.88
398.93	142.77
399.12	107.66
399.32	173.20
399.51	119.37
399.70	154.48
399.90	131.07
400.09	114.69
400.28	133.41
400.47	110.01
400.67	98.30
400.86	112.35
401.05	128.73
401.24	135.75
401.44	84.26
401.63	175.54
401.82	215.33
402.01	126.39
402.21	180.22
402.40	173.20
402.59	198.95
402.78	72.56
402.97	154.48
403.17	177.88
403.36	266.82
403.55	285.55
403.74	566.41
403.93	1816.26
404.13	3749.54
404.32	4926.83
404.51	4060.83
404.70	2429.48
404.89	788.76
405.09	379.17
405.28	276.18
405.47	234.05
405.66	220.01
405.85	152.13
406.05	152.13
406.24	147.45
406.43	173.20
406.62	229.37
406.81	198.95
407.00	271.50
407.20	580.45
407.39	641.31
407.58	683.44
407.77	507.90
407.96	395.55
408.15	124.05
408.34	184.90
408.54	156.82
408.73	182.56
408.92	168.52
409.11	222.35
409.30	191.92
409.49	133.41
409.68	70.22
409.87	131.07
410.07	159.16
410.26	177.88
410.45	163.84
410.64	229.37
410.83	131.07
411.02	105.32
411.21	100.64
411.40	210.65
411.59	191.92
411.78	121.71
411.98	205.97
412.17	86.60
412.36	163.84
412.55	191.92
412.74	170.86
412.93	191.92
413.12	163.84
413.31	163.84
413.50	236.39
413.69	152.13
413.88	203.63
414.07	243.42
414.26	182.56
414.45	112.35
414.64	168.52
414.83	222.35
415.02	182.56
415.22	243.42
415.41	259.80
415.60	102.98
415.79	201.29
415.98	140.43
416.17	208.31
416.36	210.65
416.55	224.69
416.74	205.97
416.93	217.67
417.12	290.23
417.31	147.45
417.50	231.71
417.69	278.52
417.88	163.84
418.07	187.24
418.26	189.58
418.45	243.42
418.64	278.52
418.83	212.99
419.02	212.99
419.21	182.56
419.39	212.99
419.58	227.03
419.77	229.37
419.96	276.18
420.15	180.22
420.34	161.50
420.53	168.52
420.72	236.39
420.91	271.50
421.10	177.88
421.29	175.54
421.48	241.08
421.67	205.97
421.86	224.69
422.05	318.31
422.24	259.80
422.43	255.12
422.61	238.73
422.80	170.86
422.99	215.33
423.18	198.95
423.37	330.02
423.56	227.03
423.75	252.78
423.94	227.03
424.13	311.29
424.32	250.44
424.50	227.03
424.69	224.69
424.88	243.42
425.07	198.95
425.26	299.59
425.45	175.54
425.64	227.03
425.83	245.76
426.01	304.27
426.20	299.59
426.39	184.90
426.58	257.46
426.77	187.24
426.96	276.18
427.15	322.99
427.33	238.73
427.52	290.23
427.71	262.14
427.90	243.42
428.09	313.63
428.28	224.69
428.46	301.93
428.65	346.40
428.84	257.46
429.03	330.02
429.22	243.42
429.40	248.10
429.59	252.78
429.78	322.99
429.97	250.44
430.16	229.37
430.34	297.25
430.53	388.53
430.72	243.42
430.91	271.50
431.10	231.71
431.28	372.15
431.47	346.40
431.66	334.70
431.85	311.29
432.03	334.70
432.22	348.74
432.41	362.78
432.60	407.25
432.79	337.04
432.97	374.49
433.16	341.72
433.35	507.90
433.54	447.04
433.72	505.56
433.91	461.09
434.10	543.00
434.28	739.61
434.47	774.72
434.66	695.14
434.85	1022.81
435.03	2808.64
435.22	10511.35
435.41	21294.19
435.59	20287.76
435.78	13247.43
435.97	6569.88
436.16	2609.70
436.34	964.30
436.53	589.82
436.72	526.62
436.90	498.53
437.09	454.06
437.28	440.02
437.46	407.25
437.65	395.55
437.84	400.23
438.02	374.49
438.21	404.91
438.40	365.12
438.58	308.95
438.77	381.51
438.96	395.55
439.14	360.44
439.33	362.78
439.52	383.85
439.70	397.89
439.89	365.12
440.08	358.10
440.26	393.21
440.45	435.34
440.63	404.91
440.82	386.19
441.01	315.97
441.19	381.51
441.38	355.76
441.57	423.64
441.75	297.25
441.94	407.25
442.12	374.49
442.31	409.59
442.50	442.36
442.68	280.86
442.87	390.87
443.05	376.83
443.24	397.89
443.43	383.85
443.61	428.32
443.80	313.63
443.98	341.72
444.17	400.23
444.35	269.16
444.54	330.02
444.73	337.04
444.91	416.62
445.10	423.64
445.28	355.76
445.47	411.93
445.65	383.85
445.84	341.72
446.02	376.83
446.21	332.36
446.39	341.72
446.58	367.46
446.77	395.55
446.95	311.29
447.14	327.68
447.32	369.80
447.51	332.36
447.69	362.78
447.88	381.51
448.06	346.40
448.25	304.27
448.43	332.36
448.62	409.59
448.80	367.46
448.99	351.08
449.17	365.12
449.36	353.42
449.54	362.78
449.73	252.78
449.91	271.50
450.10	374.49
450.28	365.12
450.46	393.21
450.65	379.17
450.83	353.42
451.02	376.83
451.20	372.15
451.39	397.89
451.57	369.80
451.76	306.61
451.94	299.59
452.13	369.80
452.31	320.65
452.49	306.61
452.68	290.23
452.86	337.04
453.05	407.25
453.23	308.95
453.42	330.02
453.60	292.57
453.78	337.04
453.97	327.68
454.15	313.63
454.34	351.08
454.52	376.83
454.70	418.96
454.89	456.40
455.07	346.40
455.26	358.10
455.44	369.80
455.62	404.91
455.81	362.78
455.99	311.29
456.17	407.25
456.36	407.25
456.54	294.91
456.73	306.61
456.91	416.62
457.09	348.74
457.28	301.93
457.46	407.25
457.64	325.33
457.83	318.31
458.01	320.65
458.19	325.33
458.38	351.08
458.56	451.72
458.74	304.27
458.93	264.48
459.11	278.52
459.29	290.23
459.48	327.68
459.66	353.42
459.84	381.51
460.03	507.90
460.21	334.70
460.39	325.33
460.57	362.78
460.76	334.70
460.94	337.04
461.12	348.74
461.31	416.62
461.49	341.72
461.67	369.80
461.85	416.62
462.04	325.33
462.22	702.16
462.40	372.15
462.59	339.38
462.77	269.16
462.95	383.85
463.13	367.46
463.32	393.21
463.50	308.95
463.68	346.40
463.86	327.68
464.05	311.29
464.23	290.23
464.41	313.63
464.59	362.78
464.78	374.49
464.96	374.49
465.14	404.91
465.32	301.93
465.50	376.83
465.69	304.27
465.87	311.29
466.05	395.55
466.23	376.83
466.41	383.85
466.60	421.30
466.78	393.21
466.96	404.91
467.14	358.10
467.32	301.93
467.51	388.53
467.69	294.91
467.87	315.97
468.05	365.12
468.23	404.91
468.41	374.49
468.60	327.68
468.78	337.04
468.96	341.72
469.14	337.04
469.32	294.91
469.50	339.38
469.69	285.55
469.87	402.57
470.05	351.08
470.23	327.68
470.41	290.23
470.59	344.06
470.77	409.59
470.95	311.29
471.14	353.42
471.32	339.38
471.50	325.33
471.68	304.27
471.86	353.42
472.04	365.12
472.22	294.91
472.40	332.36
472.58	362.78
472.77	320.65
472.95	409.59
473.13	379.17
473.31	346.40
473.49	339.38
473.67	393.21
473.85	416.62
474.03	308.95
474.21	278.52
474.39	313.63
474.57	388.53
474.75	351.08
474.93	322.99
475.12	390.87
475.30	332.36
475.48	318.31
475.66	304.27
475.84	337.04
476.02	325.33
476.20	292.57
476.38	416.62
476.56	381.51
476.74	334.70
476.92	304.27
477.10	353.42
477.28	390.87
477.46	358.10
477.64	367.46
477.82	388.53
478.00	353.42
478.18	365.12
478.36	472.79
478.54	369.80
478.72	320.65
478.90	292.57
479.08	447.04
479.26	360.44
479.44	402.57
479.62	407.25
479.80	458.74
479.98	496.19
480.16	475.13
480.34	554.71
480.52	503.22
480.70	517.26
480.88	517.26
481.06	538.32
481.24	641.31
481.41	449.38
481.59	547.69
481.77	645.99
481.95	697.48
482.13	716.20
482.31	723.23
482.49	793.44
482.67	849.61
482.85	926.85
483.03	1006.43
483.21	964.30
483.39	1046.22
483.57	1139.84
483.74	1245.16
483.92	1254.53
484.10	1348.15
484.28	1313.04
484.46	1392.62
484.64	1476.88
484.82	1556.46
485.00	1614.97
485.18	1692.21
485.35	1888.81
485.53	1900.52
485.71	1961.37
485.89	1963.71
486.07	2059.67
486.25	2172.02
486.43	2223.51
486.61	2179.04
486.78	2120.53
486.96	2134.57
487.14	2146.27
487.32	2174.36
487.50	2143.93
487.68	2134.57
487.85	2085.42
488.03	2003.50
488.21	1994.14
488.39	1914.56
488.57	1898.17
488.75	1750.72
488.92	1991.80
489.10	1755.40
489.28	1729.66
489.46	1750.72
489.64	1736.68
489.81	1736.68
489.99	1699.23
490.17	1673.48
490.35	1650.08
490.53	1579.86
490.70	1621.99
490.88	1722.63
491.06	1769.44
491.24	1830.30
491.41	1832.64
491.59	1820.94
491.77	1600.93
491.95	1605.61
492.13	1455.81
492.30	1514.33
492.48	1507.30
492.66	1516.67
492.84	1439.43
493.01	1519.01
493.19	1331.76
493.37	1383.26
493.54	1406.66
493.72	1387.94
493.90	1341.13
494.08	1324.74
494.25	1315.38
494.43	1226.44
494.61	1437.09
494.79	1282.61
494.96	1156.22
495.14	1125.80
495.32	1235.80
495.49	1296.66
495.67	1193.67
495.85	1184.31
496.02	1100.05
496.20	1142.18
496.38	1083.67
496.55	1156.22
496.73	1137.50
496.91	964.30
497.09	1015.79
497.26	954.94
497.44	1025.15
497.62	961.96
497.79	980.68
497.97	1078.99
498.14	884.72
498.32	896.43
498.50	844.93
498.67	814.51
498.85	947.92
499.03	777.06
499.20	849.61
499.38	821.53
499.56	844.93
499.73	826.21
499.91	784.08
500.08	746.63
500.26	779.40
500.44	697.48
500.61	636.63
500.79	648.33
500.97	669.39
501.14	650.67
501.32	681.10
501.49	620.24
501.67	489.17
501.84	512.58
502.02	580.45
502.20	617.90
502.37	575.77
502.55	592.16
502.72	575.77
502.90	545.34
503.07	491.51
503.25	514.92
503.43	451.72
503.60	472.79
503.78	514.92
503.95	458.74
504.13	418.96
504.30	517.26
504.48	449.38
504.65	559.39
504.83	421.30
505.01	486.83
505.18	393.21
505.36	484.49
505.53	472.79
505.71	442.36
505.88	440.02
506.06	362.78
506.23	409.59
506.41	465.77
506.58	458.74
506.76	402.57
506.93	369.80
507.11	355.76
507.28	369.80
507.46	430.66
507.63	400.23
507.81	404.91
507.98	428.32
508.16	362.78
508.33	433.00
508.50	353.42
508.68	463.43
508.85	379.17
509.03	402.57
509.20	423.64
509.38	423.64
509.55	404.91
509.73	355.76
509.90	351.08
510.08	400.23
510.25	425.98
510.42	315.97
510.60	341.72
510.77	351.08
510.95	395.55
511.12	372.15
511.30	440.02
511.47	390.87
511.64	386.19
511.82	355.76
511.99	339.38
512.17	411.93
512.34	376.83
512.51	372.15
512.69	306.61
512.86	362.78
513.04	355.76
513.21	390.87
513.38	362.78
513.56	351.08
513.73	318.31
513.90	311.29
514.08	365.12
514.25	341.72
514.43	351.08
514.60	315.97
514.77	367.46
514.95	341.72
515.12	358.10
515.29	262.14
515.47	308.95
515.64	344.06
515.81	334.70
515.99	407.25
516.16	332.36
516.33	421.30
516.51	381.51
516.68	334.70
516.85	337.04
517.03	346.40
517.20	358.10
517.37	325.33
517.54	308.95
517.72	327.68
517.89	278.52
518.06	341.72
518.24	383.85
518.41	344.06
518.58	311.29
518.75	311.29
518.93	255.12
519.10	367.46
519.27	348.74
519.45	292.57
519.62	414.27
519.79	334.70
519.96	344.06
520.14	346.40
520.31	365.12
520.48	337.04
520.65	308.95
520.83	374.49
521.00	369.80
521.17	301.93
521.34	315.97
521.52	386.19
521.69	365.12
521.86	397.89
522.03	358.10
522.20	351.08
522.38	257.46
522.55	346.40
522.72	351.08
522.89	292.57
523.07	360.44
523.24	351.08
523.41	322.99
523.58	325.33
523.75	236.39
523.92	241.08
524.10	308.95
524.27	351.08
524.44	313.63
524.61	301.93
524.78	311.29
524.96	358.10
525.13	322.99
525.30	393.21
525.47	372.15
525.64	409.59
525.81	404.91
525.98	358.10
526.16	250.44
526.33	355.76
526.50	348.74
526.67	337.04
526.84	376.83
527.01	320.65
527.18	397.89
527.36	362.78
527.53	482.15
527.70	407.25
527.87	496.19
528.04	411.93
528.21	372.15
528.38	456.40
528.55	379.17
528.72	482.15
528.89	430.66
529.07	386.19
529.24	353.42
529.41	367.46
529.58	430.66
529.75	404.91
529.92	428.32
530.09	430.66
530.26	472.79
530.43	442.36
530.60	465.77
530.77	468.11
530.94	479.81
531.11	447.04
531.28	447.04
531.46	451.72
531.63	526.62
531.80	566.41
531.97	526.62
532.14	608.54
532.31	655.35
532.48	758.33
532.65	919.83
532.82	999.41
532.99	1198.35
533.16	1235.80
533.33	1336.45
533.50	1184.31
533.67	1123.46
533.84	1004.09
534.01	877.70
534.18	819.19
534.35	830.89
534.52	819.19
534.69	854.30
534.86	840.25
535.03	933.87
535.20	926.85
535.37	1055.58
535.54	1050.90
535.71	1053.24
535.88	1207.72
536.05	1102.39
536.22	1235.80
536.38	1355.17
536.55	1476.88
536.72	1713.27
536.89	1795.19
537.06	2073.71
537.23	2209.47
537.40	2377.98
537.57	2459.90
537.74	2733.75
537.91	2787.58
538.08	2960.78
538.25	2759.49
538.42	2857.79
538.59	2909.29
538.75	3035.67
538.92	3232.28
539.09	3461.65
539.26	3812.73
539.43	4542.98
539.60	4987.68
539.77	5654.73
539.94	6356.90
540.11	6630.74
540.28	7475.67
540.44	8212.94
540.61	8959.57
540.78	10326.44
540.95	12390.80
541.12	14607.28
541.29	16449.28
541.46	17273.15
541.62	16669.30
541.79	16313.53
541.96	14824.95
542.13	14001.08
542.30	12924.44
542.47	12383.77
542.63	11894.60
542.80	11407.77
542.97	11323.51
543.14	11269.68
543.31	11248.61
543.48	11133.93
543.64	11517.78
543.81	11541.18
543.98	11733.11
544.15	11793.96
544.32	11744.81
544.48	11688.64
544.65	11293.08
544.82	11548.20
544.99	11375.00
545.16	11770.55
545.32	12650.60
545.49	22251.47
545.66	40767.45
545.83	46897.31
546.00	38895.02
546.16	26295.92
546.33	18878.76
546.50	14310.04
546.67	11543.52
546.83	10520.71
547.00	9933.23
547.17	9338.74
547.34	9100.00
547.50	8629.56
547.67	8430.61
547.84	7943.78
548.00	8056.12
548.17	7515.46
548.34	7213.53
548.51	7035.65
548.67	6626.06
548.84	6277.32
549.01	5966.03
549.18	5703.89
549.34	5741.33
549.51	5444.09
549.68	5186.63
549.84	4910.44
550.01	4828.53
550.18	4557.02
550.34	4339.35
550.51	4086.58
550.68	3978.91
550.84	3634.85
551.01	3531.87
551.18	3417.18
551.34	3176.11
551.51	3169.09
551.68	2869.50
551.84	2855.45
552.01	2853.11
552.18	2698.64
552.34	2635.44
552.51	2427.14
552.68	2352.24
552.84	2279.68
553.01	2211.81
553.18	2153.29
553.34	2054.99
553.51	2015.20
553.67	1987.11
553.84	1839.66
554.01	1860.73
554.17	1664.12
554.34	1476.88
554.51	1582.20
554.67	1469.86
554.84	1315.38
555.00	1294.32
555.17	1247.51
555.33	1219.42
555.50	1130.48
555.67	1008.77
555.83	1015.79
556.00	929.19
556.16	1069.62
556.33	959.62
556.50	861.32
556.66	870.68
556.83	809.83
556.99	730.25
557.16	866.00
557.32	858.98
557.49	812.17
557.65	844.93
557.82	727.91
557.98	737.27
558.15	643.65
558.32	695.14
558.48	809.83
558.65	664.71
558.81	744.29
558.98	608.54
559.14	653.01
559.31	653.01
559.47	650.67
559.64	568.75
559.80	610.88
559.97	554.71
560.13	521.94
560.30	580.45
560.46	582.79
560.63	533.64
560.79	662.37
560.96	638.97
561.12	580.45
561.29	561.73
561.45	554.71
561.61	573.43
561.78	554.71
561.94	552.37
562.11	540.66
562.27	622.58
562.44	538.32
562.60	517.26
562.77	573.43
562.93	615.56
563.10	592.16
563.26	507.90
563.42	599.18
563.59	521.94
563.75	545.34
563.92	456.40
564.08	489.17
564.24	559.39
564.41	643.65
564.57	442.36
564.74	479.81
564.90	486.83
565.07	475.13
565.23	484.49
565.39	468.11
565.56	524.28
565.72	465.77
565.88	505.56
566.05	479.81
566.21	475.13
566.38	470.45
566.54	491.51
566.70	390.87
566.87	592.16
567.03	442.36
567.19	479.81
567.36	510.24
567.52	440.02
567.68	545.34
567.85	505.56
568.01	458.74
568.17	482.15
568.34	571.09
568.50	428.32
568.66	418.96
568.83	528.96
568.99	493.85
569.15	496.19
569.32	463.43
569.48	437.68
569.64	376.83
569.81	486.83
569.97	393.21
570.13	318.31
570.30	409.59
570.46	358.10
570.62	355.76
570.78	400.23
570.95	407.25
571.11	381.51
571.27	407.25
571.43	402.57
571.60	404.91
571.76	402.57
571.92	381.51
572.09	362.78
572.25	351.08
572.41	397.89
572.57	409.59
572.74	447.04
572.90	433.00
573.06	348.74
573.22	461.09
573.38	503.22
573.55	435.34
573.71	374.49
573.87	376.83
574.03	456.40
574.20	526.62
574.36	444.70
574.52	458.74
574.68	496.19
574.84	498.53
575.01	493.85
575.17	566.41
575.33	533.64
575.49	594.50
575.65	531.30
575.82	587.47
575.98	671.73
576.14	709.18
576.30	1507.30
576.46	5095.35
576.62	7459.29
576.79	7894.63
576.95	5518.98
577.11	3740.18
577.27	2656.51
577.43	1788.17
577.59	1261.55
577.75	1011.11
577.92	837.91
578.08	945.58
578.24	987.71
578.40	1687.53
578.56	4540.64
578.72	6871.81
578.88	7658.23
579.04	5612.60
579.21	3927.42
579.37	2834.39
579.53	2253.94
579.69	2293.72
579.85	2818.00
580.01	3082.49
580.17	2731.41
580.33	2385.01
580.49	2228.19
580.65	2040.95
580.82	1865.41
580.98	1710.93
581.14	1802.21
581.30	2003.50
581.46	2031.58
581.62	2305.43
581.78	2399.05
581.94	2607.36
582.10	2644.81
582.26	2761.83
582.42	2820.35
582.58	2960.78
582.74	2864.82
582.90	2932.69
583.06	2956.10
583.22	3056.74
583.38	3063.76
583.54	2986.52
583.70	3056.74
583.86	3012.27
584.02	2825.03
584.18	2888.22
584.34	2857.79
584.50	2759.49
584.66	2764.17
584.82	2698.64
584.98	2768.85
585.14	2626.08
585.30	2567.57
585.46	2551.18
585.62	2572.25
585.78	2441.18
585.94	2555.86
586.10	2541.82
586.26	2773.53
586.42	3108.23
586.58	3669.96
586.74	4533.62
586.90	5198.33
587.06	5760.06
587.22	5516.64
587.38	4758.31
587.54	4205.94
587.70	3796.35
587.86	3075.46
588.02	2654.17
588.18	2408.41
588.34	2270.32
588.49	2012.86
588.65	1942.64
588.81	1802.21
588.97	1680.50
589.13	1710.93
589.29	1481.56
589.45	1699.23
589.61	1652.42
589.77	1701.57
589.93	1811.57
590.08	1734.34
590.24	1919.24
590.40	1837.32
590.56	2064.35
590.72	1968.39
590.88	1998.82
591.04	2127.55
591.20	2169.68
591.35	2272.66
591.51	2319.47
591.67	2347.56
591.83	2600.34
591.99	2724.38
592.15	2953.76
592.31	3274.41
592.46	3667.62
592.62	3873.59
592.78	4037.42
592.94	4222.33
593.10	4021.04
593.26	3747.20
593.41	3503.78
593.57	3152.70
593.73	2878.86
593.89	2555.86
594.05	2251.60
594.20	2010.52
594.36	1975.41
594.52	1877.11
594.68	1696.89
594.84	1741.36
594.99	1675.82
595.15	1551.78
595.31	1554.12
595.47	1624.33
595.62	1514.33
595.78	1633.69
595.94	1434.75
596.10	1469.86
596.25	1493.26
596.41	1507.30
596.57	1537.73
596.73	1530.71
596.88	1572.84
597.04	1493.26
597.20	1551.78
597.36	1706.25
597.51	1519.01
597.67	1631.35
597.83	1729.66
597.99	1870.09
598.14	1989.46
598.30	1989.46
598.46	2195.42
598.61	2303.09
598.77	2457.56
598.93	2462.24
599.09	2464.58
599.24	2422.45
599.40	2466.92
599.56	2399.05
599.71	2267.98
599.87	2256.28
600.03	2090.10
600.18	1881.79
600.34	1858.39
600.50	1741.36
600.65	1661.78
600.81	1495.60
600.97	1504.96
601.12	1369.21
601.28	1336.45
601.44	1317.72
601.59	1221.76
601.75	1235.80
601.91	1149.20
602.06	1226.44
602.22	1174.95
602.37	1088.35
602.53	1118.78
602.69	1039.20
602.84	1078.99
603.00	1107.07
603.16	1067.28
603.31	1116.44
603.47	1151.54
603.62	1121.12
603.78	1158.57
603.94	1111.75
604.09	1174.95
604.25	1177.29
604.40	1170.27
604.56	1198.35
604.71	1238.14
604.87	1247.51
605.03	1231.12
605.18	1277.93
605.34	1411.34
605.49	1301.34
605.65	1357.51
605.80	1364.53
605.96	1451.13
606.12	1526.03
