SpectraSuite Data File
++++++++++++++++++++++++++++++++++++
Date: Fri Oct 04 11:41:47 GMT-05:00 2013
User: price-jones
Dark Spectrum Present: No
Reference Spectrum Present: No
Number of Sampled Component Spectra: 1
Spectrometers: USB2+H05261
Integration Time (usec): 100000 (USB2+H05261)
Spectra Averaged: 1 (USB2+H05261)
Boxcar Smoothing: 0 (USB2+H05261)
Correct for Electrical Dark: No (USB2+H05261)
Strobe/Lamp Enabled: No (USB2+H05261)
Correct for Detector Non-linearity: No (USB2+H05261)
Correct for Stray Light: No (USB2+H05261)
Number of Pixels in Processed Spectrum: 2048
>>>>>Begin Processed Spectral Data<<<<<
365.73	37.45
365.92	37.45
366.12	37.45
366.32	0.00
366.52	0.00
366.72	0.00
366.91	0.00
367.11	0.00
367.31	0.00
367.51	0.00
367.70	0.00
367.90	0.00
368.10	0.00
368.30	0.00
368.49	0.00
368.69	0.00
368.89	0.00
369.09	0.00
369.28	0.00
369.48	0.00
369.68	0.00
369.87	0.00
370.07	0.00
370.27	0.00
370.47	67.88
370.66	9.36
370.86	124.05
371.06	79.58
371.25	121.71
371.45	133.41
371.65	117.03
371.84	42.13
372.04	14.04
372.24	51.49
372.44	49.15
372.63	0.00
372.83	98.30
373.03	121.71
373.22	133.41
373.42	81.92
373.62	124.05
373.81	168.52
374.01	184.90
374.21	163.84
374.40	159.16
374.60	187.24
374.79	121.71
374.99	159.16
375.19	107.66
375.38	86.60
375.58	93.62
375.78	25.75
375.97	121.71
376.17	189.58
376.37	154.48
376.56	124.05
376.76	102.98
376.95	70.22
377.15	37.45
377.35	154.48
377.54	98.30
377.74	191.92
377.93	72.56
378.13	107.66
378.33	105.32
378.52	121.71
378.72	95.96
378.91	163.84
379.11	74.90
379.31	93.62
379.50	107.66
379.70	121.71
379.89	100.64
380.09	70.22
380.28	131.07
380.48	32.77
380.68	102.98
380.87	81.92
381.07	180.22
381.26	154.48
381.46	175.54
381.65	86.60
381.85	60.85
382.04	102.98
382.24	117.03
382.43	126.39
382.63	77.24
382.83	107.66
383.02	72.56
383.22	121.71
383.41	135.75
383.61	163.84
383.80	145.11
384.00	81.92
384.19	53.83
384.39	100.64
384.58	46.81
384.78	168.52
384.97	124.05
385.17	65.54
385.36	63.19
385.56	131.07
385.75	72.56
385.95	114.69
386.14	107.66
386.34	67.88
386.53	121.71
386.72	145.11
386.92	154.48
387.11	107.66
387.31	102.98
387.50	107.66
387.70	114.69
387.89	182.56
388.09	168.52
388.28	140.43
388.48	58.51
388.67	138.09
388.86	121.71
389.06	79.58
389.25	159.16
389.45	159.16
389.64	152.13
389.84	189.58
390.03	140.43
390.22	126.39
390.42	208.31
390.61	154.48
390.81	114.69
391.00	81.92
391.19	142.77
391.39	93.62
391.58	147.45
391.78	163.84
391.97	53.83
392.16	142.77
392.36	135.75
392.55	56.17
392.75	177.88
392.94	67.88
393.13	105.32
393.33	95.96
393.52	42.13
393.71	191.92
393.91	142.77
394.10	147.45
394.29	93.62
394.49	135.75
394.68	173.20
394.88	135.75
395.07	121.71
395.26	95.96
395.46	58.51
395.65	88.94
395.84	119.37
396.04	201.29
396.23	77.24
396.42	112.35
396.62	149.79
396.81	145.11
397.00	44.47
397.19	86.60
397.39	198.95
397.58	159.16
397.77	11.70
397.97	28.09
398.16	81.92
398.35	133.41
398.55	124.05
398.74	100.64
398.93	215.33
399.12	93.62
399.32	117.03
399.51	72.56
399.70	102.98
399.90	95.96
400.09	131.07
400.28	91.28
400.47	175.54
400.67	145.11
400.86	196.60
401.05	88.94
401.24	198.95
401.44	142.77
401.63	177.88
401.82	161.50
402.01	88.94
402.21	180.22
402.40	91.28
402.59	138.09
402.78	133.41
402.97	133.41
403.17	117.03
403.36	220.01
403.55	252.78
403.74	482.15
403.93	1207.72
404.13	2354.58
404.32	2602.68
404.51	2024.56
404.70	1160.91
404.89	554.71
405.09	273.84
405.28	198.95
405.47	163.84
405.66	156.82
405.85	191.92
406.05	98.30
406.24	124.05
406.43	110.01
406.62	145.11
406.81	212.99
407.00	154.48
407.20	355.76
407.39	489.17
407.58	500.87
407.77	320.65
407.96	252.78
408.15	241.08
408.34	135.75
408.54	163.84
408.73	119.37
408.92	110.01
409.11	161.50
409.30	140.43
409.49	145.11
409.68	147.45
409.87	149.79
410.07	159.16
410.26	191.92
410.45	135.75
410.64	142.77
410.83	238.73
411.02	145.11
411.21	191.92
411.40	187.24
411.59	170.86
411.78	138.09
411.98	173.20
412.17	131.07
412.36	77.24
412.55	140.43
412.74	163.84
412.93	175.54
413.12	149.79
413.31	159.16
413.50	173.20
413.69	124.05
413.88	102.98
414.07	168.52
414.26	168.52
414.45	152.13
414.64	149.79
414.83	156.82
415.02	177.88
415.22	224.69
415.41	191.92
415.60	142.77
415.79	217.67
415.98	198.95
416.17	140.43
416.36	222.35
416.55	236.39
416.74	210.65
416.93	194.26
417.12	149.79
417.31	205.97
417.50	198.95
417.69	191.92
417.88	290.23
418.07	152.13
418.26	159.16
418.45	241.08
418.64	147.45
418.83	196.60
419.02	128.73
419.21	140.43
419.39	161.50
419.58	149.79
419.77	241.08
419.96	154.48
420.15	201.29
420.34	133.41
420.53	243.42
420.72	194.26
420.91	161.50
421.10	194.26
421.29	156.82
421.48	187.24
421.67	220.01
421.86	212.99
422.05	173.20
422.24	189.58
422.43	243.42
422.61	138.09
422.80	194.26
422.99	138.09
423.18	255.12
423.37	194.26
423.56	210.65
423.75	191.92
423.94	182.56
424.13	220.01
424.32	205.97
424.50	161.50
424.69	163.84
424.88	224.69
425.07	159.16
425.26	234.05
425.45	259.80
425.64	203.63
425.83	161.50
426.01	238.73
426.20	182.56
426.39	220.01
426.58	152.13
426.77	168.52
426.96	215.33
427.15	173.20
427.33	135.75
427.52	252.78
427.71	205.97
427.90	234.05
428.09	234.05
428.28	117.03
428.46	184.90
428.65	168.52
428.84	262.14
429.03	236.39
429.22	229.37
429.40	175.54
429.59	208.31
429.78	180.22
429.97	262.14
430.16	180.22
430.34	170.86
430.53	220.01
430.72	208.31
430.91	180.22
431.10	234.05
431.28	168.52
431.47	252.78
431.66	163.84
431.85	271.50
432.03	266.82
432.22	315.97
432.41	283.20
432.60	304.27
432.79	220.01
432.97	241.08
433.16	292.57
433.35	318.31
433.54	304.27
433.72	227.03
433.91	390.87
434.10	353.42
434.28	442.36
434.47	428.32
434.66	414.27
434.85	603.86
435.03	2026.90
435.22	6899.90
435.41	11171.38
435.59	9675.77
435.78	6431.79
435.97	3194.83
436.16	1245.16
436.34	566.41
436.53	404.91
436.72	374.49
436.90	341.72
437.09	266.82
437.28	266.82
437.46	285.55
437.65	322.99
437.84	250.44
438.02	243.42
438.21	280.86
438.40	332.36
438.58	245.76
438.77	280.86
438.96	238.73
439.14	266.82
439.33	278.52
439.52	243.42
439.70	217.67
439.89	217.67
440.08	283.20
440.26	297.25
440.45	264.48
440.63	198.95
440.82	252.78
441.01	299.59
441.19	297.25
441.38	266.82
441.57	156.82
441.75	308.95
441.94	224.69
442.12	299.59
442.31	292.57
442.50	264.48
442.68	250.44
442.87	264.48
443.05	315.97
443.24	318.31
443.43	271.50
443.61	318.31
443.80	250.44
443.98	285.55
444.17	217.67
444.35	234.05
444.54	262.14
444.73	198.95
444.91	315.97
445.10	215.33
445.28	229.37
445.47	250.44
445.65	191.92
445.84	262.14
446.02	241.08
446.21	245.76
446.39	248.10
446.58	259.80
446.77	252.78
446.95	294.91
447.14	330.02
447.32	290.23
447.51	259.80
447.69	224.69
447.88	203.63
448.06	311.29
448.25	283.20
448.43	257.46
448.62	252.78
448.80	313.63
448.99	334.70
449.17	262.14
449.36	276.18
449.54	292.57
449.73	184.90
449.91	315.97
450.10	236.39
450.28	355.76
450.46	379.17
450.65	292.57
450.83	250.44
451.02	273.84
451.20	241.08
451.39	245.76
451.57	241.08
451.76	285.55
451.94	262.14
452.13	220.01
452.31	280.86
452.49	269.16
452.68	248.10
452.86	327.68
453.05	273.84
453.23	210.65
453.42	194.26
453.60	264.48
453.78	311.29
453.97	313.63
454.15	250.44
454.34	212.99
454.52	220.01
454.70	273.84
454.89	264.48
455.07	180.22
455.26	271.50
455.44	327.68
455.62	229.37
455.81	257.46
455.99	262.14
456.17	224.69
456.36	236.39
456.54	236.39
456.73	238.73
456.91	166.18
457.09	250.44
457.28	308.95
457.46	205.97
457.64	332.36
457.83	257.46
458.01	168.52
458.19	285.55
458.38	264.48
458.56	196.60
458.74	262.14
458.93	271.50
459.11	297.25
459.29	236.39
459.48	177.88
459.66	341.72
459.84	241.08
460.03	229.37
460.21	304.27
460.39	205.97
460.57	248.10
460.76	231.71
460.94	238.73
461.12	304.27
461.31	238.73
461.49	280.86
461.67	238.73
461.85	273.84
462.04	205.97
462.22	744.29
462.40	278.52
462.59	294.91
462.77	287.89
462.95	187.24
463.13	280.86
463.32	269.16
463.50	294.91
463.68	269.16
463.86	255.12
464.05	262.14
464.23	311.29
464.41	241.08
464.59	255.12
464.78	304.27
464.96	252.78
465.14	224.69
465.32	177.88
465.50	269.16
465.69	280.86
465.87	259.80
466.05	301.93
466.23	222.35
466.41	276.18
466.60	252.78
466.78	266.82
466.96	353.42
467.14	191.92
467.32	311.29
467.51	252.78
467.69	245.76
467.87	313.63
468.05	308.95
468.23	269.16
468.41	215.33
468.60	156.82
468.78	330.02
468.96	229.37
469.14	290.23
469.32	229.37
469.50	166.18
469.69	255.12
469.87	234.05
470.05	245.76
470.23	301.93
470.41	203.63
470.59	234.05
470.77	283.20
470.95	264.48
471.14	248.10
471.32	198.95
471.50	217.67
471.68	271.50
471.86	224.69
472.04	222.35
472.22	276.18
472.40	257.46
472.58	257.46
472.77	203.63
472.95	283.20
473.13	294.91
473.31	276.18
473.49	236.39
473.67	227.03
473.85	311.29
474.03	238.73
474.21	292.57
474.39	257.46
474.57	236.39
474.75	315.97
474.93	273.84
475.12	292.57
475.30	259.80
475.48	269.16
475.66	318.31
475.84	304.27
476.02	297.25
476.20	315.97
476.38	285.55
476.56	283.20
476.74	259.80
476.92	196.60
477.10	156.82
477.28	227.03
477.46	257.46
477.64	215.33
477.82	280.86
478.00	203.63
478.18	304.27
478.36	322.99
478.54	278.52
478.72	299.59
478.90	257.46
479.08	325.33
479.26	220.01
479.44	278.52
479.62	278.52
479.80	280.86
479.98	290.23
480.16	257.46
480.34	339.38
480.52	294.91
480.70	264.48
480.88	320.65
481.06	337.04
481.24	334.70
481.41	341.72
481.59	437.68
481.77	341.72
481.95	334.70
482.13	484.49
482.31	503.22
482.49	505.56
482.67	561.73
482.85	510.24
483.03	606.20
483.21	587.47
483.39	622.58
483.57	629.60
483.74	645.99
483.92	706.84
484.10	795.78
484.28	748.97
484.46	781.74
484.64	791.10
484.82	791.10
485.00	854.30
485.18	940.90
485.35	987.71
485.53	1004.09
485.71	1128.14
485.89	1123.46
486.07	1100.05
486.25	1128.14
486.43	1153.88
486.61	1142.18
486.78	1067.28
486.96	1132.82
487.14	1198.35
487.32	1151.54
487.50	1153.88
487.68	1090.69
487.85	1090.69
488.03	1121.12
488.21	1130.48
488.39	1069.62
488.57	1008.77
488.75	1025.15
488.92	1212.40
489.10	1025.15
489.28	999.41
489.46	891.74
489.64	968.98
489.81	842.59
489.99	980.68
490.17	877.70
490.35	973.66
490.53	861.32
490.70	873.02
490.88	826.21
491.06	968.98
491.24	1011.11
491.41	1090.69
491.59	905.79
491.77	842.59
491.95	919.83
492.13	894.08
492.30	774.72
492.48	896.43
492.66	837.91
492.84	758.33
493.01	877.70
493.19	840.25
493.37	828.55
493.54	758.33
493.72	718.54
493.90	723.23
494.08	704.50
494.25	877.70
494.43	709.18
494.61	755.99
494.79	681.10
494.96	648.33
495.14	699.82
495.32	692.80
495.49	702.16
495.67	641.31
495.85	578.11
496.02	638.97
496.20	631.94
496.38	653.01
496.55	765.36
496.73	695.14
496.91	636.63
497.09	587.47
497.26	526.62
497.44	559.39
497.62	538.32
497.79	524.28
497.97	540.66
498.14	643.65
498.32	526.62
498.50	512.58
498.67	540.66
498.85	540.66
499.03	533.64
499.20	524.28
499.38	503.22
499.56	463.43
499.73	550.03
499.91	535.98
500.08	533.64
500.26	543.00
500.44	451.72
500.61	411.93
500.79	528.96
500.97	493.85
501.14	454.06
501.32	433.00
501.49	428.32
501.67	365.12
501.84	390.87
502.02	339.38
502.20	362.78
502.37	400.23
502.55	369.80
502.72	425.98
502.90	425.98
503.07	402.57
503.25	400.23
503.43	311.29
503.60	322.99
503.78	416.62
503.95	355.76
504.13	327.68
504.30	353.42
504.48	409.59
504.65	304.27
504.83	365.12
505.01	327.68
505.18	341.72
505.36	388.53
505.53	292.57
505.71	376.83
505.88	337.04
506.06	311.29
506.23	346.40
506.41	278.52
506.58	283.20
506.76	227.03
506.93	276.18
507.11	259.80
507.28	308.95
507.46	301.93
507.63	374.49
507.81	287.89
507.98	320.65
508.16	313.63
508.33	252.78
508.50	353.42
508.68	386.19
508.85	334.70
509.03	283.20
509.20	325.33
509.38	304.27
509.55	327.68
509.73	313.63
509.90	433.00
510.08	287.89
510.25	330.02
510.42	264.48
510.60	273.84
510.77	330.02
510.95	365.12
511.12	334.70
511.30	362.78
511.47	255.12
511.64	304.27
511.82	224.69
511.99	306.61
512.17	259.80
512.34	320.65
512.51	280.86
512.69	311.29
512.86	273.84
513.04	262.14
513.21	292.57
513.38	255.12
513.56	252.78
513.73	266.82
513.90	369.80
514.08	262.14
514.25	264.48
514.43	299.59
514.60	313.63
514.77	262.14
514.95	255.12
515.12	353.42
515.29	283.20
515.47	369.80
515.64	327.68
515.81	234.05
515.99	278.52
516.16	337.04
516.33	299.59
516.51	231.71
516.68	337.04
516.85	276.18
517.03	283.20
517.20	325.33
517.37	318.31
517.54	334.70
517.72	287.89
517.89	301.93
518.06	292.57
518.24	299.59
518.41	330.02
518.58	241.08
518.75	297.25
518.93	255.12
519.10	210.65
519.27	276.18
519.45	299.59
519.62	227.03
519.79	287.89
519.96	229.37
520.14	257.46
520.31	327.68
520.48	231.71
520.65	229.37
520.83	238.73
521.00	243.42
521.17	283.20
521.34	243.42
521.52	269.16
521.69	308.95
521.86	290.23
522.03	330.02
522.20	294.91
522.38	264.48
522.55	372.15
522.72	255.12
522.89	262.14
523.07	250.44
523.24	278.52
523.41	313.63
523.58	301.93
523.75	262.14
523.92	337.04
524.10	322.99
524.27	245.76
524.44	348.74
524.61	318.31
524.78	304.27
524.96	290.23
525.13	271.50
525.30	327.68
525.47	346.40
525.64	311.29
525.81	297.25
525.98	264.48
526.16	297.25
526.33	287.89
526.50	308.95
526.67	351.08
526.84	210.65
527.01	318.31
527.18	304.27
527.36	322.99
527.53	269.16
527.70	327.68
527.87	262.14
528.04	360.44
528.21	397.89
528.38	355.76
528.55	353.42
528.72	294.91
528.89	348.74
529.07	290.23
529.24	243.42
529.41	423.64
529.58	292.57
529.75	290.23
529.92	294.91
530.09	280.86
530.26	337.04
530.43	353.42
530.60	292.57
530.77	308.95
530.94	379.17
531.11	304.27
531.28	339.38
531.46	365.12
531.63	320.65
531.80	416.62
531.97	404.91
532.14	416.62
532.31	484.49
532.48	500.87
532.65	498.53
532.82	636.63
532.99	629.60
533.16	660.03
533.33	777.06
533.50	758.33
533.67	589.82
533.84	582.79
534.01	517.26
534.18	421.30
534.35	470.45
534.52	585.13
534.69	599.18
534.86	594.50
535.03	601.52
535.20	489.17
535.37	564.07
535.54	582.79
535.71	594.50
535.88	688.12
536.05	704.50
536.22	662.37
536.38	720.88
536.55	833.23
536.72	947.92
536.89	1041.54
537.06	1029.84
537.23	1153.88
537.40	1394.96
537.57	1359.85
537.74	1336.45
537.91	1481.56
538.08	1427.73
538.25	1490.92
538.42	1493.26
538.59	1561.14
538.75	1633.69
538.92	1689.87
539.09	1874.77
539.26	1968.39
539.43	2225.85
539.60	2469.27
539.77	2789.92
539.94	3096.53
540.11	3330.58
540.28	3721.45
540.44	4042.11
540.61	4353.40
540.78	5081.30
540.95	6080.71
541.12	7007.56
541.29	7737.81
541.46	7960.16
541.62	7719.09
541.79	7527.16
541.96	7014.59
542.13	6579.25
542.30	6258.59
542.47	5987.09
542.63	5694.52
542.80	5542.39
542.97	5364.51
543.14	5345.78
543.31	5404.30
543.48	5621.97
543.64	5724.95
543.81	5647.71
543.98	5666.44
544.15	5526.00
544.32	5565.79
544.48	5727.29
544.65	5554.09
544.82	5453.45
544.99	5441.75
545.16	5584.52
545.32	6450.52
545.49	12489.10
545.66	19297.72
545.83	20790.98
546.00	16800.37
546.16	11468.62
546.33	8692.75
546.50	6696.27
546.67	5469.83
546.83	4999.38
547.00	4580.43
547.17	4547.66
547.34	4465.74
547.50	4184.88
547.67	3997.64
547.84	3768.26
548.00	3894.65
548.17	3459.31
548.34	3494.42
548.51	3325.90
548.67	3213.56
548.84	3204.19
549.01	2956.10
549.18	2876.52
549.34	2836.73
549.51	2581.61
549.68	2513.74
549.84	2459.90
550.01	2232.87
550.18	2251.60
550.34	2134.57
550.51	2052.65
550.68	1935.62
550.84	1783.49
551.01	1741.36
551.18	1774.13
551.34	1614.97
551.51	1612.63
551.68	1542.41
551.84	1629.01
552.01	1362.19
552.18	1348.15
552.34	1284.95
552.51	1301.34
552.68	1282.61
552.84	1212.40
553.01	1184.31
553.18	1261.55
553.34	1130.48
553.51	1069.62
553.67	1055.58
553.84	1032.18
554.01	992.39
554.17	812.17
554.34	837.91
554.51	837.91
554.67	805.14
554.84	802.80
555.00	812.17
555.17	676.41
555.33	634.29
555.50	657.69
555.67	709.18
555.83	575.77
556.00	634.29
556.16	777.06
556.33	615.56
556.50	507.90
556.66	550.03
556.83	505.56
556.99	535.98
557.16	554.71
557.32	503.22
557.49	535.98
557.65	545.34
557.82	477.47
557.98	433.00
558.15	358.10
558.32	458.74
558.48	428.32
558.65	447.04
558.81	444.70
558.98	463.43
559.14	521.94
559.31	465.77
559.47	440.02
559.64	351.08
559.80	418.96
559.97	367.46
560.13	433.00
560.30	444.70
560.46	337.04
560.63	402.57
560.79	402.57
560.96	402.57
561.12	360.44
561.29	360.44
561.45	353.42
561.61	395.55
561.78	435.34
561.94	433.00
562.11	325.33
562.27	402.57
562.44	423.64
562.60	374.49
562.77	290.23
562.93	442.36
563.10	393.21
563.26	383.85
563.42	388.53
563.59	414.27
563.75	325.33
563.92	423.64
564.08	404.91
564.24	322.99
564.41	411.93
564.57	311.29
564.74	332.36
564.90	365.12
565.07	358.10
565.23	367.46
565.39	346.40
565.56	372.15
565.72	276.18
565.88	334.70
566.05	339.38
566.21	372.15
566.38	287.89
566.54	358.10
566.70	337.04
566.87	404.91
567.03	266.82
567.19	386.19
567.36	360.44
567.52	299.59
567.68	297.25
567.85	294.91
568.01	315.97
568.17	271.50
568.34	397.89
568.50	348.74
568.66	365.12
568.83	456.40
568.99	327.68
569.15	311.29
569.32	341.72
569.48	294.91
569.64	376.83
569.81	325.33
569.97	269.16
570.13	266.82
570.30	299.59
570.46	280.86
570.62	250.44
570.78	285.55
570.95	224.69
571.11	400.23
571.27	315.97
571.43	273.84
571.60	271.50
571.76	301.93
571.92	262.14
572.09	346.40
572.25	285.55
572.41	322.99
572.57	241.08
572.74	379.17
572.90	294.91
573.06	348.74
573.22	327.68
573.38	297.25
573.55	241.08
573.71	358.10
573.87	297.25
574.03	280.86
574.20	334.70
574.36	353.42
574.52	334.70
574.68	325.33
574.84	311.29
575.01	311.29
575.17	388.53
575.33	362.78
575.49	435.34
575.65	395.55
575.82	344.06
575.98	395.55
576.14	545.34
576.30	999.41
576.46	2663.53
576.62	3688.68
576.79	3428.88
576.95	2605.02
577.11	1708.59
577.27	1254.53
577.43	915.15
577.59	674.07
577.75	643.65
577.92	545.34
578.08	510.24
578.24	636.63
578.40	1111.75
578.56	2644.81
578.72	3325.90
578.88	3323.56
579.04	2401.39
579.21	1736.68
579.37	1329.42
579.53	1153.88
579.69	1235.80
579.85	1495.60
580.01	1453.47
580.17	1441.77
580.33	1273.25
580.49	1224.10
580.65	1076.65
580.82	952.60
580.98	903.45
581.14	875.36
581.30	961.96
581.46	1095.37
581.62	1261.55
581.78	1203.04
581.94	1301.34
582.10	1383.26
582.26	1399.64
582.42	1511.99
582.58	1423.05
582.74	1444.11
582.90	1519.01
583.06	1537.73
583.22	1570.50
583.38	1500.28
583.54	1423.05
583.70	1476.88
583.86	1488.58
584.02	1561.14
584.18	1434.75
584.34	1420.71
584.50	1341.13
584.66	1371.55
584.82	1296.66
584.98	1322.40
585.14	1277.93
585.30	1359.85
585.46	1324.74
585.62	1179.63
585.78	1259.21
585.94	1324.74
586.10	1294.32
586.26	1385.60
586.42	1423.05
586.58	1732.00
586.74	2331.17
586.90	2572.25
587.06	2670.55
587.22	2595.65
587.38	2356.92
587.54	2033.93
587.70	1783.49
587.86	1572.84
588.02	1352.83
588.18	1233.46
588.34	1160.91
588.49	1088.35
588.65	1006.43
588.81	894.08
588.97	880.04
589.13	842.59
589.29	929.19
589.45	908.13
589.61	842.59
589.77	976.00
589.93	870.68
590.08	929.19
590.24	985.37
590.40	1004.09
590.56	985.37
590.72	994.73
590.88	957.28
591.04	1050.90
591.20	1100.05
591.35	1231.12
591.51	1249.85
591.67	1224.10
591.83	1299.00
591.99	1448.79
592.15	1509.65
592.31	1685.19
592.46	1858.39
592.62	1863.07
592.78	1877.11
592.94	2108.82
593.10	1916.90
593.26	1834.98
593.41	1792.85
593.57	1467.52
593.73	1287.29
593.89	1252.19
594.05	1132.82
594.20	997.07
594.36	1011.11
594.52	947.92
594.68	863.66
594.84	812.17
594.99	840.25
595.15	882.38
595.31	868.34
595.47	858.98
595.62	800.46
595.78	821.53
595.94	819.19
596.10	819.19
596.25	861.32
596.41	851.96
596.57	777.06
596.73	814.51
596.88	777.06
597.04	805.14
597.20	889.40
597.36	784.08
597.51	884.72
597.67	851.96
597.83	903.45
597.99	957.28
598.14	1015.79
598.30	1074.31
598.46	1130.48
598.61	1219.42
598.77	1205.38
598.93	1214.74
599.09	1196.01
599.24	1294.32
599.40	1287.29
599.56	1060.26
599.71	1153.88
599.87	1071.97
600.03	966.64
600.18	945.58
600.34	1020.47
600.50	863.66
600.65	828.55
600.81	779.40
600.97	786.42
601.12	704.50
601.28	725.57
601.44	709.18
601.59	627.26
601.75	674.07
601.91	622.58
602.06	631.94
602.22	692.80
602.37	500.87
602.53	599.18
602.69	589.82
602.84	627.26
603.00	641.31
603.16	559.39
603.31	634.29
603.47	599.18
603.62	554.71
603.78	650.67
603.94	716.20
604.09	667.05
604.25	601.52
604.40	667.05
604.56	669.39
604.71	648.33
604.87	645.99
605.03	706.84
605.18	718.54
605.34	737.27
605.49	763.01
605.65	706.84
605.80	812.17
605.96	702.16
606.12	842.59
606.27	837.91
606.43	725.57
606.58	849.61
606.74	887.06
606.89	1029.84
607.05	933.87
607.20	1015.79
607.36	1011.11
607.51	1217.08
607.67	1170.27
607.82	1327.08
607.98	1404.32
608.13	1462.83
608.29	1537.73
608.44	1596.25
