SpectraSuite Data File
++++++++++++++++++++++++++++++++++++
Date: Fri Oct 04 11:41:39 GMT-05:00 2013
User: price-jones
Dark Spectrum Present: No
Reference Spectrum Present: No
Number of Sampled Component Spectra: 1
Spectrometers: USB2+H05261
Integration Time (usec): 100000 (USB2+H05261)
Spectra Averaged: 1 (USB2+H05261)
Boxcar Smoothing: 0 (USB2+H05261)
Correct for Electrical Dark: No (USB2+H05261)
Strobe/Lamp Enabled: No (USB2+H05261)
Correct for Detector Non-linearity: No (USB2+H05261)
Correct for Stray Light: No (USB2+H05261)
Number of Pixels in Processed Spectrum: 2048
>>>>>Begin Processed Spectral Data<<<<<
365.73	21.06
365.92	21.06
366.12	21.06
366.32	0.00
366.52	0.00
366.72	0.00
366.91	0.00
367.11	0.00
367.31	0.00
367.51	0.00
367.70	0.00
367.90	0.00
368.10	0.00
368.30	0.00
368.49	0.00
368.69	0.00
368.89	0.00
369.09	0.00
369.28	0.00
369.48	0.00
369.68	18.72
369.87	0.00
370.07	0.00
370.27	95.96
370.47	49.15
370.66	0.00
370.86	37.45
371.06	81.92
371.25	74.90
371.45	84.26
371.65	74.90
371.84	32.77
372.04	74.90
372.24	133.41
372.44	107.66
372.63	117.03
372.83	154.48
373.03	91.28
373.22	91.28
373.42	112.35
373.62	140.43
373.81	95.96
374.01	177.88
374.21	79.58
374.40	140.43
374.60	110.01
374.79	88.94
374.99	4.68
375.19	180.22
375.38	107.66
375.58	142.77
375.78	114.69
375.97	119.37
376.17	248.10
376.37	138.09
376.56	100.64
376.76	180.22
376.95	105.32
377.15	220.01
377.35	65.54
377.54	121.71
377.74	128.73
377.93	198.95
378.13	105.32
378.33	112.35
378.52	98.30
378.72	135.75
378.91	107.66
379.11	56.17
379.31	140.43
379.50	114.69
379.70	147.45
379.89	107.66
380.09	149.79
380.28	51.49
380.48	91.28
380.68	154.48
380.87	79.58
381.07	112.35
381.26	212.99
381.46	138.09
381.65	163.84
381.85	102.98
382.04	77.24
382.24	105.32
382.43	159.16
382.63	126.39
382.83	93.62
383.02	51.49
383.22	86.60
383.41	110.01
383.61	67.88
383.80	65.54
384.00	93.62
384.19	32.77
384.39	98.30
384.58	93.62
384.78	138.09
384.97	107.66
385.17	121.71
385.36	86.60
385.56	126.39
385.75	112.35
385.95	84.26
386.14	142.77
386.34	107.66
386.53	72.56
386.72	156.82
386.92	222.35
387.11	121.71
387.31	102.98
387.50	100.64
387.70	117.03
387.89	114.69
388.09	117.03
388.28	86.60
388.48	98.30
388.67	173.20
388.86	63.19
389.06	114.69
389.25	133.41
389.45	180.22
389.64	142.77
389.84	138.09
390.03	105.32
390.22	81.92
390.42	133.41
390.61	126.39
390.81	84.26
391.00	107.66
391.19	156.82
391.39	105.32
391.58	88.94
391.78	152.13
391.97	105.32
392.16	49.15
392.36	159.16
392.55	49.15
392.75	112.35
392.94	98.30
393.13	74.90
393.33	107.66
393.52	126.39
393.71	149.79
393.91	138.09
394.10	88.94
394.29	0.00
394.49	107.66
394.68	140.43
394.88	88.94
395.07	91.28
395.26	23.41
395.46	79.58
395.65	124.05
395.84	126.39
396.04	224.69
396.23	42.13
396.42	124.05
396.62	117.03
396.81	100.64
397.00	77.24
397.19	86.60
397.39	67.88
397.58	121.71
397.77	142.77
397.97	67.88
398.16	105.32
398.35	37.45
398.55	37.45
398.74	152.13
398.93	184.90
399.12	149.79
399.32	156.82
399.51	102.98
399.70	114.69
399.90	100.64
400.09	114.69
400.28	63.19
400.47	81.92
400.67	84.26
400.86	98.30
401.05	107.66
401.24	173.20
401.44	138.09
401.63	102.98
401.82	138.09
402.01	110.01
402.21	91.28
402.40	138.09
402.59	117.03
402.78	168.52
402.97	131.07
403.17	131.07
403.36	140.43
403.55	102.98
403.74	126.39
403.93	107.66
404.13	184.90
404.32	311.29
404.51	222.35
404.70	182.56
404.89	110.01
405.09	131.07
405.28	117.03
405.47	35.11
405.66	84.26
405.85	189.58
406.05	168.52
406.24	149.79
406.43	102.98
406.62	182.56
406.81	154.48
407.00	114.69
407.20	121.71
407.39	37.45
407.58	159.16
407.77	154.48
407.96	170.86
408.15	220.01
408.34	114.69
408.54	128.73
408.73	149.79
408.92	140.43
409.11	182.56
409.30	184.90
409.49	161.50
409.68	91.28
409.87	147.45
410.07	77.24
410.26	95.96
410.45	107.66
410.64	133.41
410.83	145.11
411.02	117.03
411.21	180.22
411.40	189.58
411.59	168.52
411.78	86.60
411.98	56.17
412.17	67.88
412.36	88.94
412.55	131.07
412.74	203.63
412.93	243.42
413.12	138.09
413.31	234.05
413.50	166.18
413.69	77.24
413.88	142.77
414.07	100.64
414.26	105.32
414.45	145.11
414.64	128.73
414.83	98.30
415.02	187.24
415.22	175.54
415.41	203.63
415.60	166.18
415.79	46.81
415.98	161.50
416.17	53.83
416.36	168.52
416.55	161.50
416.74	152.13
416.93	201.29
417.12	126.39
417.31	114.69
417.50	44.47
417.69	166.18
417.88	154.48
418.07	126.39
418.26	140.43
418.45	156.82
418.64	117.03
418.83	126.39
419.02	147.45
419.21	175.54
419.39	149.79
419.58	159.16
419.77	93.62
419.96	138.09
420.15	170.86
420.34	133.41
420.53	154.48
420.72	173.20
420.91	102.98
421.10	156.82
421.29	166.18
421.48	95.96
421.67	175.54
421.86	140.43
422.05	86.60
422.24	128.73
422.43	177.88
422.61	112.35
422.80	140.43
422.99	112.35
423.18	145.11
423.37	149.79
423.56	203.63
423.75	133.41
423.94	65.54
424.13	152.13
424.32	121.71
424.50	114.69
424.69	81.92
424.88	170.86
425.07	77.24
425.26	107.66
425.45	105.32
425.64	140.43
425.83	166.18
426.01	198.95
426.20	126.39
426.39	126.39
426.58	124.05
426.77	133.41
426.96	222.35
427.15	208.31
427.33	114.69
427.52	168.52
427.71	182.56
427.90	175.54
428.09	138.09
428.28	145.11
428.46	133.41
428.65	177.88
428.84	203.63
429.03	196.60
429.22	131.07
429.40	100.64
429.59	149.79
429.78	180.22
429.97	105.32
430.16	161.50
430.34	91.28
430.53	114.69
430.72	224.69
430.91	147.45
431.10	166.18
431.28	191.92
431.47	182.56
431.66	124.05
431.85	126.39
432.03	170.86
432.22	154.48
432.41	117.03
432.60	231.71
432.79	79.58
432.97	191.92
433.16	133.41
433.35	177.88
433.54	154.48
433.72	238.73
433.91	222.35
434.10	184.90
434.28	166.18
434.47	117.03
434.66	128.73
434.85	196.60
435.03	294.91
435.22	697.48
435.41	1055.58
435.59	1109.41
435.78	870.68
435.97	491.51
436.16	280.86
436.34	168.52
436.53	222.35
436.72	236.39
436.90	95.96
437.09	86.60
437.28	201.29
437.46	147.45
437.65	161.50
437.84	152.13
438.02	149.79
438.21	166.18
438.40	102.98
438.58	124.05
438.77	168.52
438.96	227.03
439.14	79.58
439.33	229.37
439.52	95.96
439.70	156.82
439.89	168.52
440.08	177.88
440.26	182.56
440.45	182.56
440.63	121.71
440.82	159.16
441.01	198.95
441.19	201.29
441.38	189.58
441.57	154.48
441.75	170.86
441.94	175.54
442.12	259.80
442.31	133.41
442.50	252.78
442.68	257.46
442.87	217.67
443.05	180.22
443.24	215.33
443.43	184.90
443.61	208.31
443.80	196.60
443.98	229.37
444.17	194.26
444.35	182.56
444.54	145.11
444.73	154.48
444.91	210.65
445.10	161.50
445.28	133.41
445.47	187.24
445.65	180.22
445.84	124.05
446.02	159.16
446.21	121.71
446.39	93.62
446.58	208.31
446.77	138.09
446.95	212.99
447.14	184.90
447.32	210.65
447.51	138.09
447.69	252.78
447.88	170.86
448.06	173.20
448.25	189.58
448.43	95.96
448.62	117.03
448.80	156.82
448.99	248.10
449.17	191.92
449.36	234.05
449.54	194.26
449.73	182.56
449.91	222.35
450.10	205.97
450.28	184.90
450.46	278.52
450.65	208.31
450.83	107.66
451.02	119.37
451.20	182.56
451.39	194.26
451.57	166.18
451.76	177.88
451.94	98.30
452.13	189.58
452.31	203.63
452.49	163.84
452.68	70.22
452.86	220.01
453.05	189.58
453.23	163.84
453.42	191.92
453.60	215.33
453.78	203.63
453.97	191.92
454.15	189.58
454.34	131.07
454.52	154.48
454.70	259.80
454.89	114.69
455.07	154.48
455.26	138.09
455.44	212.99
455.62	105.32
455.81	217.67
455.99	166.18
456.17	168.52
456.36	175.54
456.54	161.50
456.73	121.71
456.91	180.22
457.09	114.69
457.28	166.18
457.46	175.54
457.64	229.37
457.83	142.77
458.01	175.54
458.19	215.33
458.38	112.35
458.56	145.11
458.74	86.60
458.93	142.77
459.11	159.16
459.29	180.22
459.48	198.95
459.66	210.65
459.84	205.97
460.03	227.03
460.21	236.39
460.39	42.13
460.57	175.54
460.76	184.90
460.94	175.54
461.12	196.60
461.31	250.44
461.49	217.67
461.67	168.52
461.85	161.50
462.04	166.18
462.22	217.67
462.40	126.39
462.59	273.84
462.77	189.58
462.95	236.39
463.13	133.41
463.32	198.95
463.50	215.33
463.68	133.41
463.86	131.07
464.05	149.79
464.23	161.50
464.41	161.50
464.59	224.69
464.78	133.41
464.96	194.26
465.14	138.09
465.32	180.22
465.50	205.97
465.69	173.20
465.87	149.79
466.05	238.73
466.23	133.41
466.41	191.92
466.60	203.63
466.78	121.71
466.96	191.92
467.14	175.54
467.32	231.71
467.51	236.39
467.69	149.79
467.87	205.97
468.05	112.35
468.23	212.99
468.41	191.92
468.60	126.39
468.78	145.11
468.96	194.26
469.14	212.99
469.32	152.13
469.50	156.82
469.69	135.75
469.87	161.50
470.05	166.18
470.23	187.24
470.41	110.01
470.59	175.54
470.77	222.35
470.95	184.90
471.14	245.76
471.32	102.98
471.50	266.82
471.68	131.07
471.86	224.69
472.04	159.16
472.22	215.33
472.40	145.11
472.58	175.54
472.77	98.30
472.95	166.18
473.13	262.14
473.31	203.63
473.49	194.26
473.67	142.77
473.85	187.24
474.03	149.79
474.21	196.60
474.39	166.18
474.57	175.54
474.75	161.50
474.93	224.69
475.12	107.66
475.30	117.03
475.48	128.73
475.66	194.26
475.84	152.13
476.02	161.50
476.20	229.37
476.38	205.97
476.56	187.24
476.74	114.69
476.92	145.11
477.10	187.24
477.28	147.45
477.46	187.24
477.64	191.92
477.82	182.56
478.00	196.60
478.18	180.22
478.36	184.90
478.54	159.16
478.72	229.37
478.90	184.90
479.08	159.16
479.26	187.24
479.44	212.99
479.62	201.29
479.80	212.99
479.98	220.01
480.16	175.54
480.34	259.80
480.52	238.73
480.70	180.22
480.88	114.69
481.06	212.99
481.24	133.41
481.41	184.90
481.59	201.29
481.77	243.42
481.95	215.33
482.13	257.46
482.31	266.82
482.49	320.65
482.67	198.95
482.85	255.12
483.03	248.10
483.21	294.91
483.39	276.18
483.57	257.46
483.74	255.12
483.92	217.67
484.10	205.97
484.28	290.23
484.46	301.93
484.64	227.03
484.82	320.65
485.00	290.23
485.18	250.44
485.35	311.29
485.53	212.99
485.71	252.78
485.89	290.23
486.07	339.38
486.25	322.99
486.43	297.25
486.61	278.52
486.78	360.44
486.96	337.04
487.14	294.91
487.32	325.33
487.50	290.23
487.68	283.20
487.85	276.18
488.03	306.61
488.21	320.65
488.39	220.01
488.57	299.59
488.75	287.89
488.92	566.41
489.10	358.10
489.28	346.40
489.46	229.37
489.64	278.52
489.81	184.90
489.99	337.04
490.17	311.29
490.35	374.49
490.53	327.68
490.70	292.57
490.88	313.63
491.06	322.99
491.24	269.16
491.41	353.42
491.59	297.25
491.77	257.46
491.95	191.92
492.13	315.97
492.30	292.57
492.48	241.08
492.66	320.65
492.84	189.58
493.01	313.63
493.19	301.93
493.37	400.23
493.54	332.36
493.72	313.63
493.90	315.97
494.08	208.31
494.25	339.38
494.43	248.10
494.61	327.68
494.79	301.93
494.96	210.65
495.14	273.84
495.32	276.18
495.49	283.20
495.67	294.91
495.85	313.63
496.02	308.95
496.20	269.16
496.38	220.01
496.55	262.14
496.73	322.99
496.91	208.31
497.09	346.40
497.26	215.33
497.44	236.39
497.62	269.16
497.79	215.33
497.97	287.89
498.14	344.06
498.32	269.16
498.50	341.72
498.67	269.16
498.85	299.59
499.03	224.69
499.20	266.82
499.38	194.26
499.56	262.14
499.73	348.74
499.91	252.78
500.08	259.80
500.26	294.91
500.44	203.63
500.61	304.27
500.79	280.86
500.97	266.82
501.14	266.82
501.32	262.14
501.49	292.57
501.67	255.12
501.84	278.52
502.02	217.67
502.20	311.29
502.37	257.46
502.55	257.46
502.72	229.37
502.90	177.88
503.07	255.12
503.25	269.16
503.43	180.22
503.60	210.65
503.78	252.78
503.95	276.18
504.13	220.01
504.30	173.20
504.48	205.97
504.65	259.80
504.83	248.10
505.01	266.82
505.18	194.26
505.36	301.93
505.53	264.48
505.71	227.03
505.88	299.59
506.06	198.95
506.23	203.63
506.41	159.16
506.58	224.69
506.76	280.86
506.93	250.44
507.11	257.46
507.28	180.22
507.46	196.60
507.63	252.78
507.81	299.59
507.98	175.54
508.16	166.18
508.33	220.01
508.50	203.63
508.68	231.71
508.85	262.14
509.03	220.01
509.20	229.37
509.38	222.35
509.55	245.76
509.73	184.90
509.90	269.16
510.08	276.18
510.25	255.12
510.42	196.60
510.60	194.26
510.77	229.37
510.95	182.56
511.12	245.76
511.30	257.46
511.47	198.95
511.64	344.06
511.82	208.31
511.99	215.33
512.17	231.71
512.34	236.39
512.51	304.27
512.69	238.73
512.86	259.80
513.04	248.10
513.21	227.03
513.38	234.05
513.56	294.91
513.73	166.18
513.90	245.76
514.08	297.25
514.25	297.25
514.43	208.31
514.60	210.65
514.77	311.29
514.95	285.55
515.12	262.14
515.29	269.16
515.47	236.39
515.64	234.05
515.81	196.60
515.99	320.65
516.16	308.95
516.33	297.25
516.51	238.73
516.68	229.37
516.85	269.16
517.03	241.08
517.20	252.78
517.37	217.67
517.54	217.67
517.72	280.86
517.89	173.20
518.06	215.33
518.24	264.48
518.41	252.78
518.58	161.50
518.75	224.69
518.93	201.29
519.10	248.10
519.27	220.01
519.45	227.03
519.62	203.63
519.79	189.58
519.96	217.67
520.14	231.71
520.31	259.80
520.48	287.89
520.65	257.46
520.83	266.82
521.00	241.08
521.17	252.78
521.34	212.99
521.52	248.10
521.69	269.16
521.86	203.63
522.03	280.86
522.20	318.31
522.38	198.95
522.55	210.65
522.72	217.67
522.89	266.82
523.07	283.20
523.24	245.76
523.41	210.65
523.58	243.42
523.75	273.84
523.92	212.99
524.10	285.55
524.27	166.18
524.44	243.42
524.61	236.39
524.78	304.27
524.96	234.05
525.13	252.78
525.30	285.55
525.47	332.36
525.64	250.44
525.81	231.71
525.98	182.56
526.16	194.26
526.33	177.88
526.50	224.69
526.67	140.43
526.84	212.99
527.01	182.56
527.18	294.91
527.36	304.27
527.53	196.60
527.70	299.59
527.87	283.20
528.04	271.50
528.21	292.57
528.38	299.59
528.55	341.72
528.72	278.52
528.89	264.48
529.07	283.20
529.24	212.99
529.41	285.55
529.58	243.42
529.75	217.67
529.92	320.65
530.09	301.93
530.26	266.82
530.43	299.59
530.60	238.73
530.77	161.50
530.94	248.10
531.11	276.18
531.28	196.60
531.46	229.37
531.63	248.10
531.80	205.97
531.97	315.97
532.14	290.23
532.31	166.18
532.48	259.80
532.65	299.59
532.82	236.39
532.99	234.05
533.16	294.91
533.33	311.29
533.50	292.57
533.67	264.48
533.84	301.93
534.01	346.40
534.18	257.46
534.35	234.05
534.52	257.46
534.69	297.25
534.86	327.68
535.03	262.14
535.20	236.39
535.37	236.39
535.54	287.89
535.71	344.06
535.88	325.33
536.05	341.72
536.22	327.68
536.38	266.82
536.55	320.65
536.72	388.53
536.89	259.80
537.06	306.61
537.23	369.80
537.40	318.31
537.57	425.98
537.74	386.19
537.91	376.83
538.08	367.46
538.25	411.93
538.42	435.34
538.59	440.02
538.75	479.81
538.92	461.09
539.09	458.74
539.26	442.36
539.43	451.72
539.60	669.39
539.77	568.75
539.94	638.97
540.11	645.99
540.28	748.97
540.44	720.88
540.61	807.48
540.78	814.51
540.95	868.34
541.12	1142.18
541.29	1121.12
541.46	1224.10
541.62	1287.29
541.79	1196.01
541.96	1146.86
542.13	1198.35
542.30	1125.80
542.47	1165.59
542.63	1057.92
542.80	1046.22
542.97	1109.41
543.14	1046.22
543.31	1111.75
543.48	1020.47
543.64	1043.88
543.81	1069.62
543.98	1046.22
544.15	987.71
544.32	1022.81
544.48	1109.41
544.65	1081.33
544.82	987.71
544.99	1046.22
545.16	1048.56
545.32	1057.92
545.49	1619.65
545.66	2450.54
545.83	2944.39
546.00	2642.46
546.16	1795.19
546.33	1397.30
546.50	1097.71
546.67	898.77
546.83	847.27
547.00	840.25
547.17	770.04
547.34	786.42
547.50	744.29
547.67	767.70
547.84	795.78
548.00	755.99
548.17	678.76
548.34	723.23
548.51	690.46
548.67	585.13
548.84	594.50
549.01	622.58
549.18	603.86
549.34	631.94
549.51	571.09
549.68	634.29
549.84	557.05
550.01	526.62
550.18	601.52
550.34	629.60
550.51	566.41
550.68	465.77
550.84	528.96
551.01	456.40
551.18	507.90
551.34	482.15
551.51	414.27
551.68	482.15
551.84	423.64
552.01	477.47
552.18	449.38
552.34	425.98
552.51	390.87
552.68	437.68
552.84	301.93
553.01	381.51
553.18	444.70
553.34	395.55
553.51	402.57
553.67	390.87
553.84	397.89
554.01	327.68
554.17	355.76
554.34	318.31
554.51	372.15
554.67	325.33
554.84	344.06
555.00	327.68
555.17	308.95
555.33	315.97
555.50	299.59
555.67	318.31
555.83	337.04
556.00	337.04
556.16	461.09
556.33	306.61
556.50	196.60
556.66	297.25
556.83	283.20
556.99	224.69
557.16	283.20
557.32	327.68
557.49	297.25
557.65	304.27
557.82	198.95
557.98	241.08
558.15	245.76
558.32	250.44
558.48	264.48
558.65	245.76
558.81	234.05
558.98	273.84
559.14	220.01
559.31	236.39
559.47	318.31
559.64	234.05
559.80	238.73
559.97	196.60
560.13	210.65
560.30	222.35
560.46	229.37
560.63	294.91
560.79	262.14
560.96	280.86
561.12	173.20
561.29	248.10
561.45	229.37
561.61	241.08
561.78	344.06
561.94	255.12
562.11	241.08
562.27	283.20
562.44	217.67
562.60	344.06
562.77	201.29
562.93	287.89
563.10	222.35
563.26	250.44
563.42	257.46
563.59	273.84
563.75	243.42
563.92	208.31
564.08	184.90
564.24	262.14
564.41	259.80
564.57	243.42
564.74	210.65
564.90	294.91
565.07	250.44
565.23	341.72
565.39	243.42
565.56	241.08
565.72	184.90
565.88	250.44
566.05	257.46
566.21	252.78
566.38	255.12
566.54	269.16
566.70	266.82
566.87	217.67
567.03	215.33
567.19	339.38
567.36	210.65
567.52	238.73
567.68	266.82
567.85	257.46
568.01	337.04
568.17	222.35
568.34	220.01
568.50	217.67
568.66	210.65
568.83	280.86
568.99	259.80
569.15	243.42
569.32	308.95
569.48	276.18
569.64	250.44
569.81	243.42
569.97	280.86
570.13	194.26
570.30	271.50
570.46	238.73
570.62	255.12
570.78	262.14
570.95	243.42
571.11	322.99
571.27	250.44
571.43	203.63
571.60	297.25
571.76	229.37
571.92	194.26
572.09	238.73
572.25	196.60
572.41	196.60
572.57	222.35
572.74	344.06
572.90	280.86
573.06	332.36
573.22	224.69
573.38	271.50
573.55	259.80
573.71	196.60
573.87	241.08
574.03	194.26
574.20	196.60
574.36	245.76
574.52	210.65
574.68	201.29
574.84	273.84
575.01	285.55
575.17	248.10
575.33	231.71
575.49	266.82
575.65	304.27
575.82	231.71
575.98	236.39
576.14	264.48
576.30	236.39
576.46	519.60
576.62	669.39
576.79	741.95
576.95	533.64
577.11	414.27
577.27	360.44
577.43	416.62
577.59	355.76
577.75	287.89
577.92	266.82
578.08	255.12
578.24	229.37
578.40	337.04
578.56	479.81
578.72	702.16
578.88	758.33
579.04	557.05
579.21	458.74
579.37	374.49
579.53	299.59
579.69	369.80
579.85	330.02
580.01	386.19
580.17	414.27
580.33	346.40
580.49	367.46
580.65	325.33
580.82	358.10
580.98	376.83
581.14	383.85
581.30	365.12
581.46	351.08
581.62	379.17
581.78	313.63
581.94	386.19
582.10	365.12
582.26	423.64
582.42	411.93
582.58	423.64
582.74	379.17
582.90	449.38
583.06	428.32
583.22	322.99
583.38	444.70
583.54	414.27
583.70	465.77
583.86	465.77
584.02	477.47
584.18	486.83
584.34	409.59
584.50	428.32
584.66	423.64
584.82	465.77
584.98	407.25
585.14	442.36
585.30	444.70
585.46	404.91
585.62	311.29
585.78	348.74
585.94	388.53
586.10	386.19
586.26	388.53
586.42	477.47
586.58	554.71
586.74	482.15
586.90	561.73
587.06	622.58
587.22	624.92
587.38	512.58
587.54	491.51
587.70	477.47
587.86	435.34
588.02	409.59
588.18	353.42
588.34	393.21
588.49	308.95
588.65	294.91
588.81	313.63
588.97	365.12
589.13	311.29
589.29	365.12
589.45	318.31
589.61	292.57
589.77	360.44
589.93	262.14
590.08	325.33
590.24	304.27
590.40	315.97
590.56	358.10
590.72	341.72
590.88	266.82
591.04	276.18
591.20	320.65
591.35	433.00
591.51	348.74
591.67	315.97
591.83	404.91
591.99	397.89
592.15	344.06
592.31	456.40
592.46	442.36
592.62	507.90
592.78	430.66
592.94	465.77
593.10	543.00
593.26	423.64
593.41	421.30
593.57	313.63
593.73	337.04
593.89	301.93
594.05	390.87
594.20	327.68
594.36	334.70
594.52	332.36
594.68	238.73
594.84	344.06
594.99	353.42
595.15	358.10
595.31	320.65
595.47	339.38
595.62	322.99
595.78	327.68
595.94	360.44
596.10	299.59
596.25	311.29
596.41	318.31
596.57	330.02
596.73	290.23
596.88	262.14
597.04	332.36
597.20	353.42
597.36	313.63
597.51	285.55
597.67	304.27
597.83	325.33
597.99	362.78
598.14	334.70
598.30	346.40
598.46	311.29
598.61	383.85
598.77	411.93
598.93	294.91
599.09	367.46
599.24	327.68
599.40	346.40
599.56	383.85
599.71	332.36
599.87	348.74
600.03	358.10
600.18	388.53
600.34	365.12
600.50	332.36
600.65	255.12
600.81	374.49
600.97	283.20
601.12	224.69
601.28	297.25
601.44	271.50
601.59	299.59
601.75	287.89
601.91	212.99
602.06	194.26
602.22	276.18
602.37	224.69
602.53	301.93
602.69	285.55
602.84	227.03
603.00	273.84
603.16	259.80
603.31	271.50
603.47	280.86
603.62	245.76
603.78	327.68
603.94	276.18
604.09	264.48
604.25	278.52
604.40	374.49
604.56	311.29
604.71	346.40
604.87	196.60
605.03	283.20
605.18	322.99
605.34	278.52
605.49	294.91
605.65	252.78
605.80	227.03
605.96	273.84
606.12	355.76
606.27	292.57
606.43	276.18
606.58	210.65
606.74	285.55
606.89	351.08
607.05	325.33
607.20	238.73
607.36	297.25
607.51	355.76
607.67	348.74
607.82	395.55
607.98	442.36
608.13	360.44
608.29	423.64
608.44	430.66
608.60	423.64
608.75	505.56
608.91	402.57
609.06	496.19
609.22	589.82
609.37	578.11
609.53	587.47
609.68	720.88
609.84	734.93
609.99	807.48
610.15	950.26
610.30	1163.25
610.46	1390.28
610.61	1659.44
610.76	2085.42
610.92	2532.46
611.07	2715.02
611.23	2806.30
