SpectraSuite Data File
++++++++++++++++++++++++++++++++++++
Date: Fri Oct 04 11:41:54 GMT-05:00 2013
User: price-jones
Dark Spectrum Present: No
Reference Spectrum Present: No
Number of Sampled Component Spectra: 1
Spectrometers: USB2+H05261
Integration Time (usec): 100000 (USB2+H05261)
Spectra Averaged: 1 (USB2+H05261)
Boxcar Smoothing: 0 (USB2+H05261)
Correct for Electrical Dark: No (USB2+H05261)
Strobe/Lamp Enabled: No (USB2+H05261)
Correct for Detector Non-linearity: No (USB2+H05261)
Correct for Stray Light: No (USB2+H05261)
Number of Pixels in Processed Spectrum: 2048
>>>>>Begin Processed Spectral Data<<<<<
365.73	14.04
365.92	14.04
366.12	14.04
366.32	0.00
366.52	0.00
366.72	0.00
366.91	0.00
367.11	0.00
367.31	0.00
367.51	0.00
367.70	0.00
367.90	0.00
368.10	0.00
368.30	0.00
368.49	0.00
368.69	0.00
368.89	0.00
369.09	0.00
369.28	0.00
369.48	0.00
369.68	0.00
369.87	0.00
370.07	16.38
370.27	0.00
370.47	37.45
370.66	67.88
370.86	16.38
371.06	74.90
371.25	91.28
371.45	84.26
371.65	70.22
371.84	88.94
372.04	0.00
372.24	117.03
372.44	42.13
372.63	166.18
372.83	98.30
373.03	84.26
373.22	145.11
373.42	168.52
373.62	65.54
373.81	180.22
374.01	133.41
374.21	147.45
374.40	91.28
374.60	145.11
374.79	159.16
374.99	95.96
375.19	222.35
375.38	147.45
375.58	152.13
375.78	126.39
375.97	138.09
376.17	194.26
376.37	107.66
376.56	117.03
376.76	98.30
376.95	88.94
377.15	131.07
377.35	175.54
377.54	126.39
377.74	117.03
377.93	119.37
378.13	147.45
378.33	145.11
378.52	91.28
378.72	112.35
378.91	100.64
379.11	105.32
379.31	135.75
379.50	166.18
379.70	102.98
379.89	149.79
380.09	100.64
380.28	37.45
380.48	100.64
380.68	72.56
380.87	81.92
381.07	147.45
381.26	175.54
381.46	91.28
381.65	91.28
381.85	154.48
382.04	124.05
382.24	46.81
382.43	102.98
382.63	121.71
382.83	77.24
383.02	135.75
383.22	173.20
383.41	110.01
383.61	121.71
383.80	124.05
384.00	128.73
384.19	110.01
384.39	124.05
384.58	138.09
384.78	149.79
384.97	121.71
385.17	100.64
385.36	102.98
385.56	163.84
385.75	77.24
385.95	102.98
386.14	154.48
386.34	107.66
386.53	88.94
386.72	91.28
386.92	138.09
387.11	149.79
387.31	112.35
387.50	126.39
387.70	112.35
387.89	154.48
388.09	112.35
388.28	107.66
388.48	112.35
388.67	138.09
388.86	63.19
389.06	117.03
389.25	72.56
389.45	100.64
389.64	154.48
389.84	131.07
390.03	117.03
390.22	79.58
390.42	100.64
390.61	133.41
390.81	110.01
391.00	124.05
391.19	142.77
391.39	102.98
391.58	93.62
391.78	105.32
391.97	65.54
392.16	100.64
392.36	126.39
392.55	133.41
392.75	168.52
392.94	117.03
393.13	112.35
393.33	117.03
393.52	77.24
393.71	102.98
393.91	147.45
394.10	105.32
394.29	65.54
394.49	86.60
394.68	154.48
394.88	119.37
395.07	135.75
395.26	177.88
395.46	98.30
395.65	168.52
395.84	135.75
396.04	145.11
396.23	126.39
396.42	86.60
396.62	107.66
396.81	140.43
397.00	142.77
397.19	107.66
397.39	203.63
397.58	187.24
397.77	86.60
397.97	198.95
398.16	121.71
398.35	187.24
398.55	145.11
398.74	128.73
398.93	128.73
399.12	119.37
399.32	180.22
399.51	105.32
399.70	187.24
399.90	149.79
400.09	140.43
400.28	88.94
400.47	248.10
400.67	105.32
400.86	107.66
401.05	166.18
401.24	133.41
401.44	138.09
401.63	147.45
401.82	138.09
402.01	168.52
402.21	184.90
402.40	95.96
402.59	119.37
402.78	166.18
402.97	128.73
403.17	138.09
403.36	191.92
403.55	189.58
403.74	440.02
403.93	1132.82
404.13	2232.87
404.32	2375.64
404.51	1804.55
404.70	1090.69
404.89	442.36
405.09	234.05
405.28	98.30
405.47	140.43
405.66	156.82
405.85	168.52
406.05	114.69
406.24	215.33
406.43	175.54
406.62	252.78
406.81	198.95
407.00	283.20
407.20	348.74
407.39	318.31
407.58	341.72
407.77	330.02
407.96	243.42
408.15	170.86
408.34	166.18
408.54	166.18
408.73	159.16
408.92	128.73
409.11	72.56
409.30	173.20
409.49	149.79
409.68	84.26
409.87	163.84
410.07	142.77
410.26	173.20
410.45	138.09
410.64	191.92
410.83	187.24
411.02	140.43
411.21	124.05
411.40	177.88
411.59	110.01
411.78	110.01
411.98	212.99
412.17	131.07
412.36	138.09
412.55	180.22
412.74	182.56
412.93	229.37
413.12	189.58
413.31	112.35
413.50	170.86
413.69	187.24
413.88	191.92
414.07	229.37
414.26	126.39
414.45	131.07
414.64	175.54
414.83	201.29
415.02	163.84
415.22	168.52
415.41	189.58
415.60	175.54
415.79	180.22
415.98	191.92
416.17	140.43
416.36	88.94
416.55	187.24
416.74	166.18
416.93	196.60
417.12	224.69
417.31	145.11
417.50	203.63
417.69	184.90
417.88	196.60
418.07	119.37
418.26	173.20
418.45	154.48
418.64	112.35
418.83	159.16
419.02	149.79
419.21	149.79
419.39	133.41
419.58	142.77
419.77	131.07
419.96	224.69
420.15	217.67
420.34	170.86
420.53	149.79
420.72	224.69
420.91	177.88
421.10	180.22
421.29	241.08
421.48	177.88
421.67	187.24
421.86	217.67
422.05	175.54
422.24	98.30
422.43	198.95
422.61	170.86
422.80	229.37
422.99	224.69
423.18	168.52
423.37	198.95
423.56	203.63
423.75	262.14
423.94	222.35
424.13	163.84
424.32	154.48
424.50	196.60
424.69	187.24
424.88	182.56
425.07	194.26
425.26	250.44
425.45	168.52
425.64	264.48
425.83	250.44
426.01	264.48
426.20	238.73
426.39	184.90
426.58	217.67
426.77	196.60
426.96	234.05
427.15	173.20
427.33	198.95
427.52	222.35
427.71	210.65
427.90	159.16
428.09	191.92
428.28	168.52
428.46	147.45
428.65	175.54
428.84	250.44
429.03	322.99
429.22	201.29
429.40	205.97
429.59	194.26
429.78	248.10
429.97	166.18
430.16	138.09
430.34	217.67
430.53	189.58
430.72	234.05
430.91	194.26
431.10	173.20
431.28	262.14
431.47	250.44
431.66	152.13
431.85	163.84
432.03	231.71
432.22	318.31
432.41	250.44
432.60	264.48
432.79	243.42
432.97	224.69
433.16	273.84
433.35	304.27
433.54	308.95
433.72	339.38
433.91	320.65
434.10	278.52
434.28	407.25
434.47	381.51
434.66	479.81
434.85	561.73
435.03	2019.88
435.22	6607.33
435.41	10801.57
435.59	9654.71
435.78	6221.14
435.97	3049.72
436.16	1268.57
436.34	566.41
436.53	428.32
436.72	372.15
436.90	318.31
437.09	280.86
437.28	297.25
437.46	315.97
437.65	365.12
437.84	278.52
438.02	320.65
438.21	341.72
438.40	297.25
438.58	215.33
438.77	255.12
438.96	243.42
439.14	215.33
439.33	269.16
439.52	248.10
439.70	276.18
439.89	360.44
440.08	231.71
440.26	205.97
440.45	262.14
440.63	285.55
440.82	304.27
441.01	285.55
441.19	285.55
441.38	306.61
441.57	276.18
441.75	280.86
441.94	339.38
442.12	229.37
442.31	257.46
442.50	365.12
442.68	252.78
442.87	311.29
443.05	273.84
443.24	259.80
443.43	280.86
443.61	306.61
443.80	198.95
443.98	243.42
444.17	292.57
444.35	341.72
444.54	248.10
444.73	299.59
444.91	250.44
445.10	189.58
445.28	229.37
445.47	231.71
445.65	301.93
445.84	210.65
446.02	177.88
446.21	304.27
446.39	212.99
446.58	283.20
446.77	236.39
446.95	285.55
447.14	266.82
447.32	348.74
447.51	287.89
447.69	273.84
447.88	327.68
448.06	327.68
448.25	311.29
448.43	259.80
448.62	264.48
448.80	276.18
448.99	201.29
449.17	238.73
449.36	250.44
449.54	290.23
449.73	245.76
449.91	252.78
450.10	201.29
450.28	297.25
450.46	334.70
450.65	280.86
450.83	215.33
451.02	217.67
451.20	231.71
451.39	330.02
451.57	266.82
451.76	248.10
451.94	297.25
452.13	318.31
452.31	280.86
452.49	313.63
452.68	191.92
452.86	278.52
453.05	255.12
453.23	322.99
453.42	325.33
453.60	273.84
453.78	283.20
453.97	222.35
454.15	205.97
454.34	271.50
454.52	264.48
454.70	269.16
454.89	299.59
455.07	205.97
455.26	264.48
455.44	346.40
455.62	292.57
455.81	273.84
455.99	271.50
456.17	301.93
456.36	266.82
456.54	259.80
456.73	217.67
456.91	306.61
457.09	287.89
457.28	292.57
457.46	259.80
457.64	266.82
457.83	215.33
458.01	238.73
458.19	243.42
458.38	299.59
458.56	229.37
458.74	269.16
458.93	224.69
459.11	266.82
459.29	266.82
459.48	278.52
459.66	341.72
459.84	266.82
460.03	304.27
460.21	234.05
460.39	243.42
460.57	308.95
460.76	313.63
460.94	294.91
461.12	360.44
461.31	294.91
461.49	320.65
461.67	259.80
461.85	304.27
462.04	224.69
462.22	718.54
462.40	243.42
462.59	280.86
462.77	292.57
462.95	271.50
463.13	236.39
463.32	332.36
463.50	250.44
463.68	280.86
463.86	217.67
464.05	238.73
464.23	259.80
464.41	217.67
464.59	299.59
464.78	250.44
464.96	241.08
465.14	238.73
465.32	252.78
465.50	299.59
465.69	217.67
465.87	187.24
466.05	262.14
466.23	252.78
466.41	222.35
466.60	294.91
466.78	271.50
466.96	290.23
467.14	259.80
467.32	276.18
467.51	301.93
467.69	252.78
467.87	294.91
468.05	344.06
468.23	294.91
468.41	252.78
468.60	245.76
468.78	308.95
468.96	330.02
469.14	266.82
469.32	224.69
469.50	248.10
469.69	271.50
469.87	229.37
470.05	280.86
470.23	320.65
470.41	189.58
470.59	215.33
470.77	245.76
470.95	173.20
471.14	224.69
471.32	245.76
471.50	292.57
471.68	311.29
471.86	238.73
472.04	191.92
472.22	161.50
472.40	271.50
472.58	243.42
472.77	229.37
472.95	201.29
473.13	283.20
473.31	266.82
473.49	266.82
473.67	196.60
473.85	189.58
474.03	294.91
474.21	297.25
474.39	280.86
474.57	241.08
474.75	341.72
474.93	259.80
475.12	212.99
475.30	299.59
475.48	292.57
475.66	278.52
475.84	269.16
476.02	341.72
476.20	220.01
476.38	196.60
476.56	266.82
476.74	227.03
476.92	306.61
477.10	208.31
477.28	238.73
477.46	280.86
477.64	248.10
477.82	259.80
478.00	318.31
478.18	297.25
478.36	269.16
478.54	283.20
478.72	395.55
478.90	297.25
479.08	337.04
479.26	297.25
479.44	276.18
479.62	250.44
479.80	330.02
479.98	259.80
480.16	264.48
480.34	341.72
480.52	369.80
480.70	376.83
480.88	322.99
481.06	266.82
481.24	381.51
481.41	369.80
481.59	418.96
481.77	411.93
481.95	423.64
482.13	486.83
482.31	470.45
482.49	437.68
482.67	505.56
482.85	615.56
483.03	587.47
483.21	657.69
483.39	624.92
483.57	667.05
483.74	688.12
483.92	681.10
484.10	781.74
484.28	770.04
484.46	821.53
484.64	828.55
484.82	870.68
485.00	882.38
485.18	1039.20
485.35	1064.94
485.53	1081.33
485.71	1156.22
485.89	1125.80
486.07	1109.41
486.25	1196.01
486.43	1151.54
486.61	1174.95
486.78	1184.31
486.96	1128.14
487.14	1153.88
487.32	1172.61
487.50	1177.29
487.68	1130.48
487.85	1067.28
488.03	1160.91
488.21	1167.93
488.39	1111.75
488.57	1048.56
488.75	1020.47
488.92	1317.72
489.10	1043.88
489.28	1137.50
489.46	940.90
489.64	950.26
489.81	978.34
489.99	947.92
490.17	931.53
490.35	1039.20
490.53	976.00
490.70	910.47
490.88	854.30
491.06	1046.22
491.24	1060.26
491.41	1057.92
491.59	1036.86
491.77	997.07
491.95	887.06
492.13	877.70
492.30	957.28
492.48	844.93
492.66	793.44
492.84	702.16
493.01	751.31
493.19	798.12
493.37	842.59
493.54	849.61
493.72	777.06
493.90	753.65
494.08	791.10
494.25	732.59
494.43	734.93
494.61	662.37
494.79	751.31
494.96	734.93
495.14	727.91
495.32	662.37
495.49	685.78
495.67	716.20
495.85	744.29
496.02	622.58
496.20	664.71
496.38	655.35
496.55	575.77
496.73	704.50
496.91	657.69
497.09	758.33
497.26	676.41
497.44	608.54
497.62	557.05
497.79	599.18
497.97	624.92
498.14	624.92
498.32	521.94
498.50	575.77
498.67	482.15
498.85	512.58
499.03	585.13
499.20	514.92
499.38	510.24
499.56	465.77
499.73	575.77
499.91	521.94
500.08	517.26
500.26	472.79
500.44	430.66
500.61	435.34
500.79	395.55
500.97	500.87
501.14	489.17
501.32	465.77
501.49	447.04
501.67	409.59
501.84	428.32
502.02	358.10
502.20	456.40
502.37	411.93
502.55	358.10
502.72	411.93
502.90	367.46
503.07	423.64
503.25	388.53
503.43	306.61
503.60	365.12
503.78	386.19
503.95	402.57
504.13	397.89
504.30	407.25
504.48	353.42
504.65	379.17
504.83	294.91
505.01	330.02
505.18	411.93
505.36	311.29
505.53	332.36
505.71	234.05
505.88	297.25
506.06	334.70
506.23	344.06
506.41	334.70
506.58	376.83
506.76	283.20
506.93	308.95
507.11	315.97
507.28	245.76
507.46	231.71
507.63	248.10
507.81	285.55
507.98	360.44
508.16	278.52
508.33	262.14
508.50	273.84
508.68	287.89
508.85	311.29
509.03	304.27
509.20	334.70
509.38	346.40
509.55	332.36
509.73	381.51
509.90	299.59
510.08	327.68
510.25	262.14
510.42	252.78
510.60	248.10
510.77	360.44
510.95	299.59
511.12	266.82
511.30	266.82
511.47	294.91
511.64	341.72
511.82	283.20
511.99	259.80
512.17	229.37
512.34	322.99
512.51	248.10
512.69	227.03
512.86	266.82
513.04	266.82
513.21	315.97
513.38	294.91
513.56	229.37
513.73	332.36
513.90	287.89
514.08	334.70
514.25	292.57
514.43	273.84
514.60	264.48
514.77	322.99
514.95	210.65
515.12	287.89
515.29	299.59
515.47	236.39
515.64	262.14
515.81	175.54
515.99	285.55
516.16	257.46
516.33	304.27
516.51	175.54
516.68	220.01
516.85	311.29
517.03	266.82
517.20	374.49
517.37	255.12
517.54	255.12
517.72	222.35
517.89	276.18
518.06	278.52
518.24	276.18
518.41	262.14
518.58	320.65
518.75	304.27
518.93	198.95
519.10	231.71
519.27	252.78
519.45	351.08
519.62	290.23
519.79	224.69
519.96	276.18
520.14	306.61
520.31	278.52
520.48	266.82
520.65	301.93
520.83	325.33
521.00	315.97
521.17	248.10
521.34	271.50
521.52	332.36
521.69	212.99
521.86	313.63
522.03	262.14
522.20	280.86
522.38	273.84
522.55	280.86
522.72	250.44
522.89	245.76
523.07	367.46
523.24	229.37
523.41	243.42
523.58	248.10
523.75	297.25
523.92	198.95
524.10	376.83
524.27	322.99
524.44	283.20
524.61	308.95
524.78	245.76
524.96	311.29
525.13	332.36
525.30	318.31
525.47	320.65
525.64	290.23
525.81	269.16
525.98	278.52
526.16	182.56
526.33	276.18
526.50	243.42
526.67	292.57
526.84	299.59
527.01	339.38
527.18	320.65
527.36	278.52
527.53	327.68
527.70	400.23
527.87	315.97
528.04	339.38
528.21	301.93
528.38	376.83
528.55	241.08
528.72	339.38
528.89	348.74
529.07	327.68
529.24	250.44
529.41	437.68
529.58	374.49
529.75	318.31
529.92	407.25
530.09	395.55
530.26	404.91
530.43	360.44
530.60	308.95
530.77	358.10
530.94	315.97
531.11	444.70
531.28	393.21
531.46	320.65
531.63	395.55
531.80	334.70
531.97	440.02
532.14	411.93
532.31	491.51
532.48	543.00
532.65	624.92
532.82	594.50
532.99	727.91
533.16	704.50
533.33	793.44
533.50	812.17
533.67	681.10
533.84	566.41
534.01	631.94
534.18	503.22
534.35	540.66
534.52	540.66
534.69	573.43
534.86	547.69
535.03	535.98
535.20	521.94
535.37	643.65
535.54	624.92
535.71	638.97
535.88	753.65
536.05	720.88
536.22	730.25
536.38	823.87
536.55	917.49
536.72	964.30
536.89	1022.81
537.06	1078.99
537.23	1184.31
537.40	1259.21
537.57	1350.49
537.74	1350.49
537.91	1451.13
538.08	1561.14
538.25	1535.39
538.42	1441.77
538.59	1645.40
538.75	1612.63
538.92	1736.68
539.09	1947.33
539.26	2111.16
539.43	2361.60
539.60	2555.86
539.77	2881.20
539.94	3208.87
540.11	3515.48
540.28	3794.01
540.44	4168.49
540.61	4589.79
540.78	5219.39
540.95	6249.23
541.12	7279.07
541.29	8028.04
541.46	8257.41
541.62	8390.82
541.79	7789.30
541.96	7456.95
542.13	6902.24
542.30	6520.73
542.47	6127.52
542.63	5746.02
542.80	5547.07
542.97	5727.29
543.14	5687.50
543.31	5633.67
543.48	5633.67
543.64	5769.42
543.81	5673.46
543.98	5830.27
544.15	5748.36
544.32	5816.23
544.48	5673.46
544.65	5640.69
544.82	5654.73
544.99	5605.58
545.16	5846.66
545.32	6223.48
545.49	13135.09
545.66	20166.06
545.83	21986.99
546.00	17366.78
546.16	12418.88
546.33	9085.96
546.50	7040.33
546.67	5956.66
546.83	5139.82
547.00	4837.89
547.17	4608.51
547.34	4568.73
547.50	4311.27
547.67	4212.96
547.84	4037.42
548.00	3913.38
548.17	3684.00
548.34	3611.45
548.51	3482.72
548.67	3445.27
548.84	3187.81
549.01	3038.02
549.18	2995.89
549.34	2883.54
549.51	2736.09
549.68	2672.89
549.84	2450.54
550.01	2403.73
550.18	2455.22
550.34	2277.34
550.51	2153.29
550.68	2054.99
550.84	1860.73
551.01	1895.83
551.18	1764.76
551.34	1621.99
551.51	1626.67
551.68	1547.09
551.84	1493.26
552.01	1507.30
552.18	1423.05
552.34	1423.05
552.51	1324.74
552.68	1191.33
552.84	1170.27
553.01	1235.80
553.18	1186.65
553.34	1128.14
553.51	1193.67
553.67	1057.92
553.84	1139.84
554.01	1107.07
554.17	950.26
554.34	945.58
554.51	891.74
554.67	837.91
554.84	748.97
555.00	774.72
555.17	755.99
555.33	709.18
555.50	627.26
555.67	667.05
555.83	561.73
556.00	683.44
556.16	760.67
556.33	561.73
556.50	624.92
556.66	564.07
556.83	535.98
556.99	538.32
557.16	617.90
557.32	423.64
557.49	533.64
557.65	479.81
557.82	477.47
557.98	479.81
558.15	484.49
558.32	477.47
558.48	507.90
558.65	409.59
558.81	440.02
558.98	278.52
559.14	418.96
559.31	461.09
559.47	393.21
559.64	411.93
559.80	472.79
559.97	449.38
560.13	440.02
560.30	421.30
560.46	341.72
560.63	407.25
560.79	369.80
560.96	414.27
561.12	454.06
561.29	449.38
561.45	381.51
561.61	381.51
561.78	489.17
561.94	465.77
562.11	407.25
562.27	372.15
562.44	367.46
562.60	376.83
562.77	365.12
562.93	421.30
563.10	372.15
563.26	341.72
563.42	447.04
563.59	367.46
563.75	301.93
563.92	358.10
564.08	440.02
564.24	418.96
564.41	456.40
564.57	346.40
564.74	395.55
564.90	346.40
565.07	374.49
565.23	344.06
565.39	292.57
565.56	360.44
565.72	418.96
565.88	311.29
566.05	334.70
566.21	332.36
566.38	367.46
566.54	297.25
566.70	369.80
566.87	348.74
567.03	332.36
567.19	322.99
567.36	372.15
567.52	404.91
567.68	308.95
567.85	388.53
568.01	337.04
568.17	334.70
568.34	386.19
568.50	311.29
568.66	374.49
568.83	393.21
568.99	325.33
569.15	341.72
569.32	322.99
569.48	262.14
569.64	280.86
569.81	402.57
569.97	308.95
570.13	362.78
570.30	308.95
570.46	271.50
570.62	339.38
570.78	271.50
570.95	311.29
571.11	358.10
571.27	311.29
571.43	358.10
571.60	285.55
571.76	301.93
571.92	365.12
572.09	262.14
572.25	283.20
572.41	294.91
572.57	243.42
572.74	318.31
572.90	283.20
573.06	325.33
573.22	220.01
573.38	294.91
573.55	325.33
573.71	346.40
573.87	418.96
574.03	348.74
574.20	294.91
574.36	334.70
574.52	414.27
574.68	344.06
574.84	390.87
575.01	362.78
575.17	402.57
575.33	290.23
575.49	390.87
575.65	491.51
575.82	528.96
575.98	458.74
576.14	470.45
576.30	1132.82
576.46	2998.23
576.62	3948.48
576.79	3695.71
576.95	2799.28
577.11	1825.62
577.27	1252.19
577.43	894.08
577.59	711.52
577.75	627.26
577.92	629.60
578.08	580.45
578.24	514.92
578.40	1235.80
578.56	2553.52
578.72	3569.32
578.88	3548.25
579.04	2476.29
579.21	1788.17
579.37	1399.64
579.53	1249.85
579.69	1254.53
579.85	1526.03
580.01	1582.20
580.17	1514.33
580.33	1254.53
580.49	1123.46
580.65	1020.47
580.82	973.66
580.98	947.92
581.14	985.37
581.30	1114.10
581.46	1076.65
581.62	1233.46
581.78	1329.42
581.94	1376.24
582.10	1392.62
582.26	1514.33
582.42	1411.34
582.58	1486.24
582.74	1600.93
582.90	1598.59
583.06	1619.65
583.22	1577.52
583.38	1519.01
583.54	1504.96
583.70	1511.99
583.86	1488.58
584.02	1486.24
584.18	1481.56
584.34	1439.43
584.50	1451.13
584.66	1362.19
584.82	1376.24
584.98	1476.88
585.14	1390.28
585.30	1350.49
585.46	1308.36
585.62	1343.47
585.78	1242.82
585.94	1327.08
586.10	1427.73
586.26	1481.56
586.42	1605.61
586.58	1940.30
586.74	2284.36
586.90	2764.17
587.06	2822.69
587.22	2743.11
587.38	2490.33
587.54	2129.89
587.70	1834.98
587.86	1577.52
588.02	1371.55
588.18	1261.55
588.34	1055.58
588.49	1121.12
588.65	978.34
588.81	1060.26
588.97	959.62
589.13	854.30
589.29	954.94
589.45	912.81
589.61	938.55
589.77	889.40
589.93	889.40
590.08	912.81
590.24	1086.01
590.40	1097.71
590.56	1013.45
590.72	1022.81
590.88	994.73
591.04	1177.29
591.20	1074.31
591.35	1146.86
591.51	1238.14
591.67	1214.74
591.83	1310.70
591.99	1554.12
592.15	1575.18
592.31	1727.32
592.46	1739.02
592.62	1870.09
592.78	2012.86
592.94	2087.76
593.10	1888.81
593.26	1926.26
593.41	1727.32
593.57	1542.41
593.73	1369.21
593.89	1385.60
594.05	1198.35
594.20	1123.46
594.36	1055.58
594.52	936.21
594.68	945.58
594.84	901.11
594.99	861.32
595.15	891.74
595.31	833.23
595.47	821.53
595.62	875.36
595.78	875.36
595.94	772.38
596.10	910.47
596.25	847.27
596.41	826.21
596.57	828.55
596.73	727.91
596.88	781.74
597.04	741.95
597.20	777.06
597.36	875.36
597.51	973.66
597.67	896.43
597.83	901.11
597.99	985.37
598.14	999.41
598.30	1032.18
598.46	1128.14
598.61	1193.67
598.77	1188.99
598.93	1217.08
599.09	1322.40
599.24	1331.76
599.40	1228.78
599.56	1158.57
599.71	1179.63
599.87	1170.27
600.03	1118.78
600.18	1081.33
600.34	898.77
600.50	908.13
600.65	844.93
600.81	758.33
600.97	793.44
601.12	786.42
601.28	791.10
601.44	695.14
601.59	678.76
601.75	655.35
601.91	557.05
602.06	753.65
602.22	706.84
602.37	599.18
602.53	624.92
602.69	655.35
602.84	664.71
603.00	585.13
603.16	613.22
603.31	634.29
603.47	676.41
603.62	622.58
603.78	594.50
603.94	589.82
604.09	683.44
604.25	676.41
604.40	690.46
604.56	711.52
604.71	681.10
604.87	636.63
605.03	692.80
605.18	702.16
605.34	692.80
605.49	777.06
605.65	786.42
605.80	716.20
605.96	861.32
606.12	798.12
606.27	884.72
606.43	863.66
606.58	915.15
606.74	926.85
606.89	987.71
607.05	1029.84
607.20	1167.93
607.36	1144.52
607.51	1142.18
607.67	1282.61
607.82	1320.06
607.98	1303.68
608.13	1495.60
