SpectraSuite Data File
++++++++++++++++++++++++++++++++++++
Date: Fri Oct 04 11:41:44 GMT-05:00 2013
User: price-jones
Dark Spectrum Present: No
Reference Spectrum Present: No
Number of Sampled Component Spectra: 1
Spectrometers: USB2+H05261
Integration Time (usec): 100000 (USB2+H05261)
Spectra Averaged: 1 (USB2+H05261)
Boxcar Smoothing: 0 (USB2+H05261)
Correct for Electrical Dark: No (USB2+H05261)
Strobe/Lamp Enabled: No (USB2+H05261)
Correct for Detector Non-linearity: No (USB2+H05261)
Correct for Stray Light: No (USB2+H05261)
Number of Pixels in Processed Spectrum: 2048
>>>>>Begin Processed Spectral Data<<<<<
365.73	107.66
365.92	107.66
366.12	107.66
366.32	0.00
366.52	0.00
366.72	0.00
366.91	0.00
367.11	9.36
367.31	0.00
367.51	0.00
367.70	11.70
367.90	0.00
368.10	0.00
368.30	39.79
368.49	0.00
368.69	0.00
368.89	0.00
369.09	0.00
369.28	9.36
369.48	2.34
369.68	0.00
369.87	21.06
370.07	0.00
370.27	39.79
370.47	0.00
370.66	65.54
370.86	53.83
371.06	145.11
371.25	112.35
371.45	81.92
371.65	117.03
371.84	81.92
372.04	58.51
372.24	91.28
372.44	100.64
372.63	152.13
372.83	210.65
373.03	138.09
373.22	117.03
373.42	128.73
373.62	149.79
373.81	156.82
374.01	79.58
374.21	149.79
374.40	140.43
374.60	182.56
374.79	154.48
374.99	177.88
375.19	112.35
375.38	220.01
375.58	177.88
375.78	117.03
375.97	203.63
376.17	170.86
376.37	133.41
376.56	180.22
376.76	166.18
376.95	138.09
377.15	163.84
377.35	95.96
377.54	77.24
377.74	163.84
377.93	42.13
378.13	149.79
378.33	133.41
378.52	95.96
378.72	182.56
378.91	65.54
379.11	142.77
379.31	114.69
379.50	147.45
379.70	173.20
379.89	119.37
380.09	124.05
380.28	88.94
380.48	140.43
380.68	79.58
380.87	81.92
381.07	184.90
381.26	121.71
381.46	93.62
381.65	184.90
381.85	77.24
382.04	142.77
382.24	128.73
382.43	124.05
382.63	133.41
382.83	65.54
383.02	152.13
383.22	156.82
383.41	121.71
383.61	182.56
383.80	117.03
384.00	65.54
384.19	152.13
384.39	126.39
384.58	140.43
384.78	128.73
384.97	98.30
385.17	124.05
385.36	128.73
385.56	156.82
385.75	72.56
385.95	32.77
386.14	107.66
386.34	79.58
386.53	112.35
386.72	42.13
386.92	65.54
387.11	145.11
387.31	100.64
387.50	77.24
387.70	126.39
387.89	187.24
388.09	145.11
388.28	121.71
388.48	93.62
388.67	110.01
388.86	84.26
389.06	58.51
389.25	77.24
389.45	93.62
389.64	117.03
389.84	128.73
390.03	196.60
390.22	149.79
390.42	91.28
390.61	112.35
390.81	58.51
391.00	149.79
391.19	220.01
391.39	231.71
391.58	100.64
391.78	175.54
391.97	86.60
392.16	53.83
392.36	198.95
392.55	140.43
392.75	128.73
392.94	114.69
393.13	203.63
393.33	133.41
393.52	201.29
393.71	175.54
393.91	112.35
394.10	102.98
394.29	135.75
394.49	142.77
394.68	100.64
394.88	142.77
395.07	149.79
395.26	105.32
395.46	67.88
395.65	119.37
395.84	102.98
396.04	173.20
396.23	135.75
396.42	140.43
396.62	126.39
396.81	140.43
397.00	184.90
397.19	205.97
397.39	133.41
397.58	149.79
397.77	145.11
397.97	149.79
398.16	46.81
398.35	95.96
398.55	140.43
398.74	142.77
398.93	156.82
399.12	135.75
399.32	147.45
399.51	121.71
399.70	102.98
399.90	203.63
400.09	156.82
400.28	201.29
400.47	238.73
400.67	177.88
400.86	159.16
401.05	170.86
401.24	180.22
401.44	184.90
401.63	227.03
401.82	191.92
402.01	91.28
402.21	220.01
402.40	189.58
402.59	154.48
402.78	170.86
402.97	163.84
403.17	191.92
403.36	264.48
403.55	327.68
403.74	671.73
403.93	2080.74
404.13	5090.67
404.32	7648.87
404.51	6841.39
404.70	4081.89
404.89	1514.33
405.09	561.73
405.28	248.10
405.47	161.50
405.66	191.92
405.85	182.56
406.05	191.92
406.24	245.76
406.43	201.29
406.62	210.65
406.81	360.44
407.00	362.78
407.20	685.78
407.39	976.00
407.58	1107.07
407.77	854.30
407.96	484.49
408.15	308.95
408.34	196.60
408.54	236.39
408.73	217.67
408.92	210.65
409.11	161.50
409.30	168.52
409.49	194.26
409.68	159.16
409.87	159.16
410.07	149.79
410.26	191.92
410.45	147.45
410.64	257.46
410.83	201.29
411.02	205.97
411.21	285.55
411.40	250.44
411.59	215.33
411.78	215.33
411.98	180.22
412.17	236.39
412.36	201.29
412.55	194.26
412.74	203.63
412.93	257.46
413.12	191.92
413.31	238.73
413.50	201.29
413.69	264.48
413.88	220.01
414.07	215.33
414.26	280.86
414.45	215.33
414.64	187.24
414.83	227.03
415.02	273.84
415.22	238.73
415.41	285.55
415.60	315.97
415.79	313.63
415.98	301.93
416.17	248.10
416.36	299.59
416.55	241.08
416.74	290.23
416.93	285.55
417.12	360.44
417.31	236.39
417.50	297.25
417.69	252.78
417.88	248.10
418.07	154.48
418.26	245.76
418.45	252.78
418.64	313.63
418.83	313.63
419.02	285.55
419.21	262.14
419.39	292.57
419.58	255.12
419.77	276.18
419.96	257.46
420.15	334.70
420.34	231.71
420.53	292.57
420.72	355.76
420.91	322.99
421.10	238.73
421.29	327.68
421.48	238.73
421.67	311.29
421.86	346.40
422.05	322.99
422.24	166.18
422.43	287.89
422.61	234.05
422.80	257.46
422.99	287.89
423.18	322.99
423.37	372.15
423.56	243.42
423.75	283.20
423.94	285.55
424.13	280.86
424.32	308.95
424.50	262.14
424.69	355.76
424.88	344.06
425.07	287.89
425.26	320.65
425.45	292.57
425.64	301.93
425.83	292.57
426.01	409.59
426.20	362.78
426.39	337.04
426.58	390.87
426.77	320.65
426.96	353.42
427.15	383.85
427.33	367.46
427.52	337.04
427.71	372.15
427.90	327.68
428.09	287.89
428.28	325.33
428.46	383.85
428.65	341.72
428.84	318.31
429.03	468.11
429.22	397.89
429.40	315.97
429.59	358.10
429.78	423.64
429.97	379.17
430.16	255.12
430.34	346.40
430.53	411.93
430.72	437.68
430.91	348.74
431.10	442.36
431.28	416.62
431.47	425.98
431.66	418.96
431.85	472.79
432.03	433.00
432.22	463.43
432.41	465.77
432.60	458.74
432.79	479.81
432.97	557.05
433.16	489.17
433.35	507.90
433.54	601.52
433.72	685.78
433.91	634.29
434.10	727.91
434.28	833.23
434.47	990.05
434.66	1060.26
434.85	1430.07
435.03	3353.99
435.22	12833.16
435.41	30672.72
435.59	35325.71
435.78	23019.17
435.97	11332.87
436.16	4425.95
436.34	1516.67
436.53	926.85
436.72	704.50
436.90	615.56
437.09	608.54
437.28	510.24
437.46	580.45
437.65	550.03
437.84	533.64
438.02	493.85
438.21	540.66
438.40	507.90
438.58	477.47
438.77	451.72
438.96	547.69
439.14	571.09
439.33	496.19
439.52	552.37
439.70	503.22
439.89	472.79
440.08	442.36
440.26	507.90
440.45	468.11
440.63	512.58
440.82	566.41
441.01	433.00
441.19	507.90
441.38	512.58
441.57	482.15
441.75	533.64
441.94	454.06
442.12	521.94
442.31	519.60
442.50	440.02
442.68	503.22
442.87	561.73
443.05	486.83
443.24	587.47
443.43	533.64
443.61	557.05
443.80	447.04
443.98	461.09
444.17	440.02
444.35	442.36
444.54	461.09
444.73	505.56
444.91	533.64
445.10	437.68
445.28	440.02
445.47	393.21
445.65	461.09
445.84	428.32
446.02	479.81
446.21	444.70
446.39	472.79
446.58	447.04
446.77	393.21
446.95	442.36
447.14	449.38
447.32	493.85
447.51	507.90
447.69	493.85
447.88	430.66
448.06	449.38
448.25	519.60
448.43	500.87
448.62	418.96
448.80	425.98
448.99	395.55
449.17	472.79
449.36	386.19
449.54	512.58
449.73	561.73
449.91	503.22
450.10	545.34
450.28	531.30
450.46	517.26
450.65	383.85
450.83	498.53
451.02	514.92
451.20	449.38
451.39	491.51
451.57	461.09
451.76	395.55
451.94	456.40
452.13	475.13
452.31	486.83
452.49	458.74
452.68	465.77
452.86	491.51
453.05	463.43
453.23	444.70
453.42	433.00
453.60	428.32
453.78	517.26
453.97	451.72
454.15	512.58
454.34	479.81
454.52	468.11
454.70	496.19
454.89	421.30
455.07	421.30
455.26	491.51
455.44	512.58
455.62	418.96
455.81	458.74
455.99	463.43
456.17	489.17
456.36	411.93
456.54	430.66
456.73	479.81
456.91	451.72
457.09	458.74
457.28	472.79
457.46	484.49
457.64	477.47
457.83	416.62
458.01	440.02
458.19	444.70
458.38	454.06
458.56	440.02
458.74	393.21
458.93	435.34
459.11	435.34
459.29	442.36
459.48	557.05
459.66	486.83
459.84	538.32
460.03	587.47
460.21	437.68
460.39	435.34
460.57	435.34
460.76	365.12
460.94	521.94
461.12	496.19
461.31	489.17
461.49	479.81
461.67	454.06
461.85	404.91
462.04	472.79
462.22	545.34
462.40	477.47
462.59	524.28
462.77	383.85
462.95	444.70
463.13	440.02
463.32	440.02
463.50	468.11
463.68	400.23
463.86	491.51
464.05	397.89
464.23	433.00
464.41	482.15
464.59	451.72
464.78	454.06
464.96	486.83
465.14	390.87
465.32	475.13
465.50	528.96
465.69	477.47
465.87	381.51
466.05	397.89
466.23	365.12
466.41	461.09
466.60	526.62
466.78	517.26
466.96	440.02
467.14	484.49
467.32	514.92
467.51	547.69
467.69	479.81
467.87	463.43
468.05	470.45
468.23	435.34
468.41	404.91
468.60	411.93
468.78	461.09
468.96	500.87
469.14	433.00
469.32	421.30
469.50	442.36
469.69	477.47
469.87	344.06
470.05	351.08
470.23	479.81
470.41	418.96
470.59	447.04
470.77	355.76
470.95	486.83
471.14	444.70
471.32	468.11
471.50	449.38
471.68	421.30
471.86	472.79
472.04	416.62
472.22	463.43
472.40	400.23
472.58	421.30
472.77	395.55
472.95	411.93
473.13	463.43
473.31	475.13
473.49	512.58
473.67	407.25
473.85	433.00
474.03	496.19
474.21	519.60
474.39	505.56
474.57	482.15
474.75	524.28
474.93	414.27
475.12	444.70
475.30	369.80
475.48	409.59
475.66	390.87
475.84	421.30
476.02	451.72
476.20	468.11
476.38	456.40
476.56	491.51
476.74	482.15
476.92	411.93
477.10	433.00
477.28	503.22
477.46	393.21
477.64	519.60
477.82	482.15
478.00	531.30
478.18	475.13
478.36	564.07
478.54	503.22
478.72	557.05
478.90	533.64
479.08	599.18
479.26	568.75
479.44	575.77
479.62	599.18
479.80	580.45
479.98	601.52
480.16	688.12
480.34	592.16
480.52	636.63
480.70	727.91
480.88	671.73
481.06	667.05
481.24	795.78
481.41	898.77
481.59	812.17
481.77	922.17
481.95	968.98
482.13	1053.24
482.31	1046.22
482.49	1067.28
482.67	1294.32
482.85	1383.26
483.03	1296.66
483.21	1502.62
483.39	1507.30
483.57	1603.27
483.74	1881.79
483.92	1912.22
484.10	1977.75
484.28	2085.42
484.46	2141.59
484.64	2305.43
484.82	2394.37
485.00	2443.52
485.18	2548.84
485.35	2780.56
485.53	2846.09
485.71	2988.86
485.89	3248.66
486.07	3225.26
486.25	3272.07
486.43	3314.20
486.61	3260.37
486.78	3307.18
486.96	3295.47
487.14	3419.52
487.32	3241.64
487.50	3227.60
487.68	3307.18
487.85	3222.92
488.03	3173.77
488.21	3030.99
488.39	2963.12
488.57	2970.14
488.75	2834.39
488.92	2897.58
489.10	2754.81
489.28	2820.35
489.46	2719.70
489.64	2656.51
489.81	2619.06
489.99	2506.71
490.17	2590.97
490.35	2569.91
490.53	2445.86
490.70	2466.92
490.88	2471.61
491.06	2616.72
491.24	2757.15
491.41	2909.29
491.59	2668.21
491.77	2410.75
491.95	2401.39
492.13	2282.02
492.30	2186.06
492.48	2235.21
492.66	2200.10
492.84	2092.44
493.01	2169.68
493.19	2108.82
493.37	2120.53
493.54	1977.75
493.72	2120.53
493.90	2010.52
494.08	2050.31
494.25	2047.97
494.43	1947.33
494.61	1872.43
494.79	1837.32
494.96	1832.64
495.14	1837.32
495.32	1849.02
495.49	1860.73
495.67	1734.34
495.85	1713.27
496.02	1598.59
496.20	1640.72
496.38	1612.63
496.55	1624.33
496.73	1570.50
496.91	1535.39
497.09	1544.75
497.26	1483.90
497.44	1544.75
497.62	1469.86
497.79	1425.39
497.97	1418.36
498.14	1458.15
498.32	1331.76
498.50	1383.26
498.67	1345.81
498.85	1200.69
499.03	1193.67
499.20	1196.01
499.38	1144.52
499.56	1137.50
499.73	1153.88
499.91	1090.69
500.08	1104.73
500.26	1027.50
500.44	950.26
500.61	1109.41
500.79	1029.84
500.97	940.90
501.14	947.92
501.32	926.85
501.49	873.02
501.67	833.23
501.84	781.74
502.02	821.53
502.20	786.42
502.37	833.23
502.55	716.20
502.72	711.52
502.90	704.50
503.07	732.59
503.25	610.88
503.43	636.63
503.60	585.13
503.78	636.63
503.95	697.48
504.13	603.86
504.30	622.58
504.48	650.67
504.65	627.26
504.83	550.03
505.01	540.66
505.18	526.62
505.36	566.41
505.53	566.41
505.71	554.71
505.88	552.37
506.06	402.57
506.23	557.05
506.41	468.11
506.58	510.24
506.76	568.75
506.93	519.60
507.11	510.24
507.28	531.30
507.46	475.13
507.63	500.87
507.81	411.93
507.98	496.19
508.16	437.68
508.33	496.19
508.50	470.45
508.68	500.87
508.85	517.26
509.03	498.53
509.20	559.39
509.38	507.90
509.55	528.96
509.73	507.90
509.90	559.39
510.08	454.06
510.25	449.38
510.42	451.72
510.60	414.27
510.77	461.09
510.95	454.06
511.12	449.38
511.30	425.98
511.47	512.58
511.64	444.70
511.82	447.04
511.99	421.30
512.17	430.66
512.34	442.36
512.51	496.19
512.69	449.38
512.86	575.77
513.04	390.87
513.21	313.63
513.38	411.93
513.56	421.30
513.73	390.87
513.90	376.83
514.08	395.55
514.25	486.83
514.43	386.19
514.60	325.33
514.77	421.30
514.95	397.89
515.12	381.51
515.29	444.70
515.47	311.29
515.64	425.98
515.81	367.46
515.99	414.27
516.16	397.89
516.33	376.83
516.51	433.00
516.68	421.30
516.85	360.44
517.03	348.74
517.20	358.10
517.37	379.17
517.54	397.89
517.72	362.78
517.89	311.29
518.06	365.12
518.24	379.17
518.41	393.21
518.58	407.25
518.75	369.80
518.93	311.29
519.10	337.04
519.27	337.04
519.45	358.10
519.62	421.30
519.79	379.17
519.96	367.46
520.14	362.78
520.31	433.00
520.48	458.74
520.65	379.17
520.83	435.34
521.00	348.74
521.17	365.12
521.34	367.46
521.52	348.74
521.69	334.70
521.86	339.38
522.03	290.23
522.20	437.68
522.38	332.36
522.55	327.68
522.72	327.68
522.89	393.21
523.07	454.06
523.24	360.44
523.41	337.04
523.58	365.12
523.75	346.40
523.92	381.51
524.10	407.25
524.27	411.93
524.44	383.85
524.61	365.12
524.78	341.72
524.96	433.00
525.13	376.83
525.30	463.43
525.47	444.70
525.64	390.87
525.81	411.93
525.98	393.21
526.16	362.78
526.33	440.02
526.50	379.17
526.67	383.85
526.84	400.23
527.01	440.02
527.18	425.98
527.36	507.90
527.53	505.56
527.70	547.69
527.87	461.09
528.04	369.80
528.21	454.06
528.38	498.53
528.55	566.41
528.72	491.51
528.89	435.34
529.07	456.40
529.24	437.68
529.41	512.58
529.58	514.92
529.75	468.11
529.92	484.49
530.09	512.58
530.26	503.22
530.43	535.98
530.60	521.94
530.77	587.47
530.94	540.66
531.11	587.47
531.28	599.18
531.46	543.00
531.63	603.86
531.80	718.54
531.97	821.53
532.14	755.99
532.31	891.74
532.48	1062.60
532.65	1266.23
532.82	1404.32
532.99	1607.95
533.16	1921.58
533.33	2078.40
533.50	1867.75
533.67	1631.35
533.84	1397.30
534.01	1336.45
534.18	1203.04
534.35	1116.44
534.52	1146.86
534.69	1198.35
534.86	1193.67
535.03	1256.87
535.20	1242.82
535.37	1371.55
535.54	1500.28
535.71	1497.94
535.88	1591.56
536.05	1678.16
536.22	1909.88
536.38	2022.22
536.55	2232.87
536.72	2326.49
536.89	2689.28
537.06	2846.09
537.23	3288.45
537.40	3707.41
537.57	3969.55
537.74	4046.79
537.91	4219.99
538.08	4358.08
538.25	4468.08
538.42	4540.64
538.59	4634.26
538.75	4802.78
538.92	4919.81
539.09	5558.77
539.26	6333.49
539.43	6895.22
539.60	7637.17
539.77	8594.45
539.94	9820.89
540.11	10890.51
540.28	11733.11
540.44	12961.89
540.61	14569.83
540.78	16746.53
540.95	19690.93
541.12	23599.62
541.29	27058.93
541.46	28105.15
541.62	27964.72
541.79	26984.04
541.96	24865.85
542.13	23016.83
542.30	21586.76
542.47	20589.69
542.63	19211.12
542.80	18508.96
542.97	18555.77
543.14	18286.61
543.31	18108.72
543.48	18478.53
543.64	18789.82
543.81	18611.94
543.98	19290.70
544.15	19171.33
544.32	19157.28
544.48	18946.64
544.65	18712.58
544.82	18721.95
544.99	18462.15
545.16	19234.52
545.32	19934.34
545.49	31089.34
545.66	54901.95
545.83	62773.17
546.00	58670.21
546.16	44704.23
546.33	33415.83
546.50	25083.52
546.67	19229.84
546.83	17200.60
547.00	16365.03
547.17	15482.64
547.34	14780.48
547.50	14305.35
547.67	13724.90
547.84	13334.03
548.00	12643.57
548.17	12299.52
548.34	11836.09
548.51	11482.67
548.67	10824.98
548.84	10406.02
549.01	9757.69
549.18	9217.03
549.34	8959.57
549.51	8692.75
549.68	8451.67
549.84	8060.80
550.01	7763.56
550.18	7353.96
550.34	7110.55
550.51	6651.80
550.68	6361.58
550.84	5966.03
551.01	5720.27
551.18	5369.19
551.34	5076.62
551.51	5074.28
551.68	4863.63
551.84	4561.70
552.01	4292.54
552.18	4238.71
552.34	4086.58
552.51	3974.23
552.68	3751.88
552.84	3667.62
553.01	3557.61
553.18	3281.43
553.34	3335.26
553.51	3166.74
553.67	3138.66
553.84	2855.45
554.01	2836.73
554.17	2595.65
554.34	2368.62
554.51	2197.76
554.67	2099.46
554.84	2043.29
555.00	1867.75
555.17	1806.89
555.33	1757.74
555.50	1666.46
555.67	1570.50
555.83	1507.30
556.00	1455.81
556.16	1619.65
556.33	1465.18
556.50	1369.21
556.66	1153.88
556.83	1289.64
556.99	1200.69
557.16	1130.48
557.32	1111.75
557.49	1144.52
557.65	1102.39
557.82	1034.52
557.98	1034.52
558.15	1062.60
558.32	1008.77
558.48	987.71
558.65	1022.81
558.81	973.66
558.98	985.37
559.14	912.81
559.31	856.64
559.47	933.87
559.64	814.51
559.80	868.34
559.97	889.40
560.13	812.17
560.30	844.93
560.46	833.23
560.63	826.21
560.79	847.27
560.96	847.27
561.12	725.57
561.29	760.67
561.45	837.91
561.61	812.17
561.78	915.15
561.94	795.78
562.11	812.17
562.27	830.89
562.44	746.63
562.60	793.44
562.77	753.65
562.93	716.20
563.10	802.80
563.26	730.25
563.42	767.70
563.59	758.33
563.75	730.25
563.92	669.39
564.08	779.40
564.24	667.05
564.41	723.23
564.57	667.05
564.74	660.03
564.90	655.35
565.07	631.94
565.23	678.76
565.39	631.94
565.56	580.45
565.72	610.88
565.88	676.41
566.05	608.54
566.21	634.29
566.38	613.22
566.54	664.71
566.70	552.37
566.87	660.03
567.03	678.76
567.19	627.26
567.36	688.12
567.52	641.31
567.68	653.01
567.85	716.20
568.01	648.33
568.17	603.86
568.34	650.67
568.50	699.82
568.66	631.94
568.83	634.29
568.99	571.09
569.15	699.82
569.32	561.73
569.48	629.60
569.64	493.85
569.81	585.13
569.97	507.90
570.13	528.96
570.30	493.85
570.46	461.09
570.62	479.81
570.78	451.72
570.95	433.00
571.11	465.77
571.27	463.43
571.43	519.60
571.60	470.45
571.76	435.34
571.92	547.69
572.09	477.47
572.25	475.13
572.41	505.56
572.57	491.51
572.74	521.94
572.90	482.15
573.06	451.72
573.22	500.87
573.38	566.41
573.55	449.38
573.71	482.15
573.87	594.50
574.03	491.51
574.20	601.52
574.36	669.39
574.52	557.05
574.68	613.22
574.84	683.44
575.01	671.73
575.17	760.67
575.33	737.27
575.49	748.97
575.65	866.00
575.82	842.59
575.98	957.28
576.14	976.00
576.30	1888.81
576.46	6366.26
576.62	12360.37
576.79	13982.36
576.95	9856.00
577.11	6473.92
577.27	4634.26
577.43	3119.93
577.59	1930.94
577.75	1511.99
577.92	1472.20
578.08	1336.45
578.24	1409.00
578.40	2122.87
578.56	5809.21
578.72	10724.33
578.88	12257.39
579.04	8922.12
579.21	6090.07
579.37	4589.79
579.53	3791.67
579.69	3435.91
579.85	4187.22
580.01	4983.00
580.17	4840.23
580.33	4173.18
580.49	3433.57
580.65	3094.19
580.82	2841.41
580.98	2764.17
581.14	2832.05
581.30	2932.69
581.46	3122.27
581.62	3508.46
581.78	3660.60
581.94	3777.62
582.10	4224.67
582.26	4395.53
582.42	4482.13
582.58	4641.28
582.74	4674.05
582.90	4685.75
583.06	4854.27
583.22	4781.71
583.38	4732.56
583.54	4873.00
583.70	4720.86
583.86	4681.07
584.02	4723.20
584.18	4423.61
584.34	4386.16
584.50	4374.46
584.66	4229.35
584.82	4255.09
584.98	4306.59
585.14	4217.65
585.30	4105.30
585.46	4039.76
585.62	3826.78
585.78	4077.21
585.94	4084.23
586.10	4028.06
586.26	4315.95
586.42	4638.94
586.58	5586.86
586.74	6970.12
586.90	8538.27
587.06	9331.72
587.22	9270.86
587.38	8336.99
587.54	7098.84
587.70	6069.01
587.86	5294.29
588.02	4273.82
588.18	4025.72
588.34	3398.46
588.49	3115.25
588.65	2995.89
588.81	3030.99
588.97	2773.53
589.13	2757.15
589.29	2726.72
589.45	2654.17
589.61	2649.49
589.77	2607.36
589.93	2677.57
590.08	2874.18
590.24	2829.71
590.40	3059.08
590.56	3162.06
590.72	2981.84
590.88	3075.46
591.04	3232.28
591.20	3335.26
591.35	3454.63
591.51	3627.83
591.67	3716.77
591.83	3918.06
591.99	4301.90
592.15	4753.63
592.31	5167.90
592.46	5710.91
592.62	6092.41
592.78	6539.46
592.94	6920.96
593.10	6506.69
593.26	6239.87
593.41	5806.87
593.57	5294.29
593.73	4564.04
593.89	4128.70
594.05	3639.53
594.20	3265.05
594.36	3171.43
594.52	2684.59
594.68	2761.83
594.84	2651.83
594.99	2487.99
595.15	2485.65
595.31	2469.27
595.47	2335.85
595.62	2366.28
595.78	2307.77
595.94	2331.17
596.10	2466.92
596.25	2377.98
596.41	2459.90
596.57	2340.54
596.73	2326.49
596.88	2331.17
597.04	2251.60
597.20	2431.82
597.36	2483.31
597.51	2525.44
597.67	2487.99
597.83	2743.11
597.99	2869.50
598.14	3042.70
598.30	3243.98
598.46	3382.07
598.61	3595.06
598.77	3714.43
598.93	3817.41
599.09	3824.44
599.24	3943.80
599.40	4100.62
599.56	3908.69
599.71	3772.94
599.87	3604.42
600.03	3206.53
600.18	3148.02
600.34	2935.03
600.50	2698.64
600.65	2492.67
600.81	2382.67
600.97	2291.38
601.12	2125.21
601.28	2029.24
601.44	1991.80
601.59	1865.41
601.75	1839.66
601.91	1827.96
602.06	1781.15
602.22	1717.95
602.37	1582.20
602.53	1561.14
602.69	1643.06
602.84	1530.71
603.00	1596.25
603.16	1568.16
603.31	1692.21
603.47	1631.35
603.62	1624.33
603.78	1755.40
603.94	1909.88
604.09	1776.47
604.25	1788.17
604.40	1842.00
604.56	1881.79
604.71	1863.07
604.87	1797.53
605.03	1916.90
605.18	2003.50
