SpectraSuite Data File
++++++++++++++++++++++++++++++++++++
Date: Fri Oct 04 11:42:18 GMT-05:00 2013
User: price-jones
Dark Spectrum Present: No
Reference Spectrum Present: No
Number of Sampled Component Spectra: 1
Spectrometers: USB2+H05261
Integration Time (usec): 100000 (USB2+H05261)
Spectra Averaged: 1 (USB2+H05261)
Boxcar Smoothing: 0 (USB2+H05261)
Correct for Electrical Dark: No (USB2+H05261)
Strobe/Lamp Enabled: No (USB2+H05261)
Correct for Detector Non-linearity: No (USB2+H05261)
Correct for Stray Light: No (USB2+H05261)
Number of Pixels in Processed Spectrum: 2048
>>>>>Begin Processed Spectral Data<<<<<
365.73	77.24
365.92	77.24
366.12	77.24
366.32	11.70
366.52	0.00
366.72	0.00
366.91	0.00
367.11	0.00
367.31	0.00
367.51	0.00
367.70	0.00
367.90	0.00
368.10	0.00
368.30	0.00
368.49	2.34
368.69	11.70
368.89	32.77
369.09	0.00
369.28	0.00
369.48	0.00
369.68	0.00
369.87	14.04
370.07	0.00
370.27	100.64
370.47	21.06
370.66	42.13
370.86	81.92
371.06	60.85
371.25	124.05
371.45	30.43
371.65	46.81
371.84	51.49
372.04	79.58
372.24	44.47
372.44	124.05
372.63	145.11
372.83	63.19
373.03	161.50
373.22	53.83
373.42	79.58
373.62	140.43
373.81	70.22
374.01	191.92
374.21	189.58
374.40	124.05
374.60	166.18
374.79	126.39
374.99	147.45
375.19	119.37
375.38	98.30
375.58	93.62
375.78	138.09
375.97	77.24
376.17	224.69
376.37	173.20
376.56	229.37
376.76	93.62
376.95	142.77
377.15	93.62
377.35	107.66
377.54	159.16
377.74	28.09
377.93	175.54
378.13	135.75
378.33	205.97
378.52	79.58
378.72	131.07
378.91	133.41
379.11	105.32
379.31	18.72
379.50	163.84
379.70	196.60
379.89	145.11
380.09	28.09
380.28	159.16
380.48	124.05
380.68	119.37
380.87	93.62
381.07	112.35
381.26	145.11
381.46	100.64
381.65	131.07
381.85	65.54
382.04	149.79
382.24	88.94
382.43	102.98
382.63	152.13
382.83	81.92
383.02	175.54
383.22	135.75
383.41	74.90
383.61	119.37
383.80	35.11
384.00	203.63
384.19	138.09
384.39	142.77
384.58	154.48
384.78	145.11
384.97	147.45
385.17	119.37
385.36	44.47
385.56	119.37
385.75	184.90
385.95	98.30
386.14	154.48
386.34	60.85
386.53	161.50
386.72	126.39
386.92	79.58
387.11	142.77
387.31	138.09
387.50	84.26
387.70	93.62
387.89	121.71
388.09	182.56
388.28	131.07
388.48	114.69
388.67	135.75
388.86	133.41
389.06	133.41
389.25	110.01
389.45	112.35
389.64	117.03
389.84	131.07
390.03	46.81
390.22	105.32
390.42	110.01
390.61	95.96
390.81	145.11
391.00	79.58
391.19	163.84
391.39	149.79
391.58	177.88
391.78	88.94
391.97	58.51
392.16	110.01
392.36	131.07
392.55	212.99
392.75	156.82
392.94	161.50
393.13	114.69
393.33	91.28
393.52	119.37
393.71	147.45
393.91	126.39
394.10	98.30
394.29	149.79
394.49	72.56
394.68	133.41
394.88	147.45
395.07	105.32
395.26	224.69
395.46	131.07
395.65	145.11
395.84	142.77
396.04	166.18
396.23	126.39
396.42	32.77
396.62	124.05
396.81	117.03
397.00	77.24
397.19	133.41
397.39	170.86
397.58	182.56
397.77	70.22
397.97	133.41
398.16	184.90
398.35	145.11
398.55	72.56
398.74	93.62
398.93	166.18
399.12	133.41
399.32	187.24
399.51	121.71
399.70	126.39
399.90	126.39
400.09	142.77
400.28	121.71
400.47	166.18
400.67	149.79
400.86	163.84
401.05	187.24
401.24	135.75
401.44	231.71
401.63	152.13
401.82	196.60
402.01	124.05
402.21	102.98
402.40	191.92
402.59	168.52
402.78	121.71
402.97	105.32
403.17	145.11
403.36	215.33
403.55	283.20
403.74	603.86
403.93	1727.32
404.13	3964.87
404.32	4828.53
404.51	3969.55
404.70	2401.39
404.89	868.34
405.09	351.08
405.28	175.54
405.47	149.79
405.66	93.62
405.85	250.44
406.05	166.18
406.24	147.45
406.43	145.11
406.62	121.71
406.81	222.35
407.00	299.59
407.20	510.24
407.39	624.92
407.58	627.26
407.77	472.79
407.96	308.95
408.15	229.37
408.34	168.52
408.54	147.45
408.73	147.45
408.92	154.48
409.11	147.45
409.30	156.82
409.49	173.20
409.68	234.05
409.87	231.71
410.07	205.97
410.26	177.88
410.45	154.48
410.64	175.54
410.83	149.79
411.02	187.24
411.21	163.84
411.40	131.07
411.59	149.79
411.78	81.92
411.98	138.09
412.17	156.82
412.36	119.37
412.55	182.56
412.74	224.69
412.93	215.33
413.12	191.92
413.31	177.88
413.50	168.52
413.69	131.07
413.88	212.99
414.07	229.37
414.26	173.20
414.45	210.65
414.64	177.88
414.83	266.82
415.02	234.05
415.22	203.63
415.41	217.67
415.60	257.46
415.79	224.69
415.98	175.54
416.17	205.97
416.36	175.54
416.55	175.54
416.74	227.03
416.93	287.89
417.12	217.67
417.31	234.05
417.50	271.50
417.69	229.37
417.88	297.25
418.07	224.69
418.26	163.84
418.45	205.97
418.64	224.69
418.83	212.99
419.02	173.20
419.21	273.84
419.39	180.22
419.58	259.80
419.77	255.12
419.96	205.97
420.15	290.23
420.34	203.63
420.53	252.78
420.72	215.33
420.91	187.24
421.10	210.65
421.29	262.14
421.48	280.86
421.67	205.97
421.86	215.33
422.05	198.95
422.24	159.16
422.43	234.05
422.61	248.10
422.80	257.46
422.99	250.44
423.18	273.84
423.37	224.69
423.56	231.71
423.75	245.76
423.94	287.89
424.13	102.98
424.32	177.88
424.50	212.99
424.69	212.99
424.88	269.16
425.07	266.82
425.26	252.78
425.45	245.76
425.64	252.78
425.83	252.78
426.01	315.97
426.20	229.37
426.39	269.16
426.58	255.12
426.77	255.12
426.96	283.20
427.15	301.93
427.33	243.42
427.52	299.59
427.71	285.55
427.90	269.16
428.09	320.65
428.28	299.59
428.46	238.73
428.65	241.08
428.84	166.18
429.03	320.65
429.22	280.86
429.40	290.23
429.59	318.31
429.78	304.27
429.97	313.63
430.16	294.91
430.34	344.06
430.53	358.10
430.72	294.91
430.91	250.44
431.10	238.73
431.28	266.82
431.47	365.12
431.66	285.55
431.85	276.18
432.03	358.10
432.22	337.04
432.41	369.80
432.60	374.49
432.79	402.57
432.97	353.42
433.16	348.74
433.35	388.53
433.54	510.24
433.72	491.51
433.91	397.89
434.10	524.28
434.28	720.88
434.47	723.23
434.66	828.55
434.85	917.49
435.03	2787.58
435.22	10068.98
435.41	21345.69
435.59	20519.48
435.78	13018.06
435.97	6621.38
436.16	2551.18
436.34	1020.47
436.53	657.69
436.72	589.82
436.90	454.06
437.09	463.43
437.28	388.53
437.46	451.72
437.65	353.42
437.84	409.59
438.02	374.49
438.21	404.91
438.40	365.12
438.58	346.40
438.77	418.96
438.96	332.36
439.14	355.76
439.33	390.87
439.52	337.04
439.70	311.29
439.89	390.87
440.08	346.40
440.26	313.63
440.45	341.72
440.63	322.99
440.82	402.57
441.01	381.51
441.19	315.97
441.38	351.08
441.57	430.66
441.75	379.17
441.94	351.08
442.12	339.38
442.31	355.76
442.50	351.08
442.68	421.30
442.87	360.44
443.05	308.95
443.24	423.64
443.43	402.57
443.61	395.55
443.80	369.80
443.98	315.97
444.17	409.59
444.35	365.12
444.54	379.17
444.73	297.25
444.91	346.40
445.10	353.42
445.28	374.49
445.47	362.78
445.65	376.83
445.84	381.51
446.02	388.53
446.21	414.27
446.39	433.00
446.58	374.49
446.77	386.19
446.95	301.93
447.14	358.10
447.32	479.81
447.51	362.78
447.69	367.46
447.88	358.10
448.06	423.64
448.25	353.42
448.43	351.08
448.62	313.63
448.80	400.23
448.99	400.23
449.17	313.63
449.36	344.06
449.54	369.80
449.73	379.17
449.91	433.00
450.10	304.27
450.28	402.57
450.46	390.87
450.65	393.21
450.83	346.40
451.02	339.38
451.20	404.91
451.39	365.12
451.57	332.36
451.76	322.99
451.94	311.29
452.13	395.55
452.31	402.57
452.49	327.68
452.68	388.53
452.86	437.68
453.05	379.17
453.23	301.93
453.42	348.74
453.60	325.33
453.78	325.33
453.97	297.25
454.15	318.31
454.34	376.83
454.52	341.72
454.70	327.68
454.89	351.08
455.07	353.42
455.26	311.29
455.44	313.63
455.62	301.93
455.81	311.29
455.99	372.15
456.17	388.53
456.36	330.02
456.54	362.78
456.73	442.36
456.91	351.08
457.09	409.59
457.28	430.66
457.46	351.08
457.64	322.99
457.83	278.52
458.01	365.12
458.19	351.08
458.38	344.06
458.56	407.25
458.74	308.95
458.93	374.49
459.11	400.23
459.29	297.25
459.48	332.36
459.66	355.76
459.84	367.46
460.03	404.91
460.21	374.49
460.39	400.23
460.57	294.91
460.76	376.83
460.94	421.30
461.12	304.27
461.31	346.40
461.49	397.89
461.67	341.72
461.85	376.83
462.04	313.63
462.22	524.28
462.40	365.12
462.59	332.36
462.77	346.40
462.95	348.74
463.13	341.72
463.32	320.65
463.50	327.68
463.68	421.30
463.86	383.85
464.05	294.91
464.23	334.70
464.41	376.83
464.59	372.15
464.78	283.20
464.96	365.12
465.14	383.85
465.32	400.23
465.50	365.12
465.69	325.33
465.87	351.08
466.05	348.74
466.23	325.33
466.41	435.34
466.60	404.91
466.78	325.33
466.96	400.23
467.14	372.15
467.32	465.77
467.51	393.21
467.69	351.08
467.87	444.70
468.05	386.19
468.23	330.02
468.41	374.49
468.60	365.12
468.78	414.27
468.96	308.95
469.14	287.89
469.32	208.31
469.50	315.97
469.69	318.31
469.87	393.21
470.05	353.42
470.23	353.42
470.41	367.46
470.59	292.57
470.77	322.99
470.95	348.74
471.14	402.57
471.32	313.63
471.50	308.95
471.68	365.12
471.86	353.42
472.04	339.38
472.22	320.65
472.40	435.34
472.58	313.63
472.77	285.55
472.95	339.38
473.13	372.15
473.31	423.64
473.49	351.08
473.67	337.04
473.85	292.57
474.03	341.72
474.21	411.93
474.39	369.80
474.57	421.30
474.75	330.02
474.93	290.23
475.12	325.33
475.30	353.42
475.48	311.29
475.66	358.10
475.84	304.27
476.02	367.46
476.20	348.74
476.38	358.10
476.56	400.23
476.74	264.48
476.92	344.06
477.10	372.15
477.28	400.23
477.46	390.87
477.64	386.19
477.82	409.59
478.00	416.62
478.18	409.59
478.36	411.93
478.54	449.38
478.72	407.25
478.90	430.66
479.08	418.96
479.26	472.79
479.44	468.11
479.62	414.27
479.80	489.17
479.98	421.30
480.16	433.00
480.34	550.03
480.52	468.11
480.70	578.11
480.88	482.15
481.06	507.90
481.24	535.98
481.41	601.52
481.59	610.88
481.77	655.35
481.95	718.54
482.13	819.19
482.31	767.70
482.49	887.06
482.67	868.34
482.85	889.40
483.03	987.71
483.21	1027.50
483.39	1071.97
483.57	1060.26
483.74	1149.20
483.92	1261.55
484.10	1385.60
484.28	1411.34
484.46	1537.73
484.64	1547.09
484.82	1476.88
485.00	1699.23
485.18	1811.57
485.35	1919.24
485.53	1916.90
485.71	2022.22
485.89	2050.31
486.07	2038.61
486.25	2214.15
486.43	2069.03
486.61	2167.34
486.78	2167.34
486.96	2157.97
487.14	2113.50
487.32	2148.61
487.50	2097.12
487.68	2085.42
487.85	2120.53
488.03	2080.74
488.21	2080.74
488.39	2019.88
488.57	1926.26
488.75	1893.49
488.92	2132.23
489.10	1877.11
489.28	1764.76
489.46	1816.26
489.64	1699.23
489.81	1741.36
489.99	1715.61
490.17	1654.76
490.35	1776.47
490.53	1626.67
490.70	1654.76
490.88	1652.42
491.06	1783.49
491.24	1839.66
491.41	1853.70
491.59	1760.08
491.77	1741.36
491.95	1600.93
492.13	1607.95
492.30	1650.08
492.48	1495.60
492.66	1481.56
492.84	1444.11
493.01	1465.18
493.19	1380.92
493.37	1427.73
493.54	1362.19
493.72	1287.29
493.90	1282.61
494.08	1324.74
494.25	1366.87
494.43	1357.51
494.61	1252.19
494.79	1200.69
494.96	1268.57
495.14	1214.74
495.32	1163.25
495.49	1224.10
495.67	1160.91
495.85	1146.86
496.02	1128.14
496.20	1207.72
496.38	1158.57
496.55	1146.86
496.73	1095.37
496.91	1078.99
497.09	1046.22
497.26	1076.65
497.44	985.37
497.62	1067.28
497.79	964.30
497.97	987.71
498.14	926.85
498.32	816.85
498.50	894.08
498.67	997.07
498.85	800.46
499.03	978.34
499.20	835.57
499.38	840.25
499.56	807.48
499.73	816.85
499.91	807.48
500.08	798.12
500.26	718.54
500.44	784.08
500.61	587.47
500.79	615.56
500.97	615.56
501.14	725.57
501.32	667.05
501.49	667.05
501.67	622.58
501.84	648.33
502.02	521.94
502.20	629.60
502.37	578.11
502.55	540.66
502.72	592.16
502.90	580.45
503.07	435.34
503.25	512.58
503.43	545.34
503.60	461.09
503.78	449.38
503.95	489.17
504.13	423.64
504.30	496.19
504.48	500.87
504.65	451.72
504.83	442.36
505.01	447.04
505.18	500.87
505.36	451.72
505.53	418.96
505.71	351.08
505.88	465.77
506.06	456.40
506.23	409.59
506.41	327.68
506.58	290.23
506.76	341.72
506.93	421.30
507.11	376.83
507.28	418.96
507.46	395.55
507.63	351.08
507.81	353.42
507.98	414.27
508.16	390.87
508.33	440.02
508.50	362.78
508.68	339.38
508.85	369.80
509.03	430.66
509.20	416.62
509.38	337.04
509.55	390.87
509.73	444.70
509.90	458.74
510.08	353.42
510.25	435.34
510.42	311.29
510.60	285.55
510.77	362.78
510.95	376.83
511.12	320.65
511.30	425.98
511.47	395.55
511.64	407.25
511.82	379.17
511.99	353.42
512.17	381.51
512.34	376.83
512.51	344.06
512.69	315.97
512.86	433.00
513.04	313.63
513.21	395.55
513.38	390.87
513.56	341.72
513.73	421.30
513.90	311.29
514.08	339.38
514.25	372.15
514.43	374.49
514.60	318.31
514.77	376.83
514.95	390.87
515.12	337.04
515.29	313.63
515.47	367.46
515.64	332.36
515.81	332.36
515.99	308.95
516.16	337.04
516.33	379.17
516.51	276.18
516.68	278.52
516.85	374.49
517.03	297.25
517.20	315.97
517.37	411.93
517.54	346.40
517.72	351.08
517.89	292.57
518.06	294.91
518.24	332.36
518.41	386.19
518.58	276.18
518.75	348.74
518.93	299.59
519.10	301.93
519.27	397.89
519.45	294.91
519.62	362.78
519.79	388.53
519.96	262.14
520.14	322.99
520.31	353.42
520.48	299.59
520.65	290.23
520.83	318.31
521.00	360.44
521.17	339.38
521.34	287.89
521.52	318.31
521.69	390.87
521.86	337.04
522.03	348.74
522.20	325.33
522.38	287.89
522.55	231.71
522.72	287.89
522.89	339.38
523.07	351.08
523.24	351.08
523.41	252.78
523.58	297.25
523.75	383.85
523.92	325.33
524.10	250.44
524.27	341.72
524.44	337.04
524.61	369.80
524.78	322.99
524.96	315.97
525.13	351.08
525.30	348.74
525.47	365.12
525.64	383.85
525.81	322.99
525.98	327.68
526.16	390.87
526.33	308.95
526.50	330.02
526.67	334.70
526.84	337.04
527.01	416.62
527.18	435.34
527.36	465.77
527.53	449.38
527.70	383.85
527.87	416.62
528.04	447.04
528.21	339.38
528.38	484.49
528.55	463.43
528.72	430.66
528.89	430.66
529.07	414.27
529.24	390.87
529.41	397.89
529.58	449.38
529.75	393.21
529.92	496.19
530.09	388.53
530.26	435.34
530.43	397.89
530.60	416.62
530.77	512.58
530.94	440.02
531.11	454.06
531.28	482.15
531.46	491.51
531.63	465.77
531.80	526.62
531.97	601.52
532.14	631.94
532.31	734.93
532.48	851.96
532.65	866.00
532.82	980.68
532.99	1097.71
533.16	1287.29
533.33	1341.13
533.50	1299.00
533.67	1097.71
533.84	903.45
534.01	856.64
534.18	805.14
534.35	866.00
534.52	826.21
534.69	929.19
534.86	798.12
535.03	884.72
535.20	840.25
535.37	1008.77
535.54	999.41
535.71	1093.03
535.88	1156.22
536.05	1231.12
536.22	1240.48
536.38	1357.51
536.55	1465.18
536.72	1607.95
536.89	1809.23
537.06	2078.40
537.23	2228.19
537.40	2422.45
537.57	2567.57
537.74	2616.72
537.91	2897.58
538.08	2923.33
538.25	2913.97
538.42	2937.37
538.59	2951.42
538.75	3045.04
538.92	3396.12
539.09	3552.93
539.26	3850.18
539.43	4681.07
539.60	5057.90
539.77	5696.86
539.94	6232.85
540.11	6738.40
540.28	7475.67
540.44	8112.30
540.61	9018.08
540.78	10420.06
540.95	12711.45
541.12	14958.36
541.29	16744.19
541.46	17137.40
541.62	17198.26
541.79	16402.47
541.96	15421.79
542.13	13940.23
542.30	12987.63
542.47	12617.83
542.63	12011.63
542.80	11597.35
542.97	11330.53
543.14	11274.36
543.31	11164.36
543.48	11197.12
543.64	11477.99
543.81	11480.33
543.98	11770.55
544.15	11775.24
544.32	11815.02
544.48	11932.05
544.65	11852.47
544.82	11632.46
544.99	11595.01
545.16	11709.70
545.32	12688.04
545.49	23096.41
545.66	41141.94
545.83	47271.80
546.00	40116.78
546.16	27604.28
546.33	20470.33
546.50	15185.40
546.67	12025.67
546.83	10614.33
547.00	10169.63
547.17	9741.31
547.34	9062.55
547.50	9090.64
547.67	8561.68
547.84	8285.50
548.00	7826.75
548.17	7538.87
548.34	7272.04
548.51	7049.69
548.67	6719.68
548.84	6469.24
549.01	6188.38
549.18	5902.83
549.34	5610.26
549.51	5373.87
549.68	5268.55
549.84	5097.69
550.01	4877.68
550.18	4624.90
550.34	4428.29
550.51	4255.09
550.68	4051.47
550.84	3871.25
551.01	3473.36
551.18	3440.59
551.34	3356.33
551.51	3194.83
551.68	3084.83
551.84	2939.71
552.01	2771.19
552.18	2658.85
552.34	2700.98
552.51	2450.54
552.68	2448.20
552.84	2260.96
553.01	2176.70
553.18	2291.38
553.34	2160.31
553.51	2052.65
553.67	1996.48
553.84	1954.35
554.01	1804.55
554.17	1563.48
554.34	1659.44
554.51	1530.71
554.67	1441.77
554.84	1369.21
555.00	1313.04
555.17	1249.85
555.33	1226.44
555.50	1177.29
555.67	1004.09
555.83	987.71
556.00	1006.43
556.16	1071.97
556.33	868.34
556.50	912.81
556.66	985.37
556.83	844.93
556.99	873.02
557.16	828.55
557.32	870.68
557.49	758.33
557.65	744.29
557.82	805.14
557.98	753.65
558.15	730.25
558.32	805.14
558.48	678.76
558.65	653.01
558.81	718.54
558.98	692.80
559.14	657.69
559.31	662.37
559.47	662.37
559.64	617.90
559.80	669.39
559.97	617.90
560.13	601.52
560.30	594.50
560.46	615.56
560.63	573.43
560.79	507.90
560.96	580.45
561.12	561.73
561.29	580.45
561.45	657.69
561.61	671.73
561.78	660.03
561.94	566.41
562.11	608.54
562.27	580.45
562.44	636.63
562.60	629.60
562.77	507.90
562.93	559.39
563.10	613.22
563.26	519.60
563.42	578.11
563.59	561.73
563.75	503.22
563.92	538.32
564.08	514.92
564.24	585.13
564.41	589.82
564.57	500.87
564.74	552.37
564.90	444.70
565.07	479.81
565.23	454.06
565.39	458.74
565.56	500.87
565.72	503.22
565.88	514.92
566.05	479.81
566.21	500.87
566.38	484.49
566.54	491.51
566.70	465.77
566.87	550.03
567.03	425.98
567.19	500.87
567.36	526.62
567.52	521.94
567.68	507.90
567.85	491.51
568.01	550.03
568.17	503.22
568.34	521.94
568.50	571.09
568.66	444.70
568.83	578.11
568.99	547.69
569.15	524.28
569.32	486.83
569.48	451.72
569.64	369.80
569.81	433.00
569.97	465.77
570.13	475.13
570.30	395.55
570.46	430.66
570.62	388.53
570.78	395.55
570.95	402.57
571.11	440.02
571.27	484.49
571.43	379.17
571.60	353.42
571.76	311.29
571.92	411.93
572.09	393.21
572.25	355.76
572.41	402.57
572.57	423.64
572.74	334.70
572.90	407.25
573.06	500.87
573.22	435.34
573.38	465.77
573.55	411.93
573.71	421.30
573.87	479.81
574.03	444.70
574.20	442.36
574.36	470.45
574.52	449.38
574.68	486.83
574.84	524.28
575.01	599.18
575.17	601.52
575.33	533.64
575.49	606.20
575.65	629.60
575.82	718.54
575.98	674.07
576.14	854.30
576.30	1490.92
576.46	4814.48
576.62	7817.39
576.79	8063.15
576.95	5687.50
577.11	3754.22
577.27	2691.62
577.43	1813.92
577.59	1280.27
577.75	1015.79
577.92	976.00
578.08	980.68
578.24	976.00
578.40	1739.02
578.56	4678.73
578.72	7349.28
578.88	7379.71
579.04	5533.03
579.21	3761.24
579.37	2834.39
579.53	2256.28
579.69	2277.34
579.85	2752.47
580.01	3157.38
580.17	2944.39
580.33	2445.86
580.49	2303.09
580.65	2036.27
580.82	1778.81
580.98	1675.82
581.14	1853.70
581.30	1970.73
581.46	2078.40
581.62	2230.53
581.78	2298.41
581.94	2661.19
582.10	2672.89
582.26	2813.32
582.42	2869.50
582.58	2822.69
582.74	2925.67
582.90	3047.38
583.06	2995.89
583.22	2899.92
583.38	2967.80
583.54	3124.62
583.70	3030.99
583.86	3002.91
584.02	2998.23
584.18	2829.71
584.34	2789.92
584.50	2827.37
584.66	2834.39
584.82	2787.58
584.98	2684.59
585.14	2572.25
585.30	2612.04
585.46	2555.86
585.62	2478.63
585.78	2546.50
585.94	2525.44
586.10	2733.75
586.26	2764.17
586.42	3103.55
586.58	3777.62
586.74	4535.96
586.90	5195.99
587.06	5816.23
587.22	5692.18
587.38	4973.64
587.54	4322.97
587.70	3681.66
587.86	3218.24
588.02	2656.51
588.18	2445.86
588.34	2186.06
588.49	1973.07
588.65	1858.39
588.81	1832.64
588.97	1832.64
589.13	1727.32
589.29	1795.19
589.45	1724.97
589.61	1741.36
589.77	1750.72
589.93	1802.21
590.08	1762.42
590.24	1830.30
590.40	1881.79
590.56	1935.62
590.72	1874.77
590.88	1947.33
591.04	2097.12
591.20	2256.28
591.35	2303.09
591.51	2235.21
591.67	2410.75
591.83	2518.42
591.99	2677.57
592.15	3197.17
592.31	3236.96
592.46	3447.61
592.62	3822.09
592.78	3981.25
592.94	4245.73
593.10	4170.83
593.26	3887.63
593.41	3578.68
593.57	3290.79
593.73	2848.43
593.89	2546.50
594.05	2197.76
594.20	2080.74
594.36	1919.24
594.52	1842.00
594.68	1795.19
594.84	1706.25
594.99	1685.19
595.15	1584.54
595.31	1561.14
595.47	1558.80
595.62	1476.88
595.78	1544.75
595.94	1533.05
596.10	1586.88
596.25	1530.71
596.41	1486.24
596.57	1542.41
596.73	1401.98
596.88	1460.49
597.04	1493.26
597.20	1497.94
597.36	1614.97
597.51	1626.67
597.67	1682.85
597.83	1785.83
597.99	1792.85
598.14	1851.36
598.30	2026.90
598.46	2069.03
598.61	2296.07
598.77	2300.75
598.93	2375.64
599.09	2450.54
599.24	2462.24
599.40	2464.58
599.56	2448.20
599.71	2338.20
599.87	2193.08
600.03	1996.48
600.18	1879.45
600.34	1891.15
600.50	1753.06
600.65	1652.42
600.81	1626.67
600.97	1479.22
601.12	1462.83
601.28	1310.70
601.44	1245.16
601.59	1165.59
601.75	1233.46
601.91	1193.67
602.06	1160.91
602.22	1095.37
602.37	1135.16
602.53	1088.35
602.69	1060.26
602.84	1060.26
603.00	987.71
603.16	1104.73
603.31	1135.16
603.47	1139.84
603.62	1062.60
603.78	1137.50
603.94	1111.75
604.09	1221.76
604.25	1184.31
604.40	1210.06
604.56	1210.06
604.71	1242.82
604.87	1153.88
605.03	1324.74
605.18	1256.87
605.34	1308.36
605.49	1331.76
605.65	1366.87
605.80	1397.30
605.96	1373.89
606.12	1528.37
