SpectraSuite Data File
++++++++++++++++++++++++++++++++++++
Date: Fri Oct 04 11:42:19 GMT-05:00 2013
User: price-jones
Dark Spectrum Present: No
Reference Spectrum Present: No
Number of Sampled Component Spectra: 1
Spectrometers: USB2+H05261
Integration Time (usec): 100000 (USB2+H05261)
Spectra Averaged: 1 (USB2+H05261)
Boxcar Smoothing: 0 (USB2+H05261)
Correct for Electrical Dark: No (USB2+H05261)
Strobe/Lamp Enabled: No (USB2+H05261)
Correct for Detector Non-linearity: No (USB2+H05261)
Correct for Stray Light: No (USB2+H05261)
Number of Pixels in Processed Spectrum: 2048
>>>>>Begin Processed Spectral Data<<<<<
365.73	117.03
365.92	117.03
366.12	117.03
366.32	0.00
366.52	0.00
366.72	0.00
366.91	0.00
367.11	0.00
367.31	0.00
367.51	0.00
367.70	0.00
367.90	0.00
368.10	0.00
368.30	0.00
368.49	11.70
368.69	4.68
368.89	0.00
369.09	35.11
369.28	23.41
369.48	0.00
369.68	0.00
369.87	0.00
370.07	0.00
370.27	28.09
370.47	0.00
370.66	9.36
370.86	39.79
371.06	121.71
371.25	63.19
371.45	74.90
371.65	88.94
371.84	39.79
372.04	63.19
372.24	14.04
372.44	102.98
372.63	142.77
372.83	110.01
373.03	135.75
373.22	100.64
373.42	46.81
373.62	110.01
373.81	98.30
374.01	70.22
374.21	163.84
374.40	121.71
374.60	222.35
374.79	138.09
374.99	93.62
375.19	177.88
375.38	117.03
375.58	133.41
375.78	128.73
375.97	91.28
376.17	156.82
376.37	128.73
376.56	98.30
376.76	121.71
376.95	112.35
377.15	114.69
377.35	166.18
377.54	63.19
377.74	112.35
377.93	51.49
378.13	79.58
378.33	159.16
378.52	205.97
378.72	173.20
378.91	135.75
379.11	142.77
379.31	53.83
379.50	114.69
379.70	100.64
379.89	156.82
380.09	51.49
380.28	88.94
380.48	102.98
380.68	65.54
380.87	84.26
381.07	126.39
381.26	142.77
381.46	107.66
381.65	140.43
381.85	152.13
382.04	124.05
382.24	170.86
382.43	152.13
382.63	93.62
382.83	18.72
383.02	133.41
383.22	201.29
383.41	4.68
383.61	142.77
383.80	124.05
384.00	98.30
384.19	175.54
384.39	0.00
384.58	88.94
384.78	142.77
384.97	119.37
385.17	56.17
385.36	95.96
385.56	107.66
385.75	81.92
385.95	53.83
386.14	107.66
386.34	112.35
386.53	145.11
386.72	105.32
386.92	166.18
387.11	107.66
387.31	194.26
387.50	145.11
387.70	105.32
387.89	56.17
388.09	126.39
388.28	119.37
388.48	88.94
388.67	182.56
388.86	93.62
389.06	124.05
389.25	168.52
389.45	100.64
389.64	154.48
389.84	133.41
390.03	124.05
390.22	135.75
390.42	119.37
390.61	79.58
390.81	138.09
391.00	156.82
391.19	177.88
391.39	124.05
391.58	110.01
391.78	58.51
391.97	177.88
392.16	119.37
392.36	121.71
392.55	187.24
392.75	102.98
392.94	114.69
393.13	124.05
393.33	145.11
393.52	112.35
393.71	166.18
393.91	86.60
394.10	124.05
394.29	154.48
394.49	135.75
394.68	100.64
394.88	98.30
395.07	135.75
395.26	140.43
395.46	79.58
395.65	175.54
395.84	184.90
396.04	189.58
396.23	51.49
396.42	102.98
396.62	39.79
396.81	147.45
397.00	131.07
397.19	98.30
397.39	140.43
397.58	189.58
397.77	128.73
397.97	131.07
398.16	107.66
398.35	191.92
398.55	102.98
398.74	128.73
398.93	147.45
399.12	217.67
399.32	117.03
399.51	133.41
399.70	173.20
399.90	121.71
400.09	166.18
400.28	159.16
400.47	100.64
400.67	142.77
400.86	187.24
401.05	198.95
401.24	177.88
401.44	81.92
401.63	161.50
401.82	208.31
402.01	114.69
402.21	170.86
402.40	168.52
402.59	152.13
402.78	128.73
402.97	131.07
403.17	154.48
403.36	194.26
403.55	205.97
403.74	496.19
403.93	1507.30
404.13	3112.91
404.32	3674.64
404.51	2899.92
404.70	1774.13
404.89	650.67
405.09	308.95
405.28	234.05
405.47	161.50
405.66	175.54
405.85	166.18
406.05	259.80
406.24	107.66
406.43	156.82
406.62	198.95
406.81	224.69
407.00	259.80
407.20	461.09
407.39	571.09
407.58	540.66
407.77	409.59
407.96	269.16
408.15	182.56
408.34	170.86
408.54	203.63
408.73	154.48
408.92	156.82
409.11	173.20
409.30	175.54
409.49	163.84
409.68	135.75
409.87	166.18
410.07	205.97
410.26	194.26
410.45	220.01
410.64	135.75
410.83	145.11
411.02	175.54
411.21	156.82
411.40	231.71
411.59	124.05
411.78	187.24
411.98	191.92
412.17	133.41
412.36	156.82
412.55	198.95
412.74	152.13
412.93	180.22
413.12	189.58
413.31	105.32
413.50	203.63
413.69	180.22
413.88	231.71
414.07	198.95
414.26	166.18
414.45	180.22
414.64	212.99
414.83	175.54
415.02	145.11
415.22	205.97
415.41	266.82
415.60	212.99
415.79	194.26
415.98	224.69
416.17	191.92
416.36	203.63
416.55	203.63
416.74	278.52
416.93	287.89
417.12	201.29
417.31	180.22
417.50	194.26
417.69	231.71
417.88	177.88
418.07	145.11
418.26	175.54
418.45	198.95
418.64	215.33
418.83	180.22
419.02	205.97
419.21	229.37
419.39	170.86
419.58	198.95
419.77	173.20
419.96	152.13
420.15	217.67
420.34	266.82
420.53	224.69
420.72	220.01
420.91	234.05
421.10	177.88
421.29	245.76
421.48	154.48
421.67	257.46
421.86	203.63
422.05	236.39
422.24	306.61
422.43	222.35
422.61	210.65
422.80	238.73
422.99	119.37
423.18	189.58
423.37	299.59
423.56	212.99
423.75	280.86
423.94	180.22
424.13	205.97
424.32	217.67
424.50	220.01
424.69	236.39
424.88	203.63
425.07	227.03
425.26	269.16
425.45	217.67
425.64	271.50
425.83	257.46
426.01	278.52
426.20	241.08
426.39	250.44
426.58	231.71
426.77	180.22
426.96	266.82
427.15	257.46
427.33	208.31
427.52	264.48
427.71	194.26
427.90	257.46
428.09	234.05
428.28	255.12
428.46	231.71
428.65	269.16
428.84	238.73
429.03	276.18
429.22	271.50
429.40	217.67
429.59	198.95
429.78	278.52
429.97	201.29
430.16	255.12
430.34	236.39
430.53	175.54
430.72	252.78
430.91	257.46
431.10	205.97
431.28	257.46
431.47	259.80
431.66	301.93
431.85	250.44
432.03	313.63
432.22	315.97
432.41	369.80
432.60	330.02
432.79	301.93
432.97	255.12
433.16	334.70
433.35	358.10
433.54	421.30
433.72	423.64
433.91	369.80
434.10	442.36
434.28	533.64
434.47	582.79
434.66	582.79
434.85	739.61
435.03	2452.88
435.22	8362.73
435.41	16751.21
435.59	15391.36
435.78	9743.65
435.97	4823.84
436.16	1851.36
436.34	734.93
436.53	491.51
436.72	440.02
436.90	430.66
437.09	379.17
437.28	313.63
437.46	287.89
437.65	430.66
437.84	381.51
438.02	339.38
438.21	365.12
438.40	351.08
438.58	304.27
438.77	311.29
438.96	388.53
439.14	337.04
439.33	311.29
439.52	318.31
439.70	294.91
439.89	353.42
440.08	393.21
440.26	278.52
440.45	348.74
440.63	278.52
440.82	351.08
441.01	301.93
441.19	290.23
441.38	315.97
441.57	355.76
441.75	386.19
441.94	318.31
442.12	264.48
442.31	334.70
442.50	315.97
442.68	353.42
442.87	327.68
443.05	322.99
443.24	337.04
443.43	306.61
443.61	362.78
443.80	330.02
443.98	334.70
444.17	269.16
444.35	360.44
444.54	283.20
444.73	301.93
444.91	341.72
445.10	245.76
445.28	341.72
445.47	290.23
445.65	269.16
445.84	292.57
446.02	292.57
446.21	351.08
446.39	276.18
446.58	294.91
446.77	257.46
446.95	362.78
447.14	344.06
447.32	320.65
447.51	355.76
447.69	306.61
447.88	301.93
448.06	311.29
448.25	369.80
448.43	283.20
448.62	313.63
448.80	365.12
448.99	325.33
449.17	290.23
449.36	330.02
449.54	407.25
449.73	381.51
449.91	306.61
450.10	332.36
450.28	297.25
450.46	322.99
450.65	388.53
450.83	348.74
451.02	306.61
451.20	292.57
451.39	322.99
451.57	276.18
451.76	301.93
451.94	341.72
452.13	287.89
452.31	273.84
452.49	367.46
452.68	290.23
452.86	273.84
453.05	292.57
453.23	304.27
453.42	287.89
453.60	243.42
453.78	339.38
453.97	322.99
454.15	360.44
454.34	313.63
454.52	365.12
454.70	341.72
454.89	397.89
455.07	339.38
455.26	344.06
455.44	301.93
455.62	229.37
455.81	311.29
455.99	337.04
456.17	341.72
456.36	337.04
456.54	304.27
456.73	341.72
456.91	255.12
457.09	259.80
457.28	348.74
457.46	339.38
457.64	278.52
457.83	367.46
458.01	330.02
458.19	276.18
458.38	297.25
458.56	374.49
458.74	252.78
458.93	259.80
459.11	308.95
459.29	348.74
459.48	161.50
459.66	360.44
459.84	318.31
460.03	369.80
460.21	365.12
460.39	264.48
460.57	346.40
460.76	299.59
460.94	273.84
461.12	320.65
461.31	292.57
461.49	243.42
461.67	287.89
461.85	311.29
462.04	341.72
462.22	430.66
462.40	325.33
462.59	346.40
462.77	306.61
462.95	301.93
463.13	304.27
463.32	292.57
463.50	365.12
463.68	372.15
463.86	299.59
464.05	348.74
464.23	353.42
464.41	311.29
464.59	318.31
464.78	287.89
464.96	234.05
465.14	248.10
465.32	346.40
465.50	311.29
465.69	311.29
465.87	262.14
466.05	337.04
466.23	299.59
466.41	290.23
466.60	322.99
466.78	252.78
466.96	325.33
467.14	369.80
467.32	252.78
467.51	372.15
467.69	332.36
467.87	308.95
468.05	283.20
468.23	332.36
468.41	266.82
468.60	227.03
468.78	346.40
468.96	346.40
469.14	390.87
469.32	220.01
469.50	241.08
469.69	273.84
469.87	220.01
470.05	285.55
470.23	290.23
470.41	337.04
470.59	243.42
470.77	308.95
470.95	236.39
471.14	299.59
471.32	332.36
471.50	304.27
471.68	337.04
471.86	301.93
472.04	243.42
472.22	301.93
472.40	269.16
472.58	332.36
472.77	280.86
472.95	287.89
473.13	341.72
473.31	299.59
473.49	330.02
473.67	315.97
473.85	313.63
474.03	308.95
474.21	259.80
474.39	337.04
474.57	390.87
474.75	339.38
474.93	353.42
475.12	187.24
475.30	390.87
475.48	308.95
475.66	252.78
475.84	273.84
476.02	262.14
476.20	346.40
476.38	266.82
476.56	334.70
476.74	276.18
476.92	304.27
477.10	330.02
477.28	367.46
477.46	306.61
477.64	367.46
477.82	360.44
478.00	315.97
478.18	320.65
478.36	332.36
478.54	390.87
478.72	346.40
478.90	358.10
479.08	365.12
479.26	390.87
479.44	344.06
479.62	393.21
479.80	362.78
479.98	297.25
480.16	374.49
480.34	365.12
480.52	400.23
480.70	400.23
480.88	386.19
481.06	486.83
481.24	547.69
481.41	531.30
481.59	547.69
481.77	589.82
481.95	514.92
482.13	662.37
482.31	648.33
482.49	631.94
482.67	741.95
482.85	793.44
483.03	830.89
483.21	856.64
483.39	798.12
483.57	917.49
483.74	1022.81
483.92	1020.47
484.10	1006.43
484.28	1020.47
484.46	1270.91
484.64	1256.87
484.82	1310.70
485.00	1341.13
485.18	1446.45
485.35	1486.24
485.53	1589.22
485.71	1603.27
485.89	1755.40
486.07	1685.19
486.25	1743.70
486.43	1673.48
486.61	1743.70
486.78	1762.42
486.96	1682.85
487.14	1717.95
487.32	1713.27
487.50	1778.81
487.68	1717.95
487.85	1582.20
488.03	1661.78
488.21	1596.25
488.39	1605.61
488.57	1572.84
488.75	1516.67
488.92	1799.87
489.10	1448.79
489.28	1467.52
489.46	1434.75
489.64	1371.55
489.81	1404.32
489.99	1425.39
490.17	1266.23
490.35	1320.06
490.53	1406.66
490.70	1263.89
490.88	1350.49
491.06	1357.51
491.24	1469.86
491.41	1380.92
491.59	1352.83
491.77	1306.02
491.95	1294.32
492.13	1238.14
492.30	1214.74
492.48	1132.82
492.66	1198.35
492.84	1172.61
493.01	1137.50
493.19	1078.99
493.37	1149.20
493.54	1102.39
493.72	1121.12
493.90	1018.13
494.08	1004.09
494.25	1139.84
494.43	1121.12
494.61	976.00
494.79	1015.79
494.96	1036.86
495.14	952.60
495.32	1008.77
495.49	912.81
495.67	997.07
495.85	983.02
496.02	938.55
496.20	915.15
496.38	847.27
496.55	943.24
496.73	971.32
496.91	858.98
497.09	905.79
497.26	901.11
497.44	854.30
497.62	828.55
497.79	760.67
497.97	856.64
498.14	793.44
498.32	816.85
498.50	767.70
498.67	732.59
498.85	711.52
499.03	678.76
499.20	641.31
499.38	664.71
499.56	734.93
499.73	718.54
499.91	648.33
500.08	685.78
500.26	638.97
500.44	641.31
500.61	559.39
500.79	636.63
500.97	617.90
501.14	638.97
501.32	552.37
501.49	477.47
501.67	512.58
501.84	524.28
502.02	498.53
502.20	489.17
502.37	512.58
502.55	482.15
502.72	479.81
502.90	465.77
503.07	451.72
503.25	486.83
503.43	449.38
503.60	433.00
503.78	423.64
503.95	395.55
504.13	423.64
504.30	393.21
504.48	472.79
504.65	395.55
504.83	383.85
505.01	411.93
505.18	421.30
505.36	428.32
505.53	358.10
505.71	386.19
505.88	386.19
506.06	362.78
506.23	325.33
506.41	362.78
506.58	346.40
506.76	456.40
506.93	330.02
507.11	374.49
507.28	348.74
507.46	383.85
507.63	332.36
507.81	325.33
507.98	348.74
508.16	365.12
508.33	355.76
508.50	367.46
508.68	393.21
508.85	376.83
509.03	353.42
509.20	369.80
509.38	407.25
509.55	433.00
509.73	334.70
509.90	374.49
510.08	379.17
510.25	320.65
510.42	285.55
510.60	337.04
510.77	379.17
510.95	308.95
511.12	320.65
511.30	358.10
511.47	353.42
511.64	353.42
511.82	306.61
511.99	280.86
512.17	334.70
512.34	334.70
512.51	269.16
512.69	292.57
512.86	414.27
513.04	327.68
513.21	294.91
513.38	273.84
513.56	322.99
513.73	262.14
513.90	344.06
514.08	243.42
514.25	346.40
514.43	365.12
514.60	290.23
514.77	264.48
514.95	285.55
515.12	271.50
515.29	294.91
515.47	325.33
515.64	315.97
515.81	353.42
515.99	278.52
516.16	278.52
516.33	280.86
516.51	344.06
516.68	306.61
516.85	322.99
517.03	280.86
517.20	337.04
517.37	367.46
517.54	269.16
517.72	262.14
517.89	245.76
518.06	252.78
518.24	402.57
518.41	376.83
518.58	273.84
518.75	283.20
518.93	348.74
519.10	278.52
519.27	355.76
519.45	266.82
519.62	301.93
519.79	325.33
519.96	353.42
520.14	250.44
520.31	388.53
520.48	339.38
520.65	278.52
520.83	365.12
521.00	327.68
521.17	217.67
521.34	243.42
521.52	285.55
521.69	276.18
521.86	315.97
522.03	299.59
522.20	311.29
522.38	315.97
522.55	330.02
522.72	301.93
522.89	278.52
523.07	292.57
523.24	313.63
523.41	280.86
523.58	386.19
523.75	264.48
523.92	287.89
524.10	297.25
524.27	294.91
524.44	273.84
524.61	313.63
524.78	365.12
524.96	407.25
525.13	355.76
525.30	262.14
525.47	353.42
525.64	393.21
525.81	301.93
525.98	318.31
526.16	287.89
526.33	313.63
526.50	203.63
526.67	376.83
526.84	313.63
527.01	313.63
527.18	341.72
527.36	404.91
527.53	304.27
527.70	414.27
527.87	444.70
528.04	400.23
528.21	411.93
528.38	425.98
528.55	414.27
528.72	416.62
528.89	372.15
529.07	402.57
529.24	393.21
529.41	367.46
529.58	351.08
529.75	367.46
529.92	397.89
530.09	416.62
530.26	374.49
530.43	369.80
530.60	393.21
530.77	397.89
530.94	367.46
531.11	451.72
531.28	449.38
531.46	402.57
531.63	449.38
531.80	547.69
531.97	512.58
532.14	552.37
532.31	636.63
532.48	617.90
532.65	767.70
532.82	802.80
532.99	938.55
533.16	1046.22
533.33	1076.65
533.50	1029.84
533.67	901.11
533.84	744.29
534.01	812.17
534.18	671.73
534.35	723.23
534.52	685.78
534.69	741.95
534.86	683.44
535.03	723.23
535.20	739.61
535.37	868.34
535.54	915.15
535.71	940.90
535.88	915.15
536.05	917.49
536.22	1123.46
536.38	1018.13
536.55	1132.82
536.72	1336.45
536.89	1385.60
537.06	1631.35
537.23	1701.57
537.40	1865.41
537.57	1909.88
537.74	2022.22
537.91	2267.98
538.08	2204.78
538.25	2298.41
538.42	2319.47
538.59	2326.49
538.75	2434.16
538.92	2691.62
539.09	2761.83
539.26	3112.91
539.43	3468.67
539.60	3726.13
539.77	4266.80
539.94	4744.27
540.11	5123.43
540.28	5710.91
540.44	6359.24
540.61	6991.18
540.78	8105.28
540.95	9675.77
541.12	11321.17
541.29	12437.61
541.46	12950.18
541.62	12788.69
541.79	12058.44
541.96	11375.00
542.13	10572.20
542.30	10059.62
542.47	9479.17
542.63	9102.34
542.80	8683.39
542.97	8704.45
543.14	8606.15
543.31	8664.66
543.48	8781.69
543.64	8833.18
543.81	8863.61
543.98	8849.57
544.15	8835.52
544.32	9036.81
544.48	8837.86
544.65	8805.10
544.82	9034.47
544.99	8793.39
545.16	9050.85
545.32	9549.39
545.49	18525.34
545.66	31948.31
545.83	34941.86
546.00	28837.74
546.16	19985.83
546.33	14874.10
546.50	11115.20
546.67	8905.74
546.83	8198.90
547.00	7695.68
547.17	7309.49
547.34	7082.46
547.50	6502.01
547.67	6469.24
547.84	6092.41
548.00	6094.76
548.17	5790.49
548.34	5406.64
548.51	5308.34
548.67	5160.88
548.84	4894.06
549.01	4765.33
549.18	4390.84
549.34	4400.21
549.51	4236.37
549.68	4074.87
549.84	3866.56
550.01	3667.62
550.18	3545.91
550.34	3482.72
550.51	3260.37
550.68	3115.25
550.84	2883.54
551.01	2778.22
551.18	2616.72
551.34	2534.80
551.51	2408.41
551.68	2375.64
551.84	2354.58
552.01	2195.42
552.18	2169.68
552.34	2054.99
552.51	1844.34
552.68	1874.77
552.84	1806.89
553.01	1767.10
553.18	1722.63
553.34	1636.03
553.51	1509.65
553.67	1530.71
553.84	1584.54
554.01	1434.75
554.17	1369.21
554.34	1198.35
554.51	1174.95
554.67	1212.40
554.84	1097.71
555.00	1032.18
555.17	952.60
555.33	992.39
555.50	772.38
555.67	835.57
555.83	861.32
556.00	772.38
556.16	1046.22
556.33	802.80
556.50	758.33
556.66	830.89
556.83	723.23
556.99	711.52
557.16	657.69
557.32	723.23
557.49	685.78
557.65	685.78
557.82	582.79
557.98	601.52
558.15	587.47
558.32	704.50
558.48	627.26
558.65	653.01
558.81	564.07
558.98	608.54
559.14	596.84
559.31	559.39
559.47	526.62
559.64	514.92
559.80	594.50
559.97	510.24
560.13	491.51
560.30	540.66
560.46	554.71
560.63	519.60
560.79	491.51
560.96	454.06
561.12	491.51
561.29	484.49
561.45	554.71
561.61	540.66
561.78	578.11
561.94	479.81
562.11	533.64
562.27	461.09
562.44	512.58
562.60	451.72
562.77	517.26
562.93	571.09
563.10	447.04
563.26	479.81
563.42	526.62
563.59	512.58
563.75	404.91
563.92	435.34
564.08	465.77
564.24	449.38
564.41	449.38
564.57	414.27
564.74	397.89
564.90	407.25
565.07	531.30
565.23	489.17
565.39	390.87
565.56	437.68
565.72	491.51
565.88	414.27
566.05	388.53
566.21	423.64
566.38	489.17
566.54	456.40
566.70	416.62
566.87	390.87
567.03	322.99
567.19	376.83
567.36	421.30
567.52	397.89
567.68	475.13
567.85	383.85
568.01	472.79
568.17	454.06
568.34	360.44
568.50	507.90
568.66	435.34
568.83	444.70
568.99	449.38
569.15	475.13
569.32	472.79
569.48	365.12
569.64	409.59
569.81	337.04
569.97	428.32
570.13	381.51
570.30	397.89
570.46	292.57
570.62	334.70
570.78	360.44
570.95	294.91
571.11	458.74
571.27	341.72
571.43	297.25
571.60	367.46
571.76	344.06
571.92	348.74
572.09	362.78
572.25	400.23
572.41	418.96
572.57	367.46
572.74	337.04
572.90	369.80
573.06	365.12
573.22	395.55
573.38	369.80
573.55	341.72
573.71	407.25
573.87	397.89
574.03	435.34
574.20	355.76
574.36	447.04
574.52	376.83
574.68	425.98
574.84	463.43
575.01	435.34
575.17	496.19
575.33	505.56
575.49	482.15
575.65	566.41
575.82	498.53
575.98	528.96
576.14	678.76
576.30	1495.60
576.46	4250.41
576.62	5914.53
576.79	5891.13
576.95	4210.62
577.11	2743.11
577.27	1961.37
577.43	1291.98
577.59	1071.97
577.75	774.72
577.92	758.33
578.08	744.29
578.24	805.14
578.40	1526.03
578.56	3948.48
578.72	5425.36
578.88	5526.00
579.04	4156.79
579.21	2956.10
579.37	2232.87
579.53	1823.28
579.69	1837.32
579.85	2115.84
580.01	2354.58
580.17	2127.55
580.33	1888.81
580.49	1764.76
580.65	1664.12
580.82	1425.39
580.98	1469.86
581.14	1467.52
581.30	1490.92
581.46	1591.56
581.62	1748.38
581.78	1804.55
581.94	1940.30
582.10	2029.24
582.26	2120.53
582.42	2291.38
582.58	2214.15
582.74	2307.77
582.90	2291.38
583.06	2352.24
583.22	2448.20
583.38	2310.11
583.54	2331.17
583.70	2317.13
583.86	2223.51
584.02	2275.00
584.18	2179.04
584.34	2176.70
584.50	2101.80
584.66	2169.68
584.82	2052.65
584.98	2120.53
585.14	2092.44
585.30	2001.16
585.46	1956.69
585.62	2001.16
585.78	2054.99
585.94	1984.77
586.10	2148.61
586.26	2195.42
586.42	2462.24
586.58	2892.90
586.74	3524.85
586.90	3971.89
587.06	4400.21
587.22	4182.54
587.38	3602.08
587.54	3332.92
587.70	2799.28
587.86	2321.81
588.02	2024.56
588.18	1856.04
588.34	1739.02
588.49	1549.43
588.65	1458.15
588.81	1416.02
588.97	1416.02
589.13	1409.00
589.29	1284.95
589.45	1294.32
589.61	1313.04
589.77	1409.00
589.93	1329.42
590.08	1401.98
590.24	1345.81
590.40	1392.62
590.56	1549.43
590.72	1547.09
590.88	1530.71
591.04	1533.05
591.20	1666.46
591.35	1764.76
591.51	1813.92
591.67	1827.96
591.83	2008.18
591.99	2148.61
592.15	2406.07
592.31	2490.33
592.46	2726.72
592.62	2988.86
592.78	3166.74
592.94	3138.66
593.10	3136.32
593.26	2864.82
593.41	2799.28
593.57	2399.05
593.73	2214.15
593.89	1977.75
594.05	1846.68
594.20	1577.52
594.36	1481.56
594.52	1394.96
594.68	1313.04
594.84	1270.91
594.99	1320.06
595.15	1228.78
595.31	1179.63
595.47	1254.53
595.62	1228.78
595.78	1261.55
595.94	1149.20
596.10	1261.55
596.25	1191.33
596.41	1158.57
596.57	1100.05
596.73	1207.72
596.88	1177.29
597.04	1259.21
597.20	1177.29
597.36	1313.04
597.51	1350.49
597.67	1270.91
597.83	1299.00
597.99	1451.13
598.14	1488.58
598.30	1483.90
598.46	1652.42
598.61	1771.79
598.77	1832.64
598.93	1816.26
599.09	1867.75
599.24	1907.54
599.40	1858.39
599.56	1832.64
599.71	1767.10
599.87	1633.69
600.03	1591.56
600.18	1500.28
600.34	1376.24
600.50	1359.85
600.65	1233.46
600.81	1233.46
600.97	1078.99
601.12	959.62
601.28	1060.26
601.44	1015.79
601.59	940.90
601.75	903.45
601.91	905.79
602.06	861.32
602.22	903.45
602.37	793.44
602.53	929.19
602.69	809.83
602.84	823.87
603.00	870.68
603.16	786.42
603.31	880.04
603.47	835.57
603.62	821.53
603.78	891.74
603.94	828.55
604.09	898.77
604.25	973.66
604.40	994.73
604.56	945.58
604.71	943.24
604.87	940.90
605.03	1013.45
605.18	940.90
605.34	1043.88
605.49	1076.65
605.65	1062.60
605.80	1057.92
605.96	1043.88
606.12	1128.14
606.27	1172.61
606.43	1322.40
606.58	1394.96
606.74	1432.41
606.89	1397.30
