SpectraSuite Data File
++++++++++++++++++++++++++++++++++++
Date: Fri Oct 04 11:42:00 GMT-05:00 2013
User: price-jones
Dark Spectrum Present: No
Reference Spectrum Present: No
Number of Sampled Component Spectra: 1
Spectrometers: USB2+H05261
Integration Time (usec): 100000 (USB2+H05261)
Spectra Averaged: 1 (USB2+H05261)
Boxcar Smoothing: 0 (USB2+H05261)
Correct for Electrical Dark: No (USB2+H05261)
Strobe/Lamp Enabled: No (USB2+H05261)
Correct for Detector Non-linearity: No (USB2+H05261)
Correct for Stray Light: No (USB2+H05261)
Number of Pixels in Processed Spectrum: 2048
>>>>>Begin Processed Spectral Data<<<<<
365.73	60.85
365.92	60.85
366.12	60.85
366.32	16.38
366.52	23.41
366.72	0.00
366.91	0.00
367.11	0.00
367.31	0.00
367.51	0.00
367.70	0.00
367.90	0.00
368.10	0.00
368.30	0.00
368.49	0.00
368.69	0.00
368.89	0.00
369.09	0.00
369.28	0.00
369.48	0.00
369.68	0.00
369.87	0.00
370.07	4.68
370.27	0.00
370.47	0.00
370.66	0.00
370.86	114.69
371.06	102.98
371.25	63.19
371.45	100.64
371.65	114.69
371.84	110.01
372.04	63.19
372.24	84.26
372.44	147.45
372.63	67.88
372.83	56.17
373.03	91.28
373.22	114.69
373.42	152.13
373.62	51.49
373.81	112.35
374.01	224.69
374.21	131.07
374.40	42.13
374.60	102.98
374.79	121.71
374.99	152.13
375.19	138.09
375.38	135.75
375.58	152.13
375.78	149.79
375.97	112.35
376.17	149.79
376.37	95.96
376.56	149.79
376.76	81.92
376.95	88.94
377.15	138.09
377.35	37.45
377.54	128.73
377.74	135.75
377.93	135.75
378.13	74.90
378.33	210.65
378.52	65.54
378.72	156.82
378.91	107.66
379.11	56.17
379.31	74.90
379.50	51.49
379.70	114.69
379.89	95.96
380.09	117.03
380.28	81.92
380.48	166.18
380.68	121.71
380.87	77.24
381.07	177.88
381.26	163.84
381.46	201.29
381.65	105.32
381.85	84.26
382.04	56.17
382.24	51.49
382.43	53.83
382.63	51.49
382.83	117.03
383.02	140.43
383.22	102.98
383.41	88.94
383.61	215.33
383.80	100.64
384.00	119.37
384.19	154.48
384.39	105.32
384.58	135.75
384.78	175.54
384.97	142.77
385.17	105.32
385.36	182.56
385.56	126.39
385.75	121.71
385.95	60.85
386.14	119.37
386.34	67.88
386.53	95.96
386.72	72.56
386.92	147.45
387.11	93.62
387.31	152.13
387.50	86.60
387.70	110.01
387.89	98.30
388.09	107.66
388.28	187.24
388.48	124.05
388.67	147.45
388.86	88.94
389.06	140.43
389.25	114.69
389.45	119.37
389.64	105.32
389.84	140.43
390.03	112.35
390.22	128.73
390.42	49.15
390.61	18.72
390.81	98.30
391.00	88.94
391.19	173.20
391.39	121.71
391.58	74.90
391.78	138.09
391.97	128.73
392.16	147.45
392.36	126.39
392.55	149.79
392.75	107.66
392.94	84.26
393.13	105.32
393.33	98.30
393.52	63.19
393.71	159.16
393.91	173.20
394.10	110.01
394.29	126.39
394.49	51.49
394.68	133.41
394.88	173.20
395.07	133.41
395.26	175.54
395.46	198.95
395.65	121.71
395.84	187.24
396.04	161.50
396.23	98.30
396.42	95.96
396.62	51.49
396.81	124.05
397.00	105.32
397.19	63.19
397.39	51.49
397.58	154.48
397.77	77.24
397.97	168.52
398.16	93.62
398.35	135.75
398.55	135.75
398.74	102.98
398.93	156.82
399.12	135.75
399.32	175.54
399.51	121.71
399.70	161.50
399.90	98.30
400.09	189.58
400.28	131.07
400.47	70.22
400.67	152.13
400.86	189.58
401.05	121.71
401.24	142.77
401.44	175.54
401.63	110.01
401.82	154.48
402.01	203.63
402.21	182.56
402.40	128.73
402.59	117.03
402.78	112.35
402.97	189.58
403.17	147.45
403.36	124.05
403.55	154.48
403.74	102.98
403.93	145.11
404.13	177.88
404.32	243.42
404.51	229.37
404.70	231.71
404.89	140.43
405.09	131.07
405.28	63.19
405.47	107.66
405.66	142.77
405.85	135.75
406.05	128.73
406.24	95.96
406.43	133.41
406.62	95.96
406.81	128.73
407.00	159.16
407.20	159.16
407.39	126.39
407.58	91.28
407.77	117.03
407.96	154.48
408.15	187.24
408.34	140.43
408.54	91.28
408.73	126.39
408.92	60.85
409.11	81.92
409.30	154.48
409.49	110.01
409.68	81.92
409.87	49.15
410.07	98.30
410.26	128.73
410.45	154.48
410.64	114.69
410.83	102.98
411.02	133.41
411.21	35.11
411.40	117.03
411.59	105.32
411.78	0.00
411.98	140.43
412.17	51.49
412.36	138.09
412.55	93.62
412.74	124.05
412.93	180.22
413.12	152.13
413.31	161.50
413.50	86.60
413.69	112.35
413.88	159.16
414.07	81.92
414.26	107.66
414.45	105.32
414.64	215.33
414.83	180.22
415.02	114.69
415.22	168.52
415.41	191.92
415.60	149.79
415.79	133.41
415.98	159.16
416.17	112.35
416.36	126.39
416.55	121.71
416.74	224.69
416.93	119.37
417.12	177.88
417.31	152.13
417.50	145.11
417.69	128.73
417.88	63.19
418.07	86.60
418.26	163.84
418.45	86.60
418.64	138.09
418.83	175.54
419.02	140.43
419.21	163.84
419.39	149.79
419.58	159.16
419.77	51.49
419.96	241.08
420.15	201.29
420.34	154.48
420.53	154.48
420.72	168.52
420.91	138.09
421.10	100.64
421.29	180.22
421.48	154.48
421.67	203.63
421.86	77.24
422.05	79.58
422.24	107.66
422.43	187.24
422.61	156.82
422.80	159.16
422.99	177.88
423.18	159.16
423.37	177.88
423.56	100.64
423.75	133.41
423.94	60.85
424.13	117.03
424.32	98.30
424.50	189.58
424.69	159.16
424.88	173.20
425.07	138.09
425.26	159.16
425.45	145.11
425.64	180.22
425.83	128.73
426.01	220.01
426.20	198.95
426.39	93.62
426.58	124.05
426.77	161.50
426.96	220.01
427.15	95.96
427.33	131.07
427.52	170.86
427.71	182.56
427.90	163.84
428.09	140.43
428.28	170.86
428.46	187.24
428.65	149.79
428.84	212.99
429.03	154.48
429.22	91.28
429.40	142.77
429.59	173.20
429.78	191.92
429.97	156.82
430.16	23.41
430.34	98.30
430.53	198.95
430.72	170.86
430.91	198.95
431.10	177.88
431.28	112.35
431.47	135.75
431.66	149.79
431.85	126.39
432.03	220.01
432.22	203.63
432.41	161.50
432.60	170.86
432.79	65.54
432.97	105.32
433.16	166.18
433.35	170.86
433.54	135.75
433.72	191.92
433.91	177.88
434.10	161.50
434.28	163.84
434.47	161.50
434.66	224.69
434.85	147.45
435.03	255.12
435.22	582.79
435.41	1043.88
435.59	994.73
435.78	638.97
435.97	428.32
436.16	266.82
436.34	180.22
436.53	79.58
436.72	184.90
436.90	152.13
437.09	191.92
437.28	191.92
437.46	191.92
437.65	159.16
437.84	161.50
438.02	166.18
438.21	175.54
438.40	189.58
438.58	161.50
438.77	140.43
438.96	147.45
439.14	117.03
439.33	152.13
439.52	163.84
439.70	119.37
439.89	208.31
440.08	229.37
440.26	131.07
440.45	210.65
440.63	187.24
440.82	217.67
441.01	180.22
441.19	145.11
441.38	105.32
441.57	152.13
441.75	212.99
441.94	208.31
442.12	182.56
442.31	119.37
442.50	152.13
442.68	205.97
442.87	91.28
443.05	175.54
443.24	159.16
443.43	166.18
443.61	166.18
443.80	95.96
443.98	121.71
444.17	105.32
444.35	198.95
444.54	117.03
444.73	177.88
444.91	184.90
445.10	121.71
445.28	163.84
445.47	159.16
445.65	114.69
445.84	88.94
446.02	140.43
446.21	161.50
446.39	163.84
446.58	156.82
446.77	133.41
446.95	128.73
447.14	184.90
447.32	203.63
447.51	107.66
447.69	175.54
447.88	194.26
448.06	126.39
448.25	140.43
448.43	117.03
448.62	208.31
448.80	133.41
448.99	212.99
449.17	100.64
449.36	135.75
449.54	156.82
449.73	102.98
449.91	166.18
450.10	138.09
450.28	198.95
450.46	212.99
450.65	166.18
450.83	187.24
451.02	128.73
451.20	142.77
451.39	159.16
451.57	210.65
451.76	138.09
451.94	32.77
452.13	168.52
452.31	220.01
452.49	224.69
452.68	189.58
452.86	124.05
453.05	182.56
453.23	131.07
453.42	180.22
453.60	131.07
453.78	154.48
453.97	117.03
454.15	208.31
454.34	175.54
454.52	119.37
454.70	215.33
454.89	168.52
455.07	161.50
455.26	184.90
455.44	110.01
455.62	145.11
455.81	91.28
455.99	234.05
456.17	198.95
456.36	152.13
456.54	180.22
456.73	126.39
456.91	98.30
457.09	203.63
457.28	229.37
457.46	177.88
457.64	285.55
457.83	175.54
458.01	175.54
458.19	180.22
458.38	145.11
458.56	196.60
458.74	184.90
458.93	208.31
459.11	79.58
459.29	70.22
459.48	149.79
459.66	184.90
459.84	194.26
460.03	257.46
460.21	227.03
460.39	161.50
460.57	184.90
460.76	147.45
460.94	173.20
461.12	264.48
461.31	236.39
461.49	95.96
461.67	182.56
461.85	105.32
462.04	205.97
462.22	739.61
462.40	229.37
462.59	234.05
462.77	147.45
462.95	222.35
463.13	112.35
463.32	234.05
463.50	147.45
463.68	170.86
463.86	210.65
464.05	166.18
464.23	250.44
464.41	217.67
464.59	224.69
464.78	124.05
464.96	110.01
465.14	180.22
465.32	138.09
465.50	168.52
465.69	168.52
465.87	70.22
466.05	201.29
466.23	205.97
466.41	229.37
466.60	222.35
466.78	170.86
466.96	269.16
467.14	229.37
467.32	234.05
467.51	156.82
467.69	100.64
467.87	184.90
468.05	98.30
468.23	243.42
468.41	220.01
468.60	173.20
468.78	170.86
468.96	156.82
469.14	156.82
469.32	131.07
469.50	149.79
469.69	238.73
469.87	168.52
470.05	156.82
470.23	175.54
470.41	147.45
470.59	135.75
470.77	156.82
470.95	156.82
471.14	140.43
471.32	135.75
471.50	217.67
471.68	210.65
471.86	170.86
472.04	180.22
472.22	196.60
472.40	166.18
472.58	142.77
472.77	217.67
472.95	168.52
473.13	191.92
473.31	234.05
473.49	138.09
473.67	152.13
473.85	252.78
474.03	147.45
474.21	259.80
474.39	205.97
474.57	266.82
474.75	212.99
474.93	166.18
475.12	152.13
475.30	173.20
475.48	208.31
475.66	189.58
475.84	191.92
476.02	177.88
476.20	236.39
476.38	147.45
476.56	236.39
476.74	205.97
476.92	194.26
477.10	201.29
477.28	196.60
477.46	177.88
477.64	166.18
477.82	224.69
478.00	135.75
478.18	152.13
478.36	198.95
478.54	112.35
478.72	163.84
478.90	194.26
479.08	231.71
479.26	154.48
479.44	198.95
479.62	159.16
479.80	189.58
479.98	119.37
480.16	184.90
480.34	271.50
480.52	224.69
480.70	189.58
480.88	149.79
481.06	177.88
481.24	301.93
481.41	191.92
481.59	231.71
481.77	201.29
481.95	205.97
482.13	194.26
482.31	212.99
482.49	140.43
482.67	140.43
482.85	229.37
483.03	227.03
483.21	196.60
483.39	241.08
483.57	250.44
483.74	177.88
483.92	198.95
484.10	224.69
484.28	330.02
484.46	334.70
484.64	290.23
484.82	212.99
485.00	259.80
485.18	322.99
485.35	315.97
485.53	292.57
485.71	269.16
485.89	346.40
486.07	255.12
486.25	271.50
486.43	301.93
486.61	355.76
486.78	315.97
486.96	201.29
487.14	236.39
487.32	229.37
487.50	283.20
487.68	271.50
487.85	259.80
488.03	306.61
488.21	344.06
488.39	250.44
488.57	315.97
488.75	276.18
488.92	575.77
489.10	320.65
489.28	327.68
489.46	248.10
489.64	273.84
489.81	294.91
489.99	311.29
490.17	287.89
490.35	348.74
490.53	315.97
490.70	306.61
490.88	306.61
491.06	290.23
491.24	390.87
491.41	395.55
491.59	238.73
491.77	290.23
491.95	215.33
492.13	212.99
492.30	294.91
492.48	234.05
492.66	292.57
492.84	332.36
493.01	337.04
493.19	318.31
493.37	241.08
493.54	220.01
493.72	315.97
493.90	236.39
494.08	308.95
494.25	273.84
494.43	266.82
494.61	248.10
494.79	245.76
494.96	224.69
495.14	283.20
495.32	301.93
495.49	299.59
495.67	210.65
495.85	222.35
496.02	189.58
496.20	245.76
496.38	255.12
496.55	264.48
496.73	243.42
496.91	229.37
497.09	250.44
497.26	264.48
497.44	259.80
497.62	285.55
497.79	217.67
497.97	250.44
498.14	238.73
498.32	227.03
498.50	227.03
498.67	245.76
498.85	234.05
499.03	280.86
499.20	227.03
499.38	215.33
499.56	149.79
499.73	248.10
499.91	241.08
500.08	227.03
500.26	290.23
500.44	217.67
500.61	292.57
500.79	175.54
500.97	245.76
501.14	280.86
501.32	238.73
501.49	184.90
501.67	166.18
501.84	292.57
502.02	231.71
502.20	227.03
502.37	243.42
502.55	252.78
502.72	227.03
502.90	227.03
503.07	191.92
503.25	194.26
503.43	224.69
503.60	262.14
503.78	217.67
503.95	205.97
504.13	194.26
504.30	297.25
504.48	227.03
504.65	273.84
504.83	208.31
505.01	220.01
505.18	245.76
505.36	264.48
505.53	175.54
505.71	205.97
505.88	245.76
506.06	273.84
506.23	208.31
506.41	196.60
506.58	250.44
506.76	182.56
506.93	269.16
507.11	241.08
507.28	257.46
507.46	250.44
507.63	224.69
507.81	229.37
507.98	161.50
508.16	241.08
508.33	220.01
508.50	299.59
508.68	191.92
508.85	297.25
509.03	208.31
509.20	184.90
509.38	215.33
509.55	222.35
509.73	320.65
509.90	276.18
510.08	154.48
510.25	250.44
510.42	166.18
510.60	212.99
510.77	227.03
510.95	271.50
511.12	264.48
511.30	266.82
511.47	220.01
511.64	182.56
511.82	205.97
511.99	229.37
512.17	229.37
512.34	210.65
512.51	173.20
512.69	161.50
512.86	283.20
513.04	238.73
513.21	299.59
513.38	227.03
513.56	222.35
513.73	259.80
513.90	215.33
514.08	266.82
514.25	292.57
514.43	248.10
514.60	264.48
514.77	215.33
514.95	177.88
515.12	224.69
515.29	266.82
515.47	264.48
515.64	273.84
515.81	241.08
515.99	191.92
516.16	234.05
516.33	166.18
516.51	184.90
516.68	196.60
516.85	196.60
517.03	133.41
517.20	215.33
517.37	266.82
517.54	215.33
517.72	154.48
517.89	196.60
518.06	245.76
518.24	292.57
518.41	332.36
518.58	259.80
518.75	215.33
518.93	234.05
519.10	203.63
519.27	266.82
519.45	210.65
519.62	205.97
519.79	250.44
519.96	224.69
520.14	231.71
520.31	217.67
520.48	227.03
520.65	266.82
520.83	210.65
521.00	222.35
521.17	203.63
521.34	212.99
521.52	278.52
521.69	271.50
521.86	205.97
522.03	273.84
522.20	297.25
522.38	217.67
522.55	187.24
522.72	234.05
522.89	297.25
523.07	299.59
523.24	255.12
523.41	257.46
523.58	257.46
523.75	229.37
523.92	229.37
524.10	250.44
524.27	259.80
524.44	290.23
524.61	264.48
524.78	215.33
524.96	205.97
525.13	245.76
525.30	215.33
525.47	215.33
525.64	236.39
525.81	313.63
525.98	252.78
526.16	208.31
526.33	191.92
526.50	180.22
526.67	229.37
526.84	215.33
527.01	210.65
527.18	257.46
527.36	278.52
527.53	222.35
527.70	332.36
527.87	266.82
528.04	318.31
528.21	276.18
528.38	283.20
528.55	245.76
528.72	369.80
528.89	292.57
529.07	220.01
529.24	212.99
529.41	259.80
529.58	255.12
529.75	259.80
529.92	243.42
530.09	229.37
530.26	250.44
530.43	262.14
530.60	276.18
530.77	294.91
530.94	243.42
531.11	241.08
531.28	245.76
531.46	220.01
531.63	189.58
531.80	238.73
531.97	241.08
532.14	252.78
532.31	224.69
532.48	290.23
532.65	259.80
532.82	280.86
532.99	308.95
533.16	255.12
533.33	308.95
533.50	283.20
533.67	259.80
533.84	351.08
534.01	266.82
534.18	269.16
534.35	245.76
534.52	243.42
534.69	315.97
534.86	234.05
535.03	287.89
535.20	212.99
535.37	294.91
535.54	285.55
535.71	330.02
535.88	248.10
536.05	276.18
536.22	264.48
536.38	294.91
536.55	313.63
536.72	393.21
536.89	330.02
537.06	304.27
537.23	379.17
537.40	348.74
537.57	255.12
537.74	339.38
537.91	407.25
538.08	456.40
538.25	367.46
538.42	400.23
538.59	369.80
538.75	395.55
538.92	440.02
539.09	383.85
539.26	404.91
539.43	498.53
539.60	456.40
539.77	491.51
539.94	566.41
540.11	561.73
540.28	681.10
540.44	641.31
540.61	643.65
540.78	744.29
540.95	784.08
541.12	938.55
541.29	947.92
541.46	1118.78
541.62	1142.18
541.79	1043.88
541.96	1015.79
542.13	992.39
542.30	1004.09
542.47	1032.18
542.63	992.39
542.80	978.34
542.97	973.66
543.14	952.60
543.31	947.92
543.48	947.92
543.64	938.55
543.81	1067.28
543.98	954.94
544.15	957.28
544.32	952.60
544.48	880.04
544.65	849.61
544.82	912.81
544.99	992.39
545.16	929.19
545.32	882.38
545.49	1451.13
545.66	2101.80
545.83	2586.29
546.00	2289.04
546.16	1537.73
546.33	1191.33
546.50	980.68
546.67	837.91
546.83	716.20
547.00	737.27
547.17	636.63
547.34	718.54
547.50	685.78
547.67	634.29
547.84	650.67
548.00	608.54
548.17	617.90
548.34	566.41
548.51	589.82
548.67	554.71
548.84	498.53
549.01	507.90
549.18	519.60
549.34	503.22
549.51	606.20
549.68	475.13
549.84	498.53
550.01	409.59
550.18	571.09
550.34	498.53
550.51	456.40
550.68	482.15
550.84	479.81
551.01	463.43
551.18	369.80
551.34	458.74
551.51	372.15
551.68	461.09
551.84	388.53
552.01	393.21
552.18	407.25
552.34	344.06
552.51	440.02
552.68	451.72
552.84	283.20
553.01	297.25
553.18	341.72
553.34	332.36
553.51	367.46
553.67	304.27
553.84	423.64
554.01	327.68
554.17	308.95
554.34	367.46
554.51	269.16
554.67	355.76
554.84	280.86
555.00	308.95
555.17	266.82
555.33	332.36
555.50	299.59
555.67	330.02
555.83	327.68
556.00	301.93
556.16	416.62
556.33	325.33
556.50	238.73
556.66	332.36
556.83	271.50
556.99	280.86
557.16	266.82
557.32	264.48
557.49	292.57
557.65	217.67
557.82	339.38
557.98	255.12
558.15	234.05
558.32	299.59
558.48	205.97
558.65	175.54
558.81	301.93
558.98	238.73
559.14	294.91
559.31	285.55
559.47	304.27
559.64	283.20
559.80	229.37
559.97	266.82
560.13	250.44
560.30	222.35
560.46	217.67
560.63	220.01
560.79	262.14
560.96	271.50
561.12	229.37
561.29	271.50
561.45	259.80
561.61	175.54
561.78	348.74
561.94	259.80
562.11	191.92
562.27	236.39
562.44	241.08
562.60	252.78
562.77	215.33
562.93	301.93
563.10	294.91
563.26	222.35
563.42	304.27
563.59	224.69
563.75	229.37
563.92	255.12
564.08	245.76
564.24	299.59
564.41	217.67
564.57	201.29
564.74	227.03
564.90	222.35
565.07	266.82
565.23	285.55
565.39	224.69
565.56	227.03
565.72	217.67
565.88	280.86
566.05	234.05
566.21	203.63
566.38	241.08
566.54	273.84
566.70	243.42
566.87	264.48
567.03	203.63
567.19	205.97
567.36	224.69
567.52	170.86
567.68	212.99
567.85	325.33
568.01	241.08
568.17	252.78
568.34	273.84
568.50	308.95
568.66	234.05
568.83	400.23
568.99	229.37
569.15	313.63
569.32	231.71
569.48	205.97
569.64	196.60
569.81	271.50
569.97	203.63
570.13	224.69
570.30	248.10
570.46	243.42
570.62	243.42
570.78	222.35
570.95	198.95
571.11	241.08
571.27	269.16
571.43	163.84
571.60	201.29
571.76	234.05
571.92	257.46
572.09	234.05
572.25	182.56
572.41	175.54
572.57	250.44
572.74	311.29
572.90	156.82
573.06	236.39
573.22	330.02
573.38	271.50
573.55	234.05
573.71	208.31
573.87	276.18
574.03	294.91
574.20	231.71
574.36	257.46
574.52	257.46
574.68	222.35
574.84	250.44
575.01	222.35
575.17	245.76
575.33	313.63
575.49	182.56
575.65	283.20
575.82	252.78
575.98	231.71
576.14	294.91
576.30	362.78
576.46	461.09
576.62	575.77
576.79	678.76
576.95	601.52
577.11	374.49
577.27	355.76
577.43	299.59
577.59	311.29
577.75	315.97
577.92	210.65
578.08	294.91
578.24	290.23
578.40	374.49
578.56	505.56
578.72	638.97
578.88	645.99
579.04	519.60
579.21	479.81
579.37	360.44
579.53	393.21
579.69	344.06
579.85	351.08
580.01	437.68
580.17	407.25
580.33	330.02
580.49	327.68
580.65	379.17
580.82	290.23
580.98	337.04
581.14	318.31
581.30	325.33
581.46	301.93
581.62	313.63
581.78	313.63
581.94	390.87
582.10	327.68
582.26	379.17
582.42	346.40
582.58	421.30
582.74	428.32
582.90	433.00
583.06	447.04
583.22	430.66
583.38	318.31
583.54	402.57
583.70	423.64
583.86	386.19
584.02	435.34
584.18	416.62
584.34	379.17
584.50	418.96
584.66	308.95
584.82	379.17
584.98	327.68
585.14	393.21
585.30	397.89
585.46	325.33
585.62	362.78
585.78	294.91
585.94	435.34
586.10	358.10
586.26	327.68
586.42	477.47
586.58	423.64
586.74	454.06
586.90	489.17
587.06	559.39
587.22	571.09
587.38	489.17
587.54	447.04
587.70	451.72
587.86	402.57
588.02	372.15
588.18	365.12
588.34	290.23
588.49	304.27
588.65	285.55
588.81	283.20
588.97	346.40
589.13	318.31
589.29	250.44
589.45	276.18
589.61	322.99
589.77	374.49
589.93	287.89
590.08	297.25
590.24	308.95
590.40	243.42
590.56	313.63
590.72	400.23
590.88	257.46
591.04	341.72
591.20	278.52
591.35	360.44
591.51	322.99
591.67	311.29
591.83	344.06
591.99	383.85
592.15	411.93
592.31	400.23
592.46	425.98
592.62	428.32
592.78	409.59
592.94	423.64
593.10	362.78
593.26	407.25
593.41	386.19
593.57	315.97
593.73	395.55
593.89	294.91
594.05	341.72
594.20	348.74
594.36	332.36
594.52	332.36
594.68	208.31
594.84	292.57
594.99	381.51
595.15	250.44
595.31	294.91
595.47	262.14
595.62	280.86
595.78	250.44
595.94	203.63
596.10	280.86
596.25	299.59
596.41	243.42
596.57	313.63
596.73	250.44
596.88	243.42
597.04	299.59
597.20	315.97
597.36	290.23
597.51	248.10
597.67	259.80
597.83	264.48
597.99	276.18
598.14	257.46
598.30	327.68
598.46	283.20
598.61	283.20
598.77	440.02
598.93	325.33
599.09	428.32
599.24	334.70
599.40	353.42
599.56	372.15
599.71	262.14
599.87	355.76
600.03	285.55
600.18	369.80
600.34	341.72
600.50	322.99
600.65	269.16
600.81	297.25
600.97	294.91
601.12	271.50
601.28	287.89
601.44	262.14
601.59	252.78
601.75	262.14
601.91	264.48
602.06	252.78
602.22	320.65
602.37	264.48
602.53	168.52
602.69	304.27
602.84	212.99
603.00	205.97
603.16	222.35
603.31	313.63
603.47	308.95
603.62	238.73
603.78	283.20
603.94	273.84
604.09	220.01
604.25	269.16
604.40	318.31
604.56	318.31
604.71	196.60
604.87	292.57
605.03	241.08
605.18	236.39
605.34	346.40
605.49	337.04
605.65	271.50
605.80	180.22
605.96	297.25
606.12	362.78
606.27	271.50
606.43	252.78
606.58	407.25
606.74	337.04
606.89	257.46
607.05	325.33
607.20	285.55
607.36	320.65
607.51	252.78
607.67	327.68
607.82	325.33
607.98	393.21
608.13	437.68
608.29	341.72
608.44	404.91
608.60	454.06
608.75	458.74
608.91	447.04
609.06	503.22
609.22	418.96
609.37	428.32
609.53	573.43
609.68	650.67
609.84	568.75
609.99	681.10
610.15	903.45
610.30	966.64
610.46	1205.38
610.61	1451.13
610.76	1757.74
610.92	2036.27
611.07	2485.65
611.23	2436.50
611.38	2277.34
