SpectraSuite Data File
++++++++++++++++++++++++++++++++++++
Date: Fri Oct 04 11:41:55 GMT-05:00 2013
User: price-jones
Dark Spectrum Present: No
Reference Spectrum Present: No
Number of Sampled Component Spectra: 1
Spectrometers: USB2+H05261
Integration Time (usec): 100000 (USB2+H05261)
Spectra Averaged: 1 (USB2+H05261)
Boxcar Smoothing: 0 (USB2+H05261)
Correct for Electrical Dark: No (USB2+H05261)
Strobe/Lamp Enabled: No (USB2+H05261)
Correct for Detector Non-linearity: No (USB2+H05261)
Correct for Stray Light: No (USB2+H05261)
Number of Pixels in Processed Spectrum: 2048
>>>>>Begin Processed Spectral Data<<<<<
365.73	23.41
365.92	23.41
366.12	23.41
366.32	0.00
366.52	0.00
366.72	0.00
366.91	0.00
367.11	0.00
367.31	0.00
367.51	0.00
367.70	0.00
367.90	0.00
368.10	0.00
368.30	0.00
368.49	0.00
368.69	0.00
368.89	0.00
369.09	0.00
369.28	0.00
369.48	0.00
369.68	0.00
369.87	0.00
370.07	0.00
370.27	95.96
370.47	0.00
370.66	0.00
370.86	32.77
371.06	67.88
371.25	161.50
371.45	28.09
371.65	67.88
371.84	49.15
372.04	79.58
372.24	128.73
372.44	88.94
372.63	86.60
372.83	79.58
373.03	117.03
373.22	131.07
373.42	177.88
373.62	161.50
373.81	142.77
374.01	91.28
374.21	154.48
374.40	142.77
374.60	147.45
374.79	196.60
374.99	180.22
375.19	142.77
375.38	114.69
375.58	156.82
375.78	196.60
375.97	131.07
376.17	191.92
376.37	128.73
376.56	229.37
376.76	145.11
376.95	119.37
377.15	163.84
377.35	128.73
377.54	72.56
377.74	119.37
377.93	135.75
378.13	95.96
378.33	154.48
378.52	196.60
378.72	177.88
378.91	189.58
379.11	84.26
379.31	175.54
379.50	119.37
379.70	124.05
379.89	168.52
380.09	124.05
380.28	67.88
380.48	93.62
380.68	128.73
380.87	11.70
381.07	124.05
381.26	187.24
381.46	93.62
381.65	88.94
381.85	84.26
382.04	147.45
382.24	149.79
382.43	117.03
382.63	131.07
382.83	182.56
383.02	180.22
383.22	119.37
383.41	117.03
383.61	142.77
383.80	105.32
384.00	140.43
384.19	86.60
384.39	119.37
384.58	142.77
384.78	170.86
384.97	121.71
385.17	95.96
385.36	119.37
385.56	23.41
385.75	147.45
385.95	74.90
386.14	224.69
386.34	149.79
386.53	79.58
386.72	149.79
386.92	147.45
387.11	86.60
387.31	95.96
387.50	119.37
387.70	102.98
387.89	72.56
388.09	173.20
388.28	56.17
388.48	114.69
388.67	114.69
388.86	81.92
389.06	142.77
389.25	102.98
389.45	163.84
389.64	100.64
389.84	198.95
390.03	149.79
390.22	231.71
390.42	184.90
390.61	159.16
390.81	173.20
391.00	147.45
391.19	168.52
391.39	210.65
391.58	161.50
391.78	124.05
391.97	161.50
392.16	159.16
392.36	131.07
392.55	175.54
392.75	110.01
392.94	84.26
393.13	84.26
393.33	126.39
393.52	93.62
393.71	138.09
393.91	173.20
394.10	81.92
394.29	163.84
394.49	100.64
394.68	140.43
394.88	149.79
395.07	159.16
395.26	60.85
395.46	114.69
395.65	175.54
395.84	124.05
396.04	191.92
396.23	142.77
396.42	112.35
396.62	67.88
396.81	105.32
397.00	138.09
397.19	191.92
397.39	140.43
397.58	182.56
397.77	74.90
397.97	161.50
398.16	201.29
398.35	217.67
398.55	117.03
398.74	126.39
398.93	91.28
399.12	149.79
399.32	100.64
399.51	212.99
399.70	135.75
399.90	215.33
400.09	212.99
400.28	152.13
400.47	173.20
400.67	124.05
400.86	163.84
401.05	220.01
401.24	196.60
401.44	154.48
401.63	182.56
401.82	236.39
402.01	173.20
402.21	220.01
402.40	220.01
402.59	194.26
402.78	210.65
402.97	243.42
403.17	276.18
403.36	276.18
403.55	397.89
403.74	676.41
403.93	2207.13
404.13	5664.10
404.32	9324.69
404.51	9731.95
404.70	6239.87
404.89	2223.51
405.09	702.16
405.28	360.44
405.47	245.76
405.66	271.50
405.85	201.29
406.05	222.35
406.24	220.01
406.43	191.92
406.62	285.55
406.81	294.91
407.00	353.42
407.20	746.63
407.39	1139.84
407.58	1533.05
407.77	1146.86
407.96	610.88
408.15	322.99
408.34	191.92
408.54	215.33
408.73	208.31
408.92	191.92
409.11	201.29
409.30	196.60
409.49	168.52
409.68	238.73
409.87	208.31
410.07	140.43
410.26	241.08
410.45	271.50
410.64	210.65
410.83	315.97
411.02	301.93
411.21	262.14
411.40	252.78
411.59	292.57
411.78	306.61
411.98	248.10
412.17	236.39
412.36	241.08
412.55	217.67
412.74	224.69
412.93	238.73
413.12	196.60
413.31	245.76
413.50	259.80
413.69	320.65
413.88	315.97
414.07	238.73
414.26	189.58
414.45	241.08
414.64	231.71
414.83	250.44
415.02	252.78
415.22	273.84
415.41	241.08
415.60	255.12
415.79	208.31
415.98	280.86
416.17	362.78
416.36	339.38
416.55	304.27
416.74	283.20
416.93	362.78
417.12	215.33
417.31	325.33
417.50	285.55
417.69	341.72
417.88	297.25
418.07	348.74
418.26	280.86
418.45	308.95
418.64	292.57
418.83	283.20
419.02	308.95
419.21	313.63
419.39	325.33
419.58	344.06
419.77	341.72
419.96	280.86
420.15	386.19
420.34	292.57
420.53	334.70
420.72	351.08
420.91	386.19
421.10	322.99
421.29	348.74
421.48	311.29
421.67	311.29
421.86	351.08
422.05	367.46
422.24	365.12
422.43	332.36
422.61	341.72
422.80	297.25
422.99	243.42
423.18	287.89
423.37	379.17
423.56	449.38
423.75	395.55
423.94	334.70
424.13	390.87
424.32	327.68
424.50	348.74
424.69	358.10
424.88	362.78
425.07	402.57
425.26	407.25
425.45	400.23
425.64	395.55
425.83	425.98
426.01	425.98
426.20	454.06
426.39	404.91
426.58	393.21
426.77	388.53
426.96	379.17
427.15	407.25
427.33	430.66
427.52	428.32
427.71	390.87
427.90	435.34
428.09	486.83
428.28	475.13
428.46	428.32
428.65	475.13
428.84	524.28
429.03	461.09
429.22	430.66
429.40	451.72
429.59	428.32
429.78	493.85
429.97	414.27
430.16	386.19
430.34	442.36
430.53	456.40
430.72	519.60
430.91	552.37
431.10	425.98
431.28	463.43
431.47	533.64
431.66	493.85
431.85	540.66
432.03	573.43
432.22	608.54
432.41	519.60
432.60	550.03
432.79	484.49
432.97	568.75
433.16	636.63
433.35	613.22
433.54	828.55
433.72	828.55
433.91	917.49
434.10	889.40
434.28	1123.46
434.47	1345.81
434.66	1430.07
434.85	1645.40
435.03	3840.82
435.22	13792.78
435.41	35990.42
435.59	49097.42
435.78	37010.89
435.97	16807.39
436.16	6216.46
436.34	2122.87
436.53	1153.88
436.72	938.55
436.90	795.78
437.09	826.21
437.28	641.31
437.46	620.24
437.65	650.67
437.84	648.33
438.02	608.54
438.21	627.26
438.40	578.11
438.58	547.69
438.77	578.11
438.96	610.88
439.14	571.09
439.33	613.22
439.52	606.20
439.70	550.03
439.89	582.79
440.08	620.24
440.26	681.10
440.45	641.31
440.63	545.34
440.82	545.34
441.01	603.86
441.19	580.45
441.38	543.00
441.57	580.45
441.75	592.16
441.94	599.18
442.12	636.63
442.31	645.99
442.50	538.32
442.68	557.05
442.87	573.43
443.05	559.39
443.24	533.64
443.43	648.33
443.61	505.56
443.80	627.26
443.98	685.78
444.17	498.53
444.35	594.50
444.54	653.01
444.73	601.52
444.91	566.41
445.10	580.45
445.28	517.26
445.47	571.09
445.65	575.77
445.84	580.45
446.02	636.63
446.21	475.13
446.39	620.24
446.58	552.37
446.77	517.26
446.95	573.43
447.14	617.90
447.32	690.46
447.51	573.43
447.69	543.00
447.88	552.37
448.06	526.62
448.25	575.77
448.43	592.16
448.62	599.18
448.80	519.60
448.99	606.20
449.17	627.26
449.36	543.00
449.54	641.31
449.73	592.16
449.91	601.52
450.10	585.13
450.28	709.18
450.46	603.86
450.65	575.77
450.83	585.13
451.02	533.64
451.20	617.90
451.39	554.71
451.57	528.96
451.76	540.66
451.94	475.13
452.13	550.03
452.31	596.84
452.49	552.37
452.68	554.71
452.86	540.66
453.05	624.92
453.23	634.29
453.42	514.92
453.60	491.51
453.78	554.71
453.97	578.11
454.15	521.94
454.34	566.41
454.52	631.94
454.70	587.47
454.89	519.60
455.07	547.69
455.26	582.79
455.44	594.50
455.62	580.45
455.81	566.41
455.99	603.86
456.17	624.92
456.36	559.39
456.54	601.52
456.73	573.43
456.91	566.41
457.09	645.99
457.28	575.77
457.46	608.54
457.64	540.66
457.83	561.73
458.01	521.94
458.19	575.77
458.38	601.52
458.56	447.04
458.74	638.97
458.93	505.56
459.11	552.37
459.29	472.79
459.48	543.00
459.66	648.33
459.84	594.50
460.03	645.99
460.21	547.69
460.39	540.66
460.57	550.03
460.76	486.83
460.94	545.34
461.12	557.05
461.31	624.92
461.49	482.15
461.67	505.56
461.85	519.60
462.04	547.69
462.22	940.90
462.40	613.22
462.59	585.13
462.77	554.71
462.95	571.09
463.13	535.98
463.32	601.52
463.50	568.75
463.68	533.64
463.86	440.02
464.05	578.11
464.23	585.13
464.41	624.92
464.59	547.69
464.78	571.09
464.96	477.47
465.14	557.05
465.32	519.60
465.50	575.77
465.69	458.74
465.87	477.47
466.05	517.26
466.23	482.15
466.41	503.22
466.60	585.13
466.78	648.33
466.96	641.31
467.14	559.39
467.32	528.96
467.51	617.90
467.69	524.28
467.87	599.18
468.05	585.13
468.23	486.83
468.41	456.40
468.60	468.11
468.78	477.47
468.96	503.22
469.14	447.04
469.32	449.38
469.50	519.60
469.69	561.73
469.87	535.98
470.05	557.05
470.23	538.32
470.41	477.47
470.59	442.36
470.77	575.77
470.95	514.92
471.14	559.39
471.32	552.37
471.50	531.30
471.68	519.60
471.86	442.36
472.04	578.11
472.22	507.90
472.40	524.28
472.58	533.64
472.77	484.49
472.95	526.62
473.13	566.41
473.31	540.66
473.49	538.32
473.67	512.58
473.85	589.82
474.03	561.73
474.21	533.64
474.39	543.00
474.57	538.32
474.75	524.28
474.93	484.49
475.12	517.26
475.30	571.09
475.48	496.19
475.66	580.45
475.84	503.22
476.02	538.32
476.20	580.45
476.38	629.60
476.56	564.07
476.74	545.34
476.92	440.02
477.10	531.30
477.28	491.51
477.46	477.47
477.64	526.62
477.82	533.64
478.00	524.28
478.18	585.13
478.36	585.13
478.54	498.53
478.72	596.84
478.90	615.56
479.08	669.39
479.26	592.16
479.44	643.65
479.62	683.44
479.80	706.84
479.98	678.76
480.16	786.42
480.34	830.89
480.52	823.87
480.70	795.78
480.88	840.25
481.06	950.26
481.24	919.83
481.41	954.94
481.59	1125.80
481.77	1153.88
481.95	1207.72
482.13	1313.04
482.31	1287.29
482.49	1439.43
482.67	1614.97
482.85	1659.44
483.03	1743.70
483.21	1893.49
483.39	2073.71
483.57	2165.00
483.74	2289.04
483.92	2492.67
484.10	2478.63
484.28	2661.19
484.46	2810.98
484.64	2871.84
484.82	3117.59
485.00	3136.32
485.18	3517.83
485.35	3524.85
485.53	3843.16
485.71	3852.52
485.89	4161.47
486.07	4229.35
486.25	4374.46
486.43	4285.52
486.61	4177.86
486.78	4454.04
486.96	4351.06
487.14	4376.80
487.32	4442.34
487.50	4287.86
487.68	4194.24
487.85	4194.24
488.03	4140.41
488.21	4105.30
488.39	4009.34
488.57	3831.46
488.75	3796.35
488.92	3845.50
489.10	3676.98
489.28	3618.47
489.46	3522.51
489.64	3363.35
489.81	3391.44
489.99	3353.99
490.17	3339.94
490.35	3286.11
490.53	3281.43
490.70	3204.19
490.88	3178.45
491.06	3361.01
491.24	3529.53
491.41	3789.33
491.59	3559.95
491.77	3211.22
491.95	3206.53
492.13	3073.12
492.30	3108.23
492.48	2860.13
492.66	2883.54
492.84	2920.99
493.01	2794.60
493.19	2649.49
493.37	2799.28
493.54	2705.66
493.72	2619.06
493.90	2745.45
494.08	2567.57
494.25	2565.23
494.43	2502.03
494.61	2434.16
494.79	2417.77
494.96	2427.14
495.14	2373.30
495.32	2443.52
495.49	2321.81
495.67	2146.27
495.85	2225.85
496.02	2043.29
496.20	2148.61
496.38	2040.95
496.55	2038.61
496.73	2066.69
496.91	2026.90
497.09	1994.14
497.26	1980.09
497.44	1923.92
497.62	1823.28
497.79	1816.26
497.97	1708.59
498.14	1755.40
498.32	1650.08
498.50	1680.50
498.67	1619.65
498.85	1645.40
499.03	1678.16
499.20	1502.62
499.38	1509.65
499.56	1345.81
499.73	1549.43
499.91	1474.54
500.08	1453.47
500.26	1327.08
500.44	1270.91
500.61	1217.08
500.79	1280.27
500.97	1132.82
501.14	1181.97
501.32	1118.78
501.49	1057.92
501.67	980.68
501.84	973.66
502.02	1074.31
502.20	980.68
502.37	994.73
502.55	964.30
502.72	868.34
502.90	952.60
503.07	837.91
503.25	767.70
503.43	828.55
503.60	793.44
503.78	737.27
503.95	786.42
504.13	727.91
504.30	758.33
504.48	784.08
504.65	718.54
504.83	660.03
505.01	718.54
505.18	629.60
505.36	620.24
505.53	627.26
505.71	533.64
505.88	678.76
506.06	664.71
506.23	727.91
506.41	601.52
506.58	634.29
506.76	643.65
506.93	545.34
507.11	648.33
507.28	557.05
507.46	573.43
507.63	552.37
507.81	543.00
507.98	519.60
508.16	564.07
508.33	470.45
508.50	547.69
508.68	662.37
508.85	613.22
509.03	617.90
509.20	645.99
509.38	535.98
509.55	629.60
509.73	580.45
509.90	580.45
510.08	503.22
510.25	561.73
510.42	465.77
510.60	564.07
510.77	543.00
510.95	554.71
511.12	554.71
511.30	496.19
511.47	491.51
511.64	491.51
511.82	540.66
511.99	484.49
512.17	517.26
512.34	440.02
512.51	505.56
512.69	538.32
512.86	545.34
513.04	461.09
513.21	589.82
513.38	454.06
513.56	465.77
513.73	437.68
513.90	521.94
514.08	428.32
514.25	433.00
514.43	512.58
514.60	414.27
514.77	447.04
514.95	475.13
515.12	470.45
515.29	348.74
515.47	477.47
515.64	489.17
515.81	451.72
515.99	425.98
516.16	409.59
516.33	535.98
516.51	491.51
516.68	414.27
516.85	421.30
517.03	470.45
517.20	404.91
517.37	463.43
517.54	369.80
517.72	395.55
517.89	449.38
518.06	451.72
518.24	472.79
518.41	507.90
518.58	543.00
518.75	390.87
518.93	468.11
519.10	458.74
519.27	433.00
519.45	447.04
519.62	435.34
519.79	454.06
519.96	330.02
520.14	465.77
520.31	379.17
520.48	458.74
520.65	514.92
520.83	402.57
521.00	472.79
521.17	386.19
521.34	414.27
521.52	409.59
521.69	344.06
521.86	454.06
522.03	447.04
522.20	430.66
522.38	355.76
522.55	437.68
522.72	360.44
522.89	465.77
523.07	465.77
523.24	458.74
523.41	425.98
523.58	428.32
523.75	407.25
523.92	351.08
524.10	454.06
524.27	482.15
524.44	430.66
524.61	517.26
524.78	456.40
524.96	514.92
525.13	458.74
525.30	449.38
525.47	433.00
525.64	470.45
525.81	451.72
525.98	449.38
526.16	458.74
526.33	479.81
526.50	496.19
526.67	414.27
526.84	421.30
527.01	496.19
527.18	538.32
527.36	587.47
527.53	620.24
527.70	599.18
527.87	615.56
528.04	624.92
528.21	498.53
528.38	507.90
528.55	578.11
528.72	531.30
528.89	582.79
529.07	479.81
529.24	517.26
529.41	601.52
529.58	564.07
529.75	557.05
529.92	561.73
530.09	681.10
530.26	627.26
530.43	559.39
530.60	596.84
530.77	688.12
530.94	688.12
531.11	657.69
531.28	758.33
531.46	718.54
531.63	821.53
531.80	828.55
531.97	870.68
532.14	1071.97
532.31	1116.44
532.48	1397.30
532.65	1570.50
532.82	1717.95
532.99	2174.36
533.16	2466.92
533.33	2649.49
533.50	2504.37
533.67	2094.78
533.84	1893.49
534.01	1647.74
534.18	1509.65
534.35	1514.33
534.52	1448.79
534.69	1460.49
534.86	1554.12
535.03	1600.93
535.20	1612.63
535.37	1757.74
535.54	1799.87
535.71	1963.71
535.88	2066.69
536.05	2202.44
536.22	2349.90
536.38	2665.87
536.55	2916.31
536.72	3103.55
536.89	3510.80
537.06	3892.31
537.23	4280.84
537.40	4798.10
537.57	5146.84
537.74	5479.19
537.91	5746.02
538.08	5675.80
538.25	5839.64
538.42	5841.98
538.59	6033.90
538.75	6120.50
538.92	6644.78
539.09	6991.18
539.26	7896.97
539.43	9020.42
539.60	9907.49
539.77	11318.83
539.94	12678.68
540.11	14129.81
540.28	16020.97
540.44	17221.66
540.61	18939.62
540.78	21570.38
540.95	25741.21
541.12	31552.76
541.29	35739.98
541.46	37741.14
541.62	38036.05
541.79	36594.28
541.96	33645.20
542.13	30944.22
542.30	29099.88
542.47	27335.12
542.63	26068.89
542.80	25273.10
542.97	24744.14
543.14	24505.41
543.31	24194.12
543.48	24009.22
543.64	25242.68
543.81	24685.63
543.98	25191.19
544.15	25638.23
544.32	25570.35
544.48	25336.30
544.65	24884.58
544.82	24575.62
544.99	24797.98
545.16	25460.35
545.32	26586.15
545.49	38281.80
545.66	58974.48
545.83	65535.00
546.00	65535.00
546.16	59803.03
546.33	43578.43
546.50	32716.01
546.67	25881.64
546.83	22820.22
547.00	21743.58
547.17	21095.25
547.34	20460.96
547.50	19484.96
547.67	18487.89
547.84	17661.68
548.00	16975.91
548.17	16535.88
548.34	16091.18
548.51	15204.12
548.67	14684.52
548.84	13923.85
549.01	13170.19
549.18	12365.05
549.34	11927.37
549.51	11583.31
549.68	11353.94
549.84	10719.65
550.01	10377.94
550.18	9692.16
550.34	9310.65
550.51	9043.83
550.68	8652.96
550.84	7815.05
551.01	7590.36
551.18	7157.36
551.34	6789.89
551.51	6466.90
551.68	6132.20
551.84	5991.77
552.01	5877.09
552.18	5544.73
552.34	5430.04
552.51	5078.96
552.68	4901.08
552.84	4716.18
553.01	4610.86
553.18	4440.00
553.34	4362.76
553.51	4187.22
553.67	4018.70
553.84	3737.84
554.01	3618.47
554.17	3403.14
554.34	3150.36
554.51	2995.89
554.67	2733.75
554.84	2614.38
555.00	2450.54
555.17	2361.60
555.33	2150.95
555.50	2073.71
555.67	2024.56
555.83	1952.01
556.00	1844.34
556.16	1926.26
556.33	1834.98
556.50	1694.55
556.66	1713.27
556.83	1540.07
556.99	1664.12
557.16	1626.67
557.32	1444.11
557.49	1465.18
557.65	1308.36
557.82	1291.98
557.98	1387.94
558.15	1219.42
558.32	1252.19
558.48	1172.61
558.65	1191.33
558.81	1235.80
558.98	1214.74
559.14	1184.31
559.31	1172.61
559.47	1104.73
559.64	1004.09
559.80	1050.90
559.97	1013.45
560.13	1067.28
560.30	966.64
560.46	1029.84
560.63	1071.97
560.79	1001.75
560.96	1025.15
561.12	933.87
561.29	987.71
561.45	1013.45
561.61	931.53
561.78	1116.44
561.94	987.71
562.11	1029.84
562.27	987.71
562.44	898.77
562.60	926.85
562.77	1001.75
562.93	1008.77
563.10	903.45
563.26	952.60
563.42	945.58
563.59	882.38
563.75	908.13
563.92	887.06
564.08	798.12
564.24	800.46
564.41	861.32
564.57	772.38
564.74	798.12
564.90	837.91
565.07	772.38
565.23	765.36
565.39	732.59
565.56	706.84
565.72	767.70
565.88	734.93
566.05	725.57
566.21	786.42
566.38	741.95
566.54	774.72
566.70	739.61
566.87	800.46
567.03	786.42
567.19	784.08
567.36	748.97
567.52	774.72
567.68	727.91
567.85	709.18
568.01	702.16
568.17	844.93
568.34	809.83
568.50	819.19
568.66	863.66
568.83	823.87
568.99	751.31
569.15	760.67
569.32	678.76
569.48	716.20
569.64	706.84
569.81	702.16
569.97	594.50
570.13	631.94
570.30	538.32
570.46	519.60
570.62	543.00
570.78	550.03
570.95	512.58
571.11	592.16
571.27	587.47
571.43	510.24
571.60	620.24
571.76	587.47
571.92	543.00
572.09	538.32
572.25	662.37
572.41	545.34
572.57	571.09
572.74	629.60
572.90	564.07
573.06	557.05
573.22	589.82
573.38	678.76
573.55	568.75
573.71	674.07
573.87	734.93
574.03	692.80
574.20	617.90
574.36	667.05
574.52	683.44
574.68	582.79
574.84	812.17
575.01	866.00
575.17	894.08
575.33	873.02
575.49	1006.43
575.65	938.55
575.82	973.66
575.98	1109.41
576.14	1320.06
576.30	2387.35
576.46	7424.18
576.62	14979.43
576.79	20599.05
576.95	15124.54
577.11	8683.39
577.27	6141.57
577.43	3981.25
577.59	2623.74
577.75	2080.74
577.92	1830.30
578.08	1797.53
578.24	1778.81
578.40	2581.61
578.56	6757.13
578.72	13696.82
578.88	18647.05
579.04	13788.10
579.21	8339.33
579.37	5977.73
579.53	4669.37
579.69	4173.18
579.85	5076.62
580.01	6511.37
580.17	6691.59
580.33	5769.42
580.49	4800.44
580.65	4044.45
580.82	3686.34
580.98	3541.23
581.14	3456.97
581.30	3831.46
581.46	4259.78
581.62	4503.19
581.78	4826.18
581.94	5097.69
582.10	5460.47
582.26	5846.66
582.42	5961.34
582.58	6312.42
582.74	6204.76
582.90	6363.92
583.06	6534.78
583.22	6235.19
583.38	6452.86
583.54	6305.40
583.70	6214.12
583.86	6324.13
584.02	6146.25
584.18	6050.28
584.34	5827.93
584.50	5926.24
584.66	5900.49
584.82	5774.10
584.98	5715.59
585.14	5561.11
585.30	5434.72
585.46	5130.45
585.62	5205.35
585.78	5341.10
585.94	5305.99
586.10	5142.16
586.26	5643.03
586.42	6169.65
586.58	7356.30
586.74	9142.13
586.90	11044.99
587.06	12695.07
587.22	12713.79
587.38	11499.05
587.54	9640.67
587.70	8212.94
587.86	6974.80
588.02	5872.40
588.18	5088.32
588.34	4652.98
588.49	4175.52
588.65	3889.97
588.81	3838.48
588.97	3705.07
589.13	3517.83
589.29	3431.23
589.45	3524.85
589.61	3492.08
589.77	3496.76
589.93	3499.10
590.08	3487.40
590.24	3644.21
590.40	3604.42
590.56	4011.68
590.72	3960.19
590.88	4128.70
591.04	4208.28
591.20	4482.13
591.35	4641.28
591.51	4830.87
591.67	4950.23
591.83	5214.71
591.99	5593.88
592.15	6157.95
592.31	6722.02
592.46	7499.08
592.62	8114.64
592.78	8606.15
592.94	9322.35
593.10	9025.11
593.26	8369.76
593.41	7997.61
593.57	7140.97
593.73	6069.01
593.89	5640.69
594.05	4924.49
594.20	4292.54
594.36	3936.78
594.52	3719.11
594.68	3445.27
594.84	3377.39
594.99	3346.97
595.15	3180.79
595.31	3232.28
595.47	3119.93
595.62	3012.27
595.78	3094.19
595.94	3122.27
596.10	3077.80
596.25	3068.44
596.41	3070.78
596.57	3171.43
596.73	3061.42
596.88	3110.57
597.04	3089.51
597.20	3059.08
597.36	3187.81
597.51	3248.66
597.67	3407.82
597.83	3662.94
597.99	3782.31
598.14	4065.51
598.30	4278.50
598.46	4447.02
598.61	4727.88
598.77	4781.71
598.93	5177.26
599.09	5212.37
599.24	5289.61
599.40	5385.57
599.56	5132.79
599.71	4896.40
599.87	4753.63
600.03	4538.30
600.18	4215.30
600.34	3845.50
600.50	3627.83
600.65	3295.47
600.81	3276.75
600.97	3103.55
601.12	2864.82
601.28	2775.88
601.44	2612.04
601.59	2513.74
601.75	2476.29
601.91	2340.54
602.06	2263.30
602.22	2242.23
602.37	2157.97
602.53	2099.46
602.69	1970.73
602.84	1937.96
603.00	2071.37
603.16	2106.48
603.31	2062.01
603.47	2148.61
603.62	2113.50
603.78	2106.48
603.94	2167.34
604.09	2277.34
604.25	2389.69
604.40	2473.95
604.56	2415.43
604.71	2361.60
