SpectraSuite Data File
++++++++++++++++++++++++++++++++++++
Date: Fri Oct 04 11:42:28 GMT-05:00 2013
User: price-jones
Dark Spectrum Present: No
Reference Spectrum Present: No
Number of Sampled Component Spectra: 1
Spectrometers: USB2+H05261
Integration Time (usec): 100000 (USB2+H05261)
Spectra Averaged: 1 (USB2+H05261)
Boxcar Smoothing: 0 (USB2+H05261)
Correct for Electrical Dark: No (USB2+H05261)
Strobe/Lamp Enabled: No (USB2+H05261)
Correct for Detector Non-linearity: No (USB2+H05261)
Correct for Stray Light: No (USB2+H05261)
Number of Pixels in Processed Spectrum: 2048
>>>>>Begin Processed Spectral Data<<<<<
365.73	51.49
365.92	51.49
366.12	51.49
366.32	0.00
366.52	0.00
366.72	0.00
366.91	0.00
367.11	0.00
367.31	0.00
367.51	0.00
367.70	0.00
367.90	0.00
368.10	0.00
368.30	0.00
368.49	0.00
368.69	0.00
368.89	0.00
369.09	0.00
369.28	0.00
369.48	0.00
369.68	0.00
369.87	42.13
370.07	0.00
370.27	0.00
370.47	0.00
370.66	42.13
370.86	35.11
371.06	35.11
371.25	65.54
371.45	77.24
371.65	128.73
371.84	18.72
372.04	11.70
372.24	63.19
372.44	86.60
372.63	88.94
372.83	102.98
373.03	170.86
373.22	67.88
373.42	49.15
373.62	154.48
373.81	173.20
374.01	84.26
374.21	145.11
374.40	107.66
374.60	145.11
374.79	159.16
374.99	93.62
375.19	152.13
375.38	142.77
375.58	114.69
375.78	187.24
375.97	128.73
376.17	166.18
376.37	112.35
376.56	117.03
376.76	189.58
376.95	102.98
377.15	98.30
377.35	196.60
377.54	112.35
377.74	142.77
377.93	175.54
378.13	72.56
378.33	149.79
378.52	81.92
378.72	138.09
378.91	173.20
379.11	74.90
379.31	121.71
379.50	35.11
379.70	77.24
379.89	112.35
380.09	53.83
380.28	79.58
380.48	60.85
380.68	63.19
380.87	110.01
381.07	119.37
381.26	91.28
381.46	208.31
381.65	88.94
381.85	107.66
382.04	110.01
382.24	154.48
382.43	74.90
382.63	67.88
382.83	56.17
383.02	124.05
383.22	212.99
383.41	51.49
383.61	145.11
383.80	112.35
384.00	131.07
384.19	35.11
384.39	163.84
384.58	126.39
384.78	72.56
384.97	72.56
385.17	30.43
385.36	46.81
385.56	170.86
385.75	98.30
385.95	77.24
386.14	168.52
386.34	147.45
386.53	119.37
386.72	119.37
386.92	145.11
387.11	117.03
387.31	100.64
387.50	32.77
387.70	46.81
387.89	84.26
388.09	81.92
388.28	133.41
388.48	56.17
388.67	154.48
388.86	95.96
389.06	121.71
389.25	145.11
389.45	105.32
389.64	79.58
389.84	102.98
390.03	124.05
390.22	121.71
390.42	166.18
390.61	58.51
390.81	93.62
391.00	88.94
391.19	86.60
391.39	93.62
391.58	98.30
391.78	81.92
391.97	98.30
392.16	149.79
392.36	95.96
392.55	110.01
392.75	128.73
392.94	119.37
393.13	121.71
393.33	23.41
393.52	53.83
393.71	131.07
393.91	140.43
394.10	102.98
394.29	84.26
394.49	135.75
394.68	198.95
394.88	159.16
395.07	117.03
395.26	53.83
395.46	102.98
395.65	105.32
395.84	166.18
396.04	126.39
396.23	93.62
396.42	114.69
396.62	44.47
396.81	79.58
397.00	91.28
397.19	91.28
397.39	102.98
397.58	79.58
397.77	182.56
397.97	105.32
398.16	152.13
398.35	121.71
398.55	133.41
398.74	117.03
398.93	168.52
399.12	142.77
399.32	126.39
399.51	152.13
399.70	163.84
399.90	201.29
400.09	88.94
400.28	72.56
400.47	67.88
400.67	110.01
400.86	154.48
401.05	98.30
401.24	126.39
401.44	187.24
401.63	191.92
401.82	79.58
402.01	102.98
402.21	170.86
402.40	91.28
402.59	152.13
402.78	140.43
402.97	180.22
403.17	140.43
403.36	138.09
403.55	177.88
403.74	322.99
403.93	676.41
404.13	1556.46
404.32	2207.13
404.51	2118.18
404.70	1390.28
404.89	596.84
405.09	280.86
405.28	184.90
405.47	212.99
405.66	187.24
405.85	180.22
406.05	112.35
406.24	124.05
406.43	147.45
406.62	135.75
406.81	215.33
407.00	234.05
407.20	315.97
407.39	416.62
407.58	475.13
407.77	325.33
407.96	248.10
408.15	152.13
408.34	170.86
408.54	191.92
408.73	154.48
408.92	154.48
409.11	168.52
409.30	175.54
409.49	131.07
409.68	119.37
409.87	121.71
410.07	140.43
410.26	154.48
410.45	161.50
410.64	152.13
410.83	102.98
411.02	86.60
411.21	182.56
411.40	196.60
411.59	149.79
411.78	93.62
411.98	156.82
412.17	154.48
412.36	133.41
412.55	133.41
412.74	175.54
412.93	124.05
413.12	210.65
413.31	182.56
413.50	107.66
413.69	173.20
413.88	210.65
414.07	215.33
414.26	84.26
414.45	184.90
414.64	142.77
414.83	238.73
415.02	175.54
415.22	245.76
415.41	194.26
415.60	170.86
415.79	168.52
415.98	182.56
416.17	156.82
416.36	245.76
416.55	112.35
416.74	131.07
416.93	170.86
417.12	184.90
417.31	133.41
417.50	74.90
417.69	110.01
417.88	215.33
418.07	107.66
418.26	107.66
418.45	135.75
418.64	287.89
418.83	180.22
419.02	191.92
419.21	168.52
419.39	175.54
419.58	163.84
419.77	180.22
419.96	131.07
420.15	168.52
420.34	161.50
420.53	201.29
420.72	152.13
420.91	159.16
421.10	161.50
421.29	149.79
421.48	222.35
421.67	215.33
421.86	210.65
422.05	166.18
422.24	236.39
422.43	287.89
422.61	135.75
422.80	102.98
422.99	198.95
423.18	229.37
423.37	198.95
423.56	203.63
423.75	135.75
423.94	203.63
424.13	121.71
424.32	177.88
424.50	154.48
424.69	168.52
424.88	217.67
425.07	180.22
425.26	227.03
425.45	212.99
425.64	128.73
425.83	156.82
426.01	229.37
426.20	194.26
426.39	266.82
426.58	112.35
426.77	189.58
426.96	245.76
427.15	262.14
427.33	145.11
427.52	266.82
427.71	182.56
427.90	257.46
428.09	126.39
428.28	156.82
428.46	283.20
428.65	189.58
428.84	210.65
429.03	243.42
429.22	175.54
429.40	234.05
429.59	173.20
429.78	217.67
429.97	152.13
430.16	241.08
430.34	276.18
430.53	177.88
430.72	236.39
430.91	269.16
431.10	224.69
431.28	184.90
431.47	191.92
431.66	217.67
431.85	128.73
432.03	238.73
432.22	393.21
432.41	243.42
432.60	287.89
432.79	212.99
432.97	262.14
433.16	243.42
433.35	313.63
433.54	332.36
433.72	311.29
433.91	285.55
434.10	283.20
434.28	407.25
434.47	421.30
434.66	484.49
434.85	491.51
435.03	1102.39
435.22	3496.76
435.41	8002.29
435.59	9764.72
435.78	6614.35
435.97	3405.48
436.16	1273.25
436.34	524.28
436.53	400.23
436.72	369.80
436.90	376.83
437.09	334.70
437.28	315.97
437.46	266.82
437.65	308.95
437.84	315.97
438.02	351.08
438.21	238.73
438.40	255.12
438.58	187.24
438.77	238.73
438.96	245.76
439.14	283.20
439.33	264.48
439.52	290.23
439.70	220.01
439.89	290.23
440.08	285.55
440.26	241.08
440.45	203.63
440.63	198.95
440.82	292.57
441.01	306.61
441.19	257.46
441.38	255.12
441.57	283.20
441.75	255.12
441.94	315.97
442.12	262.14
442.31	276.18
442.50	234.05
442.68	269.16
442.87	304.27
443.05	231.71
443.24	269.16
443.43	208.31
443.61	376.83
443.80	304.27
443.98	259.80
444.17	238.73
444.35	290.23
444.54	304.27
444.73	259.80
444.91	287.89
445.10	234.05
445.28	224.69
445.47	231.71
445.65	196.60
445.84	304.27
446.02	259.80
446.21	280.86
446.39	271.50
446.58	236.39
446.77	241.08
446.95	215.33
447.14	262.14
447.32	227.03
447.51	285.55
447.69	149.79
447.88	257.46
448.06	173.20
448.25	311.29
448.43	222.35
448.62	220.01
448.80	276.18
448.99	301.93
449.17	313.63
449.36	238.73
449.54	337.04
449.73	243.42
449.91	372.15
450.10	241.08
450.28	297.25
450.46	271.50
450.65	234.05
450.83	292.57
451.02	266.82
451.20	217.67
451.39	250.44
451.57	290.23
451.76	227.03
451.94	224.69
452.13	304.27
452.31	299.59
452.49	290.23
452.68	257.46
452.86	229.37
453.05	297.25
453.23	276.18
453.42	234.05
453.60	222.35
453.78	262.14
453.97	241.08
454.15	236.39
454.34	205.97
454.52	217.67
454.70	241.08
454.89	337.04
455.07	297.25
455.26	287.89
455.44	285.55
455.62	243.42
455.81	208.31
455.99	306.61
456.17	259.80
456.36	215.33
456.54	203.63
456.73	245.76
456.91	283.20
457.09	287.89
457.28	266.82
457.46	280.86
457.64	278.52
457.83	248.10
458.01	198.95
458.19	257.46
458.38	259.80
458.56	220.01
458.74	227.03
458.93	325.33
459.11	297.25
459.29	255.12
459.48	238.73
459.66	299.59
459.84	301.93
460.03	348.74
460.21	283.20
460.39	194.26
460.57	271.50
460.76	182.56
460.94	191.92
461.12	292.57
461.31	273.84
461.49	292.57
461.67	271.50
461.85	234.05
462.04	269.16
462.22	318.31
462.40	332.36
462.59	304.27
462.77	278.52
462.95	250.44
463.13	262.14
463.32	306.61
463.50	152.13
463.68	294.91
463.86	301.93
464.05	250.44
464.23	236.39
464.41	252.78
464.59	255.12
464.78	318.31
464.96	264.48
465.14	215.33
465.32	297.25
465.50	196.60
465.69	308.95
465.87	257.46
466.05	229.37
466.23	177.88
466.41	280.86
466.60	280.86
466.78	297.25
466.96	341.72
467.14	318.31
467.32	220.01
467.51	212.99
467.69	220.01
467.87	308.95
468.05	294.91
468.23	271.50
468.41	304.27
468.60	224.69
468.78	330.02
468.96	243.42
469.14	264.48
469.32	173.20
469.50	203.63
469.69	236.39
469.87	257.46
470.05	292.57
470.23	205.97
470.41	222.35
470.59	215.33
470.77	245.76
470.95	264.48
471.14	264.48
471.32	262.14
471.50	311.29
471.68	241.08
471.86	248.10
472.04	248.10
472.22	234.05
472.40	203.63
472.58	269.16
472.77	220.01
472.95	220.01
473.13	376.83
473.31	266.82
473.49	241.08
473.67	243.42
473.85	208.31
474.03	290.23
474.21	201.29
474.39	276.18
474.57	222.35
474.75	322.99
474.93	294.91
475.12	227.03
475.30	198.95
475.48	220.01
475.66	290.23
475.84	271.50
476.02	273.84
476.20	161.50
476.38	234.05
476.56	259.80
476.74	245.76
476.92	278.52
477.10	276.18
477.28	304.27
477.46	245.76
477.64	322.99
477.82	236.39
478.00	271.50
478.18	252.78
478.36	278.52
478.54	250.44
478.72	243.42
478.90	243.42
479.08	201.29
479.26	248.10
479.44	224.69
479.62	238.73
479.80	250.44
479.98	327.68
480.16	262.14
480.34	318.31
480.52	318.31
480.70	355.76
480.88	306.61
481.06	262.14
481.24	271.50
481.41	264.48
481.59	372.15
481.77	421.30
481.95	435.34
482.13	447.04
482.31	444.70
482.49	414.27
482.67	554.71
482.85	554.71
483.03	540.66
483.21	578.11
483.39	568.75
483.57	697.48
483.74	706.84
483.92	622.58
484.10	772.38
484.28	739.61
484.46	795.78
484.64	947.92
484.82	844.93
485.00	980.68
485.18	910.47
485.35	1064.94
485.53	1104.73
485.71	1149.20
485.89	1196.01
486.07	1174.95
486.25	1245.16
486.43	1146.86
486.61	1181.97
486.78	1240.48
486.96	1259.21
487.14	1310.70
487.32	1371.55
487.50	1242.82
487.68	1240.48
487.85	1163.25
488.03	1214.74
488.21	1338.79
488.39	1249.85
488.57	1203.04
488.75	1266.23
488.92	1430.07
489.10	1277.93
489.28	1296.66
489.46	1170.27
489.64	1240.48
489.81	1235.80
489.99	1207.72
490.17	1235.80
490.35	1245.16
490.53	1163.25
490.70	1064.94
490.88	1186.65
491.06	1071.97
491.24	1275.59
491.41	1228.78
491.59	1270.91
491.77	1114.10
491.95	1083.67
492.13	968.98
492.30	1074.31
492.48	990.05
492.66	1116.44
492.84	1039.20
493.01	968.98
493.19	1004.09
493.37	1078.99
493.54	997.07
493.72	983.02
493.90	943.24
494.08	901.11
494.25	917.49
494.43	915.15
494.61	870.68
494.79	856.64
494.96	858.98
495.14	882.38
495.32	770.04
495.49	802.80
495.67	847.27
495.85	765.36
496.02	870.68
496.20	814.51
496.38	912.81
496.55	751.31
496.73	819.19
496.91	809.83
497.09	863.66
497.26	758.33
497.44	770.04
497.62	697.48
497.79	753.65
497.97	711.52
498.14	730.25
498.32	617.90
498.50	725.57
498.67	638.97
498.85	592.16
499.03	624.92
499.20	582.79
499.38	561.73
499.56	507.90
499.73	592.16
499.91	531.30
500.08	524.28
500.26	444.70
500.44	414.27
500.61	461.09
500.79	461.09
500.97	376.83
501.14	454.06
501.32	409.59
501.49	468.11
501.67	376.83
501.84	344.06
502.02	372.15
502.20	341.72
502.37	362.78
502.55	332.36
502.72	383.85
502.90	395.55
503.07	362.78
503.25	318.31
503.43	266.82
503.60	290.23
503.78	311.29
503.95	322.99
504.13	271.50
504.30	327.68
504.48	423.64
504.65	362.78
504.83	285.55
505.01	358.10
505.18	259.80
505.36	266.82
505.53	276.18
505.71	341.72
505.88	266.82
506.06	243.42
506.23	203.63
506.41	334.70
506.58	353.42
506.76	264.48
506.93	304.27
507.11	222.35
507.28	341.72
507.46	308.95
507.63	276.18
507.81	292.57
507.98	299.59
508.16	276.18
508.33	248.10
508.50	367.46
508.68	294.91
508.85	252.78
509.03	297.25
509.20	259.80
509.38	299.59
509.55	379.17
509.73	306.61
509.90	299.59
510.08	252.78
510.25	255.12
510.42	327.68
510.60	346.40
510.77	215.33
510.95	292.57
511.12	283.20
511.30	299.59
511.47	322.99
511.64	280.86
511.82	299.59
511.99	234.05
512.17	250.44
512.34	255.12
512.51	238.73
512.69	306.61
512.86	301.93
513.04	306.61
513.21	304.27
513.38	245.76
513.56	358.10
513.73	264.48
513.90	280.86
514.08	311.29
514.25	297.25
514.43	315.97
514.60	255.12
514.77	283.20
514.95	271.50
515.12	243.42
515.29	229.37
515.47	196.60
515.64	252.78
515.81	224.69
515.99	215.33
516.16	304.27
516.33	273.84
516.51	297.25
516.68	264.48
516.85	257.46
517.03	262.14
517.20	250.44
517.37	269.16
517.54	243.42
517.72	306.61
517.89	266.82
518.06	229.37
518.24	278.52
518.41	372.15
518.58	306.61
518.75	273.84
518.93	245.76
519.10	341.72
519.27	257.46
519.45	287.89
519.62	332.36
519.79	252.78
519.96	266.82
520.14	318.31
520.31	241.08
520.48	315.97
520.65	308.95
520.83	250.44
521.00	255.12
521.17	292.57
521.34	294.91
521.52	248.10
521.69	283.20
521.86	236.39
522.03	362.78
522.20	346.40
522.38	285.55
522.55	285.55
522.72	241.08
522.89	311.29
523.07	332.36
523.24	285.55
523.41	266.82
523.58	271.50
523.75	264.48
523.92	292.57
524.10	311.29
524.27	250.44
524.44	243.42
524.61	271.50
524.78	238.73
524.96	283.20
525.13	287.89
525.30	367.46
525.47	248.10
525.64	283.20
525.81	341.72
525.98	238.73
526.16	278.52
526.33	304.27
526.50	266.82
526.67	229.37
526.84	266.82
527.01	297.25
527.18	257.46
527.36	297.25
527.53	290.23
527.70	252.78
527.87	341.72
528.04	264.48
528.21	299.59
528.38	351.08
528.55	308.95
528.72	241.08
528.89	362.78
529.07	325.33
529.24	358.10
529.41	388.53
529.58	236.39
529.75	212.99
529.92	308.95
530.09	290.23
530.26	362.78
530.43	325.33
530.60	215.33
530.77	346.40
530.94	381.51
531.11	327.68
531.28	273.84
531.46	306.61
531.63	294.91
531.80	332.36
531.97	344.06
532.14	266.82
532.31	390.87
532.48	407.25
532.65	456.40
532.82	435.34
532.99	498.53
533.16	585.13
533.33	610.88
533.50	627.26
533.67	575.77
533.84	449.38
534.01	440.02
534.18	423.64
534.35	344.06
534.52	442.36
534.69	564.07
534.86	543.00
535.03	409.59
535.20	561.73
535.37	498.53
535.54	503.22
535.71	521.94
535.88	648.33
536.05	578.11
536.22	561.73
536.38	692.80
536.55	575.77
536.72	645.99
536.89	676.41
537.06	809.83
537.23	755.99
537.40	931.53
537.57	987.71
537.74	1121.12
537.91	1135.16
538.08	1315.38
538.25	1350.49
538.42	1514.33
538.59	1556.46
538.75	1542.41
538.92	1589.22
539.09	1631.35
539.26	1710.93
539.43	1926.26
539.60	1980.09
539.77	2249.25
539.94	2473.95
540.11	2619.06
540.28	2682.25
540.44	2855.45
540.61	2984.18
540.78	3208.87
540.95	3714.43
541.12	4348.72
541.29	5266.21
541.46	5783.46
541.62	6576.91
541.79	7693.34
541.96	7983.57
542.13	8795.73
542.30	9224.05
542.47	8997.02
542.63	8936.17
542.80	8613.17
542.97	8903.40
543.14	8999.36
543.31	9212.35
543.48	9102.34
543.64	9088.30
543.81	9008.72
543.98	8627.21
544.15	8622.53
544.32	8346.35
544.48	7934.42
544.65	7585.68
544.82	7225.23
544.99	7021.61
545.16	6773.51
545.32	6733.72
545.49	9305.97
545.66	16673.98
545.83	22066.57
546.00	18883.44
546.16	12149.72
546.33	8344.01
546.50	5858.36
546.67	4234.03
546.83	3485.06
547.00	3260.37
547.17	2939.71
547.34	2846.09
547.50	2883.54
547.67	2808.64
547.84	2586.29
548.00	2722.04
548.17	2635.44
548.34	2562.89
548.51	2916.31
548.67	2939.71
548.84	3094.19
549.01	2906.95
549.18	3023.97
549.34	2829.71
549.51	2799.28
549.68	2705.66
549.84	2539.48
550.01	2239.89
550.18	2338.20
550.34	2190.74
550.51	2183.72
550.68	2066.69
550.84	1928.60
551.01	1909.88
551.18	1991.80
551.34	1856.04
551.51	1909.88
551.68	1891.15
551.84	1984.77
552.01	1816.26
552.18	1830.30
552.34	1806.89
552.51	1657.10
552.68	1666.46
552.84	1514.33
553.01	1399.64
553.18	1458.15
553.34	1308.36
553.51	1296.66
553.67	1289.64
553.84	1163.25
554.01	1020.47
554.17	983.02
554.34	858.98
554.51	793.44
554.67	784.08
554.84	748.97
555.00	613.22
555.17	613.22
555.33	669.39
555.50	608.54
555.67	636.63
555.83	571.09
556.00	491.51
556.16	641.31
556.33	564.07
556.50	524.28
556.66	447.04
556.83	477.47
556.99	535.98
557.16	421.30
557.32	442.36
557.49	374.49
557.65	510.24
557.82	416.62
557.98	400.23
558.15	458.74
558.32	421.30
558.48	306.61
558.65	341.72
558.81	369.80
558.98	397.89
559.14	393.21
559.31	388.53
559.47	330.02
559.64	421.30
559.80	304.27
559.97	372.15
560.13	526.62
560.30	358.10
560.46	322.99
560.63	369.80
560.79	348.74
560.96	330.02
561.12	362.78
561.29	344.06
561.45	358.10
561.61	301.93
561.78	379.17
561.94	306.61
562.11	341.72
562.27	285.55
562.44	322.99
562.60	304.27
562.77	287.89
562.93	411.93
563.10	397.89
563.26	355.76
563.42	372.15
563.59	369.80
563.75	320.65
563.92	318.31
564.08	369.80
564.24	308.95
564.41	346.40
564.57	248.10
564.74	292.57
564.90	297.25
565.07	285.55
565.23	369.80
565.39	322.99
565.56	311.29
565.72	285.55
565.88	243.42
566.05	238.73
566.21	262.14
566.38	322.99
566.54	297.25
566.70	292.57
566.87	283.20
567.03	276.18
567.19	262.14
567.36	318.31
567.52	334.70
567.68	304.27
567.85	271.50
568.01	285.55
568.17	320.65
568.34	348.74
568.50	346.40
568.66	276.18
568.83	271.50
568.99	220.01
569.15	304.27
569.32	308.95
569.48	285.55
569.64	308.95
569.81	238.73
569.97	203.63
570.13	308.95
570.30	278.52
570.46	210.65
570.62	250.44
570.78	250.44
570.95	259.80
571.11	262.14
571.27	344.06
571.43	238.73
571.60	318.31
571.76	313.63
571.92	276.18
572.09	358.10
572.25	337.04
572.41	353.42
572.57	325.33
572.74	477.47
572.90	351.08
573.06	374.49
573.22	306.61
573.38	325.33
573.55	411.93
573.71	372.15
573.87	330.02
574.03	297.25
574.20	292.57
574.36	372.15
574.52	365.12
574.68	355.76
574.84	390.87
575.01	416.62
575.17	400.23
575.33	372.15
575.49	411.93
575.65	400.23
575.82	353.42
575.98	517.26
576.14	482.15
576.30	755.99
576.46	1926.26
576.62	3325.90
576.79	3794.01
576.95	2843.75
577.11	1839.66
577.27	1411.34
577.43	1011.11
577.59	627.26
577.75	580.45
577.92	535.98
578.08	528.96
578.24	566.41
578.40	833.23
578.56	1881.79
578.72	3112.91
578.88	3740.18
579.04	2988.86
579.21	2118.18
579.37	1593.90
579.53	1495.60
579.69	1397.30
579.85	1519.01
580.01	1851.36
580.17	1839.66
580.33	1678.16
580.49	1486.24
580.65	1301.34
580.82	1226.44
580.98	1130.48
581.14	1219.42
581.30	1221.76
581.46	1275.59
581.62	1284.95
581.78	1369.21
581.94	1437.09
582.10	1401.98
582.26	1423.05
582.42	1533.05
582.58	1540.07
582.74	1703.91
582.90	1743.70
583.06	1956.69
583.22	1834.98
583.38	2047.97
583.54	2050.31
583.70	2005.84
583.86	1933.28
584.02	1914.56
584.18	1874.77
584.34	1769.44
584.50	1739.02
584.66	1696.89
584.82	1652.42
584.98	1575.18
585.14	1448.79
585.30	1598.59
585.46	1530.71
585.62	1439.43
585.78	1490.92
585.94	1533.05
586.10	1401.98
586.26	1561.14
586.42	1743.70
586.58	1949.67
586.74	2289.04
586.90	2782.90
587.06	3033.33
587.22	3023.97
587.38	2778.22
587.54	2572.25
587.70	2392.03
587.86	2127.55
588.02	1900.52
588.18	1853.70
588.34	1685.19
588.49	1556.46
588.65	1458.15
588.81	1394.96
588.97	1331.76
589.13	1345.81
589.29	1291.98
589.45	1240.48
589.61	1418.36
589.77	1357.51
589.93	1371.55
590.08	1212.40
590.24	1240.48
590.40	1245.16
590.56	1238.14
590.72	1217.08
590.88	1193.67
591.04	1179.63
591.20	1205.38
591.35	1226.44
591.51	1165.59
591.67	1153.88
591.83	1263.89
591.99	1364.53
592.15	1355.17
592.31	1462.83
592.46	1650.08
592.62	1792.85
592.78	1860.73
592.94	2008.18
593.10	1870.09
593.26	1776.47
593.41	1633.69
593.57	1392.62
593.73	1329.42
593.89	1191.33
594.05	1069.62
594.20	875.36
594.36	828.55
594.52	748.97
594.68	674.07
594.84	695.14
594.99	711.52
595.15	690.46
595.31	774.72
595.47	690.46
595.62	671.73
595.78	695.14
595.94	772.38
596.10	748.97
596.25	688.12
596.41	748.97
596.57	739.61
596.73	690.46
596.88	697.48
597.04	744.29
597.20	741.95
597.36	690.46
597.51	732.59
597.67	716.20
597.83	866.00
597.99	924.51
598.14	901.11
598.30	931.53
598.46	959.62
598.61	959.62
598.77	1132.82
598.93	1156.22
599.09	1170.27
599.24	1076.65
599.40	1188.99
599.56	1107.07
599.71	1032.18
599.87	1062.60
600.03	980.68
600.18	1006.43
600.34	861.32
600.50	858.98
600.65	758.33
600.81	702.16
600.97	603.86
601.12	664.71
601.28	702.16
601.44	638.97
601.59	608.54
601.75	622.58
601.91	587.47
602.06	643.65
602.22	554.71
602.37	493.85
602.53	404.91
602.69	575.77
602.84	517.26
603.00	477.47
603.16	592.16
603.31	606.20
603.47	526.62
603.62	540.66
603.78	601.52
603.94	613.22
604.09	554.71
604.25	594.50
604.40	533.64
604.56	627.26
604.71	631.94
604.87	561.73
605.03	617.90
605.18	627.26
605.34	564.07
605.49	636.63
605.65	557.05
605.80	629.60
605.96	755.99
606.12	704.50
606.27	730.25
606.43	739.61
606.58	770.04
606.74	755.99
606.89	826.21
607.05	889.40
607.20	884.72
607.36	957.28
607.51	983.02
607.67	1022.81
607.82	1076.65
607.98	1172.61
608.13	1233.46
608.29	1284.95
608.44	1418.36
