SpectraSuite Data File
++++++++++++++++++++++++++++++++++++
Date: Fri Oct 04 11:41:53 GMT-05:00 2013
User: price-jones
Dark Spectrum Present: No
Reference Spectrum Present: No
Number of Sampled Component Spectra: 1
Spectrometers: USB2+H05261
Integration Time (usec): 100000 (USB2+H05261)
Spectra Averaged: 1 (USB2+H05261)
Boxcar Smoothing: 0 (USB2+H05261)
Correct for Electrical Dark: No (USB2+H05261)
Strobe/Lamp Enabled: No (USB2+H05261)
Correct for Detector Non-linearity: No (USB2+H05261)
Correct for Stray Light: No (USB2+H05261)
Number of Pixels in Processed Spectrum: 2048
>>>>>Begin Processed Spectral Data<<<<<
365.73	74.90
365.92	74.90
366.12	74.90
366.32	0.00
366.52	0.00
366.72	0.00
366.91	0.00
367.11	0.00
367.31	0.00
367.51	0.00
367.70	0.00
367.90	30.43
368.10	0.00
368.30	0.00
368.49	0.00
368.69	0.00
368.89	0.00
369.09	0.00
369.28	2.34
369.48	0.00
369.68	7.02
369.87	0.00
370.07	0.00
370.27	28.09
370.47	25.75
370.66	7.02
370.86	58.51
371.06	67.88
371.25	53.83
371.45	21.06
371.65	88.94
371.84	72.56
372.04	44.47
372.24	65.54
372.44	56.17
372.63	121.71
372.83	126.39
373.03	51.49
373.22	93.62
373.42	149.79
373.62	128.73
373.81	222.35
374.01	189.58
374.21	128.73
374.40	98.30
374.60	77.24
374.79	142.77
374.99	142.77
375.19	184.90
375.38	142.77
375.58	117.03
375.78	65.54
375.97	156.82
376.17	168.52
376.37	131.07
376.56	180.22
376.76	112.35
376.95	161.50
377.15	142.77
377.35	126.39
377.54	107.66
377.74	58.51
377.93	95.96
378.13	110.01
378.33	149.79
378.52	168.52
378.72	166.18
378.91	124.05
379.11	65.54
379.31	166.18
379.50	156.82
379.70	180.22
379.89	140.43
380.09	138.09
380.28	70.22
380.48	107.66
380.68	114.69
380.87	65.54
381.07	121.71
381.26	180.22
381.46	133.41
381.65	147.45
381.85	84.26
382.04	147.45
382.24	114.69
382.43	95.96
382.63	128.73
382.83	140.43
383.02	156.82
383.22	159.16
383.41	166.18
383.61	74.90
383.80	142.77
384.00	131.07
384.19	117.03
384.39	117.03
384.58	100.64
384.78	168.52
384.97	114.69
385.17	133.41
385.36	56.17
385.56	133.41
385.75	49.15
385.95	124.05
386.14	138.09
386.34	81.92
386.53	128.73
386.72	72.56
386.92	114.69
387.11	215.33
387.31	114.69
387.50	105.32
387.70	114.69
387.89	140.43
388.09	133.41
388.28	114.69
388.48	112.35
388.67	135.75
388.86	124.05
389.06	177.88
389.25	145.11
389.45	117.03
389.64	77.24
389.84	114.69
390.03	166.18
390.22	145.11
390.42	100.64
390.61	51.49
390.81	191.92
391.00	95.96
391.19	135.75
391.39	102.98
391.58	110.01
391.78	86.60
391.97	102.98
392.16	93.62
392.36	187.24
392.55	110.01
392.75	147.45
392.94	112.35
393.13	100.64
393.33	126.39
393.52	131.07
393.71	156.82
393.91	191.92
394.10	170.86
394.29	133.41
394.49	131.07
394.68	126.39
394.88	175.54
395.07	166.18
395.26	145.11
395.46	117.03
395.65	100.64
395.84	142.77
396.04	177.88
396.23	91.28
396.42	110.01
396.62	152.13
396.81	98.30
397.00	95.96
397.19	65.54
397.39	152.13
397.58	128.73
397.77	198.95
397.97	140.43
398.16	100.64
398.35	166.18
398.55	77.24
398.74	126.39
398.93	152.13
399.12	131.07
399.32	156.82
399.51	117.03
399.70	117.03
399.90	159.16
400.09	182.56
400.28	142.77
400.47	88.94
400.67	114.69
400.86	133.41
401.05	140.43
401.24	147.45
401.44	196.60
401.63	93.62
401.82	229.37
402.01	149.79
402.21	196.60
402.40	138.09
402.59	154.48
402.78	170.86
402.97	168.52
403.17	177.88
403.36	231.71
403.55	290.23
403.74	603.86
403.93	1699.23
404.13	3845.50
404.32	4983.00
404.51	4255.09
404.70	2551.18
404.89	971.32
405.09	330.02
405.28	238.73
405.47	210.65
405.66	215.33
405.85	255.12
406.05	191.92
406.24	236.39
406.43	187.24
406.62	161.50
406.81	212.99
407.00	365.12
407.20	524.28
407.39	631.94
407.58	781.74
407.77	545.34
407.96	327.68
408.15	212.99
408.34	182.56
408.54	152.13
408.73	170.86
408.92	128.73
409.11	180.22
409.30	166.18
409.49	177.88
409.68	217.67
409.87	168.52
410.07	166.18
410.26	208.31
410.45	184.90
410.64	100.64
410.83	159.16
411.02	170.86
411.21	191.92
411.40	180.22
411.59	187.24
411.78	182.56
411.98	292.57
412.17	51.49
412.36	180.22
412.55	189.58
412.74	154.48
412.93	234.05
413.12	210.65
413.31	224.69
413.50	290.23
413.69	170.86
413.88	231.71
414.07	189.58
414.26	114.69
414.45	180.22
414.64	163.84
414.83	184.90
415.02	191.92
415.22	215.33
415.41	161.50
415.60	203.63
415.79	215.33
415.98	269.16
416.17	212.99
416.36	175.54
416.55	234.05
416.74	238.73
416.93	229.37
417.12	222.35
417.31	222.35
417.50	205.97
417.69	215.33
417.88	234.05
418.07	189.58
418.26	248.10
418.45	243.42
418.64	224.69
418.83	271.50
419.02	173.20
419.21	224.69
419.39	210.65
419.58	280.86
419.77	234.05
419.96	250.44
420.15	236.39
420.34	203.63
420.53	245.76
420.72	318.31
420.91	170.86
421.10	210.65
421.29	227.03
421.48	210.65
421.67	255.12
421.86	220.01
422.05	287.89
422.24	222.35
422.43	250.44
422.61	217.67
422.80	308.95
422.99	191.92
423.18	241.08
423.37	355.76
423.56	278.52
423.75	236.39
423.94	257.46
424.13	180.22
424.32	245.76
424.50	327.68
424.69	205.97
424.88	332.36
425.07	285.55
425.26	259.80
425.45	259.80
425.64	255.12
425.83	257.46
426.01	248.10
426.20	257.46
426.39	212.99
426.58	234.05
426.77	322.99
426.96	278.52
427.15	306.61
427.33	332.36
427.52	285.55
427.71	355.76
427.90	294.91
428.09	241.08
428.28	273.84
428.46	297.25
428.65	266.82
428.84	318.31
429.03	322.99
429.22	243.42
429.40	337.04
429.59	182.56
429.78	290.23
429.97	283.20
430.16	266.82
430.34	304.27
430.53	287.89
430.72	283.20
430.91	269.16
431.10	297.25
431.28	365.12
431.47	358.10
431.66	379.17
431.85	341.72
432.03	330.02
432.22	315.97
432.41	390.87
432.60	390.87
432.79	355.76
432.97	358.10
433.16	425.98
433.35	472.79
433.54	496.19
433.72	430.66
433.91	456.40
434.10	517.26
434.28	636.63
434.47	727.91
434.66	828.55
434.85	980.68
435.03	2745.45
435.22	10574.54
435.41	22005.72
435.59	21685.06
435.78	14211.73
435.97	7030.97
436.16	2778.22
436.34	1029.84
436.53	704.50
436.72	477.47
436.90	526.62
437.09	461.09
437.28	484.49
437.46	440.02
437.65	355.76
437.84	379.17
438.02	428.32
438.21	421.30
438.40	381.51
438.58	346.40
438.77	468.11
438.96	266.82
439.14	367.46
439.33	348.74
439.52	372.15
439.70	351.08
439.89	330.02
440.08	280.86
440.26	362.78
440.45	437.68
440.63	351.08
440.82	409.59
441.01	358.10
441.19	365.12
441.38	402.57
441.57	351.08
441.75	402.57
441.94	376.83
442.12	318.31
442.31	390.87
442.50	376.83
442.68	393.21
442.87	407.25
443.05	421.30
443.24	372.15
443.43	451.72
443.61	355.76
443.80	334.70
443.98	327.68
444.17	379.17
444.35	344.06
444.54	449.38
444.73	381.51
444.91	297.25
445.10	435.34
445.28	297.25
445.47	327.68
445.65	372.15
445.84	332.36
446.02	425.98
446.21	346.40
446.39	325.33
446.58	433.00
446.77	365.12
446.95	379.17
447.14	372.15
447.32	402.57
447.51	372.15
447.69	353.42
447.88	411.93
448.06	407.25
448.25	311.29
448.43	348.74
448.62	383.85
448.80	318.31
448.99	355.76
449.17	404.91
449.36	390.87
449.54	388.53
449.73	353.42
449.91	339.38
450.10	353.42
450.28	458.74
450.46	411.93
450.65	491.51
450.83	351.08
451.02	360.44
451.20	313.63
451.39	358.10
451.57	388.53
451.76	421.30
451.94	334.70
452.13	344.06
452.31	339.38
452.49	397.89
452.68	332.36
452.86	421.30
453.05	456.40
453.23	407.25
453.42	327.68
453.60	306.61
453.78	404.91
453.97	411.93
454.15	344.06
454.34	334.70
454.52	332.36
454.70	369.80
454.89	341.72
455.07	449.38
455.26	360.44
455.44	430.66
455.62	315.97
455.81	334.70
455.99	449.38
456.17	362.78
456.36	334.70
456.54	315.97
456.73	322.99
456.91	327.68
457.09	390.87
457.28	381.51
457.46	393.21
457.64	351.08
457.83	463.43
458.01	337.04
458.19	379.17
458.38	330.02
458.56	411.93
458.74	442.36
458.93	351.08
459.11	344.06
459.29	360.44
459.48	374.49
459.66	283.20
459.84	262.14
460.03	500.87
460.21	308.95
460.39	318.31
460.57	339.38
460.76	337.04
460.94	353.42
461.12	318.31
461.31	339.38
461.49	358.10
461.67	365.12
461.85	334.70
462.04	362.78
462.22	809.83
462.40	341.72
462.59	440.02
462.77	320.65
462.95	294.91
463.13	362.78
463.32	433.00
463.50	355.76
463.68	287.89
463.86	304.27
464.05	374.49
464.23	358.10
464.41	437.68
464.59	390.87
464.78	369.80
464.96	367.46
465.14	390.87
465.32	299.59
465.50	327.68
465.69	337.04
465.87	334.70
466.05	334.70
466.23	322.99
466.41	269.16
466.60	383.85
466.78	318.31
466.96	409.59
467.14	334.70
467.32	402.57
467.51	440.02
467.69	346.40
467.87	346.40
468.05	351.08
468.23	397.89
468.41	318.31
468.60	311.29
468.78	320.65
468.96	348.74
469.14	428.32
469.32	379.17
469.50	262.14
469.69	344.06
469.87	414.27
470.05	348.74
470.23	299.59
470.41	381.51
470.59	339.38
470.77	395.55
470.95	341.72
471.14	451.72
471.32	325.33
471.50	367.46
471.68	404.91
471.86	358.10
472.04	367.46
472.22	255.12
472.40	330.02
472.58	292.57
472.77	360.44
472.95	437.68
473.13	421.30
473.31	372.15
473.49	315.97
473.67	365.12
473.85	407.25
474.03	381.51
474.21	365.12
474.39	353.42
474.57	374.49
474.75	355.76
474.93	257.46
475.12	299.59
475.30	339.38
475.48	423.64
475.66	402.57
475.84	337.04
476.02	259.80
476.20	386.19
476.38	353.42
476.56	411.93
476.74	315.97
476.92	341.72
477.10	332.36
477.28	409.59
477.46	414.27
477.64	421.30
477.82	397.89
478.00	390.87
478.18	346.40
478.36	470.45
478.54	355.76
478.72	421.30
478.90	381.51
479.08	404.91
479.26	351.08
479.44	346.40
479.62	425.98
479.80	435.34
479.98	402.57
480.16	519.60
480.34	500.87
480.52	491.51
480.70	510.24
480.88	547.69
481.06	540.66
481.24	634.29
481.41	624.92
481.59	638.97
481.77	741.95
481.95	683.44
482.13	669.39
482.31	751.31
482.49	858.98
482.67	938.55
482.85	908.13
483.03	1027.50
483.21	1121.12
483.39	1064.94
483.57	1177.29
483.74	1287.29
483.92	1348.15
484.10	1329.42
484.28	1434.75
484.46	1465.18
484.64	1526.03
484.82	1511.99
485.00	1734.34
485.18	1853.70
485.35	1937.96
485.53	1973.07
485.71	2043.29
485.89	2085.42
486.07	2143.93
486.25	2347.56
486.43	2225.85
486.61	2230.53
486.78	2183.72
486.96	2179.04
487.14	2328.83
487.32	2181.38
487.50	2186.06
487.68	2324.15
487.85	2104.14
488.03	2125.21
488.21	2120.53
488.39	2050.31
488.57	2062.01
488.75	2047.97
488.92	2246.91
489.10	1895.83
489.28	1947.33
489.46	1809.23
489.64	1867.75
489.81	1795.19
489.99	1799.87
490.17	1746.04
490.35	1877.11
490.53	1750.72
490.70	1732.00
490.88	1717.95
491.06	1827.96
491.24	1994.14
491.41	2029.24
491.59	1968.39
491.77	1774.13
491.95	1617.31
492.13	1540.07
492.30	1551.78
492.48	1589.22
492.66	1511.99
492.84	1500.28
493.01	1523.69
493.19	1453.47
493.37	1444.11
493.54	1458.15
493.72	1446.45
493.90	1366.87
494.08	1399.64
494.25	1364.53
494.43	1401.98
494.61	1437.09
494.79	1247.51
494.96	1240.48
495.14	1352.83
495.32	1359.85
495.49	1177.29
495.67	1284.95
495.85	1203.04
496.02	1104.73
496.20	1146.86
496.38	1158.57
496.55	1142.18
496.73	1158.57
496.91	1046.22
497.09	1083.67
497.26	1060.26
497.44	1109.41
497.62	1062.60
497.79	976.00
497.97	964.30
498.14	917.49
498.32	945.58
498.50	884.72
498.67	816.85
498.85	908.13
499.03	842.59
499.20	873.02
499.38	765.36
499.56	781.74
499.73	884.72
499.91	908.13
500.08	830.89
500.26	758.33
500.44	713.86
500.61	648.33
500.79	631.94
500.97	699.82
501.14	730.25
501.32	662.37
501.49	660.03
501.67	596.84
501.84	606.20
502.02	528.96
502.20	622.58
502.37	564.07
502.55	489.17
502.72	547.69
502.90	620.24
503.07	566.41
503.25	486.83
503.43	528.96
503.60	512.58
503.78	458.74
503.95	475.13
504.13	463.43
504.30	456.40
504.48	503.22
504.65	486.83
504.83	582.79
505.01	479.81
505.18	503.22
505.36	521.94
505.53	493.85
505.71	449.38
505.88	479.81
506.06	327.68
506.23	416.62
506.41	337.04
506.58	421.30
506.76	477.47
506.93	489.17
507.11	379.17
507.28	400.23
507.46	404.91
507.63	386.19
507.81	355.76
507.98	416.62
508.16	360.44
508.33	397.89
508.50	468.11
508.68	437.68
508.85	425.98
509.03	451.72
509.20	435.34
509.38	442.36
509.55	365.12
509.73	468.11
509.90	362.78
510.08	330.02
510.25	379.17
510.42	325.33
510.60	327.68
510.77	418.96
510.95	386.19
511.12	325.33
511.30	308.95
511.47	386.19
511.64	465.77
511.82	297.25
511.99	278.52
512.17	355.76
512.34	388.53
512.51	330.02
512.69	313.63
512.86	334.70
513.04	358.10
513.21	390.87
513.38	404.91
513.56	306.61
513.73	339.38
513.90	369.80
514.08	351.08
514.25	346.40
514.43	348.74
514.60	344.06
514.77	269.16
514.95	346.40
515.12	287.89
515.29	348.74
515.47	320.65
515.64	360.44
515.81	313.63
515.99	306.61
516.16	393.21
516.33	315.97
516.51	308.95
516.68	276.18
516.85	315.97
517.03	301.93
517.20	297.25
517.37	393.21
517.54	313.63
517.72	327.68
517.89	280.86
518.06	271.50
518.24	379.17
518.41	292.57
518.58	374.49
518.75	266.82
518.93	355.76
519.10	337.04
519.27	344.06
519.45	313.63
519.62	313.63
519.79	341.72
519.96	290.23
520.14	280.86
520.31	327.68
520.48	285.55
520.65	250.44
520.83	311.29
521.00	376.83
521.17	276.18
521.34	248.10
521.52	290.23
521.69	318.31
521.86	374.49
522.03	297.25
522.20	262.14
522.38	325.33
522.55	306.61
522.72	318.31
522.89	346.40
523.07	358.10
523.24	367.46
523.41	304.27
523.58	337.04
523.75	322.99
523.92	332.36
524.10	355.76
524.27	351.08
524.44	362.78
524.61	411.93
524.78	341.72
524.96	416.62
525.13	400.23
525.30	383.85
525.47	402.57
525.64	327.68
525.81	355.76
525.98	362.78
526.16	358.10
526.33	322.99
526.50	299.59
526.67	313.63
526.84	292.57
527.01	318.31
527.18	442.36
527.36	470.45
527.53	505.56
527.70	479.81
527.87	397.89
528.04	458.74
528.21	381.51
528.38	369.80
528.55	404.91
528.72	393.21
528.89	458.74
529.07	409.59
529.24	369.80
529.41	484.49
529.58	442.36
529.75	442.36
529.92	491.51
530.09	440.02
530.26	493.85
530.43	388.53
530.60	486.83
530.77	449.38
530.94	503.22
531.11	458.74
531.28	411.93
531.46	461.09
531.63	519.60
531.80	521.94
531.97	634.29
532.14	641.31
532.31	688.12
532.48	765.36
532.65	837.91
532.82	1060.26
532.99	1142.18
533.16	1439.43
533.33	1418.36
533.50	1303.68
533.67	1027.50
533.84	1041.54
534.01	952.60
534.18	847.27
534.35	873.02
534.52	896.43
534.69	964.30
534.86	964.30
535.03	966.64
535.20	957.28
535.37	992.39
535.54	1104.73
535.71	1064.94
535.88	1188.99
536.05	1266.23
536.22	1263.89
536.38	1411.34
536.55	1521.35
536.72	1612.63
536.89	1853.70
537.06	2139.25
537.23	2359.26
537.40	2499.69
537.57	2778.22
537.74	2846.09
537.91	3007.59
538.08	2881.20
538.25	3007.59
538.42	3126.96
538.59	3108.23
538.75	3234.62
538.92	3335.26
539.09	3859.54
539.26	4049.13
539.43	4784.06
539.60	5259.18
539.77	5902.83
539.94	6572.22
540.11	7222.89
540.28	7651.21
540.44	8655.30
540.61	9586.83
540.78	10832.00
540.95	13085.94
541.12	15754.15
541.29	17439.33
541.46	18223.41
541.62	17687.43
541.79	17146.76
541.96	16044.37
542.13	14527.71
542.30	13860.65
542.47	13231.05
542.63	12659.96
542.80	11796.30
542.97	12074.82
543.14	11948.43
543.31	11838.43
543.48	12114.61
543.64	12278.45
543.81	11997.59
543.98	12079.50
544.15	12556.97
544.32	12395.48
544.48	12395.48
544.65	12039.72
544.82	11885.24
544.99	12105.25
545.16	12248.02
545.32	13181.90
545.49	22981.72
545.66	41507.06
545.83	49378.28
546.00	41134.92
546.16	27941.32
546.33	20868.22
546.50	15522.43
546.67	12519.53
546.83	11035.63
547.00	10658.80
547.17	10235.16
547.34	9762.37
547.50	9437.04
547.67	8980.64
547.84	8526.57
548.00	8259.75
548.17	8121.66
548.34	7513.12
548.51	7372.69
548.67	7045.01
548.84	6766.49
549.01	6377.96
549.18	6101.78
549.34	5879.43
549.51	5851.34
549.68	5455.79
549.84	5317.70
550.01	5081.30
550.18	4851.93
550.34	4545.32
550.51	4355.74
550.68	4215.30
550.84	3777.62
551.01	3676.98
551.18	3562.30
551.34	3353.99
551.51	3248.66
551.68	3253.34
551.84	3112.91
552.01	2960.78
552.18	2890.56
552.34	2761.83
552.51	2635.44
552.68	2410.75
552.84	2490.33
553.01	2478.63
553.18	2387.35
553.34	2193.08
553.51	2181.38
553.67	2057.33
553.84	1982.43
554.01	1954.35
554.17	1741.36
554.34	1650.08
554.51	1619.65
554.67	1472.20
554.84	1401.98
555.00	1432.41
555.17	1334.11
555.33	1217.08
555.50	1090.69
555.67	1165.59
555.83	1090.69
556.00	1118.78
556.16	1109.41
556.33	938.55
556.50	994.73
556.66	891.74
556.83	929.19
556.99	887.06
557.16	807.48
557.32	894.08
557.49	809.83
557.65	791.10
557.82	697.48
557.98	763.01
558.15	760.67
558.32	690.46
558.48	849.61
558.65	676.41
558.81	741.95
558.98	620.24
559.14	634.29
559.31	674.07
559.47	676.41
559.64	641.31
559.80	688.12
559.97	615.56
560.13	648.33
560.30	631.94
560.46	688.12
560.63	650.67
560.79	528.96
560.96	610.88
561.12	631.94
561.29	543.00
561.45	564.07
561.61	568.75
561.78	683.44
561.94	631.94
562.11	524.28
562.27	580.45
562.44	653.01
562.60	589.82
562.77	512.58
562.93	641.31
563.10	543.00
563.26	489.17
563.42	545.34
563.59	486.83
563.75	482.15
563.92	552.37
564.08	486.83
564.24	580.45
564.41	521.94
564.57	498.53
564.74	505.56
564.90	517.26
565.07	463.43
565.23	507.90
565.39	463.43
565.56	587.47
565.72	442.36
565.88	407.25
566.05	472.79
566.21	437.68
566.38	531.30
566.54	433.00
566.70	458.74
566.87	540.66
567.03	533.64
567.19	477.47
567.36	500.87
567.52	514.92
567.68	458.74
567.85	507.90
568.01	489.17
568.17	470.45
568.34	538.32
568.50	545.34
568.66	454.06
568.83	587.47
568.99	449.38
569.15	543.00
569.32	479.81
569.48	456.40
569.64	390.87
569.81	498.53
569.97	423.64
570.13	468.11
570.30	428.32
570.46	337.04
570.62	397.89
570.78	386.19
570.95	379.17
571.11	479.81
571.27	355.76
571.43	425.98
571.60	489.17
571.76	397.89
571.92	313.63
572.09	407.25
572.25	425.98
572.41	360.44
572.57	376.83
572.74	486.83
572.90	425.98
573.06	381.51
573.22	435.34
573.38	477.47
573.55	486.83
573.71	341.72
573.87	479.81
574.03	451.72
574.20	428.32
574.36	491.51
574.52	381.51
574.68	451.72
574.84	503.22
575.01	484.49
575.17	498.53
575.33	468.11
575.49	622.58
575.65	641.31
575.82	610.88
575.98	697.48
576.14	741.95
576.30	1516.67
576.46	5165.56
576.62	8355.71
576.79	8554.66
576.95	5989.43
577.11	3889.97
577.27	2883.54
577.43	1947.33
577.59	1275.59
577.75	1071.97
577.92	997.07
578.08	987.71
578.24	1020.47
578.40	1706.25
578.56	4589.79
578.72	7461.63
578.88	7433.54
579.04	5483.88
579.21	4032.74
579.37	3012.27
579.53	2396.71
579.69	2448.20
579.85	2918.65
580.01	3267.39
580.17	3164.40
580.33	2679.91
580.49	2408.41
580.65	2057.33
580.82	1909.88
580.98	1884.13
581.14	1886.47
581.30	1977.75
581.46	2216.49
581.62	2328.83
581.78	2450.54
581.94	2637.78
582.10	2761.83
582.26	2888.22
582.42	2953.76
582.58	3089.51
582.74	3070.78
582.90	3052.06
583.06	3213.56
583.22	3117.59
583.38	3201.85
583.54	3201.85
583.70	3180.79
583.86	3091.85
584.02	3038.02
584.18	3187.81
584.34	2981.84
584.50	2888.22
584.66	2787.58
584.82	2991.20
584.98	2820.35
585.14	2785.24
585.30	2736.09
585.46	2595.65
585.62	2558.21
585.78	2654.17
585.94	2623.74
586.10	2803.96
586.26	2930.35
586.42	3321.22
586.58	3824.44
586.74	4652.98
586.90	5572.82
587.06	6104.12
587.22	5977.73
587.38	5453.45
587.54	4575.75
587.70	3810.39
587.86	3424.20
588.02	2944.39
588.18	2497.35
588.34	2218.83
588.49	2176.70
588.65	1973.07
588.81	1970.73
588.97	1860.73
589.13	1811.57
589.29	1769.44
589.45	1778.81
589.61	1743.70
589.77	1811.57
589.93	1893.49
590.08	1884.13
590.24	2017.54
590.40	1940.30
590.56	2069.03
590.72	2125.21
590.88	2097.12
591.04	2249.25
591.20	2188.40
591.35	2410.75
591.51	2532.46
591.67	2546.50
591.83	2752.47
591.99	2806.30
592.15	3049.72
592.31	3370.37
592.46	3709.75
592.62	4149.77
592.78	4238.71
592.94	4404.89
593.10	4318.29
593.26	4138.07
593.41	3822.09
593.57	3428.88
593.73	3075.46
593.89	2754.81
594.05	2352.24
594.20	2106.48
594.36	2022.22
594.52	1816.26
594.68	1710.93
594.84	1755.40
594.99	1732.00
595.15	1673.48
595.31	1664.12
595.47	1685.19
595.62	1671.14
595.78	1600.93
595.94	1589.22
596.10	1626.67
596.25	1647.74
596.41	1659.44
596.57	1537.73
596.73	1540.07
596.88	1575.18
597.04	1598.59
597.20	1551.78
597.36	1631.35
597.51	1640.72
597.67	1682.85
597.83	1905.20
597.99	1912.22
598.14	1902.86
598.30	2214.15
598.46	2253.94
598.61	2450.54
598.77	2480.97
598.93	2422.45
599.09	2630.76
599.24	2656.51
599.40	2684.59
599.56	2612.04
599.71	2413.09
599.87	2317.13
600.03	2179.04
600.18	2012.86
600.34	1874.77
600.50	1783.49
600.65	1671.14
600.81	1593.90
600.97	1462.83
601.12	1497.94
601.28	1390.28
601.44	1303.68
601.59	1310.70
601.75	1270.91
601.91	1224.10
602.06	1135.16
602.22	1156.22
602.37	1114.10
602.53	1146.86
602.69	1036.86
602.84	1074.31
603.00	1118.78
603.16	1188.99
603.31	1135.16
603.47	1200.69
603.62	1146.86
603.78	1242.82
603.94	1238.14
604.09	1203.04
604.25	1203.04
604.40	1210.06
604.56	1226.44
604.71	1193.67
604.87	1322.40
605.03	1399.64
605.18	1425.39
605.34	1425.39
605.49	1385.60
605.65	1420.71
605.80	1481.56
605.96	1535.39
