SpectraSuite Data File
++++++++++++++++++++++++++++++++++++
Date: Fri Oct 04 11:41:43 GMT-05:00 2013
User: price-jones
Dark Spectrum Present: No
Reference Spectrum Present: No
Number of Sampled Component Spectra: 1
Spectrometers: USB2+H05261
Integration Time (usec): 100000 (USB2+H05261)
Spectra Averaged: 1 (USB2+H05261)
Boxcar Smoothing: 0 (USB2+H05261)
Correct for Electrical Dark: No (USB2+H05261)
Strobe/Lamp Enabled: No (USB2+H05261)
Correct for Detector Non-linearity: No (USB2+H05261)
Correct for Stray Light: No (USB2+H05261)
Number of Pixels in Processed Spectrum: 2048
>>>>>Begin Processed Spectral Data<<<<<
365.73	42.13
365.92	42.13
366.12	42.13
366.32	0.00
366.52	0.00
366.72	0.00
366.91	0.00
367.11	0.00
367.31	0.00
367.51	0.00
367.70	0.00
367.90	0.00
368.10	0.00
368.30	0.00
368.49	0.00
368.69	0.00
368.89	0.00
369.09	0.00
369.28	0.00
369.48	9.36
369.68	0.00
369.87	0.00
370.07	0.00
370.27	11.70
370.47	0.00
370.66	67.88
370.86	60.85
371.06	121.71
371.25	30.43
371.45	100.64
371.65	102.98
371.84	67.88
372.04	110.01
372.24	60.85
372.44	95.96
372.63	112.35
372.83	84.26
373.03	49.15
373.22	135.75
373.42	131.07
373.62	145.11
373.81	102.98
374.01	107.66
374.21	175.54
374.40	152.13
374.60	161.50
374.79	121.71
374.99	117.03
375.19	98.30
375.38	163.84
375.58	152.13
375.78	95.96
375.97	194.26
376.17	262.14
376.37	149.79
376.56	154.48
376.76	114.69
376.95	128.73
377.15	154.48
377.35	107.66
377.54	177.88
377.74	126.39
377.93	105.32
378.13	100.64
378.33	91.28
378.52	147.45
378.72	170.86
378.91	180.22
379.11	95.96
379.31	145.11
379.50	128.73
379.70	154.48
379.89	168.52
380.09	138.09
380.28	133.41
380.48	140.43
380.68	114.69
380.87	119.37
381.07	187.24
381.26	189.58
381.46	163.84
381.65	224.69
381.85	77.24
382.04	86.60
382.24	189.58
382.43	58.51
382.63	39.79
382.83	140.43
383.02	170.86
383.22	102.98
383.41	112.35
383.61	84.26
383.80	114.69
384.00	60.85
384.19	112.35
384.39	166.18
384.58	161.50
384.78	126.39
384.97	163.84
385.17	100.64
385.36	91.28
385.56	100.64
385.75	112.35
385.95	152.13
386.14	170.86
386.34	105.32
386.53	117.03
386.72	117.03
386.92	149.79
387.11	135.75
387.31	140.43
387.50	142.77
387.70	133.41
387.89	117.03
388.09	107.66
388.28	65.54
388.48	60.85
388.67	142.77
388.86	138.09
389.06	121.71
389.25	117.03
389.45	168.52
389.64	156.82
389.84	175.54
390.03	166.18
390.22	70.22
390.42	140.43
390.61	149.79
390.81	79.58
391.00	194.26
391.19	126.39
391.39	56.17
391.58	145.11
391.78	161.50
391.97	149.79
392.16	161.50
392.36	208.31
392.55	156.82
392.75	187.24
392.94	84.26
393.13	147.45
393.33	74.90
393.52	147.45
393.71	147.45
393.91	128.73
394.10	112.35
394.29	100.64
394.49	95.96
394.68	147.45
394.88	163.84
395.07	220.01
395.26	147.45
395.46	91.28
395.65	140.43
395.84	224.69
396.04	264.48
396.23	100.64
396.42	126.39
396.62	152.13
396.81	166.18
397.00	128.73
397.19	156.82
397.39	100.64
397.58	210.65
397.77	152.13
397.97	131.07
398.16	145.11
398.35	142.77
398.55	117.03
398.74	81.92
398.93	198.95
399.12	37.45
399.32	110.01
399.51	180.22
399.70	189.58
399.90	163.84
400.09	156.82
400.28	133.41
400.47	124.05
400.67	194.26
400.86	173.20
401.05	168.52
401.24	196.60
401.44	248.10
401.63	236.39
401.82	231.71
402.01	196.60
402.21	184.90
402.40	215.33
402.59	229.37
402.78	180.22
402.97	250.44
403.17	264.48
403.36	334.70
403.55	379.17
403.74	774.72
403.93	2305.43
404.13	5954.32
404.32	9996.43
404.51	11176.06
404.70	7098.84
404.89	2387.35
405.09	709.18
405.28	348.74
405.47	325.33
405.66	187.24
405.85	241.08
406.05	201.29
406.24	266.82
406.43	241.08
406.62	259.80
406.81	315.97
407.00	435.34
407.20	685.78
407.39	1139.84
407.58	1526.03
407.77	1245.16
407.96	629.60
408.15	344.06
408.34	264.48
408.54	283.20
408.73	229.37
408.92	184.90
409.11	234.05
409.30	191.92
409.49	205.97
409.68	257.46
409.87	299.59
410.07	224.69
410.26	227.03
410.45	250.44
410.64	203.63
410.83	238.73
411.02	163.84
411.21	245.76
411.40	285.55
411.59	259.80
411.78	252.78
411.98	243.42
412.17	215.33
412.36	301.93
412.55	177.88
412.74	224.69
412.93	301.93
413.12	276.18
413.31	278.52
413.50	271.50
413.69	290.23
413.88	301.93
414.07	262.14
414.26	367.46
414.45	280.86
414.64	292.57
414.83	297.25
415.02	308.95
415.22	292.57
415.41	327.68
415.60	273.84
415.79	273.84
415.98	322.99
416.17	301.93
416.36	292.57
416.55	273.84
416.74	306.61
416.93	358.10
417.12	241.08
417.31	348.74
417.50	236.39
417.69	248.10
417.88	355.76
418.07	259.80
418.26	332.36
418.45	353.42
418.64	425.98
418.83	294.91
419.02	313.63
419.21	271.50
419.39	351.08
419.58	297.25
419.77	337.04
419.96	318.31
420.15	287.89
420.34	388.53
420.53	376.83
420.72	365.12
420.91	381.51
421.10	344.06
421.29	315.97
421.48	353.42
421.67	294.91
421.86	358.10
422.05	322.99
422.24	362.78
422.43	442.36
422.61	381.51
422.80	379.17
422.99	388.53
423.18	322.99
423.37	430.66
423.56	376.83
423.75	320.65
423.94	386.19
424.13	390.87
424.32	299.59
424.50	404.91
424.69	402.57
424.88	344.06
425.07	379.17
425.26	451.72
425.45	381.51
425.64	409.59
425.83	407.25
426.01	393.21
426.20	435.34
426.39	454.06
426.58	447.04
426.77	489.17
426.96	475.13
427.15	496.19
427.33	447.04
427.52	355.76
427.71	369.80
427.90	437.68
428.09	390.87
428.28	400.23
428.46	484.49
428.65	447.04
428.84	435.34
429.03	468.11
429.22	503.22
429.40	463.43
429.59	451.72
429.78	479.81
429.97	491.51
430.16	484.49
430.34	470.45
430.53	491.51
430.72	517.26
430.91	444.70
431.10	552.37
431.28	531.30
431.47	524.28
431.66	578.11
431.85	585.13
432.03	538.32
432.22	613.22
432.41	587.47
432.60	615.56
432.79	554.71
432.97	648.33
433.16	575.77
433.35	730.25
433.54	784.08
433.72	964.30
433.91	1001.75
434.10	968.98
434.28	1153.88
434.47	1373.89
434.66	1551.78
434.85	1771.79
435.03	4021.04
435.22	14146.20
435.41	36914.93
435.59	51304.54
435.78	41041.29
435.97	18129.79
436.16	6712.66
436.34	2174.36
436.53	1277.93
436.72	919.83
436.90	826.21
437.09	713.86
437.28	753.65
437.46	664.71
437.65	791.10
437.84	641.31
438.02	645.99
438.21	727.91
438.40	552.37
438.58	587.47
438.77	596.84
438.96	580.45
439.14	636.63
439.33	690.46
439.52	582.79
439.70	615.56
439.89	608.54
440.08	594.50
440.26	631.94
440.45	594.50
440.63	650.67
440.82	589.82
441.01	512.58
441.19	582.79
441.38	622.58
441.57	634.29
441.75	674.07
441.94	748.97
442.12	624.92
442.31	533.64
442.50	592.16
442.68	564.07
442.87	624.92
443.05	580.45
443.24	678.76
443.43	631.94
443.61	606.20
443.80	674.07
443.98	599.18
444.17	685.78
444.35	671.73
444.54	676.41
444.73	655.35
444.91	634.29
445.10	587.47
445.28	596.84
445.47	599.18
445.65	585.13
445.84	683.44
446.02	613.22
446.21	498.53
446.39	629.60
446.58	578.11
446.77	645.99
446.95	582.79
447.14	627.26
447.32	615.56
447.51	615.56
447.69	585.13
447.88	559.39
448.06	571.09
448.25	571.09
448.43	592.16
448.62	545.34
448.80	594.50
448.99	496.19
449.17	571.09
449.36	524.28
449.54	664.71
449.73	559.39
449.91	676.41
450.10	554.71
450.28	622.58
450.46	599.18
450.65	578.11
450.83	638.97
451.02	653.01
451.20	711.52
451.39	613.22
451.57	552.37
451.76	599.18
451.94	573.43
452.13	601.52
452.31	592.16
452.49	669.39
452.68	660.03
452.86	655.35
453.05	664.71
453.23	695.14
453.42	568.75
453.60	629.60
453.78	578.11
453.97	517.26
454.15	575.77
454.34	620.24
454.52	573.43
454.70	599.18
454.89	573.43
455.07	627.26
455.26	606.20
455.44	491.51
455.62	528.96
455.81	554.71
455.99	650.67
456.17	627.26
456.36	599.18
456.54	573.43
456.73	603.86
456.91	594.50
457.09	589.82
457.28	702.16
457.46	587.47
457.64	615.56
457.83	503.22
458.01	557.05
458.19	587.47
458.38	641.31
458.56	528.96
458.74	531.30
458.93	514.92
459.11	629.60
459.29	587.47
459.48	692.80
459.66	645.99
459.84	608.54
460.03	566.41
460.21	603.86
460.39	601.52
460.57	599.18
460.76	624.92
460.94	528.96
461.12	557.05
461.31	634.29
461.49	566.41
461.67	533.64
461.85	550.03
462.04	603.86
462.22	751.31
462.40	594.50
462.59	596.84
462.77	500.87
462.95	634.29
463.13	573.43
463.32	648.33
463.50	543.00
463.68	575.77
463.86	589.82
464.05	592.16
464.23	589.82
464.41	648.33
464.59	629.60
464.78	653.01
464.96	589.82
465.14	559.39
465.32	538.32
465.50	580.45
465.69	624.92
465.87	510.24
466.05	615.56
466.23	613.22
466.41	571.09
466.60	603.86
466.78	653.01
466.96	667.05
467.14	592.16
467.32	610.88
467.51	620.24
467.69	596.84
467.87	620.24
468.05	554.71
468.23	566.41
468.41	517.26
468.60	531.30
468.78	566.41
468.96	486.83
469.14	561.73
469.32	535.98
469.50	500.87
469.69	547.69
469.87	545.34
470.05	472.79
470.23	456.40
470.41	482.15
470.59	503.22
470.77	575.77
470.95	519.60
471.14	547.69
471.32	543.00
471.50	610.88
471.68	573.43
471.86	543.00
472.04	507.90
472.22	594.50
472.40	578.11
472.58	510.24
472.77	557.05
472.95	601.52
473.13	566.41
473.31	543.00
473.49	596.84
473.67	554.71
473.85	545.34
474.03	557.05
474.21	514.92
474.39	559.39
474.57	472.79
474.75	547.69
474.93	629.60
475.12	540.66
475.30	533.64
475.48	564.07
475.66	568.75
475.84	589.82
476.02	547.69
476.20	580.45
476.38	545.34
476.56	641.31
476.74	559.39
476.92	538.32
477.10	521.94
477.28	561.73
477.46	599.18
477.64	613.22
477.82	561.73
478.00	622.58
478.18	648.33
478.36	671.73
478.54	606.20
478.72	627.26
478.90	631.94
479.08	674.07
479.26	653.01
479.44	772.38
479.62	718.54
479.80	767.70
479.98	772.38
480.16	755.99
480.34	812.17
480.52	903.45
480.70	1004.09
480.88	894.08
481.06	987.71
481.24	992.39
481.41	1055.58
481.59	1102.39
481.77	1128.14
481.95	1277.93
482.13	1317.72
482.31	1444.11
482.49	1549.43
482.67	1689.87
482.85	1797.53
483.03	1895.83
483.21	1998.82
483.39	2162.66
483.57	2232.87
483.74	2464.58
483.92	2509.05
484.10	2614.38
484.28	2766.51
484.46	2949.08
484.64	3054.40
484.82	3143.34
485.00	3335.26
485.18	3597.40
485.35	3894.65
485.53	4023.38
485.71	4257.43
485.89	4437.66
486.07	4425.95
486.25	4695.11
486.43	4716.18
486.61	4758.31
486.78	4608.51
486.96	4692.77
487.14	4650.64
487.32	4706.82
487.50	4589.79
487.68	4575.75
487.85	4580.43
488.03	4461.06
488.21	4409.57
488.39	4311.27
488.57	4269.14
488.75	4051.47
488.92	4182.54
489.10	3868.91
489.28	3831.46
489.46	3669.96
489.64	3691.02
489.81	3660.60
489.99	3487.40
490.17	3463.99
490.35	3550.59
490.53	3557.61
490.70	3435.91
490.88	3431.23
491.06	3721.45
491.24	3871.25
491.41	4018.70
491.59	3751.88
491.77	3426.54
491.95	3323.56
492.13	3279.09
492.30	3194.83
492.48	3068.44
492.66	3016.95
492.84	3080.14
493.01	3016.95
493.19	2958.44
493.37	2939.71
493.54	2825.03
493.72	2991.20
493.90	2654.17
494.08	2663.53
494.25	2590.97
494.43	2775.88
494.61	2799.28
494.79	2569.91
494.96	2541.82
495.14	2532.46
495.32	2459.90
495.49	2445.86
495.67	2345.22
495.85	2312.45
496.02	2223.51
496.20	2354.58
496.38	2218.83
496.55	2176.70
496.73	2293.72
496.91	2232.87
497.09	1977.75
497.26	2083.08
497.44	2022.22
497.62	2001.16
497.79	1975.41
497.97	2005.84
498.14	1898.17
498.32	1879.45
498.50	1898.17
498.67	1774.13
498.85	1748.38
499.03	1664.12
499.20	1591.56
499.38	1582.20
499.56	1584.54
499.73	1558.80
499.91	1547.09
500.08	1521.35
500.26	1425.39
500.44	1341.13
500.61	1341.13
500.79	1245.16
500.97	1275.59
501.14	1306.02
501.32	1238.14
501.49	1170.27
501.67	1067.28
501.84	1224.10
502.02	1055.58
502.20	1013.45
502.37	1029.84
502.55	1011.11
502.72	952.60
502.90	901.11
503.07	919.83
503.25	1015.79
503.43	837.91
503.60	849.61
503.78	849.61
503.95	781.74
504.13	739.61
504.30	765.36
504.48	873.02
504.65	835.57
504.83	760.67
505.01	779.40
505.18	755.99
505.36	702.16
505.53	669.39
505.71	627.26
505.88	671.73
506.06	624.92
506.23	638.97
506.41	655.35
506.58	573.43
506.76	631.94
506.93	617.90
507.11	624.92
507.28	589.82
507.46	589.82
507.63	538.32
507.81	571.09
507.98	552.37
508.16	650.67
508.33	615.56
508.50	657.69
508.68	681.10
508.85	702.16
509.03	645.99
509.20	711.52
509.38	622.58
509.55	613.22
509.73	517.26
509.90	519.60
510.08	601.52
510.25	638.97
510.42	524.28
510.60	573.43
510.77	582.79
510.95	561.73
511.12	603.86
511.30	535.98
511.47	559.39
511.64	552.37
511.82	540.66
511.99	533.64
512.17	552.37
512.34	564.07
512.51	500.87
512.69	524.28
512.86	608.54
513.04	552.37
513.21	543.00
513.38	423.64
513.56	510.24
513.73	486.83
513.90	535.98
514.08	449.38
514.25	496.19
514.43	489.17
514.60	402.57
514.77	437.68
514.95	379.17
515.12	519.60
515.29	468.11
515.47	458.74
515.64	484.49
515.81	428.32
515.99	475.13
516.16	433.00
516.33	465.77
516.51	444.70
516.68	433.00
516.85	430.66
517.03	379.17
517.20	381.51
517.37	486.83
517.54	463.43
517.72	458.74
517.89	386.19
518.06	344.06
518.24	484.49
518.41	456.40
518.58	421.30
518.75	447.04
518.93	367.46
519.10	479.81
519.27	376.83
519.45	505.56
519.62	444.70
519.79	440.02
519.96	386.19
520.14	475.13
520.31	484.49
520.48	463.43
520.65	470.45
520.83	397.89
521.00	484.49
521.17	461.09
521.34	353.42
521.52	395.55
521.69	407.25
521.86	411.93
522.03	456.40
522.20	489.17
522.38	411.93
522.55	362.78
522.72	496.19
522.89	456.40
523.07	538.32
523.24	390.87
523.41	482.15
523.58	433.00
523.75	475.13
523.92	381.51
524.10	388.53
524.27	433.00
524.44	416.62
524.61	465.77
524.78	353.42
524.96	507.90
525.13	470.45
525.30	437.68
525.47	517.26
525.64	500.87
525.81	573.43
525.98	454.06
526.16	470.45
526.33	465.77
526.50	447.04
526.67	430.66
526.84	543.00
527.01	519.60
527.18	575.77
527.36	547.69
527.53	636.63
527.70	645.99
527.87	521.94
528.04	671.73
528.21	512.58
528.38	575.77
528.55	627.26
528.72	554.71
528.89	573.43
529.07	615.56
529.24	531.30
529.41	613.22
529.58	547.69
529.75	519.60
529.92	631.94
530.09	622.58
530.26	748.97
530.43	645.99
530.60	732.59
530.77	711.52
530.94	704.50
531.11	767.70
531.28	741.95
531.46	814.51
531.63	912.81
531.80	809.83
531.97	910.47
532.14	983.02
532.31	1224.10
532.48	1479.22
532.65	1746.04
532.82	1956.69
532.99	2157.97
533.16	2586.29
533.33	2750.13
533.50	2703.32
533.67	2265.64
533.84	1898.17
534.01	1692.21
534.18	1596.25
534.35	1504.96
534.52	1519.01
534.69	1589.22
534.86	1584.54
535.03	1701.57
535.20	1799.87
535.37	1947.33
535.54	1968.39
535.71	2146.27
535.88	2225.85
536.05	2345.22
536.22	2495.01
536.38	2792.26
536.55	2995.89
536.72	3346.97
536.89	3742.52
537.06	4210.62
537.23	4704.48
537.40	5128.11
537.57	5444.09
537.74	5888.79
537.91	5996.45
538.08	6230.51
538.25	6162.63
538.42	6406.05
538.59	6604.99
538.75	6778.19
538.92	6925.65
539.09	7838.45
539.26	8720.84
539.43	9797.48
539.60	11220.53
539.77	12664.64
539.94	13968.32
540.11	15377.32
540.28	16985.27
540.44	18703.22
540.61	20599.05
540.78	23496.64
540.95	27866.42
541.12	34270.12
541.29	38974.60
541.46	41478.97
541.62	41361.95
541.79	40065.29
541.96	36753.43
542.13	34480.77
542.30	31613.62
542.47	29411.17
542.63	28088.77
542.80	27147.87
542.97	26920.84
543.14	26747.64
543.31	26602.53
543.48	26686.79
543.64	27271.92
543.81	27564.49
543.98	27311.71
544.15	27433.42
544.32	28264.31
544.48	27716.62
544.65	27140.85
544.82	26834.24
544.99	26888.07
545.16	27459.16
545.32	28512.41
545.49	41394.71
545.66	60554.34
545.83	65535.00
546.00	65535.00
546.16	63248.30
546.33	46775.61
546.50	36290.01
546.67	28318.14
546.83	25020.33
547.00	24044.32
547.17	23236.84
547.34	22005.72
547.50	21022.69
547.67	20381.38
547.84	19721.35
548.00	18845.99
548.17	18071.28
548.34	17291.88
548.51	17015.69
548.67	15707.34
548.84	15428.81
549.01	14178.97
549.18	13696.82
549.34	12945.50
549.51	12566.34
549.68	12283.13
549.84	11485.01
550.01	11138.61
550.18	10574.54
550.34	10127.50
550.51	9650.03
550.68	9214.69
550.84	8596.79
551.01	8189.53
551.18	7716.75
551.34	7440.56
551.51	7103.53
551.68	6731.38
551.84	6670.53
552.01	6272.64
552.18	6071.35
552.34	5888.79
552.51	5547.07
552.68	5263.86
552.84	5109.39
553.01	4812.14
553.18	4770.01
553.34	4580.43
553.51	4559.36
553.67	4421.27
553.84	4299.56
554.01	3908.69
554.17	3611.45
554.34	3328.24
554.51	3199.51
554.67	2956.10
554.84	2881.20
555.00	2619.06
555.17	2502.03
555.33	2368.62
555.50	2338.20
555.67	2141.59
555.83	2076.06
556.00	2069.03
556.16	2111.16
556.33	1879.45
556.50	1764.76
556.66	1734.34
556.83	1753.06
556.99	1680.50
557.16	1661.78
557.32	1530.71
557.49	1439.43
557.65	1451.13
557.82	1476.88
557.98	1406.66
558.15	1366.87
558.32	1394.96
558.48	1261.55
558.65	1259.21
558.81	1320.06
558.98	1240.48
559.14	1313.04
559.31	1156.22
559.47	1090.69
559.64	1071.97
559.80	1179.63
559.97	1078.99
560.13	1041.54
560.30	1036.86
560.46	950.26
560.63	1088.35
560.79	1146.86
560.96	1074.31
561.12	1114.10
561.29	1093.03
561.45	957.28
561.61	1097.71
561.78	1071.97
561.94	1069.62
562.11	1029.84
562.27	999.41
562.44	990.05
562.60	1055.58
562.77	1006.43
562.93	1114.10
563.10	973.66
563.26	912.81
563.42	1048.56
563.59	933.87
563.75	844.93
563.92	912.81
564.08	884.72
564.24	905.79
564.41	940.90
564.57	889.40
564.74	908.13
564.90	844.93
565.07	835.57
565.23	866.00
565.39	833.23
565.56	779.40
565.72	753.65
565.88	779.40
566.05	788.76
566.21	821.53
566.38	765.36
566.54	781.74
566.70	821.53
566.87	800.46
567.03	800.46
567.19	863.66
567.36	812.17
567.52	793.44
567.68	828.55
567.85	912.81
568.01	795.78
568.17	807.48
568.34	936.21
568.50	938.55
568.66	851.96
568.83	924.51
568.99	777.06
569.15	840.25
569.32	779.40
569.48	706.84
569.64	734.93
569.81	683.44
569.97	641.31
570.13	636.63
570.30	655.35
570.46	589.82
570.62	596.84
570.78	582.79
570.95	482.15
571.11	540.66
571.27	669.39
571.43	526.62
571.60	624.92
571.76	615.56
571.92	507.90
572.09	507.90
572.25	629.60
572.41	571.09
572.57	594.50
572.74	641.31
572.90	683.44
573.06	629.60
573.22	578.11
573.38	725.57
573.55	613.22
573.71	643.65
573.87	645.99
574.03	662.37
574.20	671.73
574.36	697.48
574.52	772.38
574.68	753.65
574.84	821.53
575.01	823.87
575.17	905.79
575.33	917.49
575.49	1046.22
575.65	1151.54
575.82	1071.97
575.98	1275.59
576.14	1348.15
576.30	2345.22
576.46	7559.93
576.62	15995.22
576.79	22632.98
576.95	15833.72
577.11	9446.40
577.27	6317.11
577.43	4142.75
577.59	2633.10
577.75	2246.91
577.92	1912.22
578.08	1825.62
578.24	1881.79
578.40	2689.28
578.56	7155.02
578.72	14436.42
578.88	21991.67
579.04	15169.01
579.21	9102.34
579.37	6480.94
579.53	4903.42
579.69	4493.83
579.85	5645.37
580.01	7089.48
580.17	7473.33
580.33	6218.80
580.49	5088.32
580.65	4587.45
580.82	4042.11
580.98	3936.78
581.14	3796.35
581.30	4259.78
581.46	4568.73
581.62	4861.29
581.78	5118.75
581.94	5593.88
582.10	5865.38
582.26	6272.64
582.42	6612.01
582.58	6654.14
582.74	6920.96
582.90	7030.97
583.06	6801.60
583.22	6848.41
583.38	6890.54
583.54	6986.50
583.70	6883.52
583.86	6707.98
584.02	6621.38
584.18	6640.10
584.34	6349.87
584.50	6267.95
584.66	6235.19
584.82	6190.72
584.98	6176.67
585.14	5930.92
585.30	5860.70
585.46	5872.40
585.62	5657.07
585.78	5612.60
585.94	5729.63
586.10	5818.57
586.26	6059.65
586.42	6609.67
586.58	7873.56
586.74	10057.28
586.90	12229.30
587.06	13893.42
587.22	14143.86
587.38	12737.20
587.54	10904.56
587.70	8847.22
587.86	7375.03
588.02	6422.43
588.18	5652.39
588.34	4980.66
588.49	4594.47
588.65	4252.75
588.81	4121.68
588.97	3934.44
589.13	3885.29
589.29	3768.26
589.45	3791.67
589.61	3992.95
589.77	3829.12
589.93	3864.22
590.08	3943.80
590.24	3950.82
590.40	4124.02
590.56	4109.98
590.72	4287.86
590.88	4498.51
591.04	4652.98
591.20	4882.36
591.35	5111.73
591.51	5203.01
591.67	5364.51
591.83	5867.72
591.99	6321.79
592.15	6899.90
592.31	7461.63
592.46	7990.59
592.62	8674.03
592.78	9355.12
592.94	9874.72
593.10	9863.02
593.26	9355.12
593.41	8720.84
593.57	7789.30
593.73	6876.49
593.89	6120.50
594.05	5474.51
594.20	4865.97
594.36	4470.42
594.52	4049.13
594.68	3721.45
594.84	3761.24
594.99	3590.38
595.15	3405.48
595.31	3363.35
595.47	3400.80
595.62	3342.28
595.78	3328.24
595.94	3370.37
596.10	3405.48
596.25	3398.46
596.41	3475.70
596.57	3323.56
596.73	3325.90
596.88	3126.96
597.04	3330.58
597.20	3293.13
597.36	3463.99
597.51	3644.21
597.67	3695.71
597.83	3889.97
597.99	3990.61
598.14	4238.71
598.30	4594.47
598.46	4905.76
598.61	4954.91
598.77	5088.32
598.93	5645.37
599.09	5778.78
599.24	5820.91
599.40	5863.04
599.56	5659.42
599.71	5434.72
599.87	5071.94
600.03	4807.46
600.18	4564.04
600.34	4231.69
600.50	3868.91
600.65	3644.21
600.81	3583.36
600.97	3155.04
601.12	3227.60
601.28	3000.57
601.44	2740.77
601.59	2621.40
601.75	2733.75
601.91	2644.81
602.06	2497.35
602.22	2373.30
602.37	2305.43
602.53	2153.29
602.69	2230.53
602.84	2127.55
603.00	2256.28
603.16	2225.85
603.31	2127.55
603.47	2193.08
603.62	2359.26
603.78	2370.96
603.94	2424.80
604.09	2473.95
604.25	2464.58
604.40	2581.61
