SpectraSuite Data File
++++++++++++++++++++++++++++++++++++
Date: Fri Oct 04 11:41:52 GMT-05:00 2013
User: price-jones
Dark Spectrum Present: No
Reference Spectrum Present: No
Number of Sampled Component Spectra: 1
Spectrometers: USB2+H05261
Integration Time (usec): 100000 (USB2+H05261)
Spectra Averaged: 1 (USB2+H05261)
Boxcar Smoothing: 0 (USB2+H05261)
Correct for Electrical Dark: No (USB2+H05261)
Strobe/Lamp Enabled: No (USB2+H05261)
Correct for Detector Non-linearity: No (USB2+H05261)
Correct for Stray Light: No (USB2+H05261)
Number of Pixels in Processed Spectrum: 2048
>>>>>Begin Processed Spectral Data<<<<<
365.73	51.49
365.92	51.49
366.12	51.49
366.32	0.00
366.52	0.00
366.72	0.00
366.91	2.34
367.11	0.00
367.31	0.00
367.51	0.00
367.70	0.00
367.90	0.00
368.10	0.00
368.30	0.00
368.49	0.00
368.69	0.00
368.89	0.00
369.09	0.00
369.28	0.00
369.48	0.00
369.68	0.00
369.87	0.00
370.07	0.00
370.27	51.49
370.47	9.36
370.66	58.51
370.86	58.51
371.06	88.94
371.25	74.90
371.45	49.15
371.65	98.30
371.84	156.82
372.04	44.47
372.24	86.60
372.44	74.90
372.63	77.24
372.83	163.84
373.03	135.75
373.22	49.15
373.42	70.22
373.62	65.54
373.81	180.22
374.01	77.24
374.21	140.43
374.40	126.39
374.60	117.03
374.79	37.45
374.99	128.73
375.19	121.71
375.38	128.73
375.58	156.82
375.78	128.73
375.97	177.88
376.17	145.11
376.37	177.88
376.56	159.16
376.76	121.71
376.95	42.13
377.15	117.03
377.35	117.03
377.54	138.09
377.74	117.03
377.93	152.13
378.13	124.05
378.33	168.52
378.52	159.16
378.72	18.72
378.91	159.16
379.11	110.01
379.31	133.41
379.50	124.05
379.70	149.79
379.89	107.66
380.09	110.01
380.28	114.69
380.48	112.35
380.68	119.37
380.87	14.04
381.07	63.19
381.26	126.39
381.46	51.49
381.65	177.88
381.85	63.19
382.04	51.49
382.24	133.41
382.43	81.92
382.63	154.48
382.83	93.62
383.02	117.03
383.22	131.07
383.41	70.22
383.61	138.09
383.80	14.04
384.00	149.79
384.19	77.24
384.39	142.77
384.58	128.73
384.78	159.16
384.97	110.01
385.17	124.05
385.36	114.69
385.56	159.16
385.75	35.11
385.95	100.64
386.14	189.58
386.34	133.41
386.53	46.81
386.72	149.79
386.92	156.82
387.11	166.18
387.31	107.66
387.50	56.17
387.70	126.39
387.89	140.43
388.09	149.79
388.28	74.90
388.48	93.62
388.67	70.22
388.86	112.35
389.06	105.32
389.25	135.75
389.45	105.32
389.64	100.64
389.84	98.30
390.03	112.35
390.22	159.16
390.42	168.52
390.61	60.85
390.81	105.32
391.00	84.26
391.19	145.11
391.39	42.13
391.58	180.22
391.78	65.54
391.97	135.75
392.16	74.90
392.36	149.79
392.55	135.75
392.75	135.75
392.94	175.54
393.13	140.43
393.33	128.73
393.52	105.32
393.71	166.18
393.91	133.41
394.10	117.03
394.29	51.49
394.49	126.39
394.68	84.26
394.88	102.98
395.07	112.35
395.26	102.98
395.46	168.52
395.65	79.58
395.84	98.30
396.04	255.12
396.23	107.66
396.42	126.39
396.62	100.64
396.81	159.16
397.00	133.41
397.19	100.64
397.39	32.77
397.58	102.98
397.77	95.96
397.97	126.39
398.16	119.37
398.35	140.43
398.55	77.24
398.74	58.51
398.93	105.32
399.12	145.11
399.32	93.62
399.51	177.88
399.70	121.71
399.90	65.54
400.09	91.28
400.28	91.28
400.47	114.69
400.67	184.90
400.86	117.03
401.05	72.56
401.24	98.30
401.44	154.48
401.63	189.58
401.82	147.45
402.01	112.35
402.21	93.62
402.40	152.13
402.59	149.79
402.78	138.09
402.97	126.39
403.17	126.39
403.36	149.79
403.55	196.60
403.74	393.21
403.93	908.13
404.13	1626.67
404.32	1820.94
404.51	1425.39
404.70	870.68
404.89	393.21
405.09	236.39
405.28	142.77
405.47	93.62
405.66	112.35
405.85	187.24
406.05	145.11
406.24	140.43
406.43	215.33
406.62	149.79
406.81	156.82
407.00	327.68
407.20	327.68
407.39	297.25
407.58	294.91
407.77	224.69
407.96	196.60
408.15	201.29
408.34	117.03
408.54	88.94
408.73	147.45
408.92	149.79
409.11	114.69
409.30	234.05
409.49	140.43
409.68	107.66
409.87	98.30
410.07	145.11
410.26	140.43
410.45	114.69
410.64	180.22
410.83	86.60
411.02	152.13
411.21	177.88
411.40	110.01
411.59	131.07
411.78	173.20
411.98	224.69
412.17	142.77
412.36	147.45
412.55	168.52
412.74	161.50
412.93	189.58
413.12	205.97
413.31	81.92
413.50	142.77
413.69	119.37
413.88	191.92
414.07	154.48
414.26	198.95
414.45	220.01
414.64	159.16
414.83	105.32
415.02	205.97
415.22	124.05
415.41	170.86
415.60	145.11
415.79	168.52
415.98	257.46
416.17	196.60
416.36	154.48
416.55	196.60
416.74	163.84
416.93	182.56
417.12	322.99
417.31	194.26
417.50	145.11
417.69	245.76
417.88	105.32
418.07	135.75
418.26	147.45
418.45	140.43
418.64	163.84
418.83	191.92
419.02	168.52
419.21	205.97
419.39	168.52
419.58	138.09
419.77	107.66
419.96	220.01
420.15	196.60
420.34	182.56
420.53	107.66
420.72	149.79
420.91	159.16
421.10	217.67
421.29	140.43
421.48	126.39
421.67	175.54
421.86	210.65
422.05	173.20
422.24	142.77
422.43	163.84
422.61	112.35
422.80	229.37
422.99	184.90
423.18	93.62
423.37	220.01
423.56	229.37
423.75	119.37
423.94	98.30
424.13	189.58
424.32	168.52
424.50	84.26
424.69	175.54
424.88	182.56
425.07	175.54
425.26	159.16
425.45	184.90
425.64	182.56
425.83	203.63
426.01	248.10
426.20	208.31
426.39	173.20
426.58	140.43
426.77	128.73
426.96	201.29
427.15	191.92
427.33	159.16
427.52	212.99
427.71	189.58
427.90	234.05
428.09	187.24
428.28	161.50
428.46	173.20
428.65	154.48
428.84	205.97
429.03	152.13
429.22	170.86
429.40	182.56
429.59	212.99
429.78	276.18
429.97	140.43
430.16	224.69
430.34	196.60
430.53	145.11
430.72	182.56
430.91	184.90
431.10	182.56
431.28	222.35
431.47	234.05
431.66	283.20
431.85	224.69
432.03	234.05
432.22	320.65
432.41	217.67
432.60	266.82
432.79	191.92
432.97	264.48
433.16	285.55
433.35	245.76
433.54	215.33
433.72	292.57
433.91	290.23
434.10	325.33
434.28	304.27
434.47	409.59
434.66	393.21
434.85	461.09
435.03	1729.66
435.22	5195.99
435.41	7887.61
435.59	6789.89
435.78	4327.65
435.97	2104.14
436.16	901.11
436.34	423.64
436.53	283.20
436.72	311.29
436.90	259.80
437.09	269.16
437.28	259.80
437.46	276.18
437.65	252.78
437.84	278.52
438.02	189.58
438.21	351.08
438.40	217.67
438.58	154.48
438.77	194.26
438.96	245.76
439.14	191.92
439.33	224.69
439.52	255.12
439.70	189.58
439.89	308.95
440.08	208.31
440.26	227.03
440.45	306.61
440.63	259.80
440.82	156.82
441.01	217.67
441.19	248.10
441.38	222.35
441.57	234.05
441.75	182.56
441.94	220.01
442.12	301.93
442.31	229.37
442.50	255.12
442.68	191.92
442.87	238.73
443.05	238.73
443.24	250.44
443.43	318.31
443.61	243.42
443.80	212.99
443.98	177.88
444.17	215.33
444.35	241.08
444.54	194.26
444.73	215.33
444.91	191.92
445.10	135.75
445.28	236.39
445.47	205.97
445.65	243.42
445.84	184.90
446.02	224.69
446.21	297.25
446.39	208.31
446.58	255.12
446.77	238.73
446.95	276.18
447.14	154.48
447.32	145.11
447.51	201.29
447.69	210.65
447.88	189.58
448.06	276.18
448.25	208.31
448.43	236.39
448.62	201.29
448.80	236.39
448.99	215.33
449.17	173.20
449.36	198.95
449.54	250.44
449.73	234.05
449.91	255.12
450.10	243.42
450.28	231.71
450.46	287.89
450.65	276.18
450.83	257.46
451.02	217.67
451.20	205.97
451.39	220.01
451.57	276.18
451.76	208.31
451.94	126.39
452.13	257.46
452.31	201.29
452.49	231.71
452.68	191.92
452.86	224.69
453.05	252.78
453.23	220.01
453.42	198.95
453.60	173.20
453.78	215.33
453.97	147.45
454.15	184.90
454.34	210.65
454.52	210.65
454.70	271.50
454.89	273.84
455.07	173.20
455.26	241.08
455.44	257.46
455.62	234.05
455.81	243.42
455.99	224.69
456.17	266.82
456.36	266.82
456.54	252.78
456.73	231.71
456.91	264.48
457.09	269.16
457.28	201.29
457.46	241.08
457.64	252.78
457.83	156.82
458.01	149.79
458.19	201.29
458.38	215.33
458.56	180.22
458.74	297.25
458.93	215.33
459.11	180.22
459.29	250.44
459.48	210.65
459.66	301.93
459.84	285.55
460.03	285.55
460.21	234.05
460.39	205.97
460.57	273.84
460.76	297.25
460.94	184.90
461.12	292.57
461.31	276.18
461.49	238.73
461.67	222.35
461.85	271.50
462.04	161.50
462.22	681.10
462.40	182.56
462.59	212.99
462.77	297.25
462.95	189.58
463.13	299.59
463.32	297.25
463.50	248.10
463.68	229.37
463.86	236.39
464.05	255.12
464.23	294.91
464.41	252.78
464.59	205.97
464.78	215.33
464.96	231.71
465.14	248.10
465.32	177.88
465.50	220.01
465.69	222.35
465.87	238.73
466.05	177.88
466.23	194.26
466.41	229.37
466.60	210.65
466.78	320.65
466.96	217.67
467.14	241.08
467.32	327.68
467.51	145.11
467.69	243.42
467.87	243.42
468.05	210.65
468.23	292.57
468.41	224.69
468.60	191.92
468.78	205.97
468.96	180.22
469.14	238.73
469.32	196.60
469.50	177.88
469.69	283.20
469.87	215.33
470.05	201.29
470.23	212.99
470.41	175.54
470.59	236.39
470.77	231.71
470.95	248.10
471.14	292.57
471.32	180.22
471.50	245.76
471.68	278.52
471.86	234.05
472.04	189.58
472.22	297.25
472.40	201.29
472.58	227.03
472.77	252.78
472.95	241.08
473.13	304.27
473.31	236.39
473.49	227.03
473.67	210.65
473.85	337.04
474.03	252.78
474.21	212.99
474.39	315.97
474.57	201.29
474.75	189.58
474.93	196.60
475.12	184.90
475.30	280.86
475.48	259.80
475.66	184.90
475.84	198.95
476.02	243.42
476.20	280.86
476.38	241.08
476.56	245.76
476.74	294.91
476.92	196.60
477.10	241.08
477.28	280.86
477.46	180.22
477.64	278.52
477.82	255.12
478.00	332.36
478.18	269.16
478.36	156.82
478.54	119.37
478.72	269.16
478.90	234.05
479.08	273.84
479.26	241.08
479.44	332.36
479.62	287.89
479.80	276.18
479.98	292.57
480.16	234.05
480.34	348.74
480.52	264.48
480.70	320.65
480.88	194.26
481.06	315.97
481.24	224.69
481.41	325.33
481.59	402.57
481.77	353.42
481.95	313.63
482.13	418.96
482.31	379.17
482.49	418.96
482.67	472.79
482.85	362.78
483.03	507.90
483.21	458.74
483.39	517.26
483.57	500.87
483.74	503.22
483.92	573.43
484.10	414.27
484.28	608.54
484.46	594.50
484.64	676.41
484.82	699.82
485.00	741.95
485.18	760.67
485.35	763.01
485.53	727.91
485.71	837.91
485.89	812.17
486.07	807.48
486.25	938.55
486.43	835.57
486.61	809.83
486.78	884.72
486.96	851.96
487.14	795.78
487.32	912.81
487.50	821.53
487.68	812.17
487.85	849.61
488.03	866.00
488.21	884.72
488.39	905.79
488.57	784.08
488.75	763.01
488.92	1057.92
489.10	737.27
489.28	779.40
489.46	636.63
489.64	671.73
489.81	688.12
489.99	704.50
490.17	688.12
490.35	760.67
490.53	580.45
490.70	676.41
490.88	641.31
491.06	760.67
491.24	809.83
491.41	767.70
491.59	741.95
491.77	683.44
491.95	660.03
492.13	610.88
492.30	641.31
492.48	617.90
492.66	617.90
492.84	571.09
493.01	671.73
493.19	519.60
493.37	634.29
493.54	638.97
493.72	613.22
493.90	603.86
494.08	521.94
494.25	547.69
494.43	578.11
494.61	545.34
494.79	617.90
494.96	524.28
495.14	517.26
495.32	587.47
495.49	624.92
495.67	498.53
495.85	543.00
496.02	437.68
496.20	517.26
496.38	596.84
496.55	519.60
496.73	535.98
496.91	603.86
497.09	454.06
497.26	456.40
497.44	496.19
497.62	454.06
497.79	383.85
497.97	496.19
498.14	437.68
498.32	454.06
498.50	479.81
498.67	463.43
498.85	390.87
499.03	353.42
499.20	393.21
499.38	414.27
499.56	355.76
499.73	472.79
499.91	425.98
500.08	463.43
500.26	315.97
500.44	276.18
500.61	409.59
500.79	428.32
500.97	292.57
501.14	379.17
501.32	320.65
501.49	430.66
501.67	320.65
501.84	425.98
502.02	330.02
502.20	433.00
502.37	304.27
502.55	271.50
502.72	252.78
502.90	365.12
503.07	304.27
503.25	299.59
503.43	241.08
503.60	320.65
503.78	334.70
503.95	313.63
504.13	262.14
504.30	297.25
504.48	285.55
504.65	362.78
504.83	276.18
505.01	285.55
505.18	339.38
505.36	318.31
505.53	271.50
505.71	287.89
505.88	255.12
506.06	220.01
506.23	313.63
506.41	304.27
506.58	304.27
506.76	311.29
506.93	292.57
507.11	320.65
507.28	208.31
507.46	227.03
507.63	278.52
507.81	241.08
507.98	308.95
508.16	369.80
508.33	306.61
508.50	276.18
508.68	304.27
508.85	252.78
509.03	287.89
509.20	322.99
509.38	297.25
509.55	299.59
509.73	315.97
509.90	344.06
510.08	346.40
510.25	266.82
510.42	175.54
510.60	231.71
510.77	278.52
510.95	222.35
511.12	208.31
511.30	266.82
511.47	283.20
511.64	294.91
511.82	325.33
511.99	358.10
512.17	304.27
512.34	271.50
512.51	220.01
512.69	257.46
512.86	280.86
513.04	262.14
513.21	308.95
513.38	285.55
513.56	154.48
513.73	299.59
513.90	262.14
514.08	187.24
514.25	154.48
514.43	273.84
514.60	196.60
514.77	257.46
514.95	238.73
515.12	283.20
515.29	271.50
515.47	301.93
515.64	262.14
515.81	278.52
515.99	299.59
516.16	191.92
516.33	248.10
516.51	285.55
516.68	280.86
516.85	245.76
517.03	201.29
517.20	264.48
517.37	231.71
517.54	217.67
517.72	287.89
517.89	133.41
518.06	215.33
518.24	262.14
518.41	315.97
518.58	257.46
518.75	238.73
518.93	238.73
519.10	229.37
519.27	273.84
519.45	248.10
519.62	259.80
519.79	299.59
519.96	243.42
520.14	243.42
520.31	280.86
520.48	234.05
520.65	278.52
520.83	241.08
521.00	278.52
521.17	327.68
521.34	313.63
521.52	259.80
521.69	229.37
521.86	313.63
522.03	222.35
522.20	210.65
522.38	257.46
522.55	217.67
522.72	234.05
522.89	292.57
523.07	297.25
523.24	212.99
523.41	252.78
523.58	266.82
523.75	248.10
523.92	257.46
524.10	306.61
524.27	351.08
524.44	245.76
524.61	229.37
524.78	215.33
524.96	294.91
525.13	161.50
525.30	229.37
525.47	334.70
525.64	245.76
525.81	255.12
525.98	229.37
526.16	262.14
526.33	227.03
526.50	283.20
526.67	191.92
526.84	224.69
527.01	266.82
527.18	374.49
527.36	299.59
527.53	245.76
527.70	346.40
527.87	243.42
528.04	266.82
528.21	292.57
528.38	278.52
528.55	322.99
528.72	292.57
528.89	388.53
529.07	271.50
529.24	339.38
529.41	348.74
529.58	271.50
529.75	273.84
529.92	320.65
530.09	311.29
530.26	262.14
530.43	379.17
530.60	297.25
530.77	381.51
530.94	379.17
531.11	376.83
531.28	273.84
531.46	250.44
531.63	255.12
531.80	358.10
531.97	320.65
532.14	290.23
532.31	409.59
532.48	498.53
532.65	433.00
532.82	564.07
532.99	535.98
533.16	589.82
533.33	606.20
533.50	505.56
533.67	545.34
533.84	521.94
534.01	425.98
534.18	454.06
534.35	383.85
534.52	475.13
534.69	528.96
534.86	454.06
535.03	493.85
535.20	456.40
535.37	528.96
535.54	451.72
535.71	491.51
535.88	589.82
536.05	578.11
536.22	643.65
536.38	575.77
536.55	615.56
536.72	678.76
536.89	774.72
537.06	795.78
537.23	802.80
537.40	924.51
537.57	976.00
537.74	940.90
537.91	1022.81
538.08	1125.80
538.25	1088.35
538.42	1086.01
538.59	1083.67
538.75	1177.29
538.92	1240.48
539.09	1282.61
539.26	1413.68
539.43	1575.18
539.60	1762.42
539.77	1921.58
539.94	2190.74
540.11	2345.22
540.28	2562.89
540.44	2761.83
540.61	3007.59
540.78	3489.74
540.95	4219.99
541.12	4854.27
541.29	5352.81
541.46	5481.53
541.62	5242.80
541.79	5177.26
541.96	4671.71
542.13	4524.26
542.30	4217.65
542.47	4175.52
542.63	3801.03
542.80	3772.94
542.97	3794.01
543.14	3620.81
543.31	3763.58
543.48	3810.39
543.64	3878.27
543.81	3957.85
543.98	3838.48
544.15	3852.52
544.32	3901.67
544.48	3831.46
544.65	3705.07
544.82	3861.88
544.99	3665.28
545.16	3854.86
545.32	4222.33
545.49	8676.37
545.66	12407.18
545.83	13399.57
546.00	10958.39
546.16	7981.23
546.33	5937.94
546.50	4306.59
546.67	3749.54
546.83	3501.44
547.00	3220.58
547.17	3047.38
547.34	2986.52
547.50	2848.43
547.67	2736.09
547.84	2560.55
548.00	2565.23
548.17	2562.89
548.34	2403.73
548.51	2303.09
548.67	2211.81
548.84	2099.46
549.01	1989.46
549.18	1984.77
549.34	1783.49
549.51	1860.73
549.68	1863.07
549.84	1790.51
550.01	1640.72
550.18	1614.97
550.34	1549.43
550.51	1416.02
550.68	1455.81
550.84	1317.72
551.01	1268.57
551.18	1170.27
551.34	1151.54
551.51	1109.41
551.68	1081.33
551.84	1062.60
552.01	994.73
552.18	1032.18
552.34	947.92
552.51	971.32
552.68	959.62
552.84	908.13
553.01	882.38
553.18	882.38
553.34	833.23
553.51	753.65
553.67	793.44
553.84	779.40
554.01	734.93
554.17	723.23
554.34	622.58
554.51	622.58
554.67	636.63
554.84	589.82
555.00	543.00
555.17	491.51
555.33	566.41
555.50	610.88
555.67	491.51
555.83	477.47
556.00	561.73
556.16	699.82
556.33	454.06
556.50	463.43
556.66	430.66
556.83	463.43
556.99	390.87
557.16	461.09
557.32	461.09
557.49	292.57
557.65	271.50
557.82	367.46
557.98	294.91
558.15	425.98
558.32	386.19
558.48	390.87
558.65	407.25
558.81	386.19
558.98	397.89
559.14	322.99
559.31	409.59
559.47	416.62
559.64	362.78
559.80	390.87
559.97	276.18
560.13	318.31
560.30	372.15
560.46	411.93
560.63	332.36
560.79	348.74
560.96	365.12
561.12	369.80
561.29	311.29
561.45	337.04
561.61	388.53
561.78	454.06
561.94	344.06
562.11	320.65
562.27	360.44
562.44	250.44
562.60	353.42
562.77	365.12
562.93	416.62
563.10	423.64
563.26	337.04
563.42	376.83
563.59	311.29
563.75	285.55
563.92	376.83
564.08	327.68
564.24	390.87
564.41	325.33
564.57	409.59
564.74	287.89
564.90	306.61
565.07	355.76
565.23	292.57
565.39	241.08
565.56	318.31
565.72	238.73
565.88	271.50
566.05	259.80
566.21	311.29
566.38	306.61
566.54	362.78
566.70	255.12
566.87	262.14
567.03	184.90
567.19	388.53
567.36	304.27
567.52	271.50
567.68	290.23
567.85	365.12
568.01	304.27
568.17	346.40
568.34	348.74
568.50	325.33
568.66	269.16
568.83	393.21
568.99	332.36
569.15	339.38
569.32	297.25
569.48	276.18
569.64	271.50
569.81	255.12
569.97	313.63
570.13	285.55
570.30	231.71
570.46	198.95
570.62	280.86
570.78	262.14
570.95	224.69
571.11	301.93
571.27	287.89
571.43	301.93
571.60	376.83
571.76	224.69
571.92	241.08
572.09	280.86
572.25	273.84
572.41	231.71
572.57	287.89
572.74	311.29
572.90	273.84
573.06	285.55
573.22	250.44
573.38	308.95
573.55	276.18
573.71	346.40
573.87	273.84
574.03	273.84
574.20	210.65
574.36	362.78
574.52	285.55
574.68	301.93
574.84	301.93
575.01	313.63
575.17	367.46
575.33	334.70
575.49	311.29
575.65	339.38
575.82	341.72
575.98	428.32
576.14	435.34
576.30	936.21
576.46	2029.24
576.62	2438.84
576.79	2448.20
576.95	1954.35
577.11	1245.16
577.27	964.30
577.43	744.29
577.59	582.79
577.75	524.28
577.92	456.40
578.08	526.62
578.24	379.17
578.40	868.34
578.56	1685.19
578.72	2169.68
578.88	2214.15
579.04	1654.76
579.21	1214.74
579.37	959.62
579.53	903.45
579.69	910.47
579.85	990.05
580.01	1137.50
580.17	1036.86
580.33	894.08
580.49	784.08
580.65	697.48
580.82	697.48
580.98	697.48
581.14	702.16
581.30	781.74
581.46	809.83
581.62	889.40
581.78	940.90
581.94	976.00
582.10	938.55
582.26	976.00
582.42	940.90
582.58	1046.22
582.74	1018.13
582.90	1046.22
583.06	1086.01
583.22	1034.52
583.38	1064.94
583.54	1064.94
583.70	1118.78
583.86	1104.73
584.02	1046.22
584.18	1008.77
584.34	1025.15
584.50	901.11
584.66	952.60
584.82	1004.09
584.98	1006.43
585.14	908.13
585.30	966.64
585.46	1008.77
585.62	887.06
585.78	887.06
585.94	884.72
586.10	945.58
586.26	1029.84
586.42	1097.71
586.58	1291.98
586.74	1511.99
586.90	1682.85
587.06	1823.28
587.22	1867.75
587.38	1575.18
587.54	1397.30
587.70	1320.06
587.86	1055.58
588.02	1001.75
588.18	793.44
588.34	753.65
588.49	765.36
588.65	706.84
588.81	704.50
588.97	653.01
589.13	683.44
589.29	657.69
589.45	634.29
589.61	706.84
589.77	610.88
589.93	681.10
590.08	667.05
590.24	699.82
590.40	725.57
590.56	699.82
590.72	723.23
590.88	704.50
591.04	748.97
591.20	793.44
591.35	875.36
591.51	868.34
591.67	905.79
591.83	889.40
591.99	908.13
592.15	992.39
592.31	1170.27
592.46	1172.61
592.62	1352.83
592.78	1362.19
592.94	1313.04
593.10	1355.17
593.26	1240.48
593.41	1259.21
593.57	1081.33
593.73	978.34
593.89	826.21
594.05	840.25
594.20	812.17
594.36	765.36
594.52	685.78
594.68	631.94
594.84	655.35
594.99	592.16
595.15	603.86
595.31	660.03
595.47	664.71
595.62	669.39
595.78	543.00
595.94	575.77
596.10	582.79
596.25	634.29
596.41	606.20
596.57	594.50
596.73	681.10
596.88	535.98
597.04	594.50
597.20	564.07
597.36	690.46
597.51	617.90
597.67	582.79
597.83	662.37
597.99	648.33
598.14	760.67
598.30	793.44
598.46	786.42
598.61	786.42
598.77	858.98
598.93	821.53
599.09	798.12
599.24	1032.18
599.40	887.06
599.56	866.00
599.71	844.93
599.87	812.17
600.03	851.96
600.18	653.01
600.34	709.18
600.50	645.99
600.65	627.26
600.81	657.69
600.97	559.39
601.12	531.30
601.28	568.75
601.44	463.43
601.59	491.51
601.75	503.22
601.91	404.91
602.06	472.79
602.22	479.81
602.37	512.58
602.53	512.58
602.69	561.73
602.84	491.51
603.00	367.46
603.16	561.73
603.31	484.49
603.47	521.94
603.62	472.79
603.78	491.51
603.94	521.94
604.09	484.49
604.25	554.71
604.40	589.82
604.56	461.09
604.71	559.39
604.87	475.13
605.03	540.66
605.18	528.96
605.34	634.29
605.49	550.03
605.65	505.56
605.80	545.34
605.96	512.58
606.12	587.47
606.27	629.60
606.43	610.88
606.58	648.33
606.74	678.76
606.89	641.31
607.05	809.83
607.20	704.50
607.36	741.95
607.51	819.19
607.67	903.45
607.82	826.21
607.98	924.51
608.13	1043.88
608.29	1128.14
608.44	1224.10
608.60	1329.42
608.75	1420.71
608.91	1530.71
609.06	1514.33
609.22	1736.68
609.37	1947.33
609.53	1949.67
