SpectraSuite Data File
++++++++++++++++++++++++++++++++++++
Date: Fri Oct 04 11:42:17 GMT-05:00 2013
User: price-jones
Dark Spectrum Present: No
Reference Spectrum Present: No
Number of Sampled Component Spectra: 1
Spectrometers: USB2+H05261
Integration Time (usec): 100000 (USB2+H05261)
Spectra Averaged: 1 (USB2+H05261)
Boxcar Smoothing: 0 (USB2+H05261)
Correct for Electrical Dark: No (USB2+H05261)
Strobe/Lamp Enabled: No (USB2+H05261)
Correct for Detector Non-linearity: No (USB2+H05261)
Correct for Stray Light: No (USB2+H05261)
Number of Pixels in Processed Spectrum: 2048
>>>>>Begin Processed Spectral Data<<<<<
365.73	114.69
365.92	114.69
366.12	114.69
366.32	0.00
366.52	0.00
366.72	0.00
366.91	0.00
367.11	0.00
367.31	0.00
367.51	0.00
367.70	0.00
367.90	0.00
368.10	0.00
368.30	0.00
368.49	0.00
368.69	0.00
368.89	0.00
369.09	0.00
369.28	0.00
369.48	0.00
369.68	0.00
369.87	0.00
370.07	16.38
370.27	14.04
370.47	77.24
370.66	475.13
370.86	521.94
371.06	645.99
371.25	603.86
371.45	587.47
371.65	561.73
371.84	559.39
372.04	507.90
372.24	582.79
372.44	622.58
372.63	589.82
372.83	573.43
373.03	545.34
373.22	514.92
373.42	535.98
373.62	596.84
373.81	662.37
374.01	636.63
374.21	627.26
374.40	519.60
374.60	512.58
374.79	613.22
374.99	662.37
375.19	697.48
375.38	746.63
375.58	739.61
375.78	692.80
375.97	667.05
376.17	765.36
376.37	688.12
376.56	753.65
376.76	786.42
376.95	812.17
377.15	835.57
377.35	922.17
377.54	929.19
377.74	924.51
377.93	924.51
378.13	823.87
378.33	823.87
378.52	835.57
378.72	866.00
378.91	873.02
379.11	730.25
379.31	739.61
379.50	758.33
379.70	805.14
379.89	802.80
380.09	891.74
380.28	905.79
380.48	933.87
380.68	926.85
380.87	767.70
381.07	823.87
381.26	720.88
381.46	753.65
381.65	678.76
381.85	636.63
382.04	603.86
382.24	603.86
382.43	585.13
382.63	538.32
382.83	533.64
383.02	608.54
383.22	610.88
383.41	533.64
383.61	645.99
383.80	624.92
384.00	788.76
384.19	809.83
384.39	912.81
384.58	837.91
384.78	863.66
384.97	744.29
385.17	798.12
385.36	779.40
385.56	695.14
385.75	786.42
385.95	861.32
386.14	812.17
386.34	919.83
386.53	922.17
386.72	791.10
386.92	870.68
387.11	814.51
387.31	973.66
387.50	812.17
387.70	858.98
387.89	828.55
388.09	753.65
388.28	910.47
388.48	798.12
388.67	936.21
388.86	1029.84
389.06	1114.10
389.25	1121.12
389.45	1067.28
389.64	1032.18
389.84	1121.12
390.03	1121.12
390.22	1170.27
390.42	1090.69
390.61	1151.54
390.81	1212.40
391.00	1266.23
391.19	1207.72
391.39	1121.12
391.58	1146.86
391.78	1114.10
391.97	1055.58
392.16	1076.65
392.36	912.81
392.55	763.01
392.75	620.24
392.94	599.18
393.13	547.69
393.33	648.33
393.52	760.67
393.71	936.21
393.91	985.37
394.10	1027.50
394.29	1100.05
394.49	1252.19
394.68	1341.13
394.88	1310.70
395.07	1362.19
395.26	1369.21
395.46	1277.93
395.65	1303.68
395.84	1118.78
396.04	1018.13
396.23	809.83
396.42	678.76
396.62	636.63
396.81	692.80
397.00	884.72
397.19	1093.03
397.39	1275.59
397.58	1434.75
397.77	1535.39
397.97	1542.41
398.16	1521.35
398.35	1603.27
398.55	1645.40
398.74	1682.85
398.93	1783.49
399.12	1717.95
399.32	1785.83
399.51	1760.08
399.70	1795.19
399.90	1827.96
400.09	1884.13
400.28	1818.60
400.47	1748.38
400.67	1842.00
400.86	1961.37
401.05	1888.81
401.24	1842.00
401.44	1916.90
401.63	1944.99
401.82	1989.46
402.01	1947.33
402.21	2043.29
402.40	2078.40
402.59	1907.54
402.78	1921.58
402.97	1930.94
403.17	1844.34
403.36	1973.07
403.55	2050.31
403.74	2146.27
403.93	2022.22
404.13	1886.47
404.32	1921.58
404.51	1963.71
404.70	2015.20
404.89	1930.94
405.09	1973.07
405.28	1982.43
405.47	1952.01
405.66	1895.83
405.85	1963.71
406.05	2015.20
406.24	1802.21
406.43	1895.83
406.62	2113.50
406.81	2036.27
407.00	1930.94
407.20	1947.33
407.39	1874.77
407.58	2129.89
407.77	2036.27
407.96	2057.33
408.15	2085.42
408.34	2202.44
408.54	2317.13
408.73	2237.55
408.92	2267.98
409.11	2150.95
409.30	2078.40
409.49	1944.99
409.68	1818.60
409.87	1844.34
410.07	1842.00
410.26	2015.20
410.45	2012.86
410.64	2066.69
410.83	2277.34
411.02	2310.11
411.21	2321.81
411.40	2368.62
411.59	2342.88
411.78	2272.66
411.98	2298.41
412.17	2221.17
412.36	2265.64
412.55	2319.47
412.74	2307.77
412.93	2251.60
413.12	2160.31
413.31	2466.92
413.50	2331.17
413.69	2356.92
413.88	2452.88
414.07	2387.35
414.26	2321.81
414.45	2417.77
414.64	2356.92
414.83	2401.39
415.02	2420.11
415.22	2415.43
415.41	2434.16
415.60	2476.29
415.79	2658.85
415.98	2665.87
416.17	2743.11
416.36	2539.48
416.55	2562.89
416.74	2480.97
416.93	2438.84
417.12	2443.52
417.31	2431.82
417.50	2600.34
417.69	2693.96
417.88	2551.18
418.07	2462.24
418.26	2466.92
418.45	2502.03
418.64	2567.57
418.83	2733.75
419.02	2661.19
419.21	2602.68
419.39	2602.68
419.58	2431.82
419.77	2335.85
419.96	2462.24
420.15	2708.00
420.34	2597.99
420.53	2801.62
420.72	2850.77
420.91	2750.13
421.10	2878.86
421.29	2757.15
421.48	2712.68
421.67	2722.04
421.86	2665.87
422.05	2597.99
422.24	2282.02
422.43	2408.41
422.61	2506.71
422.80	2663.53
422.99	2778.22
423.18	2612.04
423.37	2581.61
423.56	2509.05
423.75	2686.94
423.94	2614.38
424.13	2527.78
424.32	2471.61
424.50	2612.04
424.69	2616.72
424.88	2588.63
425.07	2534.80
425.26	2495.01
425.45	2476.29
425.64	2349.90
425.83	2483.31
426.01	2602.68
426.20	2590.97
426.39	2574.59
426.58	2490.33
426.77	2314.79
426.96	2253.94
427.15	2183.72
427.33	2396.71
427.52	2562.89
427.71	2588.63
427.90	2560.55
428.09	2375.64
428.28	2420.11
428.46	2373.30
428.65	2366.28
428.84	2466.92
429.03	2403.73
429.22	2305.43
429.40	2314.79
429.59	2136.91
429.78	1923.92
429.97	1844.34
430.16	1849.02
430.34	1860.73
430.53	1767.10
430.72	1973.07
430.91	2092.44
431.10	2293.72
431.28	2661.19
431.47	2977.16
431.66	2979.50
431.85	2782.90
432.03	2576.93
432.22	2551.18
432.41	2445.86
432.60	2813.32
432.79	2792.26
432.97	2890.56
433.16	2836.73
433.35	2710.34
433.54	2492.67
433.72	2310.11
433.91	2382.67
434.10	2544.16
434.28	2703.32
434.47	2815.66
434.66	2883.54
434.85	2752.47
435.03	2836.73
435.22	3171.43
435.41	3494.42
435.59	3550.59
435.78	3466.33
435.97	3274.41
436.16	3164.40
436.34	2972.48
436.53	2963.12
436.72	3077.80
436.90	2822.69
437.09	2904.60
437.28	2825.03
437.46	2771.19
437.65	2953.76
437.84	2750.13
438.02	2644.81
438.21	2377.98
438.40	2593.31
438.58	2731.41
438.77	2810.98
438.96	2850.77
439.14	2970.14
439.33	3192.49
439.52	3052.06
439.70	3002.91
439.89	3016.95
440.08	2923.33
440.26	2935.03
440.45	3075.46
440.63	3166.74
440.82	3288.45
441.01	3412.50
441.19	3272.07
441.38	3309.52
441.57	3517.83
441.75	3468.67
441.94	3428.88
442.12	3538.89
442.31	3524.85
442.50	3449.95
442.68	3433.57
442.87	3449.95
443.05	3384.41
443.24	3527.19
443.43	3339.94
443.61	3574.00
443.80	3571.66
443.98	3356.33
444.17	3435.91
444.35	3513.14
444.54	3740.18
444.73	3534.21
444.91	3609.11
445.10	3407.82
445.28	3194.83
445.47	3225.26
445.65	3110.57
445.84	3302.50
446.02	3583.36
446.21	3433.57
446.39	3342.28
446.58	3449.95
446.77	3478.04
446.95	3447.61
447.14	3559.95
447.32	3819.75
447.51	3665.28
447.69	3480.38
447.88	3396.12
448.06	3606.77
448.25	3494.42
448.43	3480.38
448.62	3543.57
448.80	3597.40
448.99	3571.66
449.17	3611.45
449.36	3456.97
449.54	3620.81
449.73	3768.26
449.91	3756.56
450.10	3784.65
450.28	3896.99
450.46	3777.62
450.65	3960.19
450.83	3763.58
451.02	3840.82
451.20	3838.48
451.39	3838.48
451.57	3822.09
451.76	3693.37
451.94	3794.01
452.13	3829.12
452.31	3438.25
452.49	3328.24
452.68	3368.03
452.86	3407.82
453.05	3585.70
453.23	3501.44
453.42	3618.47
453.60	3686.34
453.78	3815.07
453.97	3606.77
454.15	3646.55
454.34	3630.17
454.52	3559.95
454.70	3641.87
454.89	3669.96
455.07	3618.47
455.26	3674.64
455.44	3765.92
455.62	3775.28
455.81	3894.65
455.99	3789.33
456.17	3777.62
456.36	3716.77
456.54	3868.91
456.73	3854.86
456.91	4086.58
457.09	3822.09
457.28	4100.62
457.46	4016.36
457.64	3946.14
457.83	3742.52
458.01	3730.81
458.19	3625.49
458.38	3700.39
458.56	3864.22
458.74	3810.39
458.93	3887.63
459.11	3789.33
459.29	3812.73
459.48	3908.69
459.66	3667.62
459.84	3906.35
460.03	4072.53
460.21	3873.59
460.39	3983.59
460.57	3962.53
460.76	3932.10
460.94	3936.78
461.12	4025.72
461.31	4046.79
461.49	3955.51
461.67	4011.68
461.85	4264.46
462.04	3943.80
462.22	4187.22
462.40	4079.55
462.59	4070.19
462.77	3932.10
462.95	4119.34
463.13	3990.61
463.32	3901.67
463.50	3899.33
463.68	4046.79
463.86	3983.59
464.05	3974.23
464.23	3901.67
464.41	3866.56
464.59	3688.68
464.78	3866.56
464.96	3854.86
465.14	3847.84
465.32	3882.95
465.50	4077.21
465.69	4196.58
465.87	4028.06
466.05	3946.14
466.23	3721.45
466.41	3700.39
466.60	3819.75
466.78	3768.26
466.96	3749.54
467.14	3836.14
467.32	3913.38
467.51	3955.51
467.69	3756.56
467.87	3852.52
468.05	3845.50
468.23	4053.81
468.41	3918.06
468.60	3981.25
468.78	4049.13
468.96	3885.29
469.14	3960.19
469.32	3939.12
469.50	3728.47
469.69	3829.12
469.87	3838.48
470.05	3815.07
470.23	3782.31
470.41	3801.03
470.59	3850.18
470.77	3847.84
470.95	3925.08
471.14	3971.89
471.32	3929.76
471.50	4067.85
471.68	4161.47
471.86	4278.50
472.04	4283.18
472.22	4290.20
472.40	3953.16
472.58	4025.72
472.77	3997.64
472.95	3997.64
473.13	4299.56
473.31	4053.81
473.49	4004.66
473.67	4102.96
473.85	4234.03
474.03	4156.79
474.21	4327.65
474.39	4477.44
474.57	4482.13
474.75	4299.56
474.93	4292.54
475.12	4133.39
475.30	4257.43
475.48	4257.43
475.66	4367.44
475.84	4182.54
476.02	4102.96
476.20	4114.66
476.38	4184.88
476.56	4423.61
476.74	4416.59
476.92	4430.63
477.10	4360.42
477.28	4496.17
477.46	4587.45
477.64	4725.54
477.82	4648.30
478.00	4805.12
478.18	4636.60
478.36	4430.63
478.54	4568.73
478.72	4580.43
478.90	4669.37
479.08	4863.63
479.26	4760.65
479.44	4950.23
479.62	4812.14
479.80	4835.55
479.98	4781.71
480.16	5022.79
480.34	4793.42
480.52	4903.42
480.70	5022.79
480.88	4849.59
481.06	4940.87
481.24	5172.58
481.41	5186.63
481.59	5242.80
481.77	5362.17
481.95	5224.08
482.13	5259.18
482.31	5210.03
482.49	5177.26
482.67	5404.30
482.85	5284.93
483.03	5423.02
483.21	5514.30
483.39	5486.22
483.57	5263.86
483.74	5385.57
483.92	5317.70
484.10	5455.79
484.28	5486.22
484.46	5528.35
484.64	5584.52
484.82	5383.23
485.00	5458.13
485.18	5296.63
485.35	5090.67
485.53	4954.91
485.71	4463.40
485.89	4313.61
486.07	4451.70
486.25	4961.94
486.43	5137.48
486.61	5348.12
486.78	5177.26
486.96	5366.85
487.14	5430.04
487.32	5565.79
487.50	5755.38
487.68	5907.51
487.85	6197.74
488.03	6169.65
488.21	5947.30
488.39	5825.59
488.57	5703.89
488.75	5858.36
488.92	6069.01
489.10	6094.76
489.28	6270.30
489.46	6462.22
489.64	6485.62
489.81	6548.82
489.99	6586.27
490.17	6562.86
490.35	6707.98
490.53	6466.90
490.70	6532.44
490.88	6256.25
491.06	6466.90
491.24	6628.40
491.41	6502.01
491.59	6190.72
491.77	6113.48
491.95	6125.18
492.13	6272.64
492.30	6707.98
492.48	6815.64
492.66	6953.73
492.84	6871.81
493.01	6930.33
493.19	6607.33
493.37	6656.48
493.54	6525.41
493.72	6490.31
493.90	6867.13
494.08	7056.72
494.25	7105.87
494.43	7307.15
494.61	7323.54
494.79	7309.49
494.96	7234.60
495.14	7232.26
495.32	7002.88
495.49	6820.32
495.67	7089.48
495.85	7314.17
496.02	7389.07
496.20	7377.37
496.38	7372.69
496.55	7126.93
496.73	7463.97
496.91	7506.10
497.09	7693.34
497.26	7669.94
497.44	7550.57
497.62	7428.86
497.79	7368.01
497.97	6930.33
498.14	6846.07
498.32	7250.98
498.50	7377.37
498.67	7541.21
498.85	7368.01
499.03	7332.90
499.20	7658.23
499.38	7749.51
499.56	7513.12
499.73	7496.74
499.91	7396.09
500.08	7213.53
500.26	7138.63
500.44	7112.89
500.61	7295.45
500.79	7131.61
500.97	7169.06
501.14	7220.55
501.32	6885.86
501.49	6970.12
501.67	7007.56
501.84	7206.51
502.02	7262.68
502.20	7337.58
502.37	7386.73
502.55	7204.17
502.72	7452.27
502.90	7555.25
503.07	7321.20
503.25	7143.32
503.43	6960.75
503.60	6754.79
503.78	6612.01
503.95	6736.06
504.13	6925.65
504.30	7386.73
504.48	7494.40
504.65	7543.55
504.83	7412.48
505.01	7545.89
505.18	7632.49
505.36	7733.13
505.53	7775.26
505.71	7854.84
505.88	8121.66
506.06	7864.20
506.23	7627.81
506.41	7510.78
506.58	7515.46
506.76	7566.95
506.93	7625.47
507.11	7438.22
507.28	7515.46
507.46	7391.41
507.63	7335.24
507.81	7295.45
507.98	7351.62
508.16	7250.98
508.33	7651.21
508.50	7810.37
508.68	7946.12
508.85	7962.50
509.03	8229.32
509.20	7962.50
509.38	7805.69
509.55	7573.97
509.73	7658.23
509.90	7751.85
510.08	7819.73
510.25	7817.39
510.42	7634.83
510.60	7843.14
510.77	7822.07
510.95	7934.42
511.12	8140.38
511.30	8098.25
511.47	8496.14
511.64	8231.66
511.82	8126.34
511.99	7798.66
512.17	7868.88
512.34	7927.39
512.51	7613.76
512.69	7775.26
512.86	7850.16
513.04	7927.39
513.21	8042.08
513.38	7922.71
513.56	7592.70
513.73	7618.44
513.90	7527.16
514.08	7573.97
514.25	7719.09
514.43	7639.51
514.60	7784.62
514.77	7723.77
514.95	7817.39
515.12	7712.07
515.29	7992.93
515.47	7925.05
515.64	7999.95
515.81	7691.00
515.99	7805.69
516.16	7508.44
516.33	6949.05
516.51	6635.42
516.68	6377.96
516.85	6279.66
517.03	6499.67
517.20	6675.21
517.37	7398.43
517.54	7861.86
517.72	7606.74
517.89	7234.60
518.06	6595.63
518.24	6715.00
518.41	7087.14
518.58	7314.17
518.75	7737.81
518.93	7552.91
519.10	7508.44
519.27	7791.64
519.45	7810.37
519.62	7672.28
519.79	7950.80
519.96	7983.57
520.14	7903.99
520.31	7742.49
520.48	7618.44
520.65	7658.23
520.83	8030.38
521.00	8046.76
521.17	8079.53
521.34	7803.35
521.52	8074.85
521.69	8072.51
521.86	8334.65
522.03	8053.78
522.20	8002.29
522.38	7452.27
522.55	7520.14
522.72	7581.00
522.89	7676.96
523.07	7798.66
523.24	7978.89
523.41	8058.46
523.58	8028.04
523.75	8269.11
523.92	8329.97
524.10	8219.96
524.27	8313.58
524.44	8290.18
524.61	8238.69
524.78	8145.06
524.96	8098.25
525.13	8037.40
525.30	8255.07
525.47	8358.05
525.64	8329.97
525.81	8219.96
525.98	7925.05
526.16	7435.88
526.33	7190.13
526.50	7229.91
526.67	7007.56
526.84	7140.97
527.01	7325.88
527.18	7527.16
527.36	7857.18
527.53	8032.72
527.70	8091.23
527.87	7903.99
528.04	7782.28
528.21	7826.75
528.38	8294.86
528.55	8636.58
528.72	8318.26
528.89	8592.11
529.07	8620.19
529.24	8088.89
529.41	8077.19
529.58	8030.38
529.75	7749.51
529.92	7950.80
530.09	8063.15
530.26	8074.85
530.43	8107.62
530.60	8311.24
530.77	8454.02
530.94	8622.53
531.11	8519.55
531.28	8042.08
531.46	8329.97
531.63	8379.12
531.80	8320.60
531.97	8072.51
532.14	8067.83
532.31	7763.56
532.48	7379.71
532.65	7386.73
532.82	7583.34
532.99	7932.08
533.16	8098.25
533.33	8332.31
533.50	8444.65
533.67	8126.34
533.84	8035.06
534.01	7838.45
534.18	8023.36
534.35	8175.49
534.52	8002.29
534.69	8093.57
534.86	8241.03
535.03	8170.81
535.20	8278.47
535.37	8402.52
535.54	8442.31
535.71	8407.20
535.88	8379.12
536.05	8304.22
536.22	8217.62
536.38	7882.92
536.55	7824.41
536.72	7667.60
536.89	7609.08
537.06	7648.87
537.23	8042.08
537.40	8121.66
537.57	8320.60
537.74	8116.98
537.91	8201.24
538.08	8304.22
538.25	8147.40
538.42	8184.85
538.59	8168.47
538.75	8067.83
538.92	7899.31
539.09	7808.03
539.26	7967.18
539.43	7997.61
539.60	7740.15
539.77	7749.51
539.94	7918.03
540.11	7784.62
540.28	7719.09
540.44	7660.57
540.61	7403.11
540.78	7829.09
540.95	7903.99
541.12	8168.47
541.29	8238.69
541.46	8430.61
541.62	8182.51
541.79	8395.50
541.96	8051.44
542.13	8241.03
542.30	8241.03
542.47	8320.60
542.63	8255.07
542.80	8098.25
542.97	7995.27
543.14	7920.37
543.31	7861.86
543.48	8065.49
543.64	8423.59
543.81	8685.73
543.98	8587.43
544.15	8280.82
544.32	8348.69
544.48	8269.11
544.65	8180.17
544.82	8280.82
544.99	8252.73
545.16	8313.58
545.32	8032.72
545.49	8676.37
545.66	9202.99
545.83	9320.01
546.00	9039.15
546.16	8416.57
546.33	8344.01
546.50	8091.23
546.67	8271.45
546.83	8018.68
547.00	8182.51
547.17	8119.32
547.34	7693.34
547.50	7761.22
547.67	7822.07
547.84	7878.24
548.00	8009.31
548.17	8142.72
548.34	7906.33
548.51	8077.19
548.67	7920.37
548.84	7936.76
549.01	7836.11
549.18	8107.62
549.34	7934.42
549.51	7920.37
549.68	7864.20
549.84	7786.96
550.01	7826.75
550.18	7927.39
550.34	7791.64
550.51	7782.28
550.68	7922.71
550.84	7805.69
551.01	7693.34
551.18	7740.15
551.34	7723.77
551.51	8013.99
551.68	7918.03
551.84	8060.80
552.01	8140.38
552.18	7805.69
552.34	7798.66
552.51	7665.25
552.68	7496.74
552.84	7620.78
553.01	7744.83
553.18	7620.78
553.34	7644.19
553.51	7581.00
553.67	7878.24
553.84	8016.33
554.01	7831.43
554.17	7789.30
554.34	7770.58
554.51	7709.72
554.67	7903.99
554.84	7864.20
555.00	7705.04
555.17	7786.96
555.33	7784.62
555.50	7667.60
555.67	7698.02
555.83	7489.71
556.00	7517.80
556.16	7763.56
556.33	7494.40
556.50	7379.71
556.66	7346.94
556.83	7407.80
556.99	7370.35
557.16	7470.99
557.32	7283.75
557.49	7527.16
557.65	7304.81
557.82	7564.61
557.98	7473.33
558.15	7520.14
558.32	7260.34
558.48	6965.43
558.65	6925.65
558.81	7152.68
558.98	7194.81
559.14	7283.75
559.31	7241.62
559.47	7276.73
559.64	7180.76
559.80	7164.38
559.97	6967.77
560.13	7082.46
560.30	7262.68
560.46	7433.54
560.63	7421.84
560.79	7496.74
560.96	7683.98
561.12	7309.49
561.29	7274.38
561.45	7045.01
561.61	7171.40
561.78	7452.27
561.94	7248.64
562.11	7178.42
562.27	7173.74
562.44	7009.90
562.60	7265.02
562.77	7283.75
562.93	7485.03
563.10	7370.35
563.26	7300.13
563.42	7091.82
563.59	7056.72
563.75	7232.26
563.92	7148.00
564.08	7222.89
564.24	7157.36
564.41	7129.27
564.57	7094.16
564.74	7087.14
564.90	7073.10
565.07	7187.79
565.23	6972.46
565.39	6958.41
565.56	6647.12
565.72	6548.82
565.88	6820.32
566.05	6757.13
566.21	6792.23
566.38	6862.45
566.54	7211.19
566.70	7129.27
566.87	6857.77
567.03	7016.93
567.19	7082.46
567.36	7295.45
567.52	6829.68
567.68	6832.02
567.85	6654.14
568.01	6729.04
568.17	6438.81
568.34	6417.75
568.50	6431.79
568.66	6307.74
568.83	6555.84
568.99	6516.05
569.15	6738.40
569.32	6691.59
569.48	6469.24
569.64	6520.73
569.81	6502.01
569.97	6588.61
570.13	6595.63
570.30	6375.62
570.46	6413.07
570.62	6326.47
570.78	6083.05
570.95	6274.98
571.11	6392.00
571.27	6424.77
571.43	6473.92
571.60	6572.22
571.76	6490.31
571.92	6506.69
572.09	6555.84
572.25	6614.35
572.41	6609.67
572.57	6525.41
572.74	6490.31
572.90	6609.67
573.06	6583.93
573.22	6670.53
573.38	6560.52
573.55	6715.00
573.71	6560.52
573.87	6574.56
574.03	6387.32
574.20	6600.31
574.36	6518.39
574.52	6375.62
574.68	6235.19
574.84	6429.45
575.01	6237.53
575.17	6190.72
575.33	6246.89
575.49	6298.38
575.65	6422.43
575.82	6321.79
575.98	6253.91
576.14	6452.86
576.30	6520.73
576.46	6413.07
576.62	6656.48
576.79	6651.80
576.95	6530.09
577.11	6509.03
577.27	6478.60
577.43	6541.80
577.59	6415.41
577.75	6399.02
577.92	6307.74
578.08	6097.10
578.24	5977.73
578.40	6122.84
578.56	6417.75
578.72	6553.50
578.88	6607.33
579.04	6527.75
579.21	6462.22
579.37	6373.28
579.53	6394.34
579.69	6366.26
579.85	6312.42
580.01	6614.35
580.17	6410.73
580.33	6392.00
580.49	6464.56
580.65	6375.62
580.82	6516.05
580.98	6384.98
581.14	6541.80
581.30	6502.01
581.46	6324.13
581.62	6471.58
581.78	6361.58
581.94	6539.46
582.10	6384.98
582.26	6485.62
582.42	6457.54
582.58	6574.56
582.74	6527.75
582.90	6455.20
583.06	6471.58
583.22	6593.29
583.38	6410.73
583.54	6410.73
583.70	6377.96
583.86	6431.79
584.02	6403.71
584.18	6459.88
584.34	6452.86
584.50	6569.88
584.66	6574.56
584.82	6099.44
584.98	6209.44
585.14	6061.99
585.30	6076.03
585.46	6162.63
585.62	5907.51
585.78	6094.76
585.94	6171.99
586.10	6045.60
586.26	6181.35
586.42	6157.95
586.58	6087.73
586.74	6120.50
586.90	6155.61
587.06	6120.50
587.22	6099.44
587.38	6008.16
587.54	5804.53
587.70	5895.81
587.86	5533.03
588.02	5406.64
588.18	5434.72
588.34	5217.05
588.49	4905.76
588.65	4503.19
588.81	4465.74
588.97	4575.75
589.13	4573.41
589.29	4348.72
589.45	4454.04
589.61	4491.49
589.77	4685.75
589.93	4809.80
590.08	4990.02
590.24	5210.03
590.40	5308.34
590.56	5231.10
590.72	5198.33
590.88	5156.20
591.04	5107.05
591.20	5191.31
591.35	5114.07
591.51	5053.22
591.67	5074.28
591.83	5093.01
591.99	5109.39
592.15	4959.60
592.31	5205.35
592.46	5261.52
592.62	5268.55
592.78	5214.71
592.94	5408.98
593.10	5355.15
593.26	5444.09
593.41	5572.82
593.57	5472.17
593.73	5240.46
593.89	5025.13
594.05	4823.84
594.20	5006.41
594.36	4748.95
594.52	4730.22
594.68	4748.95
594.84	4905.76
594.99	5041.51
595.15	5219.39
595.31	5212.37
595.47	5205.35
595.62	5100.03
595.78	5224.08
595.94	5310.68
596.10	5380.89
596.25	5275.57
596.41	5298.97
596.57	5050.88
596.73	5181.95
596.88	5263.86
597.04	5373.87
597.20	5252.16
597.36	5348.12
597.51	5055.56
