SpectraSuite Data File
++++++++++++++++++++++++++++++++++++
Date: Fri Oct 04 11:41:48 GMT-05:00 2013
User: price-jones
Dark Spectrum Present: No
Reference Spectrum Present: No
Number of Sampled Component Spectra: 1
Spectrometers: USB2+H05261
Integration Time (usec): 100000 (USB2+H05261)
Spectra Averaged: 1 (USB2+H05261)
Boxcar Smoothing: 0 (USB2+H05261)
Correct for Electrical Dark: No (USB2+H05261)
Strobe/Lamp Enabled: No (USB2+H05261)
Correct for Detector Non-linearity: No (USB2+H05261)
Correct for Stray Light: No (USB2+H05261)
Number of Pixels in Processed Spectrum: 2048
>>>>>Begin Processed Spectral Data<<<<<
365.73	7.02
365.92	7.02
366.12	7.02
366.32	0.00
366.52	0.00
366.72	0.00
366.91	2.34
367.11	0.00
367.31	0.00
367.51	0.00
367.70	0.00
367.90	0.00
368.10	0.00
368.30	0.00
368.49	0.00
368.69	18.72
368.89	0.00
369.09	0.00
369.28	16.38
369.48	0.00
369.68	0.00
369.87	0.00
370.07	0.00
370.27	28.09
370.47	0.00
370.66	72.56
370.86	98.30
371.06	70.22
371.25	74.90
371.45	16.38
371.65	93.62
371.84	25.75
372.04	35.11
372.24	28.09
372.44	53.83
372.63	119.37
372.83	140.43
373.03	142.77
373.22	154.48
373.42	100.64
373.62	135.75
373.81	154.48
374.01	133.41
374.21	135.75
374.40	161.50
374.60	154.48
374.79	63.19
374.99	128.73
375.19	149.79
375.38	163.84
375.58	124.05
375.78	140.43
375.97	119.37
376.17	135.75
376.37	161.50
376.56	187.24
376.76	107.66
376.95	91.28
377.15	163.84
377.35	100.64
377.54	114.69
377.74	98.30
377.93	81.92
378.13	98.30
378.33	173.20
378.52	145.11
378.72	142.77
378.91	142.77
379.11	161.50
379.31	117.03
379.50	147.45
379.70	98.30
379.89	98.30
380.09	128.73
380.28	117.03
380.48	154.48
380.68	49.15
380.87	63.19
381.07	72.56
381.26	285.55
381.46	173.20
381.65	121.71
381.85	91.28
382.04	168.52
382.24	95.96
382.43	110.01
382.63	72.56
382.83	105.32
383.02	79.58
383.22	98.30
383.41	102.98
383.61	105.32
383.80	102.98
384.00	95.96
384.19	124.05
384.39	126.39
384.58	175.54
384.78	98.30
384.97	114.69
385.17	184.90
385.36	105.32
385.56	180.22
385.75	131.07
385.95	102.98
386.14	114.69
386.34	138.09
386.53	114.69
386.72	156.82
386.92	161.50
387.11	142.77
387.31	107.66
387.50	138.09
387.70	128.73
387.89	149.79
388.09	79.58
388.28	138.09
388.48	102.98
388.67	138.09
388.86	117.03
389.06	163.84
389.25	105.32
389.45	156.82
389.64	142.77
389.84	177.88
390.03	88.94
390.22	191.92
390.42	154.48
390.61	119.37
390.81	124.05
391.00	112.35
391.19	201.29
391.39	98.30
391.58	105.32
391.78	166.18
391.97	86.60
392.16	131.07
392.36	93.62
392.55	175.54
392.75	79.58
392.94	105.32
393.13	133.41
393.33	163.84
393.52	140.43
393.71	147.45
393.91	95.96
394.10	110.01
394.29	149.79
394.49	70.22
394.68	145.11
394.88	159.16
395.07	210.65
395.26	102.98
395.46	105.32
395.65	215.33
395.84	140.43
396.04	259.80
396.23	131.07
396.42	105.32
396.62	175.54
396.81	170.86
397.00	170.86
397.19	161.50
397.39	140.43
397.58	177.88
397.77	161.50
397.97	194.26
398.16	23.41
398.35	147.45
398.55	142.77
398.74	100.64
398.93	140.43
399.12	166.18
399.32	168.52
399.51	147.45
399.70	177.88
399.90	217.67
400.09	121.71
400.28	86.60
400.47	189.58
400.67	168.52
400.86	161.50
401.05	149.79
401.24	142.77
401.44	173.20
401.63	124.05
401.82	245.76
402.01	131.07
402.21	184.90
402.40	135.75
402.59	198.95
402.78	91.28
402.97	224.69
403.17	250.44
403.36	278.52
403.55	365.12
403.74	723.23
403.93	2157.97
404.13	5294.29
404.32	7742.49
404.51	6953.73
404.70	4184.88
404.89	1563.48
405.09	468.11
405.28	264.48
405.47	161.50
405.66	212.99
405.85	191.92
406.05	238.73
406.24	180.22
406.43	262.14
406.62	243.42
406.81	222.35
407.00	418.96
407.20	608.54
407.39	924.51
407.58	1170.27
407.77	809.83
407.96	491.51
408.15	196.60
408.34	234.05
408.54	257.46
408.73	252.78
408.92	259.80
409.11	210.65
409.30	196.60
409.49	147.45
409.68	210.65
409.87	180.22
410.07	138.09
410.26	154.48
410.45	241.08
410.64	147.45
410.83	152.13
411.02	248.10
411.21	196.60
411.40	201.29
411.59	201.29
411.78	184.90
411.98	285.55
412.17	234.05
412.36	170.86
412.55	203.63
412.74	243.42
412.93	252.78
413.12	175.54
413.31	217.67
413.50	276.18
413.69	224.69
413.88	320.65
414.07	276.18
414.26	292.57
414.45	222.35
414.64	315.97
414.83	271.50
415.02	231.71
415.22	250.44
415.41	278.52
415.60	180.22
415.79	273.84
415.98	236.39
416.17	194.26
416.36	276.18
416.55	315.97
416.74	224.69
416.93	248.10
417.12	252.78
417.31	243.42
417.50	313.63
417.69	325.33
417.88	255.12
418.07	229.37
418.26	236.39
418.45	234.05
418.64	280.86
418.83	283.20
419.02	264.48
419.21	189.58
419.39	245.76
419.58	236.39
419.77	264.48
419.96	285.55
420.15	266.82
420.34	299.59
420.53	238.73
420.72	320.65
420.91	297.25
421.10	264.48
421.29	320.65
421.48	215.33
421.67	283.20
421.86	264.48
422.05	224.69
422.24	344.06
422.43	315.97
422.61	290.23
422.80	287.89
422.99	250.44
423.18	283.20
423.37	341.72
423.56	304.27
423.75	339.38
423.94	297.25
424.13	341.72
424.32	311.29
424.50	367.46
424.69	269.16
424.88	320.65
425.07	341.72
425.26	313.63
425.45	355.76
425.64	367.46
425.83	257.46
426.01	402.57
426.20	318.31
426.39	327.68
426.58	278.52
426.77	341.72
426.96	374.49
427.15	374.49
427.33	306.61
427.52	339.38
427.71	332.36
427.90	360.44
428.09	344.06
428.28	372.15
428.46	376.83
428.65	332.36
428.84	351.08
429.03	353.42
429.22	301.93
429.40	334.70
429.59	313.63
429.78	362.78
429.97	290.23
430.16	327.68
430.34	379.17
430.53	374.49
430.72	395.55
430.91	346.40
431.10	285.55
431.28	411.93
431.47	388.53
431.66	437.68
431.85	407.25
432.03	411.93
432.22	498.53
432.41	423.64
432.60	468.11
432.79	510.24
432.97	470.45
433.16	538.32
433.35	608.54
433.54	648.33
433.72	676.41
433.91	690.46
434.10	777.06
434.28	901.11
434.47	1004.09
434.66	1139.84
434.85	1448.79
435.03	3449.95
435.22	12924.44
435.41	32072.36
435.59	36229.15
435.78	23522.38
435.97	11829.07
436.16	4547.66
436.34	1591.56
436.53	980.68
436.72	760.67
436.90	650.67
437.09	660.03
437.28	624.92
437.46	561.73
437.65	564.07
437.84	486.83
438.02	472.79
438.21	517.26
438.40	458.74
438.58	468.11
438.77	482.15
438.96	528.96
439.14	484.49
439.33	423.64
439.52	416.62
439.70	418.96
439.89	512.58
440.08	507.90
440.26	472.79
440.45	571.09
440.63	451.72
440.82	519.60
441.01	484.49
441.19	421.30
441.38	440.02
441.57	435.34
441.75	451.72
441.94	561.73
442.12	475.13
442.31	484.49
442.50	461.09
442.68	505.56
442.87	465.77
443.05	458.74
443.24	547.69
443.43	477.47
443.61	503.22
443.80	456.40
443.98	599.18
444.17	437.68
444.35	489.17
444.54	582.79
444.73	430.66
444.91	440.02
445.10	463.43
445.28	454.06
445.47	437.68
445.65	472.79
445.84	437.68
446.02	449.38
446.21	435.34
446.39	461.09
446.58	510.24
446.77	451.72
446.95	437.68
447.14	486.83
447.32	482.15
447.51	444.70
447.69	456.40
447.88	486.83
448.06	507.90
448.25	538.32
448.43	477.47
448.62	442.36
448.80	454.06
448.99	393.21
449.17	470.45
449.36	519.60
449.54	503.22
449.73	463.43
449.91	517.26
450.10	465.77
450.28	482.15
450.46	547.69
450.65	596.84
450.83	498.53
451.02	543.00
451.20	486.83
451.39	465.77
451.57	440.02
451.76	360.44
451.94	437.68
452.13	585.13
452.31	545.34
452.49	435.34
452.68	496.19
452.86	493.85
453.05	510.24
453.23	437.68
453.42	477.47
453.60	500.87
453.78	425.98
453.97	472.79
454.15	475.13
454.34	517.26
454.52	465.77
454.70	489.17
454.89	503.22
455.07	540.66
455.26	503.22
455.44	472.79
455.62	482.15
455.81	421.30
455.99	444.70
456.17	475.13
456.36	538.32
456.54	425.98
456.73	360.44
456.91	496.19
457.09	510.24
457.28	505.56
457.46	463.43
457.64	531.30
457.83	496.19
458.01	428.32
458.19	507.90
458.38	461.09
458.56	496.19
458.74	461.09
458.93	437.68
459.11	449.38
459.29	456.40
459.48	505.56
459.66	512.58
459.84	552.37
460.03	547.69
460.21	458.74
460.39	475.13
460.57	517.26
460.76	461.09
460.94	468.11
461.12	463.43
461.31	454.06
461.49	433.00
461.67	491.51
461.85	486.83
462.04	444.70
462.22	849.61
462.40	486.83
462.59	449.38
462.77	395.55
462.95	489.17
463.13	414.27
463.32	470.45
463.50	456.40
463.68	479.81
463.86	484.49
464.05	451.72
464.23	526.62
464.41	484.49
464.59	447.04
464.78	484.49
464.96	468.11
465.14	409.59
465.32	442.36
465.50	491.51
465.69	414.27
465.87	428.32
466.05	425.98
466.23	425.98
466.41	528.96
466.60	526.62
466.78	433.00
466.96	510.24
467.14	461.09
467.32	388.53
467.51	550.03
467.69	463.43
467.87	472.79
468.05	430.66
468.23	414.27
468.41	381.51
468.60	358.10
468.78	418.96
468.96	393.21
469.14	418.96
469.32	381.51
469.50	393.21
469.69	433.00
469.87	397.89
470.05	468.11
470.23	416.62
470.41	365.12
470.59	367.46
470.77	444.70
470.95	468.11
471.14	444.70
471.32	484.49
471.50	468.11
471.68	521.94
471.86	510.24
472.04	465.77
472.22	449.38
472.40	470.45
472.58	421.30
472.77	463.43
472.95	465.77
473.13	477.47
473.31	526.62
473.49	468.11
473.67	414.27
473.85	475.13
474.03	484.49
474.21	416.62
474.39	411.93
474.57	444.70
474.75	463.43
474.93	461.09
475.12	430.66
475.30	451.72
475.48	435.34
475.66	456.40
475.84	374.49
476.02	489.17
476.20	456.40
476.38	437.68
476.56	540.66
476.74	491.51
476.92	461.09
477.10	409.59
477.28	456.40
477.46	423.64
477.64	463.43
477.82	421.30
478.00	430.66
478.18	470.45
478.36	528.96
478.54	498.53
478.72	465.77
478.90	486.83
479.08	500.87
479.26	498.53
479.44	594.50
479.62	528.96
479.80	524.28
479.98	674.07
480.16	662.37
480.34	737.27
480.52	608.54
480.70	725.57
480.88	627.26
481.06	732.59
481.24	812.17
481.41	805.14
481.59	884.72
481.77	901.11
481.95	950.26
482.13	1022.81
482.31	1055.58
482.49	1128.14
482.67	1210.06
482.85	1322.40
483.03	1352.83
483.21	1488.58
483.39	1675.82
483.57	1680.50
483.74	1809.23
483.92	1802.21
484.10	1881.79
484.28	2052.65
484.46	2188.40
484.64	2326.49
484.82	2427.14
485.00	2607.36
485.18	2448.20
485.35	2850.77
485.53	2864.82
485.71	3049.72
485.89	3171.43
486.07	3211.22
486.25	3410.16
486.43	3288.45
486.61	3370.37
486.78	3463.99
486.96	3375.05
487.14	3199.51
487.32	3442.93
487.50	3419.52
487.68	3281.43
487.85	3162.06
488.03	3169.09
488.21	3211.22
488.39	3021.63
488.57	3014.61
488.75	2888.22
488.92	3030.99
489.10	2857.79
489.28	2827.37
489.46	2616.72
489.64	2717.36
489.81	2616.72
489.99	2548.84
490.17	2579.27
490.35	2506.71
490.53	2478.63
490.70	2476.29
490.88	2588.63
491.06	2612.04
491.24	2813.32
491.41	2965.46
491.59	2677.57
491.77	2349.90
491.95	2490.33
492.13	2289.04
492.30	2314.79
492.48	2291.38
492.66	2160.31
492.84	2230.53
493.01	2214.15
493.19	2078.40
493.37	2148.61
493.54	2136.91
493.72	2057.33
493.90	2069.03
494.08	1968.39
494.25	1987.11
494.43	2047.97
494.61	1891.15
494.79	1982.43
494.96	1846.68
495.14	1837.32
495.32	1884.13
495.49	1802.21
495.67	1767.10
495.85	1668.80
496.02	1640.72
496.20	1746.04
496.38	1607.95
496.55	1540.07
496.73	1687.53
496.91	1614.97
497.09	1535.39
497.26	1507.30
497.44	1455.81
497.62	1481.56
497.79	1378.58
497.97	1418.36
498.14	1362.19
498.32	1350.49
498.50	1341.13
498.67	1238.14
498.85	1289.64
499.03	1219.42
499.20	1261.55
499.38	1142.18
499.56	1170.27
499.73	1252.19
499.91	1153.88
500.08	1083.67
500.26	1144.52
500.44	1055.58
500.61	1001.75
500.79	957.28
500.97	896.43
501.14	898.77
501.32	870.68
501.49	875.36
501.67	854.30
501.84	870.68
502.02	835.57
502.20	814.51
502.37	732.59
502.55	720.88
502.72	760.67
502.90	779.40
503.07	690.46
503.25	685.78
503.43	674.07
503.60	636.63
503.78	634.29
503.95	575.77
504.13	662.37
504.30	568.75
504.48	695.14
504.65	561.73
504.83	641.31
505.01	561.73
505.18	589.82
505.36	585.13
505.53	603.86
505.71	613.22
505.88	610.88
506.06	573.43
506.23	458.74
506.41	456.40
506.58	545.34
506.76	566.41
506.93	524.28
507.11	486.83
507.28	475.13
507.46	510.24
507.63	561.73
507.81	433.00
507.98	475.13
508.16	449.38
508.33	526.62
508.50	512.58
508.68	561.73
508.85	442.36
509.03	528.96
509.20	568.75
509.38	514.92
509.55	557.05
509.73	512.58
509.90	477.47
510.08	411.93
510.25	447.04
510.42	507.90
510.60	456.40
510.77	491.51
510.95	491.51
511.12	477.47
511.30	561.73
511.47	451.72
511.64	540.66
511.82	477.47
511.99	322.99
512.17	437.68
512.34	440.02
512.51	461.09
512.69	414.27
512.86	433.00
513.04	383.85
513.21	444.70
513.38	390.87
513.56	369.80
513.73	367.46
513.90	353.42
514.08	430.66
514.25	418.96
514.43	421.30
514.60	449.38
514.77	334.70
514.95	344.06
515.12	400.23
515.29	418.96
515.47	374.49
515.64	374.49
515.81	383.85
515.99	477.47
516.16	411.93
516.33	416.62
516.51	465.77
516.68	400.23
516.85	423.64
517.03	334.70
517.20	468.11
517.37	393.21
517.54	456.40
517.72	379.17
517.89	273.84
518.06	376.83
518.24	428.32
518.41	423.64
518.58	330.02
518.75	346.40
518.93	339.38
519.10	421.30
519.27	330.02
519.45	470.45
519.62	341.72
519.79	381.51
519.96	395.55
520.14	346.40
520.31	402.57
520.48	402.57
520.65	402.57
520.83	381.51
521.00	367.46
521.17	311.29
521.34	411.93
521.52	402.57
521.69	332.36
521.86	287.89
522.03	376.83
522.20	381.51
522.38	393.21
522.55	362.78
522.72	308.95
522.89	451.72
523.07	454.06
523.24	400.23
523.41	367.46
523.58	332.36
523.75	423.64
523.92	353.42
524.10	447.04
524.27	430.66
524.44	358.10
524.61	440.02
524.78	308.95
524.96	308.95
525.13	449.38
525.30	447.04
525.47	400.23
525.64	470.45
525.81	449.38
525.98	463.43
526.16	381.51
526.33	388.53
526.50	388.53
526.67	437.68
526.84	411.93
527.01	463.43
527.18	482.15
527.36	510.24
527.53	547.69
527.70	524.28
527.87	517.26
528.04	451.72
528.21	395.55
528.38	496.19
528.55	500.87
528.72	468.11
528.89	477.47
529.07	472.79
529.24	440.02
529.41	479.81
529.58	503.22
529.75	547.69
529.92	505.56
530.09	472.79
530.26	554.71
530.43	547.69
530.60	599.18
530.77	552.37
530.94	617.90
531.11	601.52
531.28	601.52
531.46	589.82
531.63	596.84
531.80	674.07
531.97	732.59
532.14	791.10
532.31	964.30
532.48	1128.14
532.65	1299.00
532.82	1455.81
532.99	1710.93
533.16	1956.69
533.33	2085.42
533.50	1832.64
533.67	1624.33
533.84	1465.18
534.01	1254.53
534.18	1121.12
534.35	1076.65
534.52	1200.69
534.69	1193.67
534.86	1287.29
535.03	1231.12
535.20	1345.81
535.37	1476.88
535.54	1425.39
535.71	1582.20
535.88	1732.00
536.05	1706.25
536.22	1891.15
536.38	2059.67
536.55	2312.45
536.72	2471.61
536.89	2724.38
537.06	3052.06
537.23	3405.48
537.40	3669.96
537.57	3957.85
537.74	4297.22
537.91	4461.06
538.08	4444.68
538.25	4477.44
538.42	4681.07
538.59	4676.39
538.75	4821.50
538.92	5011.09
539.09	5493.24
539.26	6272.64
539.43	7073.10
539.60	7976.55
539.77	8851.91
539.94	9968.34
540.11	10960.73
540.28	12395.48
540.44	13315.31
540.61	14544.09
540.78	16762.92
540.95	20121.59
541.12	24212.84
541.29	27262.56
541.46	28938.38
541.62	28975.83
541.79	27662.79
541.96	25579.71
542.13	23702.61
542.30	22434.03
542.47	20760.55
542.63	19421.77
542.80	18827.27
542.97	18675.13
543.14	18541.72
543.31	18719.60
543.48	18845.99
543.64	19290.70
543.81	19204.10
543.98	19381.98
544.15	19435.81
544.32	19178.35
544.48	19571.56
544.65	19042.60
544.82	19009.83
544.99	18944.30
545.16	19225.16
545.32	20547.56
545.49	31578.51
545.66	55842.84
545.83	63096.16
546.00	58918.31
546.16	45167.66
546.33	33317.53
546.50	24709.04
546.67	19452.19
546.83	17156.13
547.00	16798.02
547.17	15665.21
547.34	14937.30
547.50	14609.62
547.67	14031.51
547.84	13490.85
548.00	12961.89
548.17	12503.14
548.34	11887.58
548.51	11749.49
548.67	10942.00
548.84	10623.69
549.01	9933.23
549.18	9357.46
549.34	9109.36
549.51	8812.12
549.68	8425.93
549.84	8297.20
550.01	7824.41
550.18	7391.41
550.34	7159.70
550.51	6895.22
550.68	6375.62
550.84	6141.57
551.01	5870.06
551.18	5488.56
551.34	5235.78
551.51	5011.09
551.68	4863.63
551.84	4655.33
552.01	4528.94
552.18	4500.85
552.34	4140.41
552.51	4121.68
552.68	3824.44
552.84	3758.90
553.01	3559.95
553.18	3449.95
553.34	3262.71
553.51	3143.34
553.67	3075.46
553.84	3047.38
554.01	2775.88
554.17	2682.25
554.34	2408.41
554.51	2385.01
554.67	2251.60
554.84	2069.03
555.00	1916.90
555.17	1902.86
555.33	1710.93
555.50	1614.97
555.67	1661.78
555.83	1537.73
556.00	1507.30
556.16	1671.14
556.33	1373.89
556.50	1394.96
556.66	1268.57
556.83	1268.57
556.99	1186.65
557.16	1203.04
557.32	1200.69
557.49	938.55
557.65	1043.88
557.82	1060.26
557.98	1008.77
558.15	1018.13
558.32	1022.81
558.48	1032.18
558.65	1004.09
558.81	999.41
558.98	901.11
559.14	875.36
559.31	954.94
559.47	959.62
559.64	842.59
559.80	863.66
559.97	802.80
560.13	847.27
560.30	809.83
560.46	814.51
560.63	702.16
560.79	875.36
560.96	763.01
561.12	770.04
561.29	905.79
561.45	763.01
561.61	861.32
561.78	980.68
561.94	788.76
562.11	812.17
562.27	844.93
562.44	746.63
562.60	709.18
562.77	704.50
562.93	730.25
563.10	751.31
563.26	751.31
563.42	753.65
563.59	741.95
563.75	704.50
563.92	723.23
564.08	697.48
564.24	681.10
564.41	741.95
564.57	568.75
564.74	669.39
564.90	641.31
565.07	683.44
565.23	664.71
565.39	657.69
565.56	592.16
565.72	564.07
565.88	610.88
566.05	587.47
566.21	575.77
566.38	681.10
566.54	627.26
566.70	582.79
566.87	610.88
567.03	599.18
567.19	709.18
567.36	660.03
567.52	650.67
567.68	709.18
567.85	557.05
568.01	629.60
568.17	601.52
568.34	603.86
568.50	788.76
568.66	610.88
568.83	671.73
568.99	594.50
569.15	566.41
569.32	671.73
569.48	636.63
569.64	599.18
569.81	608.54
569.97	477.47
570.13	505.56
570.30	538.32
570.46	477.47
570.62	510.24
570.78	493.85
570.95	461.09
571.11	512.58
571.27	428.32
571.43	440.02
571.60	463.43
571.76	463.43
571.92	554.71
572.09	503.22
572.25	543.00
572.41	535.98
572.57	582.79
572.74	545.34
572.90	538.32
573.06	528.96
573.22	550.03
573.38	561.73
573.55	589.82
573.71	545.34
573.87	587.47
574.03	636.63
574.20	575.77
574.36	571.09
574.52	538.32
574.68	564.07
574.84	695.14
575.01	578.11
575.17	755.99
575.33	657.69
575.49	802.80
575.65	786.42
575.82	877.70
575.98	961.96
576.14	1029.84
576.30	2073.71
576.46	6232.85
576.62	12861.24
576.79	13715.54
576.95	9708.54
577.11	6333.49
577.27	4788.74
577.43	2988.86
577.59	2001.16
577.75	1586.88
577.92	1465.18
578.08	1331.76
578.24	1497.94
578.40	2373.30
578.56	6282.00
578.72	11609.06
578.88	12868.27
579.04	9582.15
579.21	6401.37
579.37	4844.91
579.53	3772.94
579.69	3332.92
579.85	4203.60
580.01	5008.75
580.17	4805.12
580.33	4269.14
580.49	3625.49
580.65	3148.02
580.82	2752.47
580.98	2722.04
581.14	2963.12
581.30	3080.14
581.46	3129.30
581.62	3492.08
581.78	3765.92
581.94	3950.82
582.10	4175.52
582.26	4393.19
582.42	4510.21
582.58	4760.65
582.74	4821.50
582.90	4849.59
583.06	4924.49
583.22	4873.00
583.38	4894.06
583.54	4814.48
583.70	4901.08
583.86	4828.53
584.02	4648.30
584.18	4606.17
584.34	4566.39
584.50	4491.49
584.66	4486.81
584.82	4407.23
584.98	4390.84
585.14	4306.59
585.30	4241.05
585.46	4114.66
585.62	4037.42
585.78	4112.32
585.94	4035.08
586.10	4095.94
586.26	4416.59
586.42	4788.74
586.58	5823.25
586.74	7185.44
586.90	8468.06
587.06	9355.12
587.22	9320.01
587.38	8180.17
587.54	7332.90
587.70	6120.50
587.86	5128.11
588.02	4322.97
588.18	3976.57
588.34	3536.55
588.49	3204.19
588.65	3124.62
588.81	2818.00
588.97	2771.19
589.13	2775.88
589.29	2689.28
589.45	2715.02
589.61	2665.87
589.77	2661.19
589.93	2808.64
590.08	2799.28
590.24	2977.16
590.40	2988.86
590.56	3075.46
590.72	3171.43
590.88	3129.30
591.04	3276.75
591.20	3433.57
591.35	3669.96
591.51	3786.99
591.67	3932.10
591.83	4088.92
591.99	4372.12
592.15	4887.04
592.31	5380.89
592.46	5783.46
592.62	6111.14
592.78	6799.26
592.94	6864.79
593.10	6839.05
593.26	6574.56
593.41	6026.88
593.57	5366.85
593.73	4648.30
593.89	4126.36
594.05	3850.18
594.20	3353.99
594.36	3056.74
594.52	3094.19
594.68	2724.38
594.84	2705.66
594.99	2635.44
595.15	2462.24
595.31	2499.69
595.47	2408.41
595.62	2495.01
595.78	2438.84
595.94	2466.92
596.10	2499.69
596.25	2415.43
596.41	2478.63
596.57	2443.52
596.73	2410.75
596.88	2448.20
597.04	2506.71
597.20	2541.82
597.36	2654.17
597.51	2567.57
597.67	2607.36
597.83	2682.25
597.99	2902.26
598.14	3009.93
598.30	3222.92
598.46	3459.31
598.61	3611.45
598.77	3665.28
598.93	4053.81
599.09	4091.26
599.24	4180.20
599.40	3988.27
599.56	3955.51
599.71	3763.58
599.87	3501.44
600.03	3370.37
600.18	3122.27
600.34	2953.76
600.50	2862.48
600.65	2635.44
600.81	2487.99
600.97	2204.78
601.12	2258.62
601.28	2143.93
601.44	1970.73
601.59	1905.20
601.75	1837.32
601.91	1727.32
602.06	1771.79
602.22	1771.79
602.37	1612.63
602.53	1668.80
602.69	1530.71
602.84	1654.76
603.00	1636.03
603.16	1708.59
603.31	1640.72
603.47	1720.29
603.62	1577.52
603.78	1666.46
603.94	1795.19
604.09	1703.91
604.25	1802.21
604.40	1877.11
604.56	1827.96
604.71	1886.47
604.87	1860.73
605.03	1928.60
605.18	1959.03
