SpectraSuite Data File
++++++++++++++++++++++++++++++++++++
Date: Fri Oct 04 11:42:15 GMT-05:00 2013
User: price-jones
Dark Spectrum Present: No
Reference Spectrum Present: No
Number of Sampled Component Spectra: 1
Spectrometers: USB2+H05261
Integration Time (usec): 100000 (USB2+H05261)
Spectra Averaged: 1 (USB2+H05261)
Boxcar Smoothing: 0 (USB2+H05261)
Correct for Electrical Dark: No (USB2+H05261)
Strobe/Lamp Enabled: No (USB2+H05261)
Correct for Detector Non-linearity: No (USB2+H05261)
Correct for Stray Light: No (USB2+H05261)
Number of Pixels in Processed Spectrum: 2048
>>>>>Begin Processed Spectral Data<<<<<
365.73	79.58
365.92	79.58
366.12	79.58
366.32	0.00
366.52	0.00
366.72	0.00
366.91	0.00
367.11	0.00
367.31	0.00
367.51	0.00
367.70	0.00
367.90	0.00
368.10	0.00
368.30	0.00
368.49	0.00
368.69	0.00
368.89	0.00
369.09	0.00
369.28	0.00
369.48	0.00
369.68	0.00
369.87	0.00
370.07	0.00
370.27	0.00
370.47	58.51
370.66	184.90
370.86	198.95
371.06	304.27
371.25	292.57
371.45	234.05
371.65	189.58
371.84	273.84
372.04	266.82
372.24	271.50
372.44	234.05
372.63	294.91
372.83	379.17
373.03	320.65
373.22	245.76
373.42	276.18
373.62	208.31
373.81	306.61
374.01	308.95
374.21	311.29
374.40	290.23
374.60	374.49
374.79	297.25
374.99	313.63
375.19	374.49
375.38	404.91
375.58	362.78
375.78	402.57
375.97	344.06
376.17	407.25
376.37	292.57
376.56	330.02
376.76	320.65
376.95	358.10
377.15	428.32
377.35	369.80
377.54	397.89
377.74	332.36
377.93	402.57
378.13	376.83
378.33	386.19
378.52	353.42
378.72	409.59
378.91	353.42
379.11	315.97
379.31	292.57
379.50	353.42
379.70	388.53
379.89	388.53
380.09	418.96
380.28	362.78
380.48	318.31
380.68	400.23
380.87	346.40
381.07	351.08
381.26	344.06
381.46	325.33
381.65	376.83
381.85	283.20
382.04	294.91
382.24	400.23
382.43	330.02
382.63	271.50
382.83	297.25
383.02	308.95
383.22	348.74
383.41	250.44
383.61	308.95
383.80	250.44
384.00	362.78
384.19	374.49
384.39	346.40
384.58	379.17
384.78	407.25
384.97	442.36
385.17	369.80
385.36	320.65
385.56	381.51
385.75	332.36
385.95	346.40
386.14	465.77
386.34	411.93
386.53	351.08
386.72	400.23
386.92	442.36
387.11	456.40
387.31	418.96
387.50	353.42
387.70	327.68
387.89	486.83
388.09	393.21
388.28	421.30
388.48	414.27
388.67	418.96
388.86	454.06
389.06	465.77
389.25	477.47
389.45	479.81
389.64	372.15
389.84	589.82
390.03	571.09
390.22	470.45
390.42	470.45
390.61	507.90
390.81	557.05
391.00	566.41
391.19	559.39
391.39	475.13
391.58	512.58
391.78	440.02
391.97	447.04
392.16	458.74
392.36	393.21
392.55	388.53
392.75	304.27
392.94	180.22
393.13	283.20
393.33	273.84
393.52	332.36
393.71	381.51
393.91	425.98
394.10	528.96
394.29	465.77
394.49	559.39
394.68	526.62
394.88	540.66
395.07	564.07
395.26	507.90
395.46	507.90
395.65	442.36
395.84	484.49
396.04	500.87
396.23	332.36
396.42	337.04
396.62	362.78
396.81	344.06
397.00	423.64
397.19	472.79
397.39	582.79
397.58	603.86
397.77	531.30
397.97	594.50
398.16	678.76
398.35	667.05
398.55	695.14
398.74	697.48
398.93	732.59
399.12	650.67
399.32	648.33
399.51	664.71
399.70	781.74
399.90	711.52
400.09	746.63
400.28	709.18
400.47	800.46
400.67	802.80
400.86	784.08
401.05	828.55
401.24	741.95
401.44	723.23
401.63	770.04
401.82	821.53
402.01	819.19
402.21	737.27
402.40	739.61
402.59	821.53
402.78	753.65
402.97	718.54
403.17	678.76
403.36	753.65
403.55	837.91
403.74	751.31
403.93	814.51
404.13	940.90
404.32	898.77
404.51	856.64
404.70	915.15
404.89	800.46
405.09	772.38
405.28	660.03
405.47	828.55
405.66	784.08
405.85	854.30
406.05	744.29
406.24	723.23
406.43	720.88
406.62	734.93
406.81	849.61
407.00	821.53
407.20	755.99
407.39	779.40
407.58	737.27
407.77	699.82
407.96	861.32
408.15	816.85
408.34	866.00
408.54	791.10
408.73	774.72
408.92	954.94
409.11	901.11
409.30	800.46
409.49	741.95
409.68	723.23
409.87	784.08
410.07	737.27
410.26	828.55
410.45	898.77
410.64	821.53
410.83	837.91
411.02	922.17
411.21	905.79
411.40	866.00
411.59	835.57
411.78	912.81
411.98	971.32
412.17	910.47
412.36	983.02
412.55	854.30
412.74	990.05
412.93	954.94
413.12	919.83
413.31	1062.60
413.50	978.34
413.69	943.24
413.88	910.47
414.07	959.62
414.26	931.53
414.45	901.11
414.64	1034.52
414.83	1025.15
415.02	983.02
415.22	912.81
415.41	952.60
415.60	961.96
415.79	990.05
415.98	1039.20
416.17	980.68
416.36	1027.50
416.55	985.37
416.74	987.71
416.93	938.55
417.12	980.68
417.31	966.64
417.50	943.24
417.69	980.68
417.88	997.07
418.07	950.26
418.26	1053.24
418.45	1011.11
418.64	987.71
418.83	1006.43
419.02	1015.79
419.21	1046.22
419.39	933.87
419.58	847.27
419.77	992.39
419.96	959.62
420.15	1034.52
420.34	1060.26
420.53	1170.27
420.72	1118.78
420.91	1114.10
421.10	1034.52
421.29	1100.05
421.48	1060.26
421.67	1109.41
421.86	1041.54
422.05	1088.35
422.24	940.90
422.43	999.41
422.61	936.21
422.80	1048.56
422.99	1146.86
423.18	1064.94
423.37	1053.24
423.56	1043.88
423.75	1008.77
423.94	1015.79
424.13	964.30
424.32	994.73
424.50	1076.65
424.69	1022.81
424.88	1041.54
425.07	973.66
425.26	971.32
425.45	973.66
425.64	940.90
425.83	938.55
426.01	971.32
426.20	1135.16
426.39	1104.73
426.58	912.81
426.77	849.61
426.96	931.53
427.15	894.08
427.33	903.45
427.52	931.53
427.71	947.92
427.90	1018.13
428.09	957.28
428.28	933.87
428.46	924.51
428.65	954.94
428.84	1008.77
429.03	954.94
429.22	922.17
429.40	891.74
429.59	863.66
429.78	788.76
429.97	704.50
430.16	655.35
430.34	636.63
430.53	809.83
430.72	772.38
430.91	844.93
431.10	954.94
431.28	1071.97
431.47	1160.91
431.66	1170.27
431.85	1093.03
432.03	1053.24
432.22	964.30
432.41	1107.07
432.60	1139.84
432.79	1174.95
432.97	1193.67
433.16	1151.54
433.35	1039.20
433.54	870.68
433.72	961.96
433.91	952.60
434.10	1036.86
434.28	1118.78
434.47	1144.52
434.66	1130.48
434.85	1034.52
435.03	1205.38
435.22	1530.71
435.41	1842.00
435.59	1996.48
435.78	1790.51
435.97	1430.07
436.16	1357.51
436.34	1137.50
436.53	1116.44
436.72	1179.63
436.90	1158.57
437.09	1130.48
437.28	1149.20
437.46	1027.50
437.65	1165.59
437.84	1071.97
438.02	959.62
438.21	997.07
438.40	1034.52
438.58	1132.82
438.77	1153.88
438.96	1132.82
439.14	1212.40
439.33	1174.95
439.52	1186.65
439.70	1247.51
439.89	1083.67
440.08	1139.84
440.26	1102.39
440.45	1226.44
440.63	1331.76
440.82	1299.00
441.01	1277.93
441.19	1259.21
441.38	1263.89
441.57	1313.04
441.75	1366.87
441.94	1476.88
442.12	1359.85
442.31	1282.61
442.50	1247.51
442.68	1350.49
442.87	1378.58
443.05	1245.16
443.24	1336.45
443.43	1310.70
443.61	1287.29
443.80	1362.19
443.98	1310.70
444.17	1376.24
444.35	1294.32
444.54	1425.39
444.73	1355.17
444.91	1366.87
445.10	1270.91
445.28	1284.95
445.47	1249.85
445.65	1289.64
445.84	1270.91
446.02	1289.64
446.21	1287.29
446.39	1256.87
446.58	1343.47
446.77	1301.34
446.95	1287.29
447.14	1378.58
447.32	1465.18
447.51	1418.36
447.69	1329.42
447.88	1364.53
448.06	1268.57
448.25	1416.02
448.43	1352.83
448.62	1291.98
448.80	1373.89
448.99	1423.05
449.17	1378.58
449.36	1355.17
449.54	1409.00
449.73	1551.78
449.91	1423.05
450.10	1509.65
450.28	1519.01
450.46	1584.54
450.65	1465.18
450.83	1469.86
451.02	1460.49
451.20	1483.90
451.39	1376.24
451.57	1490.92
451.76	1474.54
451.94	1549.43
452.13	1441.77
452.31	1366.87
452.49	1348.15
452.68	1238.14
452.86	1228.78
453.05	1277.93
453.23	1397.30
453.42	1434.75
453.60	1430.07
453.78	1390.28
453.97	1350.49
454.15	1390.28
454.34	1378.58
454.52	1369.21
454.70	1439.43
454.89	1409.00
455.07	1352.83
455.26	1444.11
455.44	1411.34
455.62	1516.67
455.81	1521.35
455.99	1465.18
456.17	1500.28
456.36	1420.71
456.54	1474.54
456.73	1460.49
456.91	1614.97
457.09	1516.67
457.28	1530.71
457.46	1383.26
457.64	1476.88
457.83	1376.24
458.01	1500.28
458.19	1526.03
458.38	1493.26
458.56	1458.15
458.74	1462.83
458.93	1423.05
459.11	1350.49
459.29	1502.62
459.48	1526.03
459.66	1500.28
459.84	1507.30
460.03	1547.09
460.21	1542.41
460.39	1460.49
460.57	1526.03
460.76	1528.37
460.94	1502.62
461.12	1603.27
461.31	1490.92
461.49	1430.07
461.67	1551.78
461.85	1519.01
462.04	1533.05
462.22	1729.66
462.40	1568.16
462.59	1481.56
462.77	1411.34
462.95	1523.69
463.13	1542.41
463.32	1488.58
463.50	1519.01
463.68	1629.01
463.86	1469.86
464.05	1465.18
464.23	1486.24
464.41	1308.36
464.59	1465.18
464.78	1535.39
464.96	1497.94
465.14	1514.33
465.32	1488.58
465.50	1467.52
465.69	1556.46
465.87	1526.03
466.05	1535.39
466.23	1528.37
466.41	1320.06
466.60	1380.92
466.78	1322.40
466.96	1378.58
467.14	1551.78
467.32	1528.37
467.51	1488.58
467.69	1481.56
467.87	1418.36
468.05	1495.60
468.23	1514.33
468.41	1565.82
468.60	1497.94
468.78	1479.22
468.96	1511.99
469.14	1570.50
469.32	1570.50
469.50	1474.54
469.69	1561.14
469.87	1434.75
470.05	1490.92
470.23	1551.78
470.41	1418.36
470.59	1451.13
470.77	1479.22
470.95	1558.80
471.14	1497.94
471.32	1514.33
471.50	1624.33
471.68	1682.85
471.86	1636.03
472.04	1572.84
472.22	1619.65
472.40	1565.82
472.58	1455.81
472.77	1507.30
472.95	1537.73
473.13	1558.80
473.31	1549.43
473.49	1469.86
473.67	1497.94
473.85	1626.67
474.03	1659.44
474.21	1570.50
474.39	1696.89
474.57	1659.44
474.75	1680.50
474.93	1652.42
475.12	1577.52
475.30	1673.48
475.48	1600.93
475.66	1668.80
475.84	1685.19
476.02	1589.22
476.20	1561.14
476.38	1678.16
476.56	1678.16
476.74	1668.80
476.92	1717.95
477.10	1673.48
477.28	1776.47
477.46	1769.44
477.64	1837.32
477.82	1827.96
478.00	1680.50
478.18	1687.53
478.36	1767.10
478.54	1729.66
478.72	1748.38
478.90	1746.04
479.08	1856.04
479.26	1820.94
479.44	1837.32
479.62	1830.30
479.80	1905.20
479.98	1874.77
480.16	1785.83
480.34	1825.62
480.52	1860.73
480.70	1944.99
480.88	1849.02
481.06	1902.86
481.24	1872.43
481.41	1973.07
481.59	2024.56
481.77	2054.99
481.95	1982.43
482.13	2118.18
482.31	2073.71
482.49	2005.84
482.67	1954.35
482.85	1994.14
483.03	1994.14
483.21	2045.63
483.39	1916.90
483.57	2033.93
483.74	2064.35
483.92	2108.82
484.10	1996.48
484.28	2136.91
484.46	2232.87
484.64	2160.31
484.82	2122.87
485.00	2040.95
485.18	2090.10
485.35	2043.29
485.53	1877.11
485.71	1713.27
485.89	1696.89
486.07	1682.85
486.25	2005.84
486.43	2005.84
486.61	1900.52
486.78	2076.06
486.96	2022.22
487.14	2125.21
487.32	2209.47
487.50	2319.47
487.68	2300.75
487.85	2209.47
488.03	2361.60
488.21	2265.64
488.39	2204.78
488.57	2136.91
488.75	2237.55
488.92	2506.71
489.10	2326.49
489.28	2399.05
489.46	2448.20
489.64	2459.90
489.81	2413.09
489.99	2516.08
490.17	2527.78
490.35	2509.05
490.53	2448.20
490.70	2445.86
490.88	2342.88
491.06	2520.76
491.24	2502.03
491.41	2539.48
491.59	2396.71
491.77	2200.10
491.95	2298.41
492.13	2289.04
492.30	2485.65
492.48	2509.05
492.66	2668.21
492.84	2630.76
493.01	2593.31
493.19	2539.48
493.37	2417.77
493.54	2375.64
493.72	2583.95
493.90	2628.42
494.08	2616.72
494.25	2546.50
494.43	2717.36
494.61	2787.58
494.79	2796.94
494.96	2675.23
495.14	2679.91
495.32	2609.70
495.49	2581.61
495.67	2644.81
495.85	2668.21
496.02	2633.10
496.20	2771.19
496.38	2703.32
496.55	2689.28
496.73	2696.30
496.91	2761.83
497.09	2799.28
497.26	2794.60
497.44	2787.58
497.62	2654.17
497.79	2649.49
497.97	2553.52
498.14	2516.08
498.32	2607.36
498.50	2693.96
498.67	2698.64
498.85	2768.85
499.03	2726.72
499.20	2726.72
499.38	2876.52
499.56	2822.69
499.73	2794.60
499.91	2656.51
500.08	2731.41
500.26	2443.52
500.44	2609.70
500.61	2651.83
500.79	2588.63
500.97	2597.99
501.14	2675.23
501.32	2630.76
501.49	2663.53
501.67	2619.06
501.84	2633.10
502.02	2715.02
502.20	2712.68
502.37	2663.53
502.55	2623.74
502.72	2679.91
502.90	2733.75
503.07	2668.21
503.25	2675.23
503.43	2619.06
503.60	2464.58
503.78	2480.97
503.95	2408.41
504.13	2710.34
504.30	2782.90
504.48	2740.77
504.65	2672.89
504.83	2752.47
505.01	2792.26
505.18	2785.24
505.36	2956.10
505.53	2815.66
505.71	2878.86
505.88	2920.99
506.06	2834.39
506.23	2794.60
506.41	2904.60
506.58	2715.02
506.76	2717.36
506.93	2764.17
507.11	2775.88
507.28	2731.41
507.46	2719.70
507.63	2630.76
507.81	2656.51
507.98	2773.53
508.16	2675.23
508.33	2848.43
508.50	2984.18
508.68	2939.71
508.85	2965.46
509.03	2965.46
509.20	2857.79
509.38	2925.67
509.55	2768.85
509.73	2773.53
509.90	3019.29
510.08	2860.13
510.25	2864.82
510.42	2862.48
510.60	2885.88
510.77	2925.67
510.95	2935.03
511.12	3019.29
511.30	2871.84
511.47	2939.71
511.64	3089.51
511.82	3023.97
511.99	2876.52
512.17	2888.22
512.34	2883.54
512.51	2899.92
512.69	2888.22
512.86	2981.84
513.04	3014.61
513.21	2869.50
513.38	2808.64
513.56	2850.77
513.73	2703.32
513.90	2768.85
514.08	2705.66
514.25	2888.22
514.43	2761.83
514.60	2820.35
514.77	2906.95
514.95	2967.80
515.12	2869.50
515.29	2848.43
515.47	2818.00
515.64	2801.62
515.81	2888.22
515.99	2939.71
516.16	2698.64
516.33	2527.78
516.51	2546.50
516.68	2284.36
516.85	2321.81
517.03	2422.45
517.20	2562.89
517.37	2724.38
517.54	2895.24
517.72	2829.71
517.89	2588.63
518.06	2464.58
518.24	2581.61
518.41	2654.17
518.58	2698.64
518.75	2719.70
518.93	2953.76
519.10	2736.09
519.27	2796.94
519.45	2832.05
519.62	2942.05
519.79	2984.18
519.96	2888.22
520.14	3000.57
520.31	2778.22
520.48	2785.24
520.65	2686.94
520.83	2923.33
521.00	2967.80
521.17	2958.44
521.34	2839.07
521.52	2883.54
521.69	2935.03
521.86	3009.93
522.03	3045.04
522.20	2808.64
522.38	2761.83
522.55	2836.73
522.72	2862.48
522.89	2825.03
523.07	2918.65
523.24	2710.34
523.41	3075.46
523.58	3002.91
523.75	3063.76
523.92	3129.30
524.10	3026.31
524.27	3000.57
524.44	3007.59
524.61	2949.08
524.78	3009.93
524.96	3045.04
525.13	2923.33
525.30	2913.97
525.47	3059.08
525.64	3033.33
525.81	2995.89
525.98	2803.96
526.16	2654.17
526.33	2612.04
526.50	2523.10
526.67	2612.04
526.84	2541.82
527.01	2717.36
527.18	2848.43
527.36	2794.60
527.53	2890.56
527.70	3122.27
527.87	2963.12
528.04	2951.42
528.21	2944.39
528.38	3070.78
528.55	2995.89
528.72	3080.14
528.89	3148.02
529.07	3000.57
529.24	3026.31
529.41	3056.74
529.58	2953.76
529.75	2928.01
529.92	3023.97
530.09	2860.13
530.26	2991.20
530.43	3124.62
530.60	3098.87
530.77	3208.87
530.94	3171.43
531.11	3040.36
531.28	3105.89
531.46	2930.35
531.63	2942.05
531.80	3077.80
531.97	2958.44
532.14	2942.05
532.31	2834.39
532.48	2696.30
532.65	2843.75
532.82	2892.90
532.99	2855.45
533.16	3014.61
533.33	3045.04
533.50	2897.58
533.67	2820.35
533.84	2853.11
534.01	2874.18
534.18	2932.69
534.35	3023.97
534.52	2960.78
534.69	2897.58
534.86	2981.84
535.03	3101.21
535.20	3047.38
535.37	3082.49
535.54	3049.72
535.71	3112.91
535.88	3148.02
536.05	3061.42
536.22	2958.44
536.38	2939.71
536.55	2942.05
536.72	2841.41
536.89	2813.32
537.06	2981.84
537.23	3012.27
537.40	3042.70
537.57	3075.46
537.74	3066.10
537.91	2986.52
538.08	3077.80
538.25	2986.52
538.42	3122.27
538.59	3068.44
538.75	3108.23
538.92	2974.82
539.09	3016.95
539.26	2953.76
539.43	2977.16
539.60	3012.27
539.77	3014.61
539.94	3073.12
540.11	3171.43
540.28	3012.27
540.44	3005.25
540.61	3117.59
540.78	3190.15
540.95	3300.16
541.12	3550.59
541.29	3571.66
541.46	3763.58
541.62	3763.58
541.79	3803.37
541.96	3648.90
542.13	3552.93
542.30	3559.95
542.47	3435.91
542.63	3506.12
542.80	3508.46
542.97	3440.59
543.14	3342.28
543.31	3365.69
543.48	3349.31
543.64	3630.17
543.81	3452.29
543.98	3569.32
544.15	3442.93
544.32	3431.23
544.48	3424.20
544.65	3449.95
544.82	3611.45
544.99	3487.40
545.16	3379.73
545.32	3384.41
545.49	3927.42
545.66	4737.24
545.83	5135.14
546.00	4828.53
546.16	4060.83
546.33	3702.73
546.50	3485.06
546.67	3536.55
546.83	3405.48
547.00	3316.54
547.17	3276.75
547.34	3152.70
547.50	3124.62
547.67	3119.93
547.84	3178.45
548.00	3143.34
548.17	3166.74
548.34	3148.02
548.51	3178.45
548.67	3133.98
548.84	3115.25
549.01	3047.38
549.18	3124.62
549.34	3038.02
549.51	2963.12
549.68	3026.31
549.84	3075.46
550.01	2953.76
550.18	3283.77
550.34	3077.80
550.51	2977.16
550.68	3173.77
550.84	2925.67
551.01	2855.45
551.18	2867.16
551.34	2850.77
551.51	2874.18
551.68	2904.60
551.84	2960.78
552.01	3073.12
552.18	2937.37
552.34	2836.73
552.51	2766.51
552.68	2949.08
552.84	2937.37
553.01	2923.33
553.18	2878.86
553.34	3014.61
553.51	2855.45
553.67	3007.59
553.84	2939.71
554.01	2960.78
554.17	2832.05
554.34	2916.31
554.51	3014.61
554.67	2881.20
554.84	2899.92
555.00	2745.45
555.17	2715.02
555.33	2878.86
555.50	2897.58
555.67	2885.88
555.83	2729.06
556.00	2789.92
556.16	2930.35
556.33	2684.59
556.50	2764.17
556.66	2703.32
556.83	2700.98
556.99	2675.23
557.16	2686.94
557.32	2719.70
557.49	2764.17
557.65	2841.41
557.82	2771.19
557.98	2768.85
558.15	2766.51
558.32	2682.25
558.48	2525.44
558.65	2445.86
558.81	2614.38
558.98	2569.91
559.14	2703.32
559.31	2705.66
559.47	2574.59
559.64	2656.51
559.80	2502.03
559.97	2551.18
560.13	2670.55
560.30	2719.70
560.46	2651.83
560.63	2792.26
560.79	2799.28
560.96	2691.62
561.12	2527.78
561.29	2516.08
561.45	2619.06
561.61	2609.70
561.78	2796.94
561.94	2712.68
562.11	2691.62
562.27	2485.65
562.44	2588.63
562.60	2670.55
562.77	2628.42
562.93	2787.58
563.10	2689.28
563.26	2717.36
563.42	2698.64
563.59	2588.63
563.75	2487.99
563.92	2661.19
564.08	2605.02
564.24	2644.81
564.41	2628.42
564.57	2579.27
564.74	2527.78
564.90	2649.49
565.07	2534.80
565.23	2436.50
565.39	2548.84
565.56	2408.41
565.72	2504.37
565.88	2506.71
566.05	2544.16
566.21	2464.58
566.38	2700.98
566.54	2422.45
566.70	2590.97
566.87	2597.99
567.03	2511.39
567.19	2532.46
567.36	2588.63
567.52	2537.14
567.68	2497.35
567.85	2495.01
568.01	2399.05
568.17	2319.47
568.34	2385.01
568.50	2499.69
568.66	2218.83
568.83	2347.56
568.99	2319.47
569.15	2415.43
569.32	2340.54
569.48	2408.41
569.64	2289.04
569.81	2326.49
569.97	2438.84
570.13	2427.14
570.30	2312.45
570.46	2326.49
570.62	2279.68
570.78	2235.21
570.95	2279.68
571.11	2300.75
571.27	2333.51
571.43	2298.41
571.60	2401.39
571.76	2392.03
571.92	2375.64
572.09	2317.13
572.25	2370.96
572.41	2375.64
572.57	2462.24
572.74	2502.03
572.90	2361.60
573.06	2347.56
573.22	2356.92
573.38	2485.65
573.55	2406.07
573.71	2473.95
573.87	2382.67
574.03	2373.30
574.20	2359.26
574.36	2361.60
574.52	2228.19
574.68	2359.26
574.84	2321.81
575.01	2300.75
575.17	2363.94
575.33	2190.74
575.49	2455.22
575.65	2342.88
575.82	2314.79
575.98	2256.28
576.14	2340.54
576.30	2305.43
576.46	2520.76
576.62	2752.47
576.79	2663.53
576.95	2595.65
577.11	2448.20
577.27	2441.18
577.43	2443.52
577.59	2326.49
577.75	2258.62
577.92	2300.75
578.08	2197.76
578.24	2225.85
578.40	2307.77
578.56	2480.97
578.72	2642.46
578.88	2689.28
579.04	2647.15
579.21	2436.50
579.37	2506.71
579.53	2366.28
579.69	2457.56
579.85	2366.28
580.01	2424.80
580.17	2392.03
580.33	2431.82
580.49	2389.69
580.65	2448.20
580.82	2406.07
580.98	2272.66
581.14	2431.82
581.30	2359.26
581.46	2438.84
581.62	2436.50
581.78	2462.24
581.94	2466.92
582.10	2466.92
582.26	2296.07
582.42	2396.71
582.58	2431.82
582.74	2368.62
582.90	2366.28
583.06	2588.63
583.22	2392.03
583.38	2541.82
583.54	2420.11
583.70	2509.05
583.86	2457.56
584.02	2417.77
584.18	2588.63
584.34	2572.25
584.50	2375.64
584.66	2476.29
584.82	2401.39
584.98	2445.86
585.14	2216.49
585.30	2342.88
585.46	2373.30
585.62	2260.96
585.78	2211.81
585.94	2338.20
586.10	2237.55
586.26	2338.20
586.42	2286.70
586.58	2359.26
586.74	2394.37
586.90	2434.16
587.06	2431.82
587.22	2576.93
587.38	2375.64
587.54	2392.03
587.70	2148.61
587.86	2209.47
588.02	2174.36
588.18	2064.35
588.34	1975.41
588.49	1909.88
588.65	1659.44
588.81	1696.89
588.97	1748.38
589.13	1778.81
589.29	1715.61
589.45	1757.74
589.61	1769.44
589.77	1856.04
589.93	1921.58
590.08	1813.92
590.24	1879.45
590.40	1998.82
590.56	1926.26
590.72	1926.26
590.88	1942.64
591.04	2029.24
591.20	2094.78
591.35	1952.01
591.51	1923.92
591.67	1806.89
591.83	1919.24
591.99	2012.86
592.15	2022.22
592.31	2062.01
592.46	2059.67
592.62	2129.89
592.78	2167.34
592.94	2155.63
593.10	2076.06
593.26	2181.38
593.41	2097.12
593.57	2017.54
593.73	1954.35
593.89	1994.14
594.05	1877.11
594.20	1933.28
594.36	1961.37
594.52	1895.83
594.68	1830.30
594.84	1795.19
594.99	2001.16
595.15	1977.75
595.31	1853.70
595.47	1994.14
595.62	1989.46
595.78	2054.99
595.94	2019.88
596.10	2120.53
596.25	1926.26
596.41	2026.90
596.57	1989.46
596.73	1895.83
596.88	2019.88
597.04	2015.20
597.20	1954.35
597.36	1935.62
597.51	1991.80
597.67	2015.20
597.83	1900.52
597.99	2017.54
598.14	2097.12
598.30	2090.10
598.46	2036.27
598.61	2064.35
598.77	2040.95
598.93	2019.88
599.09	2054.99
599.24	2106.48
599.40	2062.01
