SpectraSuite Data File
++++++++++++++++++++++++++++++++++++
Date: Fri Oct 04 11:42:29 GMT-05:00 2013
User: price-jones
Dark Spectrum Present: No
Reference Spectrum Present: No
Number of Sampled Component Spectra: 1
Spectrometers: USB2+H05261
Integration Time (usec): 100000 (USB2+H05261)
Spectra Averaged: 1 (USB2+H05261)
Boxcar Smoothing: 0 (USB2+H05261)
Correct for Electrical Dark: No (USB2+H05261)
Strobe/Lamp Enabled: No (USB2+H05261)
Correct for Detector Non-linearity: No (USB2+H05261)
Correct for Stray Light: No (USB2+H05261)
Number of Pixels in Processed Spectrum: 2048
>>>>>Begin Processed Spectral Data<<<<<
365.73	28.09
365.92	28.09
366.12	28.09
366.32	0.00
366.52	0.00
366.72	0.00
366.91	14.04
367.11	0.00
367.31	0.00
367.51	0.00
367.70	0.00
367.90	0.00
368.10	0.00
368.30	0.00
368.49	0.00
368.69	0.00
368.89	0.00
369.09	0.00
369.28	0.00
369.48	46.81
369.68	21.06
369.87	44.47
370.07	23.41
370.27	30.43
370.47	0.00
370.66	37.45
370.86	0.00
371.06	79.58
371.25	65.54
371.45	119.37
371.65	51.49
371.84	110.01
372.04	58.51
372.24	49.15
372.44	147.45
372.63	84.26
372.83	161.50
373.03	124.05
373.22	70.22
373.42	149.79
373.62	4.68
373.81	128.73
374.01	168.52
374.21	182.56
374.40	138.09
374.60	145.11
374.79	56.17
374.99	86.60
375.19	119.37
375.38	145.11
375.58	191.92
375.78	156.82
375.97	145.11
376.17	191.92
376.37	86.60
376.56	177.88
376.76	114.69
376.95	77.24
377.15	168.52
377.35	168.52
377.54	184.90
377.74	88.94
377.93	100.64
378.13	102.98
378.33	84.26
378.52	156.82
378.72	156.82
378.91	161.50
379.11	170.86
379.31	191.92
379.50	105.32
379.70	102.98
379.89	105.32
380.09	135.75
380.28	126.39
380.48	184.90
380.68	98.30
380.87	170.86
381.07	138.09
381.26	119.37
381.46	102.98
381.65	86.60
381.85	102.98
382.04	128.73
382.24	86.60
382.43	112.35
382.63	126.39
382.83	49.15
383.02	128.73
383.22	105.32
383.41	86.60
383.61	84.26
383.80	175.54
384.00	110.01
384.19	119.37
384.39	95.96
384.58	147.45
384.78	112.35
384.97	35.11
385.17	131.07
385.36	93.62
385.56	88.94
385.75	74.90
385.95	128.73
386.14	131.07
386.34	77.24
386.53	86.60
386.72	28.09
386.92	170.86
387.11	91.28
387.31	117.03
387.50	175.54
387.70	98.30
387.89	105.32
388.09	65.54
388.28	131.07
388.48	135.75
388.67	74.90
388.86	173.20
389.06	112.35
389.25	105.32
389.45	88.94
389.64	81.92
389.84	84.26
390.03	93.62
390.22	88.94
390.42	126.39
390.61	74.90
390.81	95.96
391.00	65.54
391.19	107.66
391.39	156.82
391.58	112.35
391.78	32.77
391.97	142.77
392.16	84.26
392.36	194.26
392.55	152.13
392.75	100.64
392.94	100.64
393.13	140.43
393.33	98.30
393.52	98.30
393.71	168.52
393.91	114.69
394.10	105.32
394.29	166.18
394.49	53.83
394.68	142.77
394.88	238.73
395.07	105.32
395.26	79.58
395.46	128.73
395.65	140.43
395.84	105.32
396.04	198.95
396.23	191.92
396.42	152.13
396.62	133.41
396.81	114.69
397.00	107.66
397.19	156.82
397.39	117.03
397.58	168.52
397.77	102.98
397.97	191.92
398.16	105.32
398.35	210.65
398.55	63.19
398.74	131.07
398.93	121.71
399.12	42.13
399.32	159.16
399.51	105.32
399.70	140.43
399.90	131.07
400.09	124.05
400.28	152.13
400.47	177.88
400.67	140.43
400.86	105.32
401.05	107.66
401.24	93.62
401.44	117.03
401.63	189.58
401.82	166.18
402.01	121.71
402.21	70.22
402.40	84.26
402.59	88.94
402.78	131.07
402.97	84.26
403.17	117.03
403.36	138.09
403.55	149.79
403.74	156.82
403.93	543.00
404.13	870.68
404.32	880.04
404.51	725.57
404.70	409.59
404.89	269.16
405.09	210.65
405.28	79.58
405.47	77.24
405.66	142.77
405.85	156.82
406.05	93.62
406.24	65.54
406.43	128.73
406.62	170.86
406.81	191.92
407.00	128.73
407.20	189.58
407.39	220.01
407.58	257.46
407.77	198.95
407.96	147.45
408.15	145.11
408.34	131.07
408.54	107.66
408.73	173.20
408.92	140.43
409.11	88.94
409.30	191.92
409.49	124.05
409.68	140.43
409.87	166.18
410.07	65.54
410.26	131.07
410.45	117.03
410.64	142.77
410.83	140.43
411.02	159.16
411.21	173.20
411.40	184.90
411.59	86.60
411.78	53.83
411.98	161.50
412.17	102.98
412.36	102.98
412.55	110.01
412.74	173.20
412.93	170.86
413.12	217.67
413.31	184.90
413.50	140.43
413.69	212.99
413.88	173.20
414.07	166.18
414.26	133.41
414.45	161.50
414.64	224.69
414.83	145.11
415.02	112.35
415.22	93.62
415.41	175.54
415.60	166.18
415.79	86.60
415.98	177.88
416.17	124.05
416.36	177.88
416.55	100.64
416.74	173.20
416.93	175.54
417.12	84.26
417.31	70.22
417.50	191.92
417.69	173.20
417.88	124.05
418.07	110.01
418.26	147.45
418.45	142.77
418.64	84.26
418.83	133.41
419.02	149.79
419.21	194.26
419.39	147.45
419.58	124.05
419.77	126.39
419.96	229.37
420.15	203.63
420.34	135.75
420.53	161.50
420.72	170.86
420.91	128.73
421.10	175.54
421.29	166.18
421.48	133.41
421.67	67.88
421.86	168.52
422.05	133.41
422.24	140.43
422.43	177.88
422.61	81.92
422.80	180.22
422.99	159.16
423.18	196.60
423.37	198.95
423.56	166.18
423.75	159.16
423.94	182.56
424.13	170.86
424.32	154.48
424.50	243.42
424.69	135.75
424.88	243.42
425.07	142.77
425.26	194.26
425.45	208.31
425.64	166.18
425.83	175.54
426.01	152.13
426.20	156.82
426.39	114.69
426.58	140.43
426.77	138.09
426.96	180.22
427.15	177.88
427.33	88.94
427.52	149.79
427.71	180.22
427.90	107.66
428.09	149.79
428.28	147.45
428.46	163.84
428.65	182.56
428.84	177.88
429.03	245.76
429.22	187.24
429.40	145.11
429.59	152.13
429.78	180.22
429.97	156.82
430.16	145.11
430.34	121.71
430.53	145.11
430.72	131.07
430.91	142.77
431.10	126.39
431.28	147.45
431.47	177.88
431.66	182.56
431.85	131.07
432.03	210.65
432.22	243.42
432.41	138.09
432.60	220.01
432.79	105.32
432.97	177.88
433.16	128.73
433.35	142.77
433.54	131.07
433.72	201.29
433.91	262.14
434.10	187.24
434.28	273.84
434.47	196.60
434.66	271.50
434.85	301.93
435.03	760.67
435.22	2321.81
435.41	3405.48
435.59	3126.96
435.78	2127.55
435.97	1041.54
436.16	517.26
436.34	196.60
436.53	238.73
436.72	248.10
436.90	210.65
437.09	264.48
437.28	177.88
437.46	145.11
437.65	196.60
437.84	205.97
438.02	231.71
438.21	208.31
438.40	114.69
438.58	152.13
438.77	203.63
438.96	177.88
439.14	170.86
439.33	205.97
439.52	177.88
439.70	180.22
439.89	222.35
440.08	224.69
440.26	161.50
440.45	184.90
440.63	224.69
440.82	149.79
441.01	208.31
441.19	175.54
441.38	217.67
441.57	201.29
441.75	229.37
441.94	191.92
442.12	198.95
442.31	91.28
442.50	163.84
442.68	257.46
442.87	205.97
443.05	163.84
443.24	135.75
443.43	264.48
443.61	231.71
443.80	156.82
443.98	133.41
444.17	147.45
444.35	133.41
444.54	238.73
444.73	184.90
444.91	210.65
445.10	152.13
445.28	189.58
445.47	191.92
445.65	170.86
445.84	196.60
446.02	184.90
446.21	194.26
446.39	182.56
446.58	194.26
446.77	152.13
446.95	184.90
447.14	159.16
447.32	196.60
447.51	156.82
447.69	159.16
447.88	205.97
448.06	255.12
448.25	189.58
448.43	187.24
448.62	262.14
448.80	170.86
448.99	177.88
449.17	140.43
449.36	142.77
449.54	182.56
449.73	189.58
449.91	198.95
450.10	177.88
450.28	355.76
450.46	187.24
450.65	177.88
450.83	187.24
451.02	194.26
451.20	236.39
451.39	184.90
451.57	231.71
451.76	231.71
451.94	184.90
452.13	184.90
452.31	159.16
452.49	166.18
452.68	236.39
452.86	205.97
453.05	215.33
453.23	147.45
453.42	301.93
453.60	227.03
453.78	173.20
453.97	114.69
454.15	112.35
454.34	196.60
454.52	182.56
454.70	142.77
454.89	166.18
455.07	184.90
455.26	182.56
455.44	201.29
455.62	184.90
455.81	173.20
455.99	238.73
456.17	227.03
456.36	194.26
456.54	231.71
456.73	198.95
456.91	166.18
457.09	180.22
457.28	210.65
457.46	159.16
457.64	208.31
457.83	201.29
458.01	102.98
458.19	198.95
458.38	154.48
458.56	177.88
458.74	182.56
458.93	131.07
459.11	227.03
459.29	220.01
459.48	208.31
459.66	276.18
459.84	208.31
460.03	280.86
460.21	297.25
460.39	266.82
460.57	149.79
460.76	149.79
460.94	194.26
461.12	280.86
461.31	266.82
461.49	243.42
461.67	217.67
461.85	156.82
462.04	114.69
462.22	299.59
462.40	236.39
462.59	243.42
462.77	177.88
462.95	138.09
463.13	217.67
463.32	215.33
463.50	208.31
463.68	154.48
463.86	262.14
464.05	231.71
464.23	245.76
464.41	152.13
464.59	191.92
464.78	248.10
464.96	168.52
465.14	243.42
465.32	191.92
465.50	177.88
465.69	203.63
465.87	184.90
466.05	161.50
466.23	154.48
466.41	177.88
466.60	147.45
466.78	124.05
466.96	173.20
467.14	271.50
467.32	173.20
467.51	203.63
467.69	182.56
467.87	182.56
468.05	175.54
468.23	220.01
468.41	140.43
468.60	203.63
468.78	227.03
468.96	180.22
469.14	168.52
469.32	166.18
469.50	152.13
469.69	234.05
469.87	177.88
470.05	227.03
470.23	161.50
470.41	117.03
470.59	114.69
470.77	135.75
470.95	156.82
471.14	220.01
471.32	196.60
471.50	224.69
471.68	201.29
471.86	224.69
472.04	184.90
472.22	156.82
472.40	147.45
472.58	177.88
472.77	173.20
472.95	194.26
473.13	194.26
473.31	222.35
473.49	154.48
473.67	133.41
473.85	177.88
474.03	159.16
474.21	196.60
474.39	257.46
474.57	250.44
474.75	231.71
474.93	255.12
475.12	154.48
475.30	255.12
475.48	196.60
475.66	163.84
475.84	189.58
476.02	184.90
476.20	191.92
476.38	236.39
476.56	238.73
476.74	203.63
476.92	205.97
477.10	194.26
477.28	269.16
477.46	142.77
477.64	175.54
477.82	236.39
478.00	196.60
478.18	236.39
478.36	124.05
478.54	220.01
478.72	231.71
478.90	198.95
479.08	217.67
479.26	236.39
479.44	229.37
479.62	264.48
479.80	173.20
479.98	201.29
480.16	234.05
480.34	245.76
480.52	168.52
480.70	229.37
480.88	208.31
481.06	236.39
481.24	215.33
481.41	255.12
481.59	259.80
481.77	250.44
481.95	196.60
482.13	283.20
482.31	250.44
482.49	212.99
482.67	315.97
482.85	306.61
483.03	271.50
483.21	337.04
483.39	308.95
483.57	320.65
483.74	402.57
483.92	276.18
484.10	250.44
484.28	269.16
484.46	442.36
484.64	404.91
484.82	423.64
485.00	383.85
485.18	341.72
485.35	486.83
485.53	444.70
485.71	402.57
485.89	451.72
486.07	407.25
486.25	573.43
486.43	461.09
486.61	456.40
486.78	538.32
486.96	475.13
487.14	477.47
487.32	505.56
487.50	547.69
487.68	449.38
487.85	437.68
488.03	468.11
488.21	423.64
488.39	437.68
488.57	465.77
488.75	416.62
488.92	730.25
489.10	393.21
489.28	482.15
489.46	400.23
489.64	500.87
489.81	395.55
489.99	475.13
490.17	372.15
490.35	465.77
490.53	367.46
490.70	409.59
490.88	493.85
491.06	430.66
491.24	447.04
491.41	360.44
491.59	491.51
491.77	430.66
491.95	393.21
492.13	437.68
492.30	341.72
492.48	454.06
492.66	348.74
492.84	409.59
493.01	365.12
493.19	372.15
493.37	414.27
493.54	430.66
493.72	444.70
493.90	365.12
494.08	388.53
494.25	376.83
494.43	358.10
494.61	294.91
494.79	341.72
494.96	346.40
495.14	400.23
495.32	351.08
495.49	381.51
495.67	315.97
495.85	301.93
496.02	318.31
496.20	355.76
496.38	365.12
496.55	383.85
496.73	285.55
496.91	400.23
497.09	418.96
497.26	381.51
497.44	402.57
497.62	400.23
497.79	320.65
497.97	339.38
498.14	353.42
498.32	372.15
498.50	325.33
498.67	283.20
498.85	285.55
499.03	339.38
499.20	332.36
499.38	220.01
499.56	283.20
499.73	322.99
499.91	292.57
500.08	297.25
500.26	299.59
500.44	262.14
500.61	351.08
500.79	222.35
500.97	311.29
501.14	304.27
501.32	332.36
501.49	222.35
501.67	222.35
501.84	285.55
502.02	201.29
502.20	280.86
502.37	290.23
502.55	250.44
502.72	334.70
502.90	294.91
503.07	259.80
503.25	276.18
503.43	262.14
503.60	325.33
503.78	283.20
503.95	285.55
504.13	266.82
504.30	278.52
504.48	283.20
504.65	243.42
504.83	248.10
505.01	166.18
505.18	229.37
505.36	252.78
505.53	177.88
505.71	224.69
505.88	313.63
506.06	238.73
506.23	238.73
506.41	231.71
506.58	315.97
506.76	273.84
506.93	203.63
507.11	227.03
507.28	287.89
507.46	231.71
507.63	269.16
507.81	208.31
507.98	234.05
508.16	241.08
508.33	250.44
508.50	283.20
508.68	250.44
508.85	315.97
509.03	243.42
509.20	212.99
509.38	250.44
509.55	301.93
509.73	306.61
509.90	231.71
510.08	255.12
510.25	262.14
510.42	257.46
510.60	241.08
510.77	292.57
510.95	271.50
511.12	212.99
511.30	266.82
511.47	271.50
511.64	301.93
511.82	215.33
511.99	266.82
512.17	255.12
512.34	273.84
512.51	255.12
512.69	278.52
512.86	292.57
513.04	269.16
513.21	290.23
513.38	194.26
513.56	308.95
513.73	241.08
513.90	234.05
514.08	255.12
514.25	273.84
514.43	266.82
514.60	210.65
514.77	278.52
514.95	245.76
515.12	180.22
515.29	348.74
515.47	191.92
515.64	280.86
515.81	259.80
515.99	257.46
516.16	273.84
516.33	175.54
516.51	196.60
516.68	224.69
516.85	182.56
517.03	262.14
517.20	325.33
517.37	273.84
517.54	196.60
517.72	241.08
517.89	304.27
518.06	229.37
518.24	273.84
518.41	259.80
518.58	318.31
518.75	196.60
518.93	191.92
519.10	194.26
519.27	161.50
519.45	294.91
519.62	248.10
519.79	248.10
519.96	222.35
520.14	187.24
520.31	273.84
520.48	315.97
520.65	203.63
520.83	304.27
521.00	215.33
521.17	273.84
521.34	269.16
521.52	250.44
521.69	290.23
521.86	259.80
522.03	306.61
522.20	287.89
522.38	245.76
522.55	292.57
522.72	210.65
522.89	203.63
523.07	297.25
523.24	236.39
523.41	187.24
523.58	173.20
523.75	252.78
523.92	217.67
524.10	266.82
524.27	159.16
524.44	311.29
524.61	315.97
524.78	217.67
524.96	252.78
525.13	269.16
525.30	294.91
525.47	393.21
525.64	236.39
525.81	273.84
525.98	299.59
526.16	241.08
526.33	327.68
526.50	227.03
526.67	255.12
526.84	264.48
527.01	234.05
527.18	257.46
527.36	245.76
527.53	311.29
527.70	243.42
527.87	276.18
528.04	355.76
528.21	327.68
528.38	276.18
528.55	301.93
528.72	341.72
528.89	337.04
529.07	320.65
529.24	248.10
529.41	362.78
529.58	234.05
529.75	306.61
529.92	294.91
530.09	224.69
530.26	276.18
530.43	283.20
530.60	287.89
530.77	201.29
530.94	264.48
531.11	280.86
531.28	294.91
531.46	322.99
531.63	196.60
531.80	271.50
531.97	264.48
532.14	243.42
532.31	297.25
532.48	294.91
532.65	308.95
532.82	297.25
532.99	344.06
533.16	428.32
533.33	456.40
533.50	379.17
533.67	414.27
533.84	383.85
534.01	397.89
534.18	365.12
534.35	325.33
534.52	322.99
534.69	360.44
534.86	306.61
535.03	327.68
535.20	355.76
535.37	421.30
535.54	374.49
535.71	463.43
535.88	395.55
536.05	433.00
536.22	374.49
536.38	376.83
536.55	423.64
536.72	418.96
536.89	404.91
537.06	447.04
537.23	545.34
537.40	545.34
537.57	580.45
537.74	566.41
537.91	608.54
538.08	538.32
538.25	603.86
538.42	592.16
538.59	580.45
538.75	564.07
538.92	643.65
539.09	732.59
539.26	711.52
539.43	758.33
539.60	851.96
539.77	1022.81
539.94	950.26
540.11	1128.14
540.28	1167.93
540.44	1273.25
540.61	1315.38
540.78	1596.25
540.95	1724.97
541.12	2193.08
541.29	2160.31
541.46	2331.17
541.62	2333.51
541.79	2335.85
541.96	2225.85
542.13	2083.08
542.30	1973.07
542.47	2047.97
542.63	1849.02
542.80	1802.21
542.97	1977.75
543.14	1856.04
543.31	1830.30
543.48	1858.39
543.64	1916.90
543.81	1767.10
543.98	1846.68
544.15	1827.96
544.32	1739.02
544.48	1839.66
544.65	1820.94
544.82	1724.97
544.99	1682.85
545.16	1687.53
545.32	1867.75
545.49	3377.39
545.66	5186.63
545.83	5778.78
546.00	4910.44
546.16	3473.36
546.33	2562.89
546.50	1928.60
546.67	1703.91
546.83	1465.18
547.00	1411.34
547.17	1320.06
547.34	1322.40
547.50	1385.60
547.67	1231.12
547.84	1146.86
548.00	1191.33
548.17	1221.76
548.34	1135.16
548.51	1081.33
548.67	1050.90
548.84	985.37
549.01	1022.81
549.18	968.98
549.34	910.47
549.51	940.90
549.68	891.74
549.84	828.55
550.01	851.96
550.18	884.72
550.34	791.10
550.51	816.85
550.68	755.99
550.84	730.25
551.01	678.76
551.18	741.95
551.34	603.86
551.51	650.67
551.68	638.97
551.84	575.77
552.01	596.84
552.18	489.17
552.34	545.34
552.51	519.60
552.68	503.22
552.84	531.30
553.01	585.13
553.18	566.41
553.34	472.79
553.51	444.70
553.67	463.43
553.84	444.70
554.01	479.81
554.17	428.32
554.34	372.15
554.51	376.83
554.67	428.32
554.84	451.72
555.00	435.34
555.17	376.83
555.33	360.44
555.50	428.32
555.67	418.96
555.83	341.72
556.00	351.08
556.16	479.81
556.33	339.38
556.50	390.87
556.66	339.38
556.83	292.57
556.99	381.51
557.16	348.74
557.32	348.74
557.49	337.04
557.65	308.95
557.82	294.91
557.98	280.86
558.15	334.70
558.32	269.16
558.48	280.86
558.65	271.50
558.81	379.17
558.98	243.42
559.14	297.25
559.31	304.27
559.47	276.18
559.64	306.61
559.80	266.82
559.97	341.72
560.13	245.76
560.30	273.84
560.46	367.46
560.63	306.61
560.79	255.12
560.96	327.68
561.12	273.84
561.29	313.63
561.45	259.80
561.61	285.55
561.78	376.83
561.94	294.91
562.11	245.76
562.27	358.10
562.44	318.31
562.60	264.48
562.77	266.82
562.93	346.40
563.10	311.29
563.26	297.25
563.42	287.89
563.59	269.16
563.75	238.73
563.92	297.25
564.08	276.18
564.24	304.27
564.41	332.36
564.57	236.39
564.74	259.80
564.90	334.70
565.07	231.71
565.23	231.71
565.39	241.08
565.56	245.76
565.72	220.01
565.88	224.69
566.05	299.59
566.21	241.08
566.38	227.03
566.54	299.59
566.70	250.44
566.87	257.46
567.03	266.82
567.19	250.44
567.36	327.68
567.52	304.27
567.68	229.37
567.85	285.55
568.01	304.27
568.17	252.78
568.34	222.35
568.50	285.55
568.66	173.20
568.83	374.49
568.99	187.24
569.15	299.59
569.32	222.35
569.48	203.63
569.64	220.01
569.81	198.95
569.97	227.03
570.13	266.82
570.30	245.76
570.46	266.82
570.62	250.44
570.78	180.22
570.95	173.20
571.11	292.57
571.27	280.86
571.43	236.39
571.60	217.67
571.76	229.37
571.92	271.50
572.09	248.10
572.25	283.20
572.41	301.93
572.57	271.50
572.74	292.57
572.90	327.68
573.06	191.92
573.22	318.31
573.38	208.31
573.55	266.82
573.71	255.12
573.87	322.99
574.03	337.04
574.20	194.26
574.36	299.59
574.52	238.73
574.68	189.58
574.84	255.12
575.01	353.42
575.17	332.36
575.33	243.42
575.49	330.02
575.65	294.91
575.82	245.76
575.98	348.74
576.14	198.95
576.30	421.30
576.46	844.93
576.62	1081.33
576.79	1170.27
576.95	866.00
577.11	690.46
577.27	503.22
577.43	517.26
577.59	365.12
577.75	353.42
577.92	271.50
578.08	236.39
578.24	407.25
578.40	395.55
578.56	819.19
578.72	1053.24
578.88	1104.73
579.04	922.17
579.21	690.46
579.37	547.69
579.53	435.34
579.69	589.82
579.85	531.30
580.01	653.01
580.17	688.12
580.33	622.58
580.49	430.66
580.65	521.94
580.82	400.23
580.98	489.17
581.14	425.98
581.30	533.64
581.46	489.17
581.62	524.28
581.78	472.79
581.94	496.19
582.10	559.39
582.26	540.66
582.42	507.90
582.58	528.96
582.74	617.90
582.90	592.16
583.06	617.90
583.22	594.50
583.38	519.60
583.54	587.47
583.70	552.37
583.86	564.07
584.02	552.37
584.18	606.20
584.34	557.05
584.50	587.47
584.66	573.43
584.82	571.09
584.98	519.60
585.14	458.74
585.30	564.07
585.46	507.90
585.62	517.26
585.78	486.83
585.94	505.56
586.10	486.83
586.26	566.41
586.42	505.56
586.58	720.88
586.74	807.48
586.90	861.32
587.06	807.48
587.22	919.83
587.38	809.83
587.54	624.92
587.70	601.52
587.86	559.39
588.02	564.07
588.18	521.94
588.34	489.17
588.49	416.62
588.65	454.06
588.81	355.76
588.97	402.57
589.13	360.44
589.29	411.93
589.45	407.25
589.61	348.74
589.77	456.40
589.93	379.17
590.08	397.89
590.24	407.25
590.40	409.59
590.56	489.17
590.72	421.30
590.88	444.70
591.04	451.72
591.20	472.79
591.35	461.09
591.51	456.40
591.67	475.13
591.83	367.46
591.99	500.87
592.15	545.34
592.31	545.34
592.46	615.56
592.62	589.82
592.78	643.65
592.94	643.65
593.10	739.61
593.26	538.32
593.41	683.44
593.57	493.85
593.73	430.66
593.89	470.45
594.05	442.36
594.20	437.68
594.36	454.06
594.52	358.10
594.68	362.78
594.84	360.44
594.99	379.17
595.15	348.74
595.31	362.78
595.47	372.15
595.62	402.57
595.78	395.55
595.94	344.06
596.10	395.55
596.25	386.19
596.41	367.46
596.57	379.17
596.73	339.38
596.88	360.44
597.04	447.04
597.20	353.42
597.36	386.19
597.51	421.30
597.67	360.44
597.83	362.78
597.99	390.87
598.14	367.46
598.30	383.85
598.46	353.42
598.61	437.68
598.77	437.68
598.93	444.70
599.09	477.47
599.24	421.30
599.40	468.11
599.56	521.94
599.71	505.56
599.87	493.85
600.03	454.06
600.18	404.91
600.34	402.57
600.50	339.38
600.65	365.12
600.81	379.17
600.97	386.19
601.12	318.31
601.28	369.80
601.44	334.70
601.59	243.42
601.75	360.44
601.91	222.35
602.06	308.95
602.22	409.59
602.37	337.04
602.53	257.46
602.69	318.31
602.84	301.93
603.00	243.42
603.16	334.70
603.31	322.99
603.47	332.36
603.62	283.20
603.78	327.68
603.94	290.23
604.09	327.68
604.25	369.80
604.40	341.72
604.56	346.40
604.71	346.40
604.87	372.15
605.03	367.46
605.18	404.91
605.34	379.17
605.49	327.68
605.65	365.12
605.80	301.93
605.96	440.02
606.12	395.55
606.27	409.59
606.43	315.97
606.58	374.49
606.74	468.11
606.89	374.49
607.05	433.00
607.20	381.51
607.36	365.12
607.51	482.15
607.67	433.00
607.82	449.38
607.98	503.22
608.13	517.26
608.29	479.81
608.44	610.88
608.60	575.77
608.75	657.69
608.91	777.06
609.06	695.14
609.22	737.27
609.37	842.59
609.53	959.62
609.68	947.92
609.84	1193.67
609.99	1256.87
610.15	1568.16
610.30	1806.89
610.46	2333.51
610.61	2977.16
