SpectraSuite Data File
++++++++++++++++++++++++++++++++++++
Date: Fri Oct 04 11:41:59 GMT-05:00 2013
User: price-jones
Dark Spectrum Present: No
Reference Spectrum Present: No
Number of Sampled Component Spectra: 1
Spectrometers: USB2+H05261
Integration Time (usec): 100000 (USB2+H05261)
Spectra Averaged: 1 (USB2+H05261)
Boxcar Smoothing: 0 (USB2+H05261)
Correct for Electrical Dark: No (USB2+H05261)
Strobe/Lamp Enabled: No (USB2+H05261)
Correct for Detector Non-linearity: No (USB2+H05261)
Correct for Stray Light: No (USB2+H05261)
Number of Pixels in Processed Spectrum: 2048
>>>>>Begin Processed Spectral Data<<<<<
365.73	170.86
365.92	170.86
366.12	170.86
366.32	0.00
366.52	0.00
366.72	0.00
366.91	0.00
367.11	0.00
367.31	0.00
367.51	0.00
367.70	0.00
367.90	0.00
368.10	0.00
368.30	0.00
368.49	0.00
368.69	0.00
368.89	0.00
369.09	0.00
369.28	0.00
369.48	0.00
369.68	0.00
369.87	9.36
370.07	0.00
370.27	72.56
370.47	4.68
370.66	16.38
370.86	39.79
371.06	67.88
371.25	102.98
371.45	84.26
371.65	163.84
371.84	65.54
372.04	98.30
372.24	49.15
372.44	60.85
372.63	79.58
372.83	119.37
373.03	149.79
373.22	56.17
373.42	149.79
373.62	119.37
373.81	147.45
374.01	79.58
374.21	152.13
374.40	86.60
374.60	149.79
374.79	163.84
374.99	128.73
375.19	159.16
375.38	128.73
375.58	152.13
375.78	156.82
375.97	166.18
376.17	170.86
376.37	124.05
376.56	124.05
376.76	159.16
376.95	147.45
377.15	184.90
377.35	180.22
377.54	142.77
377.74	131.07
377.93	154.48
378.13	135.75
378.33	152.13
378.52	100.64
378.72	166.18
378.91	100.64
379.11	156.82
379.31	95.96
379.50	114.69
379.70	100.64
379.89	189.58
380.09	56.17
380.28	138.09
380.48	184.90
380.68	49.15
380.87	147.45
381.07	131.07
381.26	163.84
381.46	124.05
381.65	131.07
381.85	124.05
382.04	81.92
382.24	180.22
382.43	110.01
382.63	112.35
382.83	138.09
383.02	110.01
383.22	187.24
383.41	112.35
383.61	142.77
383.80	133.41
384.00	110.01
384.19	112.35
384.39	93.62
384.58	67.88
384.78	147.45
384.97	140.43
385.17	100.64
385.36	70.22
385.56	107.66
385.75	102.98
385.95	117.03
386.14	154.48
386.34	107.66
386.53	107.66
386.72	110.01
386.92	156.82
387.11	112.35
387.31	149.79
387.50	145.11
387.70	93.62
387.89	126.39
388.09	93.62
388.28	100.64
388.48	105.32
388.67	124.05
388.86	107.66
389.06	112.35
389.25	138.09
389.45	175.54
389.64	81.92
389.84	124.05
390.03	95.96
390.22	117.03
390.42	112.35
390.61	159.16
390.81	142.77
391.00	131.07
391.19	147.45
391.39	142.77
391.58	182.56
391.78	201.29
391.97	117.03
392.16	147.45
392.36	175.54
392.55	170.86
392.75	91.28
392.94	135.75
393.13	91.28
393.33	70.22
393.52	74.90
393.71	177.88
393.91	100.64
394.10	142.77
394.29	112.35
394.49	135.75
394.68	245.76
394.88	156.82
395.07	152.13
395.26	77.24
395.46	102.98
395.65	161.50
395.84	84.26
396.04	180.22
396.23	114.69
396.42	107.66
396.62	126.39
396.81	86.60
397.00	152.13
397.19	182.56
397.39	91.28
397.58	149.79
397.77	114.69
397.97	145.11
398.16	168.52
398.35	205.97
398.55	77.24
398.74	182.56
398.93	147.45
399.12	86.60
399.32	147.45
399.51	166.18
399.70	175.54
399.90	191.92
400.09	145.11
400.28	191.92
400.47	142.77
400.67	152.13
400.86	168.52
401.05	222.35
401.24	142.77
401.44	198.95
401.63	222.35
401.82	196.60
402.01	142.77
402.21	208.31
402.40	215.33
402.59	210.65
402.78	156.82
402.97	166.18
403.17	163.84
403.36	241.08
403.55	241.08
403.74	606.20
403.93	1874.77
404.13	4830.87
404.32	6665.85
404.51	5678.14
404.70	3503.78
404.89	1217.08
405.09	477.47
405.28	264.48
405.47	210.65
405.66	212.99
405.85	201.29
406.05	224.69
406.24	201.29
406.43	257.46
406.62	203.63
406.81	231.71
407.00	414.27
407.20	561.73
407.39	926.85
407.58	957.28
407.77	704.50
407.96	411.93
408.15	259.80
408.34	292.57
408.54	166.18
408.73	163.84
408.92	236.39
409.11	201.29
409.30	210.65
409.49	140.43
409.68	149.79
409.87	112.35
410.07	163.84
410.26	222.35
410.45	205.97
410.64	170.86
410.83	203.63
411.02	98.30
411.21	205.97
411.40	147.45
411.59	210.65
411.78	140.43
411.98	210.65
412.17	205.97
412.36	180.22
412.55	217.67
412.74	252.78
412.93	327.68
413.12	224.69
413.31	255.12
413.50	210.65
413.69	133.41
413.88	262.14
414.07	203.63
414.26	215.33
414.45	196.60
414.64	208.31
414.83	203.63
415.02	220.01
415.22	156.82
415.41	238.73
415.60	189.58
415.79	266.82
415.98	292.57
416.17	238.73
416.36	250.44
416.55	332.36
416.74	229.37
416.93	292.57
417.12	241.08
417.31	205.97
417.50	245.76
417.69	285.55
417.88	245.76
418.07	257.46
418.26	196.60
418.45	229.37
418.64	301.93
418.83	250.44
419.02	252.78
419.21	168.52
419.39	238.73
419.58	231.71
419.77	234.05
419.96	280.86
420.15	234.05
420.34	184.90
420.53	280.86
420.72	252.78
420.91	280.86
421.10	222.35
421.29	231.71
421.48	315.97
421.67	215.33
421.86	273.84
422.05	201.29
422.24	297.25
422.43	227.03
422.61	297.25
422.80	243.42
422.99	269.16
423.18	224.69
423.37	257.46
423.56	210.65
423.75	259.80
423.94	292.57
424.13	278.52
424.32	248.10
424.50	259.80
424.69	269.16
424.88	271.50
425.07	187.24
425.26	313.63
425.45	315.97
425.64	341.72
425.83	337.04
426.01	276.18
426.20	283.20
426.39	388.53
426.58	346.40
426.77	339.38
426.96	327.68
427.15	386.19
427.33	285.55
427.52	362.78
427.71	231.71
427.90	205.97
428.09	322.99
428.28	262.14
428.46	243.42
428.65	348.74
428.84	358.10
429.03	290.23
429.22	369.80
429.40	308.95
429.59	337.04
429.78	369.80
429.97	367.46
430.16	308.95
430.34	330.02
430.53	327.68
430.72	365.12
430.91	365.12
431.10	374.49
431.28	341.72
431.47	381.51
431.66	451.72
431.85	383.85
432.03	404.91
432.22	505.56
432.41	402.57
432.60	475.13
432.79	339.38
432.97	360.44
433.16	444.70
433.35	517.26
433.54	575.77
433.72	603.86
433.91	528.96
434.10	653.01
434.28	866.00
434.47	922.17
434.66	945.58
434.85	1284.95
435.03	3382.07
435.22	12304.20
435.41	28254.95
435.59	30099.29
435.78	19393.68
435.97	9713.22
436.16	3611.45
436.34	1322.40
436.53	788.76
436.72	629.60
436.90	599.18
437.09	498.53
437.28	582.79
437.46	510.24
437.65	479.81
437.84	449.38
438.02	381.51
438.21	397.89
438.40	416.62
438.58	416.62
438.77	395.55
438.96	379.17
439.14	400.23
439.33	482.15
439.52	475.13
439.70	493.85
439.89	461.09
440.08	428.32
440.26	416.62
440.45	505.56
440.63	451.72
440.82	428.32
441.01	372.15
441.19	440.02
441.38	390.87
441.57	449.38
441.75	496.19
441.94	411.93
442.12	418.96
442.31	346.40
442.50	414.27
442.68	449.38
442.87	421.30
443.05	423.64
443.24	458.74
443.43	461.09
443.61	475.13
443.80	411.93
443.98	414.27
444.17	472.79
444.35	449.38
444.54	482.15
444.73	416.62
444.91	451.72
445.10	489.17
445.28	400.23
445.47	454.06
445.65	428.32
445.84	433.00
446.02	404.91
446.21	379.17
446.39	454.06
446.58	489.17
446.77	372.15
446.95	411.93
447.14	425.98
447.32	475.13
447.51	414.27
447.69	411.93
447.88	433.00
448.06	458.74
448.25	418.96
448.43	351.08
448.62	402.57
448.80	416.62
448.99	451.72
449.17	381.51
449.36	416.62
449.54	435.34
449.73	425.98
449.91	458.74
450.10	386.19
450.28	418.96
450.46	463.43
450.65	372.15
450.83	353.42
451.02	402.57
451.20	475.13
451.39	521.94
451.57	435.34
451.76	437.68
451.94	440.02
452.13	482.15
452.31	479.81
452.49	458.74
452.68	430.66
452.86	451.72
453.05	390.87
453.23	475.13
453.42	367.46
453.60	388.53
453.78	407.25
453.97	402.57
454.15	322.99
454.34	402.57
454.52	400.23
454.70	400.23
454.89	440.02
455.07	418.96
455.26	407.25
455.44	416.62
455.62	327.68
455.81	369.80
455.99	388.53
456.17	372.15
456.36	451.72
456.54	442.36
456.73	411.93
456.91	507.90
457.09	428.32
457.28	404.91
457.46	444.70
457.64	414.27
457.83	390.87
458.01	421.30
458.19	456.40
458.38	327.68
458.56	388.53
458.74	346.40
458.93	369.80
459.11	386.19
459.29	451.72
459.48	425.98
459.66	468.11
459.84	444.70
460.03	472.79
460.21	449.38
460.39	425.98
460.57	489.17
460.76	458.74
460.94	447.04
461.12	463.43
461.31	425.98
461.49	465.77
461.67	393.21
461.85	414.27
462.04	353.42
462.22	849.61
462.40	472.79
462.59	407.25
462.77	365.12
462.95	479.81
463.13	332.36
463.32	437.68
463.50	470.45
463.68	397.89
463.86	397.89
464.05	397.89
464.23	435.34
464.41	533.64
464.59	376.83
464.78	463.43
464.96	386.19
465.14	416.62
465.32	411.93
465.50	433.00
465.69	383.85
465.87	440.02
466.05	428.32
466.23	372.15
466.41	484.49
466.60	395.55
466.78	400.23
466.96	528.96
467.14	393.21
467.32	456.40
467.51	442.36
467.69	425.98
467.87	475.13
468.05	390.87
468.23	411.93
468.41	409.59
468.60	379.17
468.78	404.91
468.96	390.87
469.14	374.49
469.32	353.42
469.50	297.25
469.69	395.55
469.87	318.31
470.05	411.93
470.23	411.93
470.41	456.40
470.59	423.64
470.77	411.93
470.95	430.66
471.14	449.38
471.32	374.49
471.50	451.72
471.68	416.62
471.86	421.30
472.04	395.55
472.22	404.91
472.40	433.00
472.58	400.23
472.77	353.42
472.95	381.51
473.13	449.38
473.31	430.66
473.49	425.98
473.67	397.89
473.85	465.77
474.03	355.76
474.21	386.19
474.39	449.38
474.57	454.06
474.75	463.43
474.93	435.34
475.12	285.55
475.30	402.57
475.48	465.77
475.66	376.83
475.84	339.38
476.02	339.38
476.20	353.42
476.38	404.91
476.56	369.80
476.74	365.12
476.92	456.40
477.10	421.30
477.28	491.51
477.46	449.38
477.64	461.09
477.82	475.13
478.00	479.81
478.18	524.28
478.36	388.53
478.54	489.17
478.72	414.27
478.90	456.40
479.08	514.92
479.26	510.24
479.44	533.64
479.62	580.45
479.80	568.75
479.98	596.84
480.16	585.13
480.34	578.11
480.52	531.30
480.70	594.50
480.88	636.63
481.06	678.76
481.24	699.82
481.41	645.99
481.59	784.08
481.77	814.51
481.95	851.96
482.13	938.55
482.31	896.43
482.49	945.58
482.67	1100.05
482.85	1231.12
483.03	1121.12
483.21	1242.82
483.39	1441.77
483.57	1469.86
483.74	1542.41
483.92	1675.82
484.10	1685.19
484.28	1877.11
484.46	1842.00
484.64	2069.03
484.82	2176.70
485.00	2146.27
485.18	2260.96
485.35	2473.95
485.53	2548.84
485.71	2651.83
485.89	2827.37
486.07	2839.07
486.25	2869.50
486.43	2911.63
486.61	2885.88
486.78	2991.20
486.96	2963.12
487.14	2963.12
487.32	2932.69
487.50	2876.52
487.68	2780.56
487.85	2839.07
488.03	2855.45
488.21	2792.26
488.39	2719.70
488.57	2661.19
488.75	2457.56
488.92	2703.32
489.10	2431.82
489.28	2530.12
489.46	2347.56
489.64	2317.13
489.81	2270.32
489.99	2251.60
490.17	2181.38
490.35	2349.90
490.53	2218.83
490.70	2193.08
490.88	2239.89
491.06	2356.92
491.24	2569.91
491.41	2663.53
491.59	2349.90
491.77	2244.57
491.95	2045.63
492.13	2111.16
492.30	2043.29
492.48	2057.33
492.66	2022.22
492.84	1933.28
493.01	1863.07
493.19	1888.81
493.37	1963.71
493.54	1900.52
493.72	1792.85
493.90	1797.53
494.08	1734.34
494.25	1797.53
494.43	1795.19
494.61	1661.78
494.79	1657.10
494.96	1659.44
495.14	1561.14
495.32	1558.80
495.49	1577.52
495.67	1596.25
495.85	1526.03
496.02	1537.73
496.20	1526.03
496.38	1511.99
496.55	1385.60
496.73	1432.41
496.91	1308.36
497.09	1423.05
497.26	1345.81
497.44	1324.74
497.62	1268.57
497.79	1277.93
497.97	1263.89
498.14	1263.89
498.32	1167.93
498.50	1121.12
498.67	1097.71
498.85	1151.54
499.03	1107.07
499.20	1081.33
499.38	964.30
499.56	1041.54
499.73	1046.22
499.91	1032.18
500.08	1069.62
500.26	863.66
500.44	908.13
500.61	851.96
500.79	847.27
500.97	898.77
501.14	823.87
501.32	870.68
501.49	758.33
501.67	746.63
501.84	828.55
502.02	725.57
502.20	706.84
502.37	765.36
502.55	688.12
502.72	636.63
502.90	763.01
503.07	662.37
503.25	702.16
503.43	603.86
503.60	589.82
503.78	599.18
503.95	667.05
504.13	528.96
504.30	620.24
504.48	648.33
504.65	561.73
504.83	463.43
505.01	589.82
505.18	535.98
505.36	571.09
505.53	514.92
505.71	484.49
505.88	517.26
506.06	482.15
506.23	444.70
506.41	475.13
506.58	540.66
506.76	526.62
506.93	423.64
507.11	496.19
507.28	468.11
507.46	442.36
507.63	416.62
507.81	505.56
507.98	362.78
508.16	379.17
508.33	449.38
508.50	500.87
508.68	505.56
508.85	526.62
509.03	482.15
509.20	500.87
509.38	470.45
509.55	500.87
509.73	519.60
509.90	500.87
510.08	407.25
510.25	482.15
510.42	486.83
510.60	498.53
510.77	484.49
510.95	416.62
511.12	390.87
511.30	428.32
511.47	435.34
511.64	472.79
511.82	449.38
511.99	383.85
512.17	411.93
512.34	411.93
512.51	430.66
512.69	475.13
512.86	503.22
513.04	369.80
513.21	423.64
513.38	440.02
513.56	365.12
513.73	475.13
513.90	407.25
514.08	395.55
514.25	383.85
514.43	395.55
514.60	409.59
514.77	423.64
514.95	353.42
515.12	330.02
515.29	360.44
515.47	358.10
515.64	306.61
515.81	397.89
515.99	409.59
516.16	395.55
516.33	447.04
516.51	404.91
516.68	374.49
516.85	351.08
517.03	400.23
517.20	353.42
517.37	386.19
517.54	315.97
517.72	355.76
517.89	330.02
518.06	362.78
518.24	397.89
518.41	451.72
518.58	358.10
518.75	266.82
518.93	294.91
519.10	306.61
519.27	351.08
519.45	411.93
519.62	374.49
519.79	332.36
519.96	327.68
520.14	337.04
520.31	374.49
520.48	381.51
520.65	358.10
520.83	283.20
521.00	318.31
521.17	416.62
521.34	355.76
521.52	351.08
521.69	381.51
521.86	327.68
522.03	433.00
522.20	433.00
522.38	369.80
522.55	360.44
522.72	273.84
522.89	383.85
523.07	414.27
523.24	344.06
523.41	332.36
523.58	344.06
523.75	395.55
523.92	320.65
524.10	306.61
524.27	388.53
524.44	400.23
524.61	468.11
524.78	388.53
524.96	367.46
525.13	414.27
525.30	477.47
525.47	416.62
525.64	334.70
525.81	362.78
525.98	283.20
526.16	355.76
526.33	418.96
526.50	444.70
526.67	365.12
526.84	400.23
527.01	451.72
527.18	447.04
527.36	430.66
527.53	505.56
527.70	533.64
527.87	451.72
528.04	543.00
528.21	444.70
528.38	472.79
528.55	482.15
528.72	507.90
528.89	582.79
529.07	507.90
529.24	458.74
529.41	540.66
529.58	496.19
529.75	482.15
529.92	505.56
530.09	468.11
530.26	489.17
530.43	521.94
530.60	514.92
530.77	496.19
530.94	498.53
531.11	594.50
531.28	587.47
531.46	601.52
531.63	596.84
531.80	596.84
531.97	741.95
532.14	748.97
532.31	798.12
532.48	877.70
532.65	1212.40
532.82	1308.36
532.99	1490.92
533.16	1783.49
533.33	1837.32
533.50	1678.16
533.67	1411.34
533.84	1313.04
534.01	1142.18
534.18	1130.48
534.35	973.66
534.52	1032.18
534.69	1170.27
534.86	1067.28
535.03	1142.18
535.20	1233.46
535.37	1266.23
535.54	1273.25
535.71	1511.99
535.88	1516.67
536.05	1472.20
536.22	1596.25
536.38	1781.15
536.55	2050.31
536.72	2195.42
536.89	2497.35
537.06	2761.83
537.23	2979.50
537.40	3335.26
537.57	3424.20
537.74	3726.13
537.91	3805.71
538.08	3758.90
538.25	4131.05
538.42	3990.61
538.59	4025.72
538.75	4273.82
538.92	4449.36
539.09	4840.23
539.26	5558.77
539.43	6108.80
539.60	7005.22
539.77	7843.14
539.94	8704.45
540.11	9652.37
540.28	10757.10
540.44	11473.31
540.61	12657.62
540.78	14473.87
540.95	17568.06
541.12	21135.04
541.29	24245.61
541.46	24828.40
541.62	24723.08
541.79	23747.08
541.96	21525.91
542.13	20292.44
542.30	18764.07
542.47	17530.61
542.63	17053.14
542.80	16243.32
542.97	16058.42
543.14	16074.80
543.31	15908.62
543.48	16233.96
543.64	16615.46
543.81	16533.54
543.98	16510.14
544.15	16545.25
544.32	17050.80
544.48	16994.63
544.65	16650.57
544.82	16453.97
544.99	16402.47
545.16	16833.13
545.32	17949.57
545.49	28975.83
545.66	52882.06
545.83	59435.56
546.00	54293.41
546.16	38895.02
546.33	28491.34
546.50	21596.12
546.67	17060.16
546.83	15253.27
547.00	14537.07
547.17	13675.75
547.34	13128.06
547.50	12386.12
547.67	12285.47
547.84	11637.14
548.00	11257.98
548.17	10946.69
548.34	10417.72
548.51	10111.11
548.67	9664.07
548.84	9011.06
549.01	8589.77
549.18	8348.69
549.34	8098.25
549.51	7709.72
549.68	7456.95
549.84	7112.89
550.01	6710.32
550.18	6551.16
550.34	6160.29
550.51	6024.54
550.68	5591.54
550.84	5123.43
551.01	4929.17
551.18	4793.42
551.34	4777.03
551.51	4400.21
551.68	4203.60
551.84	4126.36
552.01	3901.67
552.18	3798.69
552.34	3695.71
552.51	3396.12
552.68	3342.28
552.84	3218.24
553.01	3068.44
553.18	2897.58
553.34	2899.92
553.51	2686.94
553.67	2719.70
553.84	2621.40
554.01	2441.18
554.17	2321.81
554.34	2153.29
554.51	2087.76
554.67	1987.11
554.84	1891.15
555.00	1816.26
555.17	1661.78
555.33	1521.35
555.50	1500.28
555.67	1404.32
555.83	1373.89
556.00	1404.32
556.16	1497.94
556.33	1256.87
556.50	1214.74
556.66	1146.86
556.83	1076.65
556.99	1107.07
557.16	1076.65
557.32	1060.26
557.49	950.26
557.65	976.00
557.82	1022.81
557.98	987.71
558.15	901.11
558.32	952.60
558.48	877.70
558.65	821.53
558.81	870.68
558.98	774.72
559.14	809.83
559.31	788.76
559.47	823.87
559.64	774.72
559.80	772.38
559.97	788.76
560.13	734.93
560.30	767.70
560.46	737.27
560.63	699.82
560.79	699.82
560.96	741.95
561.12	772.38
561.29	784.08
561.45	777.06
561.61	744.29
561.78	737.27
561.94	791.10
562.11	683.44
562.27	624.92
562.44	697.48
562.60	610.88
562.77	734.93
562.93	755.99
563.10	847.27
563.26	650.67
563.42	746.63
563.59	627.26
563.75	655.35
563.92	713.86
564.08	669.39
564.24	711.52
564.41	758.33
564.57	645.99
564.74	636.63
564.90	629.60
565.07	685.78
565.23	685.78
565.39	599.18
565.56	622.58
565.72	571.09
565.88	552.37
566.05	594.50
566.21	514.92
566.38	608.54
566.54	657.69
566.70	592.16
566.87	580.45
567.03	582.79
567.19	580.45
567.36	638.97
567.52	505.56
567.68	552.37
567.85	580.45
568.01	568.75
568.17	557.05
568.34	636.63
568.50	695.14
568.66	533.64
568.83	713.86
568.99	631.94
569.15	566.41
569.32	571.09
569.48	547.69
569.64	484.49
569.81	517.26
569.97	578.11
570.13	512.58
570.30	510.24
570.46	489.17
570.62	526.62
570.78	486.83
570.95	437.68
571.11	580.45
571.27	547.69
571.43	416.62
571.60	517.26
571.76	418.96
571.92	484.49
572.09	435.34
572.25	470.45
572.41	484.49
572.57	496.19
572.74	528.96
572.90	531.30
573.06	540.66
573.22	500.87
573.38	533.64
573.55	521.94
573.71	599.18
573.87	578.11
574.03	454.06
574.20	500.87
574.36	601.52
574.52	528.96
574.68	550.03
574.84	552.37
575.01	533.64
575.17	657.69
575.33	676.41
575.49	763.01
575.65	730.25
575.82	814.51
575.98	873.02
576.14	1015.79
576.30	2008.18
576.46	6186.04
576.62	10927.96
576.79	12072.48
576.95	8596.79
577.11	5689.84
577.27	4042.11
577.43	2649.49
577.59	1825.62
577.75	1444.11
577.92	1301.34
578.08	1268.57
578.24	1247.51
578.40	2033.93
578.56	5764.74
578.72	9886.42
578.88	10970.09
579.04	8224.64
579.21	5516.64
579.37	4042.11
579.53	3218.24
579.69	3098.87
579.85	3875.93
580.01	4304.25
580.17	4227.01
580.33	3641.87
580.49	3246.32
580.65	2850.77
580.82	2586.29
580.98	2539.48
581.14	2485.65
581.30	2773.53
581.46	2750.13
581.62	2960.78
581.78	3222.92
581.94	3405.48
582.10	3843.16
582.26	3847.84
582.42	3990.61
582.58	4119.34
582.74	4145.09
582.90	4437.66
583.06	4191.90
583.22	4276.16
583.38	4388.50
583.54	4271.48
583.70	4210.62
583.86	4320.63
584.02	4058.49
584.18	3948.48
584.34	3960.19
584.50	3908.69
584.66	3775.28
584.82	3808.05
584.98	3712.09
585.14	3604.42
585.30	3592.72
585.46	3548.25
585.62	3417.18
585.78	3562.30
585.94	3536.55
586.10	3810.39
586.26	3749.54
586.42	4266.80
586.58	5085.98
586.74	6392.00
586.90	7538.87
587.06	8580.40
587.22	8161.45
587.38	7426.52
587.54	6354.55
587.70	5359.83
587.86	4629.58
588.02	4067.85
588.18	3440.59
588.34	3063.76
588.49	2839.07
588.65	2607.36
588.81	2469.27
588.97	2513.74
589.13	2420.11
589.29	2394.37
589.45	2359.26
589.61	2345.22
589.77	2375.64
589.93	2438.84
590.08	2495.01
590.24	2509.05
590.40	2590.97
590.56	2684.59
590.72	2698.64
590.88	2736.09
591.04	2906.95
591.20	3047.38
591.35	3183.13
591.51	3337.60
591.67	3332.92
591.83	3686.34
591.99	3967.21
592.15	4388.50
592.31	4650.64
592.46	4863.63
592.62	5397.28
592.78	5713.25
592.94	6031.56
593.10	5846.66
593.26	5458.13
593.41	5128.11
593.57	4587.45
593.73	4166.15
593.89	3719.11
594.05	3131.64
594.20	2946.73
594.36	2738.43
594.52	2452.88
594.68	2413.09
594.84	2452.88
594.99	2335.85
595.15	2275.00
595.31	2190.74
595.47	2162.66
595.62	2155.63
595.78	2153.29
595.94	2054.99
596.10	2167.34
596.25	2104.14
596.41	2101.80
596.57	2090.10
596.73	2113.50
596.88	1966.05
597.04	2043.29
597.20	2235.21
597.36	2172.02
597.51	2176.70
597.67	2389.69
597.83	2495.01
597.99	2588.63
598.14	2719.70
598.30	2785.24
598.46	3049.72
598.61	3162.06
598.77	3325.90
598.93	3435.91
599.09	3559.95
599.24	3599.74
599.40	3583.36
599.56	3384.41
599.71	3232.28
599.87	3131.64
600.03	2937.37
600.18	2710.34
600.34	2583.95
600.50	2413.09
600.65	2267.98
600.81	2106.48
600.97	2008.18
601.12	1980.09
601.28	1935.62
601.44	1834.98
601.59	1757.74
601.75	1607.95
601.91	1570.50
602.06	1516.67
602.22	1439.43
602.37	1479.22
602.53	1301.34
602.69	1385.60
602.84	1397.30
603.00	1465.18
603.16	1500.28
603.31	1453.47
603.47	1432.41
603.62	1502.62
603.78	1535.39
603.94	1643.06
604.09	1746.04
604.25	1584.54
604.40	1654.76
604.56	1659.44
604.71	1748.38
604.87	1678.16
605.03	1666.46
605.18	1724.97
605.34	1870.09
