SpectraSuite Data File
++++++++++++++++++++++++++++++++++++
Date: Fri Oct 04 11:41:50 GMT-05:00 2013
User: price-jones
Dark Spectrum Present: No
Reference Spectrum Present: No
Number of Sampled Component Spectra: 1
Spectrometers: USB2+H05261
Integration Time (usec): 100000 (USB2+H05261)
Spectra Averaged: 1 (USB2+H05261)
Boxcar Smoothing: 0 (USB2+H05261)
Correct for Electrical Dark: No (USB2+H05261)
Strobe/Lamp Enabled: No (USB2+H05261)
Correct for Detector Non-linearity: No (USB2+H05261)
Correct for Stray Light: No (USB2+H05261)
Number of Pixels in Processed Spectrum: 2048
>>>>>Begin Processed Spectral Data<<<<<
365.73	0.00
365.92	0.00
366.12	0.00
366.32	0.00
366.52	0.00
366.72	0.00
366.91	0.00
367.11	0.00
367.31	0.00
367.51	0.00
367.70	0.00
367.90	0.00
368.10	0.00
368.30	0.00
368.49	0.00
368.69	0.00
368.89	0.00
369.09	0.00
369.28	0.00
369.48	0.00
369.68	0.00
369.87	0.00
370.07	32.77
370.27	0.00
370.47	0.00
370.66	0.00
370.86	42.13
371.06	51.49
371.25	81.92
371.45	53.83
371.65	44.47
371.84	105.32
372.04	135.75
372.24	72.56
372.44	39.79
372.63	161.50
372.83	166.18
373.03	65.54
373.22	98.30
373.42	140.43
373.62	32.77
373.81	107.66
374.01	142.77
374.21	145.11
374.40	56.17
374.60	81.92
374.79	154.48
374.99	126.39
375.19	163.84
375.38	133.41
375.58	119.37
375.78	77.24
375.97	145.11
376.17	161.50
376.37	117.03
376.56	95.96
376.76	79.58
376.95	124.05
377.15	88.94
377.35	177.88
377.54	189.58
377.74	220.01
377.93	131.07
378.13	163.84
378.33	138.09
378.52	107.66
378.72	187.24
378.91	180.22
379.11	142.77
379.31	210.65
379.50	105.32
379.70	91.28
379.89	102.98
380.09	133.41
380.28	117.03
380.48	74.90
380.68	180.22
380.87	58.51
381.07	119.37
381.26	140.43
381.46	163.84
381.65	84.26
381.85	140.43
382.04	93.62
382.24	131.07
382.43	117.03
382.63	56.17
382.83	152.13
383.02	166.18
383.22	138.09
383.41	126.39
383.61	67.88
383.80	79.58
384.00	145.11
384.19	81.92
384.39	114.69
384.58	112.35
384.78	112.35
384.97	65.54
385.17	133.41
385.36	102.98
385.56	100.64
385.75	51.49
385.95	98.30
386.14	131.07
386.34	112.35
386.53	65.54
386.72	119.37
386.92	98.30
387.11	86.60
387.31	187.24
387.50	126.39
387.70	88.94
387.89	105.32
388.09	198.95
388.28	86.60
388.48	154.48
388.67	79.58
388.86	166.18
389.06	70.22
389.25	107.66
389.45	124.05
389.64	128.73
389.84	166.18
390.03	201.29
390.22	147.45
390.42	112.35
390.61	135.75
390.81	142.77
391.00	138.09
391.19	65.54
391.39	39.79
391.58	93.62
391.78	182.56
391.97	128.73
392.16	110.01
392.36	126.39
392.55	98.30
392.75	117.03
392.94	142.77
393.13	145.11
393.33	63.19
393.52	77.24
393.71	91.28
393.91	126.39
394.10	135.75
394.29	119.37
394.49	72.56
394.68	131.07
394.88	161.50
395.07	128.73
395.26	72.56
395.46	128.73
395.65	135.75
395.84	63.19
396.04	170.86
396.23	35.11
396.42	37.45
396.62	91.28
396.81	161.50
397.00	81.92
397.19	100.64
397.39	203.63
397.58	149.79
397.77	128.73
397.97	210.65
398.16	163.84
398.35	177.88
398.55	107.66
398.74	124.05
398.93	119.37
399.12	222.35
399.32	112.35
399.51	159.16
399.70	210.65
399.90	215.33
400.09	205.97
400.28	152.13
400.47	126.39
400.67	177.88
400.86	250.44
401.05	180.22
401.24	224.69
401.44	182.56
401.63	177.88
401.82	245.76
402.01	145.11
402.21	180.22
402.40	163.84
402.59	201.29
402.78	273.84
402.97	212.99
403.17	243.42
403.36	301.93
403.55	318.31
403.74	627.26
403.93	2134.57
404.13	5411.32
404.32	7936.76
404.51	6932.67
404.70	4411.91
404.89	1586.88
405.09	624.92
405.28	252.78
405.47	220.01
405.66	248.10
405.85	229.37
406.05	245.76
406.24	245.76
406.43	175.54
406.62	212.99
406.81	264.48
407.00	400.23
407.20	674.07
407.39	1020.47
407.58	1001.75
407.77	861.32
407.96	411.93
408.15	220.01
408.34	250.44
408.54	203.63
408.73	224.69
408.92	145.11
409.11	201.29
409.30	205.97
409.49	147.45
409.68	262.14
409.87	220.01
410.07	117.03
410.26	215.33
410.45	198.95
410.64	191.92
410.83	184.90
411.02	241.08
411.21	212.99
411.40	271.50
411.59	252.78
411.78	161.50
411.98	166.18
412.17	147.45
412.36	154.48
412.55	229.37
412.74	203.63
412.93	215.33
413.12	194.26
413.31	243.42
413.50	259.80
413.69	238.73
413.88	264.48
414.07	259.80
414.26	255.12
414.45	241.08
414.64	248.10
414.83	191.92
415.02	271.50
415.22	269.16
415.41	241.08
415.60	262.14
415.79	278.52
415.98	220.01
416.17	266.82
416.36	208.31
416.55	280.86
416.74	337.04
416.93	311.29
417.12	276.18
417.31	285.55
417.50	248.10
417.69	227.03
417.88	299.59
418.07	264.48
418.26	308.95
418.45	287.89
418.64	369.80
418.83	264.48
419.02	292.57
419.21	252.78
419.39	271.50
419.58	264.48
419.77	287.89
419.96	243.42
420.15	262.14
420.34	313.63
420.53	262.14
420.72	330.02
420.91	262.14
421.10	252.78
421.29	358.10
421.48	290.23
421.67	297.25
421.86	266.82
422.05	278.52
422.24	297.25
422.43	259.80
422.61	290.23
422.80	301.93
422.99	285.55
423.18	358.10
423.37	353.42
423.56	367.46
423.75	344.06
423.94	273.84
424.13	315.97
424.32	376.83
424.50	315.97
424.69	348.74
424.88	386.19
425.07	294.91
425.26	308.95
425.45	369.80
425.64	280.86
425.83	290.23
426.01	433.00
426.20	416.62
426.39	388.53
426.58	353.42
426.77	325.33
426.96	411.93
427.15	339.38
427.33	266.82
427.52	404.91
427.71	301.93
427.90	294.91
428.09	360.44
428.28	353.42
428.46	292.57
428.65	360.44
428.84	437.68
429.03	395.55
429.22	346.40
429.40	423.64
429.59	332.36
429.78	400.23
429.97	479.81
430.16	311.29
430.34	362.78
430.53	351.08
430.72	358.10
430.91	472.79
431.10	322.99
431.28	430.66
431.47	428.32
431.66	390.87
431.85	463.43
432.03	437.68
432.22	547.69
432.41	535.98
432.60	493.85
432.79	454.06
432.97	440.02
433.16	475.13
433.35	550.03
433.54	627.26
433.72	751.31
433.91	655.35
434.10	727.91
434.28	884.72
434.47	1048.56
434.66	1228.78
434.85	1390.28
435.03	3744.86
435.22	13338.71
435.41	32261.94
435.59	37432.19
435.78	24837.76
435.97	12353.35
436.16	4891.72
436.34	1767.10
436.53	1046.22
436.72	772.38
436.90	681.10
437.09	552.37
437.28	564.07
437.46	554.71
437.65	519.60
437.84	578.11
438.02	430.66
438.21	498.53
438.40	608.54
438.58	440.02
438.77	519.60
438.96	587.47
439.14	512.58
439.33	524.28
439.52	470.45
439.70	421.30
439.89	552.37
440.08	489.17
440.26	458.74
440.45	543.00
440.63	421.30
440.82	573.43
441.01	543.00
441.19	456.40
441.38	489.17
441.57	486.83
441.75	437.68
441.94	517.26
442.12	540.66
442.31	470.45
442.50	472.79
442.68	461.09
442.87	491.51
443.05	535.98
443.24	550.03
443.43	505.56
443.61	510.24
443.80	468.11
443.98	484.49
444.17	517.26
444.35	547.69
444.54	383.85
444.73	404.91
444.91	533.64
445.10	486.83
445.28	440.02
445.47	559.39
445.65	468.11
445.84	447.04
446.02	538.32
446.21	517.26
446.39	428.32
446.58	603.86
446.77	458.74
446.95	528.96
447.14	458.74
447.32	545.34
447.51	547.69
447.69	514.92
447.88	573.43
448.06	500.87
448.25	456.40
448.43	475.13
448.62	416.62
448.80	449.38
448.99	449.38
449.17	402.57
449.36	409.59
449.54	573.43
449.73	482.15
449.91	493.85
450.10	468.11
450.28	531.30
450.46	475.13
450.65	531.30
450.83	482.15
451.02	482.15
451.20	512.58
451.39	430.66
451.57	493.85
451.76	482.15
451.94	475.13
452.13	573.43
452.31	451.72
452.49	463.43
452.68	491.51
452.86	468.11
453.05	521.94
453.23	444.70
453.42	512.58
453.60	423.64
453.78	503.22
453.97	421.30
454.15	517.26
454.34	512.58
454.52	503.22
454.70	543.00
454.89	557.05
455.07	449.38
455.26	468.11
455.44	475.13
455.62	470.45
455.81	489.17
455.99	531.30
456.17	482.15
456.36	517.26
456.54	402.57
456.73	430.66
456.91	470.45
457.09	430.66
457.28	489.17
457.46	461.09
457.64	557.05
457.83	454.06
458.01	414.27
458.19	409.59
458.38	435.34
458.56	472.79
458.74	477.47
458.93	514.92
459.11	519.60
459.29	458.74
459.48	461.09
459.66	524.28
459.84	451.72
460.03	528.96
460.21	447.04
460.39	528.96
460.57	482.15
460.76	374.49
460.94	526.62
461.12	379.17
461.31	496.19
461.49	468.11
461.67	407.25
461.85	496.19
462.04	428.32
462.22	987.71
462.40	465.77
462.59	507.90
462.77	496.19
462.95	500.87
463.13	383.85
463.32	442.36
463.50	475.13
463.68	428.32
463.86	416.62
464.05	442.36
464.23	402.57
464.41	561.73
464.59	521.94
464.78	486.83
464.96	428.32
465.14	437.68
465.32	433.00
465.50	521.94
465.69	486.83
465.87	451.72
466.05	414.27
466.23	456.40
466.41	463.43
466.60	540.66
466.78	451.72
466.96	571.09
467.14	545.34
467.32	482.15
467.51	505.56
467.69	400.23
467.87	491.51
468.05	479.81
468.23	402.57
468.41	418.96
468.60	503.22
468.78	486.83
468.96	437.68
469.14	458.74
469.32	411.93
469.50	358.10
469.69	472.79
469.87	514.92
470.05	407.25
470.23	465.77
470.41	458.74
470.59	482.15
470.77	496.19
470.95	456.40
471.14	521.94
471.32	486.83
471.50	557.05
471.68	404.91
471.86	463.43
472.04	482.15
472.22	454.06
472.40	479.81
472.58	472.79
472.77	430.66
472.95	425.98
473.13	468.11
473.31	521.94
473.49	463.43
473.67	507.90
473.85	435.34
474.03	454.06
474.21	421.30
474.39	482.15
474.57	550.03
474.75	468.11
474.93	461.09
475.12	421.30
475.30	409.59
475.48	468.11
475.66	550.03
475.84	493.85
476.02	407.25
476.20	447.04
476.38	437.68
476.56	524.28
476.74	416.62
476.92	465.77
477.10	472.79
477.28	461.09
477.46	458.74
477.64	507.90
477.82	517.26
478.00	547.69
478.18	491.51
478.36	554.71
478.54	458.74
478.72	533.64
478.90	580.45
479.08	517.26
479.26	596.84
479.44	543.00
479.62	491.51
479.80	631.94
479.98	629.60
480.16	664.71
480.34	664.71
480.52	695.14
480.70	660.03
480.88	697.48
481.06	732.59
481.24	711.52
481.41	858.98
481.59	901.11
481.77	954.94
481.95	1081.33
482.13	1090.69
482.31	1114.10
482.49	1160.91
482.67	1291.98
482.85	1404.32
483.03	1446.45
483.21	1593.90
483.39	1598.59
483.57	1774.13
483.74	1982.43
483.92	1863.07
484.10	2043.29
484.28	2401.39
484.46	2298.41
484.64	2401.39
484.82	2427.14
485.00	2574.59
485.18	2719.70
485.35	2913.97
485.53	3066.10
485.71	3180.79
485.89	3379.73
486.07	3461.65
486.25	3566.98
486.43	3471.01
486.61	3520.17
486.78	3459.31
486.96	3421.86
487.14	3611.45
487.32	3410.16
487.50	3461.65
487.68	3531.87
487.85	3478.04
488.03	3396.12
488.21	3225.26
488.39	3218.24
488.57	3162.06
488.75	2972.48
488.92	3302.50
489.10	2892.90
489.28	2724.38
489.46	2834.39
489.64	2705.66
489.81	2689.28
489.99	2710.34
490.17	2715.02
490.35	2750.13
490.53	2633.10
490.70	2588.63
490.88	2590.97
491.06	2750.13
491.24	2991.20
491.41	3070.78
491.59	2974.82
491.77	2576.93
491.95	2548.84
492.13	2464.58
492.30	2539.48
492.48	2382.67
492.66	2410.75
492.84	2286.70
493.01	2321.81
493.19	2244.57
493.37	2246.91
493.54	2186.06
493.72	2328.83
493.90	2127.55
494.08	2038.61
494.25	2062.01
494.43	2031.58
494.61	1966.05
494.79	2069.03
494.96	1956.69
495.14	1832.64
495.32	1799.87
495.49	1830.30
495.67	1806.89
495.85	1842.00
496.02	1767.10
496.20	1717.95
496.38	1757.74
496.55	1699.23
496.73	1767.10
496.91	1626.67
497.09	1685.19
497.26	1516.67
497.44	1568.16
497.62	1577.52
497.79	1565.82
497.97	1434.75
498.14	1511.99
498.32	1432.41
498.50	1387.94
498.67	1266.23
498.85	1263.89
499.03	1212.40
499.20	1125.80
499.38	1177.29
499.56	1235.80
499.73	1219.42
499.91	1172.61
500.08	1224.10
500.26	1121.12
500.44	1055.58
500.61	1083.67
500.79	943.24
500.97	950.26
501.14	968.98
501.32	964.30
501.49	945.58
501.67	877.70
501.84	919.83
502.02	875.36
502.20	887.06
502.37	819.19
502.55	777.06
502.72	760.67
502.90	758.33
503.07	709.18
503.25	695.14
503.43	716.20
503.60	692.80
503.78	730.25
503.95	688.12
504.13	704.50
504.30	568.75
504.48	683.44
504.65	664.71
504.83	662.37
505.01	634.29
505.18	629.60
505.36	634.29
505.53	622.58
505.71	517.26
505.88	610.88
506.06	561.73
506.23	575.77
506.41	554.71
506.58	510.24
506.76	538.32
506.93	552.37
507.11	507.90
507.28	524.28
507.46	486.83
507.63	505.56
507.81	437.68
507.98	444.70
508.16	468.11
508.33	505.56
508.50	535.98
508.68	557.05
508.85	578.11
509.03	489.17
509.20	627.26
509.38	533.64
509.55	524.28
509.73	472.79
509.90	557.05
510.08	514.92
510.25	491.51
510.42	468.11
510.60	482.15
510.77	430.66
510.95	472.79
511.12	512.58
511.30	498.53
511.47	484.49
511.64	458.74
511.82	468.11
511.99	388.53
512.17	393.21
512.34	407.25
512.51	477.47
512.69	482.15
512.86	451.72
513.04	433.00
513.21	395.55
513.38	456.40
513.56	418.96
513.73	355.76
513.90	468.11
514.08	379.17
514.25	358.10
514.43	390.87
514.60	435.34
514.77	365.12
514.95	362.78
515.12	407.25
515.29	440.02
515.47	407.25
515.64	376.83
515.81	425.98
515.99	496.19
516.16	421.30
516.33	468.11
516.51	379.17
516.68	395.55
516.85	435.34
517.03	374.49
517.20	423.64
517.37	383.85
517.54	397.89
517.72	414.27
517.89	369.80
518.06	332.36
518.24	458.74
518.41	416.62
518.58	362.78
518.75	339.38
518.93	348.74
519.10	320.65
519.27	367.46
519.45	444.70
519.62	348.74
519.79	383.85
519.96	409.59
520.14	444.70
520.31	425.98
520.48	404.91
520.65	402.57
520.83	404.91
521.00	397.89
521.17	400.23
521.34	308.95
521.52	339.38
521.69	383.85
521.86	322.99
522.03	355.76
522.20	433.00
522.38	369.80
522.55	376.83
522.72	383.85
522.89	367.46
523.07	379.17
523.24	327.68
523.41	372.15
523.58	362.78
523.75	360.44
523.92	322.99
524.10	313.63
524.27	374.49
524.44	381.51
524.61	421.30
524.78	320.65
524.96	465.77
525.13	451.72
525.30	397.89
525.47	465.77
525.64	407.25
525.81	437.68
525.98	409.59
526.16	376.83
526.33	381.51
526.50	454.06
526.67	442.36
526.84	444.70
527.01	489.17
527.18	510.24
527.36	557.05
527.53	561.73
527.70	575.77
527.87	482.15
528.04	491.51
528.21	514.92
528.38	540.66
528.55	517.26
528.72	519.60
528.89	580.45
529.07	503.22
529.24	510.24
529.41	526.62
529.58	433.00
529.75	528.96
529.92	484.49
530.09	498.53
530.26	547.69
530.43	540.66
530.60	571.09
530.77	526.62
530.94	531.30
531.11	528.96
531.28	613.22
531.46	645.99
531.63	617.90
531.80	653.01
531.97	723.23
532.14	882.38
532.31	957.28
532.48	1146.86
532.65	1383.26
532.82	1497.94
532.99	1685.19
533.16	2078.40
533.33	2214.15
533.50	2001.16
533.67	1629.01
533.84	1423.05
534.01	1306.02
534.18	1186.65
534.35	1172.61
534.52	1153.88
534.69	1224.10
534.86	1273.25
535.03	1263.89
535.20	1373.89
535.37	1355.17
535.54	1537.73
535.71	1647.74
535.88	1734.34
536.05	1834.98
536.22	1905.20
536.38	2104.14
536.55	2366.28
536.72	2583.95
536.89	2869.50
537.06	3187.81
537.23	3590.38
537.40	3992.95
537.57	4147.43
537.74	4479.79
537.91	4538.30
538.08	4681.07
538.25	4741.93
538.42	4683.41
538.59	4781.71
538.75	5039.17
538.92	5181.95
539.09	5841.98
539.26	6431.79
539.43	7262.68
539.60	8285.50
539.77	9156.18
539.94	10176.65
540.11	11234.57
540.28	12655.28
540.44	13928.53
540.61	15131.56
540.78	17497.84
540.95	20746.51
541.12	24966.49
541.29	28428.15
541.46	29790.34
541.62	29689.70
541.79	28746.46
541.96	26918.50
542.13	24514.77
542.30	22974.70
542.47	21371.43
542.63	20416.49
542.80	19906.26
542.97	19810.29
543.14	19407.72
543.31	18867.06
543.48	19023.87
543.64	19824.34
543.81	19765.82
543.98	20049.03
544.15	19889.87
544.32	20088.82
544.48	20161.37
544.65	19805.61
544.82	19786.89
544.99	20266.70
545.16	20465.64
545.32	21376.11
545.49	33757.55
545.66	56963.96
545.83	64217.28
546.00	61263.52
546.16	47957.58
546.33	36030.21
546.50	27063.61
546.67	20908.01
546.83	18396.61
547.00	17284.86
547.17	16552.27
547.34	16009.26
547.50	15400.72
547.67	14822.61
547.84	14075.98
548.00	13757.67
548.17	12879.97
548.34	12711.45
548.51	11955.46
548.67	11529.48
548.84	10843.70
549.01	10375.59
549.18	9928.55
549.34	9488.53
549.51	9202.99
549.68	8952.55
549.84	8613.17
550.01	8131.02
550.18	7772.92
550.34	7407.80
550.51	6890.54
550.68	6885.86
550.84	6417.75
551.01	6012.84
551.18	5846.66
551.34	5617.29
551.51	5167.90
551.68	5153.86
551.84	4798.10
552.01	4521.92
552.18	4414.25
552.34	4322.97
552.51	4234.03
552.68	3978.91
552.84	3749.54
553.01	3733.15
553.18	3578.68
553.34	3400.80
553.51	3255.69
553.67	3241.64
553.84	3316.54
554.01	2958.44
554.17	2792.26
554.34	2602.68
554.51	2331.17
554.67	2340.54
554.84	2073.71
555.00	2036.27
555.17	1966.05
555.33	1921.58
555.50	1776.47
555.67	1666.46
555.83	1661.78
556.00	1614.97
556.16	1778.81
556.33	1427.73
556.50	1343.47
556.66	1364.53
556.83	1341.13
556.99	1240.48
557.16	1383.26
557.32	1170.27
557.49	1153.88
557.65	1153.88
557.82	1167.93
557.98	1146.86
558.15	1114.10
558.32	1090.69
558.48	1078.99
558.65	1055.58
558.81	1004.09
558.98	1039.20
559.14	959.62
559.31	980.68
559.47	954.94
559.64	823.87
559.80	840.25
559.97	863.66
560.13	849.61
560.30	912.81
560.46	807.48
560.63	837.91
560.79	809.83
560.96	936.21
561.12	812.17
561.29	863.66
561.45	910.47
561.61	861.32
561.78	833.23
561.94	835.57
562.11	837.91
562.27	875.36
562.44	861.32
562.60	856.64
562.77	884.72
562.93	751.31
563.10	734.93
563.26	678.76
563.42	772.38
563.59	765.36
563.75	716.20
563.92	770.04
564.08	725.57
564.24	725.57
564.41	727.91
564.57	615.56
564.74	709.18
564.90	669.39
565.07	669.39
565.23	617.90
565.39	620.24
565.56	688.12
565.72	669.39
565.88	683.44
566.05	690.46
566.21	641.31
566.38	587.47
566.54	676.41
566.70	653.01
566.87	692.80
567.03	669.39
567.19	561.73
567.36	653.01
567.52	683.44
567.68	617.90
567.85	697.48
568.01	650.67
568.17	634.29
568.34	697.48
568.50	655.35
568.66	634.29
568.83	667.05
568.99	608.54
569.15	638.97
569.32	510.24
569.48	636.63
569.64	521.94
569.81	613.22
569.97	517.26
570.13	540.66
570.30	512.58
570.46	479.81
570.62	533.64
570.78	486.83
570.95	416.62
571.11	491.51
571.27	463.43
571.43	454.06
571.60	510.24
571.76	482.15
571.92	489.17
572.09	496.19
572.25	440.02
572.41	470.45
572.57	519.60
572.74	620.24
572.90	437.68
573.06	472.79
573.22	505.56
573.38	599.18
573.55	538.32
573.71	557.05
573.87	521.94
574.03	622.58
574.20	594.50
574.36	627.26
574.52	636.63
574.68	622.58
574.84	620.24
575.01	718.54
575.17	741.95
575.33	760.67
575.49	856.64
575.65	814.51
575.82	926.85
575.98	1043.88
576.14	1057.92
576.30	2078.40
576.46	6267.95
576.62	12856.56
576.79	15307.10
576.95	10913.92
577.11	6937.35
577.27	4683.41
577.43	3150.36
577.59	2050.31
577.75	1596.25
577.92	1399.64
578.08	1432.41
578.24	1303.68
578.40	2455.22
578.56	6061.99
578.72	11812.68
578.88	13701.50
579.04	10064.30
579.21	6684.57
579.37	5067.26
579.53	3747.20
579.69	3496.76
579.85	4475.10
580.01	5174.92
580.17	5006.41
580.33	4320.63
580.49	3585.70
580.65	3325.90
580.82	3063.76
580.98	2885.88
581.14	2869.50
581.30	3103.55
581.46	3260.37
581.62	3613.79
581.78	3815.07
581.94	4243.39
582.10	4465.74
582.26	4578.09
582.42	4737.24
582.58	4964.28
582.74	5018.11
582.90	5008.75
583.06	5006.41
583.22	5060.24
583.38	5046.20
583.54	4971.30
583.70	4959.60
583.86	4868.31
584.02	4807.46
584.18	4791.08
584.34	4702.14
584.50	4746.61
584.66	4613.20
584.82	4594.47
584.98	4407.23
585.14	4264.46
585.30	4390.84
585.46	4280.84
585.62	4229.35
585.78	4278.50
585.94	4290.20
586.10	4430.63
586.26	4491.49
586.42	5219.39
586.58	6274.98
586.74	7375.03
586.90	8971.27
587.06	9795.14
587.22	9860.68
587.38	8816.80
587.54	7669.94
587.70	6560.52
587.86	5479.19
588.02	4624.90
588.18	4084.23
588.34	3698.05
588.49	3407.82
588.65	3274.41
588.81	3119.93
588.97	2836.73
589.13	2792.26
589.29	2899.92
589.45	2743.11
589.61	2750.13
589.77	2911.63
589.93	2693.96
590.08	2848.43
590.24	2923.33
590.40	3052.06
590.56	3171.43
590.72	3314.20
590.88	3248.66
591.04	3438.25
591.20	3592.72
591.35	3665.28
591.51	3730.81
591.67	4021.04
591.83	4236.37
591.99	4629.58
592.15	4997.04
592.31	5481.53
592.46	6003.47
592.62	6562.86
592.78	6707.98
592.94	7070.76
593.10	7246.30
593.26	6909.26
593.41	6171.99
593.57	5579.84
593.73	4896.40
593.89	4365.10
594.05	3887.63
594.20	3428.88
594.36	3344.63
594.52	2967.80
594.68	2818.00
594.84	2738.43
594.99	2745.45
595.15	2579.27
595.31	2569.91
595.47	2394.37
595.62	2600.34
595.78	2513.74
595.94	2530.12
596.10	2579.27
596.25	2469.27
596.41	2518.42
596.57	2530.12
596.73	2434.16
596.88	2354.58
597.04	2525.44
597.20	2448.20
597.36	2700.98
597.51	2661.19
597.67	2600.34
597.83	2792.26
597.99	3049.72
598.14	3262.71
598.30	3515.48
598.46	3782.31
598.61	3894.65
598.77	3943.80
598.93	4182.54
599.09	4175.52
599.24	4269.14
599.40	4280.84
599.56	4224.67
599.71	3918.06
599.87	3639.53
600.03	3503.78
600.18	3258.03
600.34	3094.19
600.50	2822.69
600.65	2726.72
600.81	2464.58
600.97	2413.09
601.12	2244.57
601.28	2282.02
601.44	2019.88
601.59	1989.46
601.75	1968.39
601.91	1851.36
602.06	1874.77
602.22	1771.79
602.37	1629.01
602.53	1626.67
602.69	1703.91
602.84	1638.38
603.00	1675.82
603.16	1666.46
603.31	1778.81
603.47	1685.19
603.62	1678.16
603.78	1717.95
603.94	1799.87
604.09	1900.52
604.25	1895.83
604.40	1970.73
604.56	1806.89
604.71	1994.14
604.87	2005.84
605.03	2087.76
605.18	2010.52
605.34	2129.89
