SpectraSuite Data File
++++++++++++++++++++++++++++++++++++
Date: Fri Oct 04 11:42:16 GMT-05:00 2013
User: price-jones
Dark Spectrum Present: No
Reference Spectrum Present: No
Number of Sampled Component Spectra: 1
Spectrometers: USB2+H05261
Integration Time (usec): 100000 (USB2+H05261)
Spectra Averaged: 1 (USB2+H05261)
Boxcar Smoothing: 0 (USB2+H05261)
Correct for Electrical Dark: No (USB2+H05261)
Strobe/Lamp Enabled: No (USB2+H05261)
Correct for Detector Non-linearity: No (USB2+H05261)
Correct for Stray Light: No (USB2+H05261)
Number of Pixels in Processed Spectrum: 2048
>>>>>Begin Processed Spectral Data<<<<<
365.73	53.83
365.92	53.83
366.12	53.83
366.32	0.00
366.52	0.00
366.72	0.00
366.91	0.00
367.11	0.00
367.31	0.00
367.51	0.00
367.70	0.00
367.90	0.00
368.10	0.00
368.30	0.00
368.49	0.00
368.69	0.00
368.89	0.00
369.09	0.00
369.28	0.00
369.48	0.00
369.68	0.00
369.87	11.70
370.07	0.00
370.27	46.81
370.47	46.81
370.66	166.18
370.86	135.75
371.06	201.29
371.25	210.65
371.45	189.58
371.65	236.39
371.84	262.14
372.04	187.24
372.24	210.65
372.44	173.20
372.63	269.16
372.83	201.29
373.03	224.69
373.22	215.33
373.42	271.50
373.62	227.03
373.81	243.42
374.01	266.82
374.21	255.12
374.40	194.26
374.60	285.55
374.79	313.63
374.99	229.37
375.19	372.15
375.38	236.39
375.58	301.93
375.78	409.59
375.97	322.99
376.17	409.59
376.37	264.48
376.56	266.82
376.76	262.14
376.95	262.14
377.15	264.48
377.35	372.15
377.54	315.97
377.74	341.72
377.93	299.59
378.13	297.25
378.33	346.40
378.52	313.63
378.72	276.18
378.91	311.29
379.11	259.80
379.31	322.99
379.50	231.71
379.70	276.18
379.89	276.18
380.09	346.40
380.28	365.12
380.48	346.40
380.68	311.29
380.87	259.80
381.07	362.78
381.26	262.14
381.46	248.10
381.65	248.10
381.85	234.05
382.04	257.46
382.24	182.56
382.43	278.52
382.63	264.48
382.83	227.03
383.02	257.46
383.22	215.33
383.41	208.31
383.61	238.73
383.80	332.36
384.00	299.59
384.19	330.02
384.39	411.93
384.58	334.70
384.78	327.68
384.97	276.18
385.17	325.33
385.36	198.95
385.56	311.29
385.75	292.57
385.95	280.86
386.14	311.29
386.34	252.78
386.53	262.14
386.72	236.39
386.92	365.12
387.11	301.93
387.31	409.59
387.50	212.99
387.70	290.23
387.89	313.63
388.09	299.59
388.28	325.33
388.48	346.40
388.67	365.12
388.86	299.59
389.06	383.85
389.25	397.89
389.45	360.44
389.64	292.57
389.84	404.91
390.03	334.70
390.22	421.30
390.42	388.53
390.61	437.68
390.81	390.87
391.00	451.72
391.19	498.53
391.39	425.98
391.58	428.32
391.78	372.15
391.97	416.62
392.16	299.59
392.36	393.21
392.55	283.20
392.75	245.76
392.94	208.31
393.13	210.65
393.33	208.31
393.52	264.48
393.71	262.14
393.91	322.99
394.10	437.68
394.29	362.78
394.49	381.51
394.68	402.57
394.88	423.64
395.07	444.70
395.26	477.47
395.46	486.83
395.65	381.51
395.84	376.83
396.04	341.72
396.23	362.78
396.42	205.97
396.62	299.59
396.81	334.70
397.00	325.33
397.19	374.49
397.39	407.25
397.58	498.53
397.77	491.51
397.97	475.13
398.16	538.32
398.35	561.73
398.55	514.92
398.74	552.37
398.93	456.40
399.12	479.81
399.32	606.20
399.51	521.94
399.70	582.79
399.90	535.98
400.09	510.24
400.28	631.94
400.47	608.54
400.67	669.39
400.86	571.09
401.05	638.97
401.24	634.29
401.44	587.47
401.63	624.92
401.82	615.56
402.01	592.16
402.21	650.67
402.40	587.47
402.59	571.09
402.78	629.60
402.97	603.86
403.17	503.22
403.36	531.30
403.55	566.41
403.74	620.24
403.93	641.31
404.13	704.50
404.32	748.97
404.51	770.04
404.70	660.03
404.89	543.00
405.09	695.14
405.28	592.16
405.47	575.77
405.66	613.22
405.85	568.75
406.05	566.41
406.24	540.66
406.43	648.33
406.62	627.26
406.81	676.41
407.00	631.94
407.20	568.75
407.39	564.07
407.58	601.52
407.77	585.13
407.96	638.97
408.15	697.48
408.34	699.82
408.54	638.97
408.73	716.20
408.92	723.23
409.11	634.29
409.30	620.24
409.49	629.60
409.68	629.60
409.87	596.84
410.07	634.29
410.26	589.82
410.45	641.31
410.64	671.73
410.83	709.18
411.02	753.65
411.21	774.72
411.40	692.80
411.59	676.41
411.78	793.44
411.98	699.82
412.17	741.95
412.36	739.61
412.55	702.16
412.74	746.63
412.93	772.38
413.12	667.05
413.31	732.59
413.50	777.06
413.69	688.12
413.88	784.08
414.07	748.97
414.26	713.86
414.45	812.17
414.64	753.65
414.83	681.10
415.02	786.42
415.22	753.65
415.41	774.72
415.60	779.40
415.79	809.83
415.98	856.64
416.17	894.08
416.36	835.57
416.55	833.23
416.74	763.01
416.93	718.54
417.12	807.48
417.31	823.87
417.50	692.80
417.69	774.72
417.88	793.44
418.07	767.70
418.26	676.41
418.45	699.82
418.64	730.25
418.83	788.76
419.02	788.76
419.21	802.80
419.39	791.10
419.58	770.04
419.77	760.67
419.96	816.85
420.15	847.27
420.34	896.43
420.53	840.25
420.72	830.89
420.91	847.27
421.10	903.45
421.29	858.98
421.48	844.93
421.67	763.01
421.86	851.96
422.05	758.33
422.24	706.84
422.43	702.16
422.61	741.95
422.80	823.87
422.99	781.74
423.18	812.17
423.37	849.61
423.56	858.98
423.75	830.89
423.94	826.21
424.13	727.91
424.32	767.70
424.50	751.31
424.69	772.38
424.88	812.17
425.07	758.33
425.26	784.08
425.45	748.97
425.64	791.10
425.83	737.27
426.01	772.38
426.20	765.36
426.39	765.36
426.58	706.84
426.77	713.86
426.96	793.44
427.15	737.27
427.33	734.93
427.52	793.44
427.71	751.31
427.90	723.23
428.09	760.67
428.28	685.78
428.46	723.23
428.65	746.63
428.84	706.84
429.03	779.40
429.22	695.14
429.40	627.26
429.59	575.77
429.78	645.99
429.97	568.75
430.16	603.86
430.34	498.53
430.53	540.66
430.72	582.79
430.91	629.60
431.10	641.31
431.28	788.76
431.47	943.24
431.66	819.19
431.85	779.40
432.03	800.46
432.22	788.76
432.41	760.67
432.60	863.66
432.79	791.10
432.97	840.25
433.16	896.43
433.35	748.97
433.54	770.04
433.72	765.36
433.91	699.82
434.10	763.01
434.28	903.45
434.47	842.59
434.66	837.91
434.85	891.74
435.03	933.87
435.22	1247.51
435.41	1657.10
435.59	1785.83
435.78	1469.86
435.97	1214.74
436.16	1137.50
436.34	903.45
436.53	922.17
436.72	884.72
436.90	844.93
437.09	929.19
437.28	847.27
437.46	858.98
437.65	821.53
437.84	788.76
438.02	788.76
438.21	774.72
438.40	770.04
438.58	823.87
438.77	765.36
438.96	884.72
439.14	884.72
439.33	931.53
439.52	887.06
439.70	889.40
439.89	915.15
440.08	844.93
440.26	898.77
440.45	1015.79
440.63	987.71
440.82	957.28
441.01	994.73
441.19	999.41
441.38	950.26
441.57	933.87
441.75	1083.67
441.94	1078.99
442.12	940.90
442.31	952.60
442.50	1041.54
442.68	985.37
442.87	999.41
443.05	933.87
443.24	961.96
443.43	1090.69
443.61	1104.73
443.80	1013.45
443.98	1001.75
444.17	931.53
444.35	1095.37
444.54	1074.31
444.73	1160.91
444.91	1067.28
445.10	987.71
445.28	891.74
445.47	940.90
445.65	1006.43
445.84	922.17
446.02	1050.90
446.21	1062.60
446.39	994.73
446.58	1004.09
446.77	1015.79
446.95	1053.24
447.14	1128.14
447.32	1090.69
447.51	1064.94
447.69	1015.79
447.88	1100.05
448.06	1121.12
448.25	978.34
448.43	1076.65
448.62	1039.20
448.80	1029.84
448.99	1095.37
449.17	1128.14
449.36	1046.22
449.54	1114.10
449.73	1076.65
449.91	1104.73
450.10	1071.97
450.28	1102.39
450.46	1217.08
450.65	1228.78
450.83	1076.65
451.02	1139.84
451.20	1121.12
451.39	1139.84
451.57	1163.25
451.76	1057.92
451.94	1006.43
452.13	1076.65
452.31	1086.01
452.49	954.94
452.68	933.87
452.86	1022.81
453.05	1076.65
453.23	1139.84
453.42	1043.88
453.60	1191.33
453.78	1081.33
453.97	1053.24
454.15	1015.79
454.34	1022.81
454.52	1050.90
454.70	1048.56
454.89	1076.65
455.07	1025.15
455.26	1095.37
455.44	1135.16
455.62	1156.22
455.81	1093.03
455.99	1128.14
456.17	1165.59
456.36	1142.18
456.54	1198.35
456.73	1078.99
456.91	1228.78
457.09	1174.95
457.28	1123.46
457.46	1118.78
457.64	1149.20
457.83	1114.10
458.01	1135.16
458.19	1130.48
458.38	1174.95
458.56	1198.35
458.74	1214.74
458.93	1116.44
459.11	1207.72
459.29	1090.69
459.48	1107.07
459.66	1193.67
459.84	1158.57
460.03	1249.85
460.21	1144.52
460.39	1139.84
460.57	1177.29
460.76	1235.80
460.94	1179.63
461.12	1181.97
461.31	1198.35
461.49	1109.41
461.67	1125.80
461.85	1221.76
462.04	1118.78
462.22	1266.23
462.40	1142.18
462.59	1207.72
462.77	1179.63
462.95	1111.75
463.13	1137.50
463.32	1135.16
463.50	1111.75
463.68	1128.14
463.86	1165.59
464.05	1172.61
464.23	1226.44
464.41	1135.16
464.59	1093.03
464.78	1156.22
464.96	1146.86
465.14	1034.52
465.32	1135.16
465.50	1284.95
465.69	1137.50
465.87	1165.59
466.05	1071.97
466.23	1006.43
466.41	1165.59
466.60	1149.20
466.78	1100.05
466.96	1200.69
467.14	1160.91
467.32	1135.16
467.51	1093.03
467.69	1212.40
467.87	1224.10
468.05	1104.73
468.23	1128.14
468.41	1142.18
468.60	1149.20
468.78	1069.62
468.96	1196.01
469.14	1116.44
469.32	1137.50
469.50	1146.86
469.69	1090.69
469.87	1128.14
470.05	1041.54
470.23	1174.95
470.41	1125.80
470.59	1090.69
470.77	1142.18
470.95	1111.75
471.14	1156.22
471.32	1165.59
471.50	1203.04
471.68	1238.14
471.86	1247.51
472.04	1125.80
472.22	1296.66
472.40	1198.35
472.58	1144.52
472.77	1144.52
472.95	1160.91
473.13	1247.51
473.31	1217.08
473.49	1093.03
473.67	1188.99
473.85	1294.32
474.03	1268.57
474.21	1165.59
474.39	1207.72
474.57	1235.80
474.75	1280.27
474.93	1245.16
475.12	1280.27
475.30	1252.19
475.48	1254.53
475.66	1320.06
475.84	1235.80
476.02	1306.02
476.20	1193.67
476.38	1174.95
476.56	1303.68
476.74	1256.87
476.92	1383.26
477.10	1240.48
477.28	1280.27
477.46	1266.23
477.64	1329.42
477.82	1420.71
478.00	1411.34
478.18	1399.64
478.36	1303.68
478.54	1352.83
478.72	1336.45
478.90	1416.02
479.08	1401.98
479.26	1439.43
479.44	1420.71
479.62	1446.45
479.80	1434.75
479.98	1490.92
480.16	1469.86
480.34	1460.49
480.52	1366.87
480.70	1537.73
480.88	1476.88
481.06	1469.86
481.24	1488.58
481.41	1465.18
481.59	1568.16
481.77	1563.48
481.95	1514.33
482.13	1427.73
482.31	1490.92
482.49	1511.99
482.67	1481.56
482.85	1598.59
483.03	1542.41
483.21	1530.71
483.39	1591.56
483.57	1614.97
483.74	1570.50
483.92	1591.56
484.10	1577.52
484.28	1540.07
484.46	1699.23
484.64	1661.78
484.82	1713.27
485.00	1540.07
485.18	1526.03
485.35	1488.58
485.53	1502.62
485.71	1409.00
485.89	1254.53
486.07	1472.20
486.25	1526.03
486.43	1584.54
486.61	1577.52
486.78	1612.63
486.96	1530.71
487.14	1715.61
487.32	1650.08
487.50	1659.44
487.68	1785.83
487.85	1746.04
488.03	1739.02
488.21	1771.79
488.39	1842.00
488.57	1722.63
488.75	1713.27
488.92	1937.96
489.10	1806.89
489.28	1886.47
489.46	1891.15
489.64	1919.24
489.81	1959.03
489.99	1902.86
490.17	1898.17
490.35	2045.63
490.53	1846.68
490.70	1935.62
490.88	1867.75
491.06	1937.96
491.24	2010.52
491.41	1783.49
491.59	1774.13
491.77	1699.23
491.95	1870.09
492.13	1795.19
492.30	1851.36
492.48	2001.16
492.66	2047.97
492.84	1940.30
493.01	2033.93
493.19	1860.73
493.37	1963.71
493.54	1956.69
493.72	1874.77
493.90	1921.58
494.08	2010.52
494.25	2083.08
494.43	2113.50
494.61	2001.16
494.79	2064.35
494.96	2106.48
495.14	2010.52
495.32	2050.31
495.49	1980.09
495.67	2148.61
495.85	2054.99
496.02	2190.74
496.20	2026.90
496.38	2176.70
496.55	2076.06
496.73	2176.70
496.91	2076.06
497.09	2111.16
497.26	2169.68
497.44	2092.44
497.62	2047.97
497.79	2083.08
497.97	1909.88
498.14	1952.01
498.32	1984.77
498.50	2040.95
498.67	2099.46
498.85	2017.54
499.03	2101.80
499.20	2148.61
499.38	2106.48
499.56	2143.93
499.73	2115.84
499.91	1975.41
500.08	2026.90
500.26	2019.88
500.44	1949.67
500.61	2099.46
500.79	2146.27
500.97	2008.18
501.14	1991.80
501.32	2019.88
501.49	2008.18
501.67	2012.86
501.84	2010.52
502.02	1973.07
502.20	2132.23
502.37	1998.82
502.55	2024.56
502.72	2033.93
502.90	2029.24
503.07	2087.76
503.25	2040.95
503.43	1860.73
503.60	1970.73
503.78	1909.88
503.95	1914.56
504.13	2008.18
504.30	2052.65
504.48	2176.70
504.65	2008.18
504.83	2036.27
505.01	2062.01
505.18	2080.74
505.36	2122.87
505.53	2076.06
505.71	2162.66
505.88	2249.25
506.06	2066.69
506.23	2069.03
506.41	2015.20
506.58	2090.10
506.76	2127.55
506.93	2097.12
507.11	2062.01
507.28	2122.87
507.46	2143.93
507.63	2085.42
507.81	1921.58
507.98	2134.57
508.16	2172.02
508.33	2120.53
508.50	2267.98
508.68	2293.72
508.85	2211.81
509.03	2242.23
509.20	2165.00
509.38	2157.97
509.55	2012.86
509.73	2003.50
509.90	2141.59
510.08	2246.91
510.25	2176.70
510.42	2057.33
510.60	2150.95
510.77	2242.23
510.95	2230.53
511.12	2324.15
511.30	2253.94
511.47	2211.81
511.64	2321.81
511.82	2331.17
511.99	2221.17
512.17	2200.10
512.34	2129.89
512.51	2167.34
512.69	2122.87
512.86	2083.08
513.04	2218.83
513.21	2260.96
513.38	2188.40
513.56	2139.25
513.73	2043.29
513.90	2001.16
514.08	2083.08
514.25	2153.29
514.43	2150.95
514.60	2122.87
514.77	2160.31
514.95	2223.51
515.12	2139.25
515.29	2179.04
515.47	2232.87
515.64	2251.60
515.81	2146.27
515.99	2244.57
516.16	2029.24
516.33	1963.71
516.51	1748.38
516.68	1874.77
516.85	1764.76
517.03	1748.38
517.20	2010.52
517.37	2083.08
517.54	2258.62
517.72	2031.58
517.89	2059.67
518.06	1802.21
518.24	1923.92
518.41	2064.35
518.58	2050.31
518.75	2031.58
518.93	2076.06
519.10	2083.08
519.27	2087.76
519.45	2169.68
519.62	2218.83
519.79	2270.32
519.96	2169.68
520.14	2216.49
520.31	2200.10
520.48	2080.74
520.65	2111.16
520.83	2148.61
521.00	2331.17
521.17	2146.27
521.34	2200.10
521.52	2277.34
521.69	2228.19
521.86	2204.78
522.03	2296.07
522.20	2214.15
522.38	2073.71
522.55	2085.42
522.72	2064.35
522.89	2104.14
523.07	2237.55
523.24	2111.16
523.41	2260.96
523.58	2246.91
523.75	2380.32
523.92	2246.91
524.10	2361.60
524.27	2228.19
524.44	2249.25
524.61	2342.88
524.78	2324.15
524.96	2162.66
525.13	2169.68
525.30	2188.40
525.47	2260.96
525.64	2256.28
525.81	2176.70
525.98	2237.55
526.16	1994.14
526.33	2059.67
526.50	1982.43
526.67	1930.94
526.84	1919.24
527.01	2019.88
527.18	2167.34
527.36	2047.97
527.53	2230.53
527.70	2291.38
527.87	2197.76
528.04	2272.66
528.21	2260.96
528.38	2249.25
528.55	2392.03
528.72	2370.96
528.89	2345.22
529.07	2401.39
529.24	2129.89
529.41	2087.76
529.58	2162.66
529.75	2190.74
529.92	2216.49
530.09	2165.00
530.26	2373.30
530.43	2267.98
530.60	2319.47
530.77	2310.11
530.94	2373.30
531.11	2305.43
531.28	2202.44
531.46	2361.60
531.63	2338.20
531.80	2218.83
531.97	2242.23
532.14	2335.85
532.31	2153.29
532.48	2052.65
532.65	2108.82
532.82	2176.70
532.99	2298.41
533.16	2420.11
533.33	2258.62
533.50	2256.28
533.67	2267.98
533.84	2263.30
534.01	2172.02
534.18	2282.02
534.35	2209.47
534.52	2169.68
534.69	2235.21
534.86	2176.70
535.03	2347.56
535.20	2218.83
535.37	2382.67
535.54	2307.77
535.71	2389.69
535.88	2293.72
536.05	2312.45
536.22	2314.79
536.38	2193.08
536.55	2167.34
536.72	2176.70
536.89	2155.63
537.06	2200.10
537.23	2207.13
537.40	2335.85
537.57	2356.92
537.74	2406.07
537.91	2319.47
538.08	2389.69
538.25	2389.69
538.42	2237.55
538.59	2361.60
538.75	2321.81
538.92	2237.55
539.09	2366.28
539.26	2349.90
539.43	2356.92
539.60	2375.64
539.77	2345.22
539.94	2366.28
540.11	2434.16
540.28	2284.36
540.44	2373.30
540.61	2415.43
540.78	2583.95
540.95	2621.40
541.12	2827.37
541.29	3028.65
541.46	3042.70
541.62	3082.49
541.79	2977.16
541.96	2939.71
542.13	2757.15
542.30	2771.19
542.47	2757.15
542.63	2731.41
542.80	2658.85
542.97	2818.00
543.14	2684.59
543.31	2712.68
543.48	2698.64
543.64	2881.20
543.81	2834.39
543.98	2787.58
544.15	2897.58
544.32	2647.15
544.48	2640.12
544.65	2832.05
544.82	2836.73
544.99	2780.56
545.16	2757.15
545.32	2663.53
545.49	3251.00
545.66	4084.23
545.83	4493.83
546.00	4243.39
546.16	3506.12
546.33	3082.49
546.50	2895.24
546.67	2729.06
546.83	2628.42
547.00	2590.97
547.17	2476.29
547.34	2567.57
547.50	2359.26
547.67	2448.20
547.84	2443.52
548.00	2520.76
548.17	2708.00
548.34	2485.65
548.51	2415.43
548.67	2560.55
548.84	2513.74
549.01	2499.69
549.18	2436.50
549.34	2396.71
549.51	2436.50
549.68	2452.88
549.84	2424.80
550.01	2207.13
550.18	2377.98
550.34	2431.82
550.51	2307.77
550.68	2366.28
550.84	2267.98
551.01	2406.07
551.18	2232.87
551.34	2251.60
551.51	2162.66
551.68	2256.28
551.84	2326.49
552.01	2253.94
552.18	2342.88
552.34	2282.02
552.51	2181.38
552.68	2143.93
552.84	2094.78
553.01	2200.10
553.18	2244.57
553.34	2275.00
553.51	2221.17
553.67	2122.87
553.84	2263.30
554.01	2202.44
554.17	2186.06
554.34	2202.44
554.51	2134.57
554.67	2167.34
554.84	2242.23
555.00	2157.97
555.17	2071.37
555.33	2183.72
555.50	2071.37
555.67	2113.50
555.83	2029.24
556.00	2101.80
556.16	2204.78
556.33	2160.31
556.50	2052.65
556.66	2148.61
556.83	1914.56
556.99	2040.95
557.16	2022.22
557.32	2188.40
557.49	2047.97
557.65	2078.40
557.82	2029.24
557.98	2087.76
558.15	2040.95
558.32	1914.56
558.48	1959.03
558.65	1996.48
558.81	1919.24
558.98	1989.46
559.14	2012.86
559.31	1991.80
559.47	2031.58
559.64	1966.05
559.80	2024.56
559.97	1952.01
560.13	1991.80
560.30	2059.67
560.46	1989.46
560.63	2120.53
560.79	2043.29
560.96	2064.35
561.12	2005.84
561.29	1959.03
561.45	1928.60
561.61	1902.86
561.78	2104.14
561.94	1982.43
562.11	2003.50
562.27	2022.22
562.44	1970.73
562.60	1987.11
562.77	2069.03
562.93	2111.16
563.10	1963.71
563.26	1823.28
563.42	1930.94
563.59	2033.93
563.75	2064.35
563.92	2029.24
564.08	1877.11
564.24	1952.01
564.41	1987.11
564.57	1914.56
564.74	1907.54
564.90	1966.05
565.07	2094.78
565.23	1912.22
565.39	2033.93
565.56	1935.62
565.72	1860.73
565.88	1865.41
566.05	1888.81
566.21	1937.96
566.38	1909.88
566.54	1949.67
566.70	1884.13
566.87	1884.13
567.03	1877.11
567.19	1952.01
567.36	1930.94
567.52	2010.52
567.68	1888.81
567.85	1830.30
568.01	1839.66
568.17	1689.87
568.34	1762.42
568.50	1736.68
568.66	1813.92
568.83	1867.75
568.99	1769.44
569.15	1902.86
569.32	1778.81
569.48	1804.55
569.64	1760.08
569.81	1774.13
569.97	1825.62
570.13	1863.07
570.30	1877.11
570.46	1701.57
570.62	1844.34
570.78	1832.64
570.95	1668.80
571.11	1802.21
571.27	1954.35
571.43	1834.98
571.60	1849.02
571.76	1820.94
571.92	1804.55
572.09	1767.10
572.25	1832.64
572.41	1746.04
572.57	1860.73
572.74	1743.70
572.90	1879.45
573.06	1781.15
573.22	1856.04
573.38	1802.21
573.55	1790.51
573.71	1827.96
573.87	1809.23
574.03	1820.94
574.20	1795.19
574.36	1764.76
574.52	1806.89
574.68	1762.42
574.84	1741.36
575.01	1797.53
575.17	1774.13
575.33	1849.02
575.49	1809.23
575.65	1825.62
575.82	1769.44
575.98	1818.60
576.14	1804.55
576.30	1935.62
576.46	1956.69
576.62	2078.40
576.79	2113.50
576.95	2050.31
577.11	1891.15
577.27	1849.02
577.43	1872.43
577.59	1799.87
577.75	1788.17
577.92	1785.83
578.08	1680.50
578.24	1813.92
578.40	1797.53
578.56	2022.22
578.72	2148.61
578.88	2165.00
579.04	2008.18
579.21	1973.07
579.37	1912.22
579.53	1844.34
579.69	1923.92
579.85	1994.14
580.01	1879.45
580.17	1926.26
580.33	1813.92
580.49	1799.87
580.65	1741.36
580.82	1856.04
580.98	1858.39
581.14	1762.42
581.30	1820.94
581.46	1886.47
581.62	1987.11
581.78	2017.54
581.94	1952.01
582.10	1923.92
582.26	1867.75
582.42	1823.28
582.58	1947.33
582.74	1909.88
582.90	2054.99
583.06	1952.01
583.22	1867.75
583.38	1865.41
583.54	1874.77
583.70	1933.28
583.86	1795.19
584.02	1944.99
584.18	1996.48
584.34	1816.26
584.50	1748.38
584.66	1834.98
584.82	1902.86
584.98	1959.03
585.14	1820.94
585.30	1832.64
585.46	1825.62
585.62	1727.32
585.78	1795.19
585.94	1834.98
586.10	1792.85
586.26	1799.87
586.42	1898.17
586.58	1823.28
586.74	1844.34
586.90	1914.56
587.06	2031.58
587.22	1947.33
587.38	1961.37
587.54	1746.04
587.70	1837.32
587.86	1675.82
588.02	1741.36
588.18	1582.20
588.34	1596.25
588.49	1376.24
588.65	1348.15
588.81	1334.11
588.97	1390.28
589.13	1196.01
589.29	1392.62
589.45	1261.55
589.61	1357.51
589.77	1418.36
589.93	1397.30
590.08	1523.69
590.24	1416.02
590.40	1519.01
590.56	1530.71
590.72	1547.09
590.88	1582.20
591.04	1575.18
591.20	1465.18
591.35	1586.88
591.51	1373.89
591.67	1542.41
591.83	1460.49
591.99	1565.82
592.15	1589.22
592.31	1650.08
592.46	1682.85
592.62	1687.53
592.78	1666.46
592.94	1753.06
593.10	1685.19
593.26	1652.42
593.41	1666.46
593.57	1624.33
593.73	1554.12
593.89	1530.71
594.05	1378.58
594.20	1493.26
594.36	1458.15
594.52	1355.17
594.68	1359.85
594.84	1476.88
594.99	1439.43
595.15	1476.88
595.31	1614.97
595.47	1500.28
595.62	1554.12
595.78	1511.99
595.94	1544.75
596.10	1586.88
596.25	1582.20
596.41	1411.34
596.57	1568.16
596.73	1549.43
596.88	1533.05
597.04	1561.14
597.20	1577.52
597.36	1521.35
597.51	1542.41
597.67	1516.67
597.83	1383.26
597.99	1521.35
598.14	1558.80
598.30	1586.88
598.46	1481.56
598.61	1617.31
598.77	1638.38
598.93	1507.30
599.09	1640.72
599.24	1621.99
599.40	1631.35
599.56	1551.78
599.71	1516.67
599.87	1640.72
600.03	1666.46
600.18	1549.43
600.34	1621.99
