SpectraSuite Data File
++++++++++++++++++++++++++++++++++++
Date: Fri Oct 04 11:42:23 GMT-05:00 2013
User: price-jones
Dark Spectrum Present: No
Reference Spectrum Present: No
Number of Sampled Component Spectra: 1
Spectrometers: USB2+H05261
Integration Time (usec): 100000 (USB2+H05261)
Spectra Averaged: 1 (USB2+H05261)
Boxcar Smoothing: 0 (USB2+H05261)
Correct for Electrical Dark: No (USB2+H05261)
Strobe/Lamp Enabled: No (USB2+H05261)
Correct for Detector Non-linearity: No (USB2+H05261)
Correct for Stray Light: No (USB2+H05261)
Number of Pixels in Processed Spectrum: 2048
>>>>>Begin Processed Spectral Data<<<<<
365.73	112.35
365.92	112.35
366.12	112.35
366.32	0.00
366.52	0.00
366.72	0.00
366.91	0.00
367.11	0.00
367.31	0.00
367.51	0.00
367.70	0.00
367.90	0.00
368.10	0.00
368.30	0.00
368.49	0.00
368.69	0.00
368.89	0.00
369.09	0.00
369.28	0.00
369.48	0.00
369.68	0.00
369.87	0.00
370.07	11.70
370.27	4.68
370.47	91.28
370.66	159.16
370.86	217.67
371.06	196.60
371.25	243.42
371.45	231.71
371.65	117.03
371.84	212.99
372.04	205.97
372.24	189.58
372.44	262.14
372.63	245.76
372.83	220.01
373.03	212.99
373.22	212.99
373.42	259.80
373.62	287.89
373.81	273.84
374.01	217.67
374.21	313.63
374.40	222.35
374.60	241.08
374.79	285.55
374.99	231.71
375.19	180.22
375.38	285.55
375.58	315.97
375.78	325.33
375.97	236.39
376.17	313.63
376.37	283.20
376.56	262.14
376.76	278.52
376.95	299.59
377.15	308.95
377.35	379.17
377.54	257.46
377.74	290.23
377.93	318.31
378.13	348.74
378.33	280.86
378.52	334.70
378.72	280.86
378.91	262.14
379.11	306.61
379.31	306.61
379.50	276.18
379.70	252.78
379.89	299.59
380.09	306.61
380.28	341.72
380.48	320.65
380.68	287.89
380.87	341.72
381.07	287.89
381.26	278.52
381.46	271.50
381.65	297.25
381.85	189.58
382.04	208.31
382.24	245.76
382.43	222.35
382.63	173.20
382.83	290.23
383.02	248.10
383.22	325.33
383.41	271.50
383.61	308.95
383.80	285.55
384.00	297.25
384.19	273.84
384.39	290.23
384.58	330.02
384.78	297.25
384.97	318.31
385.17	327.68
385.36	220.01
385.56	269.16
385.75	358.10
385.95	330.02
386.14	379.17
386.34	304.27
386.53	315.97
386.72	369.80
386.92	285.55
387.11	351.08
387.31	315.97
387.50	330.02
387.70	285.55
387.89	299.59
388.09	283.20
388.28	325.33
388.48	217.67
388.67	306.61
388.86	294.91
389.06	299.59
389.25	404.91
389.45	393.21
389.64	334.70
389.84	444.70
390.03	369.80
390.22	395.55
390.42	425.98
390.61	374.49
390.81	381.51
391.00	409.59
391.19	388.53
391.39	423.64
391.58	374.49
391.78	355.76
391.97	526.62
392.16	322.99
392.36	325.33
392.55	315.97
392.75	255.12
392.94	154.48
393.13	252.78
393.33	330.02
393.52	299.59
393.71	304.27
393.91	344.06
394.10	393.21
394.29	351.08
394.49	381.51
394.68	454.06
394.88	463.43
395.07	393.21
395.26	430.66
395.46	365.12
395.65	365.12
395.84	346.40
396.04	397.89
396.23	306.61
396.42	264.48
396.62	255.12
396.81	386.19
397.00	313.63
397.19	306.61
397.39	421.30
397.58	444.70
397.77	496.19
397.97	498.53
398.16	566.41
398.35	538.32
398.55	524.28
398.74	603.86
398.93	608.54
399.12	545.34
399.32	568.75
399.51	559.39
399.70	627.26
399.90	603.86
400.09	610.88
400.28	629.60
400.47	676.41
400.67	559.39
400.86	638.97
401.05	571.09
401.24	608.54
401.44	692.80
401.63	603.86
401.82	660.03
402.01	585.13
402.21	631.94
402.40	617.90
402.59	606.20
402.78	599.18
402.97	585.13
403.17	608.54
403.36	624.92
403.55	596.84
403.74	671.73
403.93	610.88
404.13	643.65
404.32	634.29
404.51	678.76
404.70	627.26
404.89	713.86
405.09	594.50
405.28	578.11
405.47	587.47
405.66	596.84
405.85	716.20
406.05	547.69
406.24	524.28
406.43	566.41
406.62	601.52
406.81	634.29
407.00	671.73
407.20	695.14
407.39	587.47
407.58	662.37
407.77	674.07
407.96	765.36
408.15	697.48
408.34	784.08
408.54	643.65
408.73	692.80
408.92	617.90
409.11	685.78
409.30	725.57
409.49	620.24
409.68	599.18
409.87	564.07
410.07	667.05
410.26	559.39
410.45	521.94
410.64	713.86
410.83	615.56
411.02	685.78
411.21	730.25
411.40	653.01
411.59	716.20
411.78	807.48
411.98	751.31
412.17	748.97
412.36	763.01
412.55	741.95
412.74	744.29
412.93	793.44
413.12	734.93
413.31	755.99
413.50	842.59
413.69	854.30
413.88	812.17
414.07	741.95
414.26	777.06
414.45	674.07
414.64	676.41
414.83	779.40
415.02	807.48
415.22	730.25
415.41	748.97
415.60	739.61
415.79	772.38
415.98	842.59
416.17	807.48
416.36	744.29
416.55	835.57
416.74	744.29
416.93	795.78
417.12	774.72
417.31	814.51
417.50	746.63
417.69	884.72
417.88	781.74
418.07	805.14
418.26	767.70
418.45	814.51
418.64	870.68
418.83	858.98
419.02	847.27
419.21	772.38
419.39	763.01
419.58	730.25
419.77	704.50
419.96	765.36
420.15	805.14
420.34	884.72
420.53	873.02
420.72	826.21
420.91	973.66
421.10	833.23
421.29	910.47
421.48	863.66
421.67	826.21
421.86	856.64
422.05	786.42
422.24	690.46
422.43	821.53
422.61	781.74
422.80	870.68
422.99	877.70
423.18	814.51
423.37	784.08
423.56	844.93
423.75	753.65
423.94	739.61
424.13	795.78
424.32	720.88
424.50	830.89
424.69	858.98
424.88	812.17
425.07	805.14
425.26	793.44
425.45	786.42
425.64	734.93
425.83	814.51
426.01	772.38
426.20	847.27
426.39	734.93
426.58	793.44
426.77	746.63
426.96	685.78
427.15	739.61
427.33	753.65
427.52	781.74
427.71	814.51
427.90	805.14
428.09	807.48
428.28	727.91
428.46	770.04
428.65	770.04
428.84	692.80
429.03	884.72
429.22	711.52
429.40	774.72
429.59	615.56
429.78	709.18
429.97	552.37
430.16	526.62
430.34	615.56
430.53	587.47
430.72	564.07
430.91	638.97
431.10	755.99
431.28	816.85
431.47	877.70
431.66	847.27
431.85	891.74
432.03	774.72
432.22	835.57
432.41	805.14
432.60	847.27
432.79	891.74
432.97	943.24
433.16	961.96
433.35	851.96
433.54	730.25
433.72	751.31
433.91	723.23
434.10	816.85
434.28	809.83
434.47	933.87
434.66	987.71
434.85	884.72
435.03	938.55
435.22	1064.94
435.41	1306.02
435.59	1315.38
435.78	1116.44
435.97	1027.50
436.16	990.05
436.34	985.37
436.53	950.26
436.72	891.74
436.90	919.83
437.09	922.17
437.28	840.25
437.46	849.61
437.65	849.61
437.84	786.42
438.02	770.04
438.21	720.88
438.40	739.61
438.58	849.61
438.77	856.64
438.96	903.45
439.14	903.45
439.33	936.21
439.52	938.55
439.70	1006.43
439.89	901.11
440.08	898.77
440.26	884.72
440.45	896.43
440.63	1020.47
440.82	1011.11
441.01	997.07
441.19	922.17
441.38	1015.79
441.57	1102.39
441.75	1025.15
441.94	1076.65
442.12	1060.26
442.31	1060.26
442.50	990.05
442.68	1006.43
442.87	1015.79
443.05	1011.11
443.24	1137.50
443.43	1055.58
443.61	1156.22
443.80	1071.97
443.98	1071.97
444.17	1050.90
444.35	1184.31
444.54	1118.78
444.73	1095.37
444.91	1036.86
445.10	999.41
445.28	938.55
445.47	985.37
445.65	1027.50
445.84	952.60
446.02	990.05
446.21	1071.97
446.39	971.32
446.58	1015.79
446.77	1097.71
446.95	1057.92
447.14	1144.52
447.32	1088.35
447.51	1062.60
447.69	1078.99
447.88	1139.84
448.06	1097.71
448.25	1109.41
448.43	1032.18
448.62	1093.03
448.80	976.00
448.99	1121.12
449.17	1088.35
449.36	973.66
449.54	1086.01
449.73	1011.11
449.91	1186.65
450.10	1125.80
450.28	1275.59
450.46	1254.53
450.65	1193.67
450.83	1172.61
451.02	1109.41
451.20	1046.22
451.39	1100.05
451.57	1046.22
451.76	1123.46
451.94	1104.73
452.13	1137.50
452.31	1039.20
452.49	1069.62
452.68	952.60
452.86	1071.97
453.05	1125.80
453.23	987.71
453.42	1135.16
453.60	1074.31
453.78	1203.04
453.97	1226.44
454.15	1139.84
454.34	1146.86
454.52	1078.99
454.70	1076.65
454.89	1039.20
455.07	1093.03
455.26	1116.44
455.44	1149.20
455.62	1153.88
455.81	1156.22
455.99	1184.31
456.17	1093.03
456.36	1184.31
456.54	1069.62
456.73	1116.44
456.91	1259.21
457.09	1226.44
457.28	1207.72
457.46	1165.59
457.64	1093.03
457.83	1104.73
458.01	1053.24
458.19	1191.33
458.38	1247.51
458.56	1137.50
458.74	1172.61
458.93	1219.42
459.11	1214.74
459.29	1116.44
459.48	1200.69
459.66	1179.63
459.84	1193.67
460.03	1228.78
460.21	1224.10
460.39	1210.06
460.57	1245.16
460.76	1224.10
460.94	1095.37
461.12	1256.87
461.31	1221.76
461.49	1118.78
461.67	1174.95
461.85	1212.40
462.04	1130.48
462.22	1320.06
462.40	1135.16
462.59	1245.16
462.77	1184.31
462.95	1212.40
463.13	1235.80
463.32	1217.08
463.50	1238.14
463.68	1221.76
463.86	1235.80
464.05	1125.80
464.23	1139.84
464.41	1118.78
464.59	1142.18
464.78	1219.42
464.96	1137.50
465.14	1186.65
465.32	1193.67
465.50	1191.33
465.69	1247.51
465.87	1240.48
466.05	1217.08
466.23	1139.84
466.41	1121.12
466.60	1242.82
466.78	1165.59
466.96	1198.35
467.14	1221.76
467.32	1153.88
467.51	1158.57
467.69	1151.54
467.87	1226.44
468.05	1123.46
468.23	1135.16
468.41	1142.18
468.60	1186.65
468.78	1151.54
468.96	1102.39
469.14	1240.48
469.32	1170.27
469.50	1125.80
469.69	1186.65
469.87	1102.39
470.05	1093.03
470.23	1097.71
470.41	1149.20
470.59	1062.60
470.77	1235.80
470.95	1261.55
471.14	1247.51
471.32	1207.72
471.50	1280.27
471.68	1217.08
471.86	1214.74
472.04	1186.65
472.22	1252.19
472.40	1137.50
472.58	1254.53
472.77	1179.63
472.95	1256.87
473.13	1291.98
473.31	1359.85
473.49	1188.99
473.67	1167.93
473.85	1303.68
474.03	1357.51
474.21	1256.87
474.39	1308.36
474.57	1268.57
474.75	1322.40
474.93	1277.93
475.12	1259.21
475.30	1280.27
475.48	1270.91
475.66	1249.85
475.84	1240.48
476.02	1294.32
476.20	1191.33
476.38	1254.53
476.56	1282.61
476.74	1289.64
476.92	1261.55
477.10	1348.15
477.28	1371.55
477.46	1425.39
477.64	1439.43
477.82	1467.52
478.00	1401.98
478.18	1437.09
478.36	1383.26
478.54	1343.47
478.72	1350.49
478.90	1530.71
479.08	1537.73
479.26	1411.34
479.44	1413.68
479.62	1451.13
479.80	1359.85
479.98	1474.54
480.16	1500.28
480.34	1413.68
480.52	1373.89
480.70	1533.05
480.88	1439.43
481.06	1589.22
481.24	1376.24
481.41	1633.69
481.59	1568.16
481.77	1465.18
481.95	1575.18
482.13	1462.83
482.31	1558.80
482.49	1481.56
482.67	1577.52
482.85	1631.35
483.03	1638.38
483.21	1671.14
483.39	1558.80
483.57	1551.78
483.74	1575.18
483.92	1533.05
484.10	1544.75
484.28	1703.91
484.46	1640.72
484.64	1645.40
484.82	1614.97
485.00	1626.67
485.18	1561.14
485.35	1500.28
485.53	1348.15
485.71	1345.81
485.89	1296.66
486.07	1322.40
486.25	1378.58
486.43	1586.88
486.61	1600.93
486.78	1497.94
486.96	1523.69
487.14	1703.91
487.32	1671.14
487.50	1713.27
487.68	1795.19
487.85	1757.74
488.03	1675.82
488.21	1832.64
488.39	1708.59
488.57	1729.66
488.75	1659.44
488.92	1942.64
489.10	1879.45
489.28	1820.94
489.46	1907.54
489.64	1968.39
489.81	1900.52
489.99	1898.17
490.17	1909.88
490.35	2015.20
490.53	1975.41
490.70	1907.54
490.88	1827.96
491.06	1863.07
491.24	1947.33
491.41	1980.09
491.59	1916.90
491.77	1916.90
491.95	1860.73
492.13	1804.55
492.30	1928.60
492.48	2019.88
492.66	1895.83
492.84	2015.20
493.01	1937.96
493.19	2005.84
493.37	1947.33
493.54	2017.54
493.72	2017.54
493.90	2059.67
494.08	2047.97
494.25	2143.93
494.43	2113.50
494.61	2146.27
494.79	2150.95
494.96	2115.84
495.14	1996.48
495.32	2157.97
495.49	1994.14
495.67	2033.93
495.85	2019.88
496.02	2235.21
496.20	2181.38
496.38	2115.84
496.55	2066.69
496.73	2071.37
496.91	2169.68
497.09	2253.94
497.26	2312.45
497.44	2183.72
497.62	2094.78
497.79	2122.87
497.97	2150.95
498.14	1996.48
498.32	2026.90
498.50	2204.78
498.67	2209.47
498.85	2249.25
499.03	2188.40
499.20	2293.72
499.38	2214.15
499.56	2218.83
499.73	2211.81
499.91	2139.25
500.08	2050.31
500.26	2015.20
500.44	1933.28
500.61	2141.59
500.79	2139.25
500.97	2008.18
501.14	1998.82
501.32	2122.87
501.49	2113.50
501.67	1984.77
501.84	2115.84
502.02	2207.13
502.20	2160.31
502.37	2221.17
502.55	2071.37
502.72	2076.06
502.90	2113.50
503.07	2106.48
503.25	2202.44
503.43	1966.05
503.60	1996.48
503.78	2043.29
503.95	2076.06
504.13	2132.23
504.30	2143.93
504.48	2127.55
504.65	2106.48
504.83	2218.83
505.01	2251.60
505.18	2237.55
505.36	2225.85
505.53	2298.41
505.71	2387.35
505.88	2368.62
506.06	2258.62
506.23	2293.72
506.41	2183.72
506.58	2230.53
506.76	2186.06
506.93	2244.57
507.11	2200.10
507.28	2155.63
507.46	2195.42
507.63	2066.69
507.81	2169.68
507.98	2031.58
508.16	2197.76
508.33	2298.41
508.50	2272.66
508.68	2190.74
508.85	2448.20
509.03	2361.60
509.20	2375.64
509.38	2186.06
509.55	2169.68
509.73	2246.91
509.90	2289.04
510.08	2352.24
510.25	2370.96
510.42	2284.36
510.60	2263.30
510.77	2239.89
510.95	2387.35
511.12	2298.41
511.30	2457.56
511.47	2464.58
511.64	2403.73
511.82	2303.09
511.99	2195.42
512.17	2277.34
512.34	2223.51
512.51	2406.07
512.69	2251.60
512.86	2413.09
513.04	2326.49
513.21	2303.09
513.38	2363.94
513.56	2300.75
513.73	2122.87
513.90	2200.10
514.08	2202.44
514.25	2296.07
514.43	2331.17
514.60	2251.60
514.77	2356.92
514.95	2415.43
515.12	2209.47
515.29	2363.94
515.47	2368.62
515.64	2422.45
515.81	2312.45
515.99	2286.70
516.16	2270.32
516.33	2050.31
516.51	1928.60
516.68	1956.69
516.85	1933.28
517.03	1886.47
517.20	2001.16
517.37	2188.40
517.54	2296.07
517.72	2340.54
517.89	2193.08
518.06	1907.54
518.24	2026.90
518.41	2115.84
518.58	2265.64
518.75	2214.15
518.93	2345.22
519.10	2258.62
519.27	2209.47
519.45	2347.56
519.62	2312.45
519.79	2321.81
519.96	2321.81
520.14	2363.94
520.31	2300.75
520.48	2354.58
520.65	2352.24
520.83	2345.22
521.00	2392.03
521.17	2396.71
521.34	2377.98
521.52	2359.26
521.69	2410.75
521.86	2490.33
522.03	2539.48
522.20	2282.02
522.38	2246.91
522.55	2230.53
522.72	2169.68
522.89	2317.13
523.07	2319.47
523.24	2363.94
523.41	2403.73
523.58	2452.88
523.75	2424.80
523.92	2511.39
524.10	2483.31
524.27	2377.98
524.44	2513.74
524.61	2541.82
524.78	2473.95
524.96	2361.60
525.13	2504.37
525.30	2370.96
525.47	2530.12
525.64	2569.91
525.81	2471.61
525.98	2392.03
526.16	2289.04
526.33	2162.66
526.50	2045.63
526.67	2071.37
526.84	2085.42
527.01	2204.78
527.18	2354.58
527.36	2338.20
527.53	2466.92
527.70	2558.21
527.87	2525.44
528.04	2392.03
528.21	2345.22
528.38	2406.07
528.55	2471.61
528.72	2551.18
528.89	2495.01
529.07	2464.58
529.24	2523.10
529.41	2420.11
529.58	2373.30
529.75	2370.96
529.92	2450.54
530.09	2530.12
530.26	2436.50
530.43	2502.03
530.60	2523.10
530.77	2518.42
530.94	2619.06
531.11	2420.11
531.28	2532.46
531.46	2541.82
531.63	2581.61
531.80	2553.52
531.97	2452.88
532.14	2424.80
532.31	2368.62
532.48	2239.89
532.65	2289.04
532.82	2338.20
532.99	2389.69
533.16	2417.77
533.33	2476.29
533.50	2532.46
533.67	2483.31
533.84	2387.35
534.01	2401.39
534.18	2544.16
534.35	2495.01
534.52	2649.49
534.69	2562.89
534.86	2462.24
535.03	2478.63
535.20	2441.18
535.37	2499.69
535.54	2661.19
535.71	2626.08
535.88	2583.95
536.05	2546.50
536.22	2602.68
536.38	2427.14
536.55	2492.67
536.72	2349.90
536.89	2328.83
537.06	2448.20
537.23	2572.25
537.40	2546.50
537.57	2668.21
537.74	2548.84
537.91	2558.21
538.08	2483.31
538.25	2520.76
538.42	2520.76
538.59	2647.15
538.75	2551.18
538.92	2553.52
539.09	2436.50
539.26	2403.73
539.43	2377.98
539.60	2530.12
539.77	2483.31
539.94	2527.78
540.11	2429.48
540.28	2555.86
540.44	2466.92
540.61	2586.29
540.78	2478.63
540.95	2658.85
541.12	2719.70
541.29	2700.98
541.46	2853.11
541.62	2787.58
541.79	2642.46
541.96	2747.79
542.13	2689.28
542.30	2775.88
542.47	2820.35
542.63	2761.83
542.80	2642.46
542.97	2754.81
543.14	2731.41
543.31	2724.38
543.48	2698.64
543.64	2705.66
543.81	2904.60
543.98	2836.73
544.15	2675.23
544.32	2600.34
544.48	2658.85
544.65	2731.41
544.82	2747.79
544.99	2724.38
545.16	2808.64
545.32	2668.21
545.49	2958.44
545.66	3407.82
545.83	3449.95
546.00	3361.01
546.16	3019.29
546.33	2867.16
546.50	2803.96
546.67	2789.92
546.83	2675.23
547.00	2677.57
547.17	2527.78
547.34	2502.03
547.50	2445.86
547.67	2471.61
547.84	2476.29
548.00	2588.63
548.17	2551.18
548.34	2605.02
548.51	2630.76
548.67	2530.12
548.84	2602.68
549.01	2581.61
549.18	2504.37
549.34	2532.46
549.51	2513.74
549.68	2450.54
549.84	2487.99
550.01	2558.21
550.18	2483.31
550.34	2476.29
550.51	2499.69
550.68	2464.58
550.84	2370.96
551.01	2427.14
551.18	2340.54
551.34	2478.63
551.51	2555.86
551.68	2518.42
551.84	2408.41
552.01	2487.99
552.18	2555.86
552.34	2464.58
552.51	2434.16
552.68	2506.71
552.84	2347.56
553.01	2427.14
553.18	2408.41
553.34	2483.31
553.51	2420.11
553.67	2429.48
553.84	2359.26
554.01	2473.95
554.17	2366.28
554.34	2448.20
554.51	2546.50
554.67	2427.14
554.84	2438.84
555.00	2399.05
555.17	2377.98
555.33	2375.64
555.50	2382.67
555.67	2289.04
555.83	2347.56
556.00	2434.16
556.16	2483.31
556.33	2286.70
556.50	2272.66
556.66	2242.23
556.83	2345.22
556.99	2228.19
557.16	2239.89
557.32	2251.60
557.49	2237.55
557.65	2293.72
557.82	2293.72
557.98	2267.98
558.15	2296.07
558.32	2242.23
558.48	2237.55
558.65	2169.68
558.81	2179.04
558.98	2258.62
559.14	2300.75
559.31	2298.41
559.47	2263.30
559.64	2057.33
559.80	2111.16
559.97	2289.04
560.13	2249.25
560.30	2251.60
560.46	2366.28
560.63	2345.22
560.79	2434.16
560.96	2317.13
561.12	2260.96
561.29	2277.34
561.45	2160.31
561.61	2209.47
561.78	2307.77
561.94	2307.77
562.11	2246.91
562.27	2401.39
562.44	2218.83
562.60	2347.56
562.77	2298.41
562.93	2345.22
563.10	2275.00
563.26	2237.55
563.42	2303.09
563.59	2239.89
563.75	2225.85
563.92	2223.51
564.08	2216.49
564.24	2277.34
564.41	2216.49
564.57	2188.40
564.74	2195.42
564.90	2246.91
565.07	2204.78
565.23	2169.68
565.39	2106.48
565.56	2160.31
565.72	2036.27
565.88	2218.83
566.05	2008.18
566.21	2118.18
566.38	2186.06
566.54	2186.06
566.70	2148.61
566.87	2352.24
567.03	2099.46
567.19	2258.62
567.36	2232.87
567.52	2251.60
567.68	2097.12
567.85	2104.14
568.01	2017.54
568.17	2157.97
568.34	1954.35
568.50	2150.95
568.66	1959.03
568.83	2162.66
568.99	2083.08
569.15	2036.27
569.32	2139.25
569.48	2033.93
569.64	2059.67
569.81	1975.41
569.97	1973.07
570.13	2160.31
570.30	2040.95
570.46	2069.03
570.62	1933.28
570.78	1919.24
570.95	2003.50
571.11	1973.07
571.27	1994.14
571.43	1987.11
571.60	2038.61
571.76	2050.31
571.92	2062.01
572.09	2132.23
572.25	2118.18
572.41	1989.46
572.57	1970.73
572.74	2207.13
572.90	2047.97
573.06	2136.91
573.22	2057.33
573.38	2019.88
573.55	2064.35
573.71	2085.42
573.87	2001.16
574.03	2057.33
574.20	1984.77
574.36	1970.73
574.52	1944.99
574.68	1980.09
574.84	2031.58
575.01	1975.41
575.17	1940.30
575.33	1905.20
575.49	2029.24
575.65	2001.16
575.82	1888.81
575.98	1982.43
576.14	1921.58
576.30	2019.88
576.46	2174.36
576.62	2160.31
576.79	2146.27
576.95	2036.27
577.11	2059.67
577.27	2085.42
577.43	2101.80
577.59	1991.80
577.75	1933.28
577.92	1914.56
578.08	1839.66
578.24	1956.69
578.40	1968.39
578.56	2036.27
578.72	2188.40
578.88	2235.21
579.04	2017.54
579.21	2069.03
579.37	2045.63
579.53	1987.11
579.69	2125.21
579.85	1956.69
580.01	2066.69
580.17	2059.67
580.33	1926.26
580.49	2008.18
580.65	1987.11
580.82	2017.54
580.98	2019.88
581.14	2052.65
581.30	1987.11
581.46	2008.18
581.62	1982.43
581.78	1919.24
581.94	2050.31
582.10	2062.01
582.26	2054.99
582.42	2057.33
582.58	2160.31
582.74	2029.24
582.90	2022.22
583.06	2062.01
583.22	2073.71
583.38	1975.41
583.54	1966.05
583.70	2054.99
583.86	1926.26
584.02	2038.61
584.18	2066.69
584.34	2003.50
584.50	1942.64
584.66	2029.24
584.82	2040.95
584.98	2106.48
585.14	1973.07
585.30	1970.73
585.46	1830.30
585.62	1884.13
585.78	1818.60
585.94	2010.52
586.10	1928.60
586.26	1912.22
586.42	1907.54
586.58	2008.18
586.74	2052.65
586.90	2054.99
587.06	1961.37
587.22	1975.41
587.38	2062.01
587.54	1935.62
587.70	1877.11
587.86	1825.62
588.02	1647.74
588.18	1785.83
588.34	1591.56
588.49	1558.80
588.65	1460.49
588.81	1451.13
588.97	1451.13
589.13	1378.58
589.29	1373.89
589.45	1420.71
589.61	1451.13
589.77	1591.56
589.93	1647.74
590.08	1650.08
590.24	1593.90
590.40	1650.08
590.56	1760.08
590.72	1673.48
590.88	1636.03
591.04	1685.19
591.20	1692.21
591.35	1652.42
591.51	1666.46
591.67	1502.62
591.83	1650.08
591.99	1540.07
592.15	1666.46
592.31	1647.74
592.46	1692.21
592.62	1825.62
592.78	1748.38
592.94	1724.97
593.10	1626.67
593.26	1666.46
593.41	1790.51
593.57	1778.81
593.73	1799.87
593.89	1640.72
594.05	1479.22
594.20	1481.56
594.36	1547.09
594.52	1474.54
594.68	1495.60
594.84	1645.40
594.99	1694.55
595.15	1701.57
595.31	1715.61
595.47	1664.12
595.62	1661.78
595.78	1673.48
595.94	1680.50
596.10	1633.69
596.25	1591.56
596.41	1596.25
596.57	1717.95
596.73	1675.82
596.88	1636.03
597.04	1708.59
597.20	1739.02
597.36	1654.76
597.51	1596.25
597.67	1720.29
597.83	1687.53
597.99	1736.68
598.14	1701.57
598.30	1788.17
598.46	1605.61
598.61	1692.21
598.77	1619.65
598.93	1785.83
599.09	1689.87
599.24	1734.34
599.40	1713.27
599.56	1724.97
599.71	1827.96
599.87	1713.27
600.03	1687.53
600.18	1809.23
600.34	1678.16
