SpectraSuite Data File
++++++++++++++++++++++++++++++++++++
Date: Fri Oct 04 11:41:45 GMT-05:00 2013
User: price-jones
Dark Spectrum Present: No
Reference Spectrum Present: No
Number of Sampled Component Spectra: 1
Spectrometers: USB2+H05261
Integration Time (usec): 100000 (USB2+H05261)
Spectra Averaged: 1 (USB2+H05261)
Boxcar Smoothing: 0 (USB2+H05261)
Correct for Electrical Dark: No (USB2+H05261)
Strobe/Lamp Enabled: No (USB2+H05261)
Correct for Detector Non-linearity: No (USB2+H05261)
Correct for Stray Light: No (USB2+H05261)
Number of Pixels in Processed Spectrum: 2048
>>>>>Begin Processed Spectral Data<<<<<
365.73	77.24
365.92	77.24
366.12	77.24
366.32	0.00
366.52	0.00
366.72	0.00
366.91	0.00
367.11	0.00
367.31	0.00
367.51	0.00
367.70	0.00
367.90	0.00
368.10	0.00
368.30	0.00
368.49	0.00
368.69	0.00
368.89	0.00
369.09	0.00
369.28	0.00
369.48	0.00
369.68	0.00
369.87	0.00
370.07	30.43
370.27	11.70
370.47	4.68
370.66	0.00
370.86	42.13
371.06	152.13
371.25	77.24
371.45	60.85
371.65	79.58
371.84	107.66
372.04	65.54
372.24	145.11
372.44	49.15
372.63	98.30
372.83	156.82
373.03	154.48
373.22	88.94
373.42	135.75
373.62	58.51
373.81	149.79
374.01	156.82
374.21	98.30
374.40	133.41
374.60	149.79
374.79	112.35
374.99	102.98
375.19	189.58
375.38	140.43
375.58	37.45
375.78	159.16
375.97	142.77
376.17	180.22
376.37	117.03
376.56	117.03
376.76	184.90
376.95	77.24
377.15	182.56
377.35	117.03
377.54	128.73
377.74	37.45
377.93	70.22
378.13	133.41
378.33	168.52
378.52	140.43
378.72	84.26
378.91	107.66
379.11	44.47
379.31	131.07
379.50	70.22
379.70	163.84
379.89	107.66
380.09	128.73
380.28	156.82
380.48	133.41
380.68	126.39
380.87	44.47
381.07	102.98
381.26	166.18
381.46	110.01
381.65	107.66
381.85	152.13
382.04	117.03
382.24	152.13
382.43	56.17
382.63	149.79
382.83	156.82
383.02	98.30
383.22	128.73
383.41	128.73
383.61	63.19
383.80	145.11
384.00	91.28
384.19	161.50
384.39	124.05
384.58	100.64
384.78	166.18
384.97	128.73
385.17	28.09
385.36	74.90
385.56	119.37
385.75	121.71
385.95	86.60
386.14	84.26
386.34	159.16
386.53	131.07
386.72	119.37
386.92	131.07
387.11	191.92
387.31	140.43
387.50	128.73
387.70	110.01
387.89	142.77
388.09	86.60
388.28	44.47
388.48	84.26
388.67	128.73
388.86	175.54
389.06	119.37
389.25	44.47
389.45	187.24
389.64	147.45
389.84	121.71
390.03	154.48
390.22	121.71
390.42	88.94
390.61	46.81
390.81	117.03
391.00	93.62
391.19	133.41
391.39	121.71
391.58	56.17
391.78	91.28
391.97	102.98
392.16	102.98
392.36	147.45
392.55	119.37
392.75	131.07
392.94	93.62
393.13	102.98
393.33	77.24
393.52	117.03
393.71	180.22
393.91	156.82
394.10	56.17
394.29	184.90
394.49	154.48
394.68	166.18
394.88	149.79
395.07	194.26
395.26	173.20
395.46	203.63
395.65	95.96
395.84	180.22
396.04	198.95
396.23	119.37
396.42	182.56
396.62	110.01
396.81	142.77
397.00	93.62
397.19	177.88
397.39	86.60
397.58	154.48
397.77	140.43
397.97	133.41
398.16	152.13
398.35	182.56
398.55	177.88
398.74	154.48
398.93	187.24
399.12	121.71
399.32	161.50
399.51	126.39
399.70	131.07
399.90	177.88
400.09	168.52
400.28	173.20
400.47	114.69
400.67	140.43
400.86	161.50
401.05	133.41
401.24	215.33
401.44	173.20
401.63	168.52
401.82	210.65
402.01	187.24
402.21	147.45
402.40	168.52
402.59	140.43
402.78	229.37
402.97	203.63
403.17	205.97
403.36	266.82
403.55	320.65
403.74	561.73
403.93	1874.77
404.13	4414.25
404.32	5760.06
404.51	5053.22
404.70	3040.36
404.89	1245.16
405.09	369.80
405.28	266.82
405.47	229.37
405.66	203.63
405.85	184.90
406.05	187.24
406.24	189.58
406.43	198.95
406.62	269.16
406.81	229.37
407.00	313.63
407.20	514.92
407.39	781.74
407.58	842.59
407.77	561.73
407.96	376.83
408.15	283.20
408.34	159.16
408.54	159.16
408.73	299.59
408.92	208.31
409.11	198.95
409.30	184.90
409.49	189.58
409.68	138.09
409.87	138.09
410.07	107.66
410.26	227.03
410.45	161.50
410.64	189.58
410.83	175.54
411.02	163.84
411.21	126.39
411.40	147.45
411.59	163.84
411.78	187.24
411.98	231.71
412.17	163.84
412.36	161.50
412.55	224.69
412.74	161.50
412.93	154.48
413.12	133.41
413.31	241.08
413.50	194.26
413.69	264.48
413.88	243.42
414.07	166.18
414.26	241.08
414.45	126.39
414.64	229.37
414.83	203.63
415.02	248.10
415.22	234.05
415.41	227.03
415.60	205.97
415.79	252.78
415.98	191.92
416.17	121.71
416.36	138.09
416.55	264.48
416.74	215.33
416.93	266.82
417.12	168.52
417.31	205.97
417.50	217.67
417.69	290.23
417.88	208.31
418.07	238.73
418.26	236.39
418.45	236.39
418.64	304.27
418.83	241.08
419.02	222.35
419.21	245.76
419.39	283.20
419.58	262.14
419.77	222.35
419.96	322.99
420.15	222.35
420.34	285.55
420.53	231.71
420.72	201.29
420.91	257.46
421.10	224.69
421.29	234.05
421.48	264.48
421.67	285.55
421.86	276.18
422.05	187.24
422.24	278.52
422.43	259.80
422.61	238.73
422.80	248.10
422.99	299.59
423.18	212.99
423.37	304.27
423.56	320.65
423.75	294.91
423.94	271.50
424.13	283.20
424.32	276.18
424.50	287.89
424.69	301.93
424.88	236.39
425.07	231.71
425.26	299.59
425.45	224.69
425.64	330.02
425.83	306.61
426.01	304.27
426.20	376.83
426.39	353.42
426.58	360.44
426.77	266.82
426.96	322.99
427.15	297.25
427.33	271.50
427.52	280.86
427.71	262.14
427.90	290.23
428.09	304.27
428.28	297.25
428.46	201.29
428.65	304.27
428.84	306.61
429.03	433.00
429.22	315.97
429.40	285.55
429.59	332.36
429.78	369.80
429.97	332.36
430.16	280.86
430.34	287.89
430.53	255.12
430.72	330.02
430.91	320.65
431.10	278.52
431.28	451.72
431.47	395.55
431.66	351.08
431.85	372.15
432.03	306.61
432.22	353.42
432.41	414.27
432.60	379.17
432.79	332.36
432.97	376.83
433.16	369.80
433.35	507.90
433.54	535.98
433.72	554.71
433.91	613.22
434.10	575.77
434.28	711.52
434.47	924.51
434.66	938.55
434.85	1174.95
435.03	3105.89
435.22	11257.98
435.41	24664.57
435.59	25926.11
435.78	16704.40
435.97	8271.45
436.16	3204.19
436.34	1158.57
436.53	688.12
436.72	624.92
436.90	547.69
437.09	505.56
437.28	482.15
437.46	400.23
437.65	489.17
437.84	496.19
438.02	472.79
438.21	491.51
438.40	404.91
438.58	376.83
438.77	376.83
438.96	369.80
439.14	409.59
439.33	458.74
439.52	421.30
439.70	425.98
439.89	381.51
440.08	379.17
440.26	388.53
440.45	407.25
440.63	440.02
440.82	379.17
441.01	362.78
441.19	362.78
441.38	437.68
441.57	411.93
441.75	470.45
441.94	390.87
442.12	430.66
442.31	461.09
442.50	374.49
442.68	449.38
442.87	463.43
443.05	411.93
443.24	414.27
443.43	505.56
443.61	404.91
443.80	425.98
443.98	395.55
444.17	355.76
444.35	521.94
444.54	395.55
444.73	379.17
444.91	442.36
445.10	479.81
445.28	465.77
445.47	390.87
445.65	332.36
445.84	337.04
446.02	341.72
446.21	444.70
446.39	393.21
446.58	351.08
446.77	365.12
446.95	374.49
447.14	433.00
447.32	465.77
447.51	400.23
447.69	404.91
447.88	404.91
448.06	393.21
448.25	330.02
448.43	388.53
448.62	379.17
448.80	414.27
448.99	479.81
449.17	402.57
449.36	409.59
449.54	339.38
449.73	362.78
449.91	404.91
450.10	355.76
450.28	514.92
450.46	470.45
450.65	414.27
450.83	402.57
451.02	379.17
451.20	416.62
451.39	358.10
451.57	332.36
451.76	395.55
451.94	383.85
452.13	489.17
452.31	414.27
452.49	390.87
452.68	430.66
452.86	404.91
453.05	428.32
453.23	409.59
453.42	379.17
453.60	395.55
453.78	341.72
453.97	379.17
454.15	339.38
454.34	355.76
454.52	402.57
454.70	468.11
454.89	280.86
455.07	386.19
455.26	353.42
455.44	400.23
455.62	379.17
455.81	435.34
455.99	404.91
456.17	435.34
456.36	414.27
456.54	397.89
456.73	402.57
456.91	423.64
457.09	353.42
457.28	416.62
457.46	337.04
457.64	374.49
457.83	320.65
458.01	294.91
458.19	449.38
458.38	416.62
458.56	390.87
458.74	334.70
458.93	463.43
459.11	339.38
459.29	355.76
459.48	402.57
459.66	437.68
459.84	362.78
460.03	519.60
460.21	383.85
460.39	276.18
460.57	449.38
460.76	414.27
460.94	442.36
461.12	390.87
461.31	400.23
461.49	407.25
461.67	271.50
461.85	381.51
462.04	320.65
462.22	517.26
462.40	402.57
462.59	411.93
462.77	337.04
462.95	351.08
463.13	400.23
463.32	430.66
463.50	477.47
463.68	444.70
463.86	388.53
464.05	386.19
464.23	475.13
464.41	454.06
464.59	332.36
464.78	369.80
464.96	388.53
465.14	428.32
465.32	337.04
465.50	358.10
465.69	365.12
465.87	318.31
466.05	367.46
466.23	372.15
466.41	383.85
466.60	346.40
466.78	397.89
466.96	355.76
467.14	330.02
467.32	510.24
467.51	379.17
467.69	320.65
467.87	421.30
468.05	379.17
468.23	461.09
468.41	330.02
468.60	393.21
468.78	353.42
468.96	341.72
469.14	341.72
469.32	322.99
469.50	346.40
469.69	411.93
469.87	362.78
470.05	468.11
470.23	390.87
470.41	341.72
470.59	388.53
470.77	493.85
470.95	311.29
471.14	402.57
471.32	344.06
471.50	348.74
471.68	393.21
471.86	416.62
472.04	358.10
472.22	376.83
472.40	353.42
472.58	386.19
472.77	386.19
472.95	339.38
473.13	470.45
473.31	376.83
473.49	327.68
473.67	393.21
473.85	404.91
474.03	376.83
474.21	327.68
474.39	372.15
474.57	358.10
474.75	437.68
474.93	381.51
475.12	339.38
475.30	339.38
475.48	367.46
475.66	463.43
475.84	388.53
476.02	355.76
476.20	362.78
476.38	388.53
476.56	407.25
476.74	428.32
476.92	376.83
477.10	372.15
477.28	376.83
477.46	355.76
477.64	411.93
477.82	348.74
478.00	330.02
478.18	428.32
478.36	489.17
478.54	379.17
478.72	402.57
478.90	465.77
479.08	440.02
479.26	538.32
479.44	463.43
479.62	484.49
479.80	580.45
479.98	482.15
480.16	486.83
480.34	512.58
480.52	638.97
480.70	615.56
480.88	599.18
481.06	582.79
481.24	620.24
481.41	606.20
481.59	725.57
481.77	744.29
481.95	702.16
482.13	812.17
482.31	861.32
482.49	933.87
482.67	1036.86
482.85	987.71
483.03	1090.69
483.21	1139.84
483.39	1238.14
483.57	1291.98
483.74	1432.41
483.92	1476.88
484.10	1514.33
484.28	1664.12
484.46	1671.14
484.64	1706.25
484.82	1816.26
485.00	1944.99
485.18	2125.21
485.35	2237.55
485.53	2319.47
485.71	2499.69
485.89	2490.33
486.07	2420.11
486.25	2558.21
486.43	2462.24
486.61	2579.27
486.78	2560.55
486.96	2492.67
487.14	2534.80
487.32	2506.71
487.50	2590.97
487.68	2534.80
487.85	2420.11
488.03	2642.46
488.21	2455.22
488.39	2300.75
488.57	2272.66
488.75	2202.44
488.92	2436.50
489.10	2197.76
489.28	2176.70
489.46	2029.24
489.64	1973.07
489.81	2076.06
489.99	1994.14
490.17	1881.79
490.35	2005.84
490.53	1930.94
490.70	1879.45
490.88	1877.11
491.06	1989.46
491.24	2260.96
491.41	2193.08
491.59	2062.01
491.77	1865.41
491.95	1849.02
492.13	1820.94
492.30	1788.17
492.48	1806.89
492.66	1753.06
492.84	1675.82
493.01	1650.08
493.19	1713.27
493.37	1633.69
493.54	1633.69
493.72	1540.07
493.90	1500.28
494.08	1453.47
494.25	1582.20
494.43	1516.67
494.61	1514.33
494.79	1439.43
494.96	1439.43
495.14	1348.15
495.32	1420.71
495.49	1366.87
495.67	1413.68
495.85	1357.51
496.02	1348.15
496.20	1425.39
496.38	1329.42
496.55	1364.53
496.73	1231.12
496.91	1090.69
497.09	1205.38
497.26	1247.51
497.44	1165.59
497.62	1165.59
497.79	1200.69
497.97	997.07
498.14	1057.92
498.32	1027.50
498.50	997.07
498.67	945.58
498.85	1013.45
499.03	1013.45
499.20	938.55
499.38	1004.09
499.56	987.71
499.73	959.62
499.91	931.53
500.08	919.83
500.26	814.51
500.44	814.51
500.61	753.65
500.79	751.31
500.97	816.85
501.14	770.04
501.32	645.99
501.49	730.25
501.67	662.37
501.84	741.95
502.02	566.41
502.20	702.16
502.37	643.65
502.55	592.16
502.72	678.76
502.90	678.76
503.07	575.77
503.25	608.54
503.43	582.79
503.60	472.79
503.78	589.82
503.95	547.69
504.13	524.28
504.30	486.83
504.48	589.82
504.65	557.05
504.83	482.15
505.01	479.81
505.18	545.34
505.36	449.38
505.53	519.60
505.71	482.15
505.88	543.00
506.06	367.46
506.23	465.77
506.41	493.85
506.58	500.87
506.76	386.19
506.93	472.79
507.11	463.43
507.28	397.89
507.46	482.15
507.63	397.89
507.81	435.34
507.98	374.49
508.16	313.63
508.33	458.74
508.50	510.24
508.68	402.57
508.85	458.74
509.03	507.90
509.20	521.94
509.38	393.21
509.55	526.62
509.73	418.96
509.90	458.74
510.08	358.10
510.25	437.68
510.42	339.38
510.60	409.59
510.77	430.66
510.95	447.04
511.12	362.78
511.30	367.46
511.47	472.79
511.64	468.11
511.82	395.55
511.99	383.85
512.17	386.19
512.34	339.38
512.51	383.85
512.69	351.08
512.86	393.21
513.04	348.74
513.21	433.00
513.38	351.08
513.56	327.68
513.73	351.08
513.90	374.49
514.08	379.17
514.25	423.64
514.43	411.93
514.60	355.76
514.77	393.21
514.95	365.12
515.12	360.44
515.29	353.42
515.47	400.23
515.64	344.06
515.81	379.17
515.99	367.46
516.16	383.85
516.33	451.72
516.51	337.04
516.68	276.18
516.85	320.65
517.03	269.16
517.20	252.78
517.37	334.70
517.54	301.93
517.72	355.76
517.89	334.70
518.06	322.99
518.24	379.17
518.41	334.70
518.58	313.63
518.75	285.55
518.93	337.04
519.10	334.70
519.27	376.83
519.45	376.83
519.62	383.85
519.79	339.38
519.96	290.23
520.14	362.78
520.31	386.19
520.48	313.63
520.65	290.23
520.83	299.59
521.00	355.76
521.17	245.76
521.34	283.20
521.52	304.27
521.69	327.68
521.86	339.38
522.03	322.99
522.20	351.08
522.38	346.40
522.55	327.68
522.72	262.14
522.89	301.93
523.07	407.25
523.24	327.68
523.41	337.04
523.58	330.02
523.75	325.33
523.92	301.93
524.10	374.49
524.27	458.74
524.44	400.23
524.61	348.74
524.78	344.06
524.96	320.65
525.13	330.02
525.30	395.55
525.47	421.30
525.64	386.19
525.81	400.23
525.98	351.08
526.16	379.17
526.33	344.06
526.50	334.70
526.67	421.30
526.84	360.44
527.01	341.72
527.18	437.68
527.36	400.23
527.53	458.74
527.70	461.09
527.87	362.78
528.04	468.11
528.21	414.27
528.38	400.23
528.55	381.51
528.72	421.30
528.89	454.06
529.07	454.06
529.24	458.74
529.41	435.34
529.58	456.40
529.75	477.47
529.92	369.80
530.09	479.81
530.26	552.37
530.43	482.15
530.60	477.47
530.77	486.83
530.94	484.49
531.11	514.92
531.28	526.62
531.46	449.38
531.63	543.00
531.80	634.29
531.97	540.66
532.14	791.10
532.31	791.10
532.48	1025.15
532.65	992.39
532.82	1149.20
532.99	1392.62
533.16	1547.09
533.33	1647.74
533.50	1549.43
533.67	1259.21
533.84	1165.59
534.01	1006.43
534.18	966.64
534.35	954.94
534.52	936.21
534.69	1039.20
534.86	1001.75
535.03	1029.84
535.20	1125.80
535.37	1088.35
535.54	1205.38
535.71	1233.46
535.88	1280.27
536.05	1369.21
536.22	1507.30
536.38	1631.35
536.55	1743.70
536.72	1970.73
536.89	2017.54
537.06	2387.35
537.23	2583.95
537.40	2883.54
537.57	3122.27
537.74	3122.27
537.91	3332.92
538.08	3288.45
538.25	3442.93
538.42	3545.91
538.59	3435.91
538.75	3653.58
538.92	3911.04
539.09	4369.78
539.26	4664.69
539.43	5263.86
539.60	6066.67
539.77	6782.87
539.94	7648.87
540.11	8348.69
540.28	9057.87
540.44	10071.33
540.61	10958.39
540.78	12765.28
540.95	15197.10
541.12	17729.56
541.29	20322.87
541.46	21460.37
541.62	20823.75
541.79	19843.06
541.96	18424.70
542.13	17202.94
542.30	15978.84
542.47	15035.60
542.63	14434.08
542.80	14162.58
542.97	13790.44
543.14	13582.13
543.31	13633.62
543.48	13621.92
543.64	14010.45
543.81	14015.13
543.98	14396.64
544.15	14253.86
544.32	14169.60
544.48	14455.15
544.65	14120.45
544.82	13905.12
544.99	13954.27
545.16	14649.41
545.32	15143.27
545.49	25715.47
545.66	46717.09
545.83	54300.43
546.00	47496.49
546.16	32374.29
546.33	23613.66
546.50	17752.96
546.67	13998.74
546.83	12774.64
547.00	12025.67
547.17	11520.12
547.34	11103.50
547.50	10757.10
547.67	10485.60
547.84	9886.42
548.00	9287.25
548.17	9158.52
548.34	8847.22
548.51	8517.21
548.67	8116.98
548.84	7793.98
549.01	7288.43
549.18	7112.89
549.34	6862.45
549.51	6532.44
549.68	6148.59
549.84	6090.07
550.01	5795.17
550.18	5486.22
550.34	5263.86
550.51	5039.17
550.68	4791.08
550.84	4458.72
551.01	4372.12
551.18	4222.33
551.34	3950.82
551.51	3779.97
551.68	3695.71
551.84	3452.29
552.01	3356.33
552.18	3213.56
552.34	3101.21
552.51	3124.62
552.68	2942.05
552.84	2768.85
553.01	2740.77
553.18	2609.70
553.34	2527.78
553.51	2399.05
553.67	2331.17
553.84	2345.22
554.01	2134.57
554.17	1980.09
554.34	1884.13
554.51	1827.96
554.67	1607.95
554.84	1682.85
555.00	1577.52
555.17	1465.18
555.33	1479.22
555.50	1348.15
555.67	1228.78
555.83	1156.22
556.00	1226.44
556.16	1362.19
556.33	1231.12
556.50	1027.50
556.66	1095.37
556.83	931.53
556.99	933.87
557.16	924.51
557.32	973.66
557.49	812.17
557.65	903.45
557.82	896.43
557.98	847.27
558.15	851.96
558.32	854.30
558.48	856.64
558.65	809.83
558.81	842.59
558.98	781.74
559.14	706.84
559.31	718.54
559.47	734.93
559.64	720.88
559.80	674.07
559.97	664.71
560.13	720.88
560.30	617.90
560.46	650.67
560.63	685.78
560.79	676.41
560.96	641.31
561.12	596.84
561.29	643.65
561.45	599.18
561.61	709.18
561.78	746.63
561.94	627.26
562.11	592.16
562.27	660.03
562.44	669.39
562.60	690.46
562.77	624.92
562.93	643.65
563.10	594.50
563.26	557.05
563.42	587.47
563.59	545.34
563.75	603.86
563.92	568.75
564.08	582.79
564.24	620.24
564.41	608.54
564.57	550.03
564.74	493.85
564.90	594.50
565.07	629.60
565.23	629.60
565.39	514.92
565.56	599.18
565.72	564.07
565.88	500.87
566.05	468.11
566.21	461.09
566.38	545.34
566.54	552.37
566.70	538.32
566.87	610.88
567.03	552.37
567.19	575.77
567.36	510.24
567.52	557.05
567.68	535.98
567.85	587.47
568.01	540.66
568.17	545.34
568.34	533.64
568.50	664.71
568.66	552.37
568.83	594.50
568.99	482.15
569.15	512.58
569.32	484.49
569.48	393.21
569.64	404.91
569.81	435.34
569.97	435.34
570.13	477.47
570.30	423.64
570.46	418.96
570.62	472.79
570.78	451.72
570.95	489.17
571.11	416.62
571.27	334.70
571.43	411.93
571.60	491.51
571.76	482.15
571.92	397.89
572.09	423.64
572.25	416.62
572.41	404.91
572.57	411.93
572.74	421.30
572.90	486.83
573.06	421.30
573.22	418.96
573.38	512.58
573.55	510.24
573.71	444.70
573.87	449.38
574.03	507.90
574.20	510.24
574.36	547.69
574.52	486.83
574.68	538.32
574.84	538.32
575.01	468.11
575.17	573.43
575.33	667.05
575.49	629.60
575.65	634.29
575.82	695.14
575.98	784.08
576.14	924.51
576.30	1757.74
576.46	5530.69
576.62	9352.78
576.79	9870.04
576.95	7033.31
577.11	4699.80
577.27	3328.24
577.43	2141.59
577.59	1474.54
577.75	1210.06
577.92	1107.07
578.08	1151.54
578.24	1153.88
578.40	1937.96
578.56	5261.52
578.72	8346.35
578.88	8985.32
579.04	6654.14
579.21	4542.98
579.37	3595.06
579.53	2768.85
579.69	2677.57
579.85	3346.97
580.01	3730.81
580.17	3658.26
580.33	3002.91
580.49	2595.65
580.65	2375.64
580.82	2181.38
580.98	2246.91
581.14	2062.01
581.30	2314.79
581.46	2403.73
581.62	2672.89
581.78	2782.90
581.94	3016.95
582.10	3119.93
582.26	3400.80
582.42	3314.20
582.58	3667.62
582.74	3520.17
582.90	3588.04
583.06	3609.11
583.22	3691.02
583.38	3648.90
583.54	3719.11
583.70	3634.85
583.86	3421.86
584.02	3400.80
584.18	3592.72
584.34	3290.79
584.50	3365.69
584.66	3337.60
584.82	3309.52
584.98	3328.24
585.14	3243.98
585.30	3091.85
585.46	3101.21
585.62	3035.67
585.78	3124.62
585.94	3077.80
586.10	3194.83
586.26	3316.54
586.42	3798.69
586.58	4514.89
586.74	5364.51
586.90	6387.32
587.06	7077.78
587.22	6834.36
587.38	6038.58
587.54	5270.89
587.70	4610.86
587.86	3864.22
588.02	3295.47
588.18	2979.50
588.34	2771.19
588.49	2429.48
588.65	2272.66
588.81	2207.13
588.97	2078.40
589.13	2139.25
589.29	2045.63
589.45	2078.40
589.61	2045.63
589.77	1991.80
589.93	2062.01
590.08	2118.18
590.24	2202.44
590.40	2324.15
590.56	2282.02
590.72	2284.36
590.88	2450.54
591.04	2525.44
591.20	2534.80
591.35	2740.77
591.51	2759.49
591.67	3035.67
591.83	3066.10
591.99	3379.73
592.15	3648.90
592.31	4032.74
592.46	4301.90
592.62	4636.60
592.78	4912.78
592.94	4980.66
593.10	4954.91
593.26	4704.48
593.41	4278.50
593.57	3950.82
593.73	3468.67
593.89	3197.17
594.05	2782.90
594.20	2492.67
594.36	2291.38
594.52	2155.63
594.68	2125.21
594.84	2080.74
594.99	1944.99
595.15	1900.52
595.31	1874.77
595.47	1839.66
595.62	1928.60
595.78	1732.00
595.94	1870.09
596.10	1818.60
596.25	1867.75
596.41	1874.77
596.57	1837.32
596.73	1881.79
596.88	1839.66
597.04	1823.28
597.20	1757.74
597.36	1937.96
597.51	1987.11
597.67	2038.61
597.83	2026.90
597.99	2169.68
598.14	2277.34
598.30	2441.18
598.46	2586.29
598.61	2679.91
598.77	2862.48
598.93	3007.59
599.09	3136.32
599.24	2993.55
599.40	3197.17
599.56	2925.67
599.71	2911.63
599.87	2682.25
600.03	2485.65
600.18	2331.17
600.34	2190.74
600.50	2202.44
600.65	1982.43
600.81	1944.99
600.97	1753.06
601.12	1757.74
601.28	1671.14
601.44	1591.56
601.59	1521.35
601.75	1376.24
601.91	1420.71
602.06	1399.64
602.22	1327.08
602.37	1303.68
602.53	1331.76
602.69	1277.93
602.84	1240.48
603.00	1277.93
603.16	1308.36
603.31	1376.24
603.47	1275.59
603.62	1341.13
603.78	1259.21
603.94	1327.08
604.09	1329.42
604.25	1416.02
604.40	1451.13
604.56	1308.36
604.71	1432.41
604.87	1519.01
605.03	1451.13
605.18	1465.18
605.34	1563.48
605.49	1600.93
605.65	1631.35
605.80	1708.59
