SpectraSuite Data File
++++++++++++++++++++++++++++++++++++
Date: Fri Oct 04 11:42:21 GMT-05:00 2013
User: price-jones
Dark Spectrum Present: No
Reference Spectrum Present: No
Number of Sampled Component Spectra: 1
Spectrometers: USB2+H05261
Integration Time (usec): 100000 (USB2+H05261)
Spectra Averaged: 1 (USB2+H05261)
Boxcar Smoothing: 0 (USB2+H05261)
Correct for Electrical Dark: No (USB2+H05261)
Strobe/Lamp Enabled: No (USB2+H05261)
Correct for Detector Non-linearity: No (USB2+H05261)
Correct for Stray Light: No (USB2+H05261)
Number of Pixels in Processed Spectrum: 2048
>>>>>Begin Processed Spectral Data<<<<<
365.73	37.45
365.92	37.45
366.12	37.45
366.32	0.00
366.52	0.00
366.72	0.00
366.91	0.00
367.11	0.00
367.31	0.00
367.51	0.00
367.70	0.00
367.90	0.00
368.10	0.00
368.30	0.00
368.49	0.00
368.69	0.00
368.89	0.00
369.09	0.00
369.28	0.00
369.48	0.00
369.68	11.70
369.87	0.00
370.07	0.00
370.27	42.13
370.47	9.36
370.66	7.02
370.86	25.75
371.06	140.43
371.25	133.41
371.45	0.00
371.65	79.58
371.84	100.64
372.04	88.94
372.24	58.51
372.44	105.32
372.63	42.13
372.83	58.51
373.03	77.24
373.22	114.69
373.42	159.16
373.62	163.84
373.81	114.69
374.01	86.60
374.21	117.03
374.40	81.92
374.60	189.58
374.79	119.37
374.99	154.48
375.19	121.71
375.38	119.37
375.58	124.05
375.78	166.18
375.97	215.33
376.17	138.09
376.37	166.18
376.56	46.81
376.76	28.09
376.95	98.30
377.15	37.45
377.35	91.28
377.54	98.30
377.74	86.60
377.93	102.98
378.13	102.98
378.33	72.56
378.52	74.90
378.72	142.77
378.91	67.88
379.11	70.22
379.31	60.85
379.50	117.03
379.70	142.77
379.89	107.66
380.09	65.54
380.28	79.58
380.48	110.01
380.68	145.11
380.87	79.58
381.07	46.81
381.26	114.69
381.46	79.58
381.65	107.66
381.85	74.90
382.04	159.16
382.24	119.37
382.43	86.60
382.63	42.13
382.83	81.92
383.02	147.45
383.22	203.63
383.41	102.98
383.61	121.71
383.80	44.47
384.00	159.16
384.19	126.39
384.39	74.90
384.58	100.64
384.78	117.03
384.97	79.58
385.17	70.22
385.36	11.70
385.56	138.09
385.75	79.58
385.95	91.28
386.14	84.26
386.34	35.11
386.53	145.11
386.72	65.54
386.92	156.82
387.11	135.75
387.31	67.88
387.50	119.37
387.70	42.13
387.89	124.05
388.09	44.47
388.28	102.98
388.48	177.88
388.67	140.43
388.86	44.47
389.06	102.98
389.25	161.50
389.45	110.01
389.64	138.09
389.84	135.75
390.03	93.62
390.22	177.88
390.42	70.22
390.61	88.94
390.81	79.58
391.00	98.30
391.19	177.88
391.39	128.73
391.58	156.82
391.78	74.90
391.97	84.26
392.16	77.24
392.36	121.71
392.55	114.69
392.75	58.51
392.94	102.98
393.13	138.09
393.33	72.56
393.52	102.98
393.71	110.01
393.91	72.56
394.10	37.45
394.29	86.60
394.49	98.30
394.68	159.16
394.88	147.45
395.07	105.32
395.26	117.03
395.46	91.28
395.65	110.01
395.84	142.77
396.04	283.20
396.23	63.19
396.42	145.11
396.62	107.66
396.81	131.07
397.00	177.88
397.19	49.15
397.39	105.32
397.58	152.13
397.77	91.28
397.97	74.90
398.16	135.75
398.35	140.43
398.55	84.26
398.74	131.07
398.93	105.32
399.12	98.30
399.32	154.48
399.51	128.73
399.70	102.98
399.90	154.48
400.09	117.03
400.28	145.11
400.47	119.37
400.67	133.41
400.86	126.39
401.05	81.92
401.24	142.77
401.44	170.86
401.63	131.07
401.82	117.03
402.01	107.66
402.21	79.58
402.40	126.39
402.59	128.73
402.78	42.13
402.97	98.30
403.17	105.32
403.36	140.43
403.55	74.90
403.74	98.30
403.93	121.71
404.13	285.55
404.32	241.08
404.51	257.46
404.70	217.67
404.89	135.75
405.09	168.52
405.28	128.73
405.47	72.56
405.66	112.35
405.85	117.03
406.05	154.48
406.24	128.73
406.43	138.09
406.62	58.51
406.81	198.95
407.00	79.58
407.20	105.32
407.39	119.37
407.58	149.79
407.77	215.33
407.96	161.50
408.15	114.69
408.34	126.39
408.54	180.22
408.73	133.41
408.92	170.86
409.11	56.17
409.30	131.07
409.49	128.73
409.68	117.03
409.87	156.82
410.07	135.75
410.26	147.45
410.45	126.39
410.64	133.41
410.83	46.81
411.02	77.24
411.21	163.84
411.40	231.71
411.59	110.01
411.78	102.98
411.98	140.43
412.17	60.85
412.36	175.54
412.55	100.64
412.74	135.75
412.93	184.90
413.12	163.84
413.31	105.32
413.50	133.41
413.69	100.64
413.88	124.05
414.07	194.26
414.26	131.07
414.45	152.13
414.64	163.84
414.83	149.79
415.02	177.88
415.22	119.37
415.41	149.79
415.60	147.45
415.79	128.73
415.98	149.79
416.17	100.64
416.36	147.45
416.55	117.03
416.74	156.82
416.93	156.82
417.12	147.45
417.31	56.17
417.50	138.09
417.69	142.77
417.88	114.69
418.07	42.13
418.26	138.09
418.45	93.62
418.64	119.37
418.83	58.51
419.02	117.03
419.21	86.60
419.39	102.98
419.58	159.16
419.77	194.26
419.96	110.01
420.15	93.62
420.34	84.26
420.53	112.35
420.72	220.01
420.91	121.71
421.10	114.69
421.29	84.26
421.48	91.28
421.67	231.71
421.86	74.90
422.05	189.58
422.24	81.92
422.43	159.16
422.61	98.30
422.80	138.09
422.99	173.20
423.18	145.11
423.37	170.86
423.56	124.05
423.75	196.60
423.94	100.64
424.13	149.79
424.32	166.18
424.50	142.77
424.69	140.43
424.88	145.11
425.07	205.97
425.26	147.45
425.45	201.29
425.64	198.95
425.83	107.66
426.01	166.18
426.20	107.66
426.39	149.79
426.58	114.69
426.77	166.18
426.96	124.05
427.15	131.07
427.33	142.77
427.52	110.01
427.71	77.24
427.90	138.09
428.09	154.48
428.28	128.73
428.46	121.71
428.65	121.71
428.84	95.96
429.03	163.84
429.22	126.39
429.40	79.58
429.59	119.37
429.78	107.66
429.97	152.13
430.16	131.07
430.34	177.88
430.53	147.45
430.72	208.31
430.91	184.90
431.10	175.54
431.28	163.84
431.47	201.29
431.66	175.54
431.85	117.03
432.03	182.56
432.22	264.48
432.41	140.43
432.60	220.01
432.79	156.82
432.97	187.24
433.16	173.20
433.35	154.48
433.54	56.17
433.72	145.11
433.91	208.31
434.10	142.77
434.28	128.73
434.47	152.13
434.66	198.95
434.85	198.95
435.03	264.48
435.22	683.44
435.41	1128.14
435.59	1266.23
435.78	919.83
435.97	540.66
436.16	334.70
436.34	201.29
436.53	142.77
436.72	222.35
436.90	175.54
437.09	154.48
437.28	114.69
437.46	159.16
437.65	156.82
437.84	168.52
438.02	215.33
438.21	227.03
438.40	140.43
438.58	114.69
438.77	182.56
438.96	173.20
439.14	156.82
439.33	177.88
439.52	170.86
439.70	236.39
439.89	180.22
440.08	215.33
440.26	142.77
440.45	180.22
440.63	168.52
440.82	156.82
441.01	142.77
441.19	191.92
441.38	149.79
441.57	161.50
441.75	191.92
441.94	173.20
442.12	159.16
442.31	180.22
442.50	191.92
442.68	107.66
442.87	140.43
443.05	161.50
443.24	135.75
443.43	194.26
443.61	187.24
443.80	152.13
443.98	140.43
444.17	166.18
444.35	173.20
444.54	149.79
444.73	117.03
444.91	227.03
445.10	175.54
445.28	159.16
445.47	159.16
445.65	121.71
445.84	149.79
446.02	173.20
446.21	175.54
446.39	131.07
446.58	184.90
446.77	189.58
446.95	191.92
447.14	114.69
447.32	273.84
447.51	205.97
447.69	152.13
447.88	208.31
448.06	147.45
448.25	154.48
448.43	210.65
448.62	72.56
448.80	191.92
448.99	138.09
449.17	163.84
449.36	126.39
449.54	128.73
449.73	114.69
449.91	173.20
450.10	145.11
450.28	163.84
450.46	257.46
450.65	154.48
450.83	208.31
451.02	121.71
451.20	163.84
451.39	163.84
451.57	184.90
451.76	133.41
451.94	177.88
452.13	170.86
452.31	208.31
452.49	149.79
452.68	105.32
452.86	112.35
453.05	222.35
453.23	142.77
453.42	191.92
453.60	145.11
453.78	205.97
453.97	194.26
454.15	196.60
454.34	170.86
454.52	121.71
454.70	210.65
454.89	133.41
455.07	201.29
455.26	196.60
455.44	210.65
455.62	142.77
455.81	243.42
455.99	175.54
456.17	229.37
456.36	156.82
456.54	98.30
456.73	126.39
456.91	184.90
457.09	248.10
457.28	163.84
457.46	117.03
457.64	135.75
457.83	210.65
458.01	140.43
458.19	149.79
458.38	156.82
458.56	138.09
458.74	196.60
458.93	170.86
459.11	163.84
459.29	100.64
459.48	184.90
459.66	163.84
459.84	205.97
460.03	201.29
460.21	175.54
460.39	147.45
460.57	128.73
460.76	236.39
460.94	142.77
461.12	266.82
461.31	220.01
461.49	154.48
461.67	259.80
461.85	205.97
462.04	159.16
462.22	308.95
462.40	159.16
462.59	243.42
462.77	180.22
462.95	175.54
463.13	166.18
463.32	243.42
463.50	210.65
463.68	234.05
463.86	184.90
464.05	173.20
464.23	266.82
464.41	212.99
464.59	177.88
464.78	100.64
464.96	152.13
465.14	198.95
465.32	191.92
465.50	184.90
465.69	182.56
465.87	177.88
466.05	278.52
466.23	170.86
466.41	205.97
466.60	168.52
466.78	140.43
466.96	210.65
467.14	191.92
467.32	163.84
467.51	201.29
467.69	177.88
467.87	224.69
468.05	121.71
468.23	196.60
468.41	156.82
468.60	117.03
468.78	217.67
468.96	234.05
469.14	208.31
469.32	168.52
469.50	191.92
469.69	170.86
469.87	180.22
470.05	117.03
470.23	126.39
470.41	152.13
470.59	166.18
470.77	168.52
470.95	234.05
471.14	205.97
471.32	135.75
471.50	175.54
471.68	107.66
471.86	241.08
472.04	175.54
472.22	163.84
472.40	170.86
472.58	102.98
472.77	124.05
472.95	124.05
473.13	168.52
473.31	189.58
473.49	128.73
473.67	126.39
473.85	140.43
474.03	161.50
474.21	187.24
474.39	194.26
474.57	227.03
474.75	170.86
474.93	196.60
475.12	133.41
475.30	126.39
475.48	138.09
475.66	241.08
475.84	135.75
476.02	224.69
476.20	264.48
476.38	248.10
476.56	208.31
476.74	145.11
476.92	145.11
477.10	152.13
477.28	175.54
477.46	142.77
477.64	156.82
477.82	145.11
478.00	147.45
478.18	156.82
478.36	126.39
478.54	124.05
478.72	154.48
478.90	180.22
479.08	147.45
479.26	191.92
479.44	159.16
479.62	131.07
479.80	149.79
479.98	163.84
480.16	128.73
480.34	189.58
480.52	245.76
480.70	241.08
480.88	170.86
481.06	222.35
481.24	220.01
481.41	220.01
481.59	245.76
481.77	231.71
481.95	170.86
482.13	273.84
482.31	177.88
482.49	252.78
482.67	285.55
482.85	243.42
483.03	271.50
483.21	294.91
483.39	208.31
483.57	196.60
483.74	161.50
483.92	290.23
484.10	297.25
484.28	205.97
484.46	339.38
484.64	269.16
484.82	241.08
485.00	215.33
485.18	285.55
485.35	304.27
485.53	224.69
485.71	395.55
485.89	276.18
486.07	278.52
486.25	374.49
486.43	339.38
486.61	376.83
486.78	360.44
486.96	299.59
487.14	283.20
487.32	344.06
487.50	320.65
487.68	344.06
487.85	308.95
488.03	294.91
488.21	313.63
488.39	318.31
488.57	325.33
488.75	264.48
488.92	603.86
489.10	330.02
489.28	327.68
489.46	264.48
489.64	297.25
489.81	313.63
489.99	283.20
490.17	290.23
490.35	416.62
490.53	266.82
490.70	301.93
490.88	353.42
491.06	259.80
491.24	362.78
491.41	379.17
491.59	341.72
491.77	184.90
491.95	278.52
492.13	341.72
492.30	271.50
492.48	243.42
492.66	266.82
492.84	266.82
493.01	283.20
493.19	299.59
493.37	332.36
493.54	294.91
493.72	348.74
493.90	292.57
494.08	280.86
494.25	348.74
494.43	248.10
494.61	273.84
494.79	360.44
494.96	243.42
495.14	224.69
495.32	313.63
495.49	283.20
495.67	341.72
495.85	245.76
496.02	259.80
496.20	264.48
496.38	276.18
496.55	292.57
496.73	243.42
496.91	280.86
497.09	320.65
497.26	264.48
497.44	294.91
497.62	306.61
497.79	266.82
497.97	306.61
498.14	318.31
498.32	234.05
498.50	224.69
498.67	259.80
498.85	229.37
499.03	278.52
499.20	278.52
499.38	252.78
499.56	245.76
499.73	177.88
499.91	266.82
500.08	276.18
500.26	241.08
500.44	227.03
500.61	175.54
500.79	191.92
500.97	308.95
501.14	273.84
501.32	224.69
501.49	231.71
501.67	227.03
501.84	294.91
502.02	262.14
502.20	304.27
502.37	269.16
502.55	187.24
502.72	236.39
502.90	243.42
503.07	304.27
503.25	229.37
503.43	217.67
503.60	208.31
503.78	264.48
503.95	175.54
504.13	217.67
504.30	215.33
504.48	245.76
504.65	257.46
504.83	227.03
505.01	238.73
505.18	259.80
505.36	245.76
505.53	304.27
505.71	217.67
505.88	280.86
506.06	266.82
506.23	252.78
506.41	285.55
506.58	259.80
506.76	264.48
506.93	187.24
507.11	245.76
507.28	287.89
507.46	276.18
507.63	210.65
507.81	210.65
507.98	222.35
508.16	95.96
508.33	220.01
508.50	306.61
508.68	234.05
508.85	102.98
509.03	269.16
509.20	224.69
509.38	182.56
509.55	278.52
509.73	313.63
509.90	243.42
510.08	205.97
510.25	220.01
510.42	220.01
510.60	234.05
510.77	322.99
510.95	276.18
511.12	243.42
511.30	262.14
511.47	245.76
511.64	344.06
511.82	306.61
511.99	210.65
512.17	220.01
512.34	201.29
512.51	262.14
512.69	222.35
512.86	283.20
513.04	229.37
513.21	191.92
513.38	196.60
513.56	308.95
513.73	222.35
513.90	250.44
514.08	238.73
514.25	257.46
514.43	147.45
514.60	259.80
514.77	285.55
514.95	299.59
515.12	234.05
515.29	308.95
515.47	276.18
515.64	248.10
515.81	271.50
515.99	346.40
516.16	283.20
516.33	245.76
516.51	280.86
516.68	262.14
516.85	234.05
517.03	220.01
517.20	212.99
517.37	231.71
517.54	308.95
517.72	224.69
517.89	255.12
518.06	252.78
518.24	238.73
518.41	301.93
518.58	322.99
518.75	229.37
518.93	229.37
519.10	241.08
519.27	212.99
519.45	276.18
519.62	234.05
519.79	224.69
519.96	205.97
520.14	217.67
520.31	236.39
520.48	166.18
520.65	191.92
520.83	257.46
521.00	217.67
521.17	182.56
521.34	238.73
521.52	287.89
521.69	301.93
521.86	238.73
522.03	245.76
522.20	222.35
522.38	243.42
522.55	191.92
522.72	201.29
522.89	217.67
523.07	217.67
523.24	212.99
523.41	227.03
523.58	255.12
523.75	222.35
523.92	234.05
524.10	287.89
524.27	297.25
524.44	245.76
524.61	264.48
524.78	271.50
524.96	257.46
525.13	234.05
525.30	252.78
525.47	285.55
525.64	154.48
525.81	245.76
525.98	269.16
526.16	191.92
526.33	191.92
526.50	191.92
526.67	215.33
526.84	227.03
527.01	313.63
527.18	229.37
527.36	212.99
527.53	187.24
527.70	283.20
527.87	241.08
528.04	318.31
528.21	238.73
528.38	311.29
528.55	238.73
528.72	297.25
528.89	264.48
529.07	224.69
529.24	308.95
529.41	271.50
529.58	283.20
529.75	231.71
529.92	315.97
530.09	255.12
530.26	243.42
530.43	112.35
530.60	304.27
530.77	250.44
530.94	276.18
531.11	294.91
531.28	318.31
531.46	283.20
531.63	234.05
531.80	227.03
531.97	322.99
532.14	198.95
532.31	299.59
532.48	358.10
532.65	234.05
532.82	269.16
532.99	299.59
533.16	334.70
533.33	339.38
533.50	292.57
533.67	285.55
533.84	257.46
534.01	327.68
534.18	301.93
534.35	292.57
534.52	315.97
534.69	353.42
534.86	227.03
535.03	273.84
535.20	229.37
535.37	325.33
535.54	259.80
535.71	285.55
535.88	397.89
536.05	346.40
536.22	290.23
536.38	332.36
536.55	332.36
536.72	383.85
536.89	402.57
537.06	322.99
537.23	299.59
537.40	388.53
537.57	372.15
537.74	404.91
537.91	322.99
538.08	418.96
538.25	416.62
538.42	388.53
538.59	449.38
538.75	416.62
538.92	507.90
539.09	496.19
539.26	451.72
539.43	575.77
539.60	575.77
539.77	610.88
539.94	671.73
540.11	671.73
540.28	681.10
540.44	793.44
540.61	861.32
540.78	929.19
540.95	1107.07
541.12	1196.01
541.29	1306.02
541.46	1359.85
541.62	1430.07
541.79	1394.96
541.96	1289.64
542.13	1310.70
542.30	1212.40
542.47	1266.23
542.63	1151.54
542.80	1132.82
542.97	1142.18
543.14	1125.80
543.31	1196.01
543.48	1186.65
543.64	1139.84
543.81	1174.95
543.98	1139.84
544.15	1132.82
544.32	1137.50
544.48	1165.59
544.65	1064.94
544.82	1046.22
544.99	1137.50
545.16	1149.20
545.32	1160.91
545.49	1727.32
545.66	2794.60
545.83	3222.92
546.00	2965.46
546.16	2019.88
546.33	1554.12
546.50	1219.42
546.67	978.34
546.83	994.73
547.00	767.70
547.17	849.61
547.34	912.81
547.50	751.31
547.67	751.31
547.84	641.31
548.00	732.59
548.17	709.18
548.34	758.33
548.51	786.42
548.67	704.50
548.84	631.94
549.01	648.33
549.18	575.77
549.34	725.57
549.51	627.26
549.68	671.73
549.84	526.62
550.01	496.19
550.18	613.22
550.34	585.13
550.51	505.56
550.68	510.24
550.84	524.28
551.01	554.71
551.18	514.92
551.34	564.07
551.51	451.72
551.68	423.64
551.84	437.68
552.01	421.30
552.18	491.51
552.34	421.30
552.51	386.19
552.68	428.32
552.84	395.55
553.01	428.32
553.18	400.23
553.34	409.59
553.51	327.68
553.67	430.66
553.84	428.32
554.01	358.10
554.17	292.57
554.34	332.36
554.51	287.89
554.67	430.66
554.84	313.63
555.00	292.57
555.17	311.29
555.33	376.83
555.50	306.61
555.67	278.52
555.83	306.61
556.00	327.68
556.16	397.89
556.33	339.38
556.50	294.91
556.66	271.50
556.83	297.25
556.99	238.73
557.16	304.27
557.32	280.86
557.49	292.57
557.65	238.73
557.82	257.46
557.98	306.61
558.15	299.59
558.32	337.04
558.48	346.40
558.65	229.37
558.81	276.18
558.98	301.93
559.14	262.14
559.31	283.20
559.47	283.20
559.64	271.50
559.80	243.42
559.97	234.05
560.13	308.95
560.30	283.20
560.46	245.76
560.63	222.35
560.79	306.61
560.96	308.95
561.12	301.93
561.29	283.20
561.45	212.99
561.61	273.84
561.78	381.51
561.94	269.16
562.11	238.73
562.27	248.10
562.44	182.56
562.60	262.14
562.77	311.29
562.93	308.95
563.10	271.50
563.26	266.82
563.42	280.86
563.59	287.89
563.75	304.27
563.92	245.76
564.08	187.24
564.24	299.59
564.41	297.25
564.57	135.75
564.74	177.88
564.90	257.46
565.07	280.86
565.23	330.02
565.39	217.67
565.56	362.78
565.72	205.97
565.88	236.39
566.05	229.37
566.21	187.24
566.38	236.39
566.54	191.92
566.70	318.31
566.87	313.63
567.03	177.88
567.19	252.78
567.36	271.50
567.52	280.86
567.68	255.12
567.85	238.73
568.01	337.04
568.17	210.65
568.34	236.39
568.50	283.20
568.66	159.16
568.83	332.36
568.99	294.91
569.15	301.93
569.32	276.18
569.48	194.26
569.64	224.69
569.81	278.52
569.97	262.14
570.13	222.35
570.30	205.97
570.46	220.01
570.62	245.76
570.78	229.37
570.95	285.55
571.11	234.05
571.27	241.08
571.43	184.90
571.60	241.08
571.76	269.16
571.92	241.08
572.09	170.86
572.25	198.95
572.41	238.73
572.57	266.82
572.74	344.06
572.90	252.78
573.06	229.37
573.22	250.44
573.38	290.23
573.55	243.42
573.71	255.12
573.87	355.76
574.03	250.44
574.20	203.63
574.36	276.18
574.52	224.69
574.68	217.67
574.84	283.20
575.01	257.46
575.17	266.82
575.33	231.71
575.49	297.25
575.65	250.44
575.82	234.05
575.98	269.16
576.14	177.88
576.30	257.46
576.46	461.09
576.62	603.86
576.79	828.55
576.95	695.14
577.11	447.04
577.27	404.91
577.43	304.27
577.59	358.10
577.75	238.73
577.92	290.23
578.08	280.86
578.24	259.80
578.40	414.27
578.56	528.96
578.72	765.36
578.88	894.08
579.04	571.09
579.21	475.13
579.37	418.96
579.53	311.29
579.69	369.80
579.85	428.32
580.01	414.27
580.17	414.27
580.33	433.00
580.49	379.17
580.65	435.34
580.82	355.76
580.98	346.40
581.14	318.31
581.30	404.91
581.46	379.17
581.62	409.59
581.78	351.08
581.94	479.81
582.10	400.23
582.26	411.93
582.42	461.09
582.58	463.43
582.74	496.19
582.90	472.79
583.06	519.60
583.22	444.70
583.38	411.93
583.54	454.06
583.70	486.83
583.86	543.00
584.02	543.00
584.18	461.09
584.34	524.28
584.50	465.77
584.66	433.00
584.82	461.09
584.98	418.96
585.14	461.09
585.30	421.30
585.46	404.91
585.62	318.31
585.78	423.64
585.94	440.02
586.10	430.66
586.26	414.27
586.42	449.38
586.58	582.79
586.74	479.81
586.90	566.41
587.06	671.73
587.22	589.82
587.38	641.31
587.54	475.13
587.70	484.49
587.86	425.98
588.02	449.38
588.18	353.42
588.34	372.15
588.49	299.59
588.65	292.57
588.81	325.33
588.97	264.48
589.13	318.31
589.29	301.93
589.45	330.02
589.61	327.68
589.77	376.83
589.93	292.57
590.08	346.40
590.24	332.36
590.40	376.83
590.56	404.91
590.72	287.89
590.88	243.42
591.04	381.51
591.20	362.78
591.35	433.00
591.51	353.42
591.67	334.70
591.83	337.04
591.99	386.19
592.15	402.57
592.31	435.34
592.46	440.02
592.62	564.07
592.78	428.32
592.94	535.98
593.10	491.51
593.26	468.11
593.41	418.96
593.57	407.25
593.73	372.15
593.89	318.31
594.05	367.46
594.20	318.31
594.36	414.27
594.52	346.40
594.68	231.71
594.84	315.97
594.99	325.33
595.15	360.44
595.31	374.49
595.47	411.93
595.62	259.80
595.78	304.27
595.94	259.80
596.10	294.91
596.25	330.02
596.41	299.59
596.57	339.38
596.73	418.96
596.88	259.80
597.04	290.23
597.20	320.65
597.36	294.91
597.51	276.18
597.67	297.25
597.83	290.23
597.99	337.04
598.14	332.36
598.30	418.96
598.46	290.23
598.61	353.42
598.77	397.89
598.93	449.38
599.09	301.93
599.24	423.64
599.40	409.59
599.56	379.17
599.71	318.31
599.87	404.91
600.03	304.27
600.18	320.65
600.34	287.89
600.50	351.08
600.65	245.76
600.81	308.95
600.97	313.63
601.12	290.23
601.28	358.10
601.44	332.36
601.59	292.57
601.75	318.31
601.91	262.14
602.06	344.06
602.22	285.55
602.37	243.42
602.53	294.91
602.69	294.91
602.84	299.59
603.00	231.71
603.16	290.23
603.31	283.20
603.47	252.78
603.62	259.80
603.78	306.61
603.94	264.48
604.09	210.65
604.25	248.10
604.40	271.50
604.56	271.50
604.71	255.12
604.87	285.55
605.03	315.97
605.18	248.10
605.34	304.27
605.49	327.68
605.65	315.97
605.80	313.63
605.96	262.14
606.12	276.18
606.27	351.08
606.43	353.42
606.58	327.68
606.74	327.68
606.89	369.80
607.05	304.27
607.20	470.45
607.36	381.51
607.51	334.70
607.67	313.63
607.82	395.55
607.98	444.70
608.13	409.59
608.29	402.57
608.44	383.85
608.60	437.68
608.75	535.98
608.91	552.37
609.06	554.71
609.22	594.50
609.37	613.22
609.53	669.39
609.68	692.80
609.84	702.16
609.99	807.48
610.15	994.73
610.30	1200.69
610.46	1439.43
610.61	1820.94
610.76	2218.83
610.92	2724.38
611.07	2846.09
611.23	2883.54
