SpectraSuite Data File
++++++++++++++++++++++++++++++++++++
Date: Fri Oct 04 11:42:05 GMT-05:00 2013
User: price-jones
Dark Spectrum Present: No
Reference Spectrum Present: No
Number of Sampled Component Spectra: 1
Spectrometers: USB2+H05261
Integration Time (usec): 100000 (USB2+H05261)
Spectra Averaged: 1 (USB2+H05261)
Boxcar Smoothing: 0 (USB2+H05261)
Correct for Electrical Dark: No (USB2+H05261)
Strobe/Lamp Enabled: No (USB2+H05261)
Correct for Detector Non-linearity: No (USB2+H05261)
Correct for Stray Light: No (USB2+H05261)
Number of Pixels in Processed Spectrum: 2048
>>>>>Begin Processed Spectral Data<<<<<
365.73	60.85
365.92	60.85
366.12	60.85
366.32	0.00
366.52	0.00
366.72	0.00
366.91	0.00
367.11	0.00
367.31	0.00
367.51	0.00
367.70	0.00
367.90	0.00
368.10	0.00
368.30	0.00
368.49	0.00
368.69	0.00
368.89	0.00
369.09	0.00
369.28	0.00
369.48	0.00
369.68	4.68
369.87	0.00
370.07	0.00
370.27	42.13
370.47	0.00
370.66	0.00
370.86	21.06
371.06	110.01
371.25	121.71
371.45	0.00
371.65	84.26
371.84	32.77
372.04	70.22
372.24	72.56
372.44	74.90
372.63	124.05
372.83	124.05
373.03	156.82
373.22	46.81
373.42	142.77
373.62	98.30
373.81	124.05
374.01	133.41
374.21	117.03
374.40	177.88
374.60	166.18
374.79	121.71
374.99	154.48
375.19	77.24
375.38	173.20
375.58	175.54
375.78	100.64
375.97	170.86
376.17	173.20
376.37	135.75
376.56	91.28
376.76	51.49
376.95	105.32
377.15	112.35
377.35	140.43
377.54	142.77
377.74	126.39
377.93	156.82
378.13	133.41
378.33	86.60
378.52	77.24
378.72	161.50
378.91	102.98
379.11	128.73
379.31	112.35
379.50	138.09
379.70	131.07
379.89	180.22
380.09	37.45
380.28	81.92
380.48	166.18
380.68	93.62
380.87	168.52
381.07	42.13
381.26	191.92
381.46	161.50
381.65	168.52
381.85	128.73
382.04	133.41
382.24	93.62
382.43	135.75
382.63	114.69
382.83	168.52
383.02	161.50
383.22	140.43
383.41	117.03
383.61	152.13
383.80	102.98
384.00	126.39
384.19	86.60
384.39	131.07
384.58	117.03
384.78	126.39
384.97	84.26
385.17	156.82
385.36	128.73
385.56	152.13
385.75	65.54
385.95	114.69
386.14	105.32
386.34	131.07
386.53	138.09
386.72	131.07
386.92	184.90
387.11	140.43
387.31	112.35
387.50	56.17
387.70	81.92
387.89	93.62
388.09	105.32
388.28	77.24
388.48	98.30
388.67	98.30
388.86	114.69
389.06	114.69
389.25	100.64
389.45	138.09
389.64	145.11
389.84	138.09
390.03	138.09
390.22	140.43
390.42	86.60
390.61	30.43
390.81	63.19
391.00	145.11
391.19	149.79
391.39	86.60
391.58	170.86
391.78	135.75
391.97	133.41
392.16	81.92
392.36	142.77
392.55	121.71
392.75	163.84
392.94	149.79
393.13	114.69
393.33	102.98
393.52	114.69
393.71	105.32
393.91	117.03
394.10	117.03
394.29	95.96
394.49	88.94
394.68	65.54
394.88	142.77
395.07	100.64
395.26	65.54
395.46	152.13
395.65	100.64
395.84	58.51
396.04	184.90
396.23	95.96
396.42	140.43
396.62	138.09
396.81	184.90
397.00	98.30
397.19	98.30
397.39	105.32
397.58	105.32
397.77	102.98
397.97	180.22
398.16	98.30
398.35	161.50
398.55	121.71
398.74	79.58
398.93	175.54
399.12	42.13
399.32	121.71
399.51	159.16
399.70	133.41
399.90	147.45
400.09	77.24
400.28	128.73
400.47	128.73
400.67	119.37
400.86	91.28
401.05	201.29
401.24	133.41
401.44	131.07
401.63	203.63
401.82	135.75
402.01	194.26
402.21	189.58
402.40	159.16
402.59	84.26
402.78	154.48
402.97	163.84
403.17	105.32
403.36	236.39
403.55	229.37
403.74	430.66
403.93	1397.30
404.13	2724.38
404.32	3199.51
404.51	2551.18
404.70	1427.73
404.89	606.20
405.09	304.27
405.28	114.69
405.47	138.09
405.66	154.48
405.85	138.09
406.05	166.18
406.24	163.84
406.43	161.50
406.62	196.60
406.81	184.90
407.00	231.71
407.20	351.08
407.39	463.43
407.58	435.34
407.77	266.82
407.96	203.63
408.15	124.05
408.34	191.92
408.54	166.18
408.73	98.30
408.92	170.86
409.11	84.26
409.30	180.22
409.49	175.54
409.68	117.03
409.87	117.03
410.07	166.18
410.26	163.84
410.45	156.82
410.64	168.52
410.83	121.71
411.02	175.54
411.21	184.90
411.40	124.05
411.59	117.03
411.78	121.71
411.98	196.60
412.17	159.16
412.36	110.01
412.55	184.90
412.74	154.48
412.93	177.88
413.12	145.11
413.31	212.99
413.50	170.86
413.69	170.86
413.88	194.26
414.07	245.76
414.26	201.29
414.45	145.11
414.64	227.03
414.83	234.05
415.02	184.90
415.22	161.50
415.41	259.80
415.60	161.50
415.79	201.29
415.98	196.60
416.17	142.77
416.36	198.95
416.55	177.88
416.74	208.31
416.93	175.54
417.12	217.67
417.31	175.54
417.50	194.26
417.69	220.01
417.88	234.05
418.07	203.63
418.26	154.48
418.45	224.69
418.64	184.90
418.83	224.69
419.02	262.14
419.21	220.01
419.39	238.73
419.58	205.97
419.77	273.84
419.96	269.16
420.15	271.50
420.34	280.86
420.53	205.97
420.72	252.78
420.91	189.58
421.10	210.65
421.29	191.92
421.48	147.45
421.67	173.20
421.86	191.92
422.05	175.54
422.24	182.56
422.43	189.58
422.61	170.86
422.80	231.71
422.99	243.42
423.18	245.76
423.37	313.63
423.56	322.99
423.75	234.05
423.94	182.56
424.13	187.24
424.32	220.01
424.50	191.92
424.69	203.63
424.88	215.33
425.07	180.22
425.26	191.92
425.45	276.18
425.64	212.99
425.83	196.60
426.01	266.82
426.20	283.20
426.39	215.33
426.58	271.50
426.77	161.50
426.96	264.48
427.15	229.37
427.33	259.80
427.52	234.05
427.71	245.76
427.90	243.42
428.09	222.35
428.28	250.44
428.46	224.69
428.65	196.60
428.84	212.99
429.03	248.10
429.22	227.03
429.40	161.50
429.59	222.35
429.78	285.55
429.97	175.54
430.16	241.08
430.34	191.92
430.53	208.31
430.72	177.88
430.91	203.63
431.10	264.48
431.28	262.14
431.47	266.82
431.66	252.78
431.85	196.60
432.03	215.33
432.22	327.68
432.41	210.65
432.60	259.80
432.79	276.18
432.97	208.31
433.16	229.37
433.35	353.42
433.54	330.02
433.72	367.46
433.91	386.19
434.10	451.72
434.28	573.43
434.47	571.09
434.66	538.32
434.85	744.29
435.03	2242.23
435.22	7892.29
435.41	13975.34
435.59	12397.82
435.78	7955.48
435.97	3911.04
436.16	1540.07
436.34	643.65
436.53	451.72
436.72	365.12
436.90	304.27
437.09	297.25
437.28	269.16
437.46	299.59
437.65	411.93
437.84	262.14
438.02	339.38
438.21	278.52
438.40	269.16
438.58	290.23
438.77	262.14
438.96	252.78
439.14	250.44
439.33	175.54
439.52	297.25
439.70	297.25
439.89	346.40
440.08	252.78
440.26	184.90
440.45	234.05
440.63	299.59
440.82	355.76
441.01	308.95
441.19	315.97
441.38	229.37
441.57	280.86
441.75	327.68
441.94	402.57
442.12	245.76
442.31	290.23
442.50	264.48
442.68	250.44
442.87	266.82
443.05	252.78
443.24	334.70
443.43	355.76
443.61	351.08
443.80	318.31
443.98	241.08
444.17	264.48
444.35	271.50
444.54	220.01
444.73	318.31
444.91	358.10
445.10	276.18
445.28	248.10
445.47	276.18
445.65	259.80
445.84	271.50
446.02	318.31
446.21	266.82
446.39	365.12
446.58	294.91
446.77	215.33
446.95	238.73
447.14	280.86
447.32	269.16
447.51	212.99
447.69	266.82
447.88	231.71
448.06	327.68
448.25	304.27
448.43	308.95
448.62	248.10
448.80	332.36
448.99	271.50
449.17	280.86
449.36	287.89
449.54	325.33
449.73	322.99
449.91	292.57
450.10	308.95
450.28	297.25
450.46	299.59
450.65	229.37
450.83	304.27
451.02	346.40
451.20	313.63
451.39	220.01
451.57	212.99
451.76	297.25
451.94	327.68
452.13	320.65
452.31	330.02
452.49	292.57
452.68	278.52
452.86	367.46
453.05	271.50
453.23	248.10
453.42	294.91
453.60	262.14
453.78	306.61
453.97	290.23
454.15	278.52
454.34	266.82
454.52	318.31
454.70	280.86
454.89	276.18
455.07	210.65
455.26	294.91
455.44	344.06
455.62	266.82
455.81	339.38
455.99	287.89
456.17	353.42
456.36	322.99
456.54	217.67
456.73	290.23
456.91	238.73
457.09	229.37
457.28	210.65
457.46	259.80
457.64	301.93
457.83	250.44
458.01	301.93
458.19	283.20
458.38	238.73
458.56	248.10
458.74	248.10
458.93	318.31
459.11	262.14
459.29	290.23
459.48	299.59
459.66	294.91
459.84	332.36
460.03	442.36
460.21	297.25
460.39	304.27
460.57	294.91
460.76	201.29
460.94	287.89
461.12	322.99
461.31	306.61
461.49	322.99
461.67	341.72
461.85	224.69
462.04	257.46
462.22	718.54
462.40	341.72
462.59	353.42
462.77	220.01
462.95	243.42
463.13	255.12
463.32	257.46
463.50	234.05
463.68	241.08
463.86	280.86
464.05	243.42
464.23	325.33
464.41	337.04
464.59	320.65
464.78	294.91
464.96	276.18
465.14	198.95
465.32	180.22
465.50	320.65
465.69	304.27
465.87	266.82
466.05	299.59
466.23	271.50
466.41	311.29
466.60	273.84
466.78	278.52
466.96	337.04
467.14	322.99
467.32	374.49
467.51	299.59
467.69	313.63
467.87	327.68
468.05	243.42
468.23	278.52
468.41	241.08
468.60	294.91
468.78	248.10
468.96	250.44
469.14	266.82
469.32	217.67
469.50	238.73
469.69	306.61
469.87	252.78
470.05	222.35
470.23	215.33
470.41	170.86
470.59	308.95
470.77	287.89
470.95	238.73
471.14	311.29
471.32	334.70
471.50	353.42
471.68	315.97
471.86	297.25
472.04	229.37
472.22	262.14
472.40	201.29
472.58	238.73
472.77	252.78
472.95	306.61
473.13	301.93
473.31	269.16
473.49	229.37
473.67	264.48
473.85	278.52
474.03	313.63
474.21	217.67
474.39	339.38
474.57	313.63
474.75	334.70
474.93	290.23
475.12	205.97
475.30	280.86
475.48	285.55
475.66	273.84
475.84	306.61
476.02	322.99
476.20	227.03
476.38	236.39
476.56	334.70
476.74	348.74
476.92	283.20
477.10	304.27
477.28	313.63
477.46	315.97
477.64	292.57
477.82	294.91
478.00	308.95
478.18	250.44
478.36	276.18
478.54	290.23
478.72	294.91
478.90	374.49
479.08	388.53
479.26	308.95
479.44	330.02
479.62	332.36
479.80	320.65
479.98	311.29
480.16	294.91
480.34	372.15
480.52	390.87
480.70	327.68
480.88	421.30
481.06	400.23
481.24	451.72
481.41	430.66
481.59	465.77
481.77	437.68
481.95	423.64
482.13	594.50
482.31	505.56
482.49	510.24
482.67	540.66
482.85	620.24
483.03	636.63
483.21	777.06
483.39	741.95
483.57	725.57
483.74	763.01
483.92	814.51
484.10	856.64
484.28	947.92
484.46	1039.20
484.64	945.58
484.82	1048.56
485.00	1102.39
485.18	1081.33
485.35	1181.97
485.53	1249.85
485.71	1284.95
485.89	1380.92
486.07	1299.00
486.25	1481.56
486.43	1380.92
486.61	1369.21
486.78	1362.19
486.96	1252.19
487.14	1310.70
487.32	1411.34
487.50	1322.40
487.68	1336.45
487.85	1345.81
488.03	1394.96
488.21	1277.93
488.39	1320.06
488.57	1261.55
488.75	1226.44
488.92	1441.77
489.10	1177.29
489.28	1170.27
489.46	1226.44
489.64	1121.12
489.81	1196.01
489.99	1062.60
490.17	1036.86
490.35	1167.93
490.53	1086.01
490.70	1095.37
490.88	1118.78
491.06	1090.69
491.24	1174.95
491.41	1193.67
491.59	1069.62
491.77	1034.52
491.95	1022.81
492.13	968.98
492.30	957.28
492.48	952.60
492.66	947.92
492.84	931.53
493.01	894.08
493.19	1004.09
493.37	952.60
493.54	933.87
493.72	898.77
493.90	830.89
494.08	795.78
494.25	868.34
494.43	861.32
494.61	901.11
494.79	835.57
494.96	856.64
495.14	840.25
495.32	753.65
495.49	809.83
495.67	866.00
495.85	840.25
496.02	727.91
496.20	748.97
496.38	744.29
496.55	835.57
496.73	718.54
496.91	683.44
497.09	739.61
497.26	667.05
497.44	685.78
497.62	638.97
497.79	720.88
497.97	727.91
498.14	704.50
498.32	709.18
498.50	653.01
498.67	599.18
498.85	603.86
499.03	613.22
499.20	557.05
499.38	510.24
499.56	587.47
499.73	631.94
499.91	524.28
500.08	519.60
500.26	524.28
500.44	465.77
500.61	498.53
500.79	519.60
500.97	517.26
501.14	547.69
501.32	489.17
501.49	456.40
501.67	507.90
501.84	451.72
502.02	409.59
502.20	428.32
502.37	416.62
502.55	395.55
502.72	407.25
502.90	433.00
503.07	376.83
503.25	461.09
503.43	376.83
503.60	395.55
503.78	351.08
503.95	376.83
504.13	360.44
504.30	369.80
504.48	351.08
504.65	372.15
504.83	393.21
505.01	315.97
505.18	376.83
505.36	395.55
505.53	313.63
505.71	404.91
505.88	395.55
506.06	341.72
506.23	355.76
506.41	337.04
506.58	292.57
506.76	351.08
506.93	325.33
507.11	334.70
507.28	259.80
507.46	320.65
507.63	318.31
507.81	304.27
507.98	355.76
508.16	287.89
508.33	367.46
508.50	353.42
508.68	376.83
508.85	372.15
509.03	346.40
509.20	365.12
509.38	353.42
509.55	332.36
509.73	325.33
509.90	337.04
510.08	327.68
510.25	374.49
510.42	259.80
510.60	271.50
510.77	315.97
510.95	299.59
511.12	292.57
511.30	372.15
511.47	402.57
511.64	421.30
511.82	306.61
511.99	313.63
512.17	285.55
512.34	330.02
512.51	301.93
512.69	313.63
512.86	264.48
513.04	374.49
513.21	320.65
513.38	372.15
513.56	262.14
513.73	290.23
513.90	266.82
514.08	297.25
514.25	241.08
514.43	262.14
514.60	290.23
514.77	346.40
514.95	196.60
515.12	248.10
515.29	299.59
515.47	234.05
515.64	283.20
515.81	252.78
515.99	285.55
516.16	255.12
516.33	285.55
516.51	285.55
516.68	262.14
516.85	250.44
517.03	287.89
517.20	367.46
517.37	287.89
517.54	297.25
517.72	285.55
517.89	255.12
518.06	315.97
518.24	355.76
518.41	332.36
518.58	266.82
518.75	184.90
518.93	252.78
519.10	290.23
519.27	243.42
519.45	238.73
519.62	273.84
519.79	299.59
519.96	215.33
520.14	355.76
520.31	325.33
520.48	285.55
520.65	243.42
520.83	290.23
521.00	287.89
521.17	297.25
521.34	266.82
521.52	297.25
521.69	337.04
521.86	318.31
522.03	294.91
522.20	283.20
522.38	264.48
522.55	365.12
522.72	325.33
522.89	297.25
523.07	290.23
523.24	292.57
523.41	355.76
523.58	301.93
523.75	294.91
523.92	311.29
524.10	301.93
524.27	292.57
524.44	327.68
524.61	395.55
524.78	306.61
524.96	365.12
525.13	313.63
525.30	360.44
525.47	372.15
525.64	355.76
525.81	271.50
525.98	362.78
526.16	271.50
526.33	236.39
526.50	327.68
526.67	287.89
526.84	264.48
527.01	308.95
527.18	320.65
527.36	332.36
527.53	259.80
527.70	353.42
527.87	271.50
528.04	395.55
528.21	287.89
528.38	344.06
528.55	379.17
528.72	362.78
528.89	393.21
529.07	306.61
529.24	348.74
529.41	360.44
529.58	306.61
529.75	386.19
529.92	386.19
530.09	290.23
530.26	348.74
530.43	344.06
530.60	355.76
530.77	367.46
530.94	409.59
531.11	390.87
531.28	365.12
531.46	428.32
531.63	365.12
531.80	454.06
531.97	334.70
532.14	442.36
532.31	512.58
532.48	540.66
532.65	589.82
532.82	662.37
532.99	786.42
533.16	854.30
533.33	816.85
533.50	770.04
533.67	770.04
533.84	636.63
534.01	601.52
534.18	564.07
534.35	568.75
534.52	582.79
534.69	636.63
534.86	589.82
535.03	550.03
535.20	624.92
535.37	601.52
535.54	662.37
535.71	711.52
535.88	777.06
536.05	748.97
536.22	798.12
536.38	933.87
536.55	947.92
536.72	1093.03
536.89	1226.44
537.06	1259.21
537.23	1343.47
537.40	1497.94
537.57	1549.43
537.74	1673.48
537.91	1724.97
538.08	1675.82
538.25	1776.47
538.42	1727.32
538.59	1755.40
538.75	1846.68
538.92	1966.05
539.09	2125.21
539.26	2298.41
539.43	2544.16
539.60	2970.14
539.77	3138.66
539.94	3606.77
540.11	3950.82
540.28	4482.13
540.44	4812.14
540.61	5263.86
540.78	5886.45
540.95	7115.23
541.12	8442.31
541.29	9467.47
541.46	9584.49
541.62	9540.02
541.79	9097.66
541.96	8468.06
542.13	7772.92
542.30	7414.82
542.47	7014.59
542.63	6532.44
542.80	6623.72
542.97	6445.84
543.14	6253.91
543.31	6375.62
543.48	6420.09
543.64	6614.35
543.81	6567.54
543.98	6820.32
544.15	6654.14
544.32	6813.30
544.48	6761.81
544.65	6604.99
544.82	6534.78
544.99	6469.24
545.16	6609.67
545.32	7304.81
545.49	14157.90
545.66	23737.71
545.83	25432.26
546.00	20266.70
546.16	14155.56
546.33	10448.15
546.50	8018.68
546.67	6509.03
546.83	5963.68
547.00	5579.84
547.17	5373.87
547.34	5004.07
547.50	4915.12
547.67	4781.71
547.84	4418.93
548.00	4524.26
548.17	4341.69
548.34	4145.09
548.51	4140.41
548.67	3840.82
548.84	3695.71
549.01	3515.48
549.18	3365.69
549.34	3187.81
549.51	3234.62
549.68	3049.72
549.84	2885.88
550.01	2766.51
550.18	2738.43
550.34	2661.19
550.51	2464.58
550.68	2471.61
550.84	2239.89
551.01	2104.14
551.18	2071.37
551.34	1872.43
551.51	1900.52
551.68	1816.26
551.84	1675.82
552.01	1689.87
552.18	1547.09
552.34	1614.97
552.51	1561.14
552.68	1504.96
552.84	1387.94
553.01	1306.02
553.18	1455.81
553.34	1383.26
553.51	1228.78
553.67	1284.95
553.84	1172.61
554.01	1050.90
554.17	1111.75
554.34	957.28
554.51	940.90
554.67	917.49
554.84	835.57
555.00	896.43
555.17	805.14
555.33	800.46
555.50	685.78
555.67	725.57
555.83	622.58
556.00	669.39
556.16	812.17
556.33	629.60
556.50	617.90
556.66	617.90
556.83	554.71
556.99	589.82
557.16	545.34
557.32	514.92
557.49	596.84
557.65	594.50
557.82	580.45
557.98	500.87
558.15	512.58
558.32	493.85
558.48	507.90
558.65	493.85
558.81	479.81
558.98	498.53
559.14	514.92
559.31	407.25
559.47	496.19
559.64	482.15
559.80	447.04
559.97	400.23
560.13	437.68
560.30	433.00
560.46	442.36
560.63	461.09
560.79	425.98
560.96	500.87
561.12	421.30
561.29	383.85
561.45	447.04
561.61	430.66
561.78	503.22
561.94	428.32
562.11	444.70
562.27	423.64
562.44	421.30
562.60	421.30
562.77	435.34
562.93	491.51
563.10	433.00
563.26	351.08
563.42	416.62
563.59	409.59
563.75	444.70
563.92	456.40
564.08	395.55
564.24	416.62
564.41	390.87
564.57	416.62
564.74	339.38
564.90	374.49
565.07	334.70
565.23	393.21
565.39	337.04
565.56	411.93
565.72	337.04
565.88	388.53
566.05	353.42
566.21	374.49
566.38	407.25
566.54	416.62
566.70	451.72
566.87	407.25
567.03	346.40
567.19	358.10
567.36	407.25
567.52	351.08
567.68	379.17
567.85	414.27
568.01	388.53
568.17	332.36
568.34	433.00
568.50	374.49
568.66	362.78
568.83	411.93
568.99	381.51
569.15	337.04
569.32	383.85
569.48	327.68
569.64	421.30
569.81	276.18
569.97	280.86
570.13	325.33
570.30	322.99
570.46	341.72
570.62	327.68
570.78	257.46
570.95	248.10
571.11	390.87
571.27	376.83
571.43	341.72
571.60	344.06
571.76	229.37
571.92	271.50
572.09	360.44
572.25	271.50
572.41	339.38
572.57	369.80
572.74	355.76
572.90	250.44
573.06	313.63
573.22	334.70
573.38	327.68
573.55	355.76
573.71	346.40
573.87	444.70
574.03	337.04
574.20	308.95
574.36	404.91
574.52	339.38
574.68	348.74
574.84	337.04
575.01	407.25
575.17	428.32
575.33	447.04
575.49	411.93
575.65	456.40
575.82	543.00
575.98	517.26
576.14	561.73
576.30	1242.82
576.46	3117.59
576.62	4280.84
576.79	4147.43
576.95	3061.42
577.11	2118.18
577.27	1460.49
577.43	1114.10
577.59	781.74
577.75	772.38
577.92	629.60
578.08	608.54
578.24	615.56
578.40	1256.87
578.56	3073.12
578.72	3880.61
578.88	3716.77
579.04	2832.05
579.21	1961.37
579.37	1643.06
579.53	1256.87
579.69	1439.43
579.85	1619.65
580.01	1753.06
580.17	1687.53
580.33	1432.41
580.49	1263.89
580.65	1217.08
580.82	1022.81
580.98	1125.80
581.14	1125.80
581.30	1177.29
581.46	1282.61
581.62	1327.08
581.78	1380.92
581.94	1458.15
582.10	1413.68
582.26	1519.01
582.42	1614.97
582.58	1720.29
582.74	1692.21
582.90	1750.72
583.06	1720.29
583.22	1706.25
583.38	1736.68
583.54	1720.29
583.70	1739.02
583.86	1769.44
584.02	1629.01
584.18	1687.53
584.34	1614.97
584.50	1582.20
584.66	1558.80
584.82	1542.41
584.98	1502.62
585.14	1486.24
585.30	1528.37
585.46	1448.79
585.62	1451.13
585.78	1504.96
585.94	1476.88
586.10	1479.22
586.26	1593.90
586.42	1804.55
586.58	2160.31
586.74	2628.42
586.90	3012.27
587.06	3162.06
587.22	3061.42
587.38	2738.43
587.54	2396.71
587.70	2111.16
587.86	1722.63
588.02	1565.82
588.18	1495.60
588.34	1282.61
588.49	1188.99
588.65	1130.48
588.81	1013.45
588.97	1088.35
589.13	1004.09
589.29	1057.92
589.45	1008.77
589.61	966.64
589.77	1006.43
589.93	983.02
590.08	1041.54
590.24	1104.73
590.40	1144.52
590.56	1158.57
590.72	1100.05
590.88	1179.63
591.04	1210.06
591.20	1224.10
591.35	1282.61
591.51	1378.58
591.67	1444.11
591.83	1521.35
591.99	1600.93
592.15	1783.49
592.31	1886.47
592.46	1877.11
592.62	2265.64
592.78	2354.58
592.94	2300.75
593.10	2211.81
593.26	2218.83
593.41	1940.30
593.57	1797.53
593.73	1664.12
593.89	1387.94
594.05	1310.70
594.20	1210.06
594.36	1071.97
594.52	1081.33
594.68	985.37
594.84	1013.45
594.99	1015.79
595.15	903.45
595.31	1032.18
595.47	889.40
595.62	959.62
595.78	950.26
595.94	891.74
596.10	915.15
596.25	973.66
596.41	915.15
596.57	887.06
596.73	877.70
596.88	976.00
597.04	917.49
597.20	835.57
597.36	880.04
597.51	898.77
597.67	1013.45
597.83	1062.60
597.99	1083.67
598.14	1114.10
598.30	1203.04
598.46	1263.89
598.61	1324.74
598.77	1284.95
598.93	1352.83
599.09	1502.62
599.24	1446.45
599.40	1437.09
599.56	1315.38
599.71	1411.34
599.87	1245.16
600.03	1233.46
600.18	1146.86
600.34	992.39
600.50	968.98
600.65	940.90
600.81	1008.77
600.97	894.08
601.12	851.96
601.28	807.48
601.44	753.65
601.59	676.41
601.75	765.36
601.91	664.71
602.06	685.78
602.22	767.70
602.37	671.73
602.53	657.69
602.69	655.35
602.84	641.31
603.00	634.29
603.16	709.18
603.31	725.57
603.47	711.52
603.62	702.16
603.78	737.27
603.94	695.14
604.09	711.52
604.25	753.65
604.40	681.10
604.56	690.46
604.71	699.82
604.87	711.52
605.03	734.93
605.18	788.76
605.34	770.04
605.49	849.61
605.65	903.45
605.80	891.74
605.96	861.32
606.12	868.34
606.27	961.96
606.43	943.24
606.58	1083.67
606.74	952.60
606.89	1050.90
607.05	1048.56
607.20	1198.35
607.36	1210.06
607.51	1289.64
607.67	1313.04
607.82	1359.85
