SpectraSuite Data File
++++++++++++++++++++++++++++++++++++
Date: Fri Oct 04 11:42:28 GMT-05:00 2013
User: price-jones
Dark Spectrum Present: No
Reference Spectrum Present: No
Number of Sampled Component Spectra: 1
Spectrometers: USB2+H05261
Integration Time (usec): 100000 (USB2+H05261)
Spectra Averaged: 1 (USB2+H05261)
Boxcar Smoothing: 0 (USB2+H05261)
Correct for Electrical Dark: No (USB2+H05261)
Strobe/Lamp Enabled: No (USB2+H05261)
Correct for Detector Non-linearity: No (USB2+H05261)
Correct for Stray Light: No (USB2+H05261)
Number of Pixels in Processed Spectrum: 2048
>>>>>Begin Processed Spectral Data<<<<<
365.73	67.88
365.92	67.88
366.12	67.88
366.32	0.00
366.52	0.00
366.72	0.00
366.91	0.00
367.11	0.00
367.31	0.00
367.51	0.00
367.70	0.00
367.90	0.00
368.10	0.00
368.30	0.00
368.49	0.00
368.69	0.00
368.89	0.00
369.09	0.00
369.28	0.00
369.48	0.00
369.68	0.00
369.87	0.00
370.07	9.36
370.27	18.72
370.47	0.00
370.66	49.15
370.86	63.19
371.06	37.45
371.25	102.98
371.45	93.62
371.65	91.28
371.84	93.62
372.04	72.56
372.24	30.43
372.44	86.60
372.63	93.62
372.83	166.18
373.03	117.03
373.22	72.56
373.42	126.39
373.62	74.90
373.81	117.03
374.01	84.26
374.21	124.05
374.40	124.05
374.60	110.01
374.79	140.43
374.99	128.73
375.19	147.45
375.38	201.29
375.58	98.30
375.78	131.07
375.97	77.24
376.17	175.54
376.37	121.71
376.56	152.13
376.76	81.92
376.95	91.28
377.15	159.16
377.35	131.07
377.54	102.98
377.74	79.58
377.93	105.32
378.13	117.03
378.33	86.60
378.52	86.60
378.72	147.45
378.91	212.99
379.11	93.62
379.31	135.75
379.50	60.85
379.70	51.49
379.89	163.84
380.09	53.83
380.28	65.54
380.48	60.85
380.68	84.26
380.87	91.28
381.07	86.60
381.26	105.32
381.46	49.15
381.65	95.96
381.85	182.56
382.04	198.95
382.24	124.05
382.43	173.20
382.63	91.28
382.83	35.11
383.02	152.13
383.22	196.60
383.41	79.58
383.61	161.50
383.80	154.48
384.00	142.77
384.19	88.94
384.39	53.83
384.58	46.81
384.78	114.69
384.97	110.01
385.17	93.62
385.36	56.17
385.56	53.83
385.75	112.35
385.95	145.11
386.14	74.90
386.34	119.37
386.53	117.03
386.72	44.47
386.92	191.92
387.11	112.35
387.31	145.11
387.50	114.69
387.70	135.75
387.89	42.13
388.09	140.43
388.28	88.94
388.48	74.90
388.67	149.79
388.86	91.28
389.06	81.92
389.25	126.39
389.45	70.22
389.64	102.98
389.84	147.45
390.03	210.65
390.22	168.52
390.42	105.32
390.61	102.98
390.81	51.49
391.00	91.28
391.19	180.22
391.39	107.66
391.58	121.71
391.78	142.77
391.97	70.22
392.16	74.90
392.36	166.18
392.55	154.48
392.75	91.28
392.94	65.54
393.13	182.56
393.33	35.11
393.52	145.11
393.71	161.50
393.91	131.07
394.10	149.79
394.29	191.92
394.49	159.16
394.68	65.54
394.88	173.20
395.07	173.20
395.26	23.41
395.46	32.77
395.65	72.56
395.84	161.50
396.04	189.58
396.23	145.11
396.42	119.37
396.62	133.41
396.81	42.13
397.00	98.30
397.19	145.11
397.39	93.62
397.58	145.11
397.77	124.05
397.97	149.79
398.16	168.52
398.35	93.62
398.55	184.90
398.74	121.71
398.93	110.01
399.12	131.07
399.32	152.13
399.51	191.92
399.70	74.90
399.90	105.32
400.09	107.66
400.28	128.73
400.47	131.07
400.67	112.35
400.86	168.52
401.05	154.48
401.24	133.41
401.44	140.43
401.63	138.09
401.82	135.75
402.01	128.73
402.21	159.16
402.40	189.58
402.59	145.11
402.78	149.79
402.97	166.18
403.17	95.96
403.36	135.75
403.55	182.56
403.74	308.95
403.93	660.03
404.13	1610.29
404.32	2525.44
404.51	2555.86
404.70	1638.38
404.89	655.35
405.09	234.05
405.28	180.22
405.47	93.62
405.66	177.88
405.85	168.52
406.05	98.30
406.24	156.82
406.43	210.65
406.62	107.66
406.81	145.11
407.00	227.03
407.20	325.33
407.39	479.81
407.58	468.11
407.77	425.98
407.96	301.93
408.15	208.31
408.34	180.22
408.54	145.11
408.73	159.16
408.92	100.64
409.11	184.90
409.30	205.97
409.49	135.75
409.68	145.11
409.87	201.29
410.07	152.13
410.26	159.16
410.45	187.24
410.64	112.35
410.83	117.03
411.02	168.52
411.21	187.24
411.40	184.90
411.59	203.63
411.78	110.01
411.98	112.35
412.17	138.09
412.36	131.07
412.55	135.75
412.74	102.98
412.93	145.11
413.12	145.11
413.31	196.60
413.50	198.95
413.69	131.07
413.88	140.43
414.07	163.84
414.26	154.48
414.45	264.48
414.64	72.56
414.83	145.11
415.02	205.97
415.22	198.95
415.41	154.48
415.60	196.60
415.79	173.20
415.98	196.60
416.17	119.37
416.36	229.37
416.55	168.52
416.74	191.92
416.93	135.75
417.12	203.63
417.31	100.64
417.50	145.11
417.69	262.14
417.88	182.56
418.07	205.97
418.26	257.46
418.45	126.39
418.64	215.33
418.83	210.65
419.02	220.01
419.21	112.35
419.39	198.95
419.58	236.39
419.77	102.98
419.96	168.52
420.15	210.65
420.34	121.71
420.53	184.90
420.72	252.78
420.91	238.73
421.10	222.35
421.29	184.90
421.48	241.08
421.67	212.99
421.86	229.37
422.05	161.50
422.24	180.22
422.43	250.44
422.61	182.56
422.80	217.67
422.99	203.63
423.18	236.39
423.37	245.76
423.56	184.90
423.75	215.33
423.94	110.01
424.13	145.11
424.32	154.48
424.50	212.99
424.69	154.48
424.88	149.79
425.07	152.13
425.26	250.44
425.45	194.26
425.64	224.69
425.83	159.16
426.01	203.63
426.20	252.78
426.39	170.86
426.58	107.66
426.77	198.95
426.96	236.39
427.15	222.35
427.33	184.90
427.52	238.73
427.71	271.50
427.90	224.69
428.09	184.90
428.28	194.26
428.46	156.82
428.65	217.67
428.84	250.44
429.03	238.73
429.22	149.79
429.40	208.31
429.59	161.50
429.78	276.18
429.97	280.86
430.16	241.08
430.34	266.82
430.53	177.88
430.72	201.29
430.91	177.88
431.10	135.75
431.28	205.97
431.47	255.12
431.66	306.61
431.85	180.22
432.03	248.10
432.22	292.57
432.41	234.05
432.60	266.82
432.79	182.56
432.97	264.48
433.16	252.78
433.35	276.18
433.54	313.63
433.72	276.18
433.91	266.82
434.10	346.40
434.28	285.55
434.47	440.02
434.66	489.17
434.85	566.41
435.03	1067.28
435.22	3613.79
435.41	8329.97
435.59	11688.64
435.78	8559.34
435.97	4135.73
436.16	1671.14
436.34	645.99
436.53	299.59
436.72	346.40
436.90	313.63
437.09	231.71
437.28	278.52
437.46	231.71
437.65	278.52
437.84	248.10
438.02	283.20
438.21	187.24
438.40	327.68
438.58	222.35
438.77	292.57
438.96	273.84
439.14	271.50
439.33	280.86
439.52	259.80
439.70	245.76
439.89	320.65
440.08	245.76
440.26	191.92
440.45	330.02
440.63	241.08
440.82	273.84
441.01	266.82
441.19	330.02
441.38	255.12
441.57	266.82
441.75	294.91
441.94	306.61
442.12	301.93
442.31	259.80
442.50	243.42
442.68	259.80
442.87	269.16
443.05	252.78
443.24	238.73
443.43	315.97
443.61	255.12
443.80	234.05
443.98	346.40
444.17	271.50
444.35	283.20
444.54	196.60
444.73	287.89
444.91	252.78
445.10	243.42
445.28	245.76
445.47	205.97
445.65	271.50
445.84	273.84
446.02	299.59
446.21	313.63
446.39	255.12
446.58	227.03
446.77	255.12
446.95	285.55
447.14	278.52
447.32	238.73
447.51	285.55
447.69	311.29
447.88	236.39
448.06	280.86
448.25	266.82
448.43	180.22
448.62	227.03
448.80	229.37
448.99	308.95
449.17	257.46
449.36	339.38
449.54	311.29
449.73	241.08
449.91	327.68
450.10	180.22
450.28	348.74
450.46	315.97
450.65	308.95
450.83	271.50
451.02	311.29
451.20	259.80
451.39	297.25
451.57	248.10
451.76	208.31
451.94	210.65
452.13	294.91
452.31	269.16
452.49	332.36
452.68	241.08
452.86	266.82
453.05	299.59
453.23	224.69
453.42	250.44
453.60	217.67
453.78	145.11
453.97	231.71
454.15	210.65
454.34	285.55
454.52	280.86
454.70	297.25
454.89	208.31
455.07	201.29
455.26	280.86
455.44	304.27
455.62	334.70
455.81	280.86
455.99	283.20
456.17	217.67
456.36	278.52
456.54	322.99
456.73	220.01
456.91	259.80
457.09	152.13
457.28	252.78
457.46	259.80
457.64	348.74
457.83	271.50
458.01	238.73
458.19	299.59
458.38	262.14
458.56	276.18
458.74	234.05
458.93	315.97
459.11	304.27
459.29	241.08
459.48	252.78
459.66	311.29
459.84	330.02
460.03	344.06
460.21	227.03
460.39	285.55
460.57	334.70
460.76	290.23
460.94	212.99
461.12	266.82
461.31	236.39
461.49	250.44
461.67	252.78
461.85	330.02
462.04	273.84
462.22	395.55
462.40	276.18
462.59	308.95
462.77	250.44
462.95	285.55
463.13	264.48
463.32	276.18
463.50	252.78
463.68	337.04
463.86	243.42
464.05	229.37
464.23	395.55
464.41	231.71
464.59	203.63
464.78	262.14
464.96	248.10
465.14	224.69
465.32	299.59
465.50	264.48
465.69	271.50
465.87	248.10
466.05	238.73
466.23	168.52
466.41	285.55
466.60	318.31
466.78	278.52
466.96	294.91
467.14	278.52
467.32	315.97
467.51	290.23
467.69	341.72
467.87	285.55
468.05	180.22
468.23	362.78
468.41	315.97
468.60	287.89
468.78	292.57
468.96	273.84
469.14	266.82
469.32	170.86
469.50	222.35
469.69	306.61
469.87	283.20
470.05	182.56
470.23	212.99
470.41	215.33
470.59	215.33
470.77	248.10
470.95	234.05
471.14	344.06
471.32	280.86
471.50	327.68
471.68	259.80
471.86	252.78
472.04	250.44
472.22	266.82
472.40	229.37
472.58	250.44
472.77	278.52
472.95	273.84
473.13	290.23
473.31	287.89
473.49	184.90
473.67	259.80
473.85	294.91
474.03	212.99
474.21	227.03
474.39	255.12
474.57	332.36
474.75	259.80
474.93	220.01
475.12	208.31
475.30	278.52
475.48	238.73
475.66	280.86
475.84	266.82
476.02	355.76
476.20	301.93
476.38	248.10
476.56	269.16
476.74	287.89
476.92	271.50
477.10	269.16
477.28	292.57
477.46	255.12
477.64	283.20
477.82	308.95
478.00	292.57
478.18	250.44
478.36	259.80
478.54	201.29
478.72	210.65
478.90	255.12
479.08	330.02
479.26	271.50
479.44	224.69
479.62	201.29
479.80	276.18
479.98	320.65
480.16	304.27
480.34	248.10
480.52	271.50
480.70	362.78
480.88	381.51
481.06	339.38
481.24	330.02
481.41	395.55
481.59	339.38
481.77	496.19
481.95	447.04
482.13	463.43
482.31	538.32
482.49	580.45
482.67	554.71
482.85	543.00
483.03	606.20
483.21	587.47
483.39	617.90
483.57	653.01
483.74	739.61
483.92	791.10
484.10	765.36
484.28	821.53
484.46	957.28
484.64	915.15
484.82	1004.09
485.00	1109.41
485.18	1123.46
485.35	1174.95
485.53	1191.33
485.71	1263.89
485.89	1249.85
486.07	1266.23
486.25	1404.32
486.43	1331.76
486.61	1385.60
486.78	1378.58
486.96	1423.05
487.14	1411.34
487.32	1357.51
487.50	1462.83
487.68	1472.20
487.85	1399.64
488.03	1444.11
488.21	1411.34
488.39	1425.39
488.57	1451.13
488.75	1469.86
488.92	1703.91
489.10	1362.19
489.28	1401.98
489.46	1474.54
489.64	1364.53
489.81	1371.55
489.99	1247.51
490.17	1301.34
490.35	1376.24
490.53	1301.34
490.70	1261.55
490.88	1366.87
491.06	1315.38
491.24	1357.51
491.41	1404.32
491.59	1371.55
491.77	1273.25
491.95	1196.01
492.13	1191.33
492.30	1137.50
492.48	1139.84
492.66	1132.82
492.84	1137.50
493.01	1137.50
493.19	1142.18
493.37	1074.31
493.54	1043.88
493.72	1114.10
493.90	1104.73
494.08	1041.54
494.25	990.05
494.43	1043.88
494.61	959.62
494.79	1004.09
494.96	976.00
495.14	968.98
495.32	943.24
495.49	854.30
495.67	877.70
495.85	847.27
496.02	854.30
496.20	910.47
496.38	943.24
496.55	898.77
496.73	833.23
496.91	997.07
497.09	870.68
497.26	884.72
497.44	884.72
497.62	819.19
497.79	737.27
497.97	791.10
498.14	763.01
498.32	760.67
498.50	671.73
498.67	650.67
498.85	580.45
499.03	629.60
499.20	610.88
499.38	620.24
499.56	585.13
499.73	704.50
499.91	540.66
500.08	578.11
500.26	594.50
500.44	437.68
500.61	505.56
500.79	475.13
500.97	505.56
501.14	510.24
501.32	456.40
501.49	507.90
501.67	409.59
501.84	447.04
502.02	367.46
502.20	425.98
502.37	395.55
502.55	433.00
502.72	397.89
502.90	358.10
503.07	365.12
503.25	374.49
503.43	271.50
503.60	325.33
503.78	344.06
503.95	320.65
504.13	278.52
504.30	430.66
504.48	297.25
504.65	365.12
504.83	346.40
505.01	294.91
505.18	297.25
505.36	259.80
505.53	348.74
505.71	322.99
505.88	318.31
506.06	297.25
506.23	280.86
506.41	238.73
506.58	348.74
506.76	198.95
506.93	273.84
507.11	285.55
507.28	205.97
507.46	212.99
507.63	269.16
507.81	250.44
507.98	283.20
508.16	297.25
508.33	280.86
508.50	290.23
508.68	348.74
508.85	259.80
509.03	262.14
509.20	332.36
509.38	322.99
509.55	344.06
509.73	327.68
509.90	411.93
510.08	236.39
510.25	337.04
510.42	285.55
510.60	322.99
510.77	330.02
510.95	283.20
511.12	262.14
511.30	376.83
511.47	325.33
511.64	353.42
511.82	280.86
511.99	259.80
512.17	290.23
512.34	257.46
512.51	196.60
512.69	245.76
512.86	315.97
513.04	301.93
513.21	245.76
513.38	306.61
513.56	259.80
513.73	266.82
513.90	334.70
514.08	255.12
514.25	318.31
514.43	322.99
514.60	304.27
514.77	241.08
514.95	294.91
515.12	262.14
515.29	280.86
515.47	271.50
515.64	341.72
515.81	290.23
515.99	334.70
516.16	306.61
516.33	348.74
516.51	201.29
516.68	301.93
516.85	327.68
517.03	287.89
517.20	313.63
517.37	332.36
517.54	248.10
517.72	236.39
517.89	285.55
518.06	227.03
518.24	278.52
518.41	283.20
518.58	198.95
518.75	245.76
518.93	285.55
519.10	276.18
519.27	173.20
519.45	290.23
519.62	290.23
519.79	304.27
519.96	252.78
520.14	283.20
520.31	276.18
520.48	318.31
520.65	255.12
520.83	285.55
521.00	278.52
521.17	184.90
521.34	292.57
521.52	301.93
521.69	201.29
521.86	322.99
522.03	297.25
522.20	301.93
522.38	278.52
522.55	234.05
522.72	227.03
522.89	217.67
523.07	372.15
523.24	215.33
523.41	262.14
523.58	276.18
523.75	220.01
523.92	308.95
524.10	327.68
524.27	231.71
524.44	297.25
524.61	241.08
524.78	264.48
524.96	269.16
525.13	285.55
525.30	294.91
525.47	318.31
525.64	264.48
525.81	229.37
525.98	285.55
526.16	187.24
526.33	201.29
526.50	238.73
526.67	332.36
526.84	196.60
527.01	266.82
527.18	311.29
527.36	285.55
527.53	290.23
527.70	315.97
527.87	224.69
528.04	353.42
528.21	294.91
528.38	421.30
528.55	280.86
528.72	311.29
528.89	365.12
529.07	238.73
529.24	250.44
529.41	325.33
529.58	182.56
529.75	252.78
529.92	257.46
530.09	283.20
530.26	318.31
530.43	245.76
530.60	285.55
530.77	337.04
530.94	339.38
531.11	400.23
531.28	330.02
531.46	308.95
531.63	351.08
531.80	379.17
531.97	348.74
532.14	365.12
532.31	386.19
532.48	425.98
532.65	437.68
532.82	435.34
532.99	543.00
533.16	711.52
533.33	702.16
533.50	683.44
533.67	561.73
533.84	554.71
534.01	482.15
534.18	440.02
534.35	423.64
534.52	510.24
534.69	442.36
534.86	475.13
535.03	472.79
535.20	421.30
535.37	543.00
535.54	566.41
535.71	496.19
535.88	653.01
536.05	594.50
536.22	620.24
536.38	674.07
536.55	720.88
536.72	765.36
536.89	732.59
537.06	856.64
537.23	884.72
537.40	933.87
537.57	1081.33
537.74	1191.33
537.91	1308.36
538.08	1423.05
538.25	1607.95
538.42	1614.97
538.59	1717.95
538.75	1687.53
538.92	1795.19
539.09	1823.28
539.26	1935.62
539.43	2122.87
539.60	2307.77
539.77	2396.71
539.94	2745.45
540.11	2944.39
540.28	3028.65
540.44	3152.70
540.61	3489.74
540.78	3639.53
540.95	4007.00
541.12	4919.81
541.29	5600.90
541.46	6459.88
541.62	7442.90
541.79	8519.55
541.96	9390.23
542.13	10127.50
542.30	10490.28
542.47	10523.05
542.63	10125.16
542.80	9970.68
542.97	10249.21
543.14	10443.47
543.31	10551.14
543.48	10501.98
543.64	10862.43
543.81	10258.57
543.98	10183.67
544.15	9975.36
544.32	9420.66
544.48	9170.22
544.65	8596.79
544.82	8088.89
544.99	7929.74
545.16	7719.09
545.32	7538.87
545.49	10129.84
545.66	17612.53
545.83	25474.39
546.00	23604.30
546.16	14200.03
546.33	9231.07
546.50	6572.22
546.67	4805.12
546.83	3822.09
547.00	3606.77
547.17	3229.94
547.34	3239.30
547.50	3159.72
547.67	3056.74
547.84	2995.89
548.00	2946.73
548.17	2986.52
548.34	3136.32
548.51	3152.70
548.67	3220.58
548.84	3307.18
549.01	3452.29
549.18	3407.82
549.34	3190.15
549.51	3119.93
549.68	2949.08
549.84	2789.92
550.01	2525.44
550.18	2628.42
550.34	2363.94
550.51	2314.79
550.68	2319.47
550.84	2193.08
551.01	2188.40
551.18	2188.40
551.34	2090.10
551.51	2223.51
551.68	2132.23
551.84	2136.91
552.01	2197.76
552.18	2108.82
552.34	1977.75
552.51	1905.20
552.68	1893.49
552.84	1771.79
553.01	1682.85
553.18	1619.65
553.34	1439.43
553.51	1322.40
553.67	1350.49
553.84	1280.27
554.01	1057.92
554.17	931.53
554.34	997.07
554.51	894.08
554.67	880.04
554.84	739.61
555.00	676.41
555.17	765.36
555.33	674.07
555.50	655.35
555.67	507.90
555.83	543.00
556.00	582.79
556.16	706.84
556.33	571.09
556.50	617.90
556.66	418.96
556.83	367.46
556.99	409.59
557.16	524.28
557.32	454.06
557.49	484.49
557.65	472.79
557.82	461.09
557.98	475.13
558.15	465.77
558.32	475.13
558.48	496.19
558.65	430.66
558.81	386.19
558.98	346.40
559.14	425.98
559.31	325.33
559.47	444.70
559.64	456.40
559.80	400.23
559.97	341.72
560.13	339.38
560.30	376.83
560.46	285.55
560.63	360.44
560.79	351.08
560.96	390.87
561.12	276.18
561.29	318.31
561.45	304.27
561.61	390.87
561.78	400.23
561.94	372.15
562.11	374.49
562.27	404.91
562.44	306.61
562.60	372.15
562.77	407.25
562.93	454.06
563.10	388.53
563.26	330.02
563.42	390.87
563.59	437.68
563.75	327.68
563.92	341.72
564.08	320.65
564.24	348.74
564.41	367.46
564.57	311.29
564.74	308.95
564.90	339.38
565.07	290.23
565.23	322.99
565.39	297.25
565.56	283.20
565.72	285.55
565.88	330.02
566.05	276.18
566.21	367.46
566.38	306.61
566.54	393.21
566.70	411.93
566.87	266.82
567.03	369.80
567.19	306.61
567.36	374.49
567.52	248.10
567.68	299.59
567.85	299.59
568.01	292.57
568.17	388.53
568.34	325.33
568.50	320.65
568.66	383.85
568.83	374.49
568.99	257.46
569.15	381.51
569.32	294.91
569.48	278.52
569.64	243.42
569.81	341.72
569.97	294.91
570.13	304.27
570.30	250.44
570.46	278.52
570.62	283.20
570.78	344.06
570.95	301.93
571.11	318.31
571.27	362.78
571.43	346.40
571.60	308.95
571.76	250.44
571.92	290.23
572.09	294.91
572.25	355.76
572.41	395.55
572.57	327.68
572.74	379.17
572.90	372.15
573.06	397.89
573.22	390.87
573.38	341.72
573.55	367.46
573.71	404.91
573.87	449.38
574.03	409.59
574.20	411.93
574.36	423.64
574.52	393.21
574.68	388.53
574.84	334.70
575.01	430.66
575.17	393.21
575.33	404.91
575.49	498.53
575.65	482.15
575.82	531.30
575.98	503.22
576.14	575.77
576.30	821.53
576.46	1886.47
576.62	3574.00
576.79	4711.50
576.95	3391.44
577.11	2066.69
577.27	1427.73
577.43	1034.52
577.59	786.42
577.75	587.47
577.92	613.22
578.08	594.50
578.24	498.53
578.40	873.02
578.56	1809.23
578.72	3585.70
578.88	4615.54
579.04	3428.88
579.21	2352.24
579.37	1809.23
579.53	1699.23
579.69	1528.37
579.85	1774.13
580.01	2148.61
580.17	2062.01
580.33	1935.62
580.49	1764.76
580.65	1479.22
580.82	1303.68
580.98	1284.95
581.14	1287.29
581.30	1376.24
581.46	1411.34
581.62	1540.07
581.78	1472.20
581.94	1584.54
582.10	1652.42
582.26	1724.97
582.42	1645.40
582.58	1842.00
582.74	1853.70
582.90	1989.46
583.06	2106.48
583.22	2275.00
583.38	2263.30
583.54	2244.57
583.70	2289.04
583.86	2324.15
584.02	2270.32
584.18	2214.15
584.34	2172.02
584.50	1975.41
584.66	1792.85
584.82	1760.08
584.98	1949.67
585.14	1795.19
585.30	1732.00
585.46	1717.95
585.62	1582.20
585.78	1652.42
585.94	1774.13
586.10	1748.38
586.26	1781.15
586.42	1984.77
586.58	2134.57
586.74	2623.74
586.90	3096.53
587.06	3389.10
587.22	3492.08
587.38	3365.69
587.54	2988.86
587.70	2743.11
587.86	2431.82
588.02	2162.66
588.18	2054.99
588.34	1851.36
588.49	1732.00
588.65	1664.12
588.81	1516.67
588.97	1504.96
589.13	1502.62
589.29	1329.42
589.45	1469.86
589.61	1551.78
589.77	1390.28
589.93	1495.60
590.08	1416.02
590.24	1430.07
590.40	1401.98
590.56	1270.91
590.72	1341.13
590.88	1378.58
591.04	1331.76
591.20	1327.08
591.35	1259.21
591.51	1291.98
591.67	1343.47
591.83	1308.36
591.99	1565.82
592.15	1586.88
592.31	1619.65
592.46	1795.19
592.62	1839.66
592.78	2062.01
592.94	2078.40
593.10	2108.82
593.26	1994.14
593.41	1870.09
593.57	1607.95
593.73	1476.88
593.89	1329.42
594.05	1224.10
594.20	1053.24
594.36	931.53
594.52	840.25
594.68	816.85
594.84	940.90
594.99	826.21
595.15	854.30
595.31	753.65
595.47	833.23
595.62	779.40
595.78	741.95
595.94	763.01
596.10	730.25
596.25	763.01
596.41	744.29
596.57	741.95
596.73	828.55
596.88	809.83
597.04	772.38
597.20	746.63
597.36	777.06
597.51	821.53
597.67	842.59
597.83	809.83
597.99	919.83
598.14	978.34
598.30	1050.90
598.46	1004.09
598.61	1179.63
598.77	1135.16
598.93	1132.82
599.09	1270.91
599.24	1224.10
599.40	1350.49
599.56	1320.06
599.71	1254.53
599.87	1121.12
600.03	1095.37
600.18	997.07
600.34	943.24
600.50	866.00
600.65	912.81
600.81	807.48
600.97	765.36
601.12	748.97
601.28	727.91
601.44	688.12
601.59	744.29
601.75	695.14
601.91	638.97
602.06	564.07
602.22	610.88
602.37	681.10
602.53	664.71
602.69	627.26
602.84	507.90
603.00	566.41
603.16	578.11
603.31	601.52
603.47	550.03
603.62	589.82
603.78	573.43
603.94	617.90
604.09	699.82
604.25	648.33
604.40	564.07
604.56	550.03
604.71	674.07
604.87	594.50
605.03	634.29
605.18	620.24
605.34	657.69
605.49	650.67
605.65	716.20
605.80	730.25
605.96	702.16
606.12	788.76
606.27	854.30
606.43	800.46
606.58	774.72
606.74	842.59
606.89	851.96
607.05	990.05
607.20	884.72
607.36	1025.15
607.51	1132.82
607.67	1060.26
607.82	1198.35
607.98	1355.17
