SpectraSuite Data File
++++++++++++++++++++++++++++++++++++
Date: Fri Oct 04 11:42:21 GMT-05:00 2013
User: price-jones
Dark Spectrum Present: No
Reference Spectrum Present: No
Number of Sampled Component Spectra: 1
Spectrometers: USB2+H05261
Integration Time (usec): 100000 (USB2+H05261)
Spectra Averaged: 1 (USB2+H05261)
Boxcar Smoothing: 0 (USB2+H05261)
Correct for Electrical Dark: No (USB2+H05261)
Strobe/Lamp Enabled: No (USB2+H05261)
Correct for Detector Non-linearity: No (USB2+H05261)
Correct for Stray Light: No (USB2+H05261)
Number of Pixels in Processed Spectrum: 2048
>>>>>Begin Processed Spectral Data<<<<<
365.73	30.43
365.92	30.43
366.12	30.43
366.32	0.00
366.52	0.00
366.72	51.49
366.91	0.00
367.11	0.00
367.31	0.00
367.51	0.00
367.70	0.00
367.90	0.00
368.10	0.00
368.30	0.00
368.49	0.00
368.69	0.00
368.89	0.00
369.09	0.00
369.28	0.00
369.48	0.00
369.68	44.47
369.87	39.79
370.07	14.04
370.27	7.02
370.47	32.77
370.66	0.00
370.86	0.00
371.06	74.90
371.25	53.83
371.45	84.26
371.65	98.30
371.84	63.19
372.04	74.90
372.24	56.17
372.44	63.19
372.63	121.71
372.83	152.13
373.03	110.01
373.22	63.19
373.42	70.22
373.62	145.11
373.81	131.07
374.01	173.20
374.21	102.98
374.40	124.05
374.60	30.43
374.79	131.07
374.99	65.54
375.19	145.11
375.38	182.56
375.58	154.48
375.78	187.24
375.97	107.66
376.17	173.20
376.37	133.41
376.56	74.90
376.76	51.49
376.95	112.35
377.15	133.41
377.35	95.96
377.54	79.58
377.74	77.24
377.93	88.94
378.13	86.60
378.33	112.35
378.52	88.94
378.72	84.26
378.91	156.82
379.11	105.32
379.31	119.37
379.50	32.77
379.70	86.60
379.89	107.66
380.09	124.05
380.28	95.96
380.48	142.77
380.68	46.81
380.87	79.58
381.07	51.49
381.26	161.50
381.46	121.71
381.65	170.86
381.85	102.98
382.04	110.01
382.24	25.75
382.43	51.49
382.63	60.85
382.83	77.24
383.02	131.07
383.22	124.05
383.41	56.17
383.61	131.07
383.80	135.75
384.00	102.98
384.19	77.24
384.39	77.24
384.58	70.22
384.78	135.75
384.97	194.26
385.17	163.84
385.36	107.66
385.56	166.18
385.75	2.34
385.95	110.01
386.14	142.77
386.34	126.39
386.53	98.30
386.72	18.72
386.92	222.35
387.11	145.11
387.31	58.51
387.50	88.94
387.70	93.62
387.89	67.88
388.09	100.64
388.28	152.13
388.48	124.05
388.67	156.82
388.86	72.56
389.06	95.96
389.25	93.62
389.45	112.35
389.64	60.85
389.84	102.98
390.03	77.24
390.22	107.66
390.42	95.96
390.61	79.58
390.81	112.35
391.00	147.45
391.19	95.96
391.39	121.71
391.58	133.41
391.78	147.45
391.97	128.73
392.16	121.71
392.36	168.52
392.55	138.09
392.75	128.73
392.94	42.13
393.13	91.28
393.33	7.02
393.52	110.01
393.71	142.77
393.91	107.66
394.10	53.83
394.29	70.22
394.49	112.35
394.68	124.05
394.88	152.13
395.07	191.92
395.26	149.79
395.46	126.39
395.65	65.54
395.84	112.35
396.04	196.60
396.23	156.82
396.42	51.49
396.62	58.51
396.81	189.58
397.00	79.58
397.19	72.56
397.39	168.52
397.58	138.09
397.77	84.26
397.97	128.73
398.16	119.37
398.35	154.48
398.55	72.56
398.74	86.60
398.93	145.11
399.12	44.47
399.32	154.48
399.51	91.28
399.70	121.71
399.90	117.03
400.09	91.28
400.28	112.35
400.47	191.92
400.67	187.24
400.86	91.28
401.05	152.13
401.24	154.48
401.44	154.48
401.63	180.22
401.82	149.79
402.01	95.96
402.21	98.30
402.40	168.52
402.59	110.01
402.78	88.94
402.97	133.41
403.17	98.30
403.36	152.13
403.55	166.18
403.74	184.90
403.93	454.06
404.13	622.58
404.32	671.73
404.51	454.06
404.70	353.42
404.89	208.31
405.09	205.97
405.28	210.65
405.47	119.37
405.66	154.48
405.85	159.16
406.05	110.01
406.24	124.05
406.43	105.32
406.62	128.73
406.81	170.86
407.00	182.56
407.20	187.24
407.39	227.03
407.58	212.99
407.77	180.22
407.96	161.50
408.15	105.32
408.34	138.09
408.54	182.56
408.73	135.75
408.92	156.82
409.11	140.43
409.30	102.98
409.49	112.35
409.68	210.65
409.87	159.16
410.07	161.50
410.26	131.07
410.45	102.98
410.64	128.73
410.83	161.50
411.02	79.58
411.21	121.71
411.40	149.79
411.59	208.31
411.78	147.45
411.98	131.07
412.17	91.28
412.36	159.16
412.55	145.11
412.74	142.77
412.93	168.52
413.12	100.64
413.31	138.09
413.50	126.39
413.69	124.05
413.88	212.99
414.07	112.35
414.26	105.32
414.45	119.37
414.64	131.07
414.83	112.35
415.02	187.24
415.22	119.37
415.41	159.16
415.60	121.71
415.79	161.50
415.98	196.60
416.17	95.96
416.36	184.90
416.55	194.26
416.74	154.48
416.93	180.22
417.12	168.52
417.31	58.51
417.50	119.37
417.69	91.28
417.88	149.79
418.07	170.86
418.26	124.05
418.45	86.60
418.64	135.75
418.83	215.33
419.02	114.69
419.21	95.96
419.39	163.84
419.58	124.05
419.77	149.79
419.96	114.69
420.15	229.37
420.34	124.05
420.53	112.35
420.72	152.13
420.91	191.92
421.10	145.11
421.29	152.13
421.48	91.28
421.67	138.09
421.86	163.84
422.05	140.43
422.24	189.58
422.43	152.13
422.61	140.43
422.80	107.66
422.99	112.35
423.18	201.29
423.37	205.97
423.56	53.83
423.75	212.99
423.94	131.07
424.13	184.90
424.32	173.20
424.50	156.82
424.69	145.11
424.88	182.56
425.07	117.03
425.26	177.88
425.45	201.29
425.64	201.29
425.83	149.79
426.01	149.79
426.20	102.98
426.39	67.88
426.58	170.86
426.77	142.77
426.96	159.16
427.15	175.54
427.33	161.50
427.52	166.18
427.71	156.82
427.90	180.22
428.09	159.16
428.28	180.22
428.46	135.75
428.65	271.50
428.84	227.03
429.03	205.97
429.22	152.13
429.40	201.29
429.59	102.98
429.78	182.56
429.97	135.75
430.16	110.01
430.34	79.58
430.53	156.82
430.72	112.35
430.91	170.86
431.10	133.41
431.28	159.16
431.47	173.20
431.66	124.05
431.85	121.71
432.03	227.03
432.22	276.18
432.41	84.26
432.60	191.92
432.79	212.99
432.97	173.20
433.16	163.84
433.35	198.95
433.54	177.88
433.72	168.52
433.91	154.48
434.10	133.41
434.28	173.20
434.47	208.31
434.66	304.27
434.85	201.29
435.03	704.50
435.22	1912.22
435.41	2904.60
435.59	2778.22
435.78	1916.90
435.97	1008.77
436.16	564.07
436.34	285.55
436.53	215.33
436.72	215.33
436.90	147.45
437.09	177.88
437.28	173.20
437.46	145.11
437.65	241.08
437.84	133.41
438.02	161.50
438.21	142.77
438.40	191.92
438.58	163.84
438.77	140.43
438.96	180.22
439.14	133.41
439.33	131.07
439.52	177.88
439.70	208.31
439.89	191.92
440.08	224.69
440.26	128.73
440.45	201.29
440.63	212.99
440.82	184.90
441.01	173.20
441.19	194.26
441.38	203.63
441.57	215.33
441.75	147.45
441.94	234.05
442.12	194.26
442.31	238.73
442.50	198.95
442.68	182.56
442.87	191.92
443.05	241.08
443.24	210.65
443.43	180.22
443.61	98.30
443.80	215.33
443.98	159.16
444.17	177.88
444.35	217.67
444.54	194.26
444.73	201.29
444.91	166.18
445.10	107.66
445.28	140.43
445.47	175.54
445.65	215.33
445.84	180.22
446.02	119.37
446.21	215.33
446.39	152.13
446.58	154.48
446.77	177.88
446.95	196.60
447.14	236.39
447.32	229.37
447.51	208.31
447.69	217.67
447.88	173.20
448.06	196.60
448.25	135.75
448.43	98.30
448.62	149.79
448.80	189.58
448.99	135.75
449.17	196.60
449.36	149.79
449.54	229.37
449.73	180.22
449.91	217.67
450.10	220.01
450.28	238.73
450.46	222.35
450.65	149.79
450.83	147.45
451.02	210.65
451.20	147.45
451.39	168.52
451.57	107.66
451.76	124.05
451.94	184.90
452.13	280.86
452.31	236.39
452.49	271.50
452.68	177.88
452.86	149.79
453.05	236.39
453.23	177.88
453.42	198.95
453.60	135.75
453.78	222.35
453.97	159.16
454.15	154.48
454.34	138.09
454.52	196.60
454.70	264.48
454.89	182.56
455.07	238.73
455.26	173.20
455.44	182.56
455.62	163.84
455.81	266.82
455.99	215.33
456.17	234.05
456.36	166.18
456.54	184.90
456.73	84.26
456.91	58.51
457.09	159.16
457.28	182.56
457.46	180.22
457.64	271.50
457.83	194.26
458.01	191.92
458.19	138.09
458.38	163.84
458.56	168.52
458.74	100.64
458.93	184.90
459.11	161.50
459.29	147.45
459.48	224.69
459.66	135.75
459.84	255.12
460.03	238.73
460.21	220.01
460.39	184.90
460.57	290.23
460.76	154.48
460.94	220.01
461.12	227.03
461.31	177.88
461.49	175.54
461.67	196.60
461.85	170.86
462.04	156.82
462.22	311.29
462.40	149.79
462.59	229.37
462.77	152.13
462.95	217.67
463.13	189.58
463.32	168.52
463.50	177.88
463.68	227.03
463.86	168.52
464.05	187.24
464.23	205.97
464.41	187.24
464.59	203.63
464.78	182.56
464.96	159.16
465.14	208.31
465.32	149.79
465.50	196.60
465.69	177.88
465.87	191.92
466.05	210.65
466.23	166.18
466.41	175.54
466.60	217.67
466.78	182.56
466.96	208.31
467.14	250.44
467.32	201.29
467.51	224.69
467.69	145.11
467.87	208.31
468.05	163.84
468.23	248.10
468.41	140.43
468.60	194.26
468.78	196.60
468.96	187.24
469.14	262.14
469.32	156.82
469.50	126.39
469.69	320.65
469.87	236.39
470.05	236.39
470.23	91.28
470.41	159.16
470.59	173.20
470.77	147.45
470.95	189.58
471.14	283.20
471.32	189.58
471.50	262.14
471.68	220.01
471.86	220.01
472.04	220.01
472.22	140.43
472.40	191.92
472.58	224.69
472.77	220.01
472.95	177.88
473.13	229.37
473.31	292.57
473.49	93.62
473.67	224.69
473.85	238.73
474.03	201.29
474.21	222.35
474.39	180.22
474.57	266.82
474.75	135.75
474.93	177.88
475.12	189.58
475.30	196.60
475.48	128.73
475.66	166.18
475.84	201.29
476.02	173.20
476.20	191.92
476.38	180.22
476.56	297.25
476.74	217.67
476.92	255.12
477.10	194.26
477.28	238.73
477.46	227.03
477.64	259.80
477.82	196.60
478.00	145.11
478.18	280.86
478.36	180.22
478.54	215.33
478.72	234.05
478.90	133.41
479.08	173.20
479.26	234.05
479.44	175.54
479.62	203.63
479.80	168.52
479.98	91.28
480.16	191.92
480.34	191.92
480.52	217.67
480.70	290.23
480.88	238.73
481.06	236.39
481.24	145.11
481.41	191.92
481.59	285.55
481.77	227.03
481.95	262.14
482.13	327.68
482.31	287.89
482.49	311.29
482.67	292.57
482.85	330.02
483.03	325.33
483.21	292.57
483.39	243.42
483.57	332.36
483.74	416.62
483.92	353.42
484.10	374.49
484.28	421.30
484.46	456.40
484.64	322.99
484.82	355.76
485.00	360.44
485.18	351.08
485.35	468.11
485.53	332.36
485.71	575.77
485.89	496.19
486.07	472.79
486.25	479.81
486.43	498.53
486.61	486.83
486.78	484.49
486.96	470.45
487.14	550.03
487.32	498.53
487.50	540.66
487.68	489.17
487.85	531.30
488.03	390.87
488.21	496.19
488.39	477.47
488.57	393.21
488.75	430.66
488.92	664.71
489.10	486.83
489.28	500.87
489.46	463.43
489.64	449.38
489.81	430.66
489.99	339.38
490.17	435.34
490.35	491.51
490.53	397.89
490.70	393.21
490.88	353.42
491.06	433.00
491.24	418.96
491.41	447.04
491.59	430.66
491.77	367.46
491.95	365.12
492.13	454.06
492.30	416.62
492.48	360.44
492.66	447.04
492.84	374.49
493.01	463.43
493.19	360.44
493.37	388.53
493.54	353.42
493.72	442.36
493.90	393.21
494.08	383.85
494.25	447.04
494.43	472.79
494.61	444.70
494.79	294.91
494.96	297.25
495.14	374.49
495.32	355.76
495.49	344.06
495.67	393.21
495.85	339.38
496.02	294.91
496.20	358.10
496.38	266.82
496.55	287.89
496.73	393.21
496.91	379.17
497.09	320.65
497.26	332.36
497.44	346.40
497.62	327.68
497.79	365.12
497.97	330.02
498.14	292.57
498.32	227.03
498.50	339.38
498.67	285.55
498.85	231.71
499.03	313.63
499.20	369.80
499.38	400.23
499.56	259.80
499.73	287.89
499.91	334.70
500.08	313.63
500.26	243.42
500.44	280.86
500.61	273.84
500.79	311.29
500.97	278.52
501.14	348.74
501.32	294.91
501.49	259.80
501.67	290.23
501.84	259.80
502.02	229.37
502.20	306.61
502.37	304.27
502.55	234.05
502.72	250.44
502.90	327.68
503.07	255.12
503.25	337.04
503.43	236.39
503.60	255.12
503.78	285.55
503.95	337.04
504.13	231.71
504.30	292.57
504.48	287.89
504.65	259.80
504.83	369.80
505.01	294.91
505.18	271.50
505.36	264.48
505.53	276.18
505.71	313.63
505.88	376.83
506.06	269.16
506.23	262.14
506.41	227.03
506.58	280.86
506.76	208.31
506.93	234.05
507.11	184.90
507.28	250.44
507.46	177.88
507.63	238.73
507.81	252.78
507.98	203.63
508.16	294.91
508.33	304.27
508.50	313.63
508.68	257.46
508.85	280.86
509.03	285.55
509.20	191.92
509.38	278.52
509.55	290.23
509.73	257.46
509.90	304.27
510.08	220.01
510.25	234.05
510.42	259.80
510.60	327.68
510.77	294.91
510.95	280.86
511.12	217.67
511.30	259.80
511.47	191.92
511.64	304.27
511.82	173.20
511.99	173.20
512.17	285.55
512.34	273.84
512.51	241.08
512.69	198.95
512.86	320.65
513.04	264.48
513.21	285.55
513.38	222.35
513.56	238.73
513.73	290.23
513.90	208.31
514.08	238.73
514.25	234.05
514.43	224.69
514.60	227.03
514.77	278.52
514.95	234.05
515.12	177.88
515.29	294.91
515.47	280.86
515.64	245.76
515.81	189.58
515.99	234.05
516.16	334.70
516.33	252.78
516.51	245.76
516.68	196.60
516.85	238.73
517.03	252.78
517.20	250.44
517.37	306.61
517.54	264.48
517.72	266.82
517.89	177.88
518.06	208.31
518.24	292.57
518.41	264.48
518.58	273.84
518.75	222.35
518.93	292.57
519.10	287.89
519.27	238.73
519.45	299.59
519.62	241.08
519.79	304.27
519.96	231.71
520.14	187.24
520.31	191.92
520.48	234.05
520.65	245.76
520.83	229.37
521.00	231.71
521.17	238.73
521.34	301.93
521.52	315.97
521.69	278.52
521.86	308.95
522.03	208.31
522.20	308.95
522.38	266.82
522.55	280.86
522.72	234.05
522.89	243.42
523.07	227.03
523.24	287.89
523.41	287.89
523.58	271.50
523.75	234.05
523.92	217.67
524.10	285.55
524.27	222.35
524.44	203.63
524.61	334.70
524.78	231.71
524.96	308.95
525.13	325.33
525.30	294.91
525.47	273.84
525.64	313.63
525.81	259.80
525.98	332.36
526.16	238.73
526.33	229.37
526.50	280.86
526.67	252.78
526.84	173.20
527.01	315.97
527.18	205.97
527.36	348.74
527.53	273.84
527.70	299.59
527.87	322.99
528.04	351.08
528.21	344.06
528.38	255.12
528.55	280.86
528.72	301.93
528.89	311.29
529.07	308.95
529.24	360.44
529.41	262.14
529.58	250.44
529.75	217.67
529.92	339.38
530.09	301.93
530.26	231.71
530.43	308.95
530.60	248.10
530.77	234.05
530.94	299.59
531.11	292.57
531.28	215.33
531.46	276.18
531.63	294.91
531.80	313.63
531.97	299.59
532.14	285.55
532.31	313.63
532.48	332.36
532.65	330.02
532.82	346.40
532.99	390.87
533.16	421.30
533.33	320.65
533.50	470.45
533.67	344.06
533.84	353.42
534.01	327.68
534.18	322.99
534.35	341.72
534.52	334.70
534.69	365.12
534.86	362.78
535.03	341.72
535.20	344.06
535.37	400.23
535.54	325.33
535.71	362.78
535.88	348.74
536.05	311.29
536.22	496.19
536.38	418.96
536.55	418.96
536.72	365.12
536.89	461.09
537.06	468.11
537.23	519.60
537.40	564.07
537.57	571.09
537.74	606.20
537.91	697.48
538.08	638.97
538.25	608.54
538.42	620.24
538.59	650.67
538.75	671.73
538.92	678.76
539.09	800.46
539.26	730.25
539.43	805.14
539.60	973.66
539.77	997.07
539.94	1102.39
540.11	1060.26
540.28	1352.83
540.44	1308.36
540.61	1540.07
540.78	1493.26
540.95	1858.39
541.12	2326.49
541.29	2427.14
541.46	2525.44
541.62	2473.95
541.79	2338.20
541.96	2235.21
542.13	2275.00
542.30	2160.31
542.47	1954.35
542.63	1987.11
542.80	1959.03
542.97	1966.05
543.14	1949.67
543.31	1806.89
543.48	1867.75
543.64	1933.28
543.81	1970.73
543.98	1996.48
544.15	1893.49
544.32	1839.66
544.48	1802.21
544.65	1734.34
544.82	1977.75
544.99	1790.51
545.16	1783.49
545.32	1940.30
545.49	3660.60
545.66	5460.47
545.83	6169.65
546.00	5254.50
546.16	3702.73
546.33	2761.83
546.50	2223.51
546.67	1748.38
546.83	1563.48
547.00	1507.30
547.17	1432.41
547.34	1469.86
547.50	1355.17
547.67	1287.29
547.84	1231.12
548.00	1341.13
548.17	1226.44
548.34	1249.85
548.51	1179.63
548.67	1135.16
548.84	1046.22
549.01	1060.26
549.18	1118.78
549.34	1015.79
549.51	896.43
549.68	1060.26
549.84	877.70
550.01	868.34
550.18	954.94
550.34	917.49
550.51	833.23
550.68	842.59
550.84	772.38
551.01	683.44
551.18	727.91
551.34	617.90
551.51	664.71
551.68	709.18
551.84	634.29
552.01	709.18
552.18	535.98
552.34	575.77
552.51	540.66
552.68	550.03
552.84	510.24
553.01	517.26
553.18	528.96
553.34	507.90
553.51	435.34
553.67	514.92
553.84	535.98
554.01	505.56
554.17	505.56
554.34	414.27
554.51	346.40
554.67	416.62
554.84	437.68
555.00	425.98
555.17	482.15
555.33	372.15
555.50	351.08
555.67	355.76
555.83	271.50
556.00	311.29
556.16	547.69
556.33	404.91
556.50	381.51
556.66	374.49
556.83	355.76
556.99	337.04
557.16	280.86
557.32	339.38
557.49	262.14
557.65	264.48
557.82	294.91
557.98	395.55
558.15	276.18
558.32	198.95
558.48	264.48
558.65	227.03
558.81	294.91
558.98	266.82
559.14	320.65
559.31	271.50
559.47	344.06
559.64	287.89
559.80	355.76
559.97	292.57
560.13	315.97
560.30	276.18
560.46	203.63
560.63	308.95
560.79	227.03
560.96	276.18
561.12	301.93
561.29	278.52
561.45	250.44
561.61	229.37
561.78	395.55
561.94	290.23
562.11	245.76
562.27	276.18
562.44	400.23
562.60	243.42
562.77	290.23
562.93	358.10
563.10	344.06
563.26	243.42
563.42	301.93
563.59	259.80
563.75	301.93
563.92	374.49
564.08	304.27
564.24	325.33
564.41	269.16
564.57	234.05
564.74	304.27
564.90	365.12
565.07	299.59
565.23	386.19
565.39	341.72
565.56	322.99
565.72	262.14
565.88	236.39
566.05	292.57
566.21	266.82
566.38	334.70
566.54	348.74
566.70	229.37
566.87	266.82
567.03	259.80
567.19	301.93
567.36	301.93
567.52	299.59
567.68	311.29
567.85	365.12
568.01	252.78
568.17	234.05
568.34	229.37
568.50	248.10
568.66	220.01
568.83	313.63
568.99	212.99
569.15	294.91
569.32	205.97
569.48	227.03
569.64	311.29
569.81	257.46
569.97	294.91
570.13	243.42
570.30	285.55
570.46	269.16
570.62	292.57
570.78	238.73
570.95	290.23
571.11	262.14
571.27	334.70
571.43	229.37
571.60	236.39
571.76	262.14
571.92	297.25
572.09	217.67
572.25	241.08
572.41	285.55
572.57	313.63
572.74	273.84
572.90	243.42
573.06	243.42
573.22	255.12
573.38	287.89
573.55	304.27
573.71	346.40
573.87	290.23
574.03	231.71
574.20	180.22
574.36	318.31
574.52	203.63
574.68	250.44
574.84	196.60
575.01	196.60
575.17	273.84
575.33	212.99
575.49	315.97
575.65	388.53
575.82	278.52
575.98	353.42
576.14	280.86
576.30	475.13
576.46	912.81
576.62	1275.59
576.79	1299.00
576.95	901.11
577.11	660.03
577.27	554.71
577.43	449.38
577.59	393.21
577.75	358.10
577.92	313.63
578.08	315.97
578.24	440.02
578.40	538.32
578.56	908.13
578.72	1217.08
578.88	1193.67
579.04	908.13
579.21	713.86
579.37	587.47
579.53	538.32
579.69	545.34
579.85	624.92
580.01	617.90
580.17	631.94
580.33	578.11
580.49	510.24
580.65	535.98
580.82	423.64
580.98	388.53
581.14	477.47
581.30	573.43
581.46	421.30
581.62	578.11
581.78	505.56
581.94	564.07
582.10	603.86
582.26	571.09
582.42	575.77
582.58	571.09
582.74	566.41
582.90	585.13
583.06	636.63
583.22	528.96
583.38	613.22
583.54	650.67
583.70	699.82
583.86	681.10
584.02	634.29
584.18	594.50
584.34	552.37
584.50	615.56
584.66	627.26
584.82	671.73
584.98	552.37
585.14	573.43
585.30	510.24
585.46	521.94
585.62	568.75
585.78	505.56
585.94	482.15
586.10	603.86
586.26	615.56
586.42	723.23
586.58	791.10
586.74	788.76
586.90	933.87
587.06	905.79
587.22	870.68
587.38	891.74
587.54	760.67
587.70	779.40
587.86	667.05
588.02	615.56
588.18	545.34
588.34	512.58
588.49	428.32
588.65	393.21
588.81	383.85
588.97	423.64
589.13	428.32
589.29	486.83
589.45	468.11
589.61	500.87
589.77	521.94
589.93	381.51
590.08	421.30
590.24	430.66
590.40	505.56
590.56	580.45
590.72	397.89
590.88	355.76
591.04	519.60
591.20	503.22
591.35	505.56
591.51	470.45
591.67	526.62
591.83	447.04
591.99	592.16
592.15	538.32
592.31	641.31
592.46	606.20
592.62	699.82
592.78	741.95
592.94	713.86
593.10	674.07
593.26	657.69
593.41	608.54
593.57	519.60
593.73	589.82
593.89	540.66
594.05	505.56
594.20	458.74
594.36	444.70
594.52	423.64
594.68	430.66
594.84	397.89
594.99	465.77
595.15	351.08
595.31	390.87
595.47	433.00
595.62	365.12
595.78	320.65
595.94	433.00
596.10	322.99
596.25	447.04
596.41	358.10
596.57	346.40
596.73	320.65
596.88	404.91
597.04	388.53
597.20	379.17
597.36	355.76
597.51	365.12
597.67	407.25
597.83	313.63
597.99	477.47
598.14	447.04
598.30	503.22
598.46	489.17
598.61	566.41
598.77	521.94
598.93	554.71
599.09	510.24
599.24	510.24
599.40	587.47
599.56	472.79
599.71	519.60
599.87	409.59
600.03	526.62
600.18	404.91
600.34	402.57
600.50	430.66
600.65	433.00
600.81	418.96
600.97	315.97
601.12	271.50
601.28	421.30
601.44	365.12
601.59	369.80
601.75	348.74
601.91	372.15
602.06	332.36
602.22	402.57
602.37	330.02
602.53	334.70
602.69	332.36
602.84	318.31
603.00	266.82
603.16	318.31
603.31	362.78
603.47	308.95
603.62	337.04
603.78	367.46
603.94	318.31
604.09	369.80
604.25	442.36
604.40	332.36
604.56	276.18
604.71	346.40
604.87	311.29
605.03	425.98
605.18	374.49
605.34	374.49
605.49	442.36
605.65	355.76
605.80	320.65
605.96	428.32
606.12	435.34
606.27	425.98
606.43	390.87
606.58	421.30
606.74	339.38
606.89	402.57
607.05	435.34
607.20	437.68
607.36	428.32
607.51	451.72
607.67	505.56
607.82	535.98
607.98	601.52
608.13	573.43
608.29	587.47
608.44	603.86
608.60	629.60
608.75	681.10
608.91	849.61
609.06	830.89
609.22	877.70
609.37	971.32
609.53	1050.90
609.68	1270.91
609.84	1203.04
609.99	1355.17
610.15	1724.97
610.30	2115.84
610.46	2597.99
610.61	3206.53
610.76	4042.11
