SpectraSuite Data File
++++++++++++++++++++++++++++++++++++
Date: Fri Oct 04 11:42:24 GMT-05:00 2013
User: price-jones
Dark Spectrum Present: No
Reference Spectrum Present: No
Number of Sampled Component Spectra: 1
Spectrometers: USB2+H05261
Integration Time (usec): 100000 (USB2+H05261)
Spectra Averaged: 1 (USB2+H05261)
Boxcar Smoothing: 0 (USB2+H05261)
Correct for Electrical Dark: No (USB2+H05261)
Strobe/Lamp Enabled: No (USB2+H05261)
Correct for Detector Non-linearity: No (USB2+H05261)
Correct for Stray Light: No (USB2+H05261)
Number of Pixels in Processed Spectrum: 2048
>>>>>Begin Processed Spectral Data<<<<<
365.73	93.62
365.92	93.62
366.12	93.62
366.32	0.00
366.52	0.00
366.72	0.00
366.91	0.00
367.11	0.00
367.31	0.00
367.51	0.00
367.70	0.00
367.90	0.00
368.10	0.00
368.30	0.00
368.49	0.00
368.69	0.00
368.89	0.00
369.09	0.00
369.28	0.00
369.48	0.00
369.68	0.00
369.87	0.00
370.07	0.00
370.27	25.75
370.47	60.85
370.66	0.00
370.86	37.45
371.06	93.62
371.25	117.03
371.45	84.26
371.65	84.26
371.84	91.28
372.04	140.43
372.24	23.41
372.44	72.56
372.63	135.75
372.83	107.66
373.03	77.24
373.22	100.64
373.42	79.58
373.62	91.28
373.81	93.62
374.01	100.64
374.21	140.43
374.40	53.83
374.60	128.73
374.79	95.96
374.99	70.22
375.19	70.22
375.38	91.28
375.58	112.35
375.78	154.48
375.97	154.48
376.17	173.20
376.37	79.58
376.56	138.09
376.76	110.01
376.95	60.85
377.15	135.75
377.35	124.05
377.54	126.39
377.74	124.05
377.93	74.90
378.13	119.37
378.33	114.69
378.52	147.45
378.72	124.05
378.91	67.88
379.11	28.09
379.31	105.32
379.50	79.58
379.70	152.13
379.89	147.45
380.09	124.05
380.28	65.54
380.48	56.17
380.68	98.30
380.87	77.24
381.07	100.64
381.26	173.20
381.46	88.94
381.65	173.20
381.85	37.45
382.04	102.98
382.24	135.75
382.43	74.90
382.63	124.05
382.83	44.47
383.02	44.47
383.22	126.39
383.41	65.54
383.61	88.94
383.80	102.98
384.00	121.71
384.19	166.18
384.39	60.85
384.58	51.49
384.78	2.34
384.97	133.41
385.17	107.66
385.36	177.88
385.56	63.19
385.75	156.82
385.95	72.56
386.14	107.66
386.34	114.69
386.53	124.05
386.72	131.07
386.92	152.13
387.11	126.39
387.31	135.75
387.50	51.49
387.70	72.56
387.89	37.45
388.09	128.73
388.28	117.03
388.48	81.92
388.67	175.54
388.86	126.39
389.06	98.30
389.25	110.01
389.45	135.75
389.64	102.98
389.84	184.90
390.03	149.79
390.22	72.56
390.42	138.09
390.61	117.03
390.81	133.41
391.00	224.69
391.19	194.26
391.39	175.54
391.58	86.60
391.78	119.37
391.97	133.41
392.16	67.88
392.36	102.98
392.55	93.62
392.75	100.64
392.94	91.28
393.13	138.09
393.33	152.13
393.52	98.30
393.71	102.98
393.91	156.82
394.10	42.13
394.29	44.47
394.49	79.58
394.68	166.18
394.88	70.22
395.07	112.35
395.26	140.43
395.46	102.98
395.65	177.88
395.84	142.77
396.04	222.35
396.23	114.69
396.42	119.37
396.62	138.09
396.81	100.64
397.00	56.17
397.19	124.05
397.39	105.32
397.58	51.49
397.77	140.43
397.97	81.92
398.16	121.71
398.35	77.24
398.55	49.15
398.74	70.22
398.93	119.37
399.12	117.03
399.32	168.52
399.51	180.22
399.70	173.20
399.90	145.11
400.09	126.39
400.28	215.33
400.47	81.92
400.67	131.07
400.86	93.62
401.05	173.20
401.24	102.98
401.44	110.01
401.63	98.30
401.82	145.11
402.01	112.35
402.21	135.75
402.40	88.94
402.59	121.71
402.78	88.94
402.97	119.37
403.17	166.18
403.36	149.79
403.55	161.50
403.74	140.43
403.93	107.66
404.13	133.41
404.32	168.52
404.51	252.78
404.70	227.03
404.89	187.24
405.09	159.16
405.28	133.41
405.47	86.60
405.66	184.90
405.85	126.39
406.05	126.39
406.24	131.07
406.43	72.56
406.62	105.32
406.81	196.60
407.00	161.50
407.20	107.66
407.39	93.62
407.58	177.88
407.77	152.13
407.96	189.58
408.15	180.22
408.34	86.60
408.54	135.75
408.73	93.62
408.92	95.96
409.11	114.69
409.30	149.79
409.49	72.56
409.68	128.73
409.87	154.48
410.07	95.96
410.26	227.03
410.45	182.56
410.64	110.01
410.83	131.07
411.02	175.54
411.21	198.95
411.40	135.75
411.59	163.84
411.78	77.24
411.98	107.66
412.17	117.03
412.36	84.26
412.55	107.66
412.74	163.84
412.93	154.48
413.12	189.58
413.31	84.26
413.50	131.07
413.69	77.24
413.88	231.71
414.07	119.37
414.26	149.79
414.45	142.77
414.64	117.03
414.83	77.24
415.02	119.37
415.22	159.16
415.41	203.63
415.60	95.96
415.79	100.64
415.98	189.58
416.17	128.73
416.36	163.84
416.55	175.54
416.74	182.56
416.93	177.88
417.12	119.37
417.31	145.11
417.50	177.88
417.69	241.08
417.88	147.45
418.07	114.69
418.26	140.43
418.45	180.22
418.64	149.79
418.83	154.48
419.02	138.09
419.21	102.98
419.39	184.90
419.58	121.71
419.77	91.28
419.96	168.52
420.15	180.22
420.34	140.43
420.53	100.64
420.72	189.58
420.91	135.75
421.10	107.66
421.29	145.11
421.48	121.71
421.67	159.16
421.86	203.63
422.05	152.13
422.24	112.35
422.43	168.52
422.61	152.13
422.80	159.16
422.99	170.86
423.18	145.11
423.37	142.77
423.56	177.88
423.75	131.07
423.94	149.79
424.13	168.52
424.32	95.96
424.50	124.05
424.69	154.48
424.88	154.48
425.07	177.88
425.26	126.39
425.45	117.03
425.64	189.58
425.83	161.50
426.01	220.01
426.20	138.09
426.39	140.43
426.58	100.64
426.77	156.82
426.96	257.46
427.15	110.01
427.33	133.41
427.52	124.05
427.71	126.39
427.90	140.43
428.09	173.20
428.28	77.24
428.46	177.88
428.65	126.39
428.84	126.39
429.03	175.54
429.22	79.58
429.40	187.24
429.59	187.24
429.78	196.60
429.97	215.33
430.16	131.07
430.34	121.71
430.53	156.82
430.72	133.41
430.91	203.63
431.10	138.09
431.28	175.54
431.47	149.79
431.66	135.75
431.85	114.69
432.03	177.88
432.22	205.97
432.41	138.09
432.60	168.52
432.79	215.33
432.97	138.09
433.16	154.48
433.35	152.13
433.54	100.64
433.72	79.58
433.91	135.75
434.10	114.69
434.28	138.09
434.47	140.43
434.66	215.33
434.85	102.98
435.03	276.18
435.22	524.28
435.41	990.05
435.59	1034.52
435.78	784.08
435.97	475.13
436.16	280.86
436.34	203.63
436.53	196.60
436.72	241.08
436.90	138.09
437.09	175.54
437.28	142.77
437.46	121.71
437.65	119.37
437.84	149.79
438.02	175.54
438.21	138.09
438.40	250.44
438.58	152.13
438.77	166.18
438.96	133.41
439.14	88.94
439.33	154.48
439.52	86.60
439.70	142.77
439.89	119.37
440.08	121.71
440.26	154.48
440.45	159.16
440.63	102.98
440.82	138.09
441.01	177.88
441.19	128.73
441.38	131.07
441.57	184.90
441.75	222.35
441.94	224.69
442.12	140.43
442.31	175.54
442.50	126.39
442.68	140.43
442.87	215.33
443.05	149.79
443.24	154.48
443.43	168.52
443.61	184.90
443.80	126.39
443.98	173.20
444.17	154.48
444.35	229.37
444.54	112.35
444.73	119.37
444.91	152.13
445.10	215.33
445.28	243.42
445.47	145.11
445.65	189.58
445.84	198.95
446.02	241.08
446.21	142.77
446.39	163.84
446.58	173.20
446.77	147.45
446.95	203.63
447.14	252.78
447.32	159.16
447.51	149.79
447.69	154.48
447.88	205.97
448.06	175.54
448.25	210.65
448.43	175.54
448.62	119.37
448.80	110.01
448.99	156.82
449.17	196.60
449.36	81.92
449.54	257.46
449.73	205.97
449.91	238.73
450.10	168.52
450.28	278.52
450.46	236.39
450.65	177.88
450.83	196.60
451.02	163.84
451.20	220.01
451.39	138.09
451.57	159.16
451.76	147.45
451.94	187.24
452.13	105.32
452.31	191.92
452.49	191.92
452.68	210.65
452.86	191.92
453.05	205.97
453.23	147.45
453.42	119.37
453.60	156.82
453.78	182.56
453.97	131.07
454.15	156.82
454.34	98.30
454.52	189.58
454.70	252.78
454.89	180.22
455.07	201.29
455.26	189.58
455.44	196.60
455.62	117.03
455.81	149.79
455.99	149.79
456.17	173.20
456.36	168.52
456.54	191.92
456.73	166.18
456.91	102.98
457.09	210.65
457.28	191.92
457.46	170.86
457.64	205.97
457.83	191.92
458.01	166.18
458.19	147.45
458.38	135.75
458.56	189.58
458.74	170.86
458.93	201.29
459.11	166.18
459.29	170.86
459.48	210.65
459.66	203.63
459.84	135.75
460.03	227.03
460.21	182.56
460.39	212.99
460.57	241.08
460.76	264.48
460.94	138.09
461.12	248.10
461.31	248.10
461.49	121.71
461.67	131.07
461.85	180.22
462.04	238.73
462.22	383.85
462.40	210.65
462.59	194.26
462.77	201.29
462.95	201.29
463.13	170.86
463.32	140.43
463.50	182.56
463.68	217.67
463.86	98.30
464.05	227.03
464.23	168.52
464.41	170.86
464.59	187.24
464.78	147.45
464.96	147.45
465.14	154.48
465.32	124.05
465.50	177.88
465.69	163.84
465.87	180.22
466.05	222.35
466.23	187.24
466.41	191.92
466.60	133.41
466.78	170.86
466.96	210.65
467.14	215.33
467.32	182.56
467.51	180.22
467.69	112.35
467.87	152.13
468.05	180.22
468.23	184.90
468.41	264.48
468.60	138.09
468.78	138.09
468.96	201.29
469.14	208.31
469.32	142.77
469.50	126.39
469.69	245.76
469.87	119.37
470.05	107.66
470.23	152.13
470.41	159.16
470.59	196.60
470.77	173.20
470.95	208.31
471.14	166.18
471.32	67.88
471.50	93.62
471.68	133.41
471.86	227.03
472.04	163.84
472.22	180.22
472.40	205.97
472.58	203.63
472.77	222.35
472.95	128.73
473.13	217.67
473.31	147.45
473.49	170.86
473.67	182.56
473.85	194.26
474.03	177.88
474.21	154.48
474.39	184.90
474.57	217.67
474.75	248.10
474.93	182.56
475.12	121.71
475.30	142.77
475.48	234.05
475.66	168.52
475.84	212.99
476.02	205.97
476.20	196.60
476.38	191.92
476.56	229.37
476.74	102.98
476.92	131.07
477.10	252.78
477.28	224.69
477.46	170.86
477.64	201.29
477.82	142.77
478.00	215.33
478.18	220.01
478.36	252.78
478.54	177.88
478.72	147.45
478.90	194.26
479.08	117.03
479.26	173.20
479.44	159.16
479.62	161.50
479.80	182.56
479.98	133.41
480.16	215.33
480.34	234.05
480.52	231.71
480.70	262.14
480.88	231.71
481.06	152.13
481.24	149.79
481.41	231.71
481.59	215.33
481.77	175.54
481.95	198.95
482.13	259.80
482.31	236.39
482.49	198.95
482.67	287.89
482.85	294.91
483.03	278.52
483.21	273.84
483.39	252.78
483.57	322.99
483.74	250.44
483.92	210.65
484.10	191.92
484.28	248.10
484.46	297.25
484.64	224.69
484.82	266.82
485.00	248.10
485.18	269.16
485.35	280.86
485.53	287.89
485.71	290.23
485.89	308.95
486.07	351.08
486.25	355.76
486.43	285.55
486.61	273.84
486.78	168.52
486.96	231.71
487.14	283.20
487.32	355.76
487.50	292.57
487.68	334.70
487.85	224.69
488.03	292.57
488.21	318.31
488.39	285.55
488.57	313.63
488.75	322.99
488.92	500.87
489.10	292.57
489.28	397.89
489.46	236.39
489.64	339.38
489.81	248.10
489.99	327.68
490.17	287.89
490.35	320.65
490.53	292.57
490.70	259.80
490.88	243.42
491.06	234.05
491.24	318.31
491.41	318.31
491.59	252.78
491.77	236.39
491.95	175.54
492.13	215.33
492.30	358.10
492.48	276.18
492.66	273.84
492.84	294.91
493.01	355.76
493.19	355.76
493.37	320.65
493.54	313.63
493.72	269.16
493.90	238.73
494.08	248.10
494.25	369.80
494.43	315.97
494.61	280.86
494.79	332.36
494.96	280.86
495.14	294.91
495.32	304.27
495.49	252.78
495.67	341.72
495.85	315.97
496.02	271.50
496.20	269.16
496.38	250.44
496.55	257.46
496.73	313.63
496.91	330.02
497.09	220.01
497.26	269.16
497.44	250.44
497.62	264.48
497.79	257.46
497.97	264.48
498.14	250.44
498.32	248.10
498.50	322.99
498.67	227.03
498.85	170.86
499.03	222.35
499.20	269.16
499.38	231.71
499.56	227.03
499.73	257.46
499.91	241.08
500.08	257.46
500.26	252.78
500.44	245.76
500.61	255.12
500.79	215.33
500.97	273.84
501.14	299.59
501.32	297.25
501.49	271.50
501.67	248.10
501.84	220.01
502.02	173.20
502.20	262.14
502.37	250.44
502.55	262.14
502.72	224.69
502.90	250.44
503.07	250.44
503.25	266.82
503.43	208.31
503.60	215.33
503.78	177.88
503.95	222.35
504.13	180.22
504.30	301.93
504.48	280.86
504.65	229.37
504.83	245.76
505.01	236.39
505.18	131.07
505.36	215.33
505.53	285.55
505.71	152.13
505.88	227.03
506.06	273.84
506.23	227.03
506.41	229.37
506.58	271.50
506.76	205.97
506.93	210.65
507.11	241.08
507.28	236.39
507.46	229.37
507.63	224.69
507.81	229.37
507.98	234.05
508.16	227.03
508.33	217.67
508.50	322.99
508.68	262.14
508.85	175.54
509.03	231.71
509.20	259.80
509.38	187.24
509.55	318.31
509.73	203.63
509.90	203.63
510.08	248.10
510.25	262.14
510.42	212.99
510.60	245.76
510.77	285.55
510.95	255.12
511.12	259.80
511.30	250.44
511.47	283.20
511.64	283.20
511.82	280.86
511.99	236.39
512.17	231.71
512.34	168.52
512.51	196.60
512.69	220.01
512.86	271.50
513.04	255.12
513.21	189.58
513.38	222.35
513.56	266.82
513.73	201.29
513.90	332.36
514.08	241.08
514.25	269.16
514.43	285.55
514.60	236.39
514.77	243.42
514.95	299.59
515.12	252.78
515.29	182.56
515.47	224.69
515.64	299.59
515.81	278.52
515.99	266.82
516.16	304.27
516.33	292.57
516.51	271.50
516.68	180.22
516.85	217.67
517.03	194.26
517.20	187.24
517.37	304.27
517.54	276.18
517.72	208.31
517.89	262.14
518.06	191.92
518.24	271.50
518.41	257.46
518.58	273.84
518.75	238.73
518.93	159.16
519.10	250.44
519.27	182.56
519.45	187.24
519.62	231.71
519.79	238.73
519.96	243.42
520.14	191.92
520.31	236.39
520.48	252.78
520.65	266.82
520.83	201.29
521.00	299.59
521.17	318.31
521.34	283.20
521.52	241.08
521.69	201.29
521.86	306.61
522.03	299.59
522.20	224.69
522.38	241.08
522.55	184.90
522.72	245.76
522.89	215.33
523.07	264.48
523.24	285.55
523.41	203.63
523.58	154.48
523.75	201.29
523.92	234.05
524.10	299.59
524.27	248.10
524.44	243.42
524.61	269.16
524.78	269.16
524.96	255.12
525.13	264.48
525.30	285.55
525.47	252.78
525.64	163.84
525.81	205.97
525.98	215.33
526.16	255.12
526.33	290.23
526.50	320.65
526.67	210.65
526.84	217.67
527.01	180.22
527.18	320.65
527.36	311.29
527.53	262.14
527.70	287.89
527.87	252.78
528.04	234.05
528.21	196.60
528.38	191.92
528.55	301.93
528.72	264.48
528.89	313.63
529.07	198.95
529.24	231.71
529.41	290.23
529.58	292.57
529.75	280.86
529.92	243.42
530.09	271.50
530.26	229.37
530.43	283.20
530.60	287.89
530.77	301.93
530.94	322.99
531.11	313.63
531.28	196.60
531.46	227.03
531.63	241.08
531.80	280.86
531.97	220.01
532.14	243.42
532.31	266.82
532.48	283.20
532.65	266.82
532.82	294.91
532.99	351.08
533.16	334.70
533.33	379.17
533.50	280.86
533.67	332.36
533.84	269.16
534.01	292.57
534.18	299.59
534.35	238.73
534.52	308.95
534.69	269.16
534.86	245.76
535.03	269.16
535.20	283.20
535.37	381.51
535.54	255.12
535.71	294.91
535.88	306.61
536.05	285.55
536.22	311.29
536.38	304.27
536.55	365.12
536.72	264.48
536.89	271.50
537.06	348.74
537.23	374.49
537.40	404.91
537.57	346.40
537.74	423.64
537.91	447.04
538.08	360.44
538.25	428.32
538.42	390.87
538.59	423.64
538.75	447.04
538.92	470.45
539.09	477.47
539.26	447.04
539.43	402.57
539.60	589.82
539.77	568.75
539.94	561.73
540.11	547.69
540.28	688.12
540.44	688.12
540.61	622.58
540.78	692.80
540.95	767.70
541.12	1008.77
541.29	1078.99
541.46	1277.93
541.62	1165.59
541.79	1130.48
541.96	1188.99
542.13	1121.12
542.30	1107.07
542.47	1142.18
542.63	1137.50
542.80	1053.24
542.97	1095.37
543.14	1086.01
543.31	1043.88
543.48	1067.28
543.64	1071.97
543.81	1167.93
543.98	1006.43
544.15	1137.50
544.32	1027.50
544.48	1046.22
544.65	1034.52
544.82	919.83
544.99	1074.31
545.16	1027.50
545.32	1029.84
545.49	1504.96
545.66	2324.15
545.83	2850.77
546.00	2392.03
546.16	1724.97
546.33	1284.95
546.50	1055.58
546.67	805.14
546.83	793.44
547.00	676.41
547.17	681.10
547.34	624.92
547.50	732.59
547.67	734.93
547.84	653.01
548.00	667.05
548.17	641.31
548.34	650.67
548.51	592.16
548.67	660.03
548.84	669.39
549.01	533.64
549.18	620.24
549.34	526.62
549.51	617.90
549.68	624.92
549.84	566.41
550.01	477.47
550.18	578.11
550.34	559.39
550.51	498.53
550.68	550.03
550.84	472.79
551.01	454.06
551.18	463.43
551.34	517.26
551.51	458.74
551.68	433.00
551.84	344.06
552.01	397.89
552.18	477.47
552.34	411.93
552.51	376.83
552.68	367.46
552.84	334.70
553.01	400.23
553.18	461.09
553.34	404.91
553.51	334.70
553.67	381.51
553.84	360.44
554.01	315.97
554.17	351.08
554.34	306.61
554.51	372.15
554.67	294.91
554.84	358.10
555.00	229.37
555.17	313.63
555.33	332.36
555.50	297.25
555.67	341.72
555.83	341.72
556.00	269.16
556.16	418.96
556.33	306.61
556.50	287.89
556.66	187.24
556.83	285.55
556.99	241.08
557.16	231.71
557.32	255.12
557.49	257.46
557.65	262.14
557.82	304.27
557.98	278.52
558.15	191.92
558.32	292.57
558.48	315.97
558.65	184.90
558.81	299.59
558.98	308.95
559.14	259.80
559.31	266.82
559.47	280.86
559.64	318.31
559.80	269.16
559.97	257.46
560.13	191.92
560.30	210.65
560.46	262.14
560.63	264.48
560.79	259.80
560.96	325.33
561.12	245.76
561.29	222.35
561.45	273.84
561.61	273.84
561.78	220.01
561.94	248.10
562.11	250.44
562.27	210.65
562.44	222.35
562.60	346.40
562.77	194.26
562.93	376.83
563.10	339.38
563.26	257.46
563.42	348.74
563.59	224.69
563.75	217.67
563.92	248.10
564.08	234.05
564.24	168.52
564.41	210.65
564.57	245.76
564.74	243.42
564.90	266.82
565.07	231.71
565.23	224.69
565.39	163.84
565.56	248.10
565.72	273.84
565.88	285.55
566.05	198.95
566.21	220.01
566.38	327.68
566.54	266.82
566.70	271.50
566.87	278.52
567.03	241.08
567.19	154.48
567.36	315.97
567.52	196.60
567.68	262.14
567.85	255.12
568.01	271.50
568.17	217.67
568.34	220.01
568.50	236.39
568.66	231.71
568.83	306.61
568.99	196.60
569.15	285.55
569.32	248.10
569.48	299.59
569.64	238.73
569.81	205.97
569.97	301.93
570.13	231.71
570.30	269.16
570.46	208.31
570.62	184.90
570.78	201.29
570.95	306.61
571.11	322.99
571.27	280.86
571.43	198.95
571.60	299.59
571.76	227.03
571.92	252.78
572.09	280.86
572.25	203.63
572.41	255.12
572.57	276.18
572.74	290.23
572.90	203.63
573.06	318.31
573.22	285.55
573.38	290.23
573.55	252.78
573.71	292.57
573.87	344.06
574.03	159.16
574.20	220.01
574.36	238.73
574.52	285.55
574.68	220.01
574.84	234.05
575.01	252.78
575.17	245.76
575.33	290.23
575.49	362.78
575.65	264.48
575.82	222.35
575.98	325.33
576.14	308.95
576.30	393.21
576.46	489.17
576.62	704.50
576.79	755.99
576.95	573.43
577.11	409.59
577.27	348.74
577.43	313.63
577.59	294.91
577.75	264.48
577.92	250.44
578.08	313.63
578.24	348.74
578.40	285.55
578.56	491.51
578.72	683.44
578.88	606.20
579.04	554.71
579.21	484.49
579.37	444.70
579.53	257.46
579.69	423.64
579.85	301.93
580.01	362.78
580.17	355.76
580.33	423.64
580.49	386.19
580.65	294.91
580.82	306.61
580.98	287.89
581.14	322.99
581.30	400.23
581.46	383.85
581.62	367.46
581.78	334.70
581.94	367.46
582.10	339.38
582.26	372.15
582.42	369.80
582.58	437.68
582.74	337.04
582.90	430.66
583.06	440.02
583.22	388.53
583.38	388.53
583.54	397.89
583.70	423.64
583.86	379.17
584.02	404.91
584.18	489.17
584.34	374.49
584.50	409.59
584.66	346.40
584.82	381.51
584.98	414.27
585.14	330.02
585.30	425.98
585.46	351.08
585.62	353.42
585.78	414.27
585.94	318.31
586.10	383.85
586.26	315.97
586.42	463.43
586.58	449.38
586.74	465.77
586.90	580.45
587.06	533.64
587.22	575.77
587.38	505.56
587.54	507.90
587.70	472.79
587.86	437.68
588.02	390.87
588.18	332.36
588.34	428.32
588.49	320.65
588.65	304.27
588.81	351.08
588.97	299.59
589.13	290.23
589.29	257.46
589.45	301.93
589.61	287.89
589.77	339.38
589.93	297.25
590.08	301.93
590.24	299.59
590.40	334.70
590.56	374.49
590.72	320.65
590.88	325.33
591.04	365.12
591.20	330.02
591.35	358.10
591.51	362.78
591.67	355.76
591.83	379.17
591.99	407.25
592.15	440.02
592.31	428.32
592.46	395.55
592.62	477.47
592.78	454.06
592.94	461.09
593.10	440.02
593.26	374.49
593.41	428.32
593.57	353.42
593.73	355.76
593.89	379.17
594.05	318.31
594.20	393.21
594.36	444.70
594.52	290.23
594.68	212.99
594.84	360.44
594.99	348.74
595.15	313.63
595.31	292.57
595.47	327.68
595.62	322.99
595.78	311.29
595.94	351.08
596.10	369.80
596.25	285.55
596.41	325.33
596.57	264.48
596.73	346.40
596.88	283.20
597.04	330.02
597.20	271.50
597.36	320.65
597.51	245.76
597.67	245.76
597.83	283.20
597.99	259.80
598.14	287.89
598.30	381.51
598.46	243.42
598.61	308.95
598.77	327.68
598.93	421.30
599.09	353.42
599.24	318.31
599.40	337.04
599.56	308.95
599.71	386.19
599.87	297.25
600.03	266.82
600.18	290.23
600.34	337.04
600.50	201.29
600.65	330.02
600.81	283.20
600.97	229.37
601.12	304.27
601.28	266.82
601.44	325.33
601.59	290.23
601.75	269.16
601.91	241.08
602.06	301.93
602.22	330.02
602.37	264.48
602.53	290.23
602.69	294.91
602.84	203.63
603.00	341.72
603.16	250.44
603.31	269.16
603.47	217.67
603.62	248.10
603.78	259.80
603.94	313.63
604.09	222.35
604.25	273.84
604.40	386.19
604.56	325.33
604.71	301.93
604.87	311.29
605.03	177.88
605.18	273.84
605.34	301.93
605.49	262.14
605.65	241.08
605.80	227.03
605.96	238.73
606.12	376.83
606.27	271.50
606.43	229.37
606.58	318.31
606.74	297.25
606.89	308.95
607.05	311.29
607.20	346.40
607.36	332.36
607.51	362.78
607.67	341.72
607.82	280.86
607.98	346.40
608.13	276.18
608.29	411.93
608.44	379.17
608.60	433.00
608.75	430.66
608.91	444.70
609.06	566.41
609.22	634.29
609.37	535.98
609.53	608.54
609.68	521.94
609.84	706.84
609.99	716.20
610.15	898.77
610.30	1170.27
610.46	1336.45
610.61	1572.84
610.76	1914.56
610.92	2310.11
611.07	2640.12
611.23	2609.70
