SpectraSuite Data File
++++++++++++++++++++++++++++++++++++
Date: Fri Oct 04 11:41:45 GMT-05:00 2013
User: price-jones
Dark Spectrum Present: No
Reference Spectrum Present: No
Number of Sampled Component Spectra: 1
Spectrometers: USB2+H05261
Integration Time (usec): 100000 (USB2+H05261)
Spectra Averaged: 1 (USB2+H05261)
Boxcar Smoothing: 0 (USB2+H05261)
Correct for Electrical Dark: No (USB2+H05261)
Strobe/Lamp Enabled: No (USB2+H05261)
Correct for Detector Non-linearity: No (USB2+H05261)
Correct for Stray Light: No (USB2+H05261)
Number of Pixels in Processed Spectrum: 2048
>>>>>Begin Processed Spectral Data<<<<<
365.73	30.43
365.92	30.43
366.12	30.43
366.32	0.00
366.52	0.00
366.72	0.00
366.91	0.00
367.11	11.70
367.31	0.00
367.51	0.00
367.70	0.00
367.90	0.00
368.10	0.00
368.30	0.00
368.49	0.00
368.69	0.00
368.89	0.00
369.09	0.00
369.28	0.00
369.48	0.00
369.68	0.00
369.87	0.00
370.07	0.00
370.27	30.43
370.47	0.00
370.66	0.00
370.86	58.51
371.06	60.85
371.25	201.29
371.45	51.49
371.65	86.60
371.84	49.15
372.04	60.85
372.24	112.35
372.44	175.54
372.63	74.90
372.83	173.20
373.03	39.79
373.22	102.98
373.42	128.73
373.62	105.32
373.81	135.75
374.01	88.94
374.21	142.77
374.40	205.97
374.60	117.03
374.79	138.09
374.99	98.30
375.19	131.07
375.38	217.67
375.58	147.45
375.78	128.73
375.97	191.92
376.17	98.30
376.37	102.98
376.56	128.73
376.76	93.62
376.95	140.43
377.15	140.43
377.35	124.05
377.54	135.75
377.74	142.77
377.93	163.84
378.13	91.28
378.33	135.75
378.52	140.43
378.72	187.24
378.91	126.39
379.11	88.94
379.31	166.18
379.50	110.01
379.70	152.13
379.89	159.16
380.09	135.75
380.28	112.35
380.48	117.03
380.68	124.05
380.87	60.85
381.07	42.13
381.26	180.22
381.46	156.82
381.65	67.88
381.85	119.37
382.04	133.41
382.24	121.71
382.43	126.39
382.63	100.64
382.83	152.13
383.02	95.96
383.22	145.11
383.41	107.66
383.61	131.07
383.80	110.01
384.00	114.69
384.19	133.41
384.39	95.96
384.58	119.37
384.78	114.69
384.97	91.28
385.17	163.84
385.36	105.32
385.56	205.97
385.75	100.64
385.95	121.71
386.14	159.16
386.34	175.54
386.53	156.82
386.72	28.09
386.92	110.01
387.11	147.45
387.31	117.03
387.50	229.37
387.70	30.43
387.89	107.66
388.09	65.54
388.28	124.05
388.48	98.30
388.67	105.32
388.86	70.22
389.06	161.50
389.25	124.05
389.45	117.03
389.64	98.30
389.84	46.81
390.03	117.03
390.22	152.13
390.42	105.32
390.61	107.66
390.81	161.50
391.00	117.03
391.19	156.82
391.39	77.24
391.58	105.32
391.78	114.69
391.97	98.30
392.16	124.05
392.36	124.05
392.55	138.09
392.75	135.75
392.94	128.73
393.13	70.22
393.33	124.05
393.52	119.37
393.71	177.88
393.91	182.56
394.10	149.79
394.29	184.90
394.49	147.45
394.68	72.56
394.88	154.48
395.07	131.07
395.26	124.05
395.46	56.17
395.65	227.03
395.84	100.64
396.04	198.95
396.23	149.79
396.42	77.24
396.62	98.30
396.81	117.03
397.00	67.88
397.19	131.07
397.39	175.54
397.58	149.79
397.77	238.73
397.97	194.26
398.16	203.63
398.35	135.75
398.55	126.39
398.74	166.18
398.93	140.43
399.12	133.41
399.32	121.71
399.51	72.56
399.70	152.13
399.90	161.50
400.09	156.82
400.28	159.16
400.47	175.54
400.67	182.56
400.86	163.84
401.05	173.20
401.24	135.75
401.44	182.56
401.63	142.77
401.82	205.97
402.01	187.24
402.21	119.37
402.40	175.54
402.59	56.17
402.78	161.50
402.97	175.54
403.17	229.37
403.36	205.97
403.55	264.48
403.74	554.71
403.93	1781.15
404.13	3908.69
404.32	4973.64
404.51	4287.86
404.70	2471.61
404.89	971.32
405.09	458.74
405.28	168.52
405.47	170.86
405.66	124.05
405.85	229.37
406.05	152.13
406.24	184.90
406.43	147.45
406.62	208.31
406.81	227.03
407.00	330.02
407.20	557.05
407.39	753.65
407.58	627.26
407.77	552.37
407.96	257.46
408.15	201.29
408.34	184.90
408.54	173.20
408.73	208.31
408.92	149.79
409.11	163.84
409.30	189.58
409.49	177.88
409.68	173.20
409.87	180.22
410.07	81.92
410.26	180.22
410.45	205.97
410.64	121.71
410.83	229.37
411.02	180.22
411.21	215.33
411.40	236.39
411.59	121.71
411.78	201.29
411.98	88.94
412.17	224.69
412.36	212.99
412.55	182.56
412.74	194.26
412.93	208.31
413.12	173.20
413.31	175.54
413.50	187.24
413.69	163.84
413.88	154.48
414.07	182.56
414.26	201.29
414.45	177.88
414.64	140.43
414.83	189.58
415.02	215.33
415.22	243.42
415.41	227.03
415.60	203.63
415.79	224.69
415.98	182.56
416.17	198.95
416.36	191.92
416.55	180.22
416.74	241.08
416.93	308.95
417.12	163.84
417.31	252.78
417.50	215.33
417.69	276.18
417.88	133.41
418.07	262.14
418.26	250.44
418.45	142.77
418.64	245.76
418.83	241.08
419.02	149.79
419.21	187.24
419.39	184.90
419.58	182.56
419.77	163.84
419.96	280.86
420.15	315.97
420.34	236.39
420.53	234.05
420.72	194.26
420.91	294.91
421.10	210.65
421.29	196.60
421.48	243.42
421.67	234.05
421.86	203.63
422.05	245.76
422.24	248.10
422.43	227.03
422.61	194.26
422.80	252.78
422.99	217.67
423.18	280.86
423.37	315.97
423.56	266.82
423.75	210.65
423.94	236.39
424.13	280.86
424.32	201.29
424.50	271.50
424.69	276.18
424.88	264.48
425.07	245.76
425.26	234.05
425.45	299.59
425.64	292.57
425.83	287.89
426.01	248.10
426.20	231.71
426.39	229.37
426.58	297.25
426.77	257.46
426.96	334.70
427.15	252.78
427.33	269.16
427.52	304.27
427.71	283.20
427.90	280.86
428.09	194.26
428.28	250.44
428.46	358.10
428.65	264.48
428.84	308.95
429.03	280.86
429.22	308.95
429.40	276.18
429.59	231.71
429.78	332.36
429.97	283.20
430.16	280.86
430.34	332.36
430.53	311.29
430.72	334.70
430.91	327.68
431.10	353.42
431.28	355.76
431.47	337.04
431.66	351.08
431.85	306.61
432.03	318.31
432.22	325.33
432.41	374.49
432.60	397.89
432.79	390.87
432.97	330.02
433.16	379.17
433.35	435.34
433.54	510.24
433.72	447.04
433.91	482.15
434.10	498.53
434.28	617.90
434.47	765.36
434.66	695.14
434.85	1006.43
435.03	2846.09
435.22	10707.95
435.41	22005.72
435.59	21921.46
435.78	13514.25
435.97	6820.32
436.16	2609.70
436.34	1027.50
436.53	683.44
436.72	477.47
436.90	449.38
437.09	313.63
437.28	372.15
437.46	449.38
437.65	409.59
437.84	393.21
438.02	437.68
438.21	304.27
438.40	292.57
438.58	311.29
438.77	355.76
438.96	404.91
439.14	400.23
439.33	330.02
439.52	397.89
439.70	330.02
439.89	430.66
440.08	351.08
440.26	332.36
440.45	322.99
440.63	418.96
440.82	404.91
441.01	362.78
441.19	379.17
441.38	379.17
441.57	369.80
441.75	374.49
441.94	344.06
442.12	374.49
442.31	372.15
442.50	386.19
442.68	355.76
442.87	334.70
443.05	348.74
443.24	369.80
443.43	468.11
443.61	425.98
443.80	369.80
443.98	325.33
444.17	308.95
444.35	407.25
444.54	390.87
444.73	315.97
444.91	386.19
445.10	411.93
445.28	388.53
445.47	369.80
445.65	367.46
445.84	353.42
446.02	388.53
446.21	369.80
446.39	414.27
446.58	372.15
446.77	351.08
446.95	341.72
447.14	301.93
447.32	407.25
447.51	358.10
447.69	355.76
447.88	395.55
448.06	404.91
448.25	374.49
448.43	334.70
448.62	369.80
448.80	353.42
448.99	341.72
449.17	320.65
449.36	348.74
449.54	409.59
449.73	381.51
449.91	341.72
450.10	437.68
450.28	437.68
450.46	454.06
450.65	404.91
450.83	301.93
451.02	351.08
451.20	327.68
451.39	376.83
451.57	315.97
451.76	372.15
451.94	318.31
452.13	442.36
452.31	374.49
452.49	365.12
452.68	348.74
452.86	341.72
453.05	517.26
453.23	388.53
453.42	266.82
453.60	407.25
453.78	397.89
453.97	337.04
454.15	348.74
454.34	346.40
454.52	381.51
454.70	374.49
454.89	355.76
455.07	355.76
455.26	376.83
455.44	456.40
455.62	397.89
455.81	362.78
455.99	393.21
456.17	383.85
456.36	301.93
456.54	346.40
456.73	322.99
456.91	367.46
457.09	411.93
457.28	421.30
457.46	376.83
457.64	397.89
457.83	435.34
458.01	407.25
458.19	346.40
458.38	301.93
458.56	337.04
458.74	404.91
458.93	285.55
459.11	367.46
459.29	381.51
459.48	353.42
459.66	390.87
459.84	414.27
460.03	430.66
460.21	430.66
460.39	355.76
460.57	327.68
460.76	344.06
460.94	400.23
461.12	341.72
461.31	365.12
461.49	400.23
461.67	362.78
461.85	390.87
462.04	353.42
462.22	477.47
462.40	313.63
462.59	358.10
462.77	306.61
462.95	390.87
463.13	337.04
463.32	344.06
463.50	397.89
463.68	299.59
463.86	437.68
464.05	346.40
464.23	407.25
464.41	449.38
464.59	383.85
464.78	388.53
464.96	280.86
465.14	374.49
465.32	322.99
465.50	290.23
465.69	390.87
465.87	332.36
466.05	337.04
466.23	315.97
466.41	358.10
466.60	428.32
466.78	325.33
466.96	447.04
467.14	388.53
467.32	346.40
467.51	358.10
467.69	381.51
467.87	374.49
468.05	388.53
468.23	353.42
468.41	264.48
468.60	381.51
468.78	334.70
468.96	313.63
469.14	334.70
469.32	318.31
469.50	276.18
469.69	407.25
469.87	315.97
470.05	390.87
470.23	337.04
470.41	280.86
470.59	266.82
470.77	301.93
470.95	351.08
471.14	442.36
471.32	407.25
471.50	334.70
471.68	367.46
471.86	325.33
472.04	297.25
472.22	372.15
472.40	308.95
472.58	369.80
472.77	327.68
472.95	386.19
473.13	418.96
473.31	365.12
473.49	294.91
473.67	325.33
473.85	437.68
474.03	318.31
474.21	299.59
474.39	383.85
474.57	407.25
474.75	397.89
474.93	313.63
475.12	400.23
475.30	386.19
475.48	311.29
475.66	388.53
475.84	341.72
476.02	365.12
476.20	276.18
476.38	390.87
476.56	407.25
476.74	299.59
476.92	290.23
477.10	325.33
477.28	322.99
477.46	360.44
477.64	372.15
477.82	372.15
478.00	372.15
478.18	339.38
478.36	330.02
478.54	400.23
478.72	348.74
478.90	428.32
479.08	409.59
479.26	456.40
479.44	456.40
479.62	433.00
479.80	440.02
479.98	493.85
480.16	526.62
480.34	435.34
480.52	503.22
480.70	519.60
480.88	505.56
481.06	507.90
481.24	580.45
481.41	643.65
481.59	674.07
481.77	657.69
481.95	599.18
482.13	777.06
482.31	788.76
482.49	798.12
482.67	938.55
482.85	1015.79
483.03	976.00
483.21	1109.41
483.39	1128.14
483.57	1151.54
483.74	1174.95
483.92	1320.06
484.10	1313.04
484.28	1502.62
484.46	1444.11
484.64	1638.38
484.82	1579.86
485.00	1619.65
485.18	1734.34
485.35	1907.54
485.53	1884.13
485.71	2054.99
485.89	2050.31
486.07	2162.66
486.25	2246.91
486.43	2328.83
486.61	2204.78
486.78	2251.60
486.96	2181.38
487.14	2251.60
487.32	2293.72
487.50	2111.16
487.68	2284.36
487.85	2165.00
488.03	2134.57
488.21	2125.21
488.39	2064.35
488.57	2120.53
488.75	1954.35
488.92	2101.80
489.10	1877.11
489.28	1863.07
489.46	1781.15
489.64	1706.25
489.81	1748.38
489.99	1757.74
490.17	1685.19
490.35	1736.68
490.53	1678.16
490.70	1739.02
490.88	1636.03
491.06	1703.91
491.24	1825.62
491.41	1874.77
491.59	1750.72
491.77	1619.65
491.95	1668.80
492.13	1593.90
492.30	1593.90
492.48	1423.05
492.66	1526.03
492.84	1434.75
493.01	1434.75
493.19	1404.32
493.37	1511.99
493.54	1383.26
493.72	1373.89
493.90	1472.20
494.08	1348.15
494.25	1341.13
494.43	1315.38
494.61	1287.29
494.79	1228.78
494.96	1247.51
495.14	1224.10
495.32	1114.10
495.49	1193.67
495.67	1212.40
495.85	1186.65
496.02	1172.61
496.20	1184.31
496.38	1121.12
496.55	1167.93
496.73	1086.01
496.91	1053.24
497.09	1114.10
497.26	976.00
497.44	1027.50
497.62	987.71
497.79	990.05
497.97	1048.56
498.14	929.19
498.32	959.62
498.50	945.58
498.67	858.98
498.85	823.87
499.03	791.10
499.20	915.15
499.38	875.36
499.56	809.83
499.73	866.00
499.91	791.10
500.08	816.85
500.26	723.23
500.44	753.65
500.61	655.35
500.79	697.48
500.97	655.35
501.14	711.52
501.32	723.23
501.49	650.67
501.67	657.69
501.84	641.31
502.02	638.97
502.20	627.26
502.37	622.58
502.55	557.05
502.72	531.30
502.90	564.07
503.07	571.09
503.25	601.52
503.43	535.98
503.60	479.81
503.78	454.06
503.95	425.98
504.13	461.09
504.30	514.92
504.48	528.96
504.65	510.24
504.83	524.28
505.01	496.19
505.18	397.89
505.36	456.40
505.53	388.53
505.71	435.34
505.88	449.38
506.06	477.47
506.23	325.33
506.41	372.15
506.58	451.72
506.76	402.57
506.93	339.38
507.11	409.59
507.28	290.23
507.46	463.43
507.63	355.76
507.81	383.85
507.98	362.78
508.16	397.89
508.33	355.76
508.50	454.06
508.68	433.00
508.85	423.64
509.03	416.62
509.20	414.27
509.38	425.98
509.55	447.04
509.73	369.80
509.90	416.62
510.08	369.80
510.25	379.17
510.42	369.80
510.60	388.53
510.77	395.55
510.95	388.53
511.12	386.19
511.30	372.15
511.47	346.40
511.64	355.76
511.82	327.68
511.99	278.52
512.17	409.59
512.34	327.68
512.51	440.02
512.69	369.80
512.86	355.76
513.04	428.32
513.21	458.74
513.38	381.51
513.56	365.12
513.73	379.17
513.90	341.72
514.08	360.44
514.25	355.76
514.43	358.10
514.60	299.59
514.77	411.93
514.95	262.14
515.12	276.18
515.29	320.65
515.47	360.44
515.64	402.57
515.81	390.87
515.99	418.96
516.16	404.91
516.33	367.46
516.51	358.10
516.68	332.36
516.85	318.31
517.03	299.59
517.20	381.51
517.37	386.19
517.54	355.76
517.72	346.40
517.89	262.14
518.06	285.55
518.24	332.36
518.41	348.74
518.58	290.23
518.75	355.76
518.93	327.68
519.10	313.63
519.27	301.93
519.45	355.76
519.62	374.49
519.79	372.15
519.96	325.33
520.14	294.91
520.31	372.15
520.48	308.95
520.65	280.86
520.83	437.68
521.00	297.25
521.17	308.95
521.34	353.42
521.52	290.23
521.69	306.61
521.86	273.84
522.03	409.59
522.20	365.12
522.38	238.73
522.55	322.99
522.72	374.49
522.89	346.40
523.07	407.25
523.24	306.61
523.41	360.44
523.58	318.31
523.75	362.78
523.92	327.68
524.10	341.72
524.27	346.40
524.44	365.12
524.61	325.33
524.78	330.02
524.96	362.78
525.13	306.61
525.30	367.46
525.47	374.49
525.64	304.27
525.81	402.57
525.98	374.49
526.16	301.93
526.33	320.65
526.50	318.31
526.67	276.18
526.84	315.97
527.01	313.63
527.18	346.40
527.36	451.72
527.53	425.98
527.70	444.70
527.87	332.36
528.04	461.09
528.21	351.08
528.38	262.14
528.55	374.49
528.72	463.43
528.89	374.49
529.07	379.17
529.24	402.57
529.41	447.04
529.58	346.40
529.75	411.93
529.92	493.85
530.09	437.68
530.26	447.04
530.43	451.72
530.60	423.64
530.77	369.80
530.94	505.56
531.11	517.26
531.28	514.92
531.46	376.83
531.63	449.38
531.80	580.45
531.97	578.11
532.14	580.45
532.31	732.59
532.48	840.25
532.65	983.02
532.82	1032.18
532.99	1191.33
533.16	1404.32
533.33	1364.53
533.50	1196.01
533.67	1067.28
533.84	971.32
534.01	880.04
534.18	784.08
534.35	802.80
534.52	840.25
534.69	905.79
534.86	905.79
535.03	964.30
535.20	947.92
535.37	938.55
535.54	1097.71
535.71	1111.75
535.88	1224.10
536.05	1184.31
536.22	1355.17
536.38	1387.94
536.55	1551.78
536.72	1792.85
536.89	1863.07
537.06	2059.67
537.23	2328.83
537.40	2431.82
537.57	2640.12
537.74	2771.19
537.91	2846.09
538.08	2979.50
538.25	2995.89
538.42	3030.99
538.59	3171.43
538.75	3281.43
538.92	3337.60
539.09	3880.61
539.26	4002.32
539.43	4587.45
539.60	5151.52
539.77	5689.84
539.94	6237.53
540.11	6930.33
540.28	7803.35
540.44	8545.30
540.61	9432.36
540.78	10611.99
540.95	13004.02
541.12	15440.51
541.29	17277.83
541.46	18010.42
541.62	17610.19
541.79	17008.67
541.96	15623.08
542.13	14508.98
542.30	13441.70
542.47	12910.40
542.63	12201.21
542.80	11873.54
542.97	11543.52
543.14	11531.82
543.31	11665.23
543.48	11737.79
543.64	12039.72
543.81	11925.03
543.98	12028.01
544.15	12222.28
544.32	12084.19
544.48	11910.99
544.65	11936.73
544.82	11992.90
544.99	12006.95
545.16	12098.23
545.32	13144.45
545.49	23192.37
545.66	42167.09
545.83	47309.25
546.00	39157.16
546.16	26686.79
546.33	20119.24
546.50	14974.75
546.67	11939.07
546.83	10698.59
547.00	10436.45
547.17	9851.31
547.34	9516.62
547.50	9104.68
547.67	8739.56
547.84	8351.03
548.00	7936.76
548.17	7744.83
548.34	7510.78
548.51	7485.03
548.67	7045.01
548.84	6565.20
549.01	6403.71
549.18	6099.44
549.34	5846.66
549.51	5598.56
549.68	5259.18
549.84	4961.94
550.01	4842.57
550.18	4940.87
550.34	4542.98
550.51	4287.86
550.68	4112.32
550.84	3927.42
551.01	3620.81
551.18	3534.21
551.34	3274.41
551.51	3274.41
551.68	3171.43
551.84	2897.58
552.01	2892.90
552.18	2883.54
552.34	2623.74
552.51	2469.27
552.68	2471.61
552.84	2448.20
553.01	2230.53
553.18	2244.57
553.34	2195.42
553.51	2026.90
553.67	2005.84
553.84	1893.49
554.01	1844.34
554.17	1713.27
554.34	1699.23
554.51	1549.43
554.67	1565.82
554.84	1420.71
555.00	1317.72
555.17	1303.68
555.33	1116.44
555.50	1172.61
555.67	1123.46
555.83	1020.47
556.00	985.37
556.16	1156.22
556.33	959.62
556.50	1060.26
556.66	910.47
556.83	905.79
556.99	870.68
557.16	819.19
557.32	793.44
557.49	847.27
557.65	816.85
557.82	709.18
557.98	751.31
558.15	744.29
558.32	751.31
558.48	800.46
558.65	730.25
558.81	695.14
558.98	688.12
559.14	603.86
559.31	699.82
559.47	643.65
559.64	629.60
559.80	592.16
559.97	620.24
560.13	564.07
560.30	624.92
560.46	620.24
560.63	636.63
560.79	664.71
560.96	580.45
561.12	580.45
561.29	655.35
561.45	559.39
561.61	709.18
561.78	648.33
561.94	613.22
562.11	547.69
562.27	585.13
562.44	606.20
562.60	631.94
562.77	622.58
562.93	674.07
563.10	554.71
563.26	498.53
563.42	620.24
563.59	535.98
563.75	545.34
563.92	564.07
564.08	561.73
564.24	489.17
564.41	573.43
564.57	505.56
564.74	512.58
564.90	491.51
565.07	552.37
565.23	589.82
565.39	550.03
565.56	514.92
565.72	472.79
565.88	561.73
566.05	533.64
566.21	447.04
566.38	512.58
566.54	507.90
566.70	491.51
566.87	475.13
567.03	521.94
567.19	491.51
567.36	479.81
567.52	545.34
567.68	486.83
567.85	564.07
568.01	449.38
568.17	533.64
568.34	545.34
568.50	552.37
568.66	503.22
568.83	489.17
568.99	498.53
569.15	524.28
569.32	496.19
569.48	484.49
569.64	528.96
569.81	355.76
569.97	437.68
570.13	407.25
570.30	400.23
570.46	421.30
570.62	404.91
570.78	404.91
570.95	379.17
571.11	374.49
571.27	393.21
571.43	271.50
571.60	428.32
571.76	351.08
571.92	390.87
572.09	381.51
572.25	334.70
572.41	451.72
572.57	461.09
572.74	447.04
572.90	423.64
573.06	383.85
573.22	376.83
573.38	400.23
573.55	423.64
573.71	337.04
573.87	423.64
574.03	365.12
574.20	386.19
574.36	465.77
574.52	421.30
574.68	425.98
574.84	433.00
575.01	512.58
575.17	531.30
575.33	444.70
575.49	655.35
575.65	627.26
575.82	596.84
575.98	704.50
576.14	725.57
576.30	1612.63
576.46	5217.05
576.62	7744.83
576.79	8304.22
576.95	5673.46
577.11	3854.86
577.27	2705.66
577.43	1923.92
577.59	1242.82
577.75	1078.99
577.92	994.73
578.08	1013.45
578.24	987.71
578.40	1748.38
578.56	4809.80
578.72	7286.09
578.88	7957.82
579.04	5645.37
579.21	3934.44
579.37	2937.37
579.53	2289.04
579.69	2368.62
579.85	2815.66
580.01	3155.04
580.17	2981.84
580.33	2583.95
580.49	2284.36
580.65	2064.35
580.82	1884.13
580.98	1771.79
581.14	1923.92
581.30	2033.93
581.46	2099.46
581.62	2277.34
581.78	2499.69
581.94	2691.62
582.10	2827.37
582.26	2864.82
582.42	2904.60
582.58	3009.93
582.74	3021.63
582.90	3239.30
583.06	3129.30
583.22	3227.60
583.38	3229.94
583.54	3187.81
583.70	3033.33
583.86	3169.09
584.02	3000.57
584.18	2853.11
584.34	2939.71
584.50	2869.50
584.66	2810.98
584.82	2724.38
584.98	2771.19
585.14	2647.15
585.30	2686.94
585.46	2672.89
585.62	2654.17
585.78	2675.23
585.94	2691.62
586.10	2661.19
586.26	2764.17
586.42	3218.24
586.58	3798.69
586.74	4727.88
586.90	5504.94
587.06	5907.51
587.22	5921.56
587.38	5205.35
587.54	4397.87
587.70	3850.18
587.86	3171.43
588.02	2920.99
588.18	2523.10
588.34	2272.66
588.49	2071.37
588.65	2017.54
588.81	1863.07
588.97	1891.15
589.13	1923.92
589.29	1769.44
589.45	1884.13
589.61	1729.66
589.77	1799.87
589.93	1818.60
590.08	1858.39
590.24	1874.77
590.40	1870.09
590.56	1949.67
590.72	2059.67
590.88	2069.03
591.04	2099.46
591.20	2211.81
591.35	2242.23
591.51	2480.97
591.67	2471.61
591.83	2586.29
591.99	2829.71
592.15	3258.03
592.31	3391.44
592.46	3829.12
592.62	4065.51
592.78	4121.68
592.94	4376.80
593.10	4170.83
593.26	3899.33
593.41	3602.08
593.57	3339.94
593.73	2913.97
593.89	2654.17
594.05	2349.90
594.20	2073.71
594.36	2052.65
594.52	1813.92
594.68	1734.34
594.84	1781.15
594.99	1696.89
595.15	1715.61
595.31	1605.61
595.47	1598.59
595.62	1523.69
595.78	1586.88
595.94	1474.54
596.10	1638.38
596.25	1624.33
596.41	1652.42
596.57	1591.56
596.73	1551.78
596.88	1584.54
597.04	1636.03
597.20	1544.75
597.36	1582.20
597.51	1671.14
597.67	1750.72
597.83	1762.42
597.99	1884.13
598.14	2019.88
598.30	2076.06
598.46	2277.34
598.61	2436.50
598.77	2567.57
598.93	2487.99
599.09	2574.59
599.24	2614.38
599.40	2516.08
599.56	2541.82
599.71	2312.45
599.87	2270.32
600.03	2066.69
600.18	1970.73
600.34	1970.73
600.50	1792.85
600.65	1654.76
600.81	1568.16
600.97	1458.15
601.12	1401.98
601.28	1406.66
601.44	1299.00
601.59	1207.72
601.75	1245.16
601.91	1172.61
602.06	1088.35
602.22	1224.10
602.37	1123.46
602.53	1107.07
602.69	1074.31
602.84	987.71
603.00	1125.80
603.16	1083.67
603.31	1153.88
603.47	1132.82
603.62	1181.97
603.78	1186.65
603.94	1228.78
604.09	1212.40
604.25	1203.04
604.40	1186.65
604.56	1310.70
604.71	1247.51
604.87	1254.53
605.03	1343.47
605.18	1362.19
605.34	1409.00
605.49	1406.66
605.65	1453.47
605.80	1493.26
605.96	1563.48
606.12	1535.39
