SpectraSuite Data File
++++++++++++++++++++++++++++++++++++
Date: Fri Oct 04 11:41:55 GMT-05:00 2013
User: price-jones
Dark Spectrum Present: No
Reference Spectrum Present: No
Number of Sampled Component Spectra: 1
Spectrometers: USB2+H05261
Integration Time (usec): 100000 (USB2+H05261)
Spectra Averaged: 1 (USB2+H05261)
Boxcar Smoothing: 0 (USB2+H05261)
Correct for Electrical Dark: No (USB2+H05261)
Strobe/Lamp Enabled: No (USB2+H05261)
Correct for Detector Non-linearity: No (USB2+H05261)
Correct for Stray Light: No (USB2+H05261)
Number of Pixels in Processed Spectrum: 2048
>>>>>Begin Processed Spectral Data<<<<<
365.73	39.79
365.92	39.79
366.12	39.79
366.32	0.00
366.52	0.00
366.72	0.00
366.91	0.00
367.11	0.00
367.31	0.00
367.51	0.00
367.70	0.00
367.90	0.00
368.10	0.00
368.30	0.00
368.49	0.00
368.69	2.34
368.89	0.00
369.09	0.00
369.28	0.00
369.48	0.00
369.68	0.00
369.87	9.36
370.07	0.00
370.27	37.45
370.47	11.70
370.66	0.00
370.86	42.13
371.06	133.41
371.25	74.90
371.45	4.68
371.65	114.69
371.84	0.00
372.04	93.62
372.24	114.69
372.44	102.98
372.63	58.51
372.83	107.66
373.03	114.69
373.22	86.60
373.42	124.05
373.62	131.07
373.81	72.56
374.01	126.39
374.21	198.95
374.40	53.83
374.60	215.33
374.79	121.71
374.99	168.52
375.19	161.50
375.38	142.77
375.58	79.58
375.78	138.09
375.97	91.28
376.17	177.88
376.37	149.79
376.56	102.98
376.76	119.37
376.95	128.73
377.15	161.50
377.35	241.08
377.54	100.64
377.74	86.60
377.93	170.86
378.13	201.29
378.33	124.05
378.52	72.56
378.72	231.71
378.91	159.16
379.11	257.46
379.31	107.66
379.50	124.05
379.70	166.18
379.89	152.13
380.09	180.22
380.28	91.28
380.48	112.35
380.68	159.16
380.87	135.75
381.07	187.24
381.26	187.24
381.46	131.07
381.65	105.32
381.85	112.35
382.04	98.30
382.24	112.35
382.43	81.92
382.63	112.35
382.83	135.75
383.02	161.50
383.22	147.45
383.41	105.32
383.61	105.32
383.80	117.03
384.00	145.11
384.19	112.35
384.39	98.30
384.58	142.77
384.78	25.75
384.97	161.50
385.17	121.71
385.36	163.84
385.56	138.09
385.75	98.30
385.95	105.32
386.14	241.08
386.34	23.41
386.53	119.37
386.72	114.69
386.92	95.96
387.11	170.86
387.31	46.81
387.50	107.66
387.70	161.50
387.89	154.48
388.09	166.18
388.28	121.71
388.48	88.94
388.67	224.69
388.86	147.45
389.06	93.62
389.25	107.66
389.45	170.86
389.64	135.75
389.84	182.56
390.03	145.11
390.22	135.75
390.42	128.73
390.61	117.03
390.81	133.41
391.00	117.03
391.19	152.13
391.39	170.86
391.58	128.73
391.78	93.62
391.97	170.86
392.16	63.19
392.36	229.37
392.55	173.20
392.75	133.41
392.94	145.11
393.13	189.58
393.33	147.45
393.52	131.07
393.71	227.03
393.91	91.28
394.10	107.66
394.29	128.73
394.49	88.94
394.68	159.16
394.88	154.48
395.07	191.92
395.26	44.47
395.46	140.43
395.65	121.71
395.84	119.37
396.04	154.48
396.23	161.50
396.42	81.92
396.62	208.31
396.81	147.45
397.00	147.45
397.19	163.84
397.39	114.69
397.58	217.67
397.77	166.18
397.97	163.84
398.16	161.50
398.35	147.45
398.55	133.41
398.74	102.98
398.93	189.58
399.12	182.56
399.32	138.09
399.51	168.52
399.70	154.48
399.90	152.13
400.09	245.76
400.28	180.22
400.47	110.01
400.67	217.67
400.86	119.37
401.05	234.05
401.24	166.18
401.44	170.86
401.63	105.32
401.82	210.65
402.01	135.75
402.21	196.60
402.40	194.26
402.59	170.86
402.78	231.71
402.97	154.48
403.17	227.03
403.36	308.95
403.55	341.72
403.74	716.20
403.93	2331.17
404.13	5753.04
404.32	9252.14
404.51	9823.23
404.70	6298.38
404.89	2162.66
405.09	582.79
405.28	393.21
405.47	299.59
405.66	280.86
405.85	304.27
406.05	238.73
406.24	220.01
406.43	252.78
406.62	273.84
406.81	276.18
407.00	341.72
407.20	669.39
407.39	1214.74
407.58	1472.20
407.77	1130.48
407.96	688.12
408.15	306.61
408.34	234.05
408.54	217.67
408.73	222.35
408.92	224.69
409.11	163.84
409.30	224.69
409.49	203.63
409.68	175.54
409.87	208.31
410.07	238.73
410.26	212.99
410.45	224.69
410.64	234.05
410.83	259.80
411.02	250.44
411.21	266.82
411.40	262.14
411.59	308.95
411.78	173.20
411.98	229.37
412.17	243.42
412.36	201.29
412.55	191.92
412.74	255.12
412.93	325.33
413.12	210.65
413.31	203.63
413.50	224.69
413.69	278.52
413.88	313.63
414.07	283.20
414.26	292.57
414.45	245.76
414.64	262.14
414.83	315.97
415.02	271.50
415.22	227.03
415.41	276.18
415.60	266.82
415.79	294.91
415.98	304.27
416.17	262.14
416.36	205.97
416.55	264.48
416.74	315.97
416.93	294.91
417.12	313.63
417.31	231.71
417.50	255.12
417.69	318.31
417.88	257.46
418.07	325.33
418.26	259.80
418.45	285.55
418.64	313.63
418.83	353.42
419.02	259.80
419.21	348.74
419.39	280.86
419.58	276.18
419.77	287.89
419.96	355.76
420.15	273.84
420.34	315.97
420.53	318.31
420.72	325.33
420.91	367.46
421.10	393.21
421.29	299.59
421.48	358.10
421.67	348.74
421.86	259.80
422.05	332.36
422.24	430.66
422.43	341.72
422.61	301.93
422.80	376.83
422.99	395.55
423.18	369.80
423.37	369.80
423.56	285.55
423.75	348.74
423.94	259.80
424.13	344.06
424.32	292.57
424.50	358.10
424.69	388.53
424.88	397.89
425.07	308.95
425.26	374.49
425.45	297.25
425.64	400.23
425.83	362.78
426.01	379.17
426.20	411.93
426.39	386.19
426.58	308.95
426.77	383.85
426.96	421.30
427.15	437.68
427.33	383.85
427.52	407.25
427.71	421.30
427.90	449.38
428.09	465.77
428.28	552.37
428.46	468.11
428.65	456.40
428.84	458.74
429.03	491.51
429.22	442.36
429.40	348.74
429.59	484.49
429.78	533.64
429.97	435.34
430.16	416.62
430.34	507.90
430.53	433.00
430.72	430.66
430.91	449.38
431.10	475.13
431.28	468.11
431.47	475.13
431.66	400.23
431.85	543.00
432.03	503.22
432.22	582.79
432.41	526.62
432.60	620.24
432.79	540.66
432.97	641.31
433.16	653.01
433.35	671.73
433.54	770.04
433.72	809.83
433.91	835.57
434.10	896.43
434.28	1093.03
434.47	1341.13
434.66	1441.77
434.85	1624.33
435.03	3831.46
435.22	13727.24
435.41	36231.49
435.59	48975.71
435.78	37659.22
435.97	16903.35
436.16	6190.72
436.34	2069.03
436.53	1268.57
436.72	908.13
436.90	781.74
437.09	751.31
437.28	706.84
437.46	650.67
437.65	653.01
437.84	676.41
438.02	709.18
438.21	606.20
438.40	634.29
438.58	620.24
438.77	610.88
438.96	568.75
439.14	629.60
439.33	636.63
439.52	615.56
439.70	629.60
439.89	634.29
440.08	491.51
440.26	606.20
440.45	552.37
440.63	559.39
440.82	524.28
441.01	606.20
441.19	571.09
441.38	592.16
441.57	660.03
441.75	641.31
441.94	601.52
442.12	585.13
442.31	631.94
442.50	491.51
442.68	608.54
442.87	634.29
443.05	568.75
443.24	683.44
443.43	540.66
443.61	561.73
443.80	578.11
443.98	559.39
444.17	568.75
444.35	592.16
444.54	608.54
444.73	601.52
444.91	653.01
445.10	528.96
445.28	547.69
445.47	603.86
445.65	528.96
445.84	552.37
446.02	629.60
446.21	589.82
446.39	578.11
446.58	543.00
446.77	636.63
446.95	615.56
447.14	587.47
447.32	631.94
447.51	655.35
447.69	552.37
447.88	547.69
448.06	550.03
448.25	566.41
448.43	585.13
448.62	653.01
448.80	566.41
448.99	524.28
449.17	479.81
449.36	524.28
449.54	543.00
449.73	468.11
449.91	615.56
450.10	580.45
450.28	550.03
450.46	608.54
450.65	575.77
450.83	587.47
451.02	557.05
451.20	521.94
451.39	535.98
451.57	531.30
451.76	585.13
451.94	547.69
452.13	550.03
452.31	526.62
452.49	519.60
452.68	543.00
452.86	594.50
453.05	648.33
453.23	517.26
453.42	571.09
453.60	535.98
453.78	617.90
453.97	571.09
454.15	573.43
454.34	533.64
454.52	543.00
454.70	615.56
454.89	535.98
455.07	566.41
455.26	603.86
455.44	517.26
455.62	566.41
455.81	603.86
455.99	648.33
456.17	650.67
456.36	582.79
456.54	552.37
456.73	550.03
456.91	543.00
457.09	554.71
457.28	582.79
457.46	538.32
457.64	594.50
457.83	587.47
458.01	550.03
458.19	564.07
458.38	585.13
458.56	578.11
458.74	470.45
458.93	575.77
459.11	531.30
459.29	582.79
459.48	468.11
459.66	580.45
459.84	634.29
460.03	573.43
460.21	550.03
460.39	538.32
460.57	564.07
460.76	510.24
460.94	561.73
461.12	552.37
461.31	484.49
461.49	559.39
461.67	458.74
461.85	535.98
462.04	493.85
462.22	999.41
462.40	622.58
462.59	545.34
462.77	498.53
462.95	575.77
463.13	545.34
463.32	521.94
463.50	528.96
463.68	559.39
463.86	578.11
464.05	524.28
464.23	554.71
464.41	601.52
464.59	613.22
464.78	617.90
464.96	521.94
465.14	493.85
465.32	444.70
465.50	486.83
465.69	552.37
465.87	463.43
466.05	538.32
466.23	458.74
466.41	517.26
466.60	587.47
466.78	617.90
466.96	671.73
467.14	648.33
467.32	643.65
467.51	690.46
467.69	550.03
467.87	603.86
468.05	507.90
468.23	461.09
468.41	561.73
468.60	493.85
468.78	540.66
468.96	472.79
469.14	524.28
469.32	465.77
469.50	482.15
469.69	531.30
469.87	491.51
470.05	489.17
470.23	594.50
470.41	477.47
470.59	500.87
470.77	594.50
470.95	514.92
471.14	554.71
471.32	500.87
471.50	571.09
471.68	521.94
471.86	503.22
472.04	500.87
472.22	557.05
472.40	521.94
472.58	564.07
472.77	397.89
472.95	489.17
473.13	566.41
473.31	540.66
473.49	575.77
473.67	449.38
473.85	521.94
474.03	519.60
474.21	503.22
474.39	580.45
474.57	550.03
474.75	503.22
474.93	505.56
475.12	545.34
475.30	454.06
475.48	526.62
475.66	489.17
475.84	470.45
476.02	575.77
476.20	557.05
476.38	519.60
476.56	671.73
476.74	472.79
476.92	454.06
477.10	475.13
477.28	477.47
477.46	524.28
477.64	531.30
477.82	596.84
478.00	589.82
478.18	617.90
478.36	596.84
478.54	580.45
478.72	657.69
478.90	730.25
479.08	704.50
479.26	711.52
479.44	645.99
479.62	662.37
479.80	709.18
479.98	716.20
480.16	795.78
480.34	711.52
480.52	779.40
480.70	910.47
480.88	826.21
481.06	1034.52
481.24	933.87
481.41	1001.75
481.59	1043.88
481.77	1057.92
481.95	1109.41
482.13	1242.82
482.31	1320.06
482.49	1493.26
482.67	1631.35
482.85	1547.09
483.03	1666.46
483.21	1916.90
483.39	1968.39
483.57	2132.23
483.74	2265.64
483.92	2361.60
484.10	2483.31
484.28	2698.64
484.46	2785.24
484.64	2836.73
484.82	3002.91
485.00	3332.92
485.18	3295.47
485.35	3695.71
485.53	3744.86
485.71	4014.02
485.89	4173.18
486.07	4184.88
486.25	4528.94
486.43	4404.89
486.61	4355.74
486.78	4372.12
486.96	4334.67
487.14	4402.55
487.32	4311.27
487.50	4264.46
487.68	4308.93
487.85	4152.11
488.03	4301.90
488.21	4072.53
488.39	3946.14
488.57	3880.61
488.75	3840.82
488.92	3953.16
489.10	3693.37
489.28	3653.58
489.46	3506.12
489.64	3489.74
489.81	3482.72
489.99	3260.37
490.17	3281.43
490.35	3396.12
490.53	3194.83
490.70	3372.71
490.88	3297.81
491.06	3424.20
491.24	3740.18
491.41	3744.86
491.59	3627.83
491.77	3232.28
491.95	3159.72
492.13	3021.63
492.30	2956.10
492.48	2965.46
492.66	2803.96
492.84	2818.00
493.01	2820.35
493.19	2773.53
493.37	2895.24
493.54	2689.28
493.72	2658.85
493.90	2532.46
494.08	2661.19
494.25	2459.90
494.43	2490.33
494.61	2420.11
494.79	2403.73
494.96	2354.58
495.14	2424.80
495.32	2413.09
495.49	2265.64
495.67	2279.68
495.85	2169.68
496.02	2108.82
496.20	2181.38
496.38	2127.55
496.55	2111.16
496.73	2064.35
496.91	2001.16
497.09	2050.31
497.26	2003.50
497.44	1881.79
497.62	1879.45
497.79	1849.02
497.97	1879.45
498.14	1778.81
498.32	1832.64
498.50	1654.76
498.67	1530.71
498.85	1605.61
499.03	1497.94
499.20	1537.73
499.38	1416.02
499.56	1448.79
499.73	1556.46
499.91	1502.62
500.08	1364.53
500.26	1280.27
500.44	1266.23
500.61	1261.55
500.79	1186.65
500.97	1179.63
501.14	1139.84
501.32	1132.82
501.49	1029.84
501.67	1011.11
501.84	1039.20
502.02	980.68
502.20	1008.77
502.37	961.96
502.55	870.68
502.72	882.38
502.90	964.30
503.07	896.43
503.25	847.27
503.43	854.30
503.60	851.96
503.78	840.25
503.95	727.91
504.13	699.82
504.30	744.29
504.48	667.05
504.65	772.38
504.83	671.73
505.01	683.44
505.18	730.25
505.36	699.82
505.53	643.65
505.71	645.99
505.88	622.58
506.06	564.07
506.23	655.35
506.41	608.54
506.58	575.77
506.76	643.65
506.93	634.29
507.11	624.92
507.28	575.77
507.46	585.13
507.63	512.58
507.81	528.96
507.98	613.22
508.16	575.77
508.33	550.03
508.50	638.97
508.68	589.82
508.85	596.84
509.03	533.64
509.20	594.50
509.38	580.45
509.55	531.30
509.73	545.34
509.90	571.09
510.08	568.75
510.25	550.03
510.42	575.77
510.60	531.30
510.77	500.87
510.95	552.37
511.12	486.83
511.30	517.26
511.47	557.05
511.64	533.64
511.82	514.92
511.99	498.53
512.17	524.28
512.34	477.47
512.51	482.15
512.69	491.51
512.86	500.87
513.04	418.96
513.21	458.74
513.38	390.87
513.56	592.16
513.73	517.26
513.90	428.32
514.08	470.45
514.25	479.81
514.43	449.38
514.60	540.66
514.77	498.53
514.95	447.04
515.12	400.23
515.29	449.38
515.47	482.15
515.64	395.55
515.81	449.38
515.99	500.87
516.16	500.87
516.33	472.79
516.51	493.85
516.68	465.77
516.85	425.98
517.03	444.70
517.20	477.47
517.37	393.21
517.54	388.53
517.72	379.17
517.89	425.98
518.06	374.49
518.24	409.59
518.41	425.98
518.58	465.77
518.75	451.72
518.93	444.70
519.10	365.12
519.27	339.38
519.45	390.87
519.62	416.62
519.79	510.24
519.96	428.32
520.14	390.87
520.31	428.32
520.48	456.40
520.65	322.99
520.83	433.00
521.00	435.34
521.17	362.78
521.34	374.49
521.52	430.66
521.69	414.27
521.86	402.57
522.03	381.51
522.20	535.98
522.38	381.51
522.55	418.96
522.72	404.91
522.89	418.96
523.07	472.79
523.24	351.08
523.41	393.21
523.58	346.40
523.75	472.79
523.92	374.49
524.10	463.43
524.27	393.21
524.44	381.51
524.61	416.62
524.78	428.32
524.96	468.11
525.13	512.58
525.30	463.43
525.47	503.22
525.64	510.24
525.81	484.49
525.98	503.22
526.16	428.32
526.33	449.38
526.50	484.49
526.67	538.32
526.84	393.21
527.01	425.98
527.18	550.03
527.36	610.88
527.53	627.26
527.70	524.28
527.87	540.66
528.04	592.16
528.21	550.03
528.38	510.24
528.55	533.64
528.72	620.24
528.89	634.29
529.07	517.26
529.24	475.13
529.41	653.01
529.58	573.43
529.75	543.00
529.92	674.07
530.09	655.35
530.26	683.44
530.43	641.31
530.60	655.35
530.77	606.20
530.94	711.52
531.11	690.46
531.28	713.86
531.46	720.88
531.63	826.21
531.80	800.46
531.97	945.58
532.14	983.02
532.31	1109.41
532.48	1359.85
532.65	1612.63
532.82	1860.73
532.99	1989.46
533.16	2368.62
533.33	2700.98
533.50	2438.84
533.67	2122.87
533.84	1778.81
534.01	1579.86
534.18	1500.28
534.35	1481.56
534.52	1453.47
534.69	1540.07
534.86	1568.16
535.03	1629.01
535.20	1685.19
535.37	1696.89
535.54	1867.75
535.71	1956.69
535.88	2125.21
536.05	2125.21
536.22	2377.98
536.38	2635.44
536.55	2906.95
536.72	3087.17
536.89	3527.19
537.06	3918.06
537.23	4255.09
537.40	4840.23
537.57	5123.43
537.74	5507.28
537.91	5593.88
538.08	5760.06
538.25	5860.70
538.42	5947.30
538.59	6146.25
538.75	6300.72
538.92	6328.81
539.09	7054.37
539.26	7901.65
539.43	9046.17
539.60	10197.71
539.77	11592.67
539.94	12973.59
540.11	14314.72
540.28	15815.00
540.44	17170.17
540.61	19344.53
540.78	21919.12
540.95	26108.68
541.12	31482.55
541.29	36030.21
541.46	38480.75
541.62	37853.48
541.79	36261.92
541.96	33855.85
542.13	31318.71
542.30	29429.90
542.47	27805.56
542.63	26181.23
542.80	25439.28
542.97	24741.80
543.14	24547.54
543.31	24196.46
543.48	24348.59
543.64	25017.99
543.81	24886.92
543.98	25280.13
544.15	25490.77
544.32	25727.17
544.48	25593.76
544.65	25254.38
544.82	24718.40
544.99	24748.82
545.16	25287.15
545.32	26654.02
545.49	38843.53
545.66	58824.68
545.83	65535.00
546.00	65535.00
546.16	60608.17
546.33	43732.91
546.50	33703.71
546.67	25961.22
546.83	23019.17
547.00	22331.05
547.17	20861.19
547.34	20435.22
547.50	19655.82
547.67	19208.78
547.84	17689.77
548.00	17291.88
548.17	16526.52
548.34	15964.79
548.51	15522.43
548.67	14822.61
548.84	13771.71
549.01	13242.75
549.18	12425.90
549.34	12313.56
549.51	11571.61
549.68	11262.66
549.84	10824.98
550.01	10111.11
550.18	9851.31
550.34	9511.94
550.51	8943.19
550.68	8475.08
550.84	8077.19
551.01	7641.85
551.18	7016.93
551.34	6855.43
551.51	6455.20
551.68	6253.91
551.84	6005.81
552.01	5708.57
552.18	5820.91
552.34	5369.19
552.51	5121.09
552.68	4910.44
552.84	4664.69
553.01	4620.22
553.18	4351.06
553.34	4280.84
553.51	4124.02
553.67	4205.94
553.84	3859.54
554.01	3552.93
554.17	3407.82
554.34	3087.17
554.51	2850.77
554.67	2689.28
554.84	2677.57
555.00	2511.39
555.17	2422.45
555.33	2345.22
555.50	2190.74
555.67	2127.55
555.83	2033.93
556.00	1886.47
556.16	1966.05
556.33	1781.15
556.50	1668.80
556.66	1675.82
556.83	1645.40
556.99	1507.30
557.16	1500.28
557.32	1441.77
557.49	1404.32
557.65	1341.13
557.82	1411.34
557.98	1366.87
558.15	1348.15
558.32	1310.70
558.48	1245.16
558.65	1181.97
558.81	1128.14
558.98	1100.05
559.14	1142.18
559.31	1167.93
559.47	1048.56
559.64	992.39
559.80	1090.69
559.97	980.68
560.13	1048.56
560.30	1013.45
560.46	994.73
560.63	1011.11
560.79	1123.46
560.96	1048.56
561.12	961.96
561.29	1074.31
561.45	968.98
561.61	936.21
561.78	1137.50
561.94	1018.13
562.11	968.98
562.27	994.73
562.44	976.00
562.60	997.07
562.77	880.04
562.93	978.34
563.10	945.58
563.26	947.92
563.42	912.81
563.59	950.26
563.75	802.80
563.92	915.15
564.08	889.40
564.24	873.02
564.41	870.68
564.57	863.66
564.74	774.72
564.90	887.06
565.07	802.80
565.23	697.48
565.39	746.63
565.56	809.83
565.72	772.38
565.88	734.93
566.05	781.74
566.21	751.31
566.38	816.85
566.54	807.48
566.70	823.87
566.87	777.06
567.03	800.46
567.19	774.72
567.36	767.70
567.52	795.78
567.68	770.04
567.85	854.30
568.01	746.63
568.17	798.12
568.34	812.17
568.50	765.36
568.66	746.63
568.83	812.17
568.99	816.85
569.15	847.27
569.32	755.99
569.48	755.99
569.64	737.27
569.81	702.16
569.97	533.64
570.13	660.03
570.30	627.26
570.46	617.90
570.62	503.22
570.78	540.66
570.95	552.37
571.11	514.92
571.27	613.22
571.43	571.09
571.60	547.69
571.76	566.41
571.92	587.47
572.09	617.90
572.25	634.29
572.41	531.30
572.57	592.16
572.74	676.41
572.90	655.35
573.06	517.26
573.22	629.60
573.38	540.66
573.55	636.63
573.71	702.16
573.87	727.91
574.03	657.69
574.20	641.31
574.36	739.61
574.52	809.83
574.68	816.85
574.84	727.91
575.01	781.74
575.17	807.48
575.33	882.38
575.49	929.19
575.65	1022.81
575.82	1025.15
575.98	1221.76
576.14	1294.32
576.30	2363.94
576.46	7426.52
576.62	14937.30
576.79	21209.93
576.95	14998.15
577.11	8908.08
577.27	5996.45
577.43	3941.46
577.59	2513.74
577.75	1947.33
577.92	1867.75
578.08	1694.55
578.24	1724.97
578.40	2665.87
578.56	6881.18
578.72	13879.38
578.88	19103.45
579.04	13708.52
579.21	8290.18
579.37	5879.43
579.53	4475.10
579.69	4140.41
579.85	5071.94
580.01	6457.54
580.17	6633.08
580.33	5680.48
580.49	4699.80
580.65	4191.90
580.82	3707.41
580.98	3485.06
581.14	3768.26
581.30	4032.74
581.46	4187.22
581.62	4493.83
581.78	4802.78
581.94	5207.69
582.10	5458.13
582.26	5977.73
582.42	6174.33
582.58	6377.96
582.74	6403.71
582.90	6338.17
583.06	6394.34
583.22	6303.06
583.38	6333.49
583.54	6406.05
583.70	6406.05
583.86	6396.68
584.02	6024.54
584.18	5968.37
584.34	5982.41
584.50	6005.81
584.66	5841.98
584.82	5628.99
584.98	5654.73
585.14	5551.75
585.30	5542.39
585.46	5291.95
585.62	5277.91
585.78	5245.14
585.94	5336.42
586.10	5142.16
586.26	5666.44
586.42	6256.25
586.58	7412.48
586.74	9135.11
586.90	11330.53
587.06	12678.68
587.22	12919.76
587.38	11845.45
587.54	9907.49
587.70	8329.97
587.86	6803.94
588.02	5949.64
588.18	5128.11
588.34	4681.07
588.49	4262.12
588.65	3971.89
588.81	3936.78
588.97	3705.07
589.13	3606.77
589.29	3435.91
589.45	3510.80
589.61	3538.89
589.77	3541.23
589.93	3501.44
590.08	3562.30
590.24	3779.97
590.40	3983.59
590.56	4051.47
590.72	4060.83
590.88	4227.01
591.04	4409.57
591.20	4507.87
591.35	4734.90
591.51	4971.30
591.67	5053.22
591.83	5205.35
591.99	5659.42
592.15	6359.24
592.31	6995.86
592.46	7384.39
592.62	8011.65
592.78	8767.65
592.94	9188.94
593.10	9046.17
593.26	8505.51
593.41	7943.78
593.57	6979.48
593.73	6333.49
593.89	5614.95
594.05	5097.69
594.20	4365.10
594.36	4070.19
594.52	3639.53
594.68	3639.53
594.84	3433.57
594.99	3445.27
595.15	3227.60
595.31	3204.19
595.47	3218.24
595.62	3087.17
595.78	3056.74
595.94	3157.38
596.10	3192.49
596.25	3190.15
596.41	3187.81
596.57	3155.04
596.73	2979.50
596.88	2960.78
597.04	2993.55
597.20	3019.29
597.36	3061.42
597.51	3241.64
597.67	3304.84
597.83	3627.83
597.99	3861.88
598.14	4088.92
598.30	4276.16
598.46	4416.59
598.61	4557.02
598.77	4922.15
598.93	5011.09
599.09	5275.57
599.24	5359.83
599.40	5476.85
599.56	5186.63
599.71	4973.64
599.87	4873.00
600.03	4395.53
600.18	4292.54
600.34	3936.78
600.50	3538.89
600.65	3393.78
600.81	3286.11
600.97	3096.53
601.12	2832.05
601.28	2703.32
601.44	2616.72
601.59	2483.31
601.75	2431.82
601.91	2258.62
602.06	2277.34
602.22	2298.41
602.37	2097.12
602.53	2017.54
602.69	1996.48
602.84	1954.35
603.00	2122.87
603.16	2099.46
603.31	2167.34
603.47	2256.28
603.62	2139.25
603.78	2162.66
603.94	2289.04
604.09	2368.62
604.25	2356.92
604.40	2394.37
604.56	2492.67
