SpectraSuite Data File
++++++++++++++++++++++++++++++++++++
Date: Fri Oct 04 11:42:06 GMT-05:00 2013
User: price-jones
Dark Spectrum Present: No
Reference Spectrum Present: No
Number of Sampled Component Spectra: 1
Spectrometers: USB2+H05261
Integration Time (usec): 100000 (USB2+H05261)
Spectra Averaged: 1 (USB2+H05261)
Boxcar Smoothing: 0 (USB2+H05261)
Correct for Electrical Dark: No (USB2+H05261)
Strobe/Lamp Enabled: No (USB2+H05261)
Correct for Detector Non-linearity: No (USB2+H05261)
Correct for Stray Light: No (USB2+H05261)
Number of Pixels in Processed Spectrum: 2048
>>>>>Begin Processed Spectral Data<<<<<
365.73	21.06
365.92	21.06
366.12	21.06
366.32	0.00
366.52	0.00
366.72	0.00
366.91	0.00
367.11	0.00
367.31	0.00
367.51	0.00
367.70	0.00
367.90	0.00
368.10	0.00
368.30	0.00
368.49	0.00
368.69	4.68
368.89	0.00
369.09	0.00
369.28	0.00
369.48	0.00
369.68	4.68
369.87	0.00
370.07	2.34
370.27	30.43
370.47	39.79
370.66	0.00
370.86	84.26
371.06	30.43
371.25	128.73
371.45	98.30
371.65	77.24
371.84	56.17
372.04	51.49
372.24	140.43
372.44	147.45
372.63	119.37
372.83	131.07
373.03	86.60
373.22	102.98
373.42	93.62
373.62	131.07
373.81	77.24
374.01	119.37
374.21	138.09
374.40	91.28
374.60	170.86
374.79	152.13
374.99	170.86
375.19	131.07
375.38	107.66
375.58	93.62
375.78	119.37
375.97	175.54
376.17	128.73
376.37	187.24
376.56	88.94
376.76	95.96
376.95	131.07
377.15	163.84
377.35	131.07
377.54	166.18
377.74	121.71
377.93	114.69
378.13	100.64
378.33	65.54
378.52	81.92
378.72	86.60
378.91	140.43
379.11	32.77
379.31	88.94
379.50	72.56
379.70	100.64
379.89	107.66
380.09	53.83
380.28	100.64
380.48	86.60
380.68	128.73
380.87	135.75
381.07	79.58
381.26	102.98
381.46	154.48
381.65	79.58
381.85	112.35
382.04	51.49
382.24	217.67
382.43	67.88
382.63	53.83
382.83	159.16
383.02	121.71
383.22	117.03
383.41	149.79
383.61	112.35
383.80	102.98
384.00	35.11
384.19	102.98
384.39	81.92
384.58	156.82
384.78	152.13
384.97	100.64
385.17	77.24
385.36	145.11
385.56	154.48
385.75	114.69
385.95	117.03
386.14	182.56
386.34	140.43
386.53	119.37
386.72	98.30
386.92	114.69
387.11	124.05
387.31	81.92
387.50	119.37
387.70	105.32
387.89	142.77
388.09	88.94
388.28	95.96
388.48	93.62
388.67	180.22
388.86	107.66
389.06	88.94
389.25	110.01
389.45	56.17
389.64	117.03
389.84	51.49
390.03	72.56
390.22	208.31
390.42	72.56
390.61	142.77
390.81	60.85
391.00	86.60
391.19	175.54
391.39	88.94
391.58	112.35
391.78	100.64
391.97	81.92
392.16	58.51
392.36	133.41
392.55	128.73
392.75	121.71
392.94	100.64
393.13	180.22
393.33	53.83
393.52	0.00
393.71	133.41
393.91	152.13
394.10	100.64
394.29	95.96
394.49	63.19
394.68	88.94
394.88	142.77
395.07	131.07
395.26	88.94
395.46	102.98
395.65	177.88
395.84	119.37
396.04	128.73
396.23	163.84
396.42	44.47
396.62	173.20
396.81	100.64
397.00	124.05
397.19	98.30
397.39	149.79
397.58	119.37
397.77	102.98
397.97	168.52
398.16	142.77
398.35	138.09
398.55	46.81
398.74	46.81
398.93	149.79
399.12	23.41
399.32	121.71
399.51	107.66
399.70	138.09
399.90	79.58
400.09	74.90
400.28	177.88
400.47	72.56
400.67	128.73
400.86	95.96
401.05	107.66
401.24	166.18
401.44	142.77
401.63	138.09
401.82	182.56
402.01	149.79
402.21	133.41
402.40	142.77
402.59	166.18
402.78	117.03
402.97	182.56
403.17	77.24
403.36	156.82
403.55	124.05
403.74	170.86
403.93	170.86
404.13	224.69
404.32	184.90
404.51	243.42
404.70	133.41
404.89	117.03
405.09	149.79
405.28	156.82
405.47	81.92
405.66	168.52
405.85	112.35
406.05	112.35
406.24	149.79
406.43	152.13
406.62	121.71
406.81	184.90
407.00	156.82
407.20	152.13
407.39	161.50
407.58	163.84
407.77	133.41
407.96	145.11
408.15	173.20
408.34	152.13
408.54	173.20
408.73	117.03
408.92	114.69
409.11	184.90
409.30	79.58
409.49	168.52
409.68	93.62
409.87	114.69
410.07	163.84
410.26	131.07
410.45	133.41
410.64	112.35
410.83	100.64
411.02	102.98
411.21	220.01
411.40	159.16
411.59	95.96
411.78	138.09
411.98	180.22
412.17	121.71
412.36	177.88
412.55	184.90
412.74	107.66
412.93	112.35
413.12	84.26
413.31	138.09
413.50	124.05
413.69	124.05
413.88	128.73
414.07	166.18
414.26	166.18
414.45	117.03
414.64	173.20
414.83	159.16
415.02	107.66
415.22	110.01
415.41	196.60
415.60	135.75
415.79	154.48
415.98	194.26
416.17	88.94
416.36	149.79
416.55	138.09
416.74	229.37
416.93	187.24
417.12	168.52
417.31	154.48
417.50	170.86
417.69	182.56
417.88	128.73
418.07	91.28
418.26	93.62
418.45	138.09
418.64	208.31
418.83	152.13
419.02	126.39
419.21	161.50
419.39	159.16
419.58	166.18
419.77	135.75
419.96	175.54
420.15	189.58
420.34	107.66
420.53	117.03
420.72	156.82
420.91	126.39
421.10	121.71
421.29	128.73
421.48	93.62
421.67	187.24
421.86	149.79
422.05	166.18
422.24	135.75
422.43	170.86
422.61	140.43
422.80	238.73
422.99	149.79
423.18	131.07
423.37	175.54
423.56	140.43
423.75	198.95
423.94	112.35
424.13	128.73
424.32	112.35
424.50	196.60
424.69	138.09
424.88	184.90
425.07	166.18
425.26	84.26
425.45	126.39
425.64	152.13
425.83	126.39
426.01	177.88
426.20	114.69
426.39	173.20
426.58	138.09
426.77	152.13
426.96	135.75
427.15	145.11
427.33	112.35
427.52	70.22
427.71	131.07
427.90	182.56
428.09	194.26
428.28	135.75
428.46	149.79
428.65	203.63
428.84	198.95
429.03	241.08
429.22	156.82
429.40	154.48
429.59	166.18
429.78	166.18
429.97	170.86
430.16	147.45
430.34	140.43
430.53	74.90
430.72	147.45
430.91	152.13
431.10	84.26
431.28	152.13
431.47	177.88
431.66	131.07
431.85	95.96
432.03	166.18
432.22	170.86
432.41	201.29
432.60	135.75
432.79	149.79
432.97	100.64
433.16	159.16
433.35	159.16
433.54	112.35
433.72	182.56
433.91	81.92
434.10	112.35
434.28	145.11
434.47	131.07
434.66	170.86
434.85	194.26
435.03	236.39
435.22	547.69
435.41	894.08
435.59	966.64
435.78	713.86
435.97	440.02
436.16	325.33
436.34	208.31
436.53	173.20
436.72	208.31
436.90	124.05
437.09	229.37
437.28	149.79
437.46	182.56
437.65	161.50
437.84	117.03
438.02	191.92
438.21	177.88
438.40	128.73
438.58	140.43
438.77	191.92
438.96	245.76
439.14	149.79
439.33	180.22
439.52	100.64
439.70	168.52
439.89	119.37
440.08	234.05
440.26	91.28
440.45	189.58
440.63	180.22
440.82	140.43
441.01	161.50
441.19	105.32
441.38	210.65
441.57	154.48
441.75	175.54
441.94	170.86
442.12	177.88
442.31	224.69
442.50	98.30
442.68	152.13
442.87	100.64
443.05	126.39
443.24	170.86
443.43	189.58
443.61	140.43
443.80	154.48
443.98	168.52
444.17	180.22
444.35	257.46
444.54	175.54
444.73	163.84
444.91	220.01
445.10	224.69
445.28	77.24
445.47	205.97
445.65	60.85
445.84	142.77
446.02	229.37
446.21	243.42
446.39	147.45
446.58	147.45
446.77	131.07
446.95	131.07
447.14	189.58
447.32	170.86
447.51	119.37
447.69	170.86
447.88	159.16
448.06	248.10
448.25	161.50
448.43	145.11
448.62	126.39
448.80	177.88
448.99	156.82
449.17	194.26
449.36	168.52
449.54	194.26
449.73	107.66
449.91	210.65
450.10	133.41
450.28	212.99
450.46	264.48
450.65	194.26
450.83	210.65
451.02	184.90
451.20	222.35
451.39	250.44
451.57	168.52
451.76	110.01
451.94	220.01
452.13	138.09
452.31	166.18
452.49	234.05
452.68	105.32
452.86	105.32
453.05	145.11
453.23	187.24
453.42	170.86
453.60	187.24
453.78	257.46
453.97	196.60
454.15	203.63
454.34	187.24
454.52	227.03
454.70	241.08
454.89	93.62
455.07	128.73
455.26	166.18
455.44	201.29
455.62	133.41
455.81	159.16
455.99	238.73
456.17	126.39
456.36	166.18
456.54	189.58
456.73	187.24
456.91	194.26
457.09	271.50
457.28	227.03
457.46	159.16
457.64	212.99
457.83	236.39
458.01	177.88
458.19	227.03
458.38	117.03
458.56	135.75
458.74	152.13
458.93	231.71
459.11	189.58
459.29	187.24
459.48	227.03
459.66	220.01
459.84	166.18
460.03	234.05
460.21	156.82
460.39	163.84
460.57	184.90
460.76	182.56
460.94	220.01
461.12	182.56
461.31	203.63
461.49	229.37
461.67	138.09
461.85	210.65
462.04	220.01
462.22	699.82
462.40	255.12
462.59	203.63
462.77	191.92
462.95	170.86
463.13	112.35
463.32	149.79
463.50	187.24
463.68	217.67
463.86	91.28
464.05	166.18
464.23	135.75
464.41	208.31
464.59	182.56
464.78	140.43
464.96	201.29
465.14	163.84
465.32	110.01
465.50	222.35
465.69	191.92
465.87	147.45
466.05	140.43
466.23	112.35
466.41	180.22
466.60	140.43
466.78	140.43
466.96	180.22
467.14	198.95
467.32	156.82
467.51	245.76
467.69	177.88
467.87	180.22
468.05	189.58
468.23	283.20
468.41	170.86
468.60	166.18
468.78	177.88
468.96	241.08
469.14	215.33
469.32	180.22
469.50	187.24
469.69	152.13
469.87	217.67
470.05	173.20
470.23	217.67
470.41	248.10
470.59	149.79
470.77	182.56
470.95	182.56
471.14	243.42
471.32	229.37
471.50	227.03
471.68	196.60
471.86	238.73
472.04	161.50
472.22	182.56
472.40	105.32
472.58	168.52
472.77	142.77
472.95	250.44
473.13	205.97
473.31	208.31
473.49	175.54
473.67	166.18
473.85	145.11
474.03	241.08
474.21	126.39
474.39	210.65
474.57	210.65
474.75	173.20
474.93	105.32
475.12	147.45
475.30	271.50
475.48	161.50
475.66	117.03
475.84	166.18
476.02	166.18
476.20	215.33
476.38	117.03
476.56	194.26
476.74	175.54
476.92	208.31
477.10	189.58
477.28	161.50
477.46	220.01
477.64	203.63
477.82	194.26
478.00	149.79
478.18	159.16
478.36	180.22
478.54	182.56
478.72	147.45
478.90	156.82
479.08	210.65
479.26	128.73
479.44	227.03
479.62	224.69
479.80	154.48
479.98	224.69
480.16	234.05
480.34	205.97
480.52	245.76
480.70	184.90
480.88	159.16
481.06	194.26
481.24	222.35
481.41	220.01
481.59	198.95
481.77	161.50
481.95	236.39
482.13	187.24
482.31	241.08
482.49	212.99
482.67	255.12
482.85	196.60
483.03	215.33
483.21	271.50
483.39	182.56
483.57	203.63
483.74	231.71
483.92	257.46
484.10	276.18
484.28	276.18
484.46	313.63
484.64	255.12
484.82	269.16
485.00	182.56
485.18	297.25
485.35	271.50
485.53	210.65
485.71	311.29
485.89	224.69
486.07	299.59
486.25	294.91
486.43	299.59
486.61	318.31
486.78	271.50
486.96	271.50
487.14	301.93
487.32	290.23
487.50	299.59
487.68	337.04
487.85	322.99
488.03	236.39
488.21	297.25
488.39	252.78
488.57	362.78
488.75	236.39
488.92	521.94
489.10	234.05
489.28	322.99
489.46	299.59
489.64	308.95
489.81	330.02
489.99	280.86
490.17	212.99
490.35	390.87
490.53	276.18
490.70	264.48
490.88	290.23
491.06	227.03
491.24	322.99
491.41	315.97
491.59	283.20
491.77	269.16
491.95	264.48
492.13	290.23
492.30	325.33
492.48	227.03
492.66	212.99
492.84	315.97
493.01	245.76
493.19	292.57
493.37	332.36
493.54	299.59
493.72	313.63
493.90	276.18
494.08	273.84
494.25	273.84
494.43	257.46
494.61	241.08
494.79	238.73
494.96	280.86
495.14	241.08
495.32	229.37
495.49	287.89
495.67	271.50
495.85	278.52
496.02	212.99
496.20	269.16
496.38	250.44
496.55	255.12
496.73	283.20
496.91	266.82
497.09	285.55
497.26	287.89
497.44	203.63
497.62	222.35
497.79	292.57
497.97	269.16
498.14	290.23
498.32	285.55
498.50	273.84
498.67	285.55
498.85	257.46
499.03	217.67
499.20	285.55
499.38	273.84
499.56	182.56
499.73	266.82
499.91	222.35
500.08	276.18
500.26	248.10
500.44	229.37
500.61	301.93
500.79	184.90
500.97	315.97
501.14	269.16
501.32	285.55
501.49	248.10
501.67	229.37
501.84	241.08
502.02	287.89
502.20	301.93
502.37	220.01
502.55	175.54
502.72	198.95
502.90	292.57
503.07	236.39
503.25	163.84
503.43	227.03
503.60	222.35
503.78	241.08
503.95	264.48
504.13	205.97
504.30	236.39
504.48	231.71
504.65	264.48
504.83	262.14
505.01	234.05
505.18	257.46
505.36	276.18
505.53	229.37
505.71	133.41
505.88	318.31
506.06	227.03
506.23	220.01
506.41	250.44
506.58	299.59
506.76	304.27
506.93	255.12
507.11	182.56
507.28	203.63
507.46	198.95
507.63	252.78
507.81	173.20
507.98	271.50
508.16	266.82
508.33	255.12
508.50	255.12
508.68	264.48
508.85	227.03
509.03	262.14
509.20	250.44
509.38	285.55
509.55	287.89
509.73	238.73
509.90	255.12
510.08	248.10
510.25	262.14
510.42	227.03
510.60	276.18
510.77	299.59
510.95	205.97
511.12	259.80
511.30	259.80
511.47	212.99
511.64	299.59
511.82	201.29
511.99	320.65
512.17	252.78
512.34	147.45
512.51	255.12
512.69	255.12
512.86	252.78
513.04	191.92
513.21	222.35
513.38	201.29
513.56	203.63
513.73	189.58
513.90	229.37
514.08	294.91
514.25	208.31
514.43	248.10
514.60	184.90
514.77	278.52
514.95	327.68
515.12	283.20
515.29	194.26
515.47	175.54
515.64	163.84
515.81	234.05
515.99	278.52
516.16	273.84
516.33	194.26
516.51	243.42
516.68	269.16
516.85	262.14
517.03	229.37
517.20	234.05
517.37	234.05
517.54	292.57
517.72	252.78
517.89	168.52
518.06	205.97
518.24	287.89
518.41	292.57
518.58	210.65
518.75	266.82
518.93	346.40
519.10	187.24
519.27	236.39
519.45	269.16
519.62	229.37
519.79	318.31
519.96	297.25
520.14	269.16
520.31	222.35
520.48	250.44
520.65	241.08
520.83	280.86
521.00	259.80
521.17	201.29
521.34	205.97
521.52	276.18
521.69	170.86
521.86	301.93
522.03	220.01
522.20	292.57
522.38	262.14
522.55	273.84
522.72	301.93
522.89	252.78
523.07	245.76
523.24	252.78
523.41	252.78
523.58	276.18
523.75	337.04
523.92	161.50
524.10	255.12
524.27	245.76
524.44	255.12
524.61	255.12
524.78	191.92
524.96	198.95
525.13	308.95
525.30	259.80
525.47	248.10
525.64	252.78
525.81	201.29
525.98	241.08
526.16	156.82
526.33	189.58
526.50	255.12
526.67	227.03
526.84	308.95
527.01	194.26
527.18	255.12
527.36	257.46
527.53	255.12
527.70	276.18
527.87	243.42
528.04	308.95
528.21	166.18
528.38	234.05
528.55	231.71
528.72	330.02
528.89	234.05
529.07	255.12
529.24	236.39
529.41	241.08
529.58	280.86
529.75	215.33
529.92	292.57
530.09	280.86
530.26	285.55
530.43	290.23
530.60	271.50
530.77	322.99
530.94	212.99
531.11	276.18
531.28	205.97
531.46	262.14
531.63	203.63
531.80	201.29
531.97	269.16
532.14	250.44
532.31	203.63
532.48	241.08
532.65	308.95
532.82	266.82
532.99	266.82
533.16	264.48
533.33	320.65
533.50	297.25
533.67	180.22
533.84	287.89
534.01	325.33
534.18	203.63
534.35	276.18
534.52	273.84
534.69	334.70
534.86	292.57
535.03	259.80
535.20	290.23
535.37	264.48
535.54	248.10
535.71	264.48
535.88	369.80
536.05	283.20
536.22	353.42
536.38	318.31
536.55	280.86
536.72	292.57
536.89	292.57
537.06	290.23
537.23	325.33
537.40	308.95
537.57	264.48
537.74	421.30
537.91	447.04
538.08	430.66
538.25	390.87
538.42	374.49
538.59	383.85
538.75	390.87
538.92	379.17
539.09	475.13
539.26	440.02
539.43	444.70
539.60	545.34
539.77	545.34
539.94	538.32
540.11	594.50
540.28	667.05
540.44	638.97
540.61	723.23
540.78	711.52
540.95	765.36
541.12	915.15
541.29	1125.80
541.46	1116.44
541.62	1165.59
541.79	1102.39
541.96	1036.86
542.13	1067.28
542.30	957.28
542.47	1057.92
542.63	980.68
542.80	903.45
542.97	1043.88
543.14	1006.43
543.31	980.68
543.48	1006.43
543.64	954.94
543.81	1008.77
543.98	980.68
544.15	898.77
544.32	936.21
544.48	983.02
544.65	943.24
544.82	837.91
544.99	938.55
545.16	922.17
545.32	943.24
545.49	1486.24
545.66	2104.14
545.83	2532.46
546.00	2317.13
546.16	1701.57
546.33	1299.00
546.50	1015.79
546.67	856.64
546.83	821.53
547.00	671.73
547.17	575.77
547.34	706.84
547.50	657.69
547.67	559.39
547.84	688.12
548.00	585.13
548.17	573.43
548.34	571.09
548.51	660.03
548.67	713.86
548.84	596.84
549.01	587.47
549.18	479.81
549.34	550.03
549.51	514.92
549.68	559.39
549.84	512.58
550.01	514.92
550.18	575.77
550.34	528.96
550.51	479.81
550.68	505.56
550.84	447.04
551.01	386.19
551.18	416.62
551.34	428.32
551.51	423.64
551.68	348.74
551.84	447.04
552.01	400.23
552.18	461.09
552.34	430.66
552.51	416.62
552.68	320.65
552.84	484.49
553.01	337.04
553.18	395.55
553.34	292.57
553.51	301.93
553.67	308.95
553.84	404.91
554.01	397.89
554.17	306.61
554.34	255.12
554.51	320.65
554.67	315.97
554.84	273.84
555.00	311.29
555.17	243.42
555.33	311.29
555.50	257.46
555.67	287.89
555.83	257.46
556.00	250.44
556.16	388.53
556.33	290.23
556.50	248.10
556.66	287.89
556.83	236.39
556.99	210.65
557.16	271.50
557.32	259.80
557.49	259.80
557.65	278.52
557.82	299.59
557.98	262.14
558.15	278.52
558.32	234.05
558.48	236.39
558.65	224.69
558.81	283.20
558.98	257.46
559.14	313.63
559.31	280.86
559.47	255.12
559.64	205.97
559.80	283.20
559.97	250.44
560.13	248.10
560.30	194.26
560.46	285.55
560.63	220.01
560.79	255.12
560.96	198.95
561.12	234.05
561.29	318.31
561.45	315.97
561.61	290.23
561.78	421.30
561.94	238.73
562.11	220.01
562.27	227.03
562.44	201.29
562.60	283.20
562.77	297.25
562.93	346.40
563.10	264.48
563.26	245.76
563.42	285.55
563.59	287.89
563.75	215.33
563.92	297.25
564.08	227.03
564.24	304.27
564.41	311.29
564.57	238.73
564.74	273.84
564.90	271.50
565.07	285.55
565.23	264.48
565.39	220.01
565.56	161.50
565.72	259.80
565.88	299.59
566.05	154.48
566.21	245.76
566.38	304.27
566.54	222.35
566.70	231.71
566.87	313.63
567.03	180.22
567.19	227.03
567.36	287.89
567.52	227.03
567.68	208.31
567.85	238.73
568.01	222.35
568.17	243.42
568.34	222.35
568.50	271.50
568.66	248.10
568.83	276.18
568.99	182.56
569.15	271.50
569.32	238.73
569.48	196.60
569.64	266.82
569.81	248.10
569.97	250.44
570.13	241.08
570.30	271.50
570.46	140.43
570.62	224.69
570.78	231.71
570.95	196.60
571.11	269.16
571.27	311.29
571.43	299.59
571.60	287.89
571.76	182.56
571.92	220.01
572.09	196.60
572.25	210.65
572.41	266.82
572.57	290.23
572.74	276.18
572.90	224.69
573.06	280.86
573.22	248.10
573.38	252.78
573.55	271.50
573.71	287.89
573.87	243.42
574.03	198.95
574.20	177.88
574.36	238.73
574.52	241.08
574.68	271.50
574.84	208.31
575.01	257.46
575.17	259.80
575.33	276.18
575.49	283.20
575.65	220.01
575.82	205.97
575.98	255.12
576.14	287.89
576.30	292.57
576.46	411.93
576.62	716.20
576.79	648.33
576.95	447.04
577.11	461.09
577.27	330.02
577.43	337.04
577.59	266.82
577.75	257.46
577.92	220.01
578.08	203.63
578.24	348.74
578.40	320.65
578.56	505.56
578.72	594.50
578.88	615.56
579.04	575.77
579.21	372.15
579.37	379.17
579.53	362.78
579.69	400.23
579.85	320.65
580.01	458.74
580.17	360.44
580.33	447.04
580.49	355.76
580.65	341.72
580.82	369.80
580.98	285.55
581.14	285.55
581.30	355.76
581.46	322.99
581.62	397.89
581.78	341.72
581.94	402.57
582.10	404.91
582.26	374.49
582.42	304.27
582.58	337.04
582.74	374.49
582.90	397.89
583.06	486.83
583.22	451.72
583.38	414.27
583.54	351.08
583.70	409.59
583.86	395.55
584.02	451.72
584.18	442.36
584.34	414.27
584.50	395.55
584.66	327.68
584.82	292.57
584.98	318.31
585.14	395.55
585.30	341.72
585.46	379.17
585.62	348.74
585.78	358.10
585.94	367.46
586.10	395.55
586.26	344.06
586.42	344.06
586.58	514.92
586.74	500.87
586.90	528.96
587.06	528.96
587.22	545.34
587.38	545.34
587.54	470.45
587.70	400.23
587.86	334.70
588.02	454.06
588.18	320.65
588.34	374.49
588.49	337.04
588.65	315.97
588.81	341.72
588.97	285.55
589.13	325.33
589.29	318.31
589.45	264.48
589.61	301.93
589.77	294.91
589.93	301.93
590.08	271.50
590.24	292.57
590.40	332.36
590.56	241.08
590.72	264.48
590.88	315.97
591.04	322.99
591.20	325.33
591.35	311.29
591.51	341.72
591.67	320.65
591.83	327.68
591.99	308.95
592.15	358.10
592.31	454.06
592.46	404.91
592.62	416.62
592.78	461.09
592.94	493.85
593.10	353.42
593.26	411.93
593.41	404.91
593.57	374.49
593.73	322.99
593.89	407.25
594.05	212.99
594.20	210.65
594.36	374.49
594.52	353.42
594.68	292.57
594.84	341.72
594.99	241.08
595.15	255.12
595.31	360.44
595.47	273.84
595.62	334.70
595.78	203.63
595.94	278.52
596.10	315.97
596.25	280.86
596.41	294.91
596.57	250.44
596.73	224.69
596.88	311.29
597.04	299.59
597.20	346.40
597.36	290.23
597.51	266.82
597.67	297.25
597.83	292.57
597.99	315.97
598.14	278.52
598.30	360.44
598.46	280.86
598.61	409.59
598.77	355.76
598.93	301.93
599.09	311.29
599.24	285.55
599.40	395.55
599.56	367.46
599.71	332.36
599.87	330.02
600.03	325.33
600.18	304.27
600.34	360.44
600.50	315.97
600.65	205.97
600.81	259.80
600.97	299.59
601.12	315.97
601.28	252.78
601.44	283.20
601.59	294.91
601.75	217.67
601.91	201.29
602.06	238.73
602.22	341.72
602.37	313.63
602.53	287.89
602.69	262.14
602.84	255.12
603.00	264.48
603.16	283.20
603.31	301.93
603.47	330.02
603.62	231.71
603.78	278.52
603.94	252.78
604.09	306.61
604.25	259.80
604.40	222.35
604.56	231.71
604.71	262.14
604.87	196.60
605.03	301.93
605.18	234.05
605.34	283.20
605.49	292.57
605.65	264.48
605.80	201.29
605.96	269.16
606.12	351.08
606.27	294.91
606.43	285.55
606.58	334.70
606.74	287.89
606.89	257.46
607.05	301.93
607.20	189.58
607.36	308.95
607.51	285.55
607.67	367.46
607.82	318.31
607.98	353.42
608.13	372.15
608.29	411.93
608.44	437.68
608.60	409.59
608.75	418.96
608.91	409.59
609.06	472.79
609.22	489.17
609.37	491.51
609.53	550.03
609.68	636.63
609.84	594.50
609.99	770.04
610.15	849.61
610.30	1011.11
610.46	1217.08
610.61	1451.13
610.76	1849.02
610.92	2101.80
611.07	2342.88
611.23	2431.82
