SpectraSuite Data File
++++++++++++++++++++++++++++++++++++
Date: Fri Oct 04 11:42:14 GMT-05:00 2013
User: price-jones
Dark Spectrum Present: No
Reference Spectrum Present: No
Number of Sampled Component Spectra: 1
Spectrometers: USB2+H05261
Integration Time (usec): 100000 (USB2+H05261)
Spectra Averaged: 1 (USB2+H05261)
Boxcar Smoothing: 0 (USB2+H05261)
Correct for Electrical Dark: No (USB2+H05261)
Strobe/Lamp Enabled: No (USB2+H05261)
Correct for Detector Non-linearity: No (USB2+H05261)
Correct for Stray Light: No (USB2+H05261)
Number of Pixels in Processed Spectrum: 2048
>>>>>Begin Processed Spectral Data<<<<<
365.73	4.68
365.92	4.68
366.12	4.68
366.32	0.00
366.52	0.00
366.72	0.00
366.91	0.00
367.11	0.00
367.31	0.00
367.51	0.00
367.70	0.00
367.90	0.00
368.10	0.00
368.30	0.00
368.49	0.00
368.69	0.00
368.89	44.47
369.09	0.00
369.28	0.00
369.48	0.00
369.68	0.00
369.87	0.00
370.07	14.04
370.27	0.00
370.47	4.68
370.66	35.11
370.86	56.17
371.06	0.00
371.25	77.24
371.45	42.13
371.65	39.79
371.84	84.26
372.04	49.15
372.24	114.69
372.44	107.66
372.63	145.11
372.83	25.75
373.03	91.28
373.22	74.90
373.42	91.28
373.62	124.05
373.81	105.32
374.01	163.84
374.21	220.01
374.40	58.51
374.60	117.03
374.79	135.75
374.99	95.96
375.19	126.39
375.38	177.88
375.58	60.85
375.78	102.98
375.97	135.75
376.17	138.09
376.37	114.69
376.56	65.54
376.76	138.09
376.95	44.47
377.15	86.60
377.35	156.82
377.54	135.75
377.74	117.03
377.93	84.26
378.13	173.20
378.33	145.11
378.52	102.98
378.72	124.05
378.91	177.88
379.11	180.22
379.31	208.31
379.50	131.07
379.70	107.66
379.89	142.77
380.09	142.77
380.28	51.49
380.48	135.75
380.68	114.69
380.87	124.05
381.07	114.69
381.26	131.07
381.46	119.37
381.65	107.66
381.85	154.48
382.04	81.92
382.24	149.79
382.43	149.79
382.63	91.28
382.83	170.86
383.02	138.09
383.22	119.37
383.41	154.48
383.61	154.48
383.80	60.85
384.00	140.43
384.19	74.90
384.39	133.41
384.58	77.24
384.78	140.43
384.97	128.73
385.17	79.58
385.36	100.64
385.56	86.60
385.75	70.22
385.95	98.30
386.14	152.13
386.34	63.19
386.53	86.60
386.72	56.17
386.92	105.32
387.11	177.88
387.31	131.07
387.50	166.18
387.70	161.50
387.89	121.71
388.09	100.64
388.28	72.56
388.48	119.37
388.67	112.35
388.86	95.96
389.06	86.60
389.25	65.54
389.45	88.94
389.64	154.48
389.84	124.05
390.03	161.50
390.22	124.05
390.42	79.58
390.61	79.58
390.81	60.85
391.00	140.43
391.19	128.73
391.39	131.07
391.58	114.69
391.78	72.56
391.97	79.58
392.16	79.58
392.36	177.88
392.55	175.54
392.75	105.32
392.94	110.01
393.13	156.82
393.33	35.11
393.52	105.32
393.71	177.88
393.91	107.66
394.10	114.69
394.29	79.58
394.49	72.56
394.68	81.92
394.88	117.03
395.07	98.30
395.26	126.39
395.46	86.60
395.65	124.05
395.84	105.32
396.04	147.45
396.23	84.26
396.42	114.69
396.62	126.39
396.81	7.02
397.00	44.47
397.19	128.73
397.39	131.07
397.58	121.71
397.77	79.58
397.97	168.52
398.16	93.62
398.35	173.20
398.55	126.39
398.74	98.30
398.93	121.71
399.12	63.19
399.32	133.41
399.51	105.32
399.70	105.32
399.90	65.54
400.09	131.07
400.28	156.82
400.47	133.41
400.67	119.37
400.86	93.62
401.05	154.48
401.24	124.05
401.44	72.56
401.63	117.03
401.82	177.88
402.01	121.71
402.21	84.26
402.40	168.52
402.59	46.81
402.78	135.75
402.97	131.07
403.17	74.90
403.36	133.41
403.55	149.79
403.74	67.88
403.93	166.18
404.13	212.99
404.32	231.71
404.51	198.95
404.70	252.78
404.89	110.01
405.09	161.50
405.28	93.62
405.47	163.84
405.66	114.69
405.85	196.60
406.05	149.79
406.24	152.13
406.43	140.43
406.62	163.84
406.81	217.67
407.00	159.16
407.20	170.86
407.39	173.20
407.58	149.79
407.77	187.24
407.96	184.90
408.15	152.13
408.34	138.09
408.54	67.88
408.73	105.32
408.92	93.62
409.11	105.32
409.30	124.05
409.49	56.17
409.68	105.32
409.87	128.73
410.07	119.37
410.26	175.54
410.45	170.86
410.64	140.43
410.83	180.22
411.02	117.03
411.21	170.86
411.40	128.73
411.59	126.39
411.78	63.19
411.98	135.75
412.17	128.73
412.36	154.48
412.55	128.73
412.74	133.41
412.93	168.52
413.12	166.18
413.31	182.56
413.50	184.90
413.69	170.86
413.88	159.16
414.07	128.73
414.26	140.43
414.45	168.52
414.64	180.22
414.83	93.62
415.02	189.58
415.22	168.52
415.41	173.20
415.60	81.92
415.79	154.48
415.98	159.16
416.17	175.54
416.36	201.29
416.55	133.41
416.74	77.24
416.93	131.07
417.12	145.11
417.31	198.95
417.50	140.43
417.69	182.56
417.88	84.26
418.07	110.01
418.26	114.69
418.45	114.69
418.64	217.67
418.83	131.07
419.02	184.90
419.21	119.37
419.39	100.64
419.58	93.62
419.77	86.60
419.96	152.13
420.15	168.52
420.34	65.54
420.53	98.30
420.72	72.56
420.91	161.50
421.10	112.35
421.29	142.77
421.48	208.31
421.67	184.90
421.86	100.64
422.05	121.71
422.24	173.20
422.43	121.71
422.61	51.49
422.80	112.35
422.99	117.03
423.18	128.73
423.37	224.69
423.56	224.69
423.75	161.50
423.94	128.73
424.13	159.16
424.32	105.32
424.50	124.05
424.69	159.16
424.88	93.62
425.07	133.41
425.26	138.09
425.45	121.71
425.64	173.20
425.83	100.64
426.01	142.77
426.20	128.73
426.39	175.54
426.58	210.65
426.77	107.66
426.96	166.18
427.15	138.09
427.33	77.24
427.52	191.92
427.71	184.90
427.90	208.31
428.09	72.56
428.28	112.35
428.46	65.54
428.65	100.64
428.84	95.96
429.03	145.11
429.22	119.37
429.40	107.66
429.59	112.35
429.78	166.18
429.97	159.16
430.16	147.45
430.34	112.35
430.53	154.48
430.72	212.99
430.91	98.30
431.10	145.11
431.28	145.11
431.47	182.56
431.66	156.82
431.85	156.82
432.03	168.52
432.22	266.82
432.41	126.39
432.60	189.58
432.79	142.77
432.97	217.67
433.16	222.35
433.35	98.30
433.54	140.43
433.72	194.26
433.91	154.48
434.10	198.95
434.28	205.97
434.47	184.90
434.66	198.95
434.85	166.18
435.03	334.70
435.22	580.45
435.41	894.08
435.59	924.51
435.78	676.41
435.97	358.10
436.16	273.84
436.34	159.16
436.53	191.92
436.72	135.75
436.90	159.16
437.09	184.90
437.28	138.09
437.46	88.94
437.65	152.13
437.84	196.60
438.02	224.69
438.21	201.29
438.40	184.90
438.58	161.50
438.77	184.90
438.96	100.64
439.14	100.64
439.33	117.03
439.52	112.35
439.70	102.98
439.89	208.31
440.08	131.07
440.26	205.97
440.45	147.45
440.63	100.64
440.82	217.67
441.01	205.97
441.19	138.09
441.38	119.37
441.57	215.33
441.75	177.88
441.94	227.03
442.12	175.54
442.31	159.16
442.50	161.50
442.68	177.88
442.87	145.11
443.05	135.75
443.24	159.16
443.43	177.88
443.61	215.33
443.80	166.18
443.98	145.11
444.17	98.30
444.35	177.88
444.54	156.82
444.73	142.77
444.91	271.50
445.10	159.16
445.28	166.18
445.47	198.95
445.65	138.09
445.84	131.07
446.02	255.12
446.21	170.86
446.39	205.97
446.58	110.01
446.77	229.37
446.95	149.79
447.14	98.30
447.32	210.65
447.51	205.97
447.69	184.90
447.88	220.01
448.06	238.73
448.25	224.69
448.43	208.31
448.62	173.20
448.80	210.65
448.99	175.54
449.17	175.54
449.36	142.77
449.54	196.60
449.73	163.84
449.91	163.84
450.10	152.13
450.28	208.31
450.46	180.22
450.65	236.39
450.83	145.11
451.02	166.18
451.20	222.35
451.39	161.50
451.57	156.82
451.76	147.45
451.94	138.09
452.13	149.79
452.31	189.58
452.49	156.82
452.68	140.43
452.86	227.03
453.05	236.39
453.23	215.33
453.42	156.82
453.60	168.52
453.78	114.69
453.97	182.56
454.15	138.09
454.34	184.90
454.52	124.05
454.70	220.01
454.89	205.97
455.07	138.09
455.26	180.22
455.44	177.88
455.62	194.26
455.81	175.54
455.99	138.09
456.17	215.33
456.36	250.44
456.54	163.84
456.73	81.92
456.91	159.16
457.09	255.12
457.28	212.99
457.46	210.65
457.64	248.10
457.83	124.05
458.01	196.60
458.19	229.37
458.38	191.92
458.56	117.03
458.74	203.63
458.93	177.88
459.11	147.45
459.29	187.24
459.48	140.43
459.66	229.37
459.84	191.92
460.03	205.97
460.21	220.01
460.39	168.52
460.57	163.84
460.76	156.82
460.94	187.24
461.12	163.84
461.31	175.54
461.49	196.60
461.67	187.24
461.85	147.45
462.04	236.39
462.22	299.59
462.40	184.90
462.59	149.79
462.77	166.18
462.95	142.77
463.13	224.69
463.32	187.24
463.50	119.37
463.68	182.56
463.86	147.45
464.05	210.65
464.23	173.20
464.41	198.95
464.59	168.52
464.78	238.73
464.96	138.09
465.14	187.24
465.32	156.82
465.50	149.79
465.69	205.97
465.87	147.45
466.05	161.50
466.23	170.86
466.41	208.31
466.60	149.79
466.78	135.75
466.96	227.03
467.14	175.54
467.32	217.67
467.51	170.86
467.69	203.63
467.87	224.69
468.05	166.18
468.23	180.22
468.41	196.60
468.60	168.52
468.78	229.37
468.96	203.63
469.14	170.86
469.32	147.45
469.50	175.54
469.69	220.01
469.87	177.88
470.05	191.92
470.23	180.22
470.41	184.90
470.59	147.45
470.77	189.58
470.95	154.48
471.14	177.88
471.32	152.13
471.50	227.03
471.68	182.56
471.86	191.92
472.04	142.77
472.22	159.16
472.40	196.60
472.58	236.39
472.77	170.86
472.95	182.56
473.13	217.67
473.31	189.58
473.49	112.35
473.67	205.97
473.85	196.60
474.03	222.35
474.21	222.35
474.39	184.90
474.57	203.63
474.75	191.92
474.93	110.01
475.12	154.48
475.30	229.37
475.48	215.33
475.66	145.11
475.84	168.52
476.02	241.08
476.20	224.69
476.38	170.86
476.56	231.71
476.74	220.01
476.92	154.48
477.10	187.24
477.28	205.97
477.46	177.88
477.64	159.16
477.82	217.67
478.00	156.82
478.18	201.29
478.36	166.18
478.54	177.88
478.72	147.45
478.90	184.90
479.08	135.75
479.26	177.88
479.44	255.12
479.62	112.35
479.80	191.92
479.98	145.11
480.16	208.31
480.34	184.90
480.52	191.92
480.70	222.35
480.88	170.86
481.06	210.65
481.24	210.65
481.41	184.90
481.59	238.73
481.77	198.95
481.95	248.10
482.13	196.60
482.31	170.86
482.49	135.75
482.67	245.76
482.85	266.82
483.03	196.60
483.21	184.90
483.39	287.89
483.57	224.69
483.74	238.73
483.92	234.05
484.10	149.79
484.28	252.78
484.46	290.23
484.64	231.71
484.82	210.65
485.00	238.73
485.18	212.99
485.35	358.10
485.53	271.50
485.71	278.52
485.89	273.84
486.07	271.50
486.25	390.87
486.43	308.95
486.61	287.89
486.78	217.67
486.96	222.35
487.14	252.78
487.32	320.65
487.50	285.55
487.68	332.36
487.85	299.59
488.03	283.20
488.21	355.76
488.39	339.38
488.57	313.63
488.75	299.59
488.92	451.72
489.10	306.61
489.28	330.02
489.46	297.25
489.64	273.84
489.81	320.65
489.99	306.61
490.17	285.55
490.35	353.42
490.53	262.14
490.70	266.82
490.88	320.65
491.06	294.91
491.24	231.71
491.41	250.44
491.59	255.12
491.77	229.37
491.95	154.48
492.13	224.69
492.30	322.99
492.48	299.59
492.66	386.19
492.84	304.27
493.01	283.20
493.19	320.65
493.37	292.57
493.54	217.67
493.72	234.05
493.90	292.57
494.08	297.25
494.25	348.74
494.43	334.70
494.61	273.84
494.79	248.10
494.96	322.99
495.14	269.16
495.32	264.48
495.49	203.63
495.67	194.26
495.85	341.72
496.02	304.27
496.20	241.08
496.38	198.95
496.55	245.76
496.73	252.78
496.91	287.89
497.09	257.46
497.26	344.06
497.44	220.01
497.62	313.63
497.79	348.74
497.97	322.99
498.14	294.91
498.32	301.93
498.50	220.01
498.67	175.54
498.85	297.25
499.03	259.80
499.20	308.95
499.38	285.55
499.56	222.35
499.73	304.27
499.91	245.76
500.08	283.20
500.26	238.73
500.44	175.54
500.61	278.52
500.79	177.88
500.97	212.99
501.14	273.84
501.32	236.39
501.49	236.39
501.67	266.82
501.84	280.86
502.02	311.29
502.20	353.42
502.37	156.82
502.55	273.84
502.72	250.44
502.90	283.20
503.07	266.82
503.25	262.14
503.43	243.42
503.60	262.14
503.78	208.31
503.95	212.99
504.13	205.97
504.30	346.40
504.48	234.05
504.65	231.71
504.83	348.74
505.01	278.52
505.18	299.59
505.36	311.29
505.53	259.80
505.71	145.11
505.88	255.12
506.06	161.50
506.23	269.16
506.41	290.23
506.58	280.86
506.76	283.20
506.93	234.05
507.11	229.37
507.28	231.71
507.46	222.35
507.63	227.03
507.81	224.69
507.98	248.10
508.16	241.08
508.33	220.01
508.50	306.61
508.68	236.39
508.85	285.55
509.03	252.78
509.20	255.12
509.38	248.10
509.55	255.12
509.73	234.05
509.90	184.90
510.08	205.97
510.25	294.91
510.42	229.37
510.60	250.44
510.77	264.48
510.95	220.01
511.12	248.10
511.30	341.72
511.47	229.37
511.64	248.10
511.82	306.61
511.99	266.82
512.17	264.48
512.34	201.29
512.51	212.99
512.69	229.37
512.86	187.24
513.04	203.63
513.21	184.90
513.38	227.03
513.56	280.86
513.73	266.82
513.90	238.73
514.08	271.50
514.25	231.71
514.43	280.86
514.60	248.10
514.77	252.78
514.95	339.38
515.12	276.18
515.29	259.80
515.47	180.22
515.64	313.63
515.81	250.44
515.99	222.35
516.16	243.42
516.33	285.55
516.51	245.76
516.68	245.76
516.85	224.69
517.03	220.01
517.20	306.61
517.37	299.59
517.54	205.97
517.72	198.95
517.89	147.45
518.06	229.37
518.24	236.39
518.41	292.57
518.58	262.14
518.75	259.80
518.93	229.37
519.10	222.35
519.27	227.03
519.45	311.29
519.62	290.23
519.79	227.03
519.96	210.65
520.14	177.88
520.31	304.27
520.48	217.67
520.65	320.65
520.83	264.48
521.00	245.76
521.17	250.44
521.34	203.63
521.52	205.97
521.69	266.82
521.86	224.69
522.03	266.82
522.20	285.55
522.38	220.01
522.55	243.42
522.72	227.03
522.89	227.03
523.07	297.25
523.24	280.86
523.41	191.92
523.58	196.60
523.75	210.65
523.92	224.69
524.10	264.48
524.27	313.63
524.44	243.42
524.61	290.23
524.78	234.05
524.96	318.31
525.13	194.26
525.30	262.14
525.47	252.78
525.64	208.31
525.81	262.14
525.98	187.24
526.16	245.76
526.33	280.86
526.50	236.39
526.67	227.03
526.84	222.35
527.01	191.92
527.18	264.48
527.36	278.52
527.53	205.97
527.70	280.86
527.87	283.20
528.04	325.33
528.21	231.71
528.38	285.55
528.55	278.52
528.72	280.86
528.89	266.82
529.07	212.99
529.24	215.33
529.41	250.44
529.58	205.97
529.75	243.42
529.92	203.63
530.09	271.50
530.26	269.16
530.43	287.89
530.60	306.61
530.77	238.73
530.94	280.86
531.11	245.76
531.28	294.91
531.46	278.52
531.63	248.10
531.80	262.14
531.97	266.82
532.14	227.03
532.31	205.97
532.48	250.44
532.65	292.57
532.82	201.29
532.99	318.31
533.16	285.55
533.33	330.02
533.50	283.20
533.67	255.12
533.84	266.82
534.01	301.93
534.18	290.23
534.35	273.84
534.52	210.65
534.69	304.27
534.86	264.48
535.03	229.37
535.20	283.20
535.37	241.08
535.54	355.76
535.71	292.57
535.88	327.68
536.05	252.78
536.22	351.08
536.38	292.57
536.55	332.36
536.72	276.18
536.89	341.72
537.06	348.74
537.23	311.29
537.40	409.59
537.57	397.89
537.74	390.87
537.91	397.89
538.08	290.23
538.25	444.70
538.42	395.55
538.59	407.25
538.75	461.09
538.92	393.21
539.09	433.00
539.26	433.00
539.43	519.60
539.60	535.98
539.77	550.03
539.94	550.03
540.11	580.45
540.28	709.18
540.44	688.12
540.61	596.84
540.78	571.09
540.95	774.72
541.12	936.21
541.29	1132.82
541.46	1137.50
541.62	1048.56
541.79	1008.77
541.96	1032.18
542.13	1093.03
542.30	947.92
542.47	952.60
542.63	898.77
542.80	966.64
542.97	1004.09
543.14	926.85
543.31	947.92
543.48	887.06
543.64	929.19
543.81	915.15
543.98	894.08
544.15	903.45
544.32	877.70
544.48	882.38
544.65	870.68
544.82	823.87
544.99	954.94
545.16	870.68
545.32	870.68
545.49	1376.24
545.66	2235.21
545.83	2476.29
546.00	2150.95
546.16	1537.73
546.33	1149.20
546.50	851.96
546.67	828.55
546.83	674.07
547.00	725.57
547.17	664.71
547.34	657.69
547.50	702.16
547.67	596.84
547.84	620.24
548.00	641.31
548.17	606.20
548.34	559.39
548.51	631.94
548.67	493.85
548.84	472.79
549.01	528.96
549.18	472.79
549.34	573.43
549.51	533.64
549.68	507.90
549.84	493.85
550.01	440.02
550.18	573.43
550.34	477.47
550.51	411.93
550.68	493.85
550.84	470.45
551.01	468.11
551.18	402.57
551.34	299.59
551.51	374.49
551.68	379.17
551.84	423.64
552.01	418.96
552.18	400.23
552.34	355.76
552.51	297.25
552.68	327.68
552.84	355.76
553.01	337.04
553.18	430.66
553.34	330.02
553.51	376.83
553.67	372.15
553.84	418.96
554.01	322.99
554.17	264.48
554.34	297.25
554.51	409.59
554.67	360.44
554.84	325.33
555.00	271.50
555.17	290.23
555.33	318.31
555.50	252.78
555.67	241.08
555.83	320.65
556.00	283.20
556.16	458.74
556.33	278.52
556.50	308.95
556.66	308.95
556.83	222.35
556.99	304.27
557.16	276.18
557.32	360.44
557.49	264.48
557.65	201.29
557.82	330.02
557.98	311.29
558.15	262.14
558.32	224.69
558.48	217.67
558.65	229.37
558.81	266.82
558.98	262.14
559.14	248.10
559.31	332.36
559.47	222.35
559.64	271.50
559.80	196.60
559.97	280.86
560.13	264.48
560.30	271.50
560.46	238.73
560.63	292.57
560.79	238.73
560.96	306.61
561.12	280.86
561.29	313.63
561.45	248.10
561.61	248.10
561.78	360.44
561.94	229.37
562.11	184.90
562.27	252.78
562.44	283.20
562.60	252.78
562.77	255.12
562.93	379.17
563.10	287.89
563.26	297.25
563.42	280.86
563.59	276.18
563.75	292.57
563.92	299.59
564.08	264.48
564.24	227.03
564.41	308.95
564.57	201.29
564.74	212.99
564.90	283.20
565.07	271.50
565.23	266.82
565.39	257.46
565.56	304.27
565.72	154.48
565.88	238.73
566.05	175.54
566.21	245.76
566.38	280.86
566.54	231.71
566.70	220.01
566.87	294.91
567.03	238.73
567.19	262.14
567.36	273.84
567.52	222.35
567.68	257.46
567.85	252.78
568.01	217.67
568.17	252.78
568.34	184.90
568.50	236.39
568.66	255.12
568.83	308.95
568.99	238.73
569.15	257.46
569.32	290.23
569.48	252.78
569.64	210.65
569.81	180.22
569.97	180.22
570.13	198.95
570.30	278.52
570.46	241.08
570.62	301.93
570.78	262.14
570.95	180.22
571.11	264.48
571.27	220.01
571.43	210.65
571.60	311.29
571.76	229.37
571.92	248.10
572.09	203.63
572.25	187.24
572.41	306.61
572.57	252.78
572.74	320.65
572.90	252.78
573.06	304.27
573.22	287.89
573.38	280.86
573.55	283.20
573.71	325.33
573.87	189.58
574.03	241.08
574.20	163.84
574.36	245.76
574.52	182.56
574.68	203.63
574.84	241.08
575.01	170.86
575.17	318.31
575.33	236.39
575.49	257.46
575.65	234.05
575.82	297.25
575.98	297.25
576.14	255.12
576.30	355.76
576.46	479.81
576.62	660.03
576.79	641.31
576.95	519.60
577.11	430.66
577.27	322.99
577.43	330.02
577.59	271.50
577.75	327.68
577.92	287.89
578.08	290.23
578.24	294.91
578.40	306.61
578.56	449.38
578.72	613.22
578.88	582.79
579.04	521.94
579.21	390.87
579.37	416.62
579.53	402.57
579.69	376.83
579.85	348.74
580.01	437.68
580.17	386.19
580.33	433.00
580.49	351.08
580.65	322.99
580.82	322.99
580.98	294.91
581.14	430.66
581.30	409.59
581.46	351.08
581.62	355.76
581.78	358.10
581.94	444.70
582.10	320.65
582.26	409.59
582.42	339.38
582.58	468.11
582.74	372.15
582.90	416.62
583.06	362.78
583.22	404.91
583.38	360.44
583.54	402.57
583.70	421.30
583.86	367.46
584.02	381.51
584.18	341.72
584.34	351.08
584.50	355.76
584.66	362.78
584.82	362.78
584.98	423.64
585.14	367.46
585.30	390.87
585.46	433.00
585.62	346.40
585.78	365.12
585.94	332.36
586.10	315.97
586.26	386.19
586.42	442.36
586.58	458.74
586.74	493.85
586.90	592.16
587.06	428.32
587.22	472.79
587.38	468.11
587.54	456.40
587.70	465.77
587.86	379.17
588.02	315.97
588.18	311.29
588.34	372.15
588.49	313.63
588.65	308.95
588.81	315.97
588.97	299.59
589.13	332.36
589.29	346.40
589.45	320.65
589.61	271.50
589.77	292.57
589.93	362.78
590.08	243.42
590.24	250.44
590.40	264.48
590.56	320.65
590.72	318.31
590.88	402.57
591.04	374.49
591.20	292.57
591.35	337.04
591.51	327.68
591.67	308.95
591.83	297.25
591.99	337.04
592.15	360.44
592.31	346.40
592.46	475.13
592.62	437.68
592.78	482.15
592.94	465.77
593.10	428.32
593.26	458.74
593.41	449.38
593.57	372.15
593.73	372.15
593.89	362.78
594.05	285.55
594.20	224.69
594.36	355.76
594.52	252.78
594.68	252.78
594.84	269.16
594.99	250.44
595.15	248.10
595.31	376.83
595.47	250.44
595.62	264.48
595.78	311.29
595.94	163.84
596.10	386.19
596.25	348.74
596.41	301.93
596.57	278.52
596.73	220.01
596.88	280.86
597.04	292.57
597.20	220.01
597.36	341.72
597.51	229.37
597.67	322.99
597.83	311.29
597.99	339.38
598.14	297.25
598.30	322.99
598.46	255.12
598.61	416.62
598.77	327.68
598.93	313.63
599.09	365.12
599.24	285.55
599.40	362.78
599.56	358.10
599.71	341.72
599.87	337.04
600.03	344.06
600.18	334.70
600.34	297.25
600.50	320.65
600.65	210.65
600.81	304.27
600.97	308.95
601.12	255.12
601.28	367.46
601.44	322.99
601.59	248.10
601.75	278.52
601.91	238.73
602.06	241.08
602.22	313.63
602.37	276.18
602.53	227.03
602.69	266.82
602.84	196.60
603.00	266.82
603.16	215.33
603.31	257.46
603.47	262.14
603.62	257.46
603.78	229.37
603.94	299.59
604.09	283.20
604.25	271.50
604.40	315.97
604.56	280.86
604.71	245.76
604.87	306.61
605.03	280.86
605.18	245.76
605.34	318.31
605.49	262.14
605.65	334.70
605.80	304.27
605.96	273.84
606.12	320.65
606.27	273.84
606.43	283.20
606.58	292.57
606.74	355.76
606.89	409.59
607.05	313.63
607.20	393.21
607.36	337.04
607.51	262.14
607.67	358.10
607.82	449.38
607.98	395.55
608.13	351.08
608.29	353.42
608.44	388.53
608.60	409.59
608.75	421.30
608.91	440.02
609.06	458.74
609.22	512.58
609.37	540.66
609.53	435.34
609.68	594.50
609.84	641.31
609.99	706.84
610.15	898.77
610.30	912.81
610.46	1167.93
610.61	1497.94
610.76	1802.21
610.92	2017.54
611.07	2328.83
611.23	2340.54
611.38	2188.40
