SpectraSuite Data File
++++++++++++++++++++++++++++++++++++
Date: Fri Oct 04 11:41:46 GMT-05:00 2013
User: price-jones
Dark Spectrum Present: No
Reference Spectrum Present: No
Number of Sampled Component Spectra: 1
Spectrometers: USB2+H05261
Integration Time (usec): 100000 (USB2+H05261)
Spectra Averaged: 1 (USB2+H05261)
Boxcar Smoothing: 0 (USB2+H05261)
Correct for Electrical Dark: No (USB2+H05261)
Strobe/Lamp Enabled: No (USB2+H05261)
Correct for Detector Non-linearity: No (USB2+H05261)
Correct for Stray Light: No (USB2+H05261)
Number of Pixels in Processed Spectrum: 2048
>>>>>Begin Processed Spectral Data<<<<<
365.73	107.66
365.92	107.66
366.12	107.66
366.32	0.00
366.52	0.00
366.72	0.00
366.91	0.00
367.11	0.00
367.31	0.00
367.51	0.00
367.70	0.00
367.90	0.00
368.10	0.00
368.30	0.00
368.49	0.00
368.69	0.00
368.89	0.00
369.09	0.00
369.28	0.00
369.48	0.00
369.68	0.00
369.87	0.00
370.07	0.00
370.27	37.45
370.47	0.00
370.66	11.70
370.86	77.24
371.06	131.07
371.25	117.03
371.45	70.22
371.65	121.71
371.84	114.69
372.04	102.98
372.24	77.24
372.44	60.85
372.63	65.54
372.83	156.82
373.03	35.11
373.22	98.30
373.42	187.24
373.62	60.85
373.81	124.05
374.01	126.39
374.21	191.92
374.40	152.13
374.60	168.52
374.79	156.82
374.99	84.26
375.19	128.73
375.38	175.54
375.58	187.24
375.78	135.75
375.97	152.13
376.17	177.88
376.37	65.54
376.56	138.09
376.76	184.90
376.95	229.37
377.15	124.05
377.35	201.29
377.54	95.96
377.74	135.75
377.93	173.20
378.13	131.07
378.33	173.20
378.52	142.77
378.72	140.43
378.91	149.79
379.11	187.24
379.31	175.54
379.50	180.22
379.70	177.88
379.89	191.92
380.09	149.79
380.28	173.20
380.48	110.01
380.68	67.88
380.87	102.98
381.07	173.20
381.26	196.60
381.46	138.09
381.65	138.09
381.85	140.43
382.04	189.58
382.24	138.09
382.43	74.90
382.63	131.07
382.83	100.64
383.02	112.35
383.22	119.37
383.41	88.94
383.61	142.77
383.80	154.48
384.00	121.71
384.19	51.49
384.39	173.20
384.58	208.31
384.78	138.09
384.97	107.66
385.17	86.60
385.36	128.73
385.56	168.52
385.75	133.41
385.95	135.75
386.14	194.26
386.34	81.92
386.53	175.54
386.72	149.79
386.92	126.39
387.11	133.41
387.31	241.08
387.50	81.92
387.70	46.81
387.89	187.24
388.09	119.37
388.28	9.36
388.48	184.90
388.67	110.01
388.86	56.17
389.06	117.03
389.25	93.62
389.45	191.92
389.64	102.98
389.84	163.84
390.03	177.88
390.22	149.79
390.42	215.33
390.61	114.69
390.81	51.49
391.00	117.03
391.19	191.92
391.39	131.07
391.58	126.39
391.78	131.07
391.97	145.11
392.16	56.17
392.36	74.90
392.55	177.88
392.75	131.07
392.94	63.19
393.13	189.58
393.33	131.07
393.52	138.09
393.71	168.52
393.91	138.09
394.10	145.11
394.29	154.48
394.49	154.48
394.68	184.90
394.88	149.79
395.07	154.48
395.26	177.88
395.46	88.94
395.65	133.41
395.84	145.11
396.04	187.24
396.23	168.52
396.42	112.35
396.62	117.03
396.81	135.75
397.00	117.03
397.19	149.79
397.39	180.22
397.58	124.05
397.77	124.05
397.97	189.58
398.16	91.28
398.35	114.69
398.55	191.92
398.74	166.18
398.93	152.13
399.12	173.20
399.32	161.50
399.51	102.98
399.70	198.95
399.90	154.48
400.09	196.60
400.28	238.73
400.47	154.48
400.67	140.43
400.86	140.43
401.05	177.88
401.24	156.82
401.44	236.39
401.63	217.67
401.82	236.39
402.01	133.41
402.21	198.95
402.40	220.01
402.59	220.01
402.78	152.13
402.97	203.63
403.17	203.63
403.36	269.16
403.55	395.55
403.74	842.59
403.93	2324.15
404.13	5818.57
404.32	9804.50
404.51	9954.30
404.70	6289.02
404.89	2333.51
405.09	655.35
405.28	327.68
405.47	315.97
405.66	250.44
405.85	262.14
406.05	278.52
406.24	245.76
406.43	215.33
406.62	304.27
406.81	306.61
407.00	362.78
407.20	667.05
407.39	1186.65
407.58	1448.79
407.77	1139.84
407.96	601.52
408.15	304.27
408.34	292.57
408.54	245.76
408.73	222.35
408.92	243.42
409.11	189.58
409.30	241.08
409.49	135.75
409.68	166.18
409.87	180.22
410.07	170.86
410.26	194.26
410.45	217.67
410.64	217.67
410.83	184.90
411.02	217.67
411.21	241.08
411.40	222.35
411.59	222.35
411.78	198.95
411.98	238.73
412.17	212.99
412.36	255.12
412.55	273.84
412.74	250.44
412.93	318.31
413.12	175.54
413.31	299.59
413.50	250.44
413.69	196.60
413.88	271.50
414.07	234.05
414.26	341.72
414.45	308.95
414.64	236.39
414.83	306.61
415.02	283.20
415.22	243.42
415.41	201.29
415.60	255.12
415.79	262.14
415.98	308.95
416.17	351.08
416.36	283.20
416.55	334.70
416.74	280.86
416.93	290.23
417.12	255.12
417.31	250.44
417.50	250.44
417.69	383.85
417.88	360.44
418.07	280.86
418.26	276.18
418.45	311.29
418.64	266.82
418.83	238.73
419.02	327.68
419.21	332.36
419.39	278.52
419.58	269.16
419.77	339.38
419.96	379.17
420.15	360.44
420.34	322.99
420.53	383.85
420.72	322.99
420.91	355.76
421.10	360.44
421.29	360.44
421.48	346.40
421.67	362.78
421.86	330.02
422.05	311.29
422.24	259.80
422.43	393.21
422.61	320.65
422.80	400.23
422.99	400.23
423.18	330.02
423.37	418.96
423.56	358.10
423.75	353.42
423.94	381.51
424.13	339.38
424.32	334.70
424.50	435.34
424.69	421.30
424.88	397.89
425.07	425.98
425.26	383.85
425.45	397.89
425.64	386.19
425.83	339.38
426.01	486.83
426.20	411.93
426.39	383.85
426.58	332.36
426.77	425.98
426.96	400.23
427.15	411.93
427.33	346.40
427.52	421.30
427.71	428.32
427.90	428.32
428.09	395.55
428.28	402.57
428.46	425.98
428.65	461.09
428.84	498.53
429.03	507.90
429.22	383.85
429.40	411.93
429.59	519.60
429.78	428.32
429.97	454.06
430.16	423.64
430.34	517.26
430.53	440.02
430.72	397.89
430.91	521.94
431.10	472.79
431.28	505.56
431.47	393.21
431.66	442.36
431.85	486.83
432.03	533.64
432.22	524.28
432.41	552.37
432.60	589.82
432.79	547.69
432.97	634.29
433.16	629.60
433.35	669.39
433.54	760.67
433.72	779.40
433.91	777.06
434.10	938.55
434.28	1088.35
434.47	1313.04
434.66	1427.73
434.85	1689.87
435.03	3908.69
435.22	14361.53
435.41	36603.64
435.59	49727.02
435.78	37046.00
435.97	16915.05
436.16	6384.98
436.34	2080.74
436.53	1277.93
436.72	976.00
436.90	826.21
437.09	730.25
437.28	617.90
437.46	704.50
437.65	709.18
437.84	594.50
438.02	641.31
438.21	608.54
438.40	648.33
438.58	585.13
438.77	648.33
438.96	641.31
439.14	533.64
439.33	540.66
439.52	561.73
439.70	608.54
439.89	653.01
440.08	519.60
440.26	587.47
440.45	706.84
440.63	550.03
440.82	557.05
441.01	582.79
441.19	521.94
441.38	610.88
441.57	599.18
441.75	641.31
441.94	631.94
442.12	585.13
442.31	535.98
442.50	575.77
442.68	575.77
442.87	566.41
443.05	645.99
443.24	564.07
443.43	648.33
443.61	580.45
443.80	561.73
443.98	550.03
444.17	613.22
444.35	667.05
444.54	603.86
444.73	610.88
444.91	585.13
445.10	538.32
445.28	550.03
445.47	589.82
445.65	503.22
445.84	573.43
446.02	564.07
446.21	582.79
446.39	596.84
446.58	613.22
446.77	592.16
446.95	606.20
447.14	660.03
447.32	613.22
447.51	571.09
447.69	669.39
447.88	589.82
448.06	592.16
448.25	613.22
448.43	559.39
448.62	528.96
448.80	566.41
448.99	573.43
449.17	580.45
449.36	617.90
449.54	571.09
449.73	580.45
449.91	535.98
450.10	592.16
450.28	617.90
450.46	688.12
450.65	573.43
450.83	601.52
451.02	557.05
451.20	535.98
451.39	622.58
451.57	496.19
451.76	554.71
451.94	517.26
452.13	561.73
452.31	671.73
452.49	557.05
452.68	538.32
452.86	521.94
453.05	507.90
453.23	720.88
453.42	564.07
453.60	643.65
453.78	582.79
453.97	491.51
454.15	500.87
454.34	486.83
454.52	589.82
454.70	592.16
454.89	594.50
455.07	524.28
455.26	561.73
455.44	545.34
455.62	578.11
455.81	601.52
455.99	533.64
456.17	603.86
456.36	538.32
456.54	557.05
456.73	631.94
456.91	550.03
457.09	505.56
457.28	601.52
457.46	566.41
457.64	634.29
457.83	559.39
458.01	585.13
458.19	592.16
458.38	535.98
458.56	606.20
458.74	517.26
458.93	589.82
459.11	538.32
459.29	564.07
459.48	479.81
459.66	587.47
459.84	550.03
460.03	624.92
460.21	566.41
460.39	531.30
460.57	554.71
460.76	592.16
460.94	580.45
461.12	648.33
461.31	622.58
461.49	484.49
461.67	575.77
461.85	568.75
462.04	510.24
462.22	1018.13
462.40	503.22
462.59	587.47
462.77	528.96
462.95	594.50
463.13	552.37
463.32	484.49
463.50	540.66
463.68	594.50
463.86	599.18
464.05	629.60
464.23	578.11
464.41	580.45
464.59	629.60
464.78	496.19
464.96	557.05
465.14	559.39
465.32	547.69
465.50	566.41
465.69	510.24
465.87	568.75
466.05	564.07
466.23	437.68
466.41	550.03
466.60	603.86
466.78	603.86
466.96	627.26
467.14	615.56
467.32	599.18
467.51	615.56
467.69	615.56
467.87	554.71
468.05	561.73
468.23	557.05
468.41	582.79
468.60	514.92
468.78	573.43
468.96	470.45
469.14	461.09
469.32	468.11
469.50	477.47
469.69	463.43
469.87	528.96
470.05	472.79
470.23	528.96
470.41	528.96
470.59	514.92
470.77	484.49
470.95	517.26
471.14	531.30
471.32	526.62
471.50	620.24
471.68	603.86
471.86	582.79
472.04	547.69
472.22	507.90
472.40	461.09
472.58	578.11
472.77	528.96
472.95	545.34
473.13	561.73
473.31	535.98
473.49	435.34
473.67	425.98
473.85	596.84
474.03	559.39
474.21	622.58
474.39	566.41
474.57	587.47
474.75	496.19
474.93	557.05
475.12	533.64
475.30	505.56
475.48	526.62
475.66	533.64
475.84	475.13
476.02	496.19
476.20	585.13
476.38	498.53
476.56	615.56
476.74	587.47
476.92	493.85
477.10	500.87
477.28	589.82
477.46	517.26
477.64	582.79
477.82	557.05
478.00	594.50
478.18	582.79
478.36	587.47
478.54	629.60
478.72	606.20
478.90	657.69
479.08	594.50
479.26	627.26
479.44	713.86
479.62	788.76
479.80	718.54
479.98	744.29
480.16	732.59
480.34	861.32
480.52	858.98
480.70	837.91
480.88	905.79
481.06	901.11
481.24	915.15
481.41	1041.54
481.59	1076.65
481.77	1102.39
481.95	1186.65
482.13	1362.19
482.31	1390.28
482.49	1455.81
482.67	1556.46
482.85	1706.25
483.03	1776.47
483.21	1921.58
483.39	2029.24
483.57	2207.13
483.74	2256.28
483.92	2480.97
484.10	2562.89
484.28	2705.66
484.46	2897.58
484.64	2932.69
484.82	3225.26
485.00	3197.17
485.18	3585.70
485.35	3747.20
485.53	3847.84
485.71	4058.49
485.89	4273.82
486.07	4322.97
486.25	4484.47
486.43	4266.80
486.61	4451.70
486.78	4599.15
486.96	4489.15
487.14	4622.56
487.32	4360.42
487.50	4411.91
487.68	4400.21
487.85	4299.56
488.03	4355.74
488.21	4224.67
488.39	3967.21
488.57	3892.31
488.75	3801.03
488.92	3880.61
489.10	3674.64
489.28	3637.19
489.46	3574.00
489.64	3557.61
489.81	3431.23
489.99	3445.27
490.17	3180.79
490.35	3346.97
490.53	3208.87
490.70	3152.70
490.88	3435.91
491.06	3379.73
491.24	3578.68
491.41	3922.74
491.59	3538.89
491.77	3225.26
491.95	3307.18
492.13	3201.85
492.30	3063.76
492.48	2963.12
492.66	2906.95
492.84	2970.14
493.01	2827.37
493.19	2785.24
493.37	2764.17
493.54	2808.64
493.72	2757.15
493.90	2670.55
494.08	2609.70
494.25	2640.12
494.43	2464.58
494.61	2499.69
494.79	2345.22
494.96	2326.49
495.14	2333.51
495.32	2450.54
495.49	2326.49
495.67	2218.83
495.85	2239.89
496.02	2092.44
496.20	2186.06
496.38	2094.78
496.55	2064.35
496.73	2015.20
496.91	1926.26
497.09	2017.54
497.26	1933.28
497.44	2005.84
497.62	1867.75
497.79	1919.24
497.97	1734.34
498.14	1795.19
498.32	1806.89
498.50	1647.74
498.67	1732.00
498.85	1598.59
499.03	1420.71
499.20	1467.52
499.38	1516.67
499.56	1462.83
499.73	1544.75
499.91	1448.79
500.08	1409.00
500.26	1315.38
500.44	1287.29
500.61	1249.85
500.79	1198.35
500.97	1153.88
501.14	1177.29
501.32	1146.86
501.49	1167.93
501.67	1067.28
501.84	1041.54
502.02	973.66
502.20	1071.97
502.37	1015.79
502.55	1055.58
502.72	922.17
502.90	870.68
503.07	830.89
503.25	880.04
503.43	800.46
503.60	709.18
503.78	765.36
503.95	823.87
504.13	716.20
504.30	711.52
504.48	784.08
504.65	695.14
504.83	669.39
505.01	622.58
505.18	678.76
505.36	662.37
505.53	655.35
505.71	655.35
505.88	770.04
506.06	674.07
506.23	641.31
506.41	678.76
506.58	578.11
506.76	580.45
506.93	636.63
507.11	599.18
507.28	608.54
507.46	615.56
507.63	624.92
507.81	545.34
507.98	580.45
508.16	608.54
508.33	645.99
508.50	648.33
508.68	641.31
508.85	688.12
509.03	606.20
509.20	601.52
509.38	599.18
509.55	631.94
509.73	589.82
509.90	575.77
510.08	533.64
510.25	535.98
510.42	454.06
510.60	496.19
510.77	594.50
510.95	552.37
511.12	507.90
511.30	498.53
511.47	543.00
511.64	524.28
511.82	517.26
511.99	554.71
512.17	503.22
512.34	606.20
512.51	528.96
512.69	545.34
512.86	512.58
513.04	498.53
513.21	543.00
513.38	514.92
513.56	465.77
513.73	486.83
513.90	437.68
514.08	512.58
514.25	456.40
514.43	418.96
514.60	461.09
514.77	458.74
514.95	491.51
515.12	482.15
515.29	428.32
515.47	437.68
515.64	390.87
515.81	470.45
515.99	465.77
516.16	505.56
516.33	538.32
516.51	365.12
516.68	468.11
516.85	456.40
517.03	447.04
517.20	407.25
517.37	423.64
517.54	344.06
517.72	376.83
517.89	374.49
518.06	447.04
518.24	449.38
518.41	482.15
518.58	512.58
518.75	379.17
518.93	418.96
519.10	461.09
519.27	411.93
519.45	449.38
519.62	437.68
519.79	447.04
519.96	449.38
520.14	395.55
520.31	447.04
520.48	447.04
520.65	437.68
520.83	451.72
521.00	416.62
521.17	376.83
521.34	454.06
521.52	383.85
521.69	423.64
521.86	477.47
522.03	400.23
522.20	468.11
522.38	411.93
522.55	463.43
522.72	355.76
522.89	374.49
523.07	435.34
523.24	393.21
523.41	376.83
523.58	414.27
523.75	418.96
523.92	337.04
524.10	337.04
524.27	440.02
524.44	428.32
524.61	379.17
524.78	425.98
524.96	430.66
525.13	386.19
525.30	482.15
525.47	468.11
525.64	425.98
525.81	477.47
525.98	486.83
526.16	425.98
526.33	489.17
526.50	414.27
526.67	421.30
526.84	465.77
527.01	475.13
527.18	540.66
527.36	587.47
527.53	664.71
527.70	648.33
527.87	575.77
528.04	624.92
528.21	535.98
528.38	500.87
528.55	566.41
528.72	545.34
528.89	580.45
529.07	580.45
529.24	573.43
529.41	566.41
529.58	643.65
529.75	550.03
529.92	575.77
530.09	620.24
530.26	709.18
530.43	552.37
530.60	645.99
530.77	622.58
530.94	660.03
531.11	662.37
531.28	807.48
531.46	730.25
531.63	784.08
531.80	788.76
531.97	915.15
532.14	1001.75
532.31	1224.10
532.48	1418.36
532.65	1526.03
532.82	1853.70
532.99	2150.95
533.16	2567.57
533.33	2614.38
533.50	2588.63
533.67	2256.28
533.84	1914.56
534.01	1621.99
534.18	1542.41
534.35	1420.71
534.52	1558.80
534.69	1556.46
534.86	1523.69
535.03	1753.06
535.20	1713.27
535.37	1802.21
535.54	1884.13
535.71	1966.05
535.88	2043.29
536.05	2172.02
536.22	2399.05
536.38	2605.02
536.55	2850.77
536.72	3204.19
536.89	3494.42
537.06	4014.02
537.23	4346.37
537.40	4992.36
537.57	5172.58
537.74	5554.09
537.91	5792.83
538.08	5858.36
538.25	5949.64
538.42	6132.20
538.59	6153.27
538.75	6466.90
538.92	6848.41
539.09	7421.84
539.26	8308.90
539.43	9114.05
539.60	10214.10
539.77	11531.82
539.94	13114.02
540.11	14761.76
540.28	15854.79
540.44	17568.06
540.61	19414.74
540.78	22171.89
540.95	26665.72
541.12	32177.68
541.29	36755.77
541.46	38534.58
541.62	38848.21
541.79	37741.14
541.96	34656.31
542.13	32292.37
542.30	29996.31
542.47	27999.83
542.63	26206.98
542.80	25610.14
542.97	24573.28
543.14	24978.20
543.31	25104.59
543.48	25142.03
543.64	25427.58
543.81	25788.02
543.98	26031.44
544.15	26307.62
544.32	26150.81
544.48	26242.09
544.65	26038.46
544.82	25486.09
544.99	25661.63
545.16	26242.09
545.32	27119.79
545.49	38934.81
545.66	60020.70
545.83	65535.00
546.00	65535.00
546.16	61853.34
546.33	45308.09
546.50	34628.23
546.67	26487.84
546.83	23920.28
547.00	22881.08
547.17	21738.90
547.34	20587.35
547.50	20180.10
547.67	19161.97
547.84	18005.74
548.00	17380.82
548.17	16947.82
548.34	16025.65
548.51	15796.28
548.67	15016.88
548.84	14473.87
549.01	13612.56
549.18	12891.67
549.34	12376.75
549.51	11662.89
549.68	11360.96
549.84	10949.03
550.01	10478.58
550.18	10141.54
550.34	9528.32
550.51	9263.84
550.68	8662.32
550.84	8009.31
551.01	7784.62
551.18	7382.05
551.34	6930.33
551.51	6448.18
551.68	6335.83
551.84	6230.51
552.01	5902.83
552.18	5795.17
552.34	5570.48
552.51	5252.16
552.68	5076.62
552.84	4980.66
553.01	4589.79
553.18	4521.92
553.34	4475.10
553.51	4212.96
553.67	4138.07
553.84	3990.61
554.01	3574.00
554.17	3421.86
554.34	3164.40
554.51	3047.38
554.67	2972.48
554.84	2834.39
555.00	2581.61
555.17	2422.45
555.33	2342.88
555.50	2270.32
555.67	2057.33
555.83	1968.39
556.00	2010.52
556.16	2003.50
556.33	1783.49
556.50	1762.42
556.66	1593.90
556.83	1661.78
556.99	1586.88
557.16	1603.27
557.32	1474.54
557.49	1504.96
557.65	1371.55
557.82	1364.53
557.98	1364.53
558.15	1308.36
558.32	1282.61
558.48	1324.74
558.65	1252.19
558.81	1282.61
558.98	1186.65
559.14	1130.48
559.31	1167.93
559.47	1083.67
559.64	1093.03
559.80	1053.24
559.97	1095.37
560.13	1041.54
560.30	1032.18
560.46	1039.20
560.63	980.68
560.79	985.37
560.96	1018.13
561.12	959.62
561.29	1022.81
561.45	868.34
561.61	1032.18
561.78	1050.90
561.94	983.02
562.11	990.05
562.27	992.39
562.44	985.37
562.60	1001.75
562.77	992.39
562.93	1078.99
563.10	1013.45
563.26	917.49
563.42	1020.47
563.59	976.00
563.75	795.78
563.92	905.79
564.08	777.06
564.24	823.87
564.41	894.08
564.57	727.91
564.74	844.93
564.90	835.57
565.07	833.23
565.23	826.21
565.39	788.76
565.56	814.51
565.72	760.67
565.88	744.29
566.05	709.18
566.21	741.95
566.38	772.38
566.54	868.34
566.70	741.95
566.87	727.91
567.03	856.64
567.19	737.27
567.36	809.83
567.52	758.33
567.68	793.44
567.85	784.08
568.01	669.39
568.17	781.74
568.34	786.42
568.50	802.80
568.66	793.44
568.83	877.70
568.99	702.16
569.15	753.65
569.32	791.10
569.48	744.29
569.64	667.05
569.81	676.41
569.97	624.92
570.13	627.26
570.30	634.29
570.46	589.82
570.62	580.45
570.78	535.98
570.95	512.58
571.11	526.62
571.27	653.01
571.43	512.58
571.60	547.69
571.76	550.03
571.92	535.98
572.09	638.97
572.25	601.52
572.41	538.32
572.57	519.60
572.74	582.79
572.90	638.97
573.06	594.50
573.22	622.58
573.38	676.41
573.55	720.88
573.71	730.25
573.87	564.07
574.03	662.37
574.20	664.71
574.36	678.76
574.52	645.99
574.68	730.25
574.84	842.59
575.01	767.70
575.17	812.17
575.33	868.34
575.49	1013.45
575.65	891.74
575.82	1090.69
575.98	1268.57
576.14	1401.98
576.30	2450.54
576.46	7309.49
576.62	15466.26
576.79	20732.47
576.95	14794.53
577.11	8868.29
577.27	5966.03
577.43	3974.23
577.59	2459.90
577.75	1984.77
577.92	1895.83
578.08	1837.32
578.24	1727.32
578.40	2710.34
578.56	7063.74
578.72	13907.46
578.88	20144.99
579.04	14071.30
579.21	8418.91
579.37	6221.14
579.53	4954.91
579.69	4367.44
579.85	5392.59
580.01	6665.85
580.17	6855.43
580.33	5820.91
580.49	4807.46
580.65	4124.02
580.82	3913.38
580.98	3609.11
581.14	3679.32
581.30	3995.29
581.46	4208.28
581.62	4568.73
581.78	4945.55
581.94	5345.78
582.10	5504.94
582.26	5982.41
582.42	6188.38
582.58	6296.04
582.74	6361.58
582.90	6368.60
583.06	6595.63
583.22	6600.31
583.38	6525.41
583.54	6363.92
583.70	6637.76
583.86	6483.28
584.02	6415.41
584.18	6246.89
584.34	6083.05
584.50	6054.97
584.66	5994.11
584.82	5717.93
584.98	5673.46
585.14	5561.11
585.30	5568.13
585.46	5507.28
585.62	5408.98
585.78	5453.45
585.94	5511.96
586.10	5628.99
586.26	5811.55
586.42	6492.65
586.58	7646.53
586.74	9310.65
586.90	11531.82
587.06	12954.87
587.22	12943.16
587.38	11674.59
587.54	10010.47
587.70	8564.02
587.86	6986.50
588.02	5921.56
588.18	5341.10
588.34	4767.67
588.49	4444.68
588.65	4079.55
588.81	3845.50
588.97	3627.83
589.13	3637.19
589.29	3595.06
589.45	3602.08
589.61	3482.72
589.77	3545.91
589.93	3496.76
590.08	3620.81
590.24	3805.71
590.40	3983.59
590.56	4084.23
590.72	4077.21
590.88	4255.09
591.04	4290.20
591.20	4484.47
591.35	4629.58
591.51	5050.88
591.67	5156.20
591.83	5547.07
591.99	5825.59
592.15	6406.05
592.31	7073.10
592.46	7524.82
592.62	8322.94
592.78	9032.13
592.94	9221.71
593.10	9233.41
593.26	8772.33
593.41	8292.52
593.57	7248.64
593.73	6392.00
593.89	5717.93
594.05	5135.14
594.20	4369.78
594.36	4086.58
594.52	3861.88
594.68	3566.98
594.84	3494.42
594.99	3419.52
595.15	3349.31
595.31	3283.77
595.47	3218.24
595.62	3290.79
595.78	3258.03
595.94	3180.79
596.10	3253.34
596.25	3272.07
596.41	3143.34
596.57	3208.87
596.73	3297.81
596.88	3176.11
597.04	3136.32
597.20	3075.46
597.36	3246.32
597.51	3358.67
597.67	3599.74
597.83	3524.85
597.99	3836.14
598.14	3995.29
598.30	4381.48
598.46	4585.11
598.61	4924.49
598.77	5057.90
598.93	5280.25
599.09	5336.42
599.24	5568.13
599.40	5518.98
599.56	5392.59
599.71	5184.29
599.87	4762.99
600.03	4652.98
600.18	4058.49
600.34	3955.51
600.50	3700.39
600.65	3478.04
600.81	3201.85
600.97	3070.78
601.12	2995.89
601.28	2806.30
601.44	2708.00
601.59	2506.71
601.75	2399.05
601.91	2394.37
602.06	2202.44
602.22	2279.68
602.37	2069.03
602.53	2080.74
602.69	2122.87
602.84	2026.90
603.00	2136.91
603.16	2073.71
603.31	2071.37
603.47	2214.15
603.62	2139.25
603.78	2293.72
603.94	2333.51
604.09	2298.41
604.25	2410.75
604.40	2289.04
