SpectraSuite Data File
++++++++++++++++++++++++++++++++++++
Date: Fri Oct 04 11:42:19 GMT-05:00 2013
User: price-jones
Dark Spectrum Present: No
Reference Spectrum Present: No
Number of Sampled Component Spectra: 1
Spectrometers: USB2+H05261
Integration Time (usec): 100000 (USB2+H05261)
Spectra Averaged: 1 (USB2+H05261)
Boxcar Smoothing: 0 (USB2+H05261)
Correct for Electrical Dark: No (USB2+H05261)
Strobe/Lamp Enabled: No (USB2+H05261)
Correct for Detector Non-linearity: No (USB2+H05261)
Correct for Stray Light: No (USB2+H05261)
Number of Pixels in Processed Spectrum: 2048
>>>>>Begin Processed Spectral Data<<<<<
365.73	16.38
365.92	16.38
366.12	16.38
366.32	14.04
366.52	0.00
366.72	0.00
366.91	0.00
367.11	0.00
367.31	0.00
367.51	0.00
367.70	0.00
367.90	18.72
368.10	9.36
368.30	0.00
368.49	0.00
368.69	0.00
368.89	0.00
369.09	0.00
369.28	0.00
369.48	0.00
369.68	0.00
369.87	44.47
370.07	0.00
370.27	42.13
370.47	0.00
370.66	44.47
370.86	23.41
371.06	56.17
371.25	117.03
371.45	21.06
371.65	67.88
371.84	49.15
372.04	74.90
372.24	42.13
372.44	135.75
372.63	84.26
372.83	98.30
373.03	107.66
373.22	79.58
373.42	117.03
373.62	126.39
373.81	161.50
374.01	149.79
374.21	140.43
374.40	28.09
374.60	124.05
374.79	145.11
374.99	60.85
375.19	112.35
375.38	119.37
375.58	107.66
375.78	168.52
375.97	140.43
376.17	154.48
376.37	170.86
376.56	112.35
376.76	98.30
376.95	105.32
377.15	114.69
377.35	149.79
377.54	58.51
377.74	100.64
377.93	32.77
378.13	121.71
378.33	145.11
378.52	133.41
378.72	119.37
378.91	63.19
379.11	25.75
379.31	138.09
379.50	189.58
379.70	191.92
379.89	133.41
380.09	53.83
380.28	86.60
380.48	84.26
380.68	173.20
380.87	119.37
381.07	102.98
381.26	114.69
381.46	79.58
381.65	161.50
381.85	117.03
382.04	30.43
382.24	131.07
382.43	32.77
382.63	107.66
382.83	149.79
383.02	168.52
383.22	131.07
383.41	128.73
383.61	93.62
383.80	86.60
384.00	39.79
384.19	102.98
384.39	51.49
384.58	58.51
384.78	142.77
384.97	102.98
385.17	65.54
385.36	126.39
385.56	133.41
385.75	170.86
385.95	86.60
386.14	93.62
386.34	112.35
386.53	138.09
386.72	124.05
386.92	126.39
387.11	112.35
387.31	156.82
387.50	128.73
387.70	159.16
387.89	98.30
388.09	105.32
388.28	126.39
388.48	86.60
388.67	154.48
388.86	88.94
389.06	124.05
389.25	163.84
389.45	128.73
389.64	159.16
389.84	79.58
390.03	128.73
390.22	56.17
390.42	93.62
390.61	161.50
390.81	114.69
391.00	124.05
391.19	102.98
391.39	117.03
391.58	201.29
391.78	102.98
391.97	65.54
392.16	18.72
392.36	133.41
392.55	124.05
392.75	53.83
392.94	44.47
393.13	140.43
393.33	91.28
393.52	81.92
393.71	154.48
393.91	110.01
394.10	70.22
394.29	131.07
394.49	72.56
394.68	112.35
394.88	95.96
395.07	156.82
395.26	79.58
395.46	128.73
395.65	189.58
395.84	135.75
396.04	201.29
396.23	138.09
396.42	65.54
396.62	119.37
396.81	93.62
397.00	86.60
397.19	117.03
397.39	147.45
397.58	138.09
397.77	152.13
397.97	107.66
398.16	74.90
398.35	63.19
398.55	65.54
398.74	145.11
398.93	166.18
399.12	107.66
399.32	9.36
399.51	154.48
399.70	187.24
399.90	119.37
400.09	191.92
400.28	128.73
400.47	156.82
400.67	98.30
400.86	107.66
401.05	74.90
401.24	168.52
401.44	173.20
401.63	138.09
401.82	147.45
402.01	166.18
402.21	163.84
402.40	140.43
402.59	124.05
402.78	126.39
402.97	102.98
403.17	128.73
403.36	154.48
403.55	250.44
403.74	517.26
403.93	1390.28
404.13	2679.91
404.32	3328.24
404.51	2537.14
404.70	1516.67
404.89	587.47
405.09	308.95
405.28	189.58
405.47	147.45
405.66	173.20
405.85	229.37
406.05	110.01
406.24	156.82
406.43	142.77
406.62	145.11
406.81	227.03
407.00	241.08
407.20	423.64
407.39	540.66
407.58	447.04
407.77	311.29
407.96	238.73
408.15	149.79
408.34	187.24
408.54	184.90
408.73	175.54
408.92	135.75
409.11	121.71
409.30	177.88
409.49	156.82
409.68	159.16
409.87	128.73
410.07	147.45
410.26	168.52
410.45	159.16
410.64	98.30
410.83	70.22
411.02	100.64
411.21	184.90
411.40	102.98
411.59	140.43
411.78	133.41
411.98	114.69
412.17	140.43
412.36	184.90
412.55	180.22
412.74	156.82
412.93	189.58
413.12	112.35
413.31	196.60
413.50	128.73
413.69	196.60
413.88	222.35
414.07	191.92
414.26	110.01
414.45	168.52
414.64	189.58
414.83	133.41
415.02	278.52
415.22	180.22
415.41	168.52
415.60	175.54
415.79	98.30
415.98	259.80
416.17	191.92
416.36	182.56
416.55	173.20
416.74	119.37
416.93	205.97
417.12	198.95
417.31	163.84
417.50	95.96
417.69	285.55
417.88	201.29
418.07	145.11
418.26	203.63
418.45	168.52
418.64	205.97
418.83	273.84
419.02	166.18
419.21	175.54
419.39	159.16
419.58	224.69
419.77	234.05
419.96	163.84
420.15	290.23
420.34	210.65
420.53	175.54
420.72	212.99
420.91	217.67
421.10	154.48
421.29	222.35
421.48	238.73
421.67	175.54
421.86	201.29
422.05	201.29
422.24	238.73
422.43	215.33
422.61	189.58
422.80	173.20
422.99	220.01
423.18	175.54
423.37	196.60
423.56	241.08
423.75	264.48
423.94	222.35
424.13	201.29
424.32	191.92
424.50	212.99
424.69	212.99
424.88	269.16
425.07	114.69
425.26	154.48
425.45	196.60
425.64	182.56
425.83	215.33
426.01	231.71
426.20	266.82
426.39	266.82
426.58	182.56
426.77	264.48
426.96	262.14
427.15	245.76
427.33	203.63
427.52	170.86
427.71	224.69
427.90	241.08
428.09	166.18
428.28	241.08
428.46	194.26
428.65	299.59
428.84	269.16
429.03	236.39
429.22	187.24
429.40	191.92
429.59	259.80
429.78	285.55
429.97	175.54
430.16	255.12
430.34	212.99
430.53	227.03
430.72	210.65
430.91	252.78
431.10	156.82
431.28	245.76
431.47	189.58
431.66	351.08
431.85	311.29
432.03	290.23
432.22	367.46
432.41	348.74
432.60	308.95
432.79	248.10
432.97	339.38
433.16	264.48
433.35	351.08
433.54	332.36
433.72	411.93
433.91	411.93
434.10	362.78
434.28	482.15
434.47	578.11
434.66	683.44
434.85	802.80
435.03	2296.07
435.22	8161.45
435.41	14689.20
435.59	13224.03
435.78	8564.02
435.97	4107.64
436.16	1643.06
436.34	681.10
436.53	472.79
436.72	437.68
436.90	376.83
437.09	280.86
437.28	285.55
437.46	308.95
437.65	306.61
437.84	320.65
438.02	365.12
438.21	299.59
438.40	285.55
438.58	341.72
438.77	280.86
438.96	327.68
439.14	252.78
439.33	299.59
439.52	236.39
439.70	269.16
439.89	318.31
440.08	346.40
440.26	315.97
440.45	344.06
440.63	252.78
440.82	184.90
441.01	208.31
441.19	315.97
441.38	269.16
441.57	381.51
441.75	283.20
441.94	367.46
442.12	266.82
442.31	287.89
442.50	224.69
442.68	327.68
442.87	287.89
443.05	369.80
443.24	264.48
443.43	411.93
443.61	337.04
443.80	430.66
443.98	262.14
444.17	283.20
444.35	205.97
444.54	252.78
444.73	304.27
444.91	362.78
445.10	315.97
445.28	245.76
445.47	259.80
445.65	320.65
445.84	339.38
446.02	304.27
446.21	266.82
446.39	217.67
446.58	276.18
446.77	287.89
446.95	264.48
447.14	224.69
447.32	290.23
447.51	269.16
447.69	332.36
447.88	287.89
448.06	327.68
448.25	280.86
448.43	346.40
448.62	273.84
448.80	262.14
448.99	271.50
449.17	367.46
449.36	287.89
449.54	348.74
449.73	273.84
449.91	330.02
450.10	294.91
450.28	369.80
450.46	425.98
450.65	292.57
450.83	315.97
451.02	337.04
451.20	308.95
451.39	278.52
451.57	337.04
451.76	330.02
451.94	266.82
452.13	215.33
452.31	287.89
452.49	299.59
452.68	262.14
452.86	301.93
453.05	337.04
453.23	273.84
453.42	297.25
453.60	337.04
453.78	306.61
453.97	311.29
454.15	217.67
454.34	358.10
454.52	299.59
454.70	308.95
454.89	315.97
455.07	304.27
455.26	280.86
455.44	283.20
455.62	320.65
455.81	313.63
455.99	304.27
456.17	294.91
456.36	273.84
456.54	269.16
456.73	285.55
456.91	259.80
457.09	278.52
457.28	304.27
457.46	325.33
457.64	306.61
457.83	266.82
458.01	262.14
458.19	325.33
458.38	365.12
458.56	210.65
458.74	266.82
458.93	283.20
459.11	224.69
459.29	224.69
459.48	294.91
459.66	285.55
459.84	315.97
460.03	315.97
460.21	250.44
460.39	308.95
460.57	353.42
460.76	322.99
460.94	266.82
461.12	346.40
461.31	290.23
461.49	280.86
461.67	327.68
461.85	306.61
462.04	266.82
462.22	425.98
462.40	320.65
462.59	332.36
462.77	304.27
462.95	339.38
463.13	248.10
463.32	292.57
463.50	266.82
463.68	341.72
463.86	358.10
464.05	231.71
464.23	297.25
464.41	327.68
464.59	320.65
464.78	308.95
464.96	325.33
465.14	262.14
465.32	320.65
465.50	351.08
465.69	339.38
465.87	308.95
466.05	334.70
466.23	238.73
466.41	273.84
466.60	355.76
466.78	315.97
466.96	292.57
467.14	381.51
467.32	306.61
467.51	325.33
467.69	285.55
467.87	280.86
468.05	250.44
468.23	252.78
468.41	322.99
468.60	290.23
468.78	276.18
468.96	341.72
469.14	308.95
469.32	271.50
469.50	315.97
469.69	297.25
469.87	297.25
470.05	294.91
470.23	229.37
470.41	322.99
470.59	273.84
470.77	325.33
470.95	266.82
471.14	287.89
471.32	285.55
471.50	341.72
471.68	238.73
471.86	273.84
472.04	250.44
472.22	276.18
472.40	203.63
472.58	276.18
472.77	266.82
472.95	243.42
473.13	318.31
473.31	306.61
473.49	365.12
473.67	287.89
473.85	273.84
474.03	238.73
474.21	222.35
474.39	346.40
474.57	318.31
474.75	308.95
474.93	311.29
475.12	201.29
475.30	315.97
475.48	280.86
475.66	180.22
475.84	243.42
476.02	358.10
476.20	283.20
476.38	227.03
476.56	332.36
476.74	255.12
476.92	297.25
477.10	255.12
477.28	255.12
477.46	332.36
477.64	283.20
477.82	325.33
478.00	262.14
478.18	264.48
478.36	313.63
478.54	388.53
478.72	351.08
478.90	269.16
479.08	308.95
479.26	320.65
479.44	318.31
479.62	290.23
479.80	362.78
479.98	355.76
480.16	332.36
480.34	355.76
480.52	395.55
480.70	433.00
480.88	440.02
481.06	442.36
481.24	418.96
481.41	458.74
481.59	463.43
481.77	430.66
481.95	559.39
482.13	568.75
482.31	559.39
482.49	592.16
482.67	688.12
482.85	620.24
483.03	791.10
483.21	765.36
483.39	781.74
483.57	741.95
483.74	842.59
483.92	964.30
484.10	990.05
484.28	1036.86
484.46	1109.41
484.64	992.39
484.82	1149.20
485.00	1226.44
485.18	1210.06
485.35	1411.34
485.53	1355.17
485.71	1455.81
485.89	1392.62
486.07	1558.80
486.25	1568.16
486.43	1577.52
486.61	1502.62
486.78	1533.05
486.96	1444.11
487.14	1589.22
487.32	1474.54
487.50	1479.22
487.68	1490.92
487.85	1504.96
488.03	1404.32
488.21	1469.86
488.39	1511.99
488.57	1453.47
488.75	1315.38
488.92	1577.52
489.10	1355.17
489.28	1371.55
489.46	1268.57
489.64	1233.46
489.81	1231.12
489.99	1249.85
490.17	1203.04
490.35	1212.40
490.53	1149.20
490.70	1275.59
490.88	1181.97
491.06	1238.14
491.24	1291.98
491.41	1303.68
491.59	1240.48
491.77	1174.95
491.95	1160.91
492.13	1128.14
492.30	1069.62
492.48	1067.28
492.66	1093.03
492.84	1088.35
493.01	1015.79
493.19	1018.13
493.37	973.66
493.54	990.05
493.72	1039.20
493.90	1041.54
494.08	980.68
494.25	954.94
494.43	910.47
494.61	940.90
494.79	1029.84
494.96	840.25
495.14	889.40
495.32	933.87
495.49	894.08
495.67	873.02
495.85	821.53
496.02	795.78
496.20	763.01
496.38	795.78
496.55	788.76
496.73	851.96
496.91	774.72
497.09	774.72
497.26	858.98
497.44	744.29
497.62	725.57
497.79	685.78
497.97	667.05
498.14	737.27
498.32	688.12
498.50	655.35
498.67	653.01
498.85	634.29
499.03	564.07
499.20	636.63
499.38	580.45
499.56	730.25
499.73	692.80
499.91	603.86
500.08	564.07
500.26	533.64
500.44	547.69
500.61	568.75
500.79	475.13
500.97	496.19
501.14	531.30
501.32	461.09
501.49	510.24
501.67	526.62
501.84	517.26
502.02	512.58
502.20	479.81
502.37	517.26
502.55	519.60
502.72	414.27
502.90	458.74
503.07	444.70
503.25	379.17
503.43	383.85
503.60	358.10
503.78	414.27
503.95	390.87
504.13	388.53
504.30	482.15
504.48	334.70
504.65	442.36
504.83	407.25
505.01	386.19
505.18	388.53
505.36	334.70
505.53	327.68
505.71	355.76
505.88	411.93
506.06	379.17
506.23	433.00
506.41	259.80
506.58	383.85
506.76	301.93
506.93	325.33
507.11	337.04
507.28	269.16
507.46	390.87
507.63	301.93
507.81	283.20
507.98	231.71
508.16	248.10
508.33	332.36
508.50	252.78
508.68	308.95
508.85	369.80
509.03	346.40
509.20	397.89
509.38	362.78
509.55	409.59
509.73	313.63
509.90	332.36
510.08	355.76
510.25	362.78
510.42	278.52
510.60	339.38
510.77	330.02
510.95	393.21
511.12	365.12
511.30	372.15
511.47	367.46
511.64	433.00
511.82	297.25
511.99	285.55
512.17	278.52
512.34	241.08
512.51	290.23
512.69	320.65
512.86	379.17
513.04	243.42
513.21	358.10
513.38	320.65
513.56	315.97
513.73	299.59
513.90	224.69
514.08	322.99
514.25	358.10
514.43	428.32
514.60	315.97
514.77	322.99
514.95	339.38
515.12	184.90
515.29	322.99
515.47	280.86
515.64	238.73
515.81	273.84
515.99	341.72
516.16	257.46
516.33	308.95
516.51	348.74
516.68	372.15
516.85	287.89
517.03	308.95
517.20	311.29
517.37	292.57
517.54	269.16
517.72	264.48
517.89	252.78
518.06	248.10
518.24	325.33
518.41	283.20
518.58	259.80
518.75	278.52
518.93	318.31
519.10	351.08
519.27	322.99
519.45	304.27
519.62	287.89
519.79	313.63
519.96	313.63
520.14	280.86
520.31	341.72
520.48	346.40
520.65	278.52
520.83	367.46
521.00	301.93
521.17	269.16
521.34	308.95
521.52	318.31
521.69	320.65
521.86	301.93
522.03	311.29
522.20	320.65
522.38	290.23
522.55	330.02
522.72	327.68
522.89	353.42
523.07	334.70
523.24	322.99
523.41	299.59
523.58	297.25
523.75	301.93
523.92	351.08
524.10	327.68
524.27	241.08
524.44	294.91
524.61	294.91
524.78	262.14
524.96	409.59
525.13	332.36
525.30	351.08
525.47	299.59
525.64	269.16
525.81	355.76
525.98	322.99
526.16	241.08
526.33	248.10
526.50	330.02
526.67	262.14
526.84	266.82
527.01	341.72
527.18	360.44
527.36	379.17
527.53	334.70
527.70	301.93
527.87	330.02
528.04	330.02
528.21	409.59
528.38	344.06
528.55	421.30
528.72	322.99
528.89	379.17
529.07	320.65
529.24	294.91
529.41	311.29
529.58	301.93
529.75	322.99
529.92	348.74
530.09	334.70
530.26	365.12
530.43	454.06
530.60	414.27
530.77	421.30
530.94	337.04
531.11	486.83
531.28	365.12
531.46	407.25
531.63	404.91
531.80	489.17
531.97	510.24
532.14	496.19
532.31	599.18
532.48	545.34
532.65	664.71
532.82	734.93
532.99	816.85
533.16	1015.79
533.33	985.37
533.50	943.24
533.67	767.70
533.84	741.95
534.01	704.50
534.18	599.18
534.35	580.45
534.52	559.39
534.69	683.44
534.86	599.18
535.03	798.12
535.20	664.71
535.37	730.25
535.54	830.89
535.71	767.70
535.88	861.32
536.05	952.60
536.22	950.26
536.38	1055.58
536.55	1015.79
536.72	1142.18
536.89	1315.38
537.06	1481.56
537.23	1680.50
537.40	1767.10
537.57	1755.40
537.74	1914.56
537.91	1949.67
538.08	2022.22
538.25	2022.22
538.42	2036.27
538.59	2076.06
538.75	2195.42
538.92	2342.88
539.09	2452.88
539.26	2736.09
539.43	3030.99
539.60	3466.33
539.77	3854.86
539.94	4212.96
540.11	4704.48
540.28	5158.54
540.44	5603.24
540.61	6150.93
540.78	7117.57
540.95	8578.06
541.12	9774.08
541.29	10890.51
541.46	11157.33
541.62	11218.19
541.79	10609.65
541.96	10118.14
542.13	9188.94
542.30	8767.65
542.47	8182.51
542.63	7981.23
542.80	7817.39
542.97	7772.92
543.14	7492.05
543.31	7709.72
543.48	7407.80
543.64	7775.26
543.81	7871.22
543.98	7943.78
544.15	7735.47
544.32	7950.80
544.48	7793.98
544.65	7719.09
544.82	7698.02
544.99	7960.16
545.16	7901.65
545.32	8603.81
545.49	16645.89
545.66	27618.32
545.83	30621.23
546.00	24683.29
546.16	17270.81
546.33	12940.82
546.50	9797.48
546.67	7918.03
546.83	6977.14
547.00	6661.16
547.17	6305.40
547.34	6157.95
547.50	5951.98
547.67	5614.95
547.84	5408.98
548.00	5240.46
548.17	5109.39
548.34	4774.69
548.51	4667.03
548.67	4510.21
548.84	4311.27
549.01	4086.58
549.18	4035.08
549.34	3803.37
549.51	3588.04
549.68	3695.71
549.84	3353.99
550.01	3194.83
550.18	3159.72
550.34	3096.53
550.51	2878.86
550.68	2750.13
550.84	2483.31
551.01	2377.98
551.18	2354.58
551.34	2183.72
551.51	2118.18
551.68	2076.06
551.84	2101.80
552.01	2001.16
552.18	1942.64
552.34	1710.93
552.51	1781.15
552.68	1710.93
552.84	1675.82
553.01	1671.14
553.18	1558.80
553.34	1448.79
553.51	1406.66
553.67	1364.53
553.84	1249.85
554.01	1322.40
554.17	1329.42
554.34	1170.27
554.51	1100.05
554.67	1041.54
554.84	915.15
555.00	1008.77
555.17	905.79
555.33	877.70
555.50	816.85
555.67	751.31
555.83	784.08
556.00	758.33
556.16	901.11
556.33	734.93
556.50	709.18
556.66	636.63
556.83	585.13
556.99	711.52
557.16	667.05
557.32	655.35
557.49	617.90
557.65	606.20
557.82	512.58
557.98	617.90
558.15	561.73
558.32	566.41
558.48	514.92
558.65	503.22
558.81	545.34
558.98	470.45
559.14	524.28
559.31	507.90
559.47	475.13
559.64	425.98
559.80	538.32
559.97	458.74
560.13	435.34
560.30	454.06
560.46	505.56
560.63	435.34
560.79	451.72
560.96	465.77
561.12	479.81
561.29	519.60
561.45	540.66
561.61	465.77
561.78	580.45
561.94	580.45
562.11	444.70
562.27	451.72
562.44	435.34
562.60	465.77
562.77	456.40
562.93	486.83
563.10	535.98
563.26	458.74
563.42	496.19
563.59	475.13
563.75	458.74
563.92	500.87
564.08	402.57
564.24	404.91
564.41	514.92
564.57	510.24
564.74	442.36
564.90	402.57
565.07	528.96
565.23	468.11
565.39	334.70
565.56	383.85
565.72	407.25
565.88	388.53
566.05	400.23
566.21	369.80
566.38	344.06
566.54	365.12
566.70	388.53
566.87	386.19
567.03	355.76
567.19	365.12
567.36	362.78
567.52	390.87
567.68	514.92
567.85	451.72
568.01	390.87
568.17	440.02
568.34	395.55
568.50	369.80
568.66	360.44
568.83	465.77
568.99	381.51
569.15	395.55
569.32	393.21
569.48	304.27
569.64	344.06
569.81	348.74
569.97	367.46
570.13	435.34
570.30	358.10
570.46	360.44
570.62	322.99
570.78	299.59
570.95	266.82
571.11	360.44
571.27	437.68
571.43	301.93
571.60	332.36
571.76	273.84
571.92	322.99
572.09	376.83
572.25	397.89
572.41	383.85
572.57	348.74
572.74	379.17
572.90	369.80
573.06	386.19
573.22	390.87
573.38	388.53
573.55	365.12
573.71	365.12
573.87	355.76
574.03	416.62
574.20	292.57
574.36	390.87
574.52	346.40
574.68	390.87
574.84	411.93
575.01	393.21
575.17	479.81
575.33	402.57
575.49	484.49
575.65	500.87
575.82	493.85
575.98	566.41
576.14	631.94
576.30	1348.15
576.46	3782.31
576.62	5177.26
576.79	5139.82
576.95	3646.55
577.11	2401.39
577.27	1743.70
577.43	1259.21
577.59	882.38
577.75	772.38
577.92	664.71
578.08	711.52
578.24	786.42
578.40	1280.27
578.56	3445.27
578.72	4533.62
578.88	4723.20
579.04	3588.04
579.21	2399.05
579.37	1942.64
579.53	1511.99
579.69	1666.46
579.85	1865.41
580.01	2106.48
580.17	1968.39
580.33	1729.66
580.49	1458.15
580.65	1390.28
580.82	1277.93
580.98	1320.06
581.14	1280.27
581.30	1338.79
581.46	1448.79
581.62	1504.96
581.78	1629.01
581.94	1706.25
582.10	1863.07
582.26	1937.96
582.42	1956.69
582.58	2155.63
582.74	2066.69
582.90	2115.84
583.06	2024.56
583.22	2052.65
583.38	2008.18
583.54	1987.11
583.70	1963.71
583.86	2094.78
584.02	1970.73
584.18	1970.73
584.34	1942.64
584.50	1959.03
584.66	1916.90
584.82	1865.41
584.98	1802.21
585.14	1795.19
585.30	1781.15
585.46	1811.57
585.62	1701.57
585.78	1699.23
585.94	1727.32
586.10	1734.34
586.26	1954.35
586.42	2132.23
586.58	2448.20
586.74	3162.06
586.90	3571.66
587.06	3693.37
587.22	3742.52
587.38	3183.13
587.54	2827.37
587.70	2387.35
587.86	2047.97
588.02	1863.07
588.18	1755.40
588.34	1575.18
588.49	1387.94
588.65	1301.34
588.81	1259.21
588.97	1259.21
589.13	1170.27
589.29	1111.75
589.45	1242.82
589.61	1160.91
589.77	1149.20
589.93	1219.42
590.08	1242.82
590.24	1259.21
590.40	1338.79
590.56	1313.04
590.72	1284.95
590.88	1420.71
591.04	1306.02
591.20	1441.77
591.35	1521.35
591.51	1577.52
591.67	1626.67
591.83	1722.63
591.99	1994.14
592.15	2029.24
592.31	2225.85
592.46	2478.63
592.62	2483.31
592.78	2710.34
592.94	2766.51
593.10	2649.49
593.26	2525.44
593.41	2434.16
593.57	2186.06
593.73	1909.88
593.89	1713.27
594.05	1549.43
594.20	1409.00
594.36	1308.36
594.52	1193.67
594.68	1142.18
594.84	1142.18
594.99	1224.10
595.15	1093.03
595.31	1100.05
595.47	1123.46
595.62	1121.12
595.78	1090.69
595.94	1083.67
596.10	1081.33
596.25	1039.20
596.41	1039.20
596.57	1123.46
596.73	1104.73
596.88	985.37
597.04	1043.88
597.20	1125.80
597.36	1109.41
597.51	1114.10
597.67	1245.16
597.83	1256.87
597.99	1280.27
598.14	1350.49
598.30	1390.28
598.46	1481.56
598.61	1626.67
598.77	1654.76
598.93	1636.03
599.09	1720.29
599.24	1694.55
599.40	1722.63
599.56	1621.99
599.71	1647.74
599.87	1519.01
600.03	1416.02
600.18	1394.96
600.34	1235.80
600.50	1212.40
600.65	1125.80
600.81	1128.14
600.97	1069.62
601.12	1011.11
601.28	917.49
601.44	912.81
601.59	791.10
601.75	891.74
601.91	891.74
602.06	905.79
602.22	931.53
602.37	741.95
602.53	720.88
602.69	767.70
602.84	765.36
603.00	699.82
603.16	753.65
603.31	784.08
603.47	819.19
603.62	777.06
603.78	858.98
603.94	861.32
604.09	898.77
604.25	889.40
604.40	812.17
604.56	866.00
604.71	851.96
604.87	830.89
605.03	917.49
605.18	896.43
605.34	917.49
605.49	884.72
605.65	990.05
605.80	961.96
605.96	1025.15
606.12	1067.28
606.27	1186.65
606.43	1121.12
606.58	1114.10
606.74	1217.08
606.89	1280.27
607.05	1301.34
607.20	1397.30
607.36	1483.90
