SpectraSuite Data File
++++++++++++++++++++++++++++++++++++
Date: Fri Oct 04 11:42:19 GMT-05:00 2013
User: price-jones
Dark Spectrum Present: No
Reference Spectrum Present: No
Number of Sampled Component Spectra: 1
Spectrometers: USB2+H05261
Integration Time (usec): 100000 (USB2+H05261)
Spectra Averaged: 1 (USB2+H05261)
Boxcar Smoothing: 0 (USB2+H05261)
Correct for Electrical Dark: No (USB2+H05261)
Strobe/Lamp Enabled: No (USB2+H05261)
Correct for Detector Non-linearity: No (USB2+H05261)
Correct for Stray Light: No (USB2+H05261)
Number of Pixels in Processed Spectrum: 2048
>>>>>Begin Processed Spectral Data<<<<<
365.73	11.70
365.92	11.70
366.12	11.70
366.32	0.00
366.52	0.00
366.72	0.00
366.91	0.00
367.11	0.00
367.31	11.70
367.51	0.00
367.70	0.00
367.90	0.00
368.10	0.00
368.30	0.00
368.49	0.00
368.69	0.00
368.89	0.00
369.09	0.00
369.28	0.00
369.48	0.00
369.68	0.00
369.87	28.09
370.07	0.00
370.27	21.06
370.47	65.54
370.66	0.00
370.86	0.00
371.06	74.90
371.25	112.35
371.45	35.11
371.65	79.58
371.84	53.83
372.04	65.54
372.24	159.16
372.44	98.30
372.63	135.75
372.83	194.26
373.03	110.01
373.22	119.37
373.42	156.82
373.62	121.71
373.81	100.64
374.01	187.24
374.21	128.73
374.40	107.66
374.60	135.75
374.79	156.82
374.99	107.66
375.19	93.62
375.38	119.37
375.58	149.79
375.78	140.43
375.97	126.39
376.17	173.20
376.37	117.03
376.56	105.32
376.76	107.66
376.95	98.30
377.15	140.43
377.35	163.84
377.54	102.98
377.74	126.39
377.93	145.11
378.13	72.56
378.33	117.03
378.52	154.48
378.72	124.05
378.91	161.50
379.11	93.62
379.31	84.26
379.50	147.45
379.70	77.24
379.89	138.09
380.09	119.37
380.28	124.05
380.48	112.35
380.68	126.39
380.87	93.62
381.07	194.26
381.26	168.52
381.46	84.26
381.65	114.69
381.85	135.75
382.04	95.96
382.24	74.90
382.43	102.98
382.63	79.58
382.83	149.79
383.02	98.30
383.22	182.56
383.41	145.11
383.61	166.18
383.80	117.03
384.00	105.32
384.19	149.79
384.39	138.09
384.58	95.96
384.78	114.69
384.97	117.03
385.17	77.24
385.36	100.64
385.56	145.11
385.75	58.51
385.95	140.43
386.14	135.75
386.34	63.19
386.53	93.62
386.72	56.17
386.92	119.37
387.11	56.17
387.31	81.92
387.50	70.22
387.70	152.13
387.89	105.32
388.09	119.37
388.28	128.73
388.48	128.73
388.67	159.16
388.86	124.05
389.06	49.15
389.25	126.39
389.45	145.11
389.64	121.71
389.84	91.28
390.03	152.13
390.22	102.98
390.42	65.54
390.61	44.47
390.81	67.88
391.00	63.19
391.19	147.45
391.39	95.96
391.58	135.75
391.78	138.09
391.97	117.03
392.16	46.81
392.36	100.64
392.55	173.20
392.75	79.58
392.94	126.39
393.13	142.77
393.33	161.50
393.52	126.39
393.71	107.66
393.91	30.43
394.10	119.37
394.29	79.58
394.49	65.54
394.68	161.50
394.88	163.84
395.07	140.43
395.26	238.73
395.46	149.79
395.65	145.11
395.84	72.56
396.04	189.58
396.23	112.35
396.42	187.24
396.62	173.20
396.81	114.69
397.00	168.52
397.19	102.98
397.39	117.03
397.58	166.18
397.77	79.58
397.97	117.03
398.16	102.98
398.35	191.92
398.55	114.69
398.74	77.24
398.93	187.24
399.12	114.69
399.32	145.11
399.51	126.39
399.70	121.71
399.90	166.18
400.09	166.18
400.28	187.24
400.47	166.18
400.67	196.60
400.86	117.03
401.05	208.31
401.24	149.79
401.44	105.32
401.63	175.54
401.82	163.84
402.01	149.79
402.21	166.18
402.40	121.71
402.59	93.62
402.78	138.09
402.97	98.30
403.17	168.52
403.36	210.65
403.55	203.63
403.74	500.87
403.93	1406.66
404.13	2754.81
404.32	3023.97
404.51	2525.44
404.70	1577.52
404.89	631.94
405.09	255.12
405.28	191.92
405.47	154.48
405.66	112.35
405.85	217.67
406.05	102.98
406.24	135.75
406.43	145.11
406.62	184.90
406.81	208.31
407.00	313.63
407.20	421.30
407.39	559.39
407.58	470.45
407.77	418.96
407.96	264.48
408.15	170.86
408.34	215.33
408.54	182.56
408.73	234.05
408.92	170.86
409.11	149.79
409.30	133.41
409.49	145.11
409.68	138.09
409.87	114.69
410.07	163.84
410.26	184.90
410.45	170.86
410.64	145.11
410.83	166.18
411.02	133.41
411.21	220.01
411.40	159.16
411.59	107.66
411.78	126.39
411.98	222.35
412.17	119.37
412.36	131.07
412.55	95.96
412.74	156.82
412.93	196.60
413.12	166.18
413.31	156.82
413.50	262.14
413.69	180.22
413.88	163.84
414.07	124.05
414.26	173.20
414.45	187.24
414.64	133.41
414.83	236.39
415.02	198.95
415.22	126.39
415.41	177.88
415.60	133.41
415.79	152.13
415.98	215.33
416.17	196.60
416.36	119.37
416.55	140.43
416.74	145.11
416.93	159.16
417.12	203.63
417.31	133.41
417.50	133.41
417.69	255.12
417.88	227.03
418.07	131.07
418.26	212.99
418.45	177.88
418.64	243.42
418.83	217.67
419.02	257.46
419.21	189.58
419.39	180.22
419.58	124.05
419.77	248.10
419.96	191.92
420.15	208.31
420.34	203.63
420.53	224.69
420.72	147.45
420.91	170.86
421.10	212.99
421.29	161.50
421.48	220.01
421.67	257.46
421.86	173.20
422.05	145.11
422.24	276.18
422.43	241.08
422.61	105.32
422.80	191.92
422.99	175.54
423.18	58.51
423.37	229.37
423.56	215.33
423.75	215.33
423.94	191.92
424.13	138.09
424.32	166.18
424.50	241.08
424.69	191.92
424.88	222.35
425.07	177.88
425.26	156.82
425.45	194.26
425.64	229.37
425.83	236.39
426.01	152.13
426.20	222.35
426.39	248.10
426.58	175.54
426.77	201.29
426.96	182.56
427.15	224.69
427.33	245.76
427.52	241.08
427.71	273.84
427.90	301.93
428.09	163.84
428.28	327.68
428.46	238.73
428.65	170.86
428.84	259.80
429.03	262.14
429.22	191.92
429.40	224.69
429.59	245.76
429.78	299.59
429.97	299.59
430.16	177.88
430.34	201.29
430.53	271.50
430.72	315.97
430.91	229.37
431.10	264.48
431.28	255.12
431.47	285.55
431.66	315.97
431.85	308.95
432.03	266.82
432.22	330.02
432.41	287.89
432.60	250.44
432.79	243.42
432.97	257.46
433.16	306.61
433.35	376.83
433.54	365.12
433.72	379.17
433.91	369.80
434.10	524.28
434.28	554.71
434.47	603.86
434.66	601.52
434.85	676.41
435.03	2382.67
435.22	7852.50
435.41	14097.05
435.59	12538.25
435.78	8191.88
435.97	4032.74
436.16	1675.82
436.34	678.76
436.53	449.38
436.72	372.15
436.90	322.99
437.09	330.02
437.28	360.44
437.46	287.89
437.65	269.16
437.84	290.23
438.02	283.20
438.21	266.82
438.40	266.82
438.58	287.89
438.77	252.78
438.96	292.57
439.14	292.57
439.33	297.25
439.52	273.84
439.70	341.72
439.89	315.97
440.08	283.20
440.26	308.95
440.45	330.02
440.63	322.99
440.82	264.48
441.01	358.10
441.19	273.84
441.38	369.80
441.57	243.42
441.75	318.31
441.94	341.72
442.12	407.25
442.31	313.63
442.50	250.44
442.68	327.68
442.87	266.82
443.05	301.93
443.24	194.26
443.43	337.04
443.61	351.08
443.80	304.27
443.98	315.97
444.17	255.12
444.35	325.33
444.54	250.44
444.73	299.59
444.91	299.59
445.10	299.59
445.28	330.02
445.47	318.31
445.65	327.68
445.84	273.84
446.02	283.20
446.21	294.91
446.39	201.29
446.58	297.25
446.77	315.97
446.95	255.12
447.14	245.76
447.32	341.72
447.51	250.44
447.69	278.52
447.88	278.52
448.06	330.02
448.25	252.78
448.43	273.84
448.62	220.01
448.80	271.50
448.99	264.48
449.17	327.68
449.36	264.48
449.54	285.55
449.73	271.50
449.91	322.99
450.10	229.37
450.28	306.61
450.46	250.44
450.65	290.23
450.83	292.57
451.02	236.39
451.20	276.18
451.39	313.63
451.57	327.68
451.76	273.84
451.94	313.63
452.13	217.67
452.31	280.86
452.49	337.04
452.68	308.95
452.86	276.18
453.05	301.93
453.23	311.29
453.42	229.37
453.60	243.42
453.78	255.12
453.97	248.10
454.15	280.86
454.34	229.37
454.52	306.61
454.70	264.48
454.89	320.65
455.07	285.55
455.26	299.59
455.44	313.63
455.62	313.63
455.81	287.89
455.99	301.93
456.17	318.31
456.36	292.57
456.54	301.93
456.73	271.50
456.91	330.02
457.09	273.84
457.28	262.14
457.46	266.82
457.64	376.83
457.83	308.95
458.01	276.18
458.19	285.55
458.38	231.71
458.56	348.74
458.74	362.78
458.93	290.23
459.11	313.63
459.29	252.78
459.48	245.76
459.66	320.65
459.84	262.14
460.03	386.19
460.21	322.99
460.39	271.50
460.57	304.27
460.76	285.55
460.94	339.38
461.12	346.40
461.31	332.36
461.49	276.18
461.67	283.20
461.85	313.63
462.04	177.88
462.22	383.85
462.40	285.55
462.59	299.59
462.77	292.57
462.95	367.46
463.13	276.18
463.32	264.48
463.50	278.52
463.68	276.18
463.86	292.57
464.05	255.12
464.23	299.59
464.41	250.44
464.59	266.82
464.78	271.50
464.96	306.61
465.14	325.33
465.32	252.78
465.50	311.29
465.69	374.49
465.87	301.93
466.05	322.99
466.23	250.44
466.41	269.16
466.60	388.53
466.78	264.48
466.96	301.93
467.14	330.02
467.32	271.50
467.51	250.44
467.69	341.72
467.87	250.44
468.05	189.58
468.23	294.91
468.41	238.73
468.60	330.02
468.78	283.20
468.96	315.97
469.14	292.57
469.32	212.99
469.50	236.39
469.69	285.55
469.87	255.12
470.05	315.97
470.23	334.70
470.41	243.42
470.59	304.27
470.77	227.03
470.95	322.99
471.14	271.50
471.32	236.39
471.50	313.63
471.68	358.10
471.86	318.31
472.04	252.78
472.22	285.55
472.40	241.08
472.58	304.27
472.77	294.91
472.95	353.42
473.13	372.15
473.31	315.97
473.49	285.55
473.67	234.05
473.85	290.23
474.03	301.93
474.21	299.59
474.39	262.14
474.57	318.31
474.75	322.99
474.93	325.33
475.12	278.52
475.30	243.42
475.48	236.39
475.66	315.97
475.84	234.05
476.02	280.86
476.20	304.27
476.38	231.71
476.56	393.21
476.74	301.93
476.92	294.91
477.10	301.93
477.28	304.27
477.46	322.99
477.64	243.42
477.82	362.78
478.00	248.10
478.18	280.86
478.36	318.31
478.54	252.78
478.72	313.63
478.90	325.33
479.08	395.55
479.26	262.14
479.44	280.86
479.62	318.31
479.80	362.78
479.98	299.59
480.16	379.17
480.34	402.57
480.52	346.40
480.70	430.66
480.88	393.21
481.06	355.76
481.24	379.17
481.41	440.02
481.59	521.94
481.77	587.47
481.95	571.09
482.13	589.82
482.31	582.79
482.49	636.63
482.67	678.76
482.85	641.31
483.03	767.70
483.21	695.14
483.39	732.59
483.57	770.04
483.74	830.89
483.92	924.51
484.10	936.21
484.28	1053.24
484.46	1050.90
484.64	1060.26
484.82	1107.07
485.00	1158.57
485.18	1146.86
485.35	1282.61
485.53	1371.55
485.71	1359.85
485.89	1390.28
486.07	1460.49
486.25	1521.35
486.43	1526.03
486.61	1455.81
486.78	1409.00
486.96	1444.11
487.14	1481.56
487.32	1446.45
487.50	1483.90
487.68	1439.43
487.85	1490.92
488.03	1462.83
488.21	1451.13
488.39	1409.00
488.57	1394.96
488.75	1371.55
488.92	1556.46
489.10	1224.10
489.28	1301.34
489.46	1214.74
489.64	1198.35
489.81	1207.72
489.99	1165.59
490.17	1128.14
490.35	1193.67
490.53	1097.71
490.70	1088.35
490.88	1170.27
491.06	1167.93
491.24	1221.76
491.41	1261.55
491.59	1203.04
491.77	1095.37
491.95	1114.10
492.13	1104.73
492.30	1083.67
492.48	1069.62
492.66	1069.62
492.84	994.73
493.01	992.39
493.19	945.58
493.37	987.71
493.54	980.68
493.72	987.71
493.90	936.21
494.08	957.28
494.25	959.62
494.43	971.32
494.61	908.13
494.79	917.49
494.96	760.67
495.14	898.77
495.32	884.72
495.49	828.55
495.67	884.72
495.85	866.00
496.02	755.99
496.20	788.76
496.38	833.23
496.55	786.42
496.73	772.38
496.91	716.20
497.09	849.61
497.26	737.27
497.44	676.41
497.62	727.91
497.79	734.93
497.97	685.78
498.14	685.78
498.32	697.48
498.50	704.50
498.67	627.26
498.85	592.16
499.03	629.60
499.20	629.60
499.38	669.39
499.56	676.41
499.73	601.52
499.91	589.82
500.08	566.41
500.26	587.47
500.44	540.66
500.61	428.32
500.79	491.51
500.97	489.17
501.14	507.90
501.32	500.87
501.49	498.53
501.67	535.98
501.84	437.68
502.02	465.77
502.20	484.49
502.37	531.30
502.55	444.70
502.72	458.74
502.90	428.32
503.07	395.55
503.25	482.15
503.43	388.53
503.60	379.17
503.78	346.40
503.95	383.85
504.13	280.86
504.30	421.30
504.48	416.62
504.65	369.80
504.83	362.78
505.01	374.49
505.18	360.44
505.36	341.72
505.53	358.10
505.71	322.99
505.88	306.61
506.06	330.02
506.23	339.38
506.41	327.68
506.58	369.80
506.76	299.59
506.93	367.46
507.11	339.38
507.28	360.44
507.46	238.73
507.63	372.15
507.81	365.12
507.98	290.23
508.16	297.25
508.33	306.61
508.50	416.62
508.68	365.12
508.85	339.38
509.03	351.08
509.20	451.72
509.38	339.38
509.55	362.78
509.73	379.17
509.90	388.53
510.08	243.42
510.25	376.83
510.42	325.33
510.60	341.72
510.77	327.68
510.95	409.59
511.12	358.10
511.30	315.97
511.47	337.04
511.64	344.06
511.82	278.52
511.99	315.97
512.17	236.39
512.34	222.35
512.51	311.29
512.69	271.50
512.86	372.15
513.04	313.63
513.21	280.86
513.38	318.31
513.56	332.36
513.73	337.04
513.90	255.12
514.08	266.82
514.25	257.46
514.43	334.70
514.60	234.05
514.77	271.50
514.95	269.16
515.12	301.93
515.29	299.59
515.47	252.78
515.64	252.78
515.81	276.18
515.99	248.10
516.16	278.52
516.33	337.04
516.51	248.10
516.68	334.70
516.85	311.29
517.03	198.95
517.20	348.74
517.37	222.35
517.54	339.38
517.72	325.33
517.89	245.76
518.06	285.55
518.24	252.78
518.41	332.36
518.58	292.57
518.75	259.80
518.93	257.46
519.10	311.29
519.27	287.89
519.45	393.21
519.62	271.50
519.79	285.55
519.96	198.95
520.14	243.42
520.31	255.12
520.48	264.48
520.65	330.02
520.83	290.23
521.00	311.29
521.17	276.18
521.34	297.25
521.52	322.99
521.69	369.80
521.86	297.25
522.03	322.99
522.20	351.08
522.38	259.80
522.55	271.50
522.72	285.55
522.89	304.27
523.07	334.70
523.24	330.02
523.41	266.82
523.58	325.33
523.75	297.25
523.92	280.86
524.10	313.63
524.27	255.12
524.44	318.31
524.61	304.27
524.78	238.73
524.96	322.99
525.13	386.19
525.30	330.02
525.47	311.29
525.64	299.59
525.81	334.70
525.98	330.02
526.16	306.61
526.33	243.42
526.50	252.78
526.67	292.57
526.84	313.63
527.01	262.14
527.18	315.97
527.36	341.72
527.53	423.64
527.70	358.10
527.87	325.33
528.04	355.76
528.21	330.02
528.38	344.06
528.55	308.95
528.72	435.34
528.89	376.83
529.07	369.80
529.24	425.98
529.41	393.21
529.58	306.61
529.75	381.51
529.92	346.40
530.09	388.53
530.26	337.04
530.43	393.21
530.60	374.49
530.77	292.57
530.94	381.51
531.11	376.83
531.28	386.19
531.46	383.85
531.63	500.87
531.80	444.70
531.97	379.17
532.14	486.83
532.31	594.50
532.48	603.86
532.65	606.20
532.82	732.59
532.99	882.38
533.16	901.11
533.33	1027.50
533.50	830.89
533.67	699.82
533.84	702.16
534.01	624.92
534.18	631.94
534.35	587.47
534.52	627.26
534.69	667.05
534.86	610.88
535.03	657.69
535.20	660.03
535.37	706.84
535.54	873.02
535.71	788.76
535.88	903.45
536.05	837.91
536.22	959.62
536.38	950.26
536.55	1008.77
536.72	1111.75
536.89	1259.21
537.06	1455.81
537.23	1561.14
537.40	1589.22
537.57	1764.76
537.74	1891.15
537.91	1790.51
538.08	1870.09
538.25	1942.64
538.42	2012.86
538.59	1996.48
538.75	2099.46
538.92	2326.49
539.09	2385.01
539.26	2569.91
539.43	2813.32
539.60	3370.37
539.77	3791.67
539.94	4091.26
540.11	4486.81
540.28	4781.71
540.44	5448.77
540.61	5816.23
540.78	6906.92
540.95	8257.41
541.12	9561.09
541.29	10417.72
541.46	10977.11
541.62	10806.25
541.79	10403.68
541.96	9589.17
542.13	9064.89
542.30	8388.48
542.47	8135.70
542.63	7552.91
542.80	7382.05
542.97	7417.16
543.14	7279.07
543.31	7435.88
543.48	7260.34
543.64	7407.80
543.81	7482.69
543.98	7545.89
544.15	7482.69
544.32	7339.92
544.48	7468.65
544.65	7396.09
544.82	7578.65
544.99	7442.90
545.16	7590.36
545.32	7925.05
545.49	16189.49
545.66	26607.21
545.83	29179.46
546.00	23906.23
546.16	16444.60
546.33	12379.09
546.50	9100.00
546.67	7566.95
546.83	6759.47
547.00	6555.84
547.17	6324.13
547.34	5692.18
547.50	5577.50
547.67	5427.70
547.84	5179.61
548.00	5074.28
548.17	4940.87
548.34	4587.45
548.51	4550.00
548.67	4332.33
548.84	4067.85
549.01	3819.75
549.18	3784.65
549.34	3627.83
549.51	3524.85
549.68	3574.00
549.84	3337.60
550.01	3115.25
550.18	3030.99
550.34	2719.70
550.51	2722.04
550.68	2607.36
550.84	2562.89
551.01	2377.98
551.18	2270.32
551.34	2183.72
551.51	2146.27
551.68	1881.79
551.84	1923.92
552.01	1743.70
552.18	1856.04
552.34	1607.95
552.51	1645.40
552.68	1624.33
552.84	1467.52
553.01	1530.71
553.18	1507.30
553.34	1486.24
553.51	1331.76
553.67	1338.79
553.84	1315.38
554.01	1137.50
554.17	1163.25
554.34	1048.56
554.51	959.62
554.67	1027.50
554.84	1041.54
555.00	961.96
555.17	868.34
555.33	858.98
555.50	842.59
555.67	791.10
555.83	739.61
556.00	697.48
556.16	896.43
556.33	664.71
556.50	737.27
556.66	610.88
556.83	599.18
556.99	643.65
557.16	613.22
557.32	613.22
557.49	589.82
557.65	538.32
557.82	573.43
557.98	573.43
558.15	578.11
558.32	559.39
558.48	538.32
558.65	517.26
558.81	526.62
558.98	526.62
559.14	491.51
559.31	440.02
559.47	514.92
559.64	465.77
559.80	538.32
559.97	409.59
560.13	411.93
560.30	425.98
560.46	503.22
560.63	390.87
560.79	484.49
560.96	514.92
561.12	428.32
561.29	423.64
561.45	423.64
561.61	423.64
561.78	507.90
561.94	486.83
562.11	465.77
562.27	526.62
562.44	486.83
562.60	442.36
562.77	465.77
562.93	524.28
563.10	500.87
563.26	470.45
563.42	433.00
563.59	454.06
563.75	472.79
563.92	470.45
564.08	400.23
564.24	433.00
564.41	456.40
564.57	402.57
564.74	418.96
564.90	470.45
565.07	458.74
565.23	435.34
565.39	407.25
565.56	456.40
565.72	381.51
565.88	372.15
566.05	407.25
566.21	358.10
566.38	355.76
566.54	456.40
566.70	348.74
566.87	435.34
567.03	367.46
567.19	376.83
567.36	397.89
567.52	400.23
567.68	369.80
567.85	493.85
568.01	346.40
568.17	383.85
568.34	418.96
568.50	395.55
568.66	444.70
568.83	409.59
568.99	360.44
569.15	362.78
569.32	397.89
569.48	374.49
569.64	308.95
569.81	344.06
569.97	442.36
570.13	388.53
570.30	348.74
570.46	315.97
570.62	287.89
570.78	409.59
570.95	337.04
571.11	355.76
571.27	404.91
571.43	332.36
571.60	372.15
571.76	355.76
571.92	327.68
572.09	348.74
572.25	294.91
572.41	327.68
572.57	334.70
572.74	388.53
572.90	320.65
573.06	404.91
573.22	367.46
573.38	306.61
573.55	339.38
573.71	344.06
573.87	341.72
574.03	381.51
574.20	353.42
574.36	346.40
574.52	404.91
574.68	376.83
574.84	360.44
575.01	395.55
575.17	376.83
575.33	351.08
575.49	470.45
575.65	498.53
575.82	566.41
575.98	561.73
576.14	582.79
576.30	1366.87
576.46	3651.24
576.62	4837.89
576.79	4917.47
576.95	3548.25
577.11	2331.17
577.27	1614.97
577.43	1149.20
577.59	870.68
577.75	730.25
577.92	741.95
578.08	613.22
578.24	704.50
578.40	1313.04
578.56	3363.35
578.72	4437.66
578.88	4601.49
579.04	3412.50
579.21	2349.90
579.37	1842.00
579.53	1577.52
579.69	1696.89
579.85	1870.09
580.01	2001.16
580.17	1783.49
580.33	1645.40
580.49	1394.96
580.65	1259.21
580.82	1167.93
580.98	1114.10
581.14	1313.04
581.30	1303.68
581.46	1350.49
581.62	1544.75
581.78	1497.94
581.94	1682.85
582.10	1666.46
582.26	1806.89
582.42	1877.11
582.58	1849.02
582.74	2052.65
582.90	1930.94
583.06	2054.99
583.22	1935.62
583.38	1956.69
583.54	1884.13
583.70	1930.94
583.86	1832.64
584.02	1870.09
584.18	1895.83
584.34	1858.39
584.50	1839.66
584.66	1771.79
584.82	1764.76
584.98	1788.17
585.14	1727.32
585.30	1652.42
585.46	1732.00
585.62	1710.93
585.78	1638.38
585.94	1799.87
586.10	1774.13
586.26	1877.11
586.42	1968.39
586.58	2548.84
586.74	3000.57
586.90	3576.34
587.06	3742.52
587.22	3527.19
587.38	3133.98
587.54	2796.94
587.70	2413.09
587.86	2066.69
588.02	1795.19
588.18	1563.48
588.34	1409.00
588.49	1268.57
588.65	1273.25
588.81	1270.91
588.97	1181.97
589.13	1158.57
589.29	1149.20
589.45	1071.97
589.61	1139.84
589.77	1088.35
589.93	1191.33
590.08	1163.25
590.24	1210.06
590.40	1207.72
590.56	1268.57
590.72	1291.98
590.88	1371.55
591.04	1364.53
591.20	1418.36
591.35	1610.29
591.51	1584.54
591.67	1509.65
591.83	1760.08
591.99	1771.79
592.15	1973.07
592.31	2162.66
592.46	2317.13
592.62	2424.80
592.78	2621.40
592.94	2710.34
593.10	2670.55
593.26	2373.30
593.41	2260.96
593.57	2111.16
593.73	1863.07
593.89	1593.90
594.05	1502.62
594.20	1394.96
594.36	1294.32
594.52	1153.88
594.68	1071.97
594.84	1116.44
594.99	1053.24
595.15	1067.28
595.31	999.41
595.47	1128.14
595.62	1022.81
595.78	1004.09
595.94	1046.22
596.10	1020.47
596.25	1081.33
596.41	1025.15
596.57	1022.81
596.73	943.24
596.88	1036.86
597.04	1074.31
597.20	1060.26
597.36	1095.37
597.51	1008.77
597.67	1167.93
597.83	1151.54
597.99	1275.59
598.14	1366.87
598.30	1462.83
598.46	1390.28
598.61	1418.36
598.77	1547.09
598.93	1561.14
599.09	1636.03
599.24	1724.97
599.40	1722.63
599.56	1668.80
599.71	1504.96
599.87	1409.00
600.03	1390.28
600.18	1254.53
600.34	1207.72
600.50	1076.65
600.65	1083.67
600.81	994.73
600.97	945.58
601.12	994.73
601.28	910.47
601.44	889.40
601.59	861.32
601.75	816.85
601.91	779.40
602.06	765.36
602.22	849.61
602.37	744.29
602.53	746.63
602.69	716.20
602.84	690.46
603.00	725.57
603.16	809.83
603.31	805.14
603.47	842.59
603.62	676.41
603.78	828.55
603.94	837.91
604.09	870.68
604.25	858.98
604.40	861.32
604.56	823.87
604.71	755.99
604.87	905.79
605.03	795.78
605.18	875.36
605.34	889.40
605.49	866.00
605.65	931.53
605.80	919.83
605.96	938.55
606.12	1093.03
606.27	1041.54
606.43	1043.88
606.58	1188.99
606.74	1146.86
606.89	1186.65
607.05	1362.19
607.20	1299.00
607.36	1383.26
