SpectraSuite Data File
++++++++++++++++++++++++++++++++++++
Date: Fri Oct 04 11:41:47 GMT-05:00 2013
User: price-jones
Dark Spectrum Present: No
Reference Spectrum Present: No
Number of Sampled Component Spectra: 1
Spectrometers: USB2+H05261
Integration Time (usec): 100000 (USB2+H05261)
Spectra Averaged: 1 (USB2+H05261)
Boxcar Smoothing: 0 (USB2+H05261)
Correct for Electrical Dark: No (USB2+H05261)
Strobe/Lamp Enabled: No (USB2+H05261)
Correct for Detector Non-linearity: No (USB2+H05261)
Correct for Stray Light: No (USB2+H05261)
Number of Pixels in Processed Spectrum: 2048
>>>>>Begin Processed Spectral Data<<<<<
365.73	18.72
365.92	18.72
366.12	18.72
366.32	0.00
366.52	0.00
366.72	0.00
366.91	0.00
367.11	0.00
367.31	0.00
367.51	0.00
367.70	0.00
367.90	0.00
368.10	0.00
368.30	0.00
368.49	0.00
368.69	7.02
368.89	0.00
369.09	0.00
369.28	0.00
369.48	11.70
369.68	0.00
369.87	0.00
370.07	53.83
370.27	0.00
370.47	18.72
370.66	84.26
370.86	11.70
371.06	46.81
371.25	65.54
371.45	70.22
371.65	117.03
371.84	56.17
372.04	110.01
372.24	126.39
372.44	142.77
372.63	135.75
372.83	142.77
373.03	67.88
373.22	154.48
373.42	74.90
373.62	86.60
373.81	156.82
374.01	84.26
374.21	56.17
374.40	114.69
374.60	156.82
374.79	138.09
374.99	168.52
375.19	110.01
375.38	121.71
375.58	98.30
375.78	147.45
375.97	205.97
376.17	145.11
376.37	135.75
376.56	147.45
376.76	110.01
376.95	84.26
377.15	196.60
377.35	107.66
377.54	131.07
377.74	72.56
377.93	70.22
378.13	105.32
378.33	145.11
378.52	105.32
378.72	166.18
378.91	51.49
379.11	93.62
379.31	119.37
379.50	72.56
379.70	140.43
379.89	161.50
380.09	114.69
380.28	203.63
380.48	166.18
380.68	107.66
380.87	110.01
381.07	67.88
381.26	149.79
381.46	110.01
381.65	166.18
381.85	42.13
382.04	128.73
382.24	163.84
382.43	107.66
382.63	159.16
382.83	107.66
383.02	159.16
383.22	142.77
383.41	18.72
383.61	140.43
383.80	37.45
384.00	152.13
384.19	77.24
384.39	42.13
384.58	74.90
384.78	138.09
384.97	168.52
385.17	145.11
385.36	49.15
385.56	170.86
385.75	117.03
385.95	44.47
386.14	140.43
386.34	65.54
386.53	46.81
386.72	128.73
386.92	100.64
387.11	86.60
387.31	72.56
387.50	117.03
387.70	135.75
387.89	60.85
388.09	51.49
388.28	170.86
388.48	100.64
388.67	107.66
388.86	25.75
389.06	142.77
389.25	114.69
389.45	4.68
389.64	156.82
389.84	145.11
390.03	117.03
390.22	142.77
390.42	77.24
390.61	117.03
390.81	149.79
391.00	110.01
391.19	149.79
391.39	133.41
391.58	114.69
391.78	102.98
391.97	124.05
392.16	95.96
392.36	124.05
392.55	173.20
392.75	98.30
392.94	44.47
393.13	177.88
393.33	152.13
393.52	60.85
393.71	112.35
393.91	114.69
394.10	91.28
394.29	102.98
394.49	161.50
394.68	159.16
394.88	135.75
395.07	112.35
395.26	133.41
395.46	145.11
395.65	128.73
395.84	135.75
396.04	231.71
396.23	110.01
396.42	102.98
396.62	145.11
396.81	105.32
397.00	91.28
397.19	102.98
397.39	91.28
397.58	187.24
397.77	105.32
397.97	93.62
398.16	86.60
398.35	23.41
398.55	135.75
398.74	117.03
398.93	184.90
399.12	117.03
399.32	124.05
399.51	166.18
399.70	102.98
399.90	100.64
400.09	194.26
400.28	131.07
400.47	42.13
400.67	220.01
400.86	138.09
401.05	84.26
401.24	156.82
401.44	210.65
401.63	86.60
401.82	98.30
402.01	182.56
402.21	196.60
402.40	189.58
402.59	145.11
402.78	149.79
402.97	102.98
403.17	175.54
403.36	170.86
403.55	215.33
403.74	416.62
403.93	1238.14
404.13	2324.15
404.32	2679.91
404.51	2024.56
404.70	1224.10
404.89	484.49
405.09	285.55
405.28	131.07
405.47	182.56
405.66	81.92
405.85	222.35
406.05	161.50
406.24	140.43
406.43	196.60
406.62	107.66
406.81	182.56
407.00	227.03
407.20	306.61
407.39	407.25
407.58	395.55
407.77	290.23
407.96	245.76
408.15	173.20
408.34	149.79
408.54	145.11
408.73	154.48
408.92	203.63
409.11	119.37
409.30	175.54
409.49	91.28
409.68	133.41
409.87	170.86
410.07	107.66
410.26	154.48
410.45	133.41
410.64	102.98
410.83	220.01
411.02	128.73
411.21	175.54
411.40	201.29
411.59	154.48
411.78	229.37
411.98	168.52
412.17	177.88
412.36	184.90
412.55	217.67
412.74	201.29
412.93	191.92
413.12	231.71
413.31	156.82
413.50	65.54
413.69	168.52
413.88	212.99
414.07	222.35
414.26	170.86
414.45	131.07
414.64	229.37
414.83	189.58
415.02	191.92
415.22	135.75
415.41	224.69
415.60	203.63
415.79	227.03
415.98	215.33
416.17	208.31
416.36	215.33
416.55	152.13
416.74	145.11
416.93	257.46
417.12	217.67
417.31	196.60
417.50	173.20
417.69	184.90
417.88	229.37
418.07	142.77
418.26	203.63
418.45	163.84
418.64	210.65
418.83	205.97
419.02	201.29
419.21	180.22
419.39	114.69
419.58	156.82
419.77	175.54
419.96	212.99
420.15	138.09
420.34	105.32
420.53	168.52
420.72	102.98
420.91	177.88
421.10	168.52
421.29	142.77
421.48	166.18
421.67	133.41
421.86	222.35
422.05	152.13
422.24	135.75
422.43	245.76
422.61	166.18
422.80	163.84
422.99	205.97
423.18	203.63
423.37	224.69
423.56	217.67
423.75	138.09
423.94	124.05
424.13	198.95
424.32	107.66
424.50	168.52
424.69	161.50
424.88	182.56
425.07	243.42
425.26	189.58
425.45	215.33
425.64	266.82
425.83	105.32
426.01	236.39
426.20	140.43
426.39	210.65
426.58	156.82
426.77	168.52
426.96	187.24
427.15	163.84
427.33	208.31
427.52	117.03
427.71	236.39
427.90	222.35
428.09	212.99
428.28	201.29
428.46	217.67
428.65	217.67
428.84	252.78
429.03	142.77
429.22	276.18
429.40	196.60
429.59	180.22
429.78	252.78
429.97	220.01
430.16	180.22
430.34	175.54
430.53	205.97
430.72	205.97
430.91	266.82
431.10	294.91
431.28	222.35
431.47	271.50
431.66	234.05
431.85	250.44
432.03	189.58
432.22	297.25
432.41	297.25
432.60	351.08
432.79	283.20
432.97	285.55
433.16	234.05
433.35	308.95
433.54	294.91
433.72	369.80
433.91	299.59
434.10	351.08
434.28	486.83
434.47	493.85
434.66	430.66
434.85	697.48
435.03	2122.87
435.22	7166.72
435.41	11150.31
435.59	9935.57
435.78	6410.73
435.97	3204.19
436.16	1268.57
436.34	587.47
436.53	404.91
436.72	355.76
436.90	285.55
437.09	322.99
437.28	259.80
437.46	217.67
437.65	315.97
437.84	271.50
438.02	245.76
438.21	236.39
438.40	217.67
438.58	299.59
438.77	257.46
438.96	304.27
439.14	229.37
439.33	250.44
439.52	210.65
439.70	152.13
439.89	304.27
440.08	278.52
440.26	280.86
440.45	248.10
440.63	266.82
440.82	273.84
441.01	374.49
441.19	283.20
441.38	252.78
441.57	255.12
441.75	236.39
441.94	318.31
442.12	278.52
442.31	264.48
442.50	259.80
442.68	236.39
442.87	252.78
443.05	301.93
443.24	285.55
443.43	257.46
443.61	257.46
443.80	276.18
443.98	320.65
444.17	241.08
444.35	299.59
444.54	227.03
444.73	280.86
444.91	320.65
445.10	313.63
445.28	201.29
445.47	210.65
445.65	227.03
445.84	170.86
446.02	283.20
446.21	311.29
446.39	344.06
446.58	320.65
446.77	264.48
446.95	245.76
447.14	236.39
447.32	278.52
447.51	276.18
447.69	210.65
447.88	255.12
448.06	259.80
448.25	285.55
448.43	273.84
448.62	241.08
448.80	318.31
448.99	271.50
449.17	224.69
449.36	304.27
449.54	297.25
449.73	271.50
449.91	339.38
450.10	264.48
450.28	346.40
450.46	334.70
450.65	280.86
450.83	372.15
451.02	257.46
451.20	250.44
451.39	224.69
451.57	262.14
451.76	224.69
451.94	248.10
452.13	301.93
452.31	306.61
452.49	276.18
452.68	231.71
452.86	231.71
453.05	299.59
453.23	271.50
453.42	236.39
453.60	327.68
453.78	236.39
453.97	262.14
454.15	236.39
454.34	285.55
454.52	271.50
454.70	330.02
454.89	241.08
455.07	285.55
455.26	372.15
455.44	266.82
455.62	271.50
455.81	297.25
455.99	294.91
456.17	283.20
456.36	327.68
456.54	257.46
456.73	210.65
456.91	259.80
457.09	283.20
457.28	255.12
457.46	241.08
457.64	346.40
457.83	330.02
458.01	266.82
458.19	262.14
458.38	175.54
458.56	327.68
458.74	234.05
458.93	217.67
459.11	290.23
459.29	322.99
459.48	315.97
459.66	369.80
459.84	292.57
460.03	334.70
460.21	196.60
460.39	297.25
460.57	245.76
460.76	248.10
460.94	311.29
461.12	262.14
461.31	222.35
461.49	149.79
461.67	224.69
461.85	201.29
462.04	259.80
462.22	681.10
462.40	332.36
462.59	334.70
462.77	196.60
462.95	215.33
463.13	210.65
463.32	325.33
463.50	320.65
463.68	236.39
463.86	313.63
464.05	250.44
464.23	241.08
464.41	283.20
464.59	189.58
464.78	250.44
464.96	168.52
465.14	243.42
465.32	278.52
465.50	234.05
465.69	217.67
465.87	210.65
466.05	301.93
466.23	236.39
466.41	280.86
466.60	262.14
466.78	322.99
466.96	344.06
467.14	301.93
467.32	292.57
467.51	285.55
467.69	283.20
467.87	280.86
468.05	222.35
468.23	227.03
468.41	236.39
468.60	294.91
468.78	194.26
468.96	320.65
469.14	294.91
469.32	180.22
469.50	212.99
469.69	145.11
469.87	198.95
470.05	271.50
470.23	215.33
470.41	173.20
470.59	227.03
470.77	198.95
470.95	243.42
471.14	152.13
471.32	205.97
471.50	320.65
471.68	131.07
471.86	250.44
472.04	229.37
472.22	297.25
472.40	177.88
472.58	196.60
472.77	271.50
472.95	229.37
473.13	264.48
473.31	292.57
473.49	248.10
473.67	248.10
473.85	269.16
474.03	271.50
474.21	212.99
474.39	283.20
474.57	259.80
474.75	271.50
474.93	311.29
475.12	210.65
475.30	262.14
475.48	297.25
475.66	215.33
475.84	220.01
476.02	264.48
476.20	241.08
476.38	278.52
476.56	313.63
476.74	245.76
476.92	238.73
477.10	353.42
477.28	337.04
477.46	217.67
477.64	243.42
477.82	327.68
478.00	327.68
478.18	259.80
478.36	257.46
478.54	259.80
478.72	252.78
478.90	306.61
479.08	304.27
479.26	337.04
479.44	409.59
479.62	280.86
479.80	351.08
479.98	299.59
480.16	332.36
480.34	360.44
480.52	292.57
480.70	315.97
480.88	332.36
481.06	306.61
481.24	367.46
481.41	390.87
481.59	414.27
481.77	442.36
481.95	407.25
482.13	435.34
482.31	514.92
482.49	475.13
482.67	596.84
482.85	578.11
483.03	543.00
483.21	592.16
483.39	620.24
483.57	681.10
483.74	720.88
483.92	737.27
484.10	734.93
484.28	816.85
484.46	837.91
484.64	875.36
484.82	877.70
485.00	917.49
485.18	983.02
485.35	1048.56
485.53	1076.65
485.71	1048.56
485.89	1083.67
486.07	1252.19
486.25	1203.04
486.43	1301.34
486.61	1224.10
486.78	1219.42
486.96	1214.74
487.14	1151.54
487.32	1102.39
487.50	1184.31
487.68	1160.91
487.85	1137.50
488.03	1093.03
488.21	1116.44
488.39	1062.60
488.57	997.07
488.75	1062.60
488.92	1322.40
489.10	1015.79
489.28	1032.18
489.46	894.08
489.64	973.66
489.81	943.24
489.99	915.15
490.17	938.55
490.35	1011.11
490.53	952.60
490.70	938.55
490.88	901.11
491.06	1025.15
491.24	1043.88
491.41	1109.41
491.59	919.83
491.77	926.85
491.95	791.10
492.13	826.21
492.30	861.32
492.48	861.32
492.66	798.12
492.84	793.44
493.01	828.55
493.19	833.23
493.37	847.27
493.54	847.27
493.72	809.83
493.90	683.44
494.08	723.23
494.25	760.67
494.43	725.57
494.61	741.95
494.79	732.59
494.96	770.04
495.14	748.97
495.32	709.18
495.49	798.12
495.67	781.74
495.85	704.50
496.02	683.44
496.20	720.88
496.38	638.97
496.55	653.01
496.73	678.76
496.91	641.31
497.09	606.20
497.26	603.86
497.44	545.34
497.62	561.73
497.79	645.99
497.97	585.13
498.14	578.11
498.32	631.94
498.50	491.51
498.67	587.47
498.85	510.24
499.03	512.58
499.20	550.03
499.38	599.18
499.56	479.81
499.73	507.90
499.91	550.03
500.08	554.71
500.26	449.38
500.44	428.32
500.61	444.70
500.79	479.81
500.97	449.38
501.14	514.92
501.32	498.53
501.49	358.10
501.67	330.02
501.84	407.25
502.02	367.46
502.20	393.21
502.37	376.83
502.55	369.80
502.72	416.62
502.90	369.80
503.07	381.51
503.25	315.97
503.43	348.74
503.60	299.59
503.78	306.61
503.95	339.38
504.13	416.62
504.30	379.17
504.48	421.30
504.65	327.68
504.83	337.04
505.01	374.49
505.18	376.83
505.36	353.42
505.53	299.59
505.71	339.38
505.88	353.42
506.06	332.36
506.23	325.33
506.41	322.99
506.58	353.42
506.76	351.08
506.93	283.20
507.11	379.17
507.28	245.76
507.46	332.36
507.63	311.29
507.81	304.27
507.98	301.93
508.16	369.80
508.33	290.23
508.50	390.87
508.68	311.29
508.85	365.12
509.03	376.83
509.20	304.27
509.38	297.25
509.55	313.63
509.73	304.27
509.90	322.99
510.08	224.69
510.25	397.89
510.42	173.20
510.60	327.68
510.77	294.91
510.95	339.38
511.12	306.61
511.30	395.55
511.47	362.78
511.64	269.16
511.82	346.40
511.99	280.86
512.17	414.27
512.34	348.74
512.51	332.36
512.69	299.59
512.86	334.70
513.04	210.65
513.21	341.72
513.38	245.76
513.56	304.27
513.73	269.16
513.90	355.76
514.08	325.33
514.25	262.14
514.43	330.02
514.60	271.50
514.77	201.29
514.95	283.20
515.12	339.38
515.29	248.10
515.47	285.55
515.64	292.57
515.81	374.49
515.99	346.40
516.16	297.25
516.33	330.02
516.51	203.63
516.68	217.67
516.85	306.61
517.03	262.14
517.20	224.69
517.37	299.59
517.54	278.52
517.72	299.59
517.89	299.59
518.06	259.80
518.24	369.80
518.41	334.70
518.58	304.27
518.75	227.03
518.93	360.44
519.10	264.48
519.27	285.55
519.45	203.63
519.62	313.63
519.79	227.03
519.96	224.69
520.14	283.20
520.31	337.04
520.48	304.27
520.65	252.78
520.83	334.70
521.00	341.72
521.17	292.57
521.34	292.57
521.52	224.69
521.69	264.48
521.86	248.10
522.03	259.80
522.20	315.97
522.38	362.78
522.55	255.12
522.72	290.23
522.89	369.80
523.07	355.76
523.24	241.08
523.41	308.95
523.58	266.82
523.75	203.63
523.92	238.73
524.10	306.61
524.27	299.59
524.44	248.10
524.61	339.38
524.78	315.97
524.96	301.93
525.13	224.69
525.30	217.67
525.47	367.46
525.64	301.93
525.81	259.80
525.98	241.08
526.16	234.05
526.33	341.72
526.50	259.80
526.67	308.95
526.84	259.80
527.01	241.08
527.18	262.14
527.36	297.25
527.53	346.40
527.70	397.89
527.87	318.31
528.04	322.99
528.21	255.12
528.38	248.10
528.55	304.27
528.72	337.04
528.89	306.61
529.07	252.78
529.24	341.72
529.41	365.12
529.58	325.33
529.75	308.95
529.92	311.29
530.09	304.27
530.26	332.36
530.43	304.27
530.60	318.31
530.77	308.95
530.94	372.15
531.11	311.29
531.28	435.34
531.46	341.72
531.63	325.33
531.80	393.21
531.97	395.55
532.14	409.59
532.31	449.38
532.48	526.62
532.65	545.34
532.82	641.31
532.99	763.01
533.16	784.08
533.33	758.33
533.50	770.04
533.67	681.10
533.84	557.05
534.01	566.41
534.18	540.66
534.35	533.64
534.52	526.62
534.69	578.11
534.86	622.58
535.03	470.45
535.20	564.07
535.37	589.82
535.54	681.10
535.71	699.82
535.88	674.07
536.05	727.91
536.22	713.86
536.38	798.12
536.55	840.25
536.72	858.98
536.89	1184.31
537.06	1130.48
537.23	1184.31
537.40	1327.08
537.57	1348.15
537.74	1458.15
537.91	1465.18
538.08	1554.12
538.25	1535.39
538.42	1603.27
538.59	1575.18
538.75	1643.06
538.92	1799.87
539.09	1818.60
539.26	2113.50
539.43	2408.41
539.60	2644.81
539.77	2895.24
539.94	3190.15
540.11	3569.32
540.28	3777.62
540.44	4227.01
540.61	4645.96
540.78	5420.68
540.95	6260.93
541.12	7304.81
541.29	8037.40
541.46	8339.33
541.62	8091.23
541.79	7777.60
541.96	7215.87
542.13	6766.49
542.30	6427.11
542.47	6125.18
542.63	5891.13
542.80	5729.63
542.97	5490.90
543.14	5556.43
543.31	5645.37
543.48	5715.59
543.64	5774.10
543.81	5832.62
543.98	5682.82
544.15	5659.42
544.32	5790.49
544.48	5926.24
544.65	5577.50
544.82	5685.16
544.99	5577.50
545.16	5900.49
545.32	6303.06
545.49	12723.15
545.66	19620.71
545.83	21336.32
546.00	17221.66
546.16	12147.38
546.33	8755.94
546.50	6710.32
546.67	5710.91
546.83	5149.18
547.00	4784.06
547.17	4507.87
547.34	4353.40
547.50	4381.48
547.67	3997.64
547.84	3943.80
548.00	3763.58
548.17	3634.85
548.34	3501.44
548.51	3330.58
548.67	3316.54
548.84	3136.32
549.01	3021.63
549.18	2925.67
549.34	2773.53
549.51	2693.96
549.68	2546.50
549.84	2558.21
550.01	2420.11
550.18	2408.41
550.34	2265.64
550.51	2141.59
550.68	2047.97
550.84	1898.17
551.01	1870.09
551.18	1682.85
551.34	1673.48
551.51	1558.80
551.68	1603.27
551.84	1472.20
552.01	1458.15
552.18	1364.53
552.34	1324.74
552.51	1380.92
552.68	1341.13
552.84	1151.54
553.01	1142.18
553.18	1142.18
553.34	1135.16
553.51	1149.20
553.67	1076.65
553.84	1116.44
554.01	1015.79
554.17	938.55
554.34	821.53
554.51	823.87
554.67	777.06
554.84	720.88
555.00	823.87
555.17	662.37
555.33	671.73
555.50	699.82
555.67	664.71
555.83	517.26
556.00	564.07
556.16	826.21
556.33	622.58
556.50	554.71
556.66	566.41
556.83	620.24
556.99	503.22
557.16	500.87
557.32	491.51
557.49	519.60
557.65	559.39
557.82	503.22
557.98	409.59
558.15	444.70
558.32	407.25
558.48	447.04
558.65	489.17
558.81	374.49
558.98	442.36
559.14	404.91
559.31	444.70
559.47	390.87
559.64	353.42
559.80	381.51
559.97	351.08
560.13	376.83
560.30	435.34
560.46	388.53
560.63	456.40
560.79	381.51
560.96	461.09
561.12	418.96
561.29	360.44
561.45	395.55
561.61	367.46
561.78	475.13
561.94	393.21
562.11	372.15
562.27	381.51
562.44	383.85
562.60	477.47
562.77	397.89
562.93	458.74
563.10	388.53
563.26	433.00
563.42	360.44
563.59	465.77
563.75	353.42
563.92	358.10
564.08	407.25
564.24	365.12
564.41	428.32
564.57	404.91
564.74	318.31
564.90	416.62
565.07	411.93
565.23	306.61
565.39	330.02
565.56	348.74
565.72	306.61
565.88	285.55
566.05	355.76
566.21	367.46
566.38	423.64
566.54	266.82
566.70	315.97
566.87	355.76
567.03	273.84
567.19	367.46
567.36	337.04
567.52	390.87
567.68	390.87
567.85	322.99
568.01	358.10
568.17	386.19
568.34	423.64
568.50	381.51
568.66	376.83
568.83	407.25
568.99	332.36
569.15	369.80
569.32	322.99
569.48	318.31
569.64	299.59
569.81	250.44
569.97	294.91
570.13	280.86
570.30	257.46
570.46	266.82
570.62	271.50
570.78	294.91
570.95	276.18
571.11	358.10
571.27	257.46
571.43	332.36
571.60	262.14
571.76	299.59
571.92	301.93
572.09	271.50
572.25	278.52
572.41	266.82
572.57	241.08
572.74	344.06
572.90	299.59
573.06	262.14
573.22	315.97
573.38	348.74
573.55	320.65
573.71	447.04
573.87	311.29
574.03	308.95
574.20	262.14
574.36	325.33
574.52	381.51
574.68	423.64
574.84	339.38
575.01	330.02
575.17	362.78
575.33	322.99
575.49	379.17
575.65	423.64
575.82	449.38
575.98	477.47
576.14	463.43
576.30	1015.79
576.46	2705.66
576.62	3574.00
576.79	3585.70
576.95	2630.76
577.11	1739.02
577.27	1336.45
577.43	985.37
577.59	706.84
577.75	568.75
577.92	573.43
578.08	592.16
578.24	594.50
578.40	1172.61
578.56	2698.64
578.72	3300.16
578.88	3279.09
579.04	2478.63
579.21	1884.13
579.37	1362.19
579.53	1144.52
579.69	1245.16
579.85	1476.88
580.01	1537.73
580.17	1448.79
580.33	1291.98
580.49	1245.16
580.65	1041.54
580.82	1025.15
580.98	1022.81
581.14	917.49
581.30	1001.75
581.46	1137.50
581.62	1266.23
581.78	1273.25
581.94	1355.17
582.10	1474.54
582.26	1472.20
582.42	1460.49
582.58	1596.25
582.74	1558.80
582.90	1600.93
583.06	1549.43
583.22	1481.56
583.38	1486.24
583.54	1551.78
583.70	1619.65
583.86	1633.69
584.02	1511.99
584.18	1500.28
584.34	1444.11
584.50	1462.83
584.66	1394.96
584.82	1334.11
584.98	1320.06
585.14	1331.76
585.30	1390.28
585.46	1310.70
585.62	1324.74
585.78	1294.32
585.94	1308.36
586.10	1301.34
586.26	1324.74
586.42	1631.35
586.58	1795.19
586.74	2179.04
586.90	2569.91
587.06	2754.81
587.22	2605.02
587.38	2326.49
587.54	2078.40
587.70	1961.37
587.86	1603.27
588.02	1495.60
588.18	1172.61
588.34	1172.61
588.49	1008.77
588.65	992.39
588.81	990.05
588.97	922.17
589.13	849.61
589.29	968.98
589.45	908.13
589.61	837.91
589.77	964.30
589.93	929.19
590.08	870.68
590.24	936.21
590.40	1043.88
590.56	1039.20
590.72	1041.54
590.88	1018.13
591.04	1071.97
591.20	1186.65
591.35	1083.67
591.51	1196.01
591.67	1282.61
591.83	1301.34
591.99	1397.30
592.15	1593.90
592.31	1727.32
592.46	1792.85
592.62	1865.41
592.78	1989.46
592.94	2019.88
593.10	2003.50
593.26	1926.26
593.41	1858.39
593.57	1554.12
593.73	1401.98
593.89	1247.51
594.05	1142.18
594.20	997.07
594.36	1039.20
594.52	901.11
594.68	882.38
594.84	849.61
594.99	882.38
595.15	837.91
595.31	847.27
595.47	880.04
595.62	837.91
595.78	887.06
595.94	823.87
596.10	938.55
596.25	880.04
596.41	861.32
596.57	814.51
596.73	770.04
596.88	748.97
597.04	840.25
597.20	873.02
597.36	737.27
597.51	791.10
597.67	901.11
597.83	976.00
597.99	938.55
598.14	1104.73
598.30	1043.88
598.46	1064.94
598.61	1095.37
598.77	1224.10
598.93	1153.88
599.09	1247.51
599.24	1348.15
599.40	1224.10
599.56	1196.01
599.71	1158.57
599.87	1144.52
600.03	1118.78
600.18	887.06
600.34	933.87
600.50	861.32
600.65	912.81
600.81	873.02
600.97	842.59
601.12	826.21
601.28	777.06
601.44	716.20
601.59	650.67
601.75	610.88
601.91	615.56
602.06	571.09
602.22	746.63
602.37	538.32
602.53	543.00
602.69	603.86
602.84	674.07
603.00	662.37
603.16	631.94
603.31	648.33
603.47	622.58
603.62	653.01
603.78	678.76
603.94	601.52
604.09	622.58
604.25	622.58
604.40	697.48
604.56	676.41
604.71	772.38
604.87	653.01
605.03	777.06
605.18	760.67
605.34	833.23
605.49	751.31
605.65	819.19
605.80	730.25
605.96	730.25
606.12	835.57
606.27	772.38
606.43	875.36
606.58	835.57
606.74	924.51
606.89	903.45
607.05	1015.79
607.20	1090.69
607.36	1170.27
607.51	1055.58
607.67	1280.27
607.82	1226.44
607.98	1371.55
608.13	1467.52
608.29	1596.25
