SpectraSuite Data File
++++++++++++++++++++++++++++++++++++
Date: Fri Oct 04 11:41:41 GMT-05:00 2013
User: price-jones
Dark Spectrum Present: No
Reference Spectrum Present: No
Number of Sampled Component Spectra: 1
Spectrometers: USB2+H05261
Integration Time (usec): 100000 (USB2+H05261)
Spectra Averaged: 1 (USB2+H05261)
Boxcar Smoothing: 0 (USB2+H05261)
Correct for Electrical Dark: No (USB2+H05261)
Strobe/Lamp Enabled: No (USB2+H05261)
Correct for Detector Non-linearity: No (USB2+H05261)
Correct for Stray Light: No (USB2+H05261)
Number of Pixels in Processed Spectrum: 2048
>>>>>Begin Processed Spectral Data<<<<<
365.73	28.09
365.92	28.09
366.12	28.09
366.32	0.00
366.52	0.00
366.72	0.00
366.91	0.00
367.11	0.00
367.31	0.00
367.51	0.00
367.70	0.00
367.90	0.00
368.10	0.00
368.30	0.00
368.49	0.00
368.69	0.00
368.89	0.00
369.09	0.00
369.28	0.00
369.48	0.00
369.68	0.00
369.87	28.09
370.07	0.00
370.27	42.13
370.47	42.13
370.66	0.00
370.86	2.34
371.06	51.49
371.25	53.83
371.45	63.19
371.65	105.32
371.84	51.49
372.04	100.64
372.24	79.58
372.44	121.71
372.63	58.51
372.83	147.45
373.03	117.03
373.22	79.58
373.42	105.32
373.62	128.73
373.81	81.92
374.01	198.95
374.21	112.35
374.40	117.03
374.60	173.20
374.79	138.09
374.99	117.03
375.19	166.18
375.38	203.63
375.58	65.54
375.78	163.84
375.97	119.37
376.17	102.98
376.37	124.05
376.56	126.39
376.76	60.85
376.95	152.13
377.15	138.09
377.35	138.09
377.54	117.03
377.74	180.22
377.93	81.92
378.13	168.52
378.33	133.41
378.52	152.13
378.72	131.07
378.91	177.88
379.11	60.85
379.31	140.43
379.50	93.62
379.70	147.45
379.89	121.71
380.09	119.37
380.28	124.05
380.48	93.62
380.68	100.64
380.87	135.75
381.07	138.09
381.26	131.07
381.46	67.88
381.65	74.90
381.85	102.98
382.04	131.07
382.24	102.98
382.43	187.24
382.63	93.62
382.83	72.56
383.02	149.79
383.22	135.75
383.41	121.71
383.61	182.56
383.80	98.30
384.00	46.81
384.19	124.05
384.39	107.66
384.58	119.37
384.78	147.45
384.97	110.01
385.17	86.60
385.36	44.47
385.56	196.60
385.75	119.37
385.95	161.50
386.14	196.60
386.34	149.79
386.53	154.48
386.72	142.77
386.92	133.41
387.11	121.71
387.31	140.43
387.50	149.79
387.70	84.26
387.89	147.45
388.09	121.71
388.28	110.01
388.48	72.56
388.67	117.03
388.86	93.62
389.06	140.43
389.25	67.88
389.45	121.71
389.64	95.96
389.84	156.82
390.03	105.32
390.22	84.26
390.42	72.56
390.61	163.84
390.81	145.11
391.00	105.32
391.19	159.16
391.39	140.43
391.58	205.97
391.78	236.39
391.97	124.05
392.16	154.48
392.36	110.01
392.55	152.13
392.75	110.01
392.94	100.64
393.13	152.13
393.33	135.75
393.52	102.98
393.71	170.86
393.91	102.98
394.10	121.71
394.29	70.22
394.49	110.01
394.68	154.48
394.88	138.09
395.07	124.05
395.26	107.66
395.46	70.22
395.65	133.41
395.84	154.48
396.04	205.97
396.23	121.71
396.42	105.32
396.62	84.26
396.81	152.13
397.00	133.41
397.19	152.13
397.39	117.03
397.58	166.18
397.77	170.86
397.97	156.82
398.16	105.32
398.35	93.62
398.55	145.11
398.74	140.43
398.93	121.71
399.12	161.50
399.32	201.29
399.51	152.13
399.70	147.45
399.90	166.18
400.09	124.05
400.28	182.56
400.47	119.37
400.67	138.09
400.86	114.69
401.05	243.42
401.24	117.03
401.44	152.13
401.63	168.52
401.82	212.99
402.01	191.92
402.21	180.22
402.40	198.95
402.59	154.48
402.78	278.52
402.97	177.88
403.17	259.80
403.36	250.44
403.55	315.97
403.74	653.01
403.93	2012.86
404.13	4957.25
404.32	6963.09
404.51	6274.98
404.70	3936.78
404.89	1411.34
405.09	524.28
405.28	334.70
405.47	238.73
405.66	198.95
405.85	276.18
406.05	154.48
406.24	140.43
406.43	210.65
406.62	236.39
406.81	208.31
407.00	369.80
407.20	655.35
407.39	968.98
407.58	1057.92
407.77	711.52
407.96	461.09
408.15	262.14
408.34	168.52
408.54	259.80
408.73	100.64
408.92	184.90
409.11	236.39
409.30	248.10
409.49	182.56
409.68	266.82
409.87	220.01
410.07	102.98
410.26	182.56
410.45	126.39
410.64	238.73
410.83	243.42
411.02	168.52
411.21	175.54
411.40	163.84
411.59	241.08
411.78	217.67
411.98	194.26
412.17	124.05
412.36	212.99
412.55	210.65
412.74	203.63
412.93	255.12
413.12	184.90
413.31	292.57
413.50	238.73
413.69	243.42
413.88	243.42
414.07	227.03
414.26	203.63
414.45	196.60
414.64	229.37
414.83	201.29
415.02	273.84
415.22	245.76
415.41	304.27
415.60	173.20
415.79	182.56
415.98	259.80
416.17	138.09
416.36	215.33
416.55	250.44
416.74	241.08
416.93	318.31
417.12	285.55
417.31	198.95
417.50	241.08
417.69	290.23
417.88	252.78
418.07	227.03
418.26	224.69
418.45	280.86
418.64	299.59
418.83	241.08
419.02	210.65
419.21	285.55
419.39	292.57
419.58	266.82
419.77	285.55
419.96	301.93
420.15	334.70
420.34	320.65
420.53	248.10
420.72	243.42
420.91	292.57
421.10	379.17
421.29	322.99
421.48	271.50
421.67	259.80
421.86	243.42
422.05	313.63
422.24	280.86
422.43	262.14
422.61	264.48
422.80	304.27
422.99	308.95
423.18	271.50
423.37	278.52
423.56	320.65
423.75	287.89
423.94	234.05
424.13	287.89
424.32	269.16
424.50	313.63
424.69	308.95
424.88	320.65
425.07	245.76
425.26	299.59
425.45	276.18
425.64	330.02
425.83	325.33
426.01	315.97
426.20	360.44
426.39	344.06
426.58	344.06
426.77	250.44
426.96	299.59
427.15	299.59
427.33	437.68
427.52	252.78
427.71	290.23
427.90	355.76
428.09	278.52
428.28	315.97
428.46	421.30
428.65	313.63
428.84	388.53
429.03	348.74
429.22	339.38
429.40	400.23
429.59	273.84
429.78	407.25
429.97	320.65
430.16	325.33
430.34	262.14
430.53	362.78
430.72	334.70
430.91	428.32
431.10	395.55
431.28	407.25
431.47	484.49
431.66	351.08
431.85	425.98
432.03	374.49
432.22	477.47
432.41	353.42
432.60	430.66
432.79	409.59
432.97	388.53
433.16	428.32
433.35	575.77
433.54	608.54
433.72	580.45
433.91	655.35
434.10	603.86
434.28	814.51
434.47	1032.18
434.66	1100.05
434.85	1205.38
435.03	3361.01
435.22	12306.54
435.41	29766.93
435.59	33710.74
435.78	21994.01
435.97	10696.25
436.16	4154.45
436.34	1366.87
436.53	873.02
436.72	713.86
436.90	547.69
437.09	610.88
437.28	510.24
437.46	484.49
437.65	496.19
437.84	484.49
438.02	458.74
438.21	425.98
438.40	521.94
438.58	456.40
438.77	489.17
438.96	463.43
439.14	465.77
439.33	477.47
439.52	491.51
439.70	451.72
439.89	456.40
440.08	512.58
440.26	440.02
440.45	510.24
440.63	484.49
440.82	449.38
441.01	423.64
441.19	475.13
441.38	489.17
441.57	454.06
441.75	472.79
441.94	491.51
442.12	486.83
442.31	421.30
442.50	486.83
442.68	435.34
442.87	440.02
443.05	472.79
443.24	458.74
443.43	561.73
443.61	475.13
443.80	479.81
443.98	374.49
444.17	433.00
444.35	428.32
444.54	482.15
444.73	440.02
444.91	477.47
445.10	489.17
445.28	376.83
445.47	470.45
445.65	521.94
445.84	449.38
446.02	414.27
446.21	503.22
446.39	447.04
446.58	479.81
446.77	468.11
446.95	444.70
447.14	486.83
447.32	447.04
447.51	390.87
447.69	425.98
447.88	372.15
448.06	418.96
448.25	421.30
448.43	475.13
448.62	461.09
448.80	388.53
448.99	472.79
449.17	517.26
449.36	531.30
449.54	454.06
449.73	507.90
449.91	505.56
450.10	489.17
450.28	484.49
450.46	507.90
450.65	454.06
450.83	454.06
451.02	430.66
451.20	507.90
451.39	489.17
451.57	418.96
451.76	407.25
451.94	383.85
452.13	388.53
452.31	444.70
452.49	496.19
452.68	411.93
452.86	470.45
453.05	517.26
453.23	404.91
453.42	351.08
453.60	482.15
453.78	425.98
453.97	395.55
454.15	411.93
454.34	386.19
454.52	458.74
454.70	440.02
454.89	404.91
455.07	477.47
455.26	472.79
455.44	451.72
455.62	472.79
455.81	442.36
455.99	479.81
456.17	400.23
456.36	430.66
456.54	463.43
456.73	421.30
456.91	479.81
457.09	458.74
457.28	465.77
457.46	468.11
457.64	484.49
457.83	454.06
458.01	479.81
458.19	381.51
458.38	484.49
458.56	470.45
458.74	440.02
458.93	547.69
459.11	395.55
459.29	442.36
459.48	465.77
459.66	407.25
459.84	456.40
460.03	510.24
460.21	489.17
460.39	475.13
460.57	472.79
460.76	451.72
460.94	423.64
461.12	552.37
461.31	519.60
461.49	435.34
461.67	517.26
461.85	393.21
462.04	411.93
462.22	580.45
462.40	449.38
462.59	491.51
462.77	451.72
462.95	404.91
463.13	397.89
463.32	421.30
463.50	440.02
463.68	433.00
463.86	472.79
464.05	428.32
464.23	479.81
464.41	421.30
464.59	491.51
464.78	376.83
464.96	421.30
465.14	339.38
465.32	440.02
465.50	428.32
465.69	447.04
465.87	416.62
466.05	433.00
466.23	461.09
466.41	524.28
466.60	423.64
466.78	470.45
466.96	484.49
467.14	447.04
467.32	482.15
467.51	433.00
467.69	435.34
467.87	461.09
468.05	351.08
468.23	416.62
468.41	397.89
468.60	449.38
468.78	369.80
468.96	379.17
469.14	435.34
469.32	341.72
469.50	381.51
469.69	397.89
469.87	414.27
470.05	418.96
470.23	393.21
470.41	360.44
470.59	430.66
470.77	397.89
470.95	393.21
471.14	411.93
471.32	358.10
471.50	517.26
471.68	402.57
471.86	482.15
472.04	416.62
472.22	440.02
472.40	315.97
472.58	367.46
472.77	456.40
472.95	337.04
473.13	554.71
473.31	416.62
473.49	381.51
473.67	301.93
473.85	423.64
474.03	437.68
474.21	493.85
474.39	430.66
474.57	393.21
474.75	505.56
474.93	393.21
475.12	388.53
475.30	304.27
475.48	444.70
475.66	395.55
475.84	437.68
476.02	395.55
476.20	470.45
476.38	447.04
476.56	444.70
476.74	358.10
476.92	505.56
477.10	423.64
477.28	435.34
477.46	397.89
477.64	465.77
477.82	393.21
478.00	407.25
478.18	444.70
478.36	433.00
478.54	456.40
478.72	505.56
478.90	456.40
479.08	521.94
479.26	566.41
479.44	545.34
479.62	554.71
479.80	589.82
479.98	543.00
480.16	634.29
480.34	655.35
480.52	641.31
480.70	650.67
480.88	650.67
481.06	720.88
481.24	746.63
481.41	772.38
481.59	816.85
481.77	856.64
481.95	891.74
482.13	957.28
482.31	1057.92
482.49	976.00
482.67	1142.18
482.85	1291.98
483.03	1401.98
483.21	1334.11
483.39	1511.99
483.57	1537.73
483.74	1769.44
483.92	1790.51
484.10	1783.49
484.28	1893.49
484.46	2097.12
484.64	2157.97
484.82	2307.77
485.00	2317.13
485.18	2537.14
485.35	2558.21
485.53	2825.03
485.71	2932.69
485.89	3117.59
486.07	3056.74
486.25	3321.22
486.43	3021.63
486.61	3070.78
486.78	3138.66
486.96	3133.98
487.14	3103.55
487.32	3075.46
487.50	2942.05
487.68	3061.42
487.85	3026.31
488.03	3026.31
488.21	3035.67
488.39	2855.45
488.57	2733.75
488.75	2656.51
488.92	2860.13
489.10	2665.87
489.28	2672.89
489.46	2509.05
489.64	2450.54
489.81	2415.43
489.99	2319.47
490.17	2427.14
490.35	2485.65
490.53	2321.81
490.70	2361.60
490.88	2333.51
491.06	2448.20
491.24	2490.33
491.41	2605.02
491.59	2509.05
491.77	2349.90
491.95	2204.78
492.13	2179.04
492.30	2108.82
492.48	2118.18
492.66	2197.76
492.84	2005.84
493.01	1987.11
493.19	2083.08
493.37	1959.03
493.54	1991.80
493.72	1916.90
493.90	1884.13
494.08	1874.77
494.25	1750.72
494.43	1741.36
494.61	1802.21
494.79	1769.44
494.96	1734.34
495.14	1834.98
495.32	1563.48
495.49	1647.74
495.67	1647.74
495.85	1652.42
496.02	1554.12
496.20	1638.38
496.38	1680.50
496.55	1537.73
496.73	1474.54
496.91	1404.32
497.09	1507.30
497.26	1441.77
497.44	1448.79
497.62	1380.92
497.79	1446.45
497.97	1324.74
498.14	1273.25
498.32	1245.16
498.50	1249.85
498.67	1259.21
498.85	1238.14
499.03	1207.72
499.20	1097.71
499.38	1165.59
499.56	1184.31
499.73	1078.99
499.91	1100.05
500.08	1029.84
500.26	1032.18
500.44	1001.75
500.61	961.96
500.79	943.24
500.97	961.96
501.14	877.70
501.32	819.19
501.49	915.15
501.67	849.61
501.84	828.55
502.02	755.99
502.20	835.57
502.37	807.48
502.55	667.05
502.72	734.93
502.90	716.20
503.07	653.01
503.25	636.63
503.43	688.12
503.60	627.26
503.78	608.54
503.95	517.26
504.13	587.47
504.30	624.92
504.48	613.22
504.65	615.56
504.83	636.63
505.01	517.26
505.18	543.00
505.36	564.07
505.53	500.87
505.71	507.90
505.88	524.28
506.06	521.94
506.23	493.85
506.41	557.05
506.58	404.91
506.76	503.22
506.93	491.51
507.11	477.47
507.28	479.81
507.46	444.70
507.63	447.04
507.81	376.83
507.98	498.53
508.16	468.11
508.33	465.77
508.50	435.34
508.68	552.37
508.85	517.26
509.03	489.17
509.20	486.83
509.38	486.83
509.55	528.96
509.73	526.62
509.90	468.11
510.08	402.57
510.25	393.21
510.42	454.06
510.60	428.32
510.77	416.62
510.95	491.51
511.12	475.13
511.30	510.24
511.47	470.45
511.64	510.24
511.82	519.60
511.99	477.47
512.17	393.21
512.34	402.57
512.51	528.96
512.69	444.70
512.86	475.13
513.04	444.70
513.21	475.13
513.38	411.93
513.56	437.68
513.73	388.53
513.90	409.59
514.08	421.30
514.25	428.32
514.43	458.74
514.60	404.91
514.77	353.42
514.95	362.78
515.12	407.25
515.29	428.32
515.47	451.72
515.64	388.53
515.81	376.83
515.99	477.47
516.16	390.87
516.33	404.91
516.51	369.80
516.68	372.15
516.85	374.49
517.03	341.72
517.20	383.85
517.37	339.38
517.54	379.17
517.72	299.59
517.89	315.97
518.06	322.99
518.24	339.38
518.41	376.83
518.58	341.72
518.75	313.63
518.93	360.44
519.10	355.76
519.27	425.98
519.45	383.85
519.62	301.93
519.79	365.12
519.96	397.89
520.14	346.40
520.31	337.04
520.48	372.15
520.65	449.38
520.83	358.10
521.00	428.32
521.17	404.91
521.34	322.99
521.52	418.96
521.69	388.53
521.86	362.78
522.03	315.97
522.20	315.97
522.38	330.02
522.55	353.42
522.72	280.86
522.89	339.38
523.07	397.89
523.24	386.19
523.41	344.06
523.58	409.59
523.75	362.78
523.92	315.97
524.10	330.02
524.27	395.55
524.44	367.46
524.61	341.72
524.78	325.33
524.96	468.11
525.13	332.36
525.30	395.55
525.47	418.96
525.64	482.15
525.81	330.02
525.98	428.32
526.16	409.59
526.33	376.83
526.50	433.00
526.67	440.02
526.84	472.79
527.01	388.53
527.18	475.13
527.36	533.64
527.53	496.19
527.70	514.92
527.87	489.17
528.04	505.56
528.21	397.89
528.38	400.23
528.55	451.72
528.72	561.73
528.89	496.19
529.07	428.32
529.24	454.06
529.41	547.69
529.58	477.47
529.75	505.56
529.92	500.87
530.09	440.02
530.26	538.32
530.43	599.18
530.60	472.79
530.77	599.18
530.94	613.22
531.11	540.66
531.28	636.63
531.46	596.84
531.63	601.52
531.80	664.71
531.97	695.14
532.14	833.23
532.31	896.43
532.48	1025.15
532.65	1118.78
532.82	1308.36
532.99	1612.63
533.16	1851.36
533.33	1891.15
533.50	1839.66
533.67	1598.59
533.84	1275.59
534.01	1212.40
534.18	1146.86
534.35	1053.24
534.52	1078.99
534.69	1153.88
534.86	1102.39
535.03	1205.38
535.20	1252.19
535.37	1336.45
535.54	1378.58
535.71	1458.15
535.88	1596.25
536.05	1621.99
536.22	1687.53
536.38	1900.52
536.55	2069.03
536.72	2244.57
536.89	2572.25
537.06	2881.20
537.23	3110.57
537.40	3431.23
537.57	3576.34
537.74	3843.16
537.91	4016.36
538.08	4234.03
538.25	4236.37
538.42	4234.03
538.59	4498.51
538.75	4339.35
538.92	4858.95
539.09	5128.11
539.26	5696.86
539.43	6445.84
539.60	7398.43
539.77	8344.01
539.94	9149.15
540.11	10171.97
540.28	11302.45
540.44	12194.19
540.61	13411.27
540.78	15522.43
540.95	18684.50
541.12	22356.80
541.29	24950.11
541.46	26522.95
541.62	26335.71
541.79	25151.40
541.96	23498.98
542.13	21837.20
542.30	20294.79
542.47	18977.06
542.63	18265.54
542.80	17341.03
542.97	16999.31
543.14	16943.14
543.31	17233.36
543.48	17041.44
543.64	17439.33
543.81	17102.29
543.98	17511.89
544.15	17909.78
544.32	17785.73
544.48	17905.10
544.65	17645.30
544.82	17617.21
544.99	17483.80
545.16	17776.37
545.32	18829.61
545.49	29797.36
545.66	53209.74
545.83	60603.49
546.00	56804.80
546.16	43093.94
546.33	31363.18
546.50	23194.71
546.67	18171.92
546.83	16023.31
547.00	15274.34
547.17	14546.43
547.34	13940.23
547.50	13469.78
547.67	12978.27
547.84	12229.30
548.00	12051.42
548.17	11618.42
548.34	10956.05
548.51	10593.26
548.67	10019.83
548.84	9584.49
549.01	9111.71
549.18	8798.07
549.34	8589.77
549.51	8229.32
549.68	7964.84
549.84	7573.97
550.01	7087.14
550.18	6916.28
550.34	6665.85
550.51	6239.87
550.68	6026.88
550.84	5579.84
551.01	5476.85
551.18	5043.85
551.34	4856.61
551.51	4711.50
551.68	4489.15
551.84	4400.21
552.01	4135.73
552.18	4088.92
552.34	3770.60
552.51	3566.98
552.68	3506.12
552.84	3180.79
553.01	3180.79
553.18	3126.96
553.34	3075.46
553.51	2902.26
553.67	2967.80
553.84	2785.24
554.01	2513.74
554.17	2399.05
554.34	2253.94
554.51	2169.68
554.67	1930.94
554.84	1933.28
555.00	1762.42
555.17	1771.79
555.33	1682.85
555.50	1526.03
555.67	1495.60
555.83	1462.83
556.00	1401.98
556.16	1521.35
556.33	1336.45
556.50	1184.31
556.66	1240.48
556.83	1238.14
556.99	1228.78
557.16	1130.48
557.32	1125.80
557.49	1036.86
557.65	999.41
557.82	1015.79
557.98	1020.47
558.15	954.94
558.32	997.07
558.48	947.92
558.65	856.64
558.81	933.87
558.98	823.87
559.14	805.14
559.31	917.49
559.47	844.93
559.64	784.08
559.80	779.40
559.97	760.67
560.13	814.51
560.30	781.74
560.46	755.99
560.63	699.82
560.79	695.14
560.96	763.01
561.12	774.72
561.29	739.61
561.45	837.91
561.61	765.36
561.78	847.27
561.94	795.78
562.11	732.59
562.27	746.63
562.44	704.50
562.60	706.84
562.77	793.44
562.93	723.23
563.10	669.39
563.26	779.40
563.42	723.23
563.59	636.63
563.75	624.92
563.92	760.67
564.08	627.26
564.24	664.71
564.41	638.97
564.57	629.60
564.74	596.84
564.90	594.50
565.07	538.32
565.23	617.90
565.39	608.54
565.56	636.63
565.72	601.52
565.88	601.52
566.05	545.34
566.21	594.50
566.38	561.73
566.54	589.82
566.70	678.76
566.87	596.84
567.03	596.84
567.19	594.50
567.36	571.09
567.52	653.01
567.68	634.29
567.85	622.58
568.01	564.07
568.17	599.18
568.34	610.88
568.50	674.07
568.66	606.20
568.83	767.70
568.99	624.92
569.15	678.76
569.32	594.50
569.48	627.26
569.64	610.88
569.81	538.32
569.97	561.73
570.13	554.71
570.30	521.94
570.46	465.77
570.62	421.30
570.78	344.06
570.95	470.45
571.11	517.26
571.27	540.66
571.43	456.40
571.60	486.83
571.76	533.64
571.92	409.59
572.09	458.74
572.25	351.08
572.41	475.13
572.57	451.72
572.74	599.18
572.90	442.36
573.06	507.90
573.22	528.96
573.38	470.45
573.55	496.19
573.71	528.96
573.87	531.30
574.03	512.58
574.20	503.22
574.36	608.54
574.52	559.39
574.68	608.54
574.84	653.01
575.01	566.41
575.17	636.63
575.33	645.99
575.49	697.48
575.65	788.76
575.82	826.21
575.98	917.49
576.14	1011.11
576.30	1870.09
576.46	5713.25
576.62	11253.30
576.79	13095.30
576.95	9238.09
577.11	5984.75
577.27	4259.78
577.43	2827.37
577.59	1898.17
577.75	1504.96
577.92	1376.24
578.08	1315.38
578.24	1387.94
578.40	2129.89
578.56	5823.25
578.72	10431.77
578.88	11906.31
579.04	8922.12
579.21	5832.62
579.37	4224.67
579.53	3344.63
579.69	3178.45
579.85	3997.64
580.01	4428.29
580.17	4414.25
580.33	3843.16
580.49	3307.18
580.65	2958.44
580.82	2715.02
580.98	2619.06
581.14	2546.50
581.30	2750.13
581.46	3045.04
581.62	3141.00
581.78	3506.12
581.94	3761.24
582.10	3878.27
582.26	4009.34
582.42	4285.52
582.58	4367.44
582.74	4348.72
582.90	4472.76
583.06	4517.23
583.22	4500.85
583.38	4367.44
583.54	4428.29
583.70	4334.67
583.86	4236.37
584.02	4236.37
584.18	4259.78
584.34	4187.22
584.50	4142.75
584.66	4077.21
584.82	4035.08
584.98	3936.78
585.14	3857.20
585.30	3829.12
585.46	3871.25
585.62	3674.64
585.78	3716.77
585.94	3599.74
586.10	3817.41
586.26	4135.73
586.42	4720.86
586.58	5453.45
586.74	6506.69
586.90	7779.94
587.06	8676.37
587.22	8858.93
587.38	7899.31
587.54	6621.38
587.70	5673.46
587.86	4800.44
588.02	4100.62
588.18	3604.42
588.34	3304.84
588.49	2977.16
588.65	2794.60
588.81	2597.99
588.97	2670.55
589.13	2546.50
589.29	2385.01
589.45	2480.97
589.61	2478.63
589.77	2385.01
589.93	2576.93
590.08	2562.89
590.24	2612.04
590.40	2792.26
590.56	2857.79
590.72	2862.48
590.88	2869.50
591.04	2956.10
591.20	2974.82
591.35	3372.71
591.51	3445.27
591.67	3566.98
591.83	3681.66
591.99	4166.15
592.15	4369.78
592.31	4753.63
592.46	5268.55
592.62	5694.52
592.78	6153.27
592.94	6129.86
593.10	6272.64
593.26	6031.56
593.41	5680.48
593.57	4880.02
593.73	4421.27
593.89	3946.14
594.05	3466.33
594.20	3105.89
594.36	2920.99
594.52	2574.59
594.68	2483.31
594.84	2504.37
594.99	2176.70
595.15	2359.26
595.31	2228.19
595.47	2293.72
595.62	2207.13
595.78	2368.62
595.94	2284.36
596.10	2174.36
596.25	2225.85
596.41	2375.64
596.57	2321.81
596.73	2256.28
596.88	2237.55
597.04	2228.19
597.20	2289.04
597.36	2314.79
597.51	2251.60
597.67	2286.70
597.83	2518.42
597.99	2693.96
598.14	2766.51
598.30	3052.06
598.46	3166.74
598.61	3311.86
598.77	3428.88
598.93	3616.13
599.09	3824.44
599.24	3838.48
599.40	3786.99
599.56	3609.11
599.71	3564.64
599.87	3260.37
600.03	3115.25
600.18	2928.01
600.34	2684.59
600.50	2527.78
600.65	2466.92
600.81	2310.11
600.97	2148.61
601.12	2076.06
601.28	2022.22
601.44	1846.68
601.59	1804.55
601.75	1746.04
601.91	1687.53
602.06	1561.14
602.22	1521.35
602.37	1568.16
602.53	1572.84
602.69	1521.35
602.84	1418.36
603.00	1509.65
603.16	1495.60
603.31	1565.82
603.47	1579.86
603.62	1554.12
603.78	1640.72
603.94	1692.21
604.09	1748.38
604.25	1671.14
604.40	1706.25
604.56	1675.82
604.71	1790.51
604.87	1755.40
605.03	1680.50
605.18	1788.17
605.34	1788.17
