SpectraSuite Data File
++++++++++++++++++++++++++++++++++++
Date: Fri Oct 04 11:41:55 GMT-05:00 2013
User: price-jones
Dark Spectrum Present: No
Reference Spectrum Present: No
Number of Sampled Component Spectra: 1
Spectrometers: USB2+H05261
Integration Time (usec): 100000 (USB2+H05261)
Spectra Averaged: 1 (USB2+H05261)
Boxcar Smoothing: 0 (USB2+H05261)
Correct for Electrical Dark: No (USB2+H05261)
Strobe/Lamp Enabled: No (USB2+H05261)
Correct for Detector Non-linearity: No (USB2+H05261)
Correct for Stray Light: No (USB2+H05261)
Number of Pixels in Processed Spectrum: 2048
>>>>>Begin Processed Spectral Data<<<<<
365.73	93.62
365.92	93.62
366.12	93.62
366.32	0.00
366.52	0.00
366.72	0.00
366.91	0.00
367.11	0.00
367.31	0.00
367.51	0.00
367.70	0.00
367.90	0.00
368.10	0.00
368.30	0.00
368.49	0.00
368.69	0.00
368.89	0.00
369.09	0.00
369.28	0.00
369.48	0.00
369.68	0.00
369.87	21.06
370.07	23.41
370.27	0.00
370.47	0.00
370.66	0.00
370.86	77.24
371.06	46.81
371.25	114.69
371.45	88.94
371.65	126.39
371.84	56.17
372.04	117.03
372.24	51.49
372.44	63.19
372.63	105.32
372.83	187.24
373.03	147.45
373.22	100.64
373.42	161.50
373.62	86.60
373.81	88.94
374.01	180.22
374.21	138.09
374.40	180.22
374.60	156.82
374.79	163.84
374.99	138.09
375.19	184.90
375.38	154.48
375.58	77.24
375.78	126.39
375.97	84.26
376.17	147.45
376.37	112.35
376.56	161.50
376.76	91.28
376.95	161.50
377.15	159.16
377.35	156.82
377.54	72.56
377.74	95.96
377.93	145.11
378.13	224.69
378.33	201.29
378.52	107.66
378.72	234.05
378.91	133.41
379.11	105.32
379.31	79.58
379.50	147.45
379.70	100.64
379.89	159.16
380.09	131.07
380.28	95.96
380.48	84.26
380.68	110.01
380.87	196.60
381.07	100.64
381.26	74.90
381.46	91.28
381.65	159.16
381.85	166.18
382.04	154.48
382.24	86.60
382.43	159.16
382.63	152.13
382.83	145.11
383.02	133.41
383.22	121.71
383.41	119.37
383.61	107.66
383.80	112.35
384.00	182.56
384.19	93.62
384.39	114.69
384.58	128.73
384.78	154.48
384.97	88.94
385.17	84.26
385.36	184.90
385.56	124.05
385.75	88.94
385.95	84.26
386.14	175.54
386.34	93.62
386.53	88.94
386.72	163.84
386.92	149.79
387.11	131.07
387.31	84.26
387.50	140.43
387.70	112.35
387.89	65.54
388.09	133.41
388.28	100.64
388.48	126.39
388.67	58.51
388.86	110.01
389.06	121.71
389.25	163.84
389.45	79.58
389.64	86.60
389.84	138.09
390.03	170.86
390.22	177.88
390.42	163.84
390.61	142.77
390.81	124.05
391.00	149.79
391.19	124.05
391.39	124.05
391.58	25.75
391.78	140.43
391.97	140.43
392.16	117.03
392.36	180.22
392.55	112.35
392.75	145.11
392.94	93.62
393.13	203.63
393.33	86.60
393.52	126.39
393.71	154.48
393.91	166.18
394.10	131.07
394.29	95.96
394.49	51.49
394.68	135.75
394.88	215.33
395.07	145.11
395.26	154.48
395.46	119.37
395.65	170.86
395.84	42.13
396.04	135.75
396.23	88.94
396.42	161.50
396.62	147.45
396.81	145.11
397.00	149.79
397.19	142.77
397.39	128.73
397.58	180.22
397.77	234.05
397.97	159.16
398.16	159.16
398.35	177.88
398.55	149.79
398.74	175.54
398.93	105.32
399.12	77.24
399.32	224.69
399.51	180.22
399.70	133.41
399.90	182.56
400.09	163.84
400.28	245.76
400.47	156.82
400.67	266.82
400.86	154.48
401.05	163.84
401.24	194.26
401.44	196.60
401.63	184.90
401.82	243.42
402.01	149.79
402.21	187.24
402.40	203.63
402.59	241.08
402.78	189.58
402.97	166.18
403.17	318.31
403.36	189.58
403.55	344.06
403.74	802.80
403.93	2300.75
404.13	5825.59
404.32	9537.68
404.51	10010.47
404.70	6480.94
404.89	2462.24
405.09	681.10
405.28	292.57
405.47	266.82
405.66	241.08
405.85	280.86
406.05	180.22
406.24	205.97
406.43	208.31
406.62	229.37
406.81	322.99
407.00	365.12
407.20	695.14
407.39	1200.69
407.58	1493.26
407.77	1188.99
407.96	528.96
408.15	245.76
408.34	215.33
408.54	184.90
408.73	149.79
408.92	231.71
409.11	168.52
409.30	210.65
409.49	243.42
409.68	180.22
409.87	198.95
410.07	208.31
410.26	252.78
410.45	229.37
410.64	170.86
410.83	234.05
411.02	198.95
411.21	285.55
411.40	245.76
411.59	205.97
411.78	257.46
411.98	236.39
412.17	194.26
412.36	170.86
412.55	222.35
412.74	262.14
412.93	243.42
413.12	264.48
413.31	198.95
413.50	283.20
413.69	252.78
413.88	367.46
414.07	322.99
414.26	266.82
414.45	241.08
414.64	224.69
414.83	304.27
415.02	276.18
415.22	269.16
415.41	243.42
415.60	262.14
415.79	257.46
415.98	297.25
416.17	325.33
416.36	304.27
416.55	292.57
416.74	346.40
416.93	304.27
417.12	271.50
417.31	332.36
417.50	248.10
417.69	348.74
417.88	264.48
418.07	201.29
418.26	332.36
418.45	313.63
418.64	334.70
418.83	290.23
419.02	304.27
419.21	379.17
419.39	362.78
419.58	280.86
419.77	320.65
419.96	318.31
420.15	360.44
420.34	322.99
420.53	299.59
420.72	283.20
420.91	365.12
421.10	318.31
421.29	348.74
421.48	386.19
421.67	411.93
421.86	266.82
422.05	315.97
422.24	301.93
422.43	339.38
422.61	301.93
422.80	306.61
422.99	379.17
423.18	308.95
423.37	395.55
423.56	383.85
423.75	372.15
423.94	337.04
424.13	294.91
424.32	402.57
424.50	358.10
424.69	337.04
424.88	447.04
425.07	355.76
425.26	334.70
425.45	372.15
425.64	397.89
425.83	390.87
426.01	400.23
426.20	524.28
426.39	407.25
426.58	402.57
426.77	411.93
426.96	440.02
427.15	451.72
427.33	376.83
427.52	411.93
427.71	395.55
427.90	416.62
428.09	388.53
428.28	418.96
428.46	409.59
428.65	428.32
428.84	425.98
429.03	442.36
429.22	475.13
429.40	437.68
429.59	376.83
429.78	496.19
429.97	428.32
430.16	442.36
430.34	423.64
430.53	449.38
430.72	566.41
430.91	533.64
431.10	463.43
431.28	465.77
431.47	528.96
431.66	484.49
431.85	550.03
432.03	505.56
432.22	552.37
432.41	514.92
432.60	594.50
432.79	622.58
432.97	624.92
433.16	594.50
433.35	594.50
433.54	758.33
433.72	816.85
433.91	858.98
434.10	898.77
434.28	1069.62
434.47	1366.87
434.66	1411.34
434.85	1638.38
435.03	3758.90
435.22	13940.23
435.41	35409.96
435.59	49148.91
435.78	37387.72
435.97	16814.41
436.16	6274.98
436.34	2118.18
436.53	1160.91
436.72	936.21
436.90	851.96
437.09	737.27
437.28	683.44
437.46	636.63
437.65	704.50
437.84	610.88
438.02	655.35
438.21	622.58
438.40	638.97
438.58	561.73
438.77	517.26
438.96	657.69
439.14	592.16
439.33	622.58
439.52	615.56
439.70	571.09
439.89	624.92
440.08	568.75
440.26	585.13
440.45	575.77
440.63	524.28
440.82	617.90
441.01	592.16
441.19	613.22
441.38	582.79
441.57	585.13
441.75	564.07
441.94	510.24
442.12	538.32
442.31	638.97
442.50	578.11
442.68	657.69
442.87	688.12
443.05	620.24
443.24	517.26
443.43	589.82
443.61	571.09
443.80	610.88
443.98	594.50
444.17	636.63
444.35	655.35
444.54	596.84
444.73	624.92
444.91	667.05
445.10	578.11
445.28	519.60
445.47	606.20
445.65	592.16
445.84	547.69
446.02	615.56
446.21	608.54
446.39	603.86
446.58	606.20
446.77	528.96
446.95	521.94
447.14	552.37
447.32	627.26
447.51	627.26
447.69	528.96
447.88	653.01
448.06	564.07
448.25	592.16
448.43	599.18
448.62	498.53
448.80	559.39
448.99	674.07
449.17	608.54
449.36	594.50
449.54	582.79
449.73	547.69
449.91	629.60
450.10	540.66
450.28	613.22
450.46	669.39
450.65	718.54
450.83	547.69
451.02	592.16
451.20	498.53
451.39	641.31
451.57	601.52
451.76	564.07
451.94	606.20
452.13	571.09
452.31	606.20
452.49	596.84
452.68	559.39
452.86	472.79
453.05	599.18
453.23	580.45
453.42	641.31
453.60	585.13
453.78	599.18
453.97	557.05
454.15	533.64
454.34	521.94
454.52	566.41
454.70	622.58
454.89	580.45
455.07	629.60
455.26	512.58
455.44	503.22
455.62	531.30
455.81	500.87
455.99	589.82
456.17	486.83
456.36	580.45
456.54	550.03
456.73	479.81
456.91	540.66
457.09	535.98
457.28	608.54
457.46	608.54
457.64	638.97
457.83	559.39
458.01	528.96
458.19	594.50
458.38	521.94
458.56	552.37
458.74	517.26
458.93	578.11
459.11	580.45
459.29	531.30
459.48	526.62
459.66	582.79
459.84	674.07
460.03	648.33
460.21	566.41
460.39	526.62
460.57	580.45
460.76	669.39
460.94	489.17
461.12	547.69
461.31	608.54
461.49	475.13
461.67	573.43
461.85	533.64
462.04	510.24
462.22	983.02
462.40	589.82
462.59	491.51
462.77	519.60
462.95	463.43
463.13	578.11
463.32	447.04
463.50	505.56
463.68	580.45
463.86	505.56
464.05	489.17
464.23	589.82
464.41	547.69
464.59	545.34
464.78	648.33
464.96	489.17
465.14	559.39
465.32	540.66
465.50	554.71
465.69	571.09
465.87	599.18
466.05	479.81
466.23	524.28
466.41	477.47
466.60	622.58
466.78	678.76
466.96	566.41
467.14	559.39
467.32	671.73
467.51	613.22
467.69	603.86
467.87	596.84
468.05	528.96
468.23	550.03
468.41	475.13
468.60	454.06
468.78	479.81
468.96	500.87
469.14	526.62
469.32	493.85
469.50	465.77
469.69	489.17
469.87	552.37
470.05	510.24
470.23	519.60
470.41	475.13
470.59	507.90
470.77	561.73
470.95	582.79
471.14	519.60
471.32	543.00
471.50	613.22
471.68	531.30
471.86	601.52
472.04	503.22
472.22	524.28
472.40	589.82
472.58	571.09
472.77	489.17
472.95	580.45
473.13	479.81
473.31	521.94
473.49	566.41
473.67	510.24
473.85	613.22
474.03	592.16
474.21	498.53
474.39	585.13
474.57	587.47
474.75	526.62
474.93	526.62
475.12	402.57
475.30	554.71
475.48	517.26
475.66	535.98
475.84	528.96
476.02	592.16
476.20	578.11
476.38	552.37
476.56	629.60
476.74	543.00
476.92	589.82
477.10	517.26
477.28	531.30
477.46	545.34
477.64	545.34
477.82	620.24
478.00	610.88
478.18	641.31
478.36	601.52
478.54	657.69
478.72	645.99
478.90	685.78
479.08	704.50
479.26	631.94
479.44	660.03
479.62	704.50
479.80	692.80
479.98	844.93
480.16	732.59
480.34	851.96
480.52	943.24
480.70	866.00
480.88	880.04
481.06	964.30
481.24	938.55
481.41	999.41
481.59	1069.62
481.77	1186.65
481.95	1114.10
482.13	1219.42
482.31	1343.47
482.49	1486.24
482.67	1577.52
482.85	1610.29
483.03	1767.10
483.21	1893.49
483.39	2047.97
483.57	2101.80
483.74	2307.77
483.92	2441.18
484.10	2520.76
484.28	2761.83
484.46	2867.16
484.64	3007.59
484.82	3002.91
485.00	3265.05
485.18	3508.46
485.35	3726.13
485.53	3798.69
485.71	3957.85
485.89	4381.48
486.07	4266.80
486.25	4386.16
486.43	4374.46
486.61	4489.15
486.78	4496.17
486.96	4468.08
487.14	4362.76
487.32	4447.02
487.50	4269.14
487.68	4407.23
487.85	4175.52
488.03	4194.24
488.21	4194.24
488.39	4084.23
488.57	3929.76
488.75	3875.93
488.92	4088.92
489.10	3756.56
489.28	3770.60
489.46	3641.87
489.64	3405.48
489.81	3541.23
489.99	3363.35
490.17	3372.71
490.35	3449.95
490.53	3197.17
490.70	3323.56
490.88	3328.24
491.06	3407.82
491.24	3653.58
491.41	3892.31
491.59	3630.17
491.77	3361.01
491.95	3157.38
492.13	3157.38
492.30	3152.70
492.48	3000.57
492.66	2995.89
492.84	2979.50
493.01	3075.46
493.19	2864.82
493.37	2768.85
493.54	2726.72
493.72	2766.51
493.90	2757.15
494.08	2661.19
494.25	2731.41
494.43	2616.72
494.61	2509.05
494.79	2478.63
494.96	2464.58
495.14	2469.27
495.32	2441.18
495.49	2249.25
495.67	2296.07
495.85	2286.70
496.02	2157.97
496.20	2181.38
496.38	2190.74
496.55	2181.38
496.73	2054.99
496.91	1930.94
497.09	1968.39
497.26	2010.52
497.44	1935.62
497.62	1820.94
497.79	1818.60
497.97	1755.40
498.14	1671.14
498.32	1823.28
498.50	1680.50
498.67	1701.57
498.85	1591.56
499.03	1507.30
499.20	1502.62
499.38	1490.92
499.56	1558.80
499.73	1537.73
499.91	1523.69
500.08	1446.45
500.26	1313.04
500.44	1277.93
500.61	1320.06
500.79	1167.93
500.97	1114.10
501.14	1219.42
501.32	1291.98
501.49	1111.75
501.67	1121.12
501.84	1107.07
502.02	917.49
502.20	1149.20
502.37	1022.81
502.55	919.83
502.72	947.92
502.90	959.62
503.07	798.12
503.25	877.70
503.43	760.67
503.60	763.01
503.78	784.08
503.95	816.85
504.13	657.69
504.30	779.40
504.48	779.40
504.65	777.06
504.83	765.36
505.01	704.50
505.18	634.29
505.36	704.50
505.53	695.14
505.71	676.41
505.88	725.57
506.06	676.41
506.23	685.78
506.41	540.66
506.58	613.22
506.76	641.31
506.93	575.77
507.11	660.03
507.28	573.43
507.46	554.71
507.63	535.98
507.81	580.45
507.98	582.79
508.16	526.62
508.33	517.26
508.50	596.84
508.68	643.65
508.85	678.76
509.03	643.65
509.20	669.39
509.38	643.65
509.55	711.52
509.73	550.03
509.90	578.11
510.08	512.58
510.25	653.01
510.42	561.73
510.60	465.77
510.77	521.94
510.95	510.24
511.12	486.83
511.30	491.51
511.47	482.15
511.64	524.28
511.82	575.77
511.99	458.74
512.17	550.03
512.34	486.83
512.51	514.92
512.69	528.96
512.86	543.00
513.04	442.36
513.21	503.22
513.38	468.11
513.56	465.77
513.73	430.66
513.90	418.96
514.08	383.85
514.25	463.43
514.43	531.30
514.60	454.06
514.77	503.22
514.95	514.92
515.12	390.87
515.29	475.13
515.47	416.62
515.64	463.43
515.81	444.70
515.99	414.27
516.16	498.53
516.33	454.06
516.51	540.66
516.68	358.10
516.85	447.04
517.03	395.55
517.20	404.91
517.37	425.98
517.54	444.70
517.72	430.66
517.89	414.27
518.06	430.66
518.24	404.91
518.41	428.32
518.58	489.17
518.75	428.32
518.93	489.17
519.10	533.64
519.27	435.34
519.45	533.64
519.62	393.21
519.79	440.02
519.96	489.17
520.14	440.02
520.31	564.07
520.48	454.06
520.65	463.43
520.83	433.00
521.00	498.53
521.17	435.34
521.34	374.49
521.52	461.09
521.69	374.49
521.86	421.30
522.03	472.79
522.20	463.43
522.38	411.93
522.55	528.96
522.72	337.04
522.89	383.85
523.07	421.30
523.24	440.02
523.41	458.74
523.58	407.25
523.75	372.15
523.92	428.32
524.10	435.34
524.27	451.72
524.44	477.47
524.61	383.85
524.78	444.70
524.96	393.21
525.13	440.02
525.30	545.34
525.47	383.85
525.64	454.06
525.81	461.09
525.98	486.83
526.16	437.68
526.33	496.19
526.50	421.30
526.67	390.87
526.84	454.06
527.01	554.71
527.18	559.39
527.36	648.33
527.53	582.79
527.70	578.11
527.87	477.47
528.04	559.39
528.21	547.69
528.38	585.13
528.55	526.62
528.72	554.71
528.89	589.82
529.07	533.64
529.24	603.86
529.41	564.07
529.58	531.30
529.75	653.01
529.92	606.20
530.09	585.13
530.26	582.79
530.43	730.25
530.60	702.16
530.77	655.35
530.94	676.41
531.11	709.18
531.28	657.69
531.46	692.80
531.63	828.55
531.80	849.61
531.97	873.02
532.14	978.34
532.31	1174.95
532.48	1397.30
532.65	1610.29
532.82	1834.98
532.99	2193.08
533.16	2583.95
533.33	2712.68
533.50	2544.16
533.67	2246.91
533.84	1825.62
534.01	1596.25
534.18	1497.94
534.35	1451.13
534.52	1472.20
534.69	1617.31
534.86	1537.73
535.03	1682.85
535.20	1659.44
535.37	1788.17
535.54	1816.26
535.71	2036.27
535.88	2083.08
536.05	2228.19
536.22	2377.98
536.38	2724.38
536.55	2977.16
536.72	3199.51
536.89	3562.30
537.06	3707.41
537.23	4498.51
537.40	4826.18
537.57	5423.02
537.74	5607.92
537.91	5764.74
538.08	5874.74
538.25	6003.47
538.42	6033.90
538.59	6162.63
538.75	6370.94
538.92	6754.79
539.09	7431.20
539.26	8182.51
539.43	9181.92
539.60	10253.89
539.77	11672.25
539.94	12915.08
540.11	14492.60
540.28	16224.59
540.44	17642.96
540.61	19697.95
540.78	22143.81
540.95	26614.23
541.12	32032.57
541.29	36961.74
541.46	38979.28
541.62	38866.94
541.79	37268.35
541.96	34740.57
542.13	32222.16
542.30	30099.29
542.47	28184.73
542.63	26677.43
542.80	25230.98
542.97	25465.03
543.14	24634.14
543.31	24875.21
543.48	24910.32
543.64	25366.73
543.81	25832.49
543.98	25713.13
544.15	26155.49
544.32	26300.60
544.48	26377.84
544.65	25738.87
544.82	25846.54
544.99	25673.34
545.16	26181.23
545.32	27524.70
545.49	39030.77
545.66	59627.49
545.83	65535.00
546.00	65535.00
546.16	61705.88
546.33	44547.42
546.50	34752.27
546.67	26796.79
546.83	23906.23
547.00	22487.87
547.17	21731.87
547.34	20795.66
547.50	20219.89
547.67	19393.68
547.84	18394.27
548.00	17584.44
548.17	16994.63
548.34	16262.04
548.51	15833.72
548.67	15007.52
548.84	14260.88
549.01	13628.94
549.18	12898.69
549.34	12425.90
549.51	11941.41
549.68	11555.22
549.84	11070.73
550.01	10565.18
550.18	10115.80
550.34	9507.26
550.51	9025.11
550.68	8383.80
550.84	8311.24
551.01	7819.73
551.18	7253.32
551.34	7162.04
551.51	6745.42
551.68	6516.05
551.84	6267.95
552.01	6125.18
552.18	5914.53
552.34	5537.71
552.51	5329.40
552.68	4933.85
552.84	4762.99
553.01	4629.58
553.18	4601.49
553.34	4308.93
553.51	4337.01
553.67	4025.72
553.84	3992.95
554.01	3747.20
554.17	3447.61
554.34	3258.03
554.51	3129.30
554.67	2995.89
554.84	2740.77
555.00	2654.17
555.17	2466.92
555.33	2286.70
555.50	2267.98
555.67	2136.91
555.83	1963.71
556.00	2076.06
556.16	2033.93
556.33	1921.58
556.50	1750.72
556.66	1703.91
556.83	1645.40
556.99	1528.37
557.16	1636.03
557.32	1549.43
557.49	1413.68
557.65	1387.94
557.82	1420.71
557.98	1357.51
558.15	1404.32
558.32	1430.07
558.48	1289.64
558.65	1219.42
558.81	1226.44
558.98	1118.78
559.14	1174.95
559.31	1128.14
559.47	1142.18
559.64	999.41
559.80	1111.75
559.97	1022.81
560.13	1046.22
560.30	1074.31
560.46	1048.56
560.63	1015.79
560.79	1104.73
560.96	1069.62
561.12	1043.88
561.29	987.71
561.45	968.98
561.61	1100.05
561.78	1071.97
561.94	964.30
562.11	950.26
562.27	1022.81
562.44	1029.84
562.60	873.02
562.77	894.08
562.93	1048.56
563.10	940.90
563.26	933.87
563.42	924.51
563.59	875.36
563.75	917.49
563.92	961.96
564.08	910.47
564.24	894.08
564.41	926.85
564.57	830.89
564.74	800.46
564.90	870.68
565.07	777.06
565.23	788.76
565.39	727.91
565.56	800.46
565.72	786.42
565.88	760.67
566.05	725.57
566.21	819.19
566.38	758.33
566.54	788.76
566.70	842.59
566.87	770.04
567.03	786.42
567.19	718.54
567.36	770.04
567.52	755.99
567.68	812.17
567.85	716.20
568.01	760.67
568.17	823.87
568.34	741.95
568.50	819.19
568.66	753.65
568.83	842.59
568.99	802.80
569.15	770.04
569.32	751.31
569.48	650.67
569.64	748.97
569.81	662.37
569.97	660.03
570.13	655.35
570.30	641.31
570.46	620.24
570.62	493.85
570.78	479.81
570.95	589.82
571.11	641.31
571.27	634.29
571.43	533.64
571.60	519.60
571.76	603.86
571.92	528.96
572.09	603.86
572.25	610.88
572.41	550.03
572.57	566.41
572.74	528.96
572.90	559.39
573.06	643.65
573.22	599.18
573.38	645.99
573.55	678.76
573.71	685.78
573.87	739.61
574.03	725.57
574.20	627.26
574.36	730.25
574.52	744.29
574.68	741.95
574.84	791.10
575.01	777.06
575.17	863.66
575.33	863.66
575.49	990.05
575.65	1046.22
575.82	1109.41
575.98	1179.63
576.14	1357.51
576.30	2305.43
576.46	7148.00
576.62	15527.11
576.79	22427.01
576.95	15323.49
577.11	8847.22
577.27	6017.52
577.43	3957.85
577.59	2581.61
577.75	2069.03
577.92	1797.53
578.08	1795.19
578.24	1820.94
578.40	2752.47
578.56	6890.54
578.72	14368.55
578.88	20732.47
579.04	14338.12
579.21	8830.84
579.37	6181.35
579.53	4814.48
579.69	4301.90
579.85	5432.38
580.01	6642.44
580.17	6817.98
580.33	5706.23
580.49	4751.29
580.65	4135.73
580.82	3782.31
580.98	3817.41
581.14	3641.87
581.30	4004.66
581.46	4264.46
581.62	4552.34
581.78	4908.10
581.94	5514.30
582.10	5776.44
582.26	5961.34
582.42	6141.57
582.58	6230.51
582.74	6471.58
582.90	6555.84
583.06	6368.60
583.22	6434.13
583.38	6532.44
583.54	6406.05
583.70	6483.28
583.86	6235.19
584.02	6202.42
584.18	6310.08
584.34	6153.27
584.50	5984.75
584.66	5804.53
584.82	5734.31
584.98	5970.71
585.14	5799.85
585.30	5741.33
585.46	5509.62
585.62	5380.89
585.78	5416.00
585.94	5465.15
586.10	5544.73
586.26	5916.87
586.42	6672.87
586.58	7644.19
586.74	9404.27
586.90	11435.86
587.06	13057.85
587.22	13057.85
587.38	11782.26
587.54	9961.32
587.70	8446.99
587.86	7070.76
588.02	6157.95
588.18	5394.93
588.34	4901.08
588.49	4344.03
588.65	4208.28
588.81	3857.20
588.97	3777.62
589.13	3669.96
589.29	3534.21
589.45	3456.97
589.61	3405.48
589.77	3606.77
589.93	3496.76
590.08	3730.81
590.24	3817.41
590.40	3871.25
590.56	3967.21
590.72	4121.68
590.88	4135.73
591.04	4273.82
591.20	4479.79
591.35	4519.57
591.51	4959.60
591.67	5195.99
591.83	5673.46
591.99	5839.64
592.15	6387.32
592.31	7061.40
592.46	7655.89
592.62	8152.09
592.78	8713.81
592.94	9060.21
593.10	9013.40
593.26	8833.18
593.41	8234.00
593.57	7353.96
593.73	6441.15
593.89	5734.31
594.05	5041.51
594.20	4437.66
594.36	4156.79
594.52	3824.44
594.68	3604.42
594.84	3475.70
594.99	3232.28
595.15	3180.79
595.31	3288.45
595.47	3166.74
595.62	3227.60
595.78	3281.43
595.94	3201.85
596.10	3199.51
596.25	3251.00
596.41	3192.49
596.57	3222.92
596.73	3213.56
596.88	3157.38
597.04	3141.00
597.20	3133.98
597.36	3290.79
597.51	3332.92
597.67	3531.87
597.83	3709.75
597.99	3974.23
598.14	4086.58
598.30	4381.48
598.46	4461.06
598.61	4767.67
598.77	5102.37
598.93	5160.88
599.09	5401.96
599.24	5628.99
599.40	5619.63
599.56	5160.88
599.71	5008.75
599.87	4954.91
600.03	4641.28
600.18	4414.25
600.34	4030.40
600.50	3728.47
600.65	3609.11
600.81	3351.65
600.97	3047.38
601.12	2818.00
601.28	2803.96
601.44	2677.57
601.59	2530.12
601.75	2560.55
601.91	2326.49
602.06	2258.62
602.22	2244.57
602.37	2211.81
602.53	2174.36
602.69	2193.08
602.84	2064.35
603.00	2015.20
603.16	2083.08
603.31	2190.74
603.47	2246.91
603.62	2211.81
603.78	2326.49
603.94	2260.96
604.09	2382.67
604.25	2361.60
604.40	2469.27
604.56	2480.97
604.71	2572.25
