SpectraSuite Data File
++++++++++++++++++++++++++++++++++++
Date: Fri Oct 04 11:41:59 GMT-05:00 2013
User: price-jones
Dark Spectrum Present: No
Reference Spectrum Present: No
Number of Sampled Component Spectra: 1
Spectrometers: USB2+H05261
Integration Time (usec): 100000 (USB2+H05261)
Spectra Averaged: 1 (USB2+H05261)
Boxcar Smoothing: 0 (USB2+H05261)
Correct for Electrical Dark: No (USB2+H05261)
Strobe/Lamp Enabled: No (USB2+H05261)
Correct for Detector Non-linearity: No (USB2+H05261)
Correct for Stray Light: No (USB2+H05261)
Number of Pixels in Processed Spectrum: 2048
>>>>>Begin Processed Spectral Data<<<<<
365.73	58.51
365.92	58.51
366.12	58.51
366.32	0.00
366.52	0.00
366.72	0.00
366.91	0.00
367.11	0.00
367.31	0.00
367.51	0.00
367.70	0.00
367.90	0.00
368.10	0.00
368.30	0.00
368.49	0.00
368.69	0.00
368.89	0.00
369.09	0.00
369.28	0.00
369.48	11.70
369.68	0.00
369.87	0.00
370.07	0.00
370.27	0.00
370.47	0.00
370.66	32.77
370.86	53.83
371.06	119.37
371.25	205.97
371.45	86.60
371.65	112.35
371.84	39.79
372.04	112.35
372.24	121.71
372.44	74.90
372.63	135.75
372.83	152.13
373.03	191.92
373.22	98.30
373.42	88.94
373.62	110.01
373.81	86.60
374.01	131.07
374.21	138.09
374.40	145.11
374.60	135.75
374.79	142.77
374.99	229.37
375.19	63.19
375.38	70.22
375.58	100.64
375.78	168.52
375.97	100.64
376.17	84.26
376.37	168.52
376.56	95.96
376.76	81.92
376.95	102.98
377.15	177.88
377.35	102.98
377.54	154.48
377.74	88.94
377.93	117.03
378.13	133.41
378.33	147.45
378.52	126.39
378.72	107.66
378.91	175.54
379.11	86.60
379.31	163.84
379.50	124.05
379.70	138.09
379.89	102.98
380.09	126.39
380.28	100.64
380.48	105.32
380.68	107.66
380.87	110.01
381.07	131.07
381.26	114.69
381.46	124.05
381.65	196.60
381.85	74.90
382.04	100.64
382.24	84.26
382.43	114.69
382.63	81.92
382.83	72.56
383.02	156.82
383.22	184.90
383.41	114.69
383.61	131.07
383.80	105.32
384.00	126.39
384.19	65.54
384.39	88.94
384.58	105.32
384.78	88.94
384.97	173.20
385.17	119.37
385.36	147.45
385.56	107.66
385.75	79.58
385.95	37.45
386.14	124.05
386.34	93.62
386.53	91.28
386.72	147.45
386.92	67.88
387.11	163.84
387.31	93.62
387.50	93.62
387.70	168.52
387.89	110.01
388.09	114.69
388.28	98.30
388.48	156.82
388.67	102.98
388.86	189.58
389.06	42.13
389.25	98.30
389.45	154.48
389.64	163.84
389.84	135.75
390.03	128.73
390.22	170.86
390.42	95.96
390.61	126.39
390.81	67.88
391.00	147.45
391.19	128.73
391.39	124.05
391.58	126.39
391.78	79.58
391.97	168.52
392.16	79.58
392.36	124.05
392.55	208.31
392.75	124.05
392.94	112.35
393.13	110.01
393.33	42.13
393.52	142.77
393.71	154.48
393.91	112.35
394.10	58.51
394.29	133.41
394.49	131.07
394.68	168.52
394.88	28.09
395.07	117.03
395.26	159.16
395.46	142.77
395.65	170.86
395.84	147.45
396.04	238.73
396.23	84.26
396.42	107.66
396.62	166.18
396.81	163.84
397.00	131.07
397.19	159.16
397.39	147.45
397.58	121.71
397.77	126.39
397.97	140.43
398.16	131.07
398.35	105.32
398.55	72.56
398.74	149.79
398.93	102.98
399.12	168.52
399.32	196.60
399.51	166.18
399.70	152.13
399.90	65.54
400.09	156.82
400.28	105.32
400.47	128.73
400.67	184.90
400.86	220.01
401.05	177.88
401.24	175.54
401.44	203.63
401.63	173.20
401.82	198.95
402.01	198.95
402.21	196.60
402.40	182.56
402.59	128.73
402.78	210.65
402.97	91.28
403.17	133.41
403.36	222.35
403.55	325.33
403.74	667.05
403.93	1729.66
404.13	4060.83
404.32	5111.73
404.51	4456.38
404.70	2497.35
404.89	933.87
405.09	367.46
405.28	198.95
405.47	210.65
405.66	166.18
405.85	128.73
406.05	133.41
406.24	128.73
406.43	126.39
406.62	222.35
406.81	234.05
407.00	332.36
407.20	578.11
407.39	648.33
407.58	688.12
407.77	447.04
407.96	379.17
408.15	229.37
408.34	180.22
408.54	227.03
408.73	212.99
408.92	196.60
409.11	147.45
409.30	161.50
409.49	154.48
409.68	168.52
409.87	212.99
410.07	133.41
410.26	184.90
410.45	187.24
410.64	154.48
410.83	121.71
411.02	222.35
411.21	170.86
411.40	145.11
411.59	147.45
411.78	187.24
411.98	180.22
412.17	231.71
412.36	152.13
412.55	245.76
412.74	231.71
412.93	205.97
413.12	191.92
413.31	252.78
413.50	180.22
413.69	145.11
413.88	255.12
414.07	203.63
414.26	205.97
414.45	117.03
414.64	220.01
414.83	212.99
415.02	222.35
415.22	198.95
415.41	212.99
415.60	187.24
415.79	215.33
415.98	203.63
416.17	262.14
416.36	245.76
416.55	236.39
416.74	234.05
416.93	168.52
417.12	205.97
417.31	142.77
417.50	198.95
417.69	292.57
417.88	222.35
418.07	189.58
418.26	208.31
418.45	203.63
418.64	241.08
418.83	264.48
419.02	315.97
419.21	252.78
419.39	212.99
419.58	236.39
419.77	170.86
419.96	201.29
420.15	234.05
420.34	227.03
420.53	177.88
420.72	301.93
420.91	238.73
421.10	276.18
421.29	283.20
421.48	170.86
421.67	201.29
421.86	182.56
422.05	198.95
422.24	250.44
422.43	231.71
422.61	280.86
422.80	245.76
422.99	238.73
423.18	187.24
423.37	259.80
423.56	290.23
423.75	220.01
423.94	217.67
424.13	182.56
424.32	215.33
424.50	262.14
424.69	306.61
424.88	304.27
425.07	325.33
425.26	290.23
425.45	159.16
425.64	299.59
425.83	271.50
426.01	269.16
426.20	252.78
426.39	278.52
426.58	248.10
426.77	280.86
426.96	229.37
427.15	376.83
427.33	269.16
427.52	177.88
427.71	236.39
427.90	262.14
428.09	184.90
428.28	201.29
428.46	201.29
428.65	339.38
428.84	217.67
429.03	290.23
429.22	299.59
429.40	334.70
429.59	315.97
429.78	353.42
429.97	304.27
430.16	257.46
430.34	278.52
430.53	283.20
430.72	241.08
430.91	353.42
431.10	320.65
431.28	299.59
431.47	374.49
431.66	287.89
431.85	285.55
432.03	360.44
432.22	435.34
432.41	320.65
432.60	334.70
432.79	308.95
432.97	355.76
433.16	346.40
433.35	451.72
433.54	550.03
433.72	554.71
433.91	528.96
434.10	571.09
434.28	669.39
434.47	828.55
434.66	800.46
434.85	1132.82
435.03	2890.56
435.22	11122.23
435.41	23026.19
435.59	22101.68
435.78	13965.98
435.97	6972.46
436.16	2525.44
436.34	917.49
436.53	634.29
436.72	533.64
436.90	458.74
437.09	524.28
437.28	411.93
437.46	407.25
437.65	409.59
437.84	372.15
438.02	463.43
438.21	372.15
438.40	458.74
438.58	372.15
438.77	421.30
438.96	346.40
439.14	411.93
439.33	348.74
439.52	428.32
439.70	461.09
439.89	383.85
440.08	365.12
440.26	381.51
440.45	477.47
440.63	414.27
440.82	330.02
441.01	325.33
441.19	311.29
441.38	411.93
441.57	320.65
441.75	425.98
441.94	421.30
442.12	411.93
442.31	407.25
442.50	374.49
442.68	402.57
442.87	386.19
443.05	320.65
443.24	358.10
443.43	369.80
443.61	346.40
443.80	458.74
443.98	365.12
444.17	381.51
444.35	423.64
444.54	355.76
444.73	421.30
444.91	414.27
445.10	423.64
445.28	355.76
445.47	332.36
445.65	294.91
445.84	337.04
446.02	339.38
446.21	437.68
446.39	376.83
446.58	341.72
446.77	390.87
446.95	315.97
447.14	395.55
447.32	414.27
447.51	470.45
447.69	402.57
447.88	416.62
448.06	341.72
448.25	318.31
448.43	367.46
448.62	320.65
448.80	374.49
448.99	400.23
449.17	322.99
449.36	383.85
449.54	313.63
449.73	421.30
449.91	358.10
450.10	358.10
450.28	400.23
450.46	440.02
450.65	341.72
450.83	325.33
451.02	348.74
451.20	386.19
451.39	374.49
451.57	353.42
451.76	330.02
451.94	404.91
452.13	435.34
452.31	447.04
452.49	325.33
452.68	334.70
452.86	332.36
453.05	465.77
453.23	341.72
453.42	337.04
453.60	330.02
453.78	351.08
453.97	388.53
454.15	327.68
454.34	360.44
454.52	315.97
454.70	358.10
454.89	358.10
455.07	348.74
455.26	365.12
455.44	390.87
455.62	311.29
455.81	367.46
455.99	332.36
456.17	315.97
456.36	322.99
456.54	369.80
456.73	367.46
456.91	369.80
457.09	367.46
457.28	386.19
457.46	425.98
457.64	355.76
457.83	325.33
458.01	308.95
458.19	306.61
458.38	362.78
458.56	477.47
458.74	330.02
458.93	334.70
459.11	390.87
459.29	330.02
459.48	390.87
459.66	353.42
459.84	404.91
460.03	451.72
460.21	332.36
460.39	348.74
460.57	358.10
460.76	390.87
460.94	351.08
461.12	414.27
461.31	313.63
461.49	313.63
461.67	320.65
461.85	418.96
462.04	362.78
462.22	704.50
462.40	379.17
462.59	409.59
462.77	437.68
462.95	390.87
463.13	383.85
463.32	416.62
463.50	322.99
463.68	402.57
463.86	365.12
464.05	369.80
464.23	404.91
464.41	461.09
464.59	379.17
464.78	400.23
464.96	374.49
465.14	379.17
465.32	285.55
465.50	386.19
465.69	393.21
465.87	339.38
466.05	313.63
466.23	322.99
466.41	402.57
466.60	407.25
466.78	360.44
466.96	421.30
467.14	400.23
467.32	332.36
467.51	353.42
467.69	393.21
467.87	355.76
468.05	334.70
468.23	346.40
468.41	332.36
468.60	327.68
468.78	376.83
468.96	346.40
469.14	325.33
469.32	301.93
469.50	358.10
469.69	393.21
469.87	297.25
470.05	332.36
470.23	334.70
470.41	318.31
470.59	341.72
470.77	315.97
470.95	304.27
471.14	416.62
471.32	444.70
471.50	407.25
471.68	348.74
471.86	341.72
472.04	337.04
472.22	369.80
472.40	325.33
472.58	346.40
472.77	290.23
472.95	388.53
473.13	320.65
473.31	348.74
473.49	344.06
473.67	322.99
473.85	301.93
474.03	341.72
474.21	332.36
474.39	327.68
474.57	358.10
474.75	301.93
474.93	327.68
475.12	386.19
475.30	386.19
475.48	353.42
475.66	320.65
475.84	390.87
476.02	339.38
476.20	351.08
476.38	388.53
476.56	442.36
476.74	346.40
476.92	341.72
477.10	402.57
477.28	379.17
477.46	304.27
477.64	404.91
477.82	318.31
478.00	407.25
478.18	393.21
478.36	355.76
478.54	418.96
478.72	425.98
478.90	456.40
479.08	393.21
479.26	456.40
479.44	444.70
479.62	440.02
479.80	456.40
479.98	374.49
480.16	458.74
480.34	571.09
480.52	524.28
480.70	617.90
480.88	582.79
481.06	671.73
481.24	631.94
481.41	643.65
481.59	667.05
481.77	685.78
481.95	660.03
482.13	823.87
482.31	842.59
482.49	835.57
482.67	889.40
482.85	849.61
483.03	994.73
483.21	1013.45
483.39	1139.84
483.57	1132.82
483.74	1366.87
483.92	1277.93
484.10	1345.81
484.28	1469.86
484.46	1598.59
484.64	1631.35
484.82	1671.14
485.00	1682.85
485.18	1813.92
485.35	1935.62
485.53	2029.24
485.71	2108.82
485.89	2223.51
486.07	2279.68
486.25	2377.98
486.43	2331.17
486.61	2289.04
486.78	2265.64
486.96	2242.23
487.14	2321.81
487.32	2328.83
487.50	2270.32
487.68	2359.26
487.85	2108.82
488.03	2169.68
488.21	2265.64
488.39	2136.91
488.57	2076.06
488.75	2083.08
488.92	2289.04
489.10	1977.75
489.28	2019.88
489.46	1898.17
489.64	1806.89
489.81	1750.72
489.99	1762.42
490.17	1717.95
490.35	1743.70
490.53	1724.97
490.70	1720.29
490.88	1792.85
491.06	1818.60
491.24	1937.96
491.41	1952.01
491.59	1851.36
491.77	1657.10
491.95	1717.95
492.13	1680.50
492.30	1659.44
492.48	1664.12
492.66	1540.07
492.84	1509.65
493.01	1500.28
493.19	1530.71
493.37	1483.90
493.54	1584.54
493.72	1455.81
493.90	1591.56
494.08	1483.90
494.25	1409.00
494.43	1373.89
494.61	1373.89
494.79	1359.85
494.96	1329.42
495.14	1238.14
495.32	1317.72
495.49	1235.80
495.67	1301.34
495.85	1277.93
496.02	1160.91
496.20	1233.46
496.38	1118.78
496.55	1109.41
496.73	1102.39
496.91	1177.29
497.09	985.37
497.26	1128.14
497.44	1116.44
497.62	1043.88
497.79	1062.60
497.97	971.32
498.14	1032.18
498.32	908.13
498.50	966.64
498.67	931.53
498.85	915.15
499.03	901.11
499.20	936.21
499.38	809.83
499.56	842.59
499.73	954.94
499.91	908.13
500.08	807.48
500.26	779.40
500.44	763.01
500.61	774.72
500.79	648.33
500.97	732.59
501.14	725.57
501.32	713.86
501.49	655.35
501.67	608.54
501.84	645.99
502.02	636.63
502.20	566.41
502.37	627.26
502.55	603.86
502.72	521.94
502.90	554.71
503.07	547.69
503.25	540.66
503.43	425.98
503.60	514.92
503.78	517.26
503.95	437.68
504.13	528.96
504.30	503.22
504.48	444.70
504.65	500.87
504.83	461.09
505.01	442.36
505.18	489.17
505.36	451.72
505.53	440.02
505.71	489.17
505.88	388.53
506.06	425.98
506.23	440.02
506.41	470.45
506.58	372.15
506.76	341.72
506.93	465.77
507.11	465.77
507.28	400.23
507.46	416.62
507.63	444.70
507.81	430.66
507.98	386.19
508.16	411.93
508.33	407.25
508.50	353.42
508.68	468.11
508.85	416.62
509.03	493.85
509.20	468.11
509.38	437.68
509.55	411.93
509.73	435.34
509.90	425.98
510.08	376.83
510.25	407.25
510.42	418.96
510.60	400.23
510.77	463.43
510.95	416.62
511.12	374.49
511.30	397.89
511.47	339.38
511.64	437.68
511.82	388.53
511.99	348.74
512.17	332.36
512.34	454.06
512.51	369.80
512.69	390.87
512.86	416.62
513.04	374.49
513.21	365.12
513.38	369.80
513.56	346.40
513.73	390.87
513.90	292.57
514.08	365.12
514.25	428.32
514.43	334.70
514.60	285.55
514.77	311.29
514.95	369.80
515.12	346.40
515.29	315.97
515.47	369.80
515.64	358.10
515.81	294.91
515.99	386.19
516.16	411.93
516.33	458.74
516.51	297.25
516.68	318.31
516.85	332.36
517.03	278.52
517.20	315.97
517.37	311.29
517.54	360.44
517.72	365.12
517.89	222.35
518.06	365.12
518.24	369.80
518.41	308.95
518.58	344.06
518.75	376.83
518.93	369.80
519.10	285.55
519.27	301.93
519.45	311.29
519.62	304.27
519.79	386.19
519.96	306.61
520.14	299.59
520.31	330.02
520.48	344.06
520.65	332.36
520.83	285.55
521.00	365.12
521.17	250.44
521.34	322.99
521.52	355.76
521.69	344.06
521.86	287.89
522.03	351.08
522.20	339.38
522.38	367.46
522.55	320.65
522.72	292.57
522.89	369.80
523.07	374.49
523.24	353.42
523.41	287.89
523.58	337.04
523.75	351.08
523.92	241.08
524.10	304.27
524.27	346.40
524.44	365.12
524.61	325.33
524.78	351.08
524.96	402.57
525.13	337.04
525.30	360.44
525.47	376.83
525.64	348.74
525.81	294.91
525.98	332.36
526.16	341.72
526.33	320.65
526.50	386.19
526.67	346.40
526.84	344.06
527.01	365.12
527.18	393.21
527.36	428.32
527.53	400.23
527.70	503.22
527.87	449.38
528.04	435.34
528.21	367.46
528.38	367.46
528.55	489.17
528.72	330.02
528.89	437.68
529.07	379.17
529.24	409.59
529.41	472.79
529.58	423.64
529.75	383.85
529.92	416.62
530.09	440.02
530.26	484.49
530.43	456.40
530.60	428.32
530.77	376.83
530.94	458.74
531.11	507.90
531.28	514.92
531.46	461.09
531.63	557.05
531.80	568.75
531.97	645.99
532.14	674.07
532.31	767.70
532.48	798.12
532.65	961.96
532.82	1039.20
532.99	1266.23
533.16	1430.07
533.33	1418.36
533.50	1284.95
533.67	1221.76
533.84	968.98
534.01	1034.52
534.18	866.00
534.35	887.06
534.52	868.34
534.69	933.87
534.86	966.64
535.03	915.15
535.20	1093.03
535.37	1118.78
535.54	1104.73
535.71	1184.31
535.88	1207.72
536.05	1404.32
536.22	1387.94
536.38	1514.33
536.55	1643.06
536.72	1769.44
536.89	1813.92
537.06	2310.11
537.23	2373.30
537.40	2590.97
537.57	2785.24
537.74	2967.80
537.91	3166.74
538.08	3159.72
538.25	3112.91
538.42	3157.38
538.59	3363.35
538.75	3370.37
538.92	3541.23
539.09	4023.38
539.26	4229.35
539.43	4781.71
539.60	5521.32
539.77	6071.35
539.94	6743.08
540.11	7588.02
540.28	8336.99
540.44	9097.66
540.61	9708.54
540.78	11566.93
540.95	13923.85
541.12	16624.83
541.29	18448.10
541.46	19288.35
541.62	18984.09
541.79	18335.76
541.96	16781.64
542.13	15646.48
542.30	14586.22
542.47	13790.44
542.63	12877.63
542.80	12505.48
542.97	12617.83
543.14	12580.38
543.31	12683.36
543.48	12538.25
543.64	12807.41
543.81	12919.76
543.98	12812.09
544.15	12875.29
544.32	13149.13
544.48	13102.32
544.65	12564.00
544.82	12734.85
544.99	12781.67
545.16	13078.91
545.32	14122.79
545.49	24748.82
545.66	45390.01
545.83	51454.34
546.00	42920.74
546.16	28907.96
546.33	21453.35
546.50	16411.84
546.67	12901.03
546.83	11587.99
547.00	11049.67
547.17	10729.02
547.34	10160.27
547.50	9713.22
547.67	9308.31
547.84	8985.32
548.00	8791.05
548.17	8376.78
548.34	8070.17
548.51	7878.24
548.67	7293.11
548.84	6963.09
549.01	6644.78
549.18	6345.19
549.34	6064.33
549.51	6094.76
549.68	5806.87
549.84	5584.52
550.01	5334.08
550.18	5032.15
550.34	4915.12
550.51	4535.96
550.68	4266.80
550.84	4152.11
551.01	4077.21
551.18	3796.35
551.34	3524.85
551.51	3435.91
551.68	3283.77
551.84	3389.10
552.01	3061.42
552.18	3056.74
552.34	2743.11
552.51	2672.89
552.68	2605.02
552.84	2497.35
553.01	2457.56
553.18	2438.84
553.34	2237.55
553.51	2230.53
553.67	2001.16
553.84	2214.15
554.01	2010.52
554.17	1811.57
554.34	1706.25
554.51	1661.78
554.67	1563.48
554.84	1460.49
555.00	1390.28
555.17	1299.00
555.33	1296.66
555.50	1254.53
555.67	1123.46
555.83	1050.90
556.00	1006.43
556.16	1247.51
556.33	1025.15
556.50	1050.90
556.66	1025.15
556.83	936.21
556.99	903.45
557.16	915.15
557.32	851.96
557.49	905.79
557.65	840.25
557.82	849.61
557.98	800.46
558.15	781.74
558.32	709.18
558.48	730.25
558.65	760.67
558.81	795.78
558.98	697.48
559.14	725.57
559.31	674.07
559.47	779.40
559.64	657.69
559.80	716.20
559.97	685.78
560.13	531.30
560.30	664.71
560.46	681.10
560.63	573.43
560.79	624.92
560.96	624.92
561.12	538.32
561.29	716.20
561.45	629.60
561.61	624.92
561.78	725.57
561.94	697.48
562.11	620.24
562.27	615.56
562.44	655.35
562.60	723.23
562.77	648.33
562.93	702.16
563.10	561.73
563.26	575.77
563.42	638.97
563.59	517.26
563.75	510.24
563.92	641.31
564.08	582.79
564.24	535.98
564.41	718.54
564.57	545.34
564.74	573.43
564.90	533.64
565.07	491.51
565.23	489.17
565.39	486.83
565.56	571.09
565.72	421.30
565.88	493.85
566.05	423.64
566.21	447.04
566.38	507.90
566.54	620.24
566.70	589.82
566.87	428.32
567.03	486.83
567.19	500.87
567.36	587.47
567.52	484.49
567.68	463.43
567.85	636.63
568.01	533.64
568.17	430.66
568.34	589.82
568.50	510.24
568.66	552.37
568.83	585.13
568.99	496.19
569.15	493.85
569.32	440.02
569.48	418.96
569.64	456.40
569.81	482.15
569.97	493.85
570.13	407.25
570.30	503.22
570.46	477.47
570.62	376.83
570.78	358.10
570.95	381.51
571.11	411.93
571.27	463.43
571.43	528.96
571.60	397.89
571.76	430.66
571.92	400.23
572.09	444.70
572.25	449.38
572.41	409.59
572.57	397.89
572.74	465.77
572.90	435.34
573.06	437.68
573.22	437.68
573.38	489.17
573.55	458.74
573.71	458.74
573.87	517.26
574.03	409.59
574.20	493.85
574.36	468.11
574.52	428.32
574.68	491.51
574.84	575.77
575.01	547.69
575.17	514.92
575.33	585.13
575.49	648.33
575.65	660.03
575.82	657.69
575.98	718.54
576.14	896.43
576.30	1629.01
576.46	5369.19
576.62	8491.46
576.79	8980.64
576.95	6354.55
577.11	4404.89
577.27	3178.45
577.43	2064.35
577.59	1406.66
577.75	1123.46
577.92	1029.84
578.08	1004.09
578.24	1013.45
578.40	1912.22
578.56	5118.75
578.72	7847.82
578.88	8393.16
579.04	6232.85
579.21	4287.86
579.37	3080.14
579.53	2513.74
579.69	2532.46
579.85	3225.26
580.01	3421.86
580.17	3274.41
580.33	2836.73
580.49	2448.20
580.65	2141.59
580.82	2038.61
580.98	1849.02
581.14	2083.08
581.30	2148.61
581.46	2289.04
581.62	2459.90
581.78	2551.18
581.94	2815.66
582.10	2916.31
582.26	3068.44
582.42	3103.55
582.58	3260.37
582.74	3248.66
582.90	3297.81
583.06	3419.52
583.22	3276.75
583.38	3389.10
583.54	3208.87
583.70	3328.24
583.86	3286.11
584.02	3077.80
584.18	3122.27
584.34	3133.98
584.50	3108.23
584.66	3016.95
584.82	2888.22
584.98	2977.16
585.14	2827.37
585.30	2916.31
585.46	2906.95
585.62	2841.41
585.78	2764.17
585.94	2733.75
586.10	2794.60
586.26	3045.04
586.42	3506.12
586.58	4065.51
586.74	5149.18
586.90	6003.47
587.06	6509.03
587.22	6265.61
587.38	5671.12
587.54	5144.50
587.70	4161.47
587.86	3414.84
588.02	3068.44
588.18	2675.23
588.34	2548.84
588.49	2235.21
588.65	2090.10
588.81	2026.90
588.97	1916.90
589.13	1998.82
589.29	1952.01
589.45	1973.07
589.61	1921.58
589.77	1959.03
589.93	1970.73
590.08	1977.75
590.24	2005.84
590.40	2150.95
590.56	2136.91
590.72	2202.44
590.88	2298.41
591.04	2382.67
591.20	2403.73
591.35	2504.37
591.51	2511.39
591.67	2621.40
591.83	2916.31
591.99	3021.63
592.15	3332.92
592.31	3686.34
592.46	3925.08
592.62	4308.93
592.78	4353.40
592.94	4702.14
593.10	4606.17
593.26	4236.37
593.41	3946.14
593.57	3482.72
593.73	3293.13
593.89	2871.84
594.05	2574.59
594.20	2272.66
594.36	2209.47
594.52	1982.43
594.68	1818.60
594.84	1799.87
594.99	1750.72
595.15	1778.81
595.31	1703.91
595.47	1626.67
595.62	1743.70
595.78	1717.95
595.94	1710.93
596.10	1748.38
596.25	1722.63
596.41	1703.91
596.57	1661.78
596.73	1680.50
596.88	1771.79
597.04	1743.70
597.20	1844.34
597.36	1689.87
597.51	1778.81
597.67	1783.49
597.83	1954.35
597.99	2094.78
598.14	2270.32
598.30	2246.91
598.46	2363.94
598.61	2565.23
598.77	2600.34
598.93	2733.75
599.09	2775.88
599.24	2839.07
599.40	2757.15
599.56	2661.19
599.71	2569.91
599.87	2417.77
600.03	2396.71
600.18	2195.42
600.34	2087.76
600.50	1816.26
600.65	1811.57
600.81	1757.74
600.97	1626.67
601.12	1572.84
601.28	1385.60
601.44	1437.09
601.59	1327.08
601.75	1306.02
601.91	1207.72
602.06	1303.68
602.22	1289.64
602.37	1153.88
602.53	1188.99
602.69	1146.86
602.84	1135.16
603.00	1158.57
603.16	1238.14
603.31	1203.04
603.47	1226.44
603.62	1172.61
603.78	1156.22
603.94	1294.32
604.09	1277.93
604.25	1348.15
604.40	1404.32
604.56	1364.53
604.71	1345.81
604.87	1261.55
605.03	1472.20
605.18	1392.62
605.34	1516.67
605.49	1458.15
605.65	1547.09
605.80	1537.73
605.96	1654.76
