SpectraSuite Data File
++++++++++++++++++++++++++++++++++++
Date: Fri Oct 04 11:42:31 GMT-05:00 2013
User: price-jones
Dark Spectrum Present: No
Reference Spectrum Present: No
Number of Sampled Component Spectra: 1
Spectrometers: USB2+H05261
Integration Time (usec): 100000 (USB2+H05261)
Spectra Averaged: 1 (USB2+H05261)
Boxcar Smoothing: 0 (USB2+H05261)
Correct for Electrical Dark: No (USB2+H05261)
Strobe/Lamp Enabled: No (USB2+H05261)
Correct for Detector Non-linearity: No (USB2+H05261)
Correct for Stray Light: No (USB2+H05261)
Number of Pixels in Processed Spectrum: 2048
>>>>>Begin Processed Spectral Data<<<<<
365.73	42.13
365.92	42.13
366.12	42.13
366.32	14.04
366.52	0.00
366.72	0.00
366.91	0.00
367.11	0.00
367.31	0.00
367.51	0.00
367.70	0.00
367.90	21.06
368.10	0.00
368.30	0.00
368.49	0.00
368.69	14.04
368.89	0.00
369.09	0.00
369.28	0.00
369.48	0.00
369.68	0.00
369.87	35.11
370.07	0.00
370.27	65.54
370.47	42.13
370.66	0.00
370.86	56.17
371.06	49.15
371.25	105.32
371.45	100.64
371.65	93.62
371.84	28.09
372.04	58.51
372.24	72.56
372.44	44.47
372.63	74.90
372.83	35.11
373.03	142.77
373.22	42.13
373.42	95.96
373.62	107.66
373.81	138.09
374.01	100.64
374.21	124.05
374.40	102.98
374.60	189.58
374.79	107.66
374.99	140.43
375.19	112.35
375.38	142.77
375.58	121.71
375.78	124.05
375.97	152.13
376.17	163.84
376.37	182.56
376.56	152.13
376.76	77.24
376.95	28.09
377.15	112.35
377.35	74.90
377.54	142.77
377.74	121.71
377.93	161.50
378.13	77.24
378.33	102.98
378.52	56.17
378.72	159.16
378.91	107.66
379.11	86.60
379.31	147.45
379.50	124.05
379.70	140.43
379.89	65.54
380.09	131.07
380.28	39.79
380.48	117.03
380.68	95.96
380.87	65.54
381.07	126.39
381.26	140.43
381.46	142.77
381.65	100.64
381.85	79.58
382.04	100.64
382.24	95.96
382.43	112.35
382.63	77.24
382.83	110.01
383.02	98.30
383.22	156.82
383.41	112.35
383.61	72.56
383.80	28.09
384.00	131.07
384.19	86.60
384.39	156.82
384.58	67.88
384.78	86.60
384.97	140.43
385.17	124.05
385.36	63.19
385.56	138.09
385.75	91.28
385.95	124.05
386.14	154.48
386.34	135.75
386.53	49.15
386.72	70.22
386.92	168.52
387.11	102.98
387.31	77.24
387.50	133.41
387.70	74.90
387.89	53.83
388.09	77.24
388.28	93.62
388.48	28.09
388.67	175.54
388.86	147.45
389.06	67.88
389.25	119.37
389.45	107.66
389.64	112.35
389.84	124.05
390.03	159.16
390.22	173.20
390.42	84.26
390.61	81.92
390.81	65.54
391.00	21.06
391.19	70.22
391.39	74.90
391.58	117.03
391.78	117.03
391.97	149.79
392.16	95.96
392.36	133.41
392.55	114.69
392.75	65.54
392.94	98.30
393.13	170.86
393.33	32.77
393.52	107.66
393.71	131.07
393.91	152.13
394.10	98.30
394.29	102.98
394.49	74.90
394.68	121.71
394.88	161.50
395.07	210.65
395.26	140.43
395.46	98.30
395.65	145.11
395.84	131.07
396.04	112.35
396.23	56.17
396.42	107.66
396.62	145.11
396.81	81.92
397.00	119.37
397.19	121.71
397.39	117.03
397.58	107.66
397.77	133.41
397.97	133.41
398.16	107.66
398.35	189.58
398.55	28.09
398.74	91.28
398.93	177.88
399.12	124.05
399.32	147.45
399.51	142.77
399.70	135.75
399.90	91.28
400.09	161.50
400.28	147.45
400.47	77.24
400.67	114.69
400.86	187.24
401.05	121.71
401.24	147.45
401.44	110.01
401.63	173.20
401.82	102.98
402.01	67.88
402.21	119.37
402.40	117.03
402.59	117.03
402.78	65.54
402.97	196.60
403.17	117.03
403.36	180.22
403.55	77.24
403.74	44.47
403.93	145.11
404.13	227.03
404.32	311.29
404.51	212.99
404.70	229.37
404.89	177.88
405.09	102.98
405.28	135.75
405.47	51.49
405.66	84.26
405.85	133.41
406.05	156.82
406.24	124.05
406.43	32.77
406.62	140.43
406.81	187.24
407.00	180.22
407.20	135.75
407.39	163.84
407.58	112.35
407.77	86.60
407.96	184.90
408.15	166.18
408.34	86.60
408.54	140.43
408.73	145.11
408.92	149.79
409.11	114.69
409.30	135.75
409.49	105.32
409.68	161.50
409.87	105.32
410.07	140.43
410.26	95.96
410.45	166.18
410.64	91.28
410.83	98.30
411.02	117.03
411.21	121.71
411.40	135.75
411.59	191.92
411.78	208.31
411.98	107.66
412.17	138.09
412.36	93.62
412.55	175.54
412.74	114.69
412.93	170.86
413.12	107.66
413.31	170.86
413.50	142.77
413.69	168.52
413.88	227.03
414.07	166.18
414.26	161.50
414.45	110.01
414.64	175.54
414.83	107.66
415.02	140.43
415.22	138.09
415.41	166.18
415.60	93.62
415.79	222.35
415.98	173.20
416.17	166.18
416.36	203.63
416.55	100.64
416.74	168.52
416.93	110.01
417.12	86.60
417.31	110.01
417.50	117.03
417.69	177.88
417.88	112.35
418.07	177.88
418.26	126.39
418.45	110.01
418.64	205.97
418.83	163.84
419.02	142.77
419.21	91.28
419.39	145.11
419.58	67.88
419.77	95.96
419.96	196.60
420.15	184.90
420.34	161.50
420.53	147.45
420.72	156.82
420.91	147.45
421.10	91.28
421.29	67.88
421.48	142.77
421.67	154.48
421.86	147.45
422.05	131.07
422.24	138.09
422.43	166.18
422.61	117.03
422.80	147.45
422.99	121.71
423.18	163.84
423.37	191.92
423.56	117.03
423.75	149.79
423.94	110.01
424.13	142.77
424.32	175.54
424.50	128.73
424.69	145.11
424.88	156.82
425.07	149.79
425.26	37.45
425.45	187.24
425.64	161.50
425.83	145.11
426.01	196.60
426.20	175.54
426.39	98.30
426.58	133.41
426.77	180.22
426.96	142.77
427.15	182.56
427.33	159.16
427.52	142.77
427.71	170.86
427.90	140.43
428.09	177.88
428.28	110.01
428.46	142.77
428.65	100.64
428.84	177.88
429.03	175.54
429.22	114.69
429.40	152.13
429.59	161.50
429.78	187.24
429.97	107.66
430.16	138.09
430.34	119.37
430.53	91.28
430.72	121.71
430.91	161.50
431.10	84.26
431.28	128.73
431.47	196.60
431.66	161.50
431.85	133.41
432.03	168.52
432.22	248.10
432.41	170.86
432.60	238.73
432.79	201.29
432.97	154.48
433.16	168.52
433.35	159.16
433.54	248.10
433.72	187.24
433.91	196.60
434.10	231.71
434.28	107.66
434.47	227.03
434.66	175.54
434.85	168.52
435.03	229.37
435.22	624.92
435.41	1008.77
435.59	1153.88
435.78	765.36
435.97	433.00
436.16	248.10
436.34	215.33
436.53	222.35
436.72	198.95
436.90	168.52
437.09	159.16
437.28	184.90
437.46	140.43
437.65	152.13
437.84	138.09
438.02	138.09
438.21	102.98
438.40	173.20
438.58	135.75
438.77	128.73
438.96	180.22
439.14	93.62
439.33	175.54
439.52	196.60
439.70	138.09
439.89	250.44
440.08	161.50
440.26	133.41
440.45	252.78
440.63	184.90
440.82	117.03
441.01	128.73
441.19	145.11
441.38	145.11
441.57	166.18
441.75	194.26
441.94	107.66
442.12	227.03
442.31	201.29
442.50	149.79
442.68	201.29
442.87	161.50
443.05	191.92
443.24	142.77
443.43	156.82
443.61	177.88
443.80	243.42
443.98	131.07
444.17	119.37
444.35	152.13
444.54	220.01
444.73	187.24
444.91	102.98
445.10	156.82
445.28	124.05
445.47	128.73
445.65	152.13
445.84	154.48
446.02	175.54
446.21	102.98
446.39	161.50
446.58	170.86
446.77	187.24
446.95	154.48
447.14	163.84
447.32	191.92
447.51	194.26
447.69	142.77
447.88	182.56
448.06	231.71
448.25	177.88
448.43	105.32
448.62	140.43
448.80	145.11
448.99	201.29
449.17	105.32
449.36	208.31
449.54	119.37
449.73	220.01
449.91	262.14
450.10	105.32
450.28	222.35
450.46	222.35
450.65	145.11
450.83	215.33
451.02	156.82
451.20	182.56
451.39	166.18
451.57	224.69
451.76	67.88
451.94	231.71
452.13	184.90
452.31	100.64
452.49	173.20
452.68	86.60
452.86	187.24
453.05	290.23
453.23	135.75
453.42	182.56
453.60	110.01
453.78	107.66
453.97	198.95
454.15	128.73
454.34	128.73
454.52	140.43
454.70	229.37
454.89	269.16
455.07	191.92
455.26	187.24
455.44	184.90
455.62	161.50
455.81	180.22
455.99	220.01
456.17	163.84
456.36	187.24
456.54	208.31
456.73	184.90
456.91	145.11
457.09	112.35
457.28	215.33
457.46	126.39
457.64	205.97
457.83	163.84
458.01	231.71
458.19	236.39
458.38	215.33
458.56	198.95
458.74	203.63
458.93	159.16
459.11	208.31
459.29	187.24
459.48	173.20
459.66	243.42
459.84	173.20
460.03	276.18
460.21	191.92
460.39	135.75
460.57	203.63
460.76	170.86
460.94	215.33
461.12	159.16
461.31	145.11
461.49	187.24
461.67	133.41
461.85	156.82
462.04	161.50
462.22	332.36
462.40	180.22
462.59	187.24
462.77	184.90
462.95	168.52
463.13	215.33
463.32	173.20
463.50	142.77
463.68	196.60
463.86	241.08
464.05	238.73
464.23	191.92
464.41	227.03
464.59	173.20
464.78	173.20
464.96	170.86
465.14	220.01
465.32	215.33
465.50	159.16
465.69	205.97
465.87	180.22
466.05	117.03
466.23	133.41
466.41	166.18
466.60	168.52
466.78	121.71
466.96	203.63
467.14	173.20
467.32	212.99
467.51	227.03
467.69	191.92
467.87	135.75
468.05	131.07
468.23	299.59
468.41	222.35
468.60	182.56
468.78	198.95
468.96	154.48
469.14	159.16
469.32	208.31
469.50	128.73
469.69	175.54
469.87	154.48
470.05	121.71
470.23	159.16
470.41	114.69
470.59	175.54
470.77	173.20
470.95	159.16
471.14	229.37
471.32	180.22
471.50	187.24
471.68	189.58
471.86	100.64
472.04	147.45
472.22	140.43
472.40	161.50
472.58	194.26
472.77	114.69
472.95	177.88
473.13	271.50
473.31	215.33
473.49	196.60
473.67	175.54
473.85	189.58
474.03	170.86
474.21	184.90
474.39	255.12
474.57	238.73
474.75	208.31
474.93	203.63
475.12	117.03
475.30	231.71
475.48	152.13
475.66	128.73
475.84	198.95
476.02	205.97
476.20	203.63
476.38	114.69
476.56	217.67
476.74	189.58
476.92	189.58
477.10	161.50
477.28	236.39
477.46	102.98
477.64	217.67
477.82	182.56
478.00	215.33
478.18	241.08
478.36	159.16
478.54	128.73
478.72	105.32
478.90	173.20
479.08	229.37
479.26	210.65
479.44	145.11
479.62	135.75
479.80	159.16
479.98	177.88
480.16	145.11
480.34	259.80
480.52	187.24
480.70	243.42
480.88	184.90
481.06	191.92
481.24	248.10
481.41	126.39
481.59	212.99
481.77	177.88
481.95	145.11
482.13	292.57
482.31	187.24
482.49	198.95
482.67	220.01
482.85	262.14
483.03	262.14
483.21	290.23
483.39	283.20
483.57	215.33
483.74	273.84
483.92	182.56
484.10	234.05
484.28	290.23
484.46	334.70
484.64	238.73
484.82	234.05
485.00	280.86
485.18	327.68
485.35	283.20
485.53	297.25
485.71	348.74
485.89	290.23
486.07	245.76
486.25	402.57
486.43	290.23
486.61	315.97
486.78	332.36
486.96	243.42
487.14	294.91
487.32	229.37
487.50	304.27
487.68	325.33
487.85	266.82
488.03	290.23
488.21	334.70
488.39	334.70
488.57	229.37
488.75	210.65
488.92	540.66
489.10	362.78
489.28	351.08
489.46	250.44
489.64	369.80
489.81	301.93
489.99	276.18
490.17	292.57
490.35	395.55
490.53	318.31
490.70	308.95
490.88	318.31
491.06	330.02
491.24	353.42
491.41	322.99
491.59	262.14
491.77	283.20
491.95	297.25
492.13	311.29
492.30	266.82
492.48	269.16
492.66	285.55
492.84	262.14
493.01	332.36
493.19	252.78
493.37	266.82
493.54	308.95
493.72	255.12
493.90	322.99
494.08	278.52
494.25	259.80
494.43	313.63
494.61	320.65
494.79	301.93
494.96	351.08
495.14	292.57
495.32	273.84
495.49	273.84
495.67	278.52
495.85	220.01
496.02	220.01
496.20	238.73
496.38	290.23
496.55	292.57
496.73	255.12
496.91	245.76
497.09	287.89
497.26	224.69
497.44	238.73
497.62	301.93
497.79	290.23
497.97	264.48
498.14	201.29
498.32	311.29
498.50	308.95
498.67	245.76
498.85	243.42
499.03	271.50
499.20	325.33
499.38	292.57
499.56	269.16
499.73	278.52
499.91	273.84
500.08	341.72
500.26	189.58
500.44	227.03
500.61	264.48
500.79	255.12
500.97	175.54
501.14	262.14
501.32	252.78
501.49	236.39
501.67	273.84
501.84	234.05
502.02	252.78
502.20	276.18
502.37	184.90
502.55	175.54
502.72	255.12
502.90	229.37
503.07	203.63
503.25	294.91
503.43	154.48
503.60	236.39
503.78	212.99
503.95	262.14
504.13	259.80
504.30	241.08
504.48	231.71
504.65	245.76
504.83	163.84
505.01	285.55
505.18	227.03
505.36	238.73
505.53	255.12
505.71	241.08
505.88	294.91
506.06	229.37
506.23	243.42
506.41	184.90
506.58	241.08
506.76	184.90
506.93	311.29
507.11	241.08
507.28	201.29
507.46	220.01
507.63	198.95
507.81	220.01
507.98	276.18
508.16	187.24
508.33	205.97
508.50	262.14
508.68	208.31
508.85	285.55
509.03	243.42
509.20	257.46
509.38	301.93
509.55	271.50
509.73	191.92
509.90	222.35
510.08	222.35
510.25	212.99
510.42	227.03
510.60	257.46
510.77	262.14
510.95	238.73
511.12	245.76
511.30	231.71
511.47	227.03
511.64	238.73
511.82	273.84
511.99	191.92
512.17	255.12
512.34	205.97
512.51	203.63
512.69	231.71
512.86	264.48
513.04	198.95
513.21	308.95
513.38	278.52
513.56	257.46
513.73	330.02
513.90	271.50
514.08	217.67
514.25	217.67
514.43	259.80
514.60	227.03
514.77	243.42
514.95	278.52
515.12	220.01
515.29	280.86
515.47	212.99
515.64	182.56
515.81	271.50
515.99	257.46
516.16	252.78
516.33	283.20
516.51	208.31
516.68	184.90
516.85	241.08
517.03	205.97
517.20	234.05
517.37	245.76
517.54	175.54
517.72	205.97
517.89	182.56
518.06	142.77
518.24	297.25
518.41	337.04
518.58	278.52
518.75	231.71
518.93	229.37
519.10	231.71
519.27	243.42
519.45	241.08
519.62	238.73
519.79	360.44
519.96	374.49
520.14	196.60
520.31	287.89
520.48	194.26
520.65	205.97
520.83	301.93
521.00	187.24
521.17	269.16
521.34	271.50
521.52	243.42
521.69	278.52
521.86	245.76
522.03	252.78
522.20	290.23
522.38	273.84
522.55	201.29
522.72	215.33
522.89	175.54
523.07	390.87
523.24	259.80
523.41	287.89
523.58	266.82
523.75	259.80
523.92	217.67
524.10	266.82
524.27	278.52
524.44	238.73
524.61	266.82
524.78	241.08
524.96	262.14
525.13	227.03
525.30	273.84
525.47	222.35
525.64	315.97
525.81	234.05
525.98	262.14
526.16	229.37
526.33	252.78
526.50	215.33
526.67	189.58
526.84	227.03
527.01	238.73
527.18	241.08
527.36	241.08
527.53	234.05
527.70	224.69
527.87	294.91
528.04	264.48
528.21	257.46
528.38	234.05
528.55	278.52
528.72	315.97
528.89	269.16
529.07	245.76
529.24	248.10
529.41	231.71
529.58	238.73
529.75	257.46
529.92	315.97
530.09	337.04
530.26	283.20
530.43	266.82
530.60	252.78
530.77	315.97
530.94	332.36
531.11	337.04
531.28	283.20
531.46	245.76
531.63	212.99
531.80	292.57
531.97	264.48
532.14	220.01
532.31	201.29
532.48	266.82
532.65	257.46
532.82	217.67
532.99	287.89
533.16	304.27
533.33	276.18
533.50	334.70
533.67	255.12
533.84	290.23
534.01	304.27
534.18	351.08
534.35	297.25
534.52	290.23
534.69	266.82
534.86	212.99
535.03	360.44
535.20	334.70
535.37	386.19
535.54	234.05
535.71	330.02
535.88	379.17
536.05	290.23
536.22	238.73
536.38	297.25
536.55	341.72
536.72	395.55
536.89	308.95
537.06	337.04
537.23	344.06
537.40	386.19
537.57	379.17
537.74	416.62
537.91	402.57
538.08	456.40
538.25	437.68
538.42	449.38
538.59	379.17
538.75	381.51
538.92	397.89
539.09	437.68
539.26	484.49
539.43	498.53
539.60	505.56
539.77	519.60
539.94	545.34
540.11	683.44
540.28	732.59
540.44	636.63
540.61	755.99
540.78	816.85
540.95	964.30
541.12	880.04
541.29	1146.86
541.46	1158.57
541.62	1172.61
541.79	1200.69
541.96	1247.51
542.13	1240.48
542.30	1137.50
542.47	1224.10
542.63	1153.88
542.80	1153.88
542.97	1219.42
543.14	1167.93
543.31	1130.48
543.48	1104.73
543.64	1163.25
543.81	1135.16
543.98	1102.39
544.15	973.66
544.32	1039.20
544.48	1086.01
544.65	1128.14
544.82	1062.60
544.99	999.41
545.16	1095.37
545.32	1081.33
545.49	1528.37
545.66	2282.02
545.83	2899.92
546.00	2644.81
546.16	1832.64
546.33	1371.55
546.50	1025.15
546.67	919.83
546.83	873.02
547.00	763.01
547.17	704.50
547.34	793.44
547.50	692.80
547.67	706.84
547.84	667.05
548.00	681.10
548.17	603.86
548.34	706.84
548.51	631.94
548.67	697.48
548.84	512.58
549.01	603.86
549.18	573.43
549.34	601.52
549.51	606.20
549.68	594.50
549.84	507.90
550.01	620.24
550.18	568.75
550.34	613.22
550.51	503.22
550.68	498.53
550.84	421.30
551.01	449.38
551.18	470.45
551.34	461.09
551.51	447.04
551.68	503.22
551.84	437.68
552.01	404.91
552.18	489.17
552.34	388.53
552.51	458.74
552.68	407.25
552.84	395.55
553.01	358.10
553.18	440.02
553.34	327.68
553.51	358.10
553.67	315.97
553.84	325.33
554.01	411.93
554.17	365.12
554.34	374.49
554.51	393.21
554.67	369.80
554.84	372.15
555.00	264.48
555.17	355.76
555.33	358.10
555.50	292.57
555.67	259.80
555.83	393.21
556.00	257.46
556.16	433.00
556.33	318.31
556.50	332.36
556.66	262.14
556.83	264.48
556.99	334.70
557.16	257.46
557.32	273.84
557.49	220.01
557.65	292.57
557.82	264.48
557.98	273.84
558.15	292.57
558.32	259.80
558.48	245.76
558.65	280.86
558.81	264.48
558.98	273.84
559.14	198.95
559.31	269.16
559.47	238.73
559.64	191.92
559.80	285.55
559.97	248.10
560.13	234.05
560.30	327.68
560.46	269.16
560.63	166.18
560.79	255.12
560.96	224.69
561.12	273.84
561.29	245.76
561.45	231.71
561.61	231.71
561.78	409.59
561.94	255.12
562.11	266.82
562.27	264.48
562.44	241.08
562.60	245.76
562.77	245.76
562.93	318.31
563.10	285.55
563.26	241.08
563.42	241.08
563.59	224.69
563.75	194.26
563.92	255.12
564.08	236.39
564.24	250.44
564.41	287.89
564.57	306.61
564.74	248.10
564.90	208.31
565.07	255.12
565.23	285.55
565.39	227.03
565.56	299.59
565.72	203.63
565.88	210.65
566.05	287.89
566.21	187.24
566.38	191.92
566.54	255.12
566.70	262.14
566.87	177.88
567.03	297.25
567.19	262.14
567.36	222.35
567.52	248.10
567.68	201.29
567.85	215.33
568.01	250.44
568.17	301.93
568.34	255.12
568.50	271.50
568.66	227.03
568.83	311.29
568.99	194.26
569.15	259.80
569.32	325.33
569.48	271.50
569.64	184.90
569.81	273.84
569.97	201.29
570.13	227.03
570.30	205.97
570.46	222.35
570.62	201.29
570.78	290.23
570.95	217.67
571.11	287.89
571.27	297.25
571.43	248.10
571.60	222.35
571.76	271.50
571.92	145.11
572.09	205.97
572.25	259.80
572.41	299.59
572.57	250.44
572.74	243.42
572.90	287.89
573.06	273.84
573.22	191.92
573.38	252.78
573.55	175.54
573.71	280.86
573.87	184.90
574.03	208.31
574.20	229.37
574.36	215.33
574.52	255.12
574.68	208.31
574.84	266.82
575.01	191.92
575.17	224.69
575.33	320.65
575.49	212.99
575.65	311.29
575.82	332.36
575.98	327.68
576.14	238.73
576.30	332.36
576.46	449.38
576.62	622.58
576.79	676.41
576.95	610.88
577.11	479.81
577.27	325.33
577.43	304.27
577.59	355.76
577.75	306.61
577.92	280.86
578.08	245.76
578.24	276.18
578.40	304.27
578.56	456.40
578.72	592.16
578.88	751.31
579.04	528.96
579.21	425.98
579.37	360.44
579.53	355.76
579.69	423.64
579.85	451.72
580.01	437.68
580.17	421.30
580.33	444.70
580.49	393.21
580.65	353.42
580.82	304.27
580.98	393.21
581.14	306.61
581.30	388.53
581.46	351.08
581.62	367.46
581.78	339.38
581.94	418.96
582.10	372.15
582.26	475.13
582.42	381.51
582.58	447.04
582.74	409.59
582.90	491.51
583.06	531.30
583.22	465.77
583.38	407.25
583.54	362.78
583.70	517.26
583.86	423.64
584.02	353.42
584.18	456.40
584.34	376.83
584.50	390.87
584.66	411.93
584.82	320.65
584.98	365.12
585.14	409.59
585.30	393.21
585.46	369.80
585.62	294.91
585.78	341.72
585.94	440.02
586.10	437.68
586.26	360.44
586.42	472.79
586.58	482.15
586.74	519.60
586.90	582.79
587.06	683.44
587.22	695.14
587.38	545.34
587.54	512.58
587.70	528.96
587.86	465.77
588.02	404.91
588.18	421.30
588.34	367.46
588.49	322.99
588.65	318.31
588.81	306.61
588.97	259.80
589.13	315.97
589.29	360.44
589.45	332.36
589.61	341.72
589.77	393.21
589.93	264.48
590.08	294.91
590.24	278.52
590.40	393.21
590.56	365.12
590.72	360.44
590.88	285.55
591.04	294.91
591.20	390.87
591.35	442.36
591.51	362.78
591.67	306.61
591.83	332.36
591.99	348.74
592.15	395.55
592.31	369.80
592.46	397.89
592.62	423.64
592.78	505.56
592.94	402.57
593.10	416.62
593.26	414.27
593.41	461.09
593.57	402.57
593.73	381.51
593.89	346.40
594.05	383.85
594.20	325.33
594.36	362.78
594.52	299.59
594.68	262.14
594.84	334.70
594.99	322.99
595.15	337.04
595.31	269.16
595.47	358.10
595.62	234.05
595.78	308.95
595.94	304.27
596.10	344.06
596.25	311.29
596.41	231.71
596.57	285.55
596.73	257.46
596.88	299.59
597.04	337.04
597.20	287.89
597.36	234.05
597.51	301.93
597.67	339.38
597.83	269.16
597.99	231.71
598.14	301.93
598.30	255.12
598.46	299.59
598.61	374.49
598.77	322.99
598.93	353.42
599.09	433.00
599.24	360.44
599.40	395.55
599.56	351.08
599.71	318.31
599.87	381.51
600.03	337.04
600.18	355.76
600.34	334.70
600.50	276.18
600.65	259.80
600.81	313.63
600.97	212.99
601.12	255.12
601.28	266.82
601.44	304.27
601.59	259.80
601.75	266.82
601.91	313.63
602.06	280.86
602.22	353.42
602.37	224.69
602.53	257.46
602.69	327.68
602.84	255.12
603.00	236.39
603.16	273.84
603.31	269.16
603.47	308.95
603.62	189.58
603.78	301.93
603.94	283.20
604.09	273.84
604.25	259.80
604.40	283.20
604.56	241.08
604.71	243.42
604.87	191.92
605.03	262.14
605.18	276.18
605.34	264.48
605.49	297.25
605.65	259.80
605.80	250.44
605.96	238.73
606.12	292.57
606.27	264.48
606.43	266.82
606.58	255.12
606.74	322.99
606.89	227.03
607.05	355.76
607.20	320.65
607.36	379.17
607.51	292.57
607.67	351.08
607.82	374.49
607.98	447.04
608.13	330.02
608.29	447.04
608.44	442.36
608.60	353.42
608.75	416.62
608.91	423.64
609.06	388.53
609.22	519.60
609.37	538.32
609.53	512.58
609.68	634.29
609.84	720.88
609.99	802.80
610.15	898.77
610.30	1135.16
610.46	1268.57
610.61	1526.03
610.76	1930.94
610.92	2296.07
611.07	2675.23
