SpectraSuite Data File
++++++++++++++++++++++++++++++++++++
Date: Fri Oct 04 11:42:26 GMT-05:00 2013
User: price-jones
Dark Spectrum Present: No
Reference Spectrum Present: No
Number of Sampled Component Spectra: 1
Spectrometers: USB2+H05261
Integration Time (usec): 100000 (USB2+H05261)
Spectra Averaged: 1 (USB2+H05261)
Boxcar Smoothing: 0 (USB2+H05261)
Correct for Electrical Dark: No (USB2+H05261)
Strobe/Lamp Enabled: No (USB2+H05261)
Correct for Detector Non-linearity: No (USB2+H05261)
Correct for Stray Light: No (USB2+H05261)
Number of Pixels in Processed Spectrum: 2048
>>>>>Begin Processed Spectral Data<<<<<
365.73	42.13
365.92	42.13
366.12	42.13
366.32	0.00
366.52	0.00
366.72	4.68
366.91	0.00
367.11	0.00
367.31	0.00
367.51	0.00
367.70	0.00
367.90	0.00
368.10	0.00
368.30	0.00
368.49	0.00
368.69	0.00
368.89	0.00
369.09	0.00
369.28	0.00
369.48	0.00
369.68	0.00
369.87	0.00
370.07	0.00
370.27	46.81
370.47	18.72
370.66	25.75
370.86	39.79
371.06	79.58
371.25	32.77
371.45	58.51
371.65	98.30
371.84	39.79
372.04	98.30
372.24	110.01
372.44	81.92
372.63	119.37
372.83	140.43
373.03	112.35
373.22	145.11
373.42	126.39
373.62	35.11
373.81	126.39
374.01	184.90
374.21	196.60
374.40	119.37
374.60	154.48
374.79	81.92
374.99	145.11
375.19	126.39
375.38	91.28
375.58	147.45
375.78	201.29
375.97	161.50
376.17	170.86
376.37	124.05
376.56	117.03
376.76	91.28
376.95	142.77
377.15	182.56
377.35	100.64
377.54	95.96
377.74	121.71
377.93	58.51
378.13	74.90
378.33	168.52
378.52	177.88
378.72	117.03
378.91	67.88
379.11	117.03
379.31	98.30
379.50	117.03
379.70	140.43
379.89	77.24
380.09	110.01
380.28	53.83
380.48	140.43
380.68	196.60
380.87	98.30
381.07	42.13
381.26	100.64
381.46	119.37
381.65	156.82
381.85	128.73
382.04	128.73
382.24	142.77
382.43	56.17
382.63	114.69
382.83	95.96
383.02	119.37
383.22	114.69
383.41	126.39
383.61	88.94
383.80	74.90
384.00	133.41
384.19	180.22
384.39	110.01
384.58	65.54
384.78	86.60
384.97	145.11
385.17	88.94
385.36	98.30
385.56	46.81
385.75	117.03
385.95	121.71
386.14	46.81
386.34	35.11
386.53	145.11
386.72	39.79
386.92	154.48
387.11	81.92
387.31	124.05
387.50	63.19
387.70	23.41
387.89	39.79
388.09	98.30
388.28	149.79
388.48	161.50
388.67	177.88
388.86	135.75
389.06	159.16
389.25	138.09
389.45	142.77
389.64	77.24
389.84	133.41
390.03	74.90
390.22	128.73
390.42	93.62
390.61	86.60
390.81	138.09
391.00	51.49
391.19	98.30
391.39	84.26
391.58	124.05
391.78	86.60
391.97	4.68
392.16	84.26
392.36	133.41
392.55	84.26
392.75	100.64
392.94	147.45
393.13	117.03
393.33	114.69
393.52	56.17
393.71	147.45
393.91	119.37
394.10	177.88
394.29	102.98
394.49	86.60
394.68	147.45
394.88	166.18
395.07	159.16
395.26	91.28
395.46	100.64
395.65	110.01
395.84	98.30
396.04	121.71
396.23	72.56
396.42	74.90
396.62	91.28
396.81	84.26
397.00	110.01
397.19	119.37
397.39	110.01
397.58	182.56
397.77	28.09
397.97	194.26
398.16	156.82
398.35	161.50
398.55	117.03
398.74	149.79
398.93	135.75
399.12	93.62
399.32	117.03
399.51	105.32
399.70	152.13
399.90	161.50
400.09	79.58
400.28	168.52
400.47	74.90
400.67	168.52
400.86	93.62
401.05	161.50
401.24	166.18
401.44	72.56
401.63	140.43
401.82	161.50
402.01	163.84
402.21	161.50
402.40	112.35
402.59	133.41
402.78	173.20
402.97	131.07
403.17	107.66
403.36	110.01
403.55	159.16
403.74	257.46
403.93	554.71
404.13	1249.85
404.32	1671.14
404.51	1439.43
404.70	915.15
404.89	425.98
405.09	198.95
405.28	177.88
405.47	128.73
405.66	180.22
405.85	156.82
406.05	72.56
406.24	163.84
406.43	53.83
406.62	170.86
406.81	205.97
407.00	229.37
407.20	276.18
407.39	374.49
407.58	374.49
407.77	278.52
407.96	191.92
408.15	98.30
408.34	205.97
408.54	84.26
408.73	119.37
408.92	77.24
409.11	163.84
409.30	121.71
409.49	70.22
409.68	100.64
409.87	100.64
410.07	180.22
410.26	154.48
410.45	128.73
410.64	175.54
410.83	175.54
411.02	77.24
411.21	229.37
411.40	126.39
411.59	166.18
411.78	215.33
411.98	131.07
412.17	100.64
412.36	170.86
412.55	98.30
412.74	126.39
412.93	163.84
413.12	182.56
413.31	215.33
413.50	79.58
413.69	152.13
413.88	175.54
414.07	180.22
414.26	117.03
414.45	119.37
414.64	191.92
414.83	147.45
415.02	145.11
415.22	81.92
415.41	147.45
415.60	184.90
415.79	119.37
415.98	189.58
416.17	175.54
416.36	180.22
416.55	196.60
416.74	191.92
416.93	117.03
417.12	159.16
417.31	110.01
417.50	128.73
417.69	168.52
417.88	189.58
418.07	191.92
418.26	173.20
418.45	166.18
418.64	245.76
418.83	187.24
419.02	159.16
419.21	140.43
419.39	170.86
419.58	142.77
419.77	119.37
419.96	201.29
420.15	201.29
420.34	184.90
420.53	205.97
420.72	168.52
420.91	161.50
421.10	168.52
421.29	145.11
421.48	145.11
421.67	163.84
421.86	117.03
422.05	121.71
422.24	114.69
422.43	138.09
422.61	131.07
422.80	236.39
422.99	142.77
423.18	198.95
423.37	255.12
423.56	196.60
423.75	238.73
423.94	152.13
424.13	135.75
424.32	72.56
424.50	203.63
424.69	220.01
424.88	152.13
425.07	114.69
425.26	142.77
425.45	149.79
425.64	168.52
425.83	166.18
426.01	191.92
426.20	170.86
426.39	124.05
426.58	212.99
426.77	210.65
426.96	257.46
427.15	210.65
427.33	250.44
427.52	182.56
427.71	145.11
427.90	220.01
428.09	131.07
428.28	191.92
428.46	194.26
428.65	180.22
428.84	205.97
429.03	212.99
429.22	224.69
429.40	196.60
429.59	105.32
429.78	189.58
429.97	252.78
430.16	194.26
430.34	128.73
430.53	170.86
430.72	191.92
430.91	173.20
431.10	166.18
431.28	208.31
431.47	236.39
431.66	217.67
431.85	229.37
432.03	224.69
432.22	271.50
432.41	135.75
432.60	173.20
432.79	170.86
432.97	175.54
433.16	278.52
433.35	227.03
433.54	243.42
433.72	250.44
433.91	248.10
434.10	252.78
434.28	245.76
434.47	344.06
434.66	353.42
434.85	388.53
435.03	1011.11
435.22	2855.45
435.41	6230.51
435.59	6661.16
435.78	4409.57
435.97	2244.57
436.16	915.15
436.34	379.17
436.53	297.25
436.72	346.40
436.90	278.52
437.09	257.46
437.28	203.63
437.46	196.60
437.65	198.95
437.84	250.44
438.02	194.26
438.21	210.65
438.40	163.84
438.58	215.33
438.77	271.50
438.96	250.44
439.14	297.25
439.33	266.82
439.52	287.89
439.70	262.14
439.89	236.39
440.08	212.99
440.26	175.54
440.45	264.48
440.63	201.29
440.82	280.86
441.01	205.97
441.19	189.58
441.38	264.48
441.57	236.39
441.75	175.54
441.94	294.91
442.12	166.18
442.31	250.44
442.50	271.50
442.68	220.01
442.87	205.97
443.05	248.10
443.24	252.78
443.43	252.78
443.61	292.57
443.80	236.39
443.98	262.14
444.17	245.76
444.35	159.16
444.54	175.54
444.73	280.86
444.91	212.99
445.10	168.52
445.28	245.76
445.47	252.78
445.65	187.24
445.84	138.09
446.02	194.26
446.21	257.46
446.39	238.73
446.58	264.48
446.77	163.84
446.95	248.10
447.14	266.82
447.32	264.48
447.51	280.86
447.69	234.05
447.88	224.69
448.06	262.14
448.25	210.65
448.43	208.31
448.62	266.82
448.80	227.03
448.99	245.76
449.17	252.78
449.36	201.29
449.54	217.67
449.73	222.35
449.91	205.97
450.10	283.20
450.28	283.20
450.46	315.97
450.65	245.76
450.83	243.42
451.02	287.89
451.20	292.57
451.39	210.65
451.57	229.37
451.76	187.24
451.94	257.46
452.13	292.57
452.31	264.48
452.49	238.73
452.68	238.73
452.86	259.80
453.05	224.69
453.23	229.37
453.42	273.84
453.60	252.78
453.78	173.20
453.97	196.60
454.15	173.20
454.34	299.59
454.52	252.78
454.70	205.97
454.89	152.13
455.07	166.18
455.26	259.80
455.44	250.44
455.62	198.95
455.81	248.10
455.99	187.24
456.17	259.80
456.36	224.69
456.54	238.73
456.73	163.84
456.91	264.48
457.09	334.70
457.28	311.29
457.46	161.50
457.64	334.70
457.83	243.42
458.01	320.65
458.19	212.99
458.38	243.42
458.56	168.52
458.74	248.10
458.93	210.65
459.11	257.46
459.29	212.99
459.48	257.46
459.66	255.12
459.84	299.59
460.03	276.18
460.21	229.37
460.39	224.69
460.57	257.46
460.76	262.14
460.94	229.37
461.12	318.31
461.31	259.80
461.49	278.52
461.67	166.18
461.85	212.99
462.04	152.13
462.22	416.62
462.40	262.14
462.59	262.14
462.77	257.46
462.95	126.39
463.13	208.31
463.32	220.01
463.50	161.50
463.68	166.18
463.86	212.99
464.05	241.08
464.23	215.33
464.41	271.50
464.59	212.99
464.78	315.97
464.96	208.31
465.14	222.35
465.32	241.08
465.50	215.33
465.69	252.78
465.87	210.65
466.05	166.18
466.23	191.92
466.41	220.01
466.60	231.71
466.78	276.18
466.96	262.14
467.14	201.29
467.32	245.76
467.51	229.37
467.69	191.92
467.87	285.55
468.05	220.01
468.23	252.78
468.41	259.80
468.60	229.37
468.78	245.76
468.96	304.27
469.14	280.86
469.32	205.97
469.50	210.65
469.69	210.65
469.87	276.18
470.05	220.01
470.23	264.48
470.41	205.97
470.59	306.61
470.77	220.01
470.95	182.56
471.14	224.69
471.32	212.99
471.50	182.56
471.68	273.84
471.86	250.44
472.04	220.01
472.22	187.24
472.40	229.37
472.58	173.20
472.77	203.63
472.95	149.79
473.13	276.18
473.31	285.55
473.49	238.73
473.67	198.95
473.85	170.86
474.03	222.35
474.21	229.37
474.39	238.73
474.57	231.71
474.75	264.48
474.93	159.16
475.12	166.18
475.30	198.95
475.48	245.76
475.66	161.50
475.84	248.10
476.02	276.18
476.20	236.39
476.38	257.46
476.56	266.82
476.74	220.01
476.92	229.37
477.10	234.05
477.28	184.90
477.46	301.93
477.64	257.46
477.82	203.63
478.00	236.39
478.18	224.69
478.36	327.68
478.54	196.60
478.72	210.65
478.90	212.99
479.08	241.08
479.26	262.14
479.44	238.73
479.62	191.92
479.80	222.35
479.98	276.18
480.16	212.99
480.34	276.18
480.52	220.01
480.70	318.31
480.88	259.80
481.06	306.61
481.24	250.44
481.41	311.29
481.59	311.29
481.77	369.80
481.95	322.99
482.13	358.10
482.31	418.96
482.49	430.66
482.67	400.23
482.85	468.11
483.03	479.81
483.21	393.21
483.39	468.11
483.57	526.62
483.74	538.32
483.92	545.34
484.10	526.62
484.28	622.58
484.46	638.97
484.64	746.63
484.82	613.22
485.00	697.48
485.18	793.44
485.35	830.89
485.53	732.59
485.71	966.64
485.89	823.87
486.07	873.02
486.25	987.71
486.43	976.00
486.61	954.94
486.78	961.96
486.96	976.00
487.14	1013.45
487.32	908.13
487.50	945.58
487.68	1121.12
487.85	1018.13
488.03	891.74
488.21	940.90
488.39	957.28
488.57	1041.54
488.75	992.39
488.92	1226.44
489.10	1004.09
489.28	990.05
489.46	912.81
489.64	873.02
489.81	938.55
489.99	959.62
490.17	898.77
490.35	1011.11
490.53	847.27
490.70	966.64
490.88	880.04
491.06	889.40
491.24	922.17
491.41	1130.48
491.59	952.60
491.77	851.96
491.95	821.53
492.13	765.36
492.30	812.17
492.48	814.51
492.66	807.48
492.84	732.59
493.01	816.85
493.19	788.76
493.37	805.14
493.54	791.10
493.72	758.33
493.90	805.14
494.08	704.50
494.25	697.48
494.43	741.95
494.61	760.67
494.79	711.52
494.96	692.80
495.14	664.71
495.32	704.50
495.49	683.44
495.67	657.69
495.85	662.37
496.02	671.73
496.20	674.07
496.38	683.44
496.55	641.31
496.73	657.69
496.91	603.86
497.09	685.78
497.26	634.29
497.44	655.35
497.62	587.47
497.79	606.20
497.97	589.82
498.14	543.00
498.32	578.11
498.50	559.39
498.67	538.32
498.85	491.51
499.03	479.81
499.20	479.81
499.38	482.15
499.56	428.32
499.73	423.64
499.91	479.81
500.08	479.81
500.26	348.74
500.44	332.36
500.61	367.46
500.79	442.36
500.97	416.62
501.14	374.49
501.32	388.53
501.49	397.89
501.67	353.42
501.84	292.57
502.02	318.31
502.20	395.55
502.37	386.19
502.55	322.99
502.72	278.52
502.90	278.52
503.07	365.12
503.25	285.55
503.43	224.69
503.60	292.57
503.78	313.63
503.95	271.50
504.13	334.70
504.30	337.04
504.48	355.76
504.65	301.93
504.83	273.84
505.01	222.35
505.18	301.93
505.36	236.39
505.53	346.40
505.71	346.40
505.88	290.23
506.06	285.55
506.23	287.89
506.41	201.29
506.58	313.63
506.76	276.18
506.93	306.61
507.11	250.44
507.28	243.42
507.46	159.16
507.63	292.57
507.81	308.95
507.98	299.59
508.16	236.39
508.33	161.50
508.50	257.46
508.68	292.57
508.85	299.59
509.03	208.31
509.20	194.26
509.38	290.23
509.55	315.97
509.73	276.18
509.90	245.76
510.08	187.24
510.25	250.44
510.42	264.48
510.60	266.82
510.77	313.63
510.95	367.46
511.12	334.70
511.30	229.37
511.47	271.50
511.64	313.63
511.82	285.55
511.99	280.86
512.17	224.69
512.34	318.31
512.51	229.37
512.69	250.44
512.86	334.70
513.04	215.33
513.21	269.16
513.38	273.84
513.56	320.65
513.73	236.39
513.90	236.39
514.08	292.57
514.25	306.61
514.43	318.31
514.60	201.29
514.77	236.39
514.95	224.69
515.12	234.05
515.29	294.91
515.47	264.48
515.64	243.42
515.81	245.76
515.99	283.20
516.16	238.73
516.33	250.44
516.51	231.71
516.68	245.76
516.85	245.76
517.03	252.78
517.20	133.41
517.37	271.50
517.54	308.95
517.72	196.60
517.89	266.82
518.06	227.03
518.24	234.05
518.41	327.68
518.58	292.57
518.75	231.71
518.93	269.16
519.10	266.82
519.27	283.20
519.45	285.55
519.62	283.20
519.79	304.27
519.96	327.68
520.14	264.48
520.31	313.63
520.48	255.12
520.65	252.78
520.83	313.63
521.00	259.80
521.17	248.10
521.34	220.01
521.52	266.82
521.69	248.10
521.86	234.05
522.03	311.29
522.20	259.80
522.38	243.42
522.55	227.03
522.72	203.63
522.89	290.23
523.07	292.57
523.24	266.82
523.41	271.50
523.58	250.44
523.75	257.46
523.92	271.50
524.10	308.95
524.27	292.57
524.44	259.80
524.61	269.16
524.78	262.14
524.96	285.55
525.13	238.73
525.30	269.16
525.47	227.03
525.64	257.46
525.81	266.82
525.98	245.76
526.16	259.80
526.33	231.71
526.50	238.73
526.67	217.67
526.84	297.25
527.01	306.61
527.18	344.06
527.36	332.36
527.53	308.95
527.70	294.91
527.87	229.37
528.04	313.63
528.21	278.52
528.38	248.10
528.55	346.40
528.72	306.61
528.89	292.57
529.07	290.23
529.24	248.10
529.41	245.76
529.58	264.48
529.75	203.63
529.92	245.76
530.09	292.57
530.26	355.76
530.43	325.33
530.60	271.50
530.77	339.38
530.94	278.52
531.11	315.97
531.28	234.05
531.46	292.57
531.63	308.95
531.80	367.46
531.97	271.50
532.14	365.12
532.31	430.66
532.48	292.57
532.65	404.91
532.82	440.02
532.99	468.11
533.16	564.07
533.33	517.26
533.50	557.05
533.67	472.79
533.84	390.87
534.01	430.66
534.18	402.57
534.35	407.25
534.52	437.68
534.69	477.47
534.86	416.62
535.03	411.93
535.20	395.55
535.37	519.60
535.54	425.98
535.71	414.27
535.88	514.92
536.05	484.49
536.22	517.26
536.38	587.47
536.55	531.30
536.72	575.77
536.89	566.41
537.06	655.35
537.23	739.61
537.40	709.18
537.57	835.57
537.74	814.51
537.91	990.05
538.08	1025.15
538.25	1071.97
538.42	1135.16
538.59	1210.06
538.75	1238.14
538.92	1252.19
539.09	1343.47
539.26	1406.66
539.43	1390.28
539.60	1533.05
539.77	1785.83
539.94	1944.99
540.11	1909.88
540.28	2111.16
540.44	2204.78
540.61	2361.60
540.78	2658.85
540.95	2932.69
541.12	3363.35
541.29	3819.75
541.46	4400.21
541.62	5174.92
541.79	5624.31
541.96	6015.18
542.13	6523.07
542.30	6600.31
542.47	6637.76
542.63	6345.19
542.80	6544.14
542.97	6457.54
543.14	6719.68
543.31	6633.08
543.48	6724.36
543.64	6743.08
543.81	6509.03
543.98	6321.79
544.15	6069.01
544.32	5949.64
544.48	5774.10
544.65	5563.45
544.82	5348.12
544.99	4954.91
545.16	4915.12
545.32	4905.76
545.49	7384.39
545.66	13490.85
545.83	16161.40
546.00	13731.92
546.16	8774.67
546.33	6410.73
546.50	4440.00
546.67	3318.88
546.83	2513.74
547.00	2497.35
547.17	2202.44
547.34	2188.40
547.50	2115.84
547.67	2050.31
547.84	2024.56
548.00	2090.10
548.17	2087.76
548.34	2101.80
548.51	2073.71
548.67	2111.16
548.84	2265.64
549.01	2230.53
549.18	2143.93
549.34	2204.78
549.51	2031.58
549.68	2115.84
549.84	1935.62
550.01	1785.83
550.18	1764.76
550.34	1736.68
550.51	1645.40
550.68	1617.31
550.84	1561.14
551.01	1600.93
551.18	1507.30
551.34	1488.58
551.51	1313.04
551.68	1472.20
551.84	1418.36
552.01	1334.11
552.18	1467.52
552.34	1320.06
552.51	1291.98
552.68	1266.23
552.84	1184.31
553.01	1158.57
553.18	1076.65
553.34	1090.69
553.51	922.17
553.67	954.94
553.84	917.49
554.01	849.61
554.17	777.06
554.34	800.46
554.51	589.82
554.67	634.29
554.84	615.56
555.00	526.62
555.17	528.96
555.33	535.98
555.50	493.85
555.67	496.19
555.83	491.51
556.00	500.87
556.16	587.47
556.33	451.72
556.50	437.68
556.66	458.74
556.83	404.91
556.99	365.12
557.16	351.08
557.32	330.02
557.49	409.59
557.65	381.51
557.82	381.51
557.98	360.44
558.15	367.46
558.32	369.80
558.48	315.97
558.65	360.44
558.81	330.02
558.98	374.49
559.14	409.59
559.31	454.06
559.47	409.59
559.64	318.31
559.80	374.49
559.97	397.89
560.13	327.68
560.30	318.31
560.46	311.29
560.63	255.12
560.79	332.36
560.96	337.04
561.12	374.49
561.29	304.27
561.45	280.86
561.61	318.31
561.78	409.59
561.94	327.68
562.11	259.80
562.27	294.91
562.44	311.29
562.60	332.36
562.77	325.33
562.93	374.49
563.10	362.78
563.26	224.69
563.42	337.04
563.59	332.36
563.75	341.72
563.92	304.27
564.08	285.55
564.24	271.50
564.41	351.08
564.57	234.05
564.74	276.18
564.90	318.31
565.07	320.65
565.23	337.04
565.39	266.82
565.56	285.55
565.72	248.10
565.88	276.18
566.05	285.55
566.21	301.93
566.38	245.76
566.54	290.23
566.70	297.25
566.87	325.33
567.03	241.08
567.19	313.63
567.36	280.86
567.52	308.95
567.68	264.48
567.85	315.97
568.01	292.57
568.17	266.82
568.34	210.65
568.50	318.31
568.66	278.52
568.83	320.65
568.99	276.18
569.15	266.82
569.32	285.55
569.48	276.18
569.64	250.44
569.81	280.86
569.97	250.44
570.13	250.44
570.30	283.20
570.46	264.48
570.62	203.63
570.78	255.12
570.95	220.01
571.11	294.91
571.27	290.23
571.43	259.80
571.60	266.82
571.76	238.73
571.92	262.14
572.09	250.44
572.25	353.42
572.41	269.16
572.57	278.52
572.74	334.70
572.90	351.08
573.06	297.25
573.22	339.38
573.38	306.61
573.55	311.29
573.71	311.29
573.87	339.38
574.03	273.84
574.20	330.02
574.36	367.46
574.52	372.15
574.68	304.27
574.84	339.38
575.01	341.72
575.17	372.15
575.33	367.46
575.49	393.21
575.65	390.87
575.82	433.00
575.98	428.32
576.14	393.21
576.30	622.58
576.46	1626.67
576.62	2513.74
576.79	2682.25
576.95	1952.01
577.11	1385.60
577.27	1053.24
577.43	851.96
577.59	657.69
577.75	475.13
577.92	514.92
578.08	463.43
578.24	528.96
578.40	697.48
578.56	1504.96
578.72	2506.71
578.88	2822.69
579.04	1994.14
579.21	1549.43
579.37	1181.97
579.53	1090.69
579.69	1062.60
579.85	1188.99
580.01	1390.28
580.17	1404.32
580.33	1275.59
580.49	1139.84
580.65	1055.58
580.82	978.34
580.98	858.98
581.14	926.85
581.30	1036.86
581.46	990.05
581.62	1123.46
581.78	1090.69
581.94	1067.28
582.10	1081.33
582.26	1118.78
582.42	1158.57
582.58	1357.51
582.74	1310.70
582.90	1453.47
583.06	1504.96
583.22	1352.83
583.38	1582.20
583.54	1589.22
583.70	1453.47
583.86	1554.12
584.02	1390.28
584.18	1453.47
584.34	1392.62
584.50	1343.47
584.66	1441.77
584.82	1181.97
584.98	1214.74
585.14	1219.42
585.30	1266.23
585.46	1163.25
585.62	1118.78
585.78	1160.91
585.94	1071.97
586.10	1193.67
586.26	1212.40
586.42	1338.79
586.58	1509.65
586.74	1942.64
586.90	2211.81
587.06	2373.30
587.22	2303.09
587.38	2104.14
587.54	2045.63
587.70	1802.21
587.86	1657.10
588.02	1455.81
588.18	1331.76
588.34	1191.33
588.49	1174.95
588.65	1132.82
588.81	1076.65
588.97	1060.26
589.13	997.07
589.29	940.90
589.45	1041.54
589.61	1018.13
589.77	1025.15
589.93	1048.56
590.08	924.51
590.24	964.30
590.40	1036.86
590.56	922.17
590.72	952.60
590.88	922.17
591.04	931.53
591.20	887.06
591.35	889.40
591.51	980.68
591.67	910.47
591.83	952.60
591.99	966.64
592.15	1083.67
592.31	1097.71
592.46	1249.85
592.62	1324.74
592.78	1359.85
592.94	1404.32
593.10	1357.51
593.26	1401.98
593.41	1289.64
593.57	1198.35
593.73	1032.18
593.89	833.23
594.05	774.72
594.20	830.89
594.36	732.59
594.52	664.71
594.68	627.26
594.84	587.47
594.99	573.43
595.15	653.01
595.31	627.26
595.47	634.29
595.62	615.56
595.78	545.34
595.94	554.71
596.10	587.47
596.25	568.75
596.41	552.37
596.57	550.03
596.73	517.26
596.88	552.37
597.04	608.54
597.20	627.26
597.36	566.41
597.51	578.11
597.67	589.82
597.83	723.23
597.99	716.20
598.14	617.90
598.30	753.65
598.46	755.99
598.61	784.08
598.77	856.64
598.93	830.89
599.09	908.13
599.24	910.47
599.40	926.85
599.56	828.55
599.71	870.68
599.87	751.31
600.03	737.27
600.18	732.59
600.34	748.97
600.50	606.20
600.65	512.58
600.81	557.05
600.97	624.92
601.12	550.03
601.28	582.79
601.44	524.28
601.59	496.19
601.75	528.96
601.91	475.13
602.06	447.04
602.22	547.69
602.37	454.06
602.53	414.27
602.69	540.66
602.84	423.64
603.00	393.21
603.16	470.45
603.31	503.22
603.47	430.66
603.62	421.30
603.78	407.25
603.94	416.62
604.09	463.43
604.25	517.26
604.40	617.90
604.56	425.98
604.71	489.17
604.87	545.34
605.03	507.90
605.18	491.51
605.34	447.04
605.49	538.32
605.65	535.98
605.80	554.71
605.96	674.07
606.12	524.28
606.27	514.92
606.43	641.31
606.58	575.77
606.74	681.10
606.89	685.78
607.05	690.46
607.20	706.84
607.36	821.53
607.51	760.67
607.67	807.48
607.82	940.90
607.98	1022.81
608.13	898.77
608.29	992.39
608.44	1100.05
608.60	1233.46
608.75	1359.85
608.91	1369.21
609.06	1507.30
609.22	1673.48
