SpectraSuite Data File
++++++++++++++++++++++++++++++++++++
Date: Fri Oct 04 11:41:58 GMT-05:00 2013
User: price-jones
Dark Spectrum Present: No
Reference Spectrum Present: No
Number of Sampled Component Spectra: 1
Spectrometers: USB2+H05261
Integration Time (usec): 100000 (USB2+H05261)
Spectra Averaged: 1 (USB2+H05261)
Boxcar Smoothing: 0 (USB2+H05261)
Correct for Electrical Dark: No (USB2+H05261)
Strobe/Lamp Enabled: No (USB2+H05261)
Correct for Detector Non-linearity: No (USB2+H05261)
Correct for Stray Light: No (USB2+H05261)
Number of Pixels in Processed Spectrum: 2048
>>>>>Begin Processed Spectral Data<<<<<
365.73	25.75
365.92	25.75
366.12	25.75
366.32	0.00
366.52	0.00
366.72	0.00
366.91	0.00
367.11	0.00
367.31	0.00
367.51	0.00
367.70	0.00
367.90	0.00
368.10	0.00
368.30	0.00
368.49	0.00
368.69	0.00
368.89	0.00
369.09	0.00
369.28	0.00
369.48	0.00
369.68	0.00
369.87	25.75
370.07	0.00
370.27	35.11
370.47	0.00
370.66	7.02
370.86	16.38
371.06	49.15
371.25	42.13
371.45	9.36
371.65	72.56
371.84	77.24
372.04	58.51
372.24	138.09
372.44	98.30
372.63	117.03
372.83	135.75
373.03	133.41
373.22	149.79
373.42	100.64
373.62	56.17
373.81	77.24
374.01	117.03
374.21	114.69
374.40	88.94
374.60	145.11
374.79	112.35
374.99	112.35
375.19	142.77
375.38	112.35
375.58	74.90
375.78	156.82
375.97	131.07
376.17	175.54
376.37	117.03
376.56	67.88
376.76	131.07
376.95	124.05
377.15	149.79
377.35	114.69
377.54	107.66
377.74	93.62
377.93	60.85
378.13	72.56
378.33	126.39
378.52	168.52
378.72	145.11
378.91	177.88
379.11	86.60
379.31	112.35
379.50	93.62
379.70	102.98
379.89	156.82
380.09	74.90
380.28	67.88
380.48	147.45
380.68	98.30
380.87	74.90
381.07	140.43
381.26	145.11
381.46	107.66
381.65	98.30
381.85	81.92
382.04	86.60
382.24	107.66
382.43	88.94
382.63	119.37
382.83	88.94
383.02	159.16
383.22	119.37
383.41	79.58
383.61	138.09
383.80	121.71
384.00	93.62
384.19	168.52
384.39	110.01
384.58	53.83
384.78	74.90
384.97	138.09
385.17	95.96
385.36	114.69
385.56	117.03
385.75	63.19
385.95	133.41
386.14	25.75
386.34	67.88
386.53	135.75
386.72	77.24
386.92	161.50
387.11	126.39
387.31	142.77
387.50	119.37
387.70	51.49
387.89	133.41
388.09	124.05
388.28	147.45
388.48	60.85
388.67	114.69
388.86	74.90
389.06	142.77
389.25	140.43
389.45	117.03
389.64	173.20
389.84	161.50
390.03	110.01
390.22	145.11
390.42	163.84
390.61	81.92
390.81	72.56
391.00	128.73
391.19	114.69
391.39	135.75
391.58	126.39
391.78	147.45
391.97	88.94
392.16	112.35
392.36	175.54
392.55	70.22
392.75	107.66
392.94	128.73
393.13	65.54
393.33	140.43
393.52	93.62
393.71	131.07
393.91	187.24
394.10	37.45
394.29	49.15
394.49	93.62
394.68	175.54
394.88	105.32
395.07	70.22
395.26	131.07
395.46	49.15
395.65	119.37
395.84	86.60
396.04	147.45
396.23	23.41
396.42	95.96
396.62	102.98
396.81	114.69
397.00	112.35
397.19	154.48
397.39	238.73
397.58	212.99
397.77	121.71
397.97	84.26
398.16	124.05
398.35	175.54
398.55	124.05
398.74	114.69
398.93	124.05
399.12	124.05
399.32	201.29
399.51	138.09
399.70	140.43
399.90	95.96
400.09	124.05
400.28	138.09
400.47	168.52
400.67	117.03
400.86	156.82
401.05	110.01
401.24	119.37
401.44	114.69
401.63	60.85
401.82	173.20
402.01	163.84
402.21	124.05
402.40	138.09
402.59	133.41
402.78	102.98
402.97	152.13
403.17	159.16
403.36	166.18
403.55	128.73
403.74	327.68
403.93	695.14
404.13	1364.53
404.32	1430.07
404.51	1160.91
404.70	753.65
404.89	355.76
405.09	243.42
405.28	95.96
405.47	184.90
405.66	102.98
405.85	163.84
406.05	154.48
406.24	124.05
406.43	133.41
406.62	198.95
406.81	210.65
407.00	222.35
407.20	245.76
407.39	358.10
407.58	311.29
407.77	142.77
407.96	212.99
408.15	175.54
408.34	112.35
408.54	105.32
408.73	140.43
408.92	72.56
409.11	119.37
409.30	131.07
409.49	84.26
409.68	121.71
409.87	121.71
410.07	168.52
410.26	98.30
410.45	168.52
410.64	114.69
410.83	128.73
411.02	70.22
411.21	152.13
411.40	163.84
411.59	102.98
411.78	133.41
411.98	156.82
412.17	170.86
412.36	159.16
412.55	212.99
412.74	170.86
412.93	159.16
413.12	156.82
413.31	152.13
413.50	133.41
413.69	177.88
413.88	135.75
414.07	142.77
414.26	142.77
414.45	131.07
414.64	100.64
414.83	168.52
415.02	126.39
415.22	224.69
415.41	215.33
415.60	131.07
415.79	248.10
415.98	180.22
416.17	203.63
416.36	159.16
416.55	182.56
416.74	147.45
416.93	182.56
417.12	173.20
417.31	142.77
417.50	175.54
417.69	187.24
417.88	117.03
418.07	161.50
418.26	166.18
418.45	203.63
418.64	156.82
418.83	100.64
419.02	229.37
419.21	182.56
419.39	201.29
419.58	170.86
419.77	128.73
419.96	163.84
420.15	220.01
420.34	168.52
420.53	128.73
420.72	217.67
420.91	124.05
421.10	175.54
421.29	154.48
421.48	175.54
421.67	196.60
421.86	117.03
422.05	177.88
422.24	170.86
422.43	210.65
422.61	72.56
422.80	236.39
422.99	135.75
423.18	149.79
423.37	124.05
423.56	184.90
423.75	191.92
423.94	154.48
424.13	191.92
424.32	212.99
424.50	220.01
424.69	154.48
424.88	245.76
425.07	133.41
425.26	142.77
425.45	159.16
425.64	147.45
425.83	142.77
426.01	278.52
426.20	238.73
426.39	142.77
426.58	191.92
426.77	138.09
426.96	271.50
427.15	170.86
427.33	189.58
427.52	184.90
427.71	210.65
427.90	170.86
428.09	191.92
428.28	208.31
428.46	191.92
428.65	163.84
428.84	177.88
429.03	229.37
429.22	126.39
429.40	194.26
429.59	180.22
429.78	243.42
429.97	201.29
430.16	182.56
430.34	205.97
430.53	112.35
430.72	198.95
430.91	234.05
431.10	205.97
431.28	234.05
431.47	220.01
431.66	210.65
431.85	217.67
432.03	194.26
432.22	245.76
432.41	201.29
432.60	217.67
432.79	212.99
432.97	220.01
433.16	280.86
433.35	220.01
433.54	255.12
433.72	236.39
433.91	191.92
434.10	248.10
434.28	285.55
434.47	365.12
434.66	285.55
434.85	411.93
435.03	1284.95
435.22	3751.88
435.41	5963.68
435.59	5387.91
435.78	3496.76
435.97	1842.00
436.16	809.83
436.34	409.59
436.53	337.04
436.72	231.71
436.90	308.95
437.09	318.31
437.28	203.63
437.46	231.71
437.65	215.33
437.84	210.65
438.02	273.84
438.21	208.31
438.40	196.60
438.58	248.10
438.77	156.82
438.96	194.26
439.14	135.75
439.33	166.18
439.52	180.22
439.70	217.67
439.89	222.35
440.08	205.97
440.26	220.01
440.45	273.84
440.63	210.65
440.82	243.42
441.01	224.69
441.19	147.45
441.38	170.86
441.57	177.88
441.75	266.82
441.94	273.84
442.12	191.92
442.31	252.78
442.50	236.39
442.68	194.26
442.87	248.10
443.05	203.63
443.24	163.84
443.43	273.84
443.61	205.97
443.80	191.92
443.98	142.77
444.17	220.01
444.35	227.03
444.54	320.65
444.73	248.10
444.91	259.80
445.10	205.97
445.28	154.48
445.47	205.97
445.65	229.37
445.84	124.05
446.02	330.02
446.21	255.12
446.39	255.12
446.58	285.55
446.77	241.08
446.95	173.20
447.14	210.65
447.32	269.16
447.51	189.58
447.69	210.65
447.88	187.24
448.06	217.67
448.25	187.24
448.43	184.90
448.62	170.86
448.80	217.67
448.99	212.99
449.17	163.84
449.36	238.73
449.54	264.48
449.73	215.33
449.91	276.18
450.10	173.20
450.28	299.59
450.46	259.80
450.65	311.29
450.83	168.52
451.02	203.63
451.20	189.58
451.39	154.48
451.57	191.92
451.76	152.13
451.94	156.82
452.13	334.70
452.31	276.18
452.49	208.31
452.68	154.48
452.86	201.29
453.05	287.89
453.23	273.84
453.42	180.22
453.60	205.97
453.78	217.67
453.97	198.95
454.15	238.73
454.34	252.78
454.52	266.82
454.70	222.35
454.89	250.44
455.07	210.65
455.26	224.69
455.44	248.10
455.62	229.37
455.81	210.65
455.99	201.29
456.17	238.73
456.36	238.73
456.54	203.63
456.73	205.97
456.91	205.97
457.09	201.29
457.28	252.78
457.46	227.03
457.64	208.31
457.83	187.24
458.01	245.76
458.19	287.89
458.38	241.08
458.56	297.25
458.74	257.46
458.93	280.86
459.11	196.60
459.29	191.92
459.48	259.80
459.66	280.86
459.84	257.46
460.03	227.03
460.21	227.03
460.39	170.86
460.57	266.82
460.76	236.39
460.94	273.84
461.12	297.25
461.31	255.12
461.49	337.04
461.67	330.02
461.85	248.10
462.04	231.71
462.22	650.67
462.40	210.65
462.59	271.50
462.77	283.20
462.95	227.03
463.13	210.65
463.32	311.29
463.50	220.01
463.68	266.82
463.86	222.35
464.05	198.95
464.23	222.35
464.41	318.31
464.59	170.86
464.78	234.05
464.96	147.45
465.14	145.11
465.32	145.11
465.50	269.16
465.69	229.37
465.87	269.16
466.05	238.73
466.23	173.20
466.41	257.46
466.60	224.69
466.78	163.84
466.96	191.92
467.14	133.41
467.32	294.91
467.51	250.44
467.69	238.73
467.87	189.58
468.05	128.73
468.23	248.10
468.41	262.14
468.60	255.12
468.78	177.88
468.96	227.03
469.14	147.45
469.32	140.43
469.50	189.58
469.69	266.82
469.87	243.42
470.05	250.44
470.23	156.82
470.41	201.29
470.59	238.73
470.77	191.92
470.95	227.03
471.14	238.73
471.32	220.01
471.50	250.44
471.68	250.44
471.86	255.12
472.04	220.01
472.22	205.97
472.40	243.42
472.58	175.54
472.77	222.35
472.95	229.37
473.13	238.73
473.31	264.48
473.49	220.01
473.67	149.79
473.85	271.50
474.03	205.97
474.21	255.12
474.39	198.95
474.57	257.46
474.75	215.33
474.93	194.26
475.12	224.69
475.30	182.56
475.48	189.58
475.66	217.67
475.84	264.48
476.02	264.48
476.20	273.84
476.38	180.22
476.56	231.71
476.74	182.56
476.92	250.44
477.10	264.48
477.28	306.61
477.46	262.14
477.64	278.52
477.82	191.92
478.00	212.99
478.18	227.03
478.36	194.26
478.54	210.65
478.72	266.82
478.90	248.10
479.08	243.42
479.26	224.69
479.44	236.39
479.62	201.29
479.80	217.67
479.98	259.80
480.16	271.50
480.34	257.46
480.52	290.23
480.70	243.42
480.88	224.69
481.06	255.12
481.24	297.25
481.41	229.37
481.59	290.23
481.77	315.97
481.95	332.36
482.13	355.76
482.31	353.42
482.49	341.72
482.67	362.78
482.85	402.57
483.03	395.55
483.21	437.68
483.39	454.06
483.57	468.11
483.74	526.62
483.92	482.15
484.10	531.30
484.28	615.56
484.46	578.11
484.64	592.16
484.82	538.32
485.00	685.78
485.18	608.54
485.35	678.76
485.53	596.84
485.71	638.97
485.89	716.20
486.07	655.35
486.25	681.10
486.43	765.36
486.61	807.48
486.78	814.51
486.96	655.35
487.14	802.80
487.32	720.88
487.50	779.40
487.68	730.25
487.85	748.97
488.03	739.61
488.21	774.72
488.39	730.25
488.57	688.12
488.75	634.29
488.92	940.90
489.10	690.46
489.28	741.95
489.46	683.44
489.64	674.07
489.81	674.07
489.99	620.24
490.17	543.00
490.35	678.76
490.53	615.56
490.70	596.84
490.88	624.92
491.06	669.39
491.24	671.73
491.41	671.73
491.59	653.01
491.77	636.63
491.95	512.58
492.13	627.26
492.30	550.03
492.48	486.83
492.66	594.50
492.84	592.16
493.01	564.07
493.19	564.07
493.37	594.50
493.54	575.77
493.72	496.19
493.90	550.03
494.08	491.51
494.25	512.58
494.43	594.50
494.61	543.00
494.79	524.28
494.96	505.56
495.14	475.13
495.32	524.28
495.49	500.87
495.67	521.94
495.85	461.09
496.02	395.55
496.20	435.34
496.38	484.49
496.55	418.96
496.73	435.34
496.91	369.80
497.09	507.90
497.26	433.00
497.44	458.74
497.62	404.91
497.79	423.64
497.97	484.49
498.14	435.34
498.32	435.34
498.50	461.09
498.67	369.80
498.85	395.55
499.03	395.55
499.20	454.06
499.38	344.06
499.56	358.10
499.73	479.81
499.91	388.53
500.08	280.86
500.26	358.10
500.44	322.99
500.61	264.48
500.79	367.46
500.97	388.53
501.14	383.85
501.32	337.04
501.49	390.87
501.67	297.25
501.84	346.40
502.02	318.31
502.20	468.11
502.37	304.27
502.55	266.82
502.72	269.16
502.90	337.04
503.07	381.51
503.25	271.50
503.43	212.99
503.60	337.04
503.78	243.42
503.95	297.25
504.13	318.31
504.30	358.10
504.48	318.31
504.65	327.68
504.83	278.52
505.01	388.53
505.18	320.65
505.36	266.82
505.53	325.33
505.71	290.23
505.88	187.24
506.06	273.84
506.23	313.63
506.41	294.91
506.58	236.39
506.76	297.25
506.93	231.71
507.11	229.37
507.28	241.08
507.46	278.52
507.63	304.27
507.81	294.91
507.98	250.44
508.16	294.91
508.33	294.91
508.50	341.72
508.68	308.95
508.85	299.59
509.03	255.12
509.20	205.97
509.38	276.18
509.55	332.36
509.73	299.59
509.90	372.15
510.08	285.55
510.25	297.25
510.42	299.59
510.60	259.80
510.77	301.93
510.95	313.63
511.12	259.80
511.30	318.31
511.47	287.89
511.64	304.27
511.82	299.59
511.99	245.76
512.17	243.42
512.34	280.86
512.51	287.89
512.69	264.48
512.86	292.57
513.04	262.14
513.21	304.27
513.38	264.48
513.56	245.76
513.73	252.78
513.90	187.24
514.08	273.84
514.25	280.86
514.43	259.80
514.60	278.52
514.77	280.86
514.95	332.36
515.12	259.80
515.29	290.23
515.47	369.80
515.64	205.97
515.81	334.70
515.99	313.63
516.16	264.48
516.33	255.12
516.51	234.05
516.68	215.33
516.85	236.39
517.03	215.33
517.20	203.63
517.37	217.67
517.54	257.46
517.72	262.14
517.89	306.61
518.06	278.52
518.24	360.44
518.41	245.76
518.58	259.80
518.75	344.06
518.93	280.86
519.10	308.95
519.27	308.95
519.45	337.04
519.62	248.10
519.79	320.65
519.96	229.37
520.14	191.92
520.31	248.10
520.48	259.80
520.65	304.27
520.83	276.18
521.00	318.31
521.17	337.04
521.34	229.37
521.52	299.59
521.69	252.78
521.86	231.71
522.03	287.89
522.20	283.20
522.38	248.10
522.55	301.93
522.72	280.86
522.89	241.08
523.07	325.33
523.24	322.99
523.41	224.69
523.58	297.25
523.75	299.59
523.92	259.80
524.10	222.35
524.27	311.29
524.44	262.14
524.61	273.84
524.78	234.05
524.96	330.02
525.13	294.91
525.30	292.57
525.47	318.31
525.64	290.23
525.81	271.50
525.98	229.37
526.16	318.31
526.33	276.18
526.50	301.93
526.67	182.56
526.84	355.76
527.01	433.00
527.18	318.31
527.36	409.59
527.53	269.16
527.70	372.15
527.87	266.82
528.04	231.71
528.21	250.44
528.38	273.84
528.55	287.89
528.72	346.40
528.89	327.68
529.07	367.46
529.24	299.59
529.41	273.84
529.58	259.80
529.75	388.53
529.92	278.52
530.09	318.31
530.26	264.48
530.43	320.65
530.60	278.52
530.77	358.10
530.94	346.40
531.11	360.44
531.28	304.27
531.46	276.18
531.63	285.55
531.80	306.61
531.97	311.29
532.14	388.53
532.31	409.59
532.48	472.79
532.65	479.81
532.82	447.04
532.99	470.45
533.16	545.34
533.33	479.81
533.50	463.43
533.67	418.96
533.84	463.43
534.01	468.11
534.18	362.78
534.35	442.36
534.52	421.30
534.69	468.11
534.86	402.57
535.03	306.61
535.20	543.00
535.37	491.51
535.54	421.30
535.71	421.30
535.88	535.98
536.05	475.13
536.22	561.73
536.38	585.13
536.55	568.75
536.72	568.75
536.89	688.12
537.06	760.67
537.23	760.67
537.40	840.25
537.57	915.15
537.74	868.34
537.91	903.45
538.08	997.07
538.25	1008.77
538.42	1067.28
538.59	1029.84
538.75	1027.50
538.92	1139.84
539.09	1153.88
539.26	1233.46
539.43	1444.11
539.60	1586.88
539.77	1724.97
539.94	1872.43
540.11	2134.57
540.28	2244.57
540.44	2457.56
540.61	2588.63
540.78	3080.14
540.95	3641.87
541.12	4205.94
541.29	4479.79
541.46	4865.97
541.62	4709.16
541.79	4463.40
541.96	4271.48
542.13	4142.75
542.30	3744.86
542.47	3618.47
542.63	3478.04
542.80	3466.33
542.97	3452.29
543.14	3377.39
543.31	3361.01
543.48	3471.01
543.64	3426.54
543.81	3272.07
543.98	3358.67
544.15	3501.44
544.32	3445.27
544.48	3459.31
544.65	3321.22
544.82	3391.44
544.99	3243.98
545.16	3398.46
545.32	3777.62
545.49	7201.83
545.66	10839.02
545.83	11995.25
546.00	10040.90
546.16	7180.76
546.33	5275.57
546.50	4042.11
546.67	3351.65
546.83	2981.84
547.00	2757.15
547.17	2710.34
547.34	2593.31
547.50	2431.82
547.67	2394.37
547.84	2253.94
548.00	2300.75
548.17	2160.31
548.34	2050.31
548.51	2155.63
548.67	1930.94
548.84	1893.49
549.01	1895.83
549.18	1818.60
549.34	1739.02
549.51	1584.54
549.68	1657.10
549.84	1526.03
550.01	1521.35
550.18	1535.39
550.34	1399.64
550.51	1390.28
550.68	1287.29
550.84	1186.65
551.01	1235.80
551.18	1109.41
551.34	1008.77
551.51	1013.45
551.68	978.34
551.84	987.71
552.01	973.66
552.18	926.85
552.34	954.94
552.51	947.92
552.68	826.21
552.84	760.67
553.01	912.81
553.18	784.08
553.34	795.78
553.51	725.57
553.67	706.84
553.84	692.80
554.01	634.29
554.17	753.65
554.34	629.60
554.51	622.58
554.67	589.82
554.84	528.96
555.00	496.19
555.17	482.15
555.33	573.43
555.50	512.58
555.67	578.11
555.83	386.19
556.00	395.55
556.16	517.26
556.33	442.36
556.50	491.51
556.66	388.53
556.83	400.23
556.99	353.42
557.16	433.00
557.32	362.78
557.49	433.00
557.65	374.49
557.82	390.87
557.98	397.89
558.15	353.42
558.32	353.42
558.48	430.66
558.65	344.06
558.81	348.74
558.98	351.08
559.14	442.36
559.31	383.85
559.47	311.29
559.64	341.72
559.80	365.12
559.97	372.15
560.13	348.74
560.30	351.08
560.46	339.38
560.63	367.46
560.79	339.38
560.96	383.85
561.12	409.59
561.29	393.21
561.45	299.59
561.61	362.78
561.78	374.49
561.94	306.61
562.11	299.59
562.27	362.78
562.44	322.99
562.60	393.21
562.77	271.50
562.93	313.63
563.10	287.89
563.26	304.27
563.42	339.38
563.59	290.23
563.75	248.10
563.92	327.68
564.08	280.86
564.24	360.44
564.41	414.27
564.57	287.89
564.74	353.42
564.90	318.31
565.07	360.44
565.23	278.52
565.39	294.91
565.56	280.86
565.72	299.59
565.88	262.14
566.05	243.42
566.21	344.06
566.38	332.36
566.54	306.61
566.70	252.78
566.87	301.93
567.03	308.95
567.19	304.27
567.36	346.40
567.52	278.52
567.68	257.46
567.85	348.74
568.01	264.48
568.17	318.31
568.34	262.14
568.50	348.74
568.66	299.59
568.83	383.85
568.99	332.36
569.15	304.27
569.32	362.78
569.48	215.33
569.64	276.18
569.81	283.20
569.97	227.03
570.13	257.46
570.30	210.65
570.46	276.18
570.62	248.10
570.78	325.33
570.95	229.37
571.11	318.31
571.27	301.93
571.43	292.57
571.60	325.33
571.76	255.12
571.92	353.42
572.09	250.44
572.25	311.29
572.41	283.20
572.57	278.52
572.74	353.42
572.90	259.80
573.06	238.73
573.22	367.46
573.38	365.12
573.55	327.68
573.71	294.91
573.87	271.50
574.03	334.70
574.20	248.10
574.36	304.27
574.52	278.52
574.68	344.06
574.84	358.10
575.01	264.48
575.17	362.78
575.33	294.91
575.49	327.68
575.65	381.51
575.82	393.21
575.98	346.40
576.14	369.80
576.30	725.57
576.46	1647.74
576.62	2253.94
576.79	2326.49
576.95	1614.97
577.11	1235.80
577.27	791.10
577.43	657.69
577.59	498.53
577.75	451.72
577.92	428.32
578.08	447.04
578.24	423.64
578.40	786.42
578.56	1537.73
578.72	2033.93
578.88	1996.48
579.04	1610.29
579.21	1179.63
579.37	854.30
579.53	889.40
579.69	821.53
579.85	896.43
580.01	987.71
580.17	1013.45
580.33	821.53
580.49	770.04
580.65	702.16
580.82	667.05
580.98	592.16
581.14	664.71
581.30	760.67
581.46	786.42
581.62	760.67
581.78	833.23
581.94	812.17
582.10	943.24
582.26	983.02
582.42	990.05
582.58	884.72
582.74	959.62
582.90	1029.84
583.06	1046.22
583.22	978.34
583.38	1020.47
583.54	985.37
583.70	1137.50
583.86	1020.47
584.02	936.21
584.18	973.66
584.34	1004.09
584.50	877.70
584.66	950.26
584.82	884.72
584.98	868.34
585.14	957.28
585.30	901.11
585.46	844.93
585.62	828.55
585.78	919.83
585.94	851.96
586.10	830.89
586.26	880.04
586.42	1060.26
586.58	1210.06
586.74	1488.58
586.90	1626.67
587.06	1652.42
587.22	1507.30
587.38	1516.67
587.54	1364.53
587.70	1062.60
587.86	961.96
588.02	837.91
588.18	763.01
588.34	793.44
588.49	697.48
588.65	641.31
588.81	641.31
588.97	678.76
589.13	606.20
589.29	554.71
589.45	603.86
589.61	648.33
589.77	662.37
589.93	636.63
590.08	622.58
590.24	594.50
590.40	660.03
590.56	709.18
590.72	709.18
590.88	739.61
591.04	746.63
591.20	842.59
591.35	730.25
591.51	788.76
591.67	760.67
591.83	821.53
591.99	912.81
592.15	947.92
592.31	1057.92
592.46	1121.12
592.62	1109.41
592.78	1289.64
592.94	1350.49
593.10	1125.80
593.26	1151.54
593.41	1097.71
593.57	985.37
593.73	910.47
593.89	786.42
594.05	753.65
594.20	678.76
594.36	718.54
594.52	587.47
594.68	624.92
594.84	648.33
594.99	638.97
595.15	620.24
595.31	589.82
595.47	627.26
595.62	573.43
595.78	545.34
595.94	573.43
596.10	566.41
596.25	524.28
596.41	580.45
596.57	545.34
596.73	510.24
596.88	629.60
597.04	547.69
597.20	580.45
597.36	617.90
597.51	617.90
597.67	547.69
597.83	545.34
597.99	685.78
598.14	727.91
598.30	723.23
598.46	734.93
598.61	758.33
598.77	786.42
598.93	812.17
599.09	870.68
599.24	816.85
599.40	770.04
599.56	800.46
599.71	816.85
599.87	732.59
600.03	690.46
600.18	685.78
600.34	622.58
600.50	655.35
600.65	575.77
600.81	601.52
600.97	538.32
601.12	517.26
601.28	566.41
601.44	594.50
601.59	465.77
601.75	430.66
601.91	482.15
602.06	489.17
602.22	557.05
602.37	493.85
602.53	430.66
602.69	526.62
602.84	423.64
603.00	388.53
603.16	430.66
603.31	353.42
603.47	531.30
603.62	463.43
603.78	477.47
603.94	486.83
604.09	444.70
604.25	425.98
604.40	409.59
604.56	503.22
604.71	477.47
604.87	468.11
605.03	451.72
605.18	512.58
605.34	550.03
605.49	557.05
605.65	503.22
605.80	552.37
605.96	507.90
606.12	547.69
606.27	601.52
606.43	606.20
606.58	631.94
606.74	594.50
606.89	493.85
607.05	662.37
607.20	599.18
607.36	767.70
607.51	610.88
607.67	737.27
607.82	788.76
607.98	821.53
608.13	861.32
608.29	961.96
608.44	1111.75
608.60	1125.80
608.75	1207.72
608.91	1270.91
609.06	1413.68
609.22	1579.86
609.37	1638.38
609.53	1940.30
609.68	2026.90
609.84	2457.56
