SpectraSuite Data File
++++++++++++++++++++++++++++++++++++
Date: Fri Oct 04 11:41:48 GMT-05:00 2013
User: price-jones
Dark Spectrum Present: No
Reference Spectrum Present: No
Number of Sampled Component Spectra: 1
Spectrometers: USB2+H05261
Integration Time (usec): 100000 (USB2+H05261)
Spectra Averaged: 1 (USB2+H05261)
Boxcar Smoothing: 0 (USB2+H05261)
Correct for Electrical Dark: No (USB2+H05261)
Strobe/Lamp Enabled: No (USB2+H05261)
Correct for Detector Non-linearity: No (USB2+H05261)
Correct for Stray Light: No (USB2+H05261)
Number of Pixels in Processed Spectrum: 2048
>>>>>Begin Processed Spectral Data<<<<<
365.73	23.41
365.92	23.41
366.12	23.41
366.32	0.00
366.52	0.00
366.72	7.02
366.91	0.00
367.11	0.00
367.31	0.00
367.51	0.00
367.70	0.00
367.90	0.00
368.10	0.00
368.30	0.00
368.49	0.00
368.69	0.00
368.89	0.00
369.09	0.00
369.28	0.00
369.48	0.00
369.68	37.45
369.87	67.88
370.07	4.68
370.27	25.75
370.47	60.85
370.66	14.04
370.86	39.79
371.06	74.90
371.25	30.43
371.45	16.38
371.65	0.00
371.84	53.83
372.04	37.45
372.24	16.38
372.44	81.92
372.63	88.94
372.83	205.97
373.03	156.82
373.22	145.11
373.42	32.77
373.62	149.79
373.81	187.24
374.01	205.97
374.21	163.84
374.40	159.16
374.60	140.43
374.79	142.77
374.99	149.79
375.19	126.39
375.38	161.50
375.58	119.37
375.78	119.37
375.97	112.35
376.17	191.92
376.37	126.39
376.56	140.43
376.76	156.82
376.95	154.48
377.15	135.75
377.35	102.98
377.54	212.99
377.74	112.35
377.93	51.49
378.13	184.90
378.33	100.64
378.52	107.66
378.72	154.48
378.91	147.45
379.11	58.51
379.31	152.13
379.50	135.75
379.70	177.88
379.89	114.69
380.09	163.84
380.28	159.16
380.48	147.45
380.68	77.24
380.87	93.62
381.07	91.28
381.26	126.39
381.46	84.26
381.65	182.56
381.85	110.01
382.04	100.64
382.24	149.79
382.43	175.54
382.63	177.88
382.83	126.39
383.02	173.20
383.22	168.52
383.41	105.32
383.61	222.35
383.80	88.94
384.00	98.30
384.19	177.88
384.39	187.24
384.58	168.52
384.78	138.09
384.97	67.88
385.17	203.63
385.36	175.54
385.56	100.64
385.75	110.01
385.95	112.35
386.14	107.66
386.34	74.90
386.53	86.60
386.72	88.94
386.92	110.01
387.11	177.88
387.31	128.73
387.50	177.88
387.70	135.75
387.89	140.43
388.09	161.50
388.28	77.24
388.48	126.39
388.67	149.79
388.86	126.39
389.06	128.73
389.25	159.16
389.45	39.79
389.64	159.16
389.84	84.26
390.03	117.03
390.22	133.41
390.42	126.39
390.61	133.41
390.81	149.79
391.00	138.09
391.19	196.60
391.39	107.66
391.58	138.09
391.78	114.69
391.97	58.51
392.16	74.90
392.36	135.75
392.55	107.66
392.75	112.35
392.94	107.66
393.13	196.60
393.33	67.88
393.52	88.94
393.71	205.97
393.91	95.96
394.10	135.75
394.29	114.69
394.49	88.94
394.68	168.52
394.88	114.69
395.07	163.84
395.26	177.88
395.46	79.58
395.65	175.54
395.84	168.52
396.04	128.73
396.23	163.84
396.42	138.09
396.62	217.67
396.81	63.19
397.00	88.94
397.19	145.11
397.39	170.86
397.58	159.16
397.77	114.69
397.97	100.64
398.16	177.88
398.35	166.18
398.55	110.01
398.74	128.73
398.93	126.39
399.12	112.35
399.32	191.92
399.51	175.54
399.70	201.29
399.90	175.54
400.09	145.11
400.28	133.41
400.47	189.58
400.67	138.09
400.86	126.39
401.05	156.82
401.24	147.45
401.44	187.24
401.63	168.52
401.82	217.67
402.01	135.75
402.21	217.67
402.40	170.86
402.59	236.39
402.78	241.08
402.97	215.33
403.17	248.10
403.36	266.82
403.55	358.10
403.74	763.01
403.93	2284.36
404.13	5895.81
404.32	9944.94
404.51	11000.52
404.70	7070.76
404.89	2420.11
405.09	711.52
405.28	369.80
405.47	276.18
405.66	259.80
405.85	262.14
406.05	269.16
406.24	189.58
406.43	229.37
406.62	271.50
406.81	245.76
407.00	379.17
407.20	676.41
407.39	1207.72
407.58	1624.33
407.77	1275.59
407.96	653.01
408.15	297.25
408.34	224.69
408.54	252.78
408.73	173.20
408.92	269.16
409.11	203.63
409.30	252.78
409.49	224.69
409.68	229.37
409.87	238.73
410.07	170.86
410.26	227.03
410.45	245.76
410.64	243.42
410.83	245.76
411.02	236.39
411.21	208.31
411.40	255.12
411.59	259.80
411.78	257.46
411.98	189.58
412.17	266.82
412.36	278.52
412.55	276.18
412.74	271.50
412.93	287.89
413.12	180.22
413.31	271.50
413.50	236.39
413.69	269.16
413.88	210.65
414.07	313.63
414.26	264.48
414.45	271.50
414.64	346.40
414.83	231.71
415.02	255.12
415.22	257.46
415.41	325.33
415.60	276.18
415.79	292.57
415.98	353.42
416.17	208.31
416.36	217.67
416.55	234.05
416.74	313.63
416.93	304.27
417.12	297.25
417.31	255.12
417.50	276.18
417.69	308.95
417.88	318.31
418.07	257.46
418.26	353.42
418.45	402.57
418.64	367.46
418.83	313.63
419.02	250.44
419.21	374.49
419.39	294.91
419.58	344.06
419.77	334.70
419.96	353.42
420.15	372.15
420.34	313.63
420.53	334.70
420.72	369.80
420.91	264.48
421.10	334.70
421.29	369.80
421.48	346.40
421.67	346.40
421.86	414.27
422.05	269.16
422.24	353.42
422.43	390.87
422.61	362.78
422.80	367.46
422.99	374.49
423.18	344.06
423.37	393.21
423.56	383.85
423.75	337.04
423.94	339.38
424.13	383.85
424.32	381.51
424.50	416.62
424.69	376.83
424.88	397.89
425.07	348.74
425.26	425.98
425.45	374.49
425.64	402.57
425.83	423.64
426.01	376.83
426.20	470.45
426.39	442.36
426.58	386.19
426.77	468.11
426.96	510.24
427.15	395.55
427.33	458.74
427.52	386.19
427.71	348.74
427.90	489.17
428.09	416.62
428.28	428.32
428.46	425.98
428.65	456.40
428.84	433.00
429.03	526.62
429.22	465.77
429.40	524.28
429.59	475.13
429.78	437.68
429.97	428.32
430.16	493.85
430.34	447.04
430.53	479.81
430.72	470.45
430.91	517.26
431.10	404.91
431.28	550.03
431.47	491.51
431.66	524.28
431.85	500.87
432.03	489.17
432.22	641.31
432.41	592.16
432.60	624.92
432.79	493.85
432.97	594.50
433.16	645.99
433.35	702.16
433.54	809.83
433.72	905.79
433.91	924.51
434.10	931.53
434.28	1160.91
434.47	1380.92
434.66	1455.81
434.85	1769.44
435.03	4049.13
435.22	14513.66
435.41	36603.64
435.59	51253.05
435.78	41422.80
435.97	18244.48
436.16	6719.68
436.34	2165.00
436.53	1228.78
436.72	945.58
436.90	903.45
437.09	844.93
437.28	767.70
437.46	748.97
437.65	608.54
437.84	645.99
438.02	657.69
438.21	723.23
438.40	594.50
438.58	653.01
438.77	709.18
438.96	664.71
439.14	582.79
439.33	615.56
439.52	627.26
439.70	613.22
439.89	587.47
440.08	608.54
440.26	685.78
440.45	645.99
440.63	559.39
440.82	620.24
441.01	608.54
441.19	603.86
441.38	608.54
441.57	657.69
441.75	568.75
441.94	704.50
442.12	622.58
442.31	613.22
442.50	664.71
442.68	655.35
442.87	692.80
443.05	568.75
443.24	608.54
443.43	772.38
443.61	622.58
443.80	519.60
443.98	557.05
444.17	615.56
444.35	550.03
444.54	547.69
444.73	613.22
444.91	603.86
445.10	566.41
445.28	550.03
445.47	587.47
445.65	613.22
445.84	617.90
446.02	645.99
446.21	589.82
446.39	568.75
446.58	587.47
446.77	613.22
446.95	697.48
447.14	627.26
447.32	664.71
447.51	493.85
447.69	617.90
447.88	620.24
448.06	650.67
448.25	692.80
448.43	617.90
448.62	594.50
448.80	521.94
448.99	596.84
449.17	622.58
449.36	550.03
449.54	531.30
449.73	641.31
449.91	667.05
450.10	653.01
450.28	631.94
450.46	596.84
450.65	657.69
450.83	650.67
451.02	678.76
451.20	631.94
451.39	622.58
451.57	610.88
451.76	575.77
451.94	641.31
452.13	582.79
452.31	596.84
452.49	709.18
452.68	645.99
452.86	566.41
453.05	725.57
453.23	669.39
453.42	603.86
453.60	580.45
453.78	629.60
453.97	528.96
454.15	573.43
454.34	678.76
454.52	603.86
454.70	627.26
454.89	566.41
455.07	678.76
455.26	601.52
455.44	631.94
455.62	547.69
455.81	653.01
455.99	636.63
456.17	617.90
456.36	664.71
456.54	667.05
456.73	596.84
456.91	664.71
457.09	519.60
457.28	585.13
457.46	578.11
457.64	582.79
457.83	627.26
458.01	631.94
458.19	643.65
458.38	514.92
458.56	601.52
458.74	528.96
458.93	601.52
459.11	561.73
459.29	650.67
459.48	610.88
459.66	690.46
459.84	568.75
460.03	660.03
460.21	580.45
460.39	573.43
460.57	622.58
460.76	503.22
460.94	627.26
461.12	622.58
461.31	608.54
461.49	596.84
461.67	545.34
461.85	599.18
462.04	561.73
462.22	1006.43
462.40	503.22
462.59	643.65
462.77	603.86
462.95	636.63
463.13	545.34
463.32	575.77
463.50	587.47
463.68	587.47
463.86	667.05
464.05	608.54
464.23	545.34
464.41	594.50
464.59	599.18
464.78	561.73
464.96	589.82
465.14	561.73
465.32	596.84
465.50	463.43
465.69	559.39
465.87	505.56
466.05	603.86
466.23	514.92
466.41	660.03
466.60	667.05
466.78	667.05
466.96	624.92
467.14	655.35
467.32	631.94
467.51	545.34
467.69	643.65
467.87	503.22
468.05	538.32
468.23	601.52
468.41	545.34
468.60	512.58
468.78	571.09
468.96	533.64
469.14	559.39
469.32	484.49
469.50	463.43
469.69	505.56
469.87	514.92
470.05	566.41
470.23	507.90
470.41	512.58
470.59	500.87
470.77	521.94
470.95	571.09
471.14	552.37
471.32	526.62
471.50	566.41
471.68	571.09
471.86	603.86
472.04	526.62
472.22	550.03
472.40	540.66
472.58	592.16
472.77	585.13
472.95	507.90
473.13	566.41
473.31	524.28
473.49	545.34
473.67	545.34
473.85	615.56
474.03	519.60
474.21	496.19
474.39	610.88
474.57	603.86
474.75	545.34
474.93	543.00
475.12	519.60
475.30	561.73
475.48	606.20
475.66	517.26
475.84	538.32
476.02	521.94
476.20	517.26
476.38	608.54
476.56	589.82
476.74	587.47
476.92	585.13
477.10	564.07
477.28	594.50
477.46	538.32
477.64	596.84
477.82	582.79
478.00	587.47
478.18	650.67
478.36	557.05
478.54	627.26
478.72	606.20
478.90	634.29
479.08	737.27
479.26	706.84
479.44	662.37
479.62	711.52
479.80	816.85
479.98	758.33
480.16	798.12
480.34	837.91
480.52	840.25
480.70	887.06
480.88	891.74
481.06	1029.84
481.24	1041.54
481.41	1078.99
481.59	1184.31
481.77	1121.12
481.95	1158.57
482.13	1345.81
482.31	1474.54
482.49	1544.75
482.67	1645.40
482.85	1797.53
483.03	1994.14
483.21	2047.97
483.39	2176.70
483.57	2347.56
483.74	2438.84
483.92	2513.74
484.10	2635.44
484.28	2825.03
484.46	3061.42
484.64	3211.22
484.82	3295.47
485.00	3503.78
485.18	3639.53
485.35	3939.12
485.53	4025.72
485.71	4339.35
485.89	4416.59
486.07	4643.62
486.25	4681.07
486.43	4755.97
486.61	4784.06
486.78	4652.98
486.96	4770.01
487.14	4723.20
487.32	4690.43
487.50	4484.47
487.68	4620.22
487.85	4463.40
488.03	4414.25
488.21	4535.96
488.39	4390.84
488.57	4166.15
488.75	4100.62
488.92	4306.59
489.10	3840.82
489.28	3992.95
489.46	3824.44
489.64	3674.64
489.81	3786.99
489.99	3414.84
490.17	3524.85
490.35	3609.11
490.53	3396.12
490.70	3529.53
490.88	3405.48
491.06	3674.64
491.24	3824.44
491.41	4142.75
491.59	3794.01
491.77	3538.89
491.95	3386.76
492.13	3171.43
492.30	3201.85
492.48	3105.89
492.66	3133.98
492.84	3073.12
493.01	3007.59
493.19	2974.82
493.37	3002.91
493.54	2885.88
493.72	2913.97
493.90	2719.70
494.08	2658.85
494.25	2757.15
494.43	2747.79
494.61	2726.72
494.79	2626.08
494.96	2495.01
495.14	2406.07
495.32	2497.35
495.49	2485.65
495.67	2408.41
495.85	2342.88
496.02	2263.30
496.20	2413.09
496.38	2326.49
496.55	2216.49
496.73	2345.22
496.91	2111.16
497.09	2085.42
497.26	2099.46
497.44	2064.35
497.62	2010.52
497.79	1870.09
497.97	1947.33
498.14	1830.30
498.32	1921.58
498.50	1774.13
498.67	1760.08
498.85	1678.16
499.03	1582.20
499.20	1544.75
499.38	1720.29
499.56	1621.99
499.73	1591.56
499.91	1495.60
500.08	1446.45
500.26	1369.21
500.44	1432.41
500.61	1378.58
500.79	1273.25
500.97	1268.57
501.14	1247.51
501.32	1165.59
501.49	1174.95
501.67	1167.93
501.84	1074.31
502.02	1121.12
502.20	1114.10
502.37	1071.97
502.55	957.28
502.72	863.66
502.90	983.02
503.07	922.17
503.25	964.30
503.43	908.13
503.60	901.11
503.78	891.74
503.95	823.87
504.13	821.53
504.30	788.76
504.48	849.61
504.65	809.83
504.83	814.51
505.01	765.36
505.18	741.95
505.36	765.36
505.53	807.48
505.71	643.65
505.88	667.05
506.06	589.82
506.23	688.12
506.41	606.20
506.58	622.58
506.76	617.90
506.93	641.31
507.11	638.97
507.28	566.41
507.46	617.90
507.63	557.05
507.81	545.34
507.98	575.77
508.16	617.90
508.33	622.58
508.50	620.24
508.68	559.39
508.85	631.94
509.03	631.94
509.20	695.14
509.38	596.84
509.55	592.16
509.73	606.20
509.90	620.24
510.08	564.07
510.25	648.33
510.42	608.54
510.60	512.58
510.77	535.98
510.95	585.13
511.12	470.45
511.30	568.75
511.47	456.40
511.64	540.66
511.82	559.39
511.99	524.28
512.17	521.94
512.34	585.13
512.51	594.50
512.69	493.85
512.86	491.51
513.04	486.83
513.21	470.45
513.38	538.32
513.56	447.04
513.73	468.11
513.90	416.62
514.08	468.11
514.25	477.47
514.43	521.94
514.60	463.43
514.77	521.94
514.95	470.45
515.12	456.40
515.29	454.06
515.47	425.98
515.64	470.45
515.81	592.16
515.99	505.56
516.16	477.47
516.33	510.24
516.51	433.00
516.68	465.77
516.85	503.22
517.03	397.89
517.20	543.00
517.37	386.19
517.54	369.80
517.72	390.87
517.89	383.85
518.06	383.85
518.24	430.66
518.41	440.02
518.58	374.49
518.75	458.74
518.93	369.80
519.10	433.00
519.27	407.25
519.45	479.81
519.62	470.45
519.79	418.96
519.96	463.43
520.14	437.68
520.31	489.17
520.48	411.93
520.65	454.06
520.83	451.72
521.00	433.00
521.17	458.74
521.34	341.72
521.52	360.44
521.69	486.83
521.86	416.62
522.03	416.62
522.20	447.04
522.38	461.09
522.55	411.93
522.72	379.17
522.89	484.49
523.07	444.70
523.24	381.51
523.41	451.72
523.58	510.24
523.75	444.70
523.92	540.66
524.10	411.93
524.27	423.64
524.44	386.19
524.61	514.92
524.78	388.53
524.96	442.36
525.13	479.81
525.30	486.83
525.47	451.72
525.64	510.24
525.81	507.90
525.98	486.83
526.16	552.37
526.33	428.32
526.50	463.43
526.67	517.26
526.84	397.89
527.01	540.66
527.18	521.94
527.36	571.09
527.53	615.56
527.70	641.31
527.87	540.66
528.04	568.75
528.21	517.26
528.38	535.98
528.55	653.01
528.72	566.41
528.89	545.34
529.07	674.07
529.24	589.82
529.41	601.52
529.58	587.47
529.75	662.37
529.92	688.12
530.09	615.56
530.26	634.29
530.43	627.26
530.60	716.20
530.77	734.93
530.94	718.54
531.11	711.52
531.28	706.84
531.46	767.70
531.63	805.14
531.80	854.30
531.97	933.87
532.14	997.07
532.31	1172.61
532.48	1467.52
532.65	1657.10
532.82	1888.81
532.99	2181.38
533.16	2658.85
533.33	2876.52
533.50	2597.99
533.67	2242.23
533.84	1998.82
534.01	1729.66
534.18	1481.56
534.35	1549.43
534.52	1542.41
534.69	1600.93
534.86	1624.33
535.03	1624.33
535.20	1809.23
535.37	1851.36
535.54	1937.96
535.71	2059.67
535.88	2225.85
536.05	2256.28
536.22	2534.80
536.38	2705.66
536.55	3077.80
536.72	3206.53
536.89	3693.37
537.06	4203.60
537.23	4709.16
537.40	5114.07
537.57	5439.40
537.74	5846.66
537.91	6183.70
538.08	6120.50
538.25	6403.71
538.42	6396.68
538.59	6665.85
538.75	6792.23
538.92	7169.06
539.09	7805.69
539.26	8723.18
539.43	9778.76
539.60	11052.01
539.77	12430.59
539.94	14090.02
540.11	15807.98
540.28	16973.56
540.44	19145.58
540.61	20690.34
540.78	23576.22
540.95	28074.73
541.12	33956.49
541.29	39445.05
541.46	41638.13
541.62	41975.17
541.79	40334.45
541.96	36837.69
542.13	34141.39
542.30	31978.74
542.47	29521.18
542.63	27782.16
542.80	27136.17
542.97	26857.65
543.14	26553.38
543.31	26698.49
543.48	26745.30
543.64	27154.90
543.81	27077.66
543.98	27433.42
544.15	27709.60
544.32	27957.70
544.48	27812.59
544.65	27386.61
544.82	26827.22
544.99	26909.14
545.16	27402.99
545.32	28388.36
545.49	41195.77
545.66	60807.12
545.83	65535.00
546.00	65535.00
546.16	63697.68
546.33	46752.20
546.50	36285.33
546.67	28549.85
546.83	25298.85
547.00	24004.53
547.17	22857.67
547.34	22143.81
547.50	21088.23
547.67	20535.86
547.84	19379.64
548.00	19000.47
548.17	18160.22
548.34	17261.45
548.51	16657.59
548.67	15723.72
548.84	15096.46
549.01	14331.10
549.18	13806.82
549.34	12973.59
549.51	12613.15
549.68	12283.13
549.84	11620.76
550.01	11283.72
550.18	10597.95
550.34	10267.93
550.51	9469.81
550.68	9125.75
550.84	8528.91
551.01	8215.28
551.18	7630.15
551.34	7316.51
551.51	7061.40
551.68	6684.57
551.84	6630.74
552.01	6590.95
552.18	6207.10
552.34	5736.65
552.51	5460.47
552.68	5308.34
552.84	4980.66
553.01	4779.37
553.18	4802.78
553.34	4582.77
553.51	4505.53
553.67	4285.52
553.84	4241.05
554.01	3908.69
554.17	3552.93
554.34	3447.61
554.51	3241.64
554.67	3066.10
554.84	2862.48
555.00	2658.85
555.17	2537.14
555.33	2513.74
555.50	2541.82
555.67	2352.24
555.83	2129.89
556.00	1980.09
556.16	2080.74
556.33	1902.86
556.50	1902.86
556.66	1802.21
556.83	1682.85
556.99	1717.95
557.16	1528.37
557.32	1626.67
557.49	1528.37
557.65	1558.80
557.82	1490.92
557.98	1352.83
558.15	1476.88
558.32	1390.28
558.48	1284.95
558.65	1277.93
558.81	1294.32
558.98	1191.33
559.14	1228.78
559.31	1217.08
559.47	1137.50
559.64	1179.63
559.80	1153.88
559.97	1090.69
560.13	1174.95
560.30	1050.90
560.46	990.05
560.63	1008.77
560.79	1142.18
560.96	1071.97
561.12	1006.43
561.29	1067.28
561.45	1015.79
561.61	1027.50
561.78	1170.27
561.94	1064.94
562.11	936.21
562.27	1107.07
562.44	994.73
562.60	952.60
562.77	999.41
562.93	1029.84
563.10	990.05
563.26	1088.35
563.42	1029.84
563.59	985.37
563.75	933.87
563.92	894.08
564.08	957.28
564.24	901.11
564.41	938.55
564.57	882.38
564.74	861.32
564.90	777.06
565.07	854.30
565.23	784.08
565.39	737.27
565.56	812.17
565.72	795.78
565.88	788.76
566.05	774.72
566.21	802.80
566.38	777.06
566.54	791.10
566.70	788.76
566.87	788.76
567.03	760.67
567.19	870.68
567.36	849.61
567.52	737.27
567.68	840.25
567.85	877.70
568.01	739.61
568.17	748.97
568.34	903.45
568.50	858.98
568.66	847.27
568.83	908.13
568.99	805.14
569.15	826.21
569.32	784.08
569.48	709.18
569.64	709.18
569.81	610.88
569.97	613.22
570.13	622.58
570.30	624.92
570.46	613.22
570.62	596.84
570.78	603.86
570.95	599.18
571.11	517.26
571.27	596.84
571.43	489.17
571.60	573.43
571.76	657.69
571.92	592.16
572.09	594.50
572.25	629.60
572.41	627.26
572.57	690.46
572.74	596.84
572.90	681.10
573.06	624.92
573.22	678.76
573.38	711.52
573.55	657.69
573.71	716.20
573.87	697.48
574.03	674.07
574.20	620.24
574.36	718.54
574.52	718.54
574.68	716.20
574.84	793.44
575.01	772.38
575.17	849.61
575.33	901.11
575.49	968.98
575.65	1064.94
575.82	1184.31
575.98	1263.89
576.14	1427.73
576.30	2530.12
576.46	7667.60
576.62	15796.28
576.79	23227.48
576.95	16472.69
577.11	9493.21
577.27	6494.99
577.43	4236.37
577.59	2731.41
577.75	2090.10
577.92	1902.86
578.08	1762.42
578.24	1856.04
578.40	2827.37
578.56	7101.19
578.72	14288.97
578.88	22558.08
579.04	15707.34
579.21	9289.59
579.37	6555.84
579.53	5074.28
579.69	4638.94
579.85	5701.54
580.01	7192.47
580.17	7442.90
580.33	6324.13
580.49	5095.35
580.65	4374.46
580.82	3950.82
580.98	3934.44
581.14	3978.91
581.30	4102.96
581.46	4514.89
581.62	4798.10
581.78	5203.01
581.94	5476.85
582.10	5895.81
582.26	6384.98
582.42	6513.71
582.58	6724.36
582.74	6911.60
582.90	6700.95
583.06	7047.35
583.22	7002.88
583.38	6956.07
583.54	7131.61
583.70	6956.07
583.86	6843.73
584.02	6738.40
584.18	6567.54
584.34	6466.90
584.50	6480.94
584.66	6090.07
584.82	6136.88
584.98	6022.20
585.14	6087.73
585.30	5902.83
585.46	5895.81
585.62	5783.46
585.78	5671.12
585.94	5757.72
586.10	5799.85
586.26	6033.90
586.42	6775.85
586.58	8056.12
586.74	10015.15
586.90	12219.94
587.06	13774.05
587.22	14324.08
587.38	12837.84
587.54	10782.85
587.70	9092.98
587.86	7499.08
588.02	6300.72
588.18	5631.33
588.34	4973.64
588.49	4695.11
588.65	4262.12
588.81	4095.94
588.97	4021.04
589.13	3770.60
589.29	3789.33
589.45	3840.82
589.61	3707.41
589.77	3847.84
589.93	3791.67
590.08	3896.99
590.24	4056.15
590.40	4095.94
590.56	4318.29
590.72	4468.08
590.88	4416.59
591.04	4557.02
591.20	4725.54
591.35	5018.11
591.51	5259.18
591.67	5474.51
591.83	5944.96
591.99	6363.92
592.15	6834.36
592.31	7258.00
592.46	7903.99
592.62	8809.78
592.78	9755.35
592.94	9982.38
593.10	9923.87
593.26	9329.38
593.41	8535.93
593.57	7730.79
593.73	6799.26
593.89	6139.23
594.05	5394.93
594.20	4781.71
594.36	4327.65
594.52	3911.04
594.68	3779.97
594.84	3688.68
594.99	3695.71
595.15	3480.38
595.31	3552.93
595.47	3445.27
595.62	3379.73
595.78	3361.01
595.94	3321.22
596.10	3431.23
596.25	3407.82
596.41	3466.33
596.57	3325.90
596.73	3323.56
596.88	3489.74
597.04	3269.73
597.20	3431.23
597.36	3618.47
597.51	3613.79
597.67	3684.00
597.83	3756.56
597.99	4065.51
598.14	4299.56
598.30	4636.60
598.46	4854.27
598.61	5212.37
598.77	5406.64
598.93	5731.97
599.09	5867.72
599.24	5949.64
599.40	5760.06
599.56	5729.63
599.71	5488.56
599.87	5200.67
600.03	4823.84
600.18	4456.38
600.34	4133.39
600.50	3932.10
600.65	3590.38
600.81	3400.80
600.97	3248.66
601.12	3082.49
601.28	3002.91
601.44	2771.19
601.59	2822.69
601.75	2696.30
601.91	2424.80
602.06	2403.73
602.22	2347.56
602.37	2279.68
602.53	2209.47
602.69	2230.53
602.84	2036.27
603.00	2324.15
603.16	2289.04
603.31	2225.85
603.47	2267.98
603.62	2300.75
603.78	2544.16
603.94	2424.80
604.09	2495.01
604.25	2574.59
604.40	2579.27
