SpectraSuite Data File
++++++++++++++++++++++++++++++++++++
Date: Fri Oct 04 11:41:58 GMT-05:00 2013
User: price-jones
Dark Spectrum Present: No
Reference Spectrum Present: No
Number of Sampled Component Spectra: 1
Spectrometers: USB2+H05261
Integration Time (usec): 100000 (USB2+H05261)
Spectra Averaged: 1 (USB2+H05261)
Boxcar Smoothing: 0 (USB2+H05261)
Correct for Electrical Dark: No (USB2+H05261)
Strobe/Lamp Enabled: No (USB2+H05261)
Correct for Detector Non-linearity: No (USB2+H05261)
Correct for Stray Light: No (USB2+H05261)
Number of Pixels in Processed Spectrum: 2048
>>>>>Begin Processed Spectral Data<<<<<
365.73	58.51
365.92	58.51
366.12	58.51
366.32	0.00
366.52	0.00
366.72	0.00
366.91	0.00
367.11	0.00
367.31	0.00
367.51	0.00
367.70	0.00
367.90	0.00
368.10	0.00
368.30	0.00
368.49	0.00
368.69	0.00
368.89	0.00
369.09	28.09
369.28	0.00
369.48	0.00
369.68	0.00
369.87	0.00
370.07	0.00
370.27	7.02
370.47	0.00
370.66	18.72
370.86	58.51
371.06	25.75
371.25	98.30
371.45	46.81
371.65	81.92
371.84	63.19
372.04	95.96
372.24	98.30
372.44	79.58
372.63	35.11
372.83	140.43
373.03	124.05
373.22	102.98
373.42	105.32
373.62	21.06
373.81	100.64
374.01	161.50
374.21	152.13
374.40	88.94
374.60	142.77
374.79	91.28
374.99	63.19
375.19	107.66
375.38	184.90
375.58	154.48
375.78	128.73
375.97	131.07
376.17	180.22
376.37	117.03
376.56	138.09
376.76	42.13
376.95	131.07
377.15	173.20
377.35	175.54
377.54	72.56
377.74	46.81
377.93	84.26
378.13	154.48
378.33	191.92
378.52	107.66
378.72	175.54
378.91	100.64
379.11	84.26
379.31	84.26
379.50	72.56
379.70	168.52
379.89	112.35
380.09	142.77
380.28	70.22
380.48	147.45
380.68	63.19
380.87	102.98
381.07	100.64
381.26	95.96
381.46	124.05
381.65	126.39
381.85	100.64
382.04	79.58
382.24	28.09
382.43	51.49
382.63	100.64
382.83	74.90
383.02	124.05
383.22	88.94
383.41	107.66
383.61	114.69
383.80	63.19
384.00	72.56
384.19	161.50
384.39	105.32
384.58	138.09
384.78	72.56
384.97	93.62
385.17	72.56
385.36	156.82
385.56	114.69
385.75	95.96
385.95	93.62
386.14	107.66
386.34	156.82
386.53	119.37
386.72	100.64
386.92	152.13
387.11	119.37
387.31	175.54
387.50	63.19
387.70	100.64
387.89	173.20
388.09	49.15
388.28	79.58
388.48	114.69
388.67	88.94
388.86	95.96
389.06	138.09
389.25	163.84
389.45	102.98
389.64	105.32
389.84	142.77
390.03	142.77
390.22	135.75
390.42	102.98
390.61	126.39
390.81	98.30
391.00	112.35
391.19	42.13
391.39	23.41
391.58	105.32
391.78	42.13
391.97	93.62
392.16	81.92
392.36	107.66
392.55	114.69
392.75	98.30
392.94	107.66
393.13	128.73
393.33	145.11
393.52	91.28
393.71	182.56
393.91	102.98
394.10	84.26
394.29	110.01
394.49	187.24
394.68	145.11
394.88	131.07
395.07	124.05
395.26	112.35
395.46	42.13
395.65	140.43
395.84	184.90
396.04	187.24
396.23	81.92
396.42	91.28
396.62	161.50
396.81	95.96
397.00	4.68
397.19	133.41
397.39	177.88
397.58	175.54
397.77	131.07
397.97	121.71
398.16	51.49
398.35	161.50
398.55	65.54
398.74	74.90
398.93	175.54
399.12	98.30
399.32	35.11
399.51	81.92
399.70	128.73
399.90	133.41
400.09	53.83
400.28	142.77
400.47	88.94
400.67	114.69
400.86	161.50
401.05	110.01
401.24	182.56
401.44	145.11
401.63	135.75
401.82	112.35
402.01	74.90
402.21	98.30
402.40	154.48
402.59	100.64
402.78	128.73
402.97	35.11
403.17	65.54
403.36	154.48
403.55	102.98
403.74	60.85
403.93	196.60
404.13	238.73
404.32	259.80
404.51	222.35
404.70	175.54
404.89	131.07
405.09	194.26
405.28	135.75
405.47	191.92
405.66	161.50
405.85	135.75
406.05	121.71
406.24	140.43
406.43	131.07
406.62	86.60
406.81	156.82
407.00	117.03
407.20	112.35
407.39	156.82
407.58	135.75
407.77	180.22
407.96	72.56
408.15	131.07
408.34	133.41
408.54	112.35
408.73	142.77
408.92	156.82
409.11	121.71
409.30	154.48
409.49	145.11
409.68	182.56
409.87	177.88
410.07	107.66
410.26	154.48
410.45	163.84
410.64	149.79
410.83	72.56
411.02	145.11
411.21	142.77
411.40	182.56
411.59	142.77
411.78	203.63
411.98	119.37
412.17	105.32
412.36	112.35
412.55	154.48
412.74	140.43
412.93	187.24
413.12	117.03
413.31	215.33
413.50	191.92
413.69	105.32
413.88	135.75
414.07	140.43
414.26	163.84
414.45	79.58
414.64	166.18
414.83	91.28
415.02	149.79
415.22	163.84
415.41	170.86
415.60	133.41
415.79	156.82
415.98	128.73
416.17	152.13
416.36	91.28
416.55	112.35
416.74	152.13
416.93	163.84
417.12	110.01
417.31	65.54
417.50	79.58
417.69	215.33
417.88	203.63
418.07	152.13
418.26	117.03
418.45	133.41
418.64	182.56
418.83	133.41
419.02	170.86
419.21	142.77
419.39	110.01
419.58	53.83
419.77	110.01
419.96	269.16
420.15	163.84
420.34	131.07
420.53	124.05
420.72	166.18
420.91	182.56
421.10	114.69
421.29	168.52
421.48	79.58
421.67	163.84
421.86	152.13
422.05	105.32
422.24	138.09
422.43	205.97
422.61	166.18
422.80	119.37
422.99	117.03
423.18	70.22
423.37	180.22
423.56	175.54
423.75	152.13
423.94	163.84
424.13	201.29
424.32	126.39
424.50	156.82
424.69	102.98
424.88	159.16
425.07	156.82
425.26	128.73
425.45	114.69
425.64	145.11
425.83	142.77
426.01	201.29
426.20	121.71
426.39	135.75
426.58	112.35
426.77	161.50
426.96	147.45
427.15	166.18
427.33	110.01
427.52	133.41
427.71	177.88
427.90	135.75
428.09	180.22
428.28	138.09
428.46	177.88
428.65	208.31
428.84	198.95
429.03	149.79
429.22	194.26
429.40	121.71
429.59	135.75
429.78	159.16
429.97	133.41
430.16	149.79
430.34	119.37
430.53	124.05
430.72	126.39
430.91	95.96
431.10	93.62
431.28	259.80
431.47	100.64
431.66	131.07
431.85	163.84
432.03	208.31
432.22	236.39
432.41	156.82
432.60	231.71
432.79	175.54
432.97	170.86
433.16	198.95
433.35	147.45
433.54	182.56
433.72	210.65
433.91	170.86
434.10	84.26
434.28	159.16
434.47	149.79
434.66	227.03
434.85	290.23
435.03	266.82
435.22	585.13
435.41	950.26
435.59	905.79
435.78	755.99
435.97	425.98
436.16	217.67
436.34	163.84
436.53	135.75
436.72	220.01
436.90	194.26
437.09	220.01
437.28	133.41
437.46	166.18
437.65	107.66
437.84	175.54
438.02	112.35
438.21	161.50
438.40	182.56
438.58	131.07
438.77	156.82
438.96	161.50
439.14	205.97
439.33	220.01
439.52	173.20
439.70	156.82
439.89	184.90
440.08	173.20
440.26	196.60
440.45	177.88
440.63	135.75
440.82	138.09
441.01	149.79
441.19	112.35
441.38	147.45
441.57	220.01
441.75	182.56
441.94	175.54
442.12	140.43
442.31	152.13
442.50	166.18
442.68	222.35
442.87	126.39
443.05	189.58
443.24	189.58
443.43	182.56
443.61	166.18
443.80	163.84
443.98	163.84
444.17	175.54
444.35	161.50
444.54	166.18
444.73	177.88
444.91	210.65
445.10	168.52
445.28	196.60
445.47	105.32
445.65	131.07
445.84	177.88
446.02	198.95
446.21	149.79
446.39	163.84
446.58	166.18
446.77	159.16
446.95	196.60
447.14	182.56
447.32	177.88
447.51	245.76
447.69	138.09
447.88	149.79
448.06	187.24
448.25	187.24
448.43	180.22
448.62	156.82
448.80	154.48
448.99	161.50
449.17	187.24
449.36	124.05
449.54	175.54
449.73	154.48
449.91	241.08
450.10	149.79
450.28	215.33
450.46	189.58
450.65	194.26
450.83	191.92
451.02	163.84
451.20	187.24
451.39	224.69
451.57	147.45
451.76	124.05
451.94	79.58
452.13	210.65
452.31	266.82
452.49	191.92
452.68	145.11
452.86	93.62
453.05	154.48
453.23	159.16
453.42	163.84
453.60	88.94
453.78	224.69
453.97	168.52
454.15	124.05
454.34	149.79
454.52	147.45
454.70	110.01
454.89	140.43
455.07	138.09
455.26	88.94
455.44	152.13
455.62	145.11
455.81	114.69
455.99	229.37
456.17	201.29
456.36	222.35
456.54	173.20
456.73	117.03
456.91	168.52
457.09	177.88
457.28	177.88
457.46	217.67
457.64	205.97
457.83	191.92
458.01	210.65
458.19	170.86
458.38	220.01
458.56	250.44
458.74	217.67
458.93	163.84
459.11	95.96
459.29	166.18
459.48	121.71
459.66	187.24
459.84	156.82
460.03	264.48
460.21	194.26
460.39	215.33
460.57	173.20
460.76	184.90
460.94	142.77
461.12	205.97
461.31	98.30
461.49	105.32
461.67	142.77
461.85	180.22
462.04	198.95
462.22	667.05
462.40	168.52
462.59	191.92
462.77	227.03
462.95	112.35
463.13	138.09
463.32	210.65
463.50	67.88
463.68	114.69
463.86	250.44
464.05	184.90
464.23	203.63
464.41	189.58
464.59	133.41
464.78	201.29
464.96	110.01
465.14	168.52
465.32	149.79
465.50	133.41
465.69	163.84
465.87	175.54
466.05	170.86
466.23	138.09
466.41	152.13
466.60	187.24
466.78	196.60
466.96	182.56
467.14	133.41
467.32	266.82
467.51	149.79
467.69	145.11
467.87	259.80
468.05	191.92
468.23	196.60
468.41	173.20
468.60	131.07
468.78	182.56
468.96	215.33
469.14	212.99
469.32	177.88
469.50	152.13
469.69	173.20
469.87	184.90
470.05	140.43
470.23	145.11
470.41	140.43
470.59	196.60
470.77	189.58
470.95	180.22
471.14	241.08
471.32	138.09
471.50	222.35
471.68	191.92
471.86	145.11
472.04	138.09
472.22	201.29
472.40	138.09
472.58	112.35
472.77	170.86
472.95	156.82
473.13	163.84
473.31	222.35
473.49	161.50
473.67	175.54
473.85	245.76
474.03	208.31
474.21	145.11
474.39	177.88
474.57	156.82
474.75	175.54
474.93	187.24
475.12	175.54
475.30	163.84
475.48	198.95
475.66	173.20
475.84	138.09
476.02	168.52
476.20	198.95
476.38	175.54
476.56	262.14
476.74	81.92
476.92	191.92
477.10	173.20
477.28	227.03
477.46	149.79
477.64	252.78
477.82	180.22
478.00	135.75
478.18	173.20
478.36	156.82
478.54	227.03
478.72	180.22
478.90	119.37
479.08	231.71
479.26	194.26
479.44	168.52
479.62	152.13
479.80	196.60
479.98	133.41
480.16	138.09
480.34	220.01
480.52	159.16
480.70	241.08
480.88	112.35
481.06	149.79
481.24	205.97
481.41	285.55
481.59	243.42
481.77	238.73
481.95	170.86
482.13	227.03
482.31	149.79
482.49	217.67
482.67	229.37
482.85	255.12
483.03	262.14
483.21	259.80
483.39	252.78
483.57	224.69
483.74	238.73
483.92	257.46
484.10	285.55
484.28	212.99
484.46	367.46
484.64	262.14
484.82	297.25
485.00	292.57
485.18	259.80
485.35	287.89
485.53	243.42
485.71	215.33
485.89	215.33
486.07	308.95
486.25	334.70
486.43	245.76
486.61	299.59
486.78	330.02
486.96	257.46
487.14	217.67
487.32	257.46
487.50	264.48
487.68	358.10
487.85	330.02
488.03	262.14
488.21	353.42
488.39	315.97
488.57	383.85
488.75	311.29
488.92	622.58
489.10	266.82
489.28	337.04
489.46	238.73
489.64	290.23
489.81	315.97
489.99	301.93
490.17	292.57
490.35	353.42
490.53	301.93
490.70	252.78
490.88	346.40
491.06	266.82
491.24	330.02
491.41	297.25
491.59	250.44
491.77	250.44
491.95	308.95
492.13	255.12
492.30	332.36
492.48	248.10
492.66	287.89
492.84	220.01
493.01	252.78
493.19	271.50
493.37	313.63
493.54	236.39
493.72	273.84
493.90	255.12
494.08	318.31
494.25	238.73
494.43	245.76
494.61	266.82
494.79	334.70
494.96	301.93
495.14	304.27
495.32	292.57
495.49	278.52
495.67	264.48
495.85	271.50
496.02	231.71
496.20	229.37
496.38	255.12
496.55	283.20
496.73	250.44
496.91	292.57
497.09	250.44
497.26	327.68
497.44	271.50
497.62	210.65
497.79	304.27
497.97	318.31
498.14	229.37
498.32	238.73
498.50	212.99
498.67	191.92
498.85	297.25
499.03	210.65
499.20	245.76
499.38	222.35
499.56	271.50
499.73	360.44
499.91	297.25
500.08	297.25
500.26	262.14
500.44	215.33
500.61	203.63
500.79	259.80
500.97	217.67
501.14	287.89
501.32	280.86
501.49	224.69
501.67	154.48
501.84	238.73
502.02	290.23
502.20	266.82
502.37	306.61
502.55	269.16
502.72	231.71
502.90	259.80
503.07	250.44
503.25	285.55
503.43	229.37
503.60	170.86
503.78	142.77
503.95	238.73
504.13	278.52
504.30	278.52
504.48	212.99
504.65	255.12
504.83	236.39
505.01	353.42
505.18	229.37
505.36	194.26
505.53	278.52
505.71	283.20
505.88	287.89
506.06	259.80
506.23	196.60
506.41	227.03
506.58	241.08
506.76	182.56
506.93	189.58
507.11	241.08
507.28	212.99
507.46	266.82
507.63	234.05
507.81	184.90
507.98	217.67
508.16	217.67
508.33	238.73
508.50	238.73
508.68	241.08
508.85	189.58
509.03	252.78
509.20	276.18
509.38	245.76
509.55	177.88
509.73	184.90
509.90	210.65
510.08	224.69
510.25	248.10
510.42	243.42
510.60	191.92
510.77	241.08
510.95	248.10
511.12	252.78
511.30	182.56
511.47	241.08
511.64	304.27
511.82	248.10
511.99	255.12
512.17	262.14
512.34	250.44
512.51	191.92
512.69	285.55
512.86	238.73
513.04	210.65
513.21	196.60
513.38	252.78
513.56	266.82
513.73	152.13
513.90	191.92
514.08	294.91
514.25	262.14
514.43	220.01
514.60	196.60
514.77	203.63
514.95	276.18
515.12	234.05
515.29	205.97
515.47	203.63
515.64	180.22
515.81	262.14
515.99	250.44
516.16	217.67
516.33	266.82
516.51	110.01
516.68	203.63
516.85	264.48
517.03	196.60
517.20	224.69
517.37	257.46
517.54	220.01
517.72	152.13
517.89	248.10
518.06	229.37
518.24	297.25
518.41	259.80
518.58	301.93
518.75	210.65
518.93	297.25
519.10	243.42
519.27	180.22
519.45	285.55
519.62	217.67
519.79	264.48
519.96	180.22
520.14	315.97
520.31	266.82
520.48	299.59
520.65	325.33
520.83	245.76
521.00	311.29
521.17	287.89
521.34	269.16
521.52	152.13
521.69	320.65
521.86	280.86
522.03	241.08
522.20	294.91
522.38	262.14
522.55	276.18
522.72	271.50
522.89	210.65
523.07	311.29
523.24	184.90
523.41	177.88
523.58	220.01
523.75	264.48
523.92	203.63
524.10	269.16
524.27	285.55
524.44	245.76
524.61	280.86
524.78	252.78
524.96	191.92
525.13	227.03
525.30	299.59
525.47	266.82
525.64	259.80
525.81	301.93
525.98	264.48
526.16	220.01
526.33	294.91
526.50	229.37
526.67	175.54
526.84	229.37
527.01	250.44
527.18	250.44
527.36	241.08
527.53	294.91
527.70	220.01
527.87	255.12
528.04	339.38
528.21	297.25
528.38	285.55
528.55	339.38
528.72	259.80
528.89	337.04
529.07	203.63
529.24	203.63
529.41	236.39
529.58	297.25
529.75	294.91
529.92	227.03
530.09	238.73
530.26	280.86
530.43	273.84
530.60	276.18
530.77	243.42
530.94	339.38
531.11	166.18
531.28	248.10
531.46	259.80
531.63	271.50
531.80	299.59
531.97	299.59
532.14	283.20
532.31	231.71
532.48	313.63
532.65	355.76
532.82	304.27
532.99	283.20
533.16	276.18
533.33	332.36
533.50	294.91
533.67	360.44
533.84	301.93
534.01	341.72
534.18	301.93
534.35	266.82
534.52	241.08
534.69	313.63
534.86	318.31
535.03	222.35
535.20	262.14
535.37	318.31
535.54	285.55
535.71	355.76
535.88	346.40
536.05	337.04
536.22	276.18
536.38	266.82
536.55	313.63
536.72	334.70
536.89	313.63
537.06	365.12
537.23	346.40
537.40	348.74
537.57	348.74
537.74	362.78
537.91	379.17
538.08	409.59
538.25	393.21
538.42	437.68
538.59	304.27
538.75	404.91
538.92	463.43
539.09	482.15
539.26	468.11
539.43	470.45
539.60	430.66
539.77	552.37
539.94	526.62
540.11	608.54
540.28	554.71
540.44	723.23
540.61	690.46
540.78	737.27
540.95	894.08
541.12	1022.81
541.29	1086.01
541.46	1156.22
541.62	1158.57
541.79	1174.95
541.96	1078.99
542.13	1093.03
542.30	1081.33
542.47	1071.97
542.63	1036.86
542.80	1043.88
542.97	980.68
543.14	992.39
543.31	1029.84
543.48	999.41
543.64	1090.69
543.81	1078.99
543.98	1050.90
544.15	898.77
544.32	950.26
544.48	1067.28
544.65	964.30
544.82	905.79
544.99	978.34
545.16	1022.81
545.32	983.02
545.49	1476.88
545.66	2202.44
545.83	2738.43
546.00	2410.75
546.16	1692.21
546.33	1231.12
546.50	945.58
546.67	903.45
546.83	727.91
547.00	739.61
547.17	685.78
547.34	634.29
547.50	664.71
547.67	645.99
547.84	681.10
548.00	643.65
548.17	627.26
548.34	660.03
548.51	571.09
548.67	622.58
548.84	653.01
549.01	606.20
549.18	552.37
549.34	545.34
549.51	559.39
549.68	503.22
549.84	528.96
550.01	512.58
550.18	496.19
550.34	463.43
550.51	500.87
550.68	585.13
550.84	489.17
551.01	409.59
551.18	482.15
551.34	470.45
551.51	367.46
551.68	397.89
551.84	500.87
552.01	344.06
552.18	379.17
552.34	409.59
552.51	386.19
552.68	423.64
552.84	341.72
553.01	358.10
553.18	400.23
553.34	386.19
553.51	341.72
553.67	365.12
553.84	414.27
554.01	332.36
554.17	337.04
554.34	283.20
554.51	346.40
554.67	339.38
554.84	294.91
555.00	337.04
555.17	264.48
555.33	315.97
555.50	262.14
555.67	315.97
555.83	280.86
556.00	217.67
556.16	407.25
556.33	266.82
556.50	311.29
556.66	252.78
556.83	248.10
556.99	360.44
557.16	252.78
557.32	313.63
557.49	278.52
557.65	262.14
557.82	238.73
557.98	290.23
558.15	245.76
558.32	252.78
558.48	280.86
558.65	205.97
558.81	283.20
558.98	259.80
559.14	273.84
559.31	217.67
559.47	283.20
559.64	283.20
559.80	245.76
559.97	238.73
560.13	241.08
560.30	292.57
560.46	220.01
560.63	273.84
560.79	210.65
560.96	280.86
561.12	215.33
561.29	301.93
561.45	220.01
561.61	191.92
561.78	360.44
561.94	292.57
562.11	297.25
562.27	252.78
562.44	236.39
562.60	229.37
562.77	248.10
562.93	227.03
563.10	250.44
563.26	234.05
563.42	315.97
563.59	241.08
563.75	248.10
563.92	175.54
564.08	301.93
564.24	276.18
564.41	229.37
564.57	287.89
564.74	278.52
564.90	241.08
565.07	306.61
565.23	276.18
565.39	196.60
565.56	227.03
565.72	245.76
565.88	236.39
566.05	285.55
566.21	278.52
566.38	229.37
566.54	196.60
566.70	217.67
566.87	236.39
567.03	168.52
567.19	283.20
567.36	290.23
567.52	283.20
567.68	285.55
567.85	243.42
568.01	266.82
568.17	210.65
568.34	210.65
568.50	264.48
568.66	154.48
568.83	313.63
568.99	217.67
569.15	290.23
569.32	250.44
569.48	222.35
569.64	238.73
569.81	322.99
569.97	205.97
570.13	264.48
570.30	241.08
570.46	238.73
570.62	238.73
570.78	170.86
570.95	212.99
571.11	278.52
571.27	243.42
571.43	238.73
571.60	287.89
571.76	245.76
571.92	236.39
572.09	182.56
572.25	264.48
572.41	271.50
572.57	201.29
572.74	175.54
572.90	168.52
573.06	297.25
573.22	224.69
573.38	285.55
573.55	231.71
573.71	355.76
573.87	231.71
574.03	187.24
574.20	187.24
574.36	217.67
574.52	266.82
574.68	159.16
574.84	262.14
575.01	210.65
575.17	243.42
575.33	234.05
575.49	304.27
575.65	311.29
575.82	231.71
575.98	285.55
576.14	290.23
576.30	299.59
576.46	535.98
576.62	667.05
576.79	653.01
576.95	557.05
577.11	489.17
577.27	341.72
577.43	283.20
577.59	346.40
577.75	287.89
577.92	229.37
578.08	229.37
578.24	245.76
578.40	369.80
578.56	449.38
578.72	615.56
578.88	685.78
579.04	479.81
579.21	388.53
579.37	360.44
579.53	390.87
579.69	393.21
579.85	407.25
580.01	379.17
580.17	362.78
580.33	402.57
580.49	348.74
580.65	367.46
580.82	365.12
580.98	297.25
581.14	346.40
581.30	367.46
581.46	332.36
581.62	400.23
581.78	313.63
581.94	400.23
582.10	353.42
582.26	447.04
582.42	369.80
582.58	367.46
582.74	425.98
582.90	498.53
583.06	400.23
583.22	477.47
583.38	365.12
583.54	503.22
583.70	388.53
583.86	402.57
584.02	442.36
584.18	472.79
584.34	397.89
584.50	479.81
584.66	404.91
584.82	376.83
584.98	416.62
585.14	381.51
585.30	447.04
585.46	322.99
585.62	423.64
585.78	484.49
585.94	416.62
586.10	421.30
586.26	353.42
586.42	425.98
586.58	512.58
586.74	505.56
586.90	559.39
587.06	496.19
587.22	521.94
587.38	468.11
587.54	489.17
587.70	498.53
587.86	416.62
588.02	374.49
588.18	355.76
588.34	320.65
588.49	276.18
588.65	283.20
588.81	283.20
588.97	334.70
589.13	322.99
589.29	325.33
589.45	353.42
589.61	283.20
589.77	404.91
589.93	252.78
590.08	287.89
590.24	402.57
590.40	341.72
590.56	276.18
590.72	334.70
590.88	255.12
591.04	280.86
591.20	255.12
591.35	334.70
591.51	344.06
591.67	297.25
591.83	379.17
591.99	322.99
592.15	360.44
592.31	395.55
592.46	409.59
592.62	374.49
592.78	407.25
592.94	393.21
593.10	374.49
593.26	442.36
593.41	330.02
593.57	346.40
593.73	346.40
593.89	285.55
594.05	322.99
594.20	301.93
594.36	269.16
594.52	315.97
594.68	332.36
594.84	322.99
594.99	264.48
595.15	294.91
595.31	301.93
595.47	320.65
595.62	330.02
595.78	285.55
595.94	259.80
596.10	276.18
596.25	308.95
596.41	285.55
596.57	327.68
596.73	311.29
596.88	306.61
597.04	299.59
597.20	243.42
597.36	262.14
597.51	313.63
597.67	198.95
597.83	236.39
597.99	360.44
598.14	294.91
598.30	294.91
598.46	325.33
598.61	454.06
598.77	372.15
598.93	290.23
599.09	344.06
599.24	315.97
599.40	358.10
599.56	341.72
599.71	297.25
599.87	318.31
600.03	224.69
600.18	234.05
600.34	339.38
600.50	259.80
600.65	313.63
600.81	322.99
600.97	264.48
601.12	381.51
601.28	306.61
601.44	283.20
601.59	311.29
601.75	227.03
601.91	360.44
602.06	212.99
602.22	362.78
602.37	292.57
602.53	243.42
602.69	348.74
602.84	198.95
603.00	264.48
603.16	280.86
603.31	341.72
603.47	262.14
603.62	234.05
603.78	280.86
603.94	248.10
604.09	297.25
604.25	285.55
604.40	308.95
604.56	285.55
604.71	290.23
604.87	273.84
605.03	252.78
605.18	294.91
605.34	299.59
605.49	271.50
605.65	266.82
605.80	245.76
605.96	266.82
606.12	273.84
606.27	264.48
606.43	308.95
606.58	308.95
606.74	290.23
606.89	271.50
607.05	355.76
607.20	332.36
607.36	346.40
607.51	341.72
607.67	367.46
607.82	416.62
607.98	362.78
608.13	416.62
608.29	358.10
608.44	440.02
608.60	430.66
608.75	423.64
608.91	486.83
609.06	496.19
609.22	557.05
609.37	510.24
609.53	528.96
609.68	557.05
609.84	594.50
609.99	709.18
610.15	854.30
610.30	997.07
610.46	1322.40
610.61	1547.09
610.76	2008.18
610.92	2165.00
611.07	2410.75
611.23	2537.14
611.38	2300.75
