SpectraSuite Data File
++++++++++++++++++++++++++++++++++++
Date: Fri Oct 04 11:42:05 GMT-05:00 2013
User: price-jones
Dark Spectrum Present: No
Reference Spectrum Present: No
Number of Sampled Component Spectra: 1
Spectrometers: USB2+H05261
Integration Time (usec): 100000 (USB2+H05261)
Spectra Averaged: 1 (USB2+H05261)
Boxcar Smoothing: 0 (USB2+H05261)
Correct for Electrical Dark: No (USB2+H05261)
Strobe/Lamp Enabled: No (USB2+H05261)
Correct for Detector Non-linearity: No (USB2+H05261)
Correct for Stray Light: No (USB2+H05261)
Number of Pixels in Processed Spectrum: 2048
>>>>>Begin Processed Spectral Data<<<<<
365.73	93.62
365.92	93.62
366.12	93.62
366.32	0.00
366.52	0.00
366.72	0.00
366.91	0.00
367.11	0.00
367.31	0.00
367.51	0.00
367.70	0.00
367.90	0.00
368.10	0.00
368.30	0.00
368.49	0.00
368.69	0.00
368.89	0.00
369.09	0.00
369.28	11.70
369.48	0.00
369.68	0.00
369.87	0.00
370.07	0.00
370.27	0.00
370.47	0.00
370.66	0.00
370.86	133.41
371.06	124.05
371.25	65.54
371.45	0.00
371.65	60.85
371.84	46.81
372.04	37.45
372.24	95.96
372.44	7.02
372.63	58.51
372.83	161.50
373.03	105.32
373.22	138.09
373.42	74.90
373.62	149.79
373.81	166.18
374.01	173.20
374.21	114.69
374.40	124.05
374.60	133.41
374.79	145.11
374.99	98.30
375.19	121.71
375.38	168.52
375.58	65.54
375.78	138.09
375.97	147.45
376.17	140.43
376.37	58.51
376.56	84.26
376.76	114.69
376.95	44.47
377.15	74.90
377.35	107.66
377.54	84.26
377.74	154.48
377.93	93.62
378.13	173.20
378.33	119.37
378.52	95.96
378.72	224.69
378.91	229.37
379.11	46.81
379.31	93.62
379.50	93.62
379.70	121.71
379.89	117.03
380.09	114.69
380.28	110.01
380.48	119.37
380.68	112.35
380.87	117.03
381.07	91.28
381.26	166.18
381.46	170.86
381.65	161.50
381.85	131.07
382.04	121.71
382.24	102.98
382.43	105.32
382.63	88.94
382.83	154.48
383.02	177.88
383.22	159.16
383.41	105.32
383.61	124.05
383.80	100.64
384.00	102.98
384.19	145.11
384.39	88.94
384.58	88.94
384.78	112.35
384.97	121.71
385.17	74.90
385.36	95.96
385.56	84.26
385.75	88.94
385.95	100.64
386.14	149.79
386.34	95.96
386.53	77.24
386.72	170.86
386.92	159.16
387.11	60.85
387.31	119.37
387.50	58.51
387.70	65.54
387.89	100.64
388.09	0.00
388.28	84.26
388.48	126.39
388.67	81.92
388.86	86.60
389.06	107.66
389.25	79.58
389.45	121.71
389.64	112.35
389.84	98.30
390.03	163.84
390.22	152.13
390.42	131.07
390.61	81.92
390.81	126.39
391.00	88.94
391.19	126.39
391.39	67.88
391.58	91.28
391.78	140.43
391.97	95.96
392.16	105.32
392.36	159.16
392.55	147.45
392.75	135.75
392.94	102.98
393.13	222.35
393.33	93.62
393.52	184.90
393.71	168.52
393.91	187.24
394.10	147.45
394.29	117.03
394.49	138.09
394.68	154.48
394.88	170.86
395.07	187.24
395.26	100.64
395.46	142.77
395.65	98.30
395.84	128.73
396.04	201.29
396.23	133.41
396.42	114.69
396.62	184.90
396.81	170.86
397.00	98.30
397.19	138.09
397.39	72.56
397.58	182.56
397.77	105.32
397.97	93.62
398.16	217.67
398.35	88.94
398.55	142.77
398.74	77.24
398.93	161.50
399.12	140.43
399.32	198.95
399.51	142.77
399.70	191.92
399.90	107.66
400.09	91.28
400.28	175.54
400.47	203.63
400.67	187.24
400.86	180.22
401.05	161.50
401.24	196.60
401.44	168.52
401.63	163.84
401.82	140.43
402.01	156.82
402.21	114.69
402.40	198.95
402.59	166.18
402.78	140.43
402.97	229.37
403.17	117.03
403.36	266.82
403.55	330.02
403.74	664.71
403.93	1991.80
404.13	4652.98
404.32	6462.22
404.51	5617.29
404.70	3400.80
404.89	1275.59
405.09	433.00
405.28	292.57
405.47	217.67
405.66	159.16
405.85	196.60
406.05	201.29
406.24	131.07
406.43	248.10
406.62	149.79
406.81	208.31
407.00	358.10
407.20	620.24
407.39	854.30
407.58	968.98
407.77	655.35
407.96	430.66
408.15	269.16
408.34	212.99
408.54	163.84
408.73	177.88
408.92	194.26
409.11	182.56
409.30	262.14
409.49	203.63
409.68	177.88
409.87	145.11
410.07	203.63
410.26	215.33
410.45	149.79
410.64	222.35
410.83	166.18
411.02	217.67
411.21	177.88
411.40	304.27
411.59	208.31
411.78	135.75
411.98	245.76
412.17	208.31
412.36	201.29
412.55	217.67
412.74	166.18
412.93	198.95
413.12	135.75
413.31	241.08
413.50	182.56
413.69	170.86
413.88	205.97
414.07	208.31
414.26	273.84
414.45	201.29
414.64	191.92
414.83	276.18
415.02	198.95
415.22	290.23
415.41	234.05
415.60	210.65
415.79	224.69
415.98	304.27
416.17	250.44
416.36	318.31
416.55	271.50
416.74	301.93
416.93	259.80
417.12	210.65
417.31	222.35
417.50	229.37
417.69	294.91
417.88	311.29
418.07	245.76
418.26	248.10
418.45	229.37
418.64	276.18
418.83	313.63
419.02	283.20
419.21	245.76
419.39	318.31
419.58	238.73
419.77	315.97
419.96	236.39
420.15	346.40
420.34	222.35
420.53	191.92
420.72	285.55
420.91	257.46
421.10	283.20
421.29	266.82
421.48	220.01
421.67	243.42
421.86	196.60
422.05	273.84
422.24	299.59
422.43	280.86
422.61	238.73
422.80	234.05
422.99	297.25
423.18	250.44
423.37	283.20
423.56	259.80
423.75	252.78
423.94	262.14
424.13	269.16
424.32	273.84
424.50	269.16
424.69	243.42
424.88	346.40
425.07	276.18
425.26	208.31
425.45	269.16
425.64	257.46
425.83	276.18
426.01	360.44
426.20	346.40
426.39	318.31
426.58	269.16
426.77	308.95
426.96	311.29
427.15	299.59
427.33	299.59
427.52	266.82
427.71	304.27
427.90	322.99
428.09	278.52
428.28	294.91
428.46	257.46
428.65	325.33
428.84	346.40
429.03	400.23
429.22	304.27
429.40	266.82
429.59	332.36
429.78	362.78
429.97	330.02
430.16	374.49
430.34	330.02
430.53	430.66
430.72	386.19
430.91	346.40
431.10	374.49
431.28	278.52
431.47	404.91
431.66	353.42
431.85	327.68
432.03	374.49
432.22	493.85
432.41	395.55
432.60	456.40
432.79	423.64
432.97	507.90
433.16	493.85
433.35	521.94
433.54	540.66
433.72	528.96
433.91	636.63
434.10	627.26
434.28	734.93
434.47	901.11
434.66	973.66
434.85	1252.19
435.03	3255.69
435.22	12252.70
435.41	28645.82
435.59	29722.46
435.78	19021.53
435.97	9582.15
436.16	3520.17
436.34	1336.45
436.53	774.72
436.72	566.41
436.90	688.12
437.09	566.41
437.28	500.87
437.46	475.13
437.65	491.51
437.84	500.87
438.02	440.02
438.21	538.32
438.40	447.04
438.58	510.24
438.77	416.62
438.96	458.74
439.14	381.51
439.33	447.04
439.52	447.04
439.70	458.74
439.89	475.13
440.08	404.91
440.26	451.72
440.45	409.59
440.63	489.17
440.82	383.85
441.01	414.27
441.19	390.87
441.38	325.33
441.57	358.10
441.75	498.53
441.94	444.70
442.12	440.02
442.31	447.04
442.50	528.96
442.68	451.72
442.87	379.17
443.05	433.00
443.24	486.83
443.43	428.32
443.61	479.81
443.80	519.60
443.98	444.70
444.17	416.62
444.35	437.68
444.54	395.55
444.73	486.83
444.91	390.87
445.10	411.93
445.28	416.62
445.47	367.46
445.65	402.57
445.84	470.45
446.02	411.93
446.21	381.51
446.39	374.49
446.58	479.81
446.77	362.78
446.95	334.70
447.14	416.62
447.32	433.00
447.51	379.17
447.69	454.06
447.88	416.62
448.06	479.81
448.25	393.21
448.43	435.34
448.62	409.59
448.80	409.59
448.99	404.91
449.17	428.32
449.36	327.68
449.54	400.23
449.73	397.89
449.91	360.44
450.10	425.98
450.28	430.66
450.46	489.17
450.65	440.02
450.83	423.64
451.02	433.00
451.20	458.74
451.39	421.30
451.57	346.40
451.76	388.53
451.94	355.76
452.13	514.92
452.31	444.70
452.49	465.77
452.68	341.72
452.86	505.56
453.05	451.72
453.23	440.02
453.42	437.68
453.60	425.98
453.78	430.66
453.97	442.36
454.15	433.00
454.34	374.49
454.52	444.70
454.70	402.57
454.89	379.17
455.07	454.06
455.26	376.83
455.44	475.13
455.62	493.85
455.81	400.23
455.99	512.58
456.17	416.62
456.36	393.21
456.54	411.93
456.73	465.77
456.91	477.47
457.09	397.89
457.28	425.98
457.46	418.96
457.64	447.04
457.83	390.87
458.01	402.57
458.19	337.04
458.38	393.21
458.56	437.68
458.74	376.83
458.93	479.81
459.11	351.08
459.29	465.77
459.48	393.21
459.66	538.32
459.84	386.19
460.03	519.60
460.21	337.04
460.39	423.64
460.57	503.22
460.76	372.15
460.94	449.38
461.12	430.66
461.31	458.74
461.49	484.49
461.67	397.89
461.85	458.74
462.04	416.62
462.22	940.90
462.40	463.43
462.59	440.02
462.77	404.91
462.95	442.36
463.13	320.65
463.32	425.98
463.50	440.02
463.68	355.76
463.86	374.49
464.05	362.78
464.23	482.15
464.41	407.25
464.59	458.74
464.78	475.13
464.96	362.78
465.14	400.23
465.32	451.72
465.50	425.98
465.69	505.56
465.87	435.34
466.05	402.57
466.23	344.06
466.41	482.15
466.60	437.68
466.78	465.77
466.96	400.23
467.14	418.96
467.32	468.11
467.51	442.36
467.69	421.30
467.87	395.55
468.05	456.40
468.23	397.89
468.41	358.10
468.60	374.49
468.78	437.68
468.96	395.55
469.14	355.76
469.32	416.62
469.50	322.99
469.69	334.70
469.87	376.83
470.05	388.53
470.23	278.52
470.41	353.42
470.59	407.25
470.77	379.17
470.95	393.21
471.14	489.17
471.32	411.93
471.50	423.64
471.68	311.29
471.86	407.25
472.04	388.53
472.22	451.72
472.40	308.95
472.58	322.99
472.77	376.83
472.95	503.22
473.13	486.83
473.31	433.00
473.49	395.55
473.67	411.93
473.85	479.81
474.03	402.57
474.21	435.34
474.39	489.17
474.57	484.49
474.75	428.32
474.93	351.08
475.12	311.29
475.30	400.23
475.48	395.55
475.66	346.40
475.84	411.93
476.02	414.27
476.20	355.76
476.38	414.27
476.56	475.13
476.74	411.93
476.92	376.83
477.10	404.91
477.28	442.36
477.46	393.21
477.64	456.40
477.82	400.23
478.00	369.80
478.18	390.87
478.36	442.36
478.54	414.27
478.72	418.96
478.90	500.87
479.08	503.22
479.26	540.66
479.44	447.04
479.62	500.87
479.80	510.24
479.98	498.53
480.16	592.16
480.34	566.41
480.52	606.20
480.70	645.99
480.88	692.80
481.06	653.01
481.24	615.56
481.41	723.23
481.59	809.83
481.77	786.42
481.95	828.55
482.13	903.45
482.31	898.77
482.49	1036.86
482.67	1053.24
482.85	1111.75
483.03	1135.16
483.21	1277.93
483.39	1329.42
483.57	1399.64
483.74	1575.18
483.92	1575.18
484.10	1657.10
484.28	1729.66
484.46	1827.96
484.64	1942.64
484.82	1984.77
485.00	2167.34
485.18	2223.51
485.35	2483.31
485.53	2532.46
485.71	2551.18
485.89	2679.91
486.07	2630.76
486.25	2825.03
486.43	2820.35
486.61	2878.86
486.78	2796.94
486.96	2860.13
487.14	2750.13
487.32	2775.88
487.50	2796.94
487.68	2885.88
487.85	2759.49
488.03	2768.85
488.21	2700.98
488.39	2532.46
488.57	2605.02
488.75	2487.99
488.92	2722.04
489.10	2387.35
489.28	2382.67
489.46	2321.81
489.64	2181.38
489.81	2267.98
489.99	2193.08
490.17	2172.02
490.35	2211.81
490.53	2242.23
490.70	2153.29
490.88	2127.55
491.06	2218.83
491.24	2452.88
491.41	2413.09
491.59	2326.49
491.77	2160.31
491.95	2015.20
492.13	1930.94
492.30	2012.86
492.48	1891.15
492.66	1996.48
492.84	1888.81
493.01	2031.58
493.19	1837.32
493.37	1874.77
493.54	1867.75
493.72	1767.10
493.90	1696.89
494.08	1743.70
494.25	1645.40
494.43	1640.72
494.61	1603.27
494.79	1533.05
494.96	1591.56
495.14	1584.54
495.32	1551.78
495.49	1493.26
495.67	1509.65
495.85	1526.03
496.02	1500.28
496.20	1551.78
496.38	1530.71
496.55	1336.45
496.73	1437.09
496.91	1291.98
497.09	1364.53
497.26	1341.13
497.44	1275.59
497.62	1191.33
497.79	1188.99
497.97	1306.02
498.14	1235.80
498.32	1151.54
498.50	1121.12
498.67	1165.59
498.85	1074.31
499.03	1055.58
499.20	1144.52
499.38	978.34
499.56	999.41
499.73	997.07
499.91	1006.43
500.08	1006.43
500.26	912.81
500.44	868.34
500.61	795.78
500.79	802.80
500.97	842.59
501.14	866.00
501.32	758.33
501.49	809.83
501.67	706.84
501.84	746.63
502.02	685.78
502.20	723.23
502.37	737.27
502.55	688.12
502.72	641.31
502.90	655.35
503.07	606.20
503.25	571.09
503.43	582.79
503.60	587.47
503.78	524.28
503.95	533.64
504.13	582.79
504.30	585.13
504.48	578.11
504.65	589.82
504.83	531.30
505.01	503.22
505.18	550.03
505.36	489.17
505.53	447.04
505.71	418.96
505.88	486.83
506.06	531.30
506.23	463.43
506.41	507.90
506.58	484.49
506.76	512.58
506.93	388.53
507.11	500.87
507.28	433.00
507.46	444.70
507.63	491.51
507.81	442.36
507.98	414.27
508.16	470.45
508.33	451.72
508.50	510.24
508.68	472.79
508.85	479.81
509.03	465.77
509.20	498.53
509.38	414.27
509.55	458.74
509.73	475.13
509.90	482.15
510.08	451.72
510.25	428.32
510.42	341.72
510.60	472.79
510.77	461.09
510.95	428.32
511.12	496.19
511.30	360.44
511.47	430.66
511.64	470.45
511.82	433.00
511.99	404.91
512.17	425.98
512.34	435.34
512.51	418.96
512.69	486.83
512.86	472.79
513.04	409.59
513.21	400.23
513.38	421.30
513.56	339.38
513.73	449.38
513.90	313.63
514.08	358.10
514.25	330.02
514.43	409.59
514.60	341.72
514.77	348.74
514.95	346.40
515.12	297.25
515.29	411.93
515.47	395.55
515.64	351.08
515.81	241.08
515.99	348.74
516.16	372.15
516.33	318.31
516.51	374.49
516.68	388.53
516.85	248.10
517.03	313.63
517.20	395.55
517.37	358.10
517.54	367.46
517.72	414.27
517.89	379.17
518.06	322.99
518.24	395.55
518.41	344.06
518.58	395.55
518.75	383.85
518.93	369.80
519.10	369.80
519.27	318.31
519.45	367.46
519.62	299.59
519.79	374.49
519.96	332.36
520.14	379.17
520.31	404.91
520.48	283.20
520.65	264.48
520.83	423.64
521.00	362.78
521.17	383.85
521.34	266.82
521.52	332.36
521.69	348.74
521.86	266.82
522.03	320.65
522.20	444.70
522.38	339.38
522.55	411.93
522.72	362.78
522.89	372.15
523.07	341.72
523.24	271.50
523.41	269.16
523.58	308.95
523.75	351.08
523.92	355.76
524.10	393.21
524.27	367.46
524.44	341.72
524.61	393.21
524.78	301.93
524.96	386.19
525.13	344.06
525.30	362.78
525.47	404.91
525.64	416.62
525.81	390.87
525.98	313.63
526.16	334.70
526.33	393.21
526.50	334.70
526.67	379.17
526.84	365.12
527.01	421.30
527.18	451.72
527.36	444.70
527.53	437.68
527.70	482.15
527.87	416.62
528.04	528.96
528.21	411.93
528.38	430.66
528.55	372.15
528.72	461.09
528.89	454.06
529.07	440.02
529.24	327.68
529.41	435.34
529.58	535.98
529.75	517.26
529.92	402.57
530.09	456.40
530.26	519.60
530.43	484.49
530.60	465.77
530.77	552.37
530.94	521.94
531.11	571.09
531.28	648.33
531.46	531.30
531.63	650.67
531.80	624.92
531.97	657.69
532.14	784.08
532.31	828.55
532.48	844.93
532.65	1097.71
532.82	1275.59
532.99	1528.37
533.16	1692.21
533.33	1736.68
533.50	1629.01
533.67	1420.71
533.84	1179.63
534.01	1090.69
534.18	1069.62
534.35	1046.22
534.52	987.71
534.69	1067.28
534.86	1104.73
535.03	997.07
535.20	1151.54
535.37	1256.87
535.54	1336.45
535.71	1315.38
535.88	1369.21
536.05	1556.46
536.22	1619.65
536.38	1708.59
536.55	1870.09
536.72	2106.48
536.89	2193.08
537.06	2605.02
537.23	2897.58
537.40	3016.95
537.57	3318.88
537.74	3501.44
537.91	3499.10
538.08	3658.26
538.25	3796.35
538.42	3859.54
538.59	3838.48
538.75	4042.11
538.92	4318.29
539.09	4608.51
539.26	5067.26
539.43	5900.49
539.60	6509.03
539.77	7262.68
539.94	8177.83
540.11	9043.83
540.28	9839.61
540.44	10846.04
540.61	12070.14
540.78	13792.78
540.95	16561.63
541.12	20084.14
541.29	21958.91
541.46	23098.75
541.62	22843.63
541.79	21972.95
541.96	20631.82
542.13	19176.01
542.30	17958.93
542.47	16765.26
542.63	15758.83
542.80	15501.37
542.97	15236.89
543.14	15194.76
543.31	15161.99
543.48	15049.64
543.64	15040.28
543.81	15400.72
543.98	15599.67
544.15	15606.69
544.32	15854.79
544.48	15587.97
544.65	15321.15
544.82	15349.23
544.99	15339.87
545.16	15445.20
545.32	16678.66
545.49	27405.33
545.66	50270.03
545.83	57483.56
546.00	51327.95
546.16	37443.89
546.33	27655.77
546.50	20573.31
546.67	16065.44
546.83	14270.25
547.00	13631.28
547.17	12788.69
547.34	12166.10
547.50	11803.32
547.67	11407.77
547.84	10848.38
548.00	10609.65
548.17	9907.49
548.34	9785.78
548.51	9324.69
548.67	8968.93
548.84	8580.40
549.01	8269.11
549.18	7812.71
549.34	7506.10
549.51	7368.01
549.68	6890.54
549.84	6750.10
550.01	6321.79
550.18	6125.18
550.34	5937.94
550.51	5584.52
550.68	5153.86
550.84	4947.89
551.01	4835.55
551.18	4358.08
551.34	4250.41
551.51	4166.15
551.68	3985.93
551.84	3896.99
552.01	3754.22
552.18	3461.65
552.34	3368.03
552.51	3321.22
552.68	3124.62
552.84	2918.65
553.01	2871.84
553.18	2729.06
553.34	2710.34
553.51	2633.10
553.67	2562.89
553.84	2553.52
554.01	2349.90
554.17	2153.29
554.34	2026.90
554.51	1884.13
554.67	1783.49
554.84	1659.44
555.00	1605.61
555.17	1516.67
555.33	1474.54
555.50	1425.39
555.67	1399.64
555.83	1348.15
556.00	1233.46
556.16	1376.24
556.33	1109.41
556.50	1116.44
556.66	1109.41
556.83	1132.82
556.99	1095.37
557.16	999.41
557.32	999.41
557.49	1088.35
557.65	1022.81
557.82	940.90
557.98	938.55
558.15	905.79
558.32	774.72
558.48	823.87
558.65	809.83
558.81	849.61
558.98	798.12
559.14	842.59
559.31	730.25
559.47	786.42
559.64	645.99
559.80	732.59
559.97	725.57
560.13	650.67
560.30	819.19
560.46	755.99
560.63	734.93
560.79	641.31
560.96	753.65
561.12	739.61
561.29	755.99
561.45	709.18
561.61	695.14
561.78	744.29
561.94	753.65
562.11	615.56
562.27	725.57
562.44	688.12
562.60	653.01
562.77	638.97
562.93	795.78
563.10	660.03
563.26	599.18
563.42	662.37
563.59	664.71
563.75	575.77
563.92	620.24
564.08	627.26
564.24	620.24
564.41	636.63
564.57	657.69
564.74	589.82
564.90	592.16
565.07	596.84
565.23	587.47
565.39	566.41
565.56	601.52
565.72	503.22
565.88	442.36
566.05	575.77
566.21	514.92
566.38	564.07
566.54	559.39
566.70	538.32
566.87	587.47
567.03	606.20
567.19	608.54
567.36	573.43
567.52	575.77
567.68	498.53
567.85	543.00
568.01	550.03
568.17	608.54
568.34	554.71
568.50	650.67
568.66	601.52
568.83	582.79
568.99	580.45
569.15	489.17
569.32	552.37
569.48	538.32
569.64	484.49
569.81	458.74
569.97	484.49
570.13	503.22
570.30	449.38
570.46	444.70
570.62	395.55
570.78	421.30
570.95	381.51
571.11	440.02
571.27	554.71
571.43	374.49
571.60	442.36
571.76	498.53
571.92	482.15
572.09	435.34
572.25	428.32
572.41	514.92
572.57	477.47
572.74	505.56
572.90	428.32
573.06	463.43
573.22	447.04
573.38	463.43
573.55	521.94
573.71	493.85
573.87	575.77
574.03	526.62
574.20	465.77
574.36	599.18
574.52	545.34
574.68	540.66
574.84	587.47
575.01	470.45
575.17	601.52
575.33	624.92
575.49	734.93
575.65	720.88
575.82	795.78
575.98	851.96
576.14	915.15
576.30	1851.36
576.46	5944.96
576.62	10394.32
576.79	11082.44
576.95	8077.19
577.11	5107.05
577.27	3574.00
577.43	2590.97
577.59	1720.29
577.75	1327.08
577.92	1165.59
578.08	1224.10
578.24	1163.25
578.40	1996.48
578.56	5598.56
578.72	9479.17
578.88	10078.35
579.04	7220.55
579.21	4973.64
579.37	3812.73
579.53	2949.08
579.69	2843.75
579.85	3557.61
580.01	4093.60
580.17	3927.42
580.33	3433.57
580.49	2801.62
580.65	2504.37
580.82	2275.00
580.98	2267.98
581.14	2284.36
581.30	2539.48
581.46	2677.57
581.62	2864.82
581.78	3059.08
581.94	3246.32
582.10	3346.97
582.26	3625.49
582.42	3630.17
582.58	3721.45
582.74	3932.10
582.90	4065.51
583.06	3908.69
583.22	3983.59
583.38	3967.21
583.54	3915.72
583.70	3857.20
583.86	3955.51
584.02	3728.47
584.18	3749.54
584.34	3548.25
584.50	3480.38
584.66	3513.14
584.82	3684.00
584.98	3487.40
585.14	3218.24
585.30	3232.28
585.46	3281.43
585.62	3304.84
585.78	3173.77
585.94	3253.34
586.10	3466.33
586.26	3564.64
586.42	4002.32
586.58	4777.03
586.74	5738.99
586.90	6888.20
587.06	7548.23
587.22	7536.52
587.38	6677.55
587.54	5682.82
587.70	4898.74
587.86	4189.56
588.02	3529.53
588.18	3014.61
588.34	2775.88
588.49	2600.34
588.65	2516.08
588.81	2410.75
588.97	2335.85
589.13	2242.23
589.29	2253.94
589.45	2253.94
589.61	2150.95
589.77	2249.25
589.93	2211.81
590.08	2223.51
590.24	2434.16
590.40	2422.45
590.56	2541.82
590.72	2637.78
590.88	2541.82
591.04	2605.02
591.20	2818.00
591.35	2808.64
591.51	2979.50
591.67	3021.63
591.83	3248.66
591.99	3611.45
592.15	3889.97
592.31	4234.03
592.46	4512.55
592.62	4990.02
592.78	5277.91
592.94	5376.21
593.10	5320.04
593.26	5118.75
593.41	4788.74
593.57	4344.03
593.73	3716.77
593.89	3361.01
594.05	2977.16
594.20	2696.30
594.36	2516.08
594.52	2258.62
594.68	2179.04
594.84	2150.95
594.99	2054.99
595.15	2071.37
595.31	2012.86
595.47	2083.08
595.62	2057.33
595.78	1926.26
595.94	2022.22
596.10	2045.63
596.25	1975.41
596.41	1933.28
596.57	2012.86
596.73	2005.84
596.88	1947.33
597.04	1973.07
597.20	1856.04
597.36	2085.42
597.51	2092.44
597.67	2174.36
597.83	2218.83
597.99	2485.65
598.14	2450.54
598.30	2642.46
598.46	2773.53
598.61	2895.24
598.77	3056.74
598.93	3162.06
599.09	3370.37
599.24	3318.88
599.40	3276.75
599.56	3272.07
599.71	3201.85
599.87	2892.90
600.03	2766.51
600.18	2396.71
600.34	2338.20
600.50	2204.78
600.65	2195.42
600.81	2017.54
600.97	1886.47
601.12	1816.26
601.28	1741.36
601.44	1727.32
601.59	1561.14
601.75	1481.56
601.91	1465.18
602.06	1547.09
602.22	1495.60
602.37	1371.55
602.53	1338.79
602.69	1341.13
602.84	1275.59
603.00	1380.92
603.16	1343.47
603.31	1451.13
603.47	1394.96
603.62	1401.98
603.78	1336.45
603.94	1394.96
604.09	1493.26
604.25	1561.14
604.40	1479.22
604.56	1507.30
604.71	1544.75
604.87	1605.61
605.03	1631.35
605.18	1584.54
605.34	1661.78
605.49	1647.74
605.65	1774.13
605.80	1703.91
