SpectraSuite Data File
++++++++++++++++++++++++++++++++++++
Date: Fri Oct 04 11:42:15 GMT-05:00 2013
User: price-jones
Dark Spectrum Present: No
Reference Spectrum Present: No
Number of Sampled Component Spectra: 1
Spectrometers: USB2+H05261
Integration Time (usec): 100000 (USB2+H05261)
Spectra Averaged: 1 (USB2+H05261)
Boxcar Smoothing: 0 (USB2+H05261)
Correct for Electrical Dark: No (USB2+H05261)
Strobe/Lamp Enabled: No (USB2+H05261)
Correct for Detector Non-linearity: No (USB2+H05261)
Correct for Stray Light: No (USB2+H05261)
Number of Pixels in Processed Spectrum: 2048
>>>>>Begin Processed Spectral Data<<<<<
365.73	35.11
365.92	35.11
366.12	35.11
366.32	37.45
366.52	0.00
366.72	0.00
366.91	0.00
367.11	0.00
367.31	0.00
367.51	0.00
367.70	0.00
367.90	0.00
368.10	0.00
368.30	0.00
368.49	0.00
368.69	0.00
368.89	0.00
369.09	0.00
369.28	0.00
369.48	0.00
369.68	0.00
369.87	39.79
370.07	32.77
370.27	0.00
370.47	72.56
370.66	145.11
370.86	201.29
371.06	299.59
371.25	220.01
371.45	259.80
371.65	339.38
371.84	229.37
372.04	234.05
372.24	311.29
372.44	250.44
372.63	243.42
372.83	271.50
373.03	285.55
373.22	220.01
373.42	297.25
373.62	339.38
373.81	388.53
374.01	308.95
374.21	304.27
374.40	264.48
374.60	318.31
374.79	346.40
374.99	330.02
375.19	407.25
375.38	430.66
375.58	320.65
375.78	383.85
375.97	346.40
376.17	367.46
376.37	344.06
376.56	325.33
376.76	402.57
376.95	503.22
377.15	367.46
377.35	390.87
377.54	440.02
377.74	379.17
377.93	451.72
378.13	355.76
378.33	327.68
378.52	402.57
378.72	362.78
378.91	435.34
379.11	330.02
379.31	271.50
379.50	259.80
379.70	348.74
379.89	327.68
380.09	358.10
380.28	390.87
380.48	383.85
380.68	355.76
380.87	299.59
381.07	320.65
381.26	299.59
381.46	351.08
381.65	341.72
381.85	334.70
382.04	369.80
382.24	250.44
382.43	325.33
382.63	304.27
382.83	243.42
383.02	334.70
383.22	308.95
383.41	315.97
383.61	337.04
383.80	351.08
384.00	400.23
384.19	315.97
384.39	372.15
384.58	393.21
384.78	374.49
384.97	437.68
385.17	390.87
385.36	327.68
385.56	393.21
385.75	355.76
385.95	367.46
386.14	355.76
386.34	320.65
386.53	423.64
386.72	327.68
386.92	423.64
387.11	421.30
387.31	400.23
387.50	390.87
387.70	411.93
387.89	416.62
388.09	444.70
388.28	360.44
388.48	334.70
388.67	416.62
388.86	407.25
389.06	444.70
389.25	470.45
389.45	482.15
389.64	444.70
389.84	512.58
390.03	491.51
390.22	421.30
390.42	430.66
390.61	440.02
390.81	489.17
391.00	552.37
391.19	524.28
391.39	435.34
391.58	510.24
391.78	500.87
391.97	482.15
392.16	418.96
392.36	465.77
392.55	388.53
392.75	287.89
392.94	332.36
393.13	215.33
393.33	208.31
393.52	292.57
393.71	456.40
393.91	454.06
394.10	493.85
394.29	451.72
394.49	505.56
394.68	475.13
394.88	566.41
395.07	578.11
395.26	433.00
395.46	564.07
395.65	435.34
395.84	470.45
396.04	484.49
396.23	322.99
396.42	320.65
396.62	280.86
396.81	320.65
397.00	440.02
397.19	435.34
397.39	528.96
397.58	638.97
397.77	566.41
397.97	575.77
398.16	669.39
398.35	667.05
398.55	713.86
398.74	774.72
398.93	744.29
399.12	704.50
399.32	725.57
399.51	667.05
399.70	718.54
399.90	732.59
400.09	720.88
400.28	758.33
400.47	653.01
400.67	681.10
400.86	688.12
401.05	732.59
401.24	748.97
401.44	800.46
401.63	753.65
401.82	697.48
402.01	741.95
402.21	660.03
402.40	690.46
402.59	683.44
402.78	683.44
402.97	713.86
403.17	671.73
403.36	732.59
403.55	746.63
403.74	795.78
403.93	812.17
404.13	884.72
404.32	840.25
404.51	896.43
404.70	840.25
404.89	802.80
405.09	835.57
405.28	706.84
405.47	730.25
405.66	826.21
405.85	805.14
406.05	709.18
406.24	748.97
406.43	683.44
406.62	788.76
406.81	732.59
407.00	788.76
407.20	767.70
407.39	725.57
407.58	819.19
407.77	819.19
407.96	781.74
408.15	779.40
408.34	791.10
408.54	868.34
408.73	781.74
408.92	880.04
409.11	737.27
409.30	823.87
409.49	720.88
409.68	763.01
409.87	692.80
410.07	767.70
410.26	788.76
410.45	730.25
410.64	830.89
410.83	746.63
411.02	828.55
411.21	884.72
411.40	849.61
411.59	821.53
411.78	912.81
411.98	858.98
412.17	842.59
412.36	861.32
412.55	821.53
412.74	877.70
412.93	823.87
413.12	922.17
413.31	868.34
413.50	873.02
413.69	980.68
413.88	936.21
414.07	861.32
414.26	936.21
414.45	915.15
414.64	875.36
414.83	947.92
415.02	943.24
415.22	1011.11
415.41	985.37
415.60	954.94
415.79	978.34
415.98	901.11
416.17	985.37
416.36	1071.97
416.55	973.66
416.74	917.49
416.93	882.38
417.12	922.17
417.31	933.87
417.50	983.02
417.69	1015.79
417.88	987.71
418.07	868.34
418.26	807.48
418.45	915.15
418.64	990.05
418.83	983.02
419.02	1008.77
419.21	952.60
419.39	971.32
419.58	793.44
419.77	905.79
419.96	1029.84
420.15	1060.26
420.34	964.30
420.53	1034.52
420.72	1088.35
420.91	1057.92
421.10	952.60
421.29	1039.20
421.48	1081.33
421.67	1025.15
421.86	992.39
422.05	943.24
422.24	917.49
422.43	884.72
422.61	905.79
422.80	994.73
422.99	1036.86
423.18	940.90
423.37	1027.50
423.56	1102.39
423.75	971.32
423.94	1057.92
424.13	912.81
424.32	947.92
424.50	924.51
424.69	973.66
424.88	1001.75
425.07	912.81
425.26	959.62
425.45	898.77
425.64	816.85
425.83	950.26
426.01	950.26
426.20	931.53
426.39	994.73
426.58	875.36
426.77	847.27
426.96	924.51
427.15	898.77
427.33	917.49
427.52	933.87
427.71	987.71
427.90	873.02
428.09	894.08
428.28	971.32
428.46	870.68
428.65	887.06
428.84	924.51
429.03	910.47
429.22	884.72
429.40	828.55
429.59	791.10
429.78	807.48
429.97	660.03
430.16	704.50
430.34	683.44
430.53	711.52
430.72	725.57
430.91	772.38
431.10	973.66
431.28	987.71
431.47	1053.24
431.66	1060.26
431.85	1029.84
432.03	985.37
432.22	1034.52
432.41	1086.01
432.60	1071.97
432.79	1074.31
432.97	1111.75
433.16	1022.81
433.35	1060.26
433.54	1006.43
433.72	875.36
433.91	976.00
434.10	898.77
434.28	1132.82
434.47	1076.65
434.66	1104.73
434.85	1067.28
435.03	1186.65
435.22	1413.68
435.41	1849.02
435.59	2043.29
435.78	1776.47
435.97	1409.00
436.16	1322.40
436.34	1188.99
436.53	1210.06
436.72	1102.39
436.90	1121.12
437.09	1036.86
437.28	994.73
437.46	1153.88
437.65	1104.73
437.84	1057.92
438.02	1025.15
438.21	966.64
438.40	929.19
438.58	1025.15
438.77	1043.88
438.96	1076.65
439.14	1137.50
439.33	1153.88
439.52	1181.97
439.70	1219.42
439.89	1036.86
440.08	1083.67
440.26	1090.69
440.45	1188.99
440.63	1205.38
440.82	1315.38
441.01	1256.87
441.19	1196.01
441.38	1228.78
441.57	1256.87
441.75	1268.57
441.94	1369.21
442.12	1270.91
442.31	1226.44
442.50	1121.12
442.68	1282.61
442.87	1366.87
443.05	1289.64
443.24	1303.68
443.43	1315.38
443.61	1350.49
443.80	1249.85
443.98	1362.19
444.17	1287.29
444.35	1289.64
444.54	1327.08
444.73	1324.74
444.91	1320.06
445.10	1226.44
445.28	1102.39
445.47	1210.06
445.65	1149.20
445.84	1212.40
446.02	1266.23
446.21	1242.82
446.39	1350.49
446.58	1383.26
446.77	1259.21
446.95	1270.91
447.14	1371.55
447.32	1366.87
447.51	1289.64
447.69	1289.64
447.88	1287.29
448.06	1364.53
448.25	1287.29
448.43	1350.49
448.62	1273.25
448.80	1390.28
448.99	1350.49
449.17	1284.95
449.36	1301.34
449.54	1420.71
449.73	1306.02
449.91	1390.28
450.10	1378.58
450.28	1413.68
450.46	1584.54
450.65	1586.88
450.83	1387.94
451.02	1444.11
451.20	1327.08
451.39	1306.02
451.57	1401.98
451.76	1397.30
451.94	1345.81
452.13	1350.49
452.31	1252.19
452.49	1343.47
452.68	1198.35
452.86	1301.34
453.05	1338.79
453.23	1364.53
453.42	1291.98
453.60	1303.68
453.78	1322.40
453.97	1357.51
454.15	1362.19
454.34	1359.85
454.52	1324.74
454.70	1399.64
454.89	1418.36
455.07	1249.85
455.26	1390.28
455.44	1420.71
455.62	1397.30
455.81	1493.26
455.99	1394.96
456.17	1399.64
456.36	1390.28
456.54	1338.79
456.73	1352.83
456.91	1423.05
457.09	1390.28
457.28	1507.30
457.46	1359.85
457.64	1420.71
457.83	1394.96
458.01	1334.11
458.19	1427.73
458.38	1348.15
458.56	1348.15
458.74	1465.18
458.93	1460.49
459.11	1366.87
459.29	1352.83
459.48	1439.43
459.66	1366.87
459.84	1423.05
460.03	1530.71
460.21	1380.92
460.39	1526.03
460.57	1511.99
460.76	1474.54
460.94	1528.37
461.12	1490.92
461.31	1565.82
461.49	1406.66
461.67	1359.85
461.85	1425.39
462.04	1523.69
462.22	1530.71
462.40	1516.67
462.59	1441.77
462.77	1439.43
462.95	1453.47
463.13	1446.45
463.32	1453.47
463.50	1462.83
463.68	1444.11
463.86	1497.94
464.05	1425.39
464.23	1474.54
464.41	1432.41
464.59	1373.89
464.78	1387.94
464.96	1401.98
465.14	1535.39
465.32	1474.54
465.50	1530.71
465.69	1563.48
465.87	1406.66
466.05	1427.73
466.23	1420.71
466.41	1383.26
466.60	1423.05
466.78	1315.38
466.96	1476.88
467.14	1432.41
467.32	1519.01
467.51	1526.03
467.69	1359.85
467.87	1364.53
468.05	1401.98
468.23	1476.88
468.41	1465.18
468.60	1500.28
468.78	1476.88
468.96	1502.62
469.14	1418.36
469.32	1430.07
469.50	1593.90
469.69	1432.41
469.87	1465.18
470.05	1369.21
470.23	1465.18
470.41	1362.19
470.59	1345.81
470.77	1411.34
470.95	1378.58
471.14	1401.98
471.32	1493.26
471.50	1582.20
471.68	1460.49
471.86	1561.14
472.04	1472.20
472.22	1486.24
472.40	1507.30
472.58	1509.65
472.77	1439.43
472.95	1465.18
473.13	1526.03
473.31	1547.09
473.49	1462.83
473.67	1516.67
473.85	1572.84
474.03	1603.27
474.21	1671.14
474.39	1624.33
474.57	1598.59
474.75	1659.44
474.93	1547.09
475.12	1458.15
475.30	1516.67
475.48	1629.01
475.66	1500.28
475.84	1596.25
476.02	1476.88
476.20	1481.56
476.38	1540.07
476.56	1694.55
476.74	1530.71
476.92	1547.09
477.10	1582.20
477.28	1680.50
477.46	1760.08
477.64	1762.42
477.82	1636.03
478.00	1706.25
478.18	1624.33
478.36	1692.21
478.54	1736.68
478.72	1806.89
478.90	1722.63
479.08	1842.00
479.26	1760.08
479.44	1767.10
479.62	1790.51
479.80	1699.23
479.98	1816.26
480.16	1811.57
480.34	1795.19
480.52	1823.28
480.70	1813.92
480.88	1809.23
481.06	1795.19
481.24	1944.99
481.41	1940.30
481.59	1982.43
481.77	1977.75
481.95	1795.19
482.13	1877.11
482.31	1959.03
482.49	1912.22
482.67	1881.79
482.85	1907.54
483.03	2029.24
483.21	1975.41
483.39	1975.41
483.57	1963.71
483.74	2031.58
483.92	1916.90
484.10	1921.58
484.28	2078.40
484.46	2066.69
484.64	1996.48
484.82	1954.35
485.00	1966.05
485.18	1902.86
485.35	1947.33
485.53	1732.00
485.71	1682.85
485.89	1643.06
486.07	1781.15
486.25	1933.28
486.43	1966.05
486.61	1928.60
486.78	1860.73
486.96	1877.11
487.14	2040.95
487.32	2015.20
487.50	2092.44
487.68	2209.47
487.85	2197.76
488.03	2134.57
488.21	2354.58
488.39	2146.27
488.57	2097.12
488.75	2036.27
488.92	2366.28
489.10	2314.79
489.28	2415.43
489.46	2373.30
489.64	2340.54
489.81	2399.05
489.99	2410.75
490.17	2415.43
490.35	2328.83
490.53	2338.20
490.70	2373.30
490.88	2317.13
491.06	2415.43
491.24	2410.75
491.41	2403.73
491.59	2298.41
491.77	2129.89
491.95	2267.98
492.13	2359.26
492.30	2328.83
492.48	2471.61
492.66	2656.51
492.84	2499.69
493.01	2518.42
493.19	2422.45
493.37	2368.62
493.54	2380.32
493.72	2504.37
493.90	2530.12
494.08	2532.46
494.25	2689.28
494.43	2663.53
494.61	2642.46
494.79	2832.05
494.96	2712.68
495.14	2616.72
495.32	2466.92
495.49	2370.96
495.67	2612.04
495.85	2567.57
496.02	2656.51
496.20	2696.30
496.38	2656.51
496.55	2562.89
496.73	2700.98
496.91	2719.70
497.09	2761.83
497.26	2848.43
497.44	2677.57
497.62	2555.86
497.79	2614.38
497.97	2466.92
498.14	2502.03
498.32	2523.10
498.50	2633.10
498.67	2635.44
498.85	2569.91
499.03	2649.49
499.20	2810.98
499.38	2703.32
499.56	2745.45
499.73	2581.61
499.91	2700.98
500.08	2471.61
500.26	2539.48
500.44	2530.12
500.61	2612.04
500.79	2668.21
500.97	2464.58
501.14	2483.31
501.32	2560.55
501.49	2579.27
501.67	2516.08
501.84	2593.31
502.02	2700.98
502.20	2729.06
502.37	2684.59
502.55	2656.51
502.72	2745.45
502.90	2672.89
503.07	2672.89
503.25	2609.70
503.43	2478.63
503.60	2502.03
503.78	2251.60
503.95	2555.86
504.13	2637.78
504.30	2698.64
504.48	2593.31
504.65	2679.91
504.83	2679.91
505.01	2642.46
505.18	2682.25
505.36	2640.12
505.53	2820.35
505.71	2780.56
505.88	2829.71
506.06	2815.66
506.23	2806.30
506.41	2773.53
506.58	2691.62
506.76	2729.06
506.93	2597.99
507.11	2654.17
507.28	2619.06
507.46	2520.76
507.63	2553.52
507.81	2492.67
507.98	2548.84
508.16	2750.13
508.33	2686.94
508.50	2820.35
508.68	2822.69
508.85	2801.62
509.03	2843.75
509.20	2792.26
509.38	2799.28
509.55	2810.98
509.73	2729.06
509.90	2747.79
510.08	2768.85
510.25	2649.49
510.42	2768.85
510.60	2740.77
510.77	2787.58
510.95	2815.66
511.12	2722.04
511.30	2902.26
511.47	2895.24
511.64	2942.05
511.82	2796.94
511.99	2719.70
512.17	2782.90
512.34	2700.98
512.51	2792.26
512.69	2792.26
512.86	2726.72
513.04	2810.98
513.21	2878.86
513.38	2871.84
513.56	2672.89
513.73	2745.45
513.90	2640.12
514.08	2722.04
514.25	2766.51
514.43	2785.24
514.60	2773.53
514.77	2796.94
514.95	2820.35
515.12	2754.81
515.29	2888.22
515.47	2796.94
515.64	2911.63
515.81	2801.62
515.99	2890.56
516.16	2628.42
516.33	2436.50
516.51	2417.77
516.68	2312.45
516.85	2127.55
517.03	2190.74
517.20	2525.44
517.37	2691.62
517.54	2736.09
517.72	2658.85
517.89	2452.88
518.06	2352.24
518.24	2553.52
518.41	2595.65
518.58	2588.63
518.75	2527.78
518.93	2717.36
519.10	2630.76
519.27	2642.46
519.45	2733.75
519.62	2752.47
519.79	2881.20
519.96	2818.00
520.14	2825.03
520.31	2654.17
520.48	2647.15
520.65	2649.49
520.83	2794.60
521.00	2747.79
521.17	2803.96
521.34	2696.30
521.52	2888.22
521.69	2888.22
521.86	2951.42
522.03	2916.31
522.20	2810.98
522.38	2700.98
522.55	2637.78
522.72	2759.49
522.89	2761.83
523.07	2754.81
523.24	2661.19
523.41	2719.70
523.58	2832.05
523.75	2876.52
523.92	2932.69
524.10	2967.80
524.27	2860.13
524.44	2928.01
524.61	2839.07
524.78	2888.22
524.96	2869.50
525.13	2846.09
525.30	2944.39
525.47	2979.50
525.64	2878.86
525.81	2860.13
525.98	2757.15
526.16	2590.97
526.33	2434.16
526.50	2455.22
526.67	2499.69
526.84	2492.67
527.01	2614.38
527.18	2738.43
527.36	2853.11
527.53	2935.03
527.70	2810.98
527.87	2778.22
528.04	2719.70
528.21	2799.28
528.38	2899.92
528.55	3059.08
528.72	2862.48
528.89	3023.97
529.07	2949.08
529.24	2963.12
529.41	2764.17
529.58	2792.26
529.75	2766.51
529.92	2803.96
530.09	2785.24
530.26	2871.84
530.43	2888.22
530.60	2888.22
530.77	3002.91
530.94	3052.06
531.11	2928.01
531.28	2881.20
531.46	2832.05
531.63	2925.67
531.80	2932.69
531.97	2799.28
532.14	2733.75
532.31	2647.15
532.48	2696.30
532.65	2726.72
532.82	2752.47
532.99	2841.41
533.16	2878.86
533.33	3000.57
533.50	2930.35
533.67	2848.43
533.84	2810.98
534.01	2867.16
534.18	2672.89
534.35	2857.79
534.52	2810.98
534.69	2857.79
534.86	2853.11
535.03	2801.62
535.20	2803.96
535.37	2977.16
535.54	3005.25
535.71	2909.29
535.88	3035.67
536.05	2888.22
536.22	2965.46
536.38	2890.56
536.55	2850.77
536.72	2785.24
536.89	2708.00
537.06	2855.45
537.23	2890.56
537.40	2892.90
537.57	2991.20
537.74	2998.23
537.91	3021.63
538.08	2860.13
538.25	2888.22
538.42	3054.40
538.59	3014.61
538.75	2920.99
538.92	2916.31
539.09	2935.03
539.26	2843.75
539.43	2888.22
539.60	2878.86
539.77	3066.10
539.94	3148.02
540.11	2963.12
540.28	2899.92
540.44	3009.93
540.61	3108.23
540.78	3094.19
540.95	3173.77
541.12	3431.23
541.29	3564.64
541.46	3574.00
541.62	3662.94
541.79	3499.10
541.96	3548.25
542.13	3353.99
542.30	3361.01
542.47	3541.23
542.63	3426.54
542.80	3433.57
542.97	3222.92
543.14	3225.26
543.31	3269.73
543.48	3255.69
543.64	3485.06
543.81	3482.72
543.98	3365.69
544.15	3330.58
544.32	3342.28
544.48	3407.82
544.65	3353.99
544.82	3368.03
544.99	3398.46
545.16	3414.84
545.32	3398.46
545.49	3911.04
545.66	4571.07
545.83	5093.01
546.00	4723.20
546.16	4100.62
546.33	3646.55
546.50	3391.44
546.67	3239.30
546.83	3258.03
547.00	3229.94
547.17	3094.19
547.34	3115.25
547.50	3089.51
547.67	2970.14
547.84	3000.57
548.00	3094.19
548.17	3183.13
548.34	2984.18
548.51	3082.49
548.67	3157.38
548.84	3063.76
549.01	3021.63
549.18	2993.55
549.34	3002.91
549.51	2988.86
549.68	2911.63
549.84	2939.71
550.01	2909.29
550.18	3049.72
550.34	3014.61
550.51	2970.14
550.68	2841.41
550.84	2956.10
551.01	2733.75
551.18	2843.75
551.34	2911.63
551.51	2871.84
551.68	2916.31
551.84	2850.77
552.01	2930.35
552.18	2771.19
552.34	2733.75
552.51	2640.12
552.68	2778.22
552.84	2761.83
553.01	2700.98
553.18	2745.45
553.34	2792.26
553.51	2761.83
553.67	2904.60
553.84	2834.39
554.01	2860.13
554.17	2810.98
554.34	2782.90
554.51	2787.58
554.67	2843.75
554.84	2729.06
555.00	2597.99
555.17	2710.34
555.33	2766.51
555.50	2750.13
555.67	2668.21
555.83	2684.59
556.00	2595.65
556.16	2740.77
556.33	2670.55
556.50	2675.23
556.66	2682.25
556.83	2567.57
556.99	2588.63
557.16	2637.78
557.32	2665.87
557.49	2715.02
557.65	2614.38
557.82	2686.94
557.98	2642.46
558.15	2616.72
558.32	2513.74
558.48	2544.16
558.65	2478.63
558.81	2452.88
558.98	2672.89
559.14	2513.74
559.31	2614.38
559.47	2527.78
559.64	2574.59
559.80	2541.82
559.97	2492.67
560.13	2516.08
560.30	2572.25
560.46	2572.25
560.63	2675.23
560.79	2656.51
560.96	2626.08
561.12	2553.52
561.29	2483.31
561.45	2427.14
561.61	2509.05
561.78	2558.21
561.94	2520.76
562.11	2523.10
562.27	2476.29
562.44	2459.90
562.60	2565.23
562.77	2813.32
562.93	2672.89
563.10	2597.99
563.26	2516.08
563.42	2654.17
563.59	2506.71
563.75	2579.27
563.92	2506.71
564.08	2462.24
564.24	2487.99
564.41	2516.08
564.57	2373.30
564.74	2555.86
564.90	2595.65
565.07	2562.89
565.23	2562.89
565.39	2361.60
565.56	2331.17
565.72	2345.22
565.88	2382.67
566.05	2427.14
566.21	2565.23
566.38	2363.94
566.54	2586.29
566.70	2478.63
566.87	2452.88
567.03	2420.11
567.19	2523.10
567.36	2452.88
567.52	2504.37
567.68	2572.25
567.85	2452.88
568.01	2415.43
568.17	2228.19
568.34	2347.56
568.50	2319.47
568.66	2244.57
568.83	2413.09
568.99	2347.56
569.15	2385.01
569.32	2284.36
569.48	2328.83
569.64	2289.04
569.81	2347.56
569.97	2270.32
570.13	2349.90
570.30	2298.41
570.46	2190.74
570.62	2223.51
570.78	2218.83
570.95	2176.70
571.11	2289.04
571.27	2345.22
571.43	2202.44
571.60	2342.88
571.76	2333.51
571.92	2354.58
572.09	2253.94
572.25	2263.30
572.41	2265.64
572.57	2335.85
572.74	2363.94
572.90	2298.41
573.06	2321.81
573.22	2291.38
573.38	2335.85
573.55	2242.23
573.71	2408.41
573.87	2394.37
574.03	2375.64
574.20	2153.29
574.36	2333.51
574.52	2249.25
574.68	2188.40
574.84	2188.40
575.01	2113.50
575.17	2195.42
575.33	2237.55
575.49	2190.74
575.65	2146.27
575.82	2136.91
575.98	2270.32
576.14	2284.36
576.30	2354.58
576.46	2385.01
576.62	2647.15
576.79	2597.99
576.95	2523.10
577.11	2387.35
577.27	2307.77
577.43	2263.30
577.59	2354.58
577.75	2249.25
577.92	2141.59
578.08	2139.25
578.24	2197.76
578.40	2195.42
578.56	2530.12
578.72	2572.25
578.88	2677.57
579.04	2588.63
579.21	2448.20
579.37	2394.37
579.53	2310.11
579.69	2375.64
579.85	2310.11
580.01	2420.11
580.17	2403.73
580.33	2359.26
580.49	2359.26
580.65	2396.71
580.82	2436.50
580.98	2200.10
581.14	2333.51
581.30	2429.48
581.46	2373.30
581.62	2328.83
581.78	2392.03
581.94	2399.05
582.10	2389.69
582.26	2345.22
582.42	2319.47
582.58	2415.43
582.74	2434.16
582.90	2464.58
583.06	2361.60
583.22	2352.24
583.38	2401.39
583.54	2303.09
583.70	2394.37
583.86	2345.22
584.02	2368.62
584.18	2469.27
584.34	2410.75
584.50	2466.92
584.66	2232.87
584.82	2275.00
584.98	2207.13
585.14	2293.72
585.30	2228.19
585.46	2181.38
585.62	2230.53
585.78	2165.00
585.94	2237.55
586.10	2216.49
586.26	2235.21
586.42	2359.26
586.58	2326.49
586.74	2286.70
586.90	2436.50
587.06	2445.86
587.22	2319.47
587.38	2319.47
587.54	2310.11
587.70	2204.78
587.86	2230.53
588.02	1984.77
588.18	1912.22
588.34	1947.33
588.49	1741.36
588.65	1689.87
588.81	1687.53
588.97	1675.82
589.13	1813.92
589.29	1647.74
589.45	1654.76
589.61	1713.27
589.77	1778.81
589.93	1825.62
590.08	1769.44
590.24	1844.34
590.40	1907.54
590.56	1900.52
590.72	1874.77
590.88	1764.76
591.04	1895.83
591.20	1966.05
591.35	1923.92
591.51	1792.85
591.67	1956.69
591.83	1867.75
591.99	1966.05
592.15	1867.75
592.31	2010.52
592.46	2047.97
592.62	2029.24
592.78	2078.40
592.94	1954.35
593.10	2047.97
593.26	2071.37
593.41	2160.31
593.57	2022.22
593.73	1909.88
593.89	1949.67
594.05	1825.62
594.20	1832.64
594.36	1785.83
594.52	1629.01
594.68	1776.47
594.84	1865.41
594.99	1872.43
595.15	1956.69
595.31	1947.33
595.47	1954.35
595.62	1949.67
595.78	1947.33
595.94	2050.31
596.10	2073.71
596.25	1930.94
596.41	2008.18
596.57	1860.73
596.73	1959.03
596.88	1919.24
597.04	2052.65
597.20	1914.56
597.36	1853.70
597.51	1877.11
597.67	1881.79
597.83	1881.79
597.99	1923.92
598.14	2054.99
598.30	1886.47
598.46	1872.43
598.61	2036.27
598.77	1874.77
598.93	1881.79
599.09	1963.71
599.24	2005.84
599.40	2050.31
599.56	1949.67
