SpectraSuite Data File
++++++++++++++++++++++++++++++++++++
Date: Fri Oct 04 11:41:55 GMT-05:00 2013
User: price-jones
Dark Spectrum Present: No
Reference Spectrum Present: No
Number of Sampled Component Spectra: 1
Spectrometers: USB2+H05261
Integration Time (usec): 100000 (USB2+H05261)
Spectra Averaged: 1 (USB2+H05261)
Boxcar Smoothing: 0 (USB2+H05261)
Correct for Electrical Dark: No (USB2+H05261)
Strobe/Lamp Enabled: No (USB2+H05261)
Correct for Detector Non-linearity: No (USB2+H05261)
Correct for Stray Light: No (USB2+H05261)
Number of Pixels in Processed Spectrum: 2048
>>>>>Begin Processed Spectral Data<<<<<
365.73	18.72
365.92	18.72
366.12	18.72
366.32	0.00
366.52	0.00
366.72	0.00
366.91	0.00
367.11	0.00
367.31	0.00
367.51	0.00
367.70	0.00
367.90	0.00
368.10	0.00
368.30	0.00
368.49	0.00
368.69	2.34
368.89	0.00
369.09	0.00
369.28	0.00
369.48	0.00
369.68	0.00
369.87	53.83
370.07	9.36
370.27	53.83
370.47	9.36
370.66	32.77
370.86	35.11
371.06	81.92
371.25	117.03
371.45	112.35
371.65	63.19
371.84	102.98
372.04	88.94
372.24	182.56
372.44	119.37
372.63	133.41
372.83	145.11
373.03	117.03
373.22	149.79
373.42	110.01
373.62	84.26
373.81	79.58
374.01	105.32
374.21	159.16
374.40	91.28
374.60	133.41
374.79	133.41
374.99	152.13
375.19	187.24
375.38	140.43
375.58	229.37
375.78	159.16
375.97	170.86
376.17	196.60
376.37	112.35
376.56	156.82
376.76	166.18
376.95	126.39
377.15	166.18
377.35	177.88
377.54	107.66
377.74	156.82
377.93	159.16
378.13	131.07
378.33	124.05
378.52	110.01
378.72	140.43
378.91	166.18
379.11	121.71
379.31	205.97
379.50	133.41
379.70	191.92
379.89	184.90
380.09	114.69
380.28	166.18
380.48	84.26
380.68	117.03
380.87	100.64
381.07	149.79
381.26	140.43
381.46	126.39
381.65	163.84
381.85	187.24
382.04	142.77
382.24	128.73
382.43	191.92
382.63	119.37
382.83	105.32
383.02	110.01
383.22	182.56
383.41	124.05
383.61	138.09
383.80	98.30
384.00	180.22
384.19	128.73
384.39	142.77
384.58	173.20
384.78	191.92
384.97	105.32
385.17	112.35
385.36	142.77
385.56	152.13
385.75	95.96
385.95	88.94
386.14	163.84
386.34	21.06
386.53	147.45
386.72	156.82
386.92	152.13
387.11	51.49
387.31	110.01
387.50	117.03
387.70	124.05
387.89	46.81
388.09	72.56
388.28	79.58
388.48	117.03
388.67	128.73
388.86	86.60
389.06	163.84
389.25	86.60
389.45	126.39
389.64	25.75
389.84	168.52
390.03	161.50
390.22	177.88
390.42	149.79
390.61	70.22
390.81	93.62
391.00	117.03
391.19	117.03
391.39	93.62
391.58	208.31
391.78	126.39
391.97	175.54
392.16	107.66
392.36	194.26
392.55	163.84
392.75	145.11
392.94	133.41
393.13	81.92
393.33	93.62
393.52	138.09
393.71	131.07
393.91	72.56
394.10	184.90
394.29	95.96
394.49	91.28
394.68	63.19
394.88	175.54
395.07	152.13
395.26	166.18
395.46	142.77
395.65	170.86
395.84	88.94
396.04	217.67
396.23	170.86
396.42	159.16
396.62	210.65
396.81	112.35
397.00	198.95
397.19	145.11
397.39	107.66
397.58	126.39
397.77	112.35
397.97	93.62
398.16	205.97
398.35	191.92
398.55	77.24
398.74	114.69
398.93	220.01
399.12	81.92
399.32	154.48
399.51	210.65
399.70	224.69
399.90	102.98
400.09	163.84
400.28	154.48
400.47	128.73
400.67	142.77
400.86	161.50
401.05	187.24
401.24	152.13
401.44	208.31
401.63	189.58
401.82	255.12
402.01	163.84
402.21	201.29
402.40	205.97
402.59	285.55
402.78	236.39
402.97	210.65
403.17	229.37
403.36	306.61
403.55	330.02
403.74	716.20
403.93	2204.78
404.13	5778.78
404.32	9483.85
404.51	9514.28
404.70	6310.08
404.89	2209.47
405.09	704.50
405.28	278.52
405.47	231.71
405.66	311.29
405.85	238.73
406.05	135.75
406.24	252.78
406.43	243.42
406.62	222.35
406.81	313.63
407.00	440.02
407.20	732.59
407.39	1144.52
407.58	1467.52
407.77	1062.60
407.96	613.22
408.15	330.02
408.34	208.31
408.54	187.24
408.73	166.18
408.92	229.37
409.11	243.42
409.30	234.05
409.49	135.75
409.68	259.80
409.87	191.92
410.07	248.10
410.26	243.42
410.45	184.90
410.64	257.46
410.83	245.76
411.02	227.03
411.21	175.54
411.40	308.95
411.59	248.10
411.78	198.95
411.98	255.12
412.17	308.95
412.36	271.50
412.55	241.08
412.74	259.80
412.93	262.14
413.12	212.99
413.31	198.95
413.50	227.03
413.69	210.65
413.88	278.52
414.07	278.52
414.26	252.78
414.45	243.42
414.64	257.46
414.83	292.57
415.02	297.25
415.22	234.05
415.41	381.51
415.60	250.44
415.79	283.20
415.98	278.52
416.17	292.57
416.36	283.20
416.55	217.67
416.74	351.08
416.93	367.46
417.12	313.63
417.31	383.85
417.50	320.65
417.69	397.89
417.88	280.86
418.07	210.65
418.26	322.99
418.45	365.12
418.64	360.44
418.83	322.99
419.02	320.65
419.21	330.02
419.39	285.55
419.58	290.23
419.77	280.86
419.96	318.31
420.15	390.87
420.34	285.55
420.53	346.40
420.72	280.86
420.91	311.29
421.10	306.61
421.29	315.97
421.48	320.65
421.67	285.55
421.86	271.50
422.05	297.25
422.24	238.73
422.43	365.12
422.61	292.57
422.80	292.57
422.99	365.12
423.18	299.59
423.37	390.87
423.56	369.80
423.75	332.36
423.94	369.80
424.13	311.29
424.32	358.10
424.50	311.29
424.69	376.83
424.88	414.27
425.07	341.72
425.26	402.57
425.45	388.53
425.64	484.49
425.83	458.74
426.01	414.27
426.20	451.72
426.39	430.66
426.58	437.68
426.77	360.44
426.96	465.77
427.15	451.72
427.33	386.19
427.52	379.17
427.71	402.57
427.90	458.74
428.09	435.34
428.28	430.66
428.46	379.17
428.65	444.70
428.84	390.87
429.03	477.47
429.22	428.32
429.40	470.45
429.59	449.38
429.78	519.60
429.97	475.13
430.16	407.25
430.34	437.68
430.53	416.62
430.72	411.93
430.91	503.22
431.10	475.13
431.28	433.00
431.47	486.83
431.66	624.92
431.85	517.26
432.03	493.85
432.22	482.15
432.41	519.60
432.60	575.77
432.79	559.39
432.97	550.03
433.16	645.99
433.35	624.92
433.54	784.08
433.72	866.00
433.91	858.98
434.10	739.61
434.28	1071.97
434.47	1289.64
434.66	1434.75
434.85	1661.78
435.03	3824.44
435.22	14061.94
435.41	35882.75
435.59	49186.36
435.78	37502.40
435.97	16809.73
436.16	6167.31
436.34	1984.77
436.53	1130.48
436.72	870.68
436.90	800.46
437.09	690.46
437.28	734.93
437.46	613.22
437.65	655.35
437.84	667.05
438.02	636.63
438.21	617.90
438.40	531.30
438.58	575.77
438.77	603.86
438.96	667.05
439.14	543.00
439.33	603.86
439.52	496.19
439.70	535.98
439.89	528.96
440.08	540.66
440.26	573.43
440.45	678.76
440.63	587.47
440.82	528.96
441.01	617.90
441.19	573.43
441.38	543.00
441.57	608.54
441.75	585.13
441.94	622.58
442.12	627.26
442.31	617.90
442.50	634.29
442.68	496.19
442.87	564.07
443.05	660.03
443.24	566.41
443.43	678.76
443.61	535.98
443.80	571.09
443.98	617.90
444.17	613.22
444.35	634.29
444.54	552.37
444.73	596.84
444.91	615.56
445.10	557.05
445.28	645.99
445.47	571.09
445.65	613.22
445.84	573.43
446.02	531.30
446.21	564.07
446.39	564.07
446.58	566.41
446.77	596.84
446.95	594.50
447.14	613.22
447.32	624.92
447.51	599.18
447.69	496.19
447.88	491.51
448.06	615.56
448.25	582.79
448.43	489.17
448.62	592.16
448.80	641.31
448.99	580.45
449.17	493.85
449.36	568.75
449.54	547.69
449.73	596.84
449.91	550.03
450.10	557.05
450.28	613.22
450.46	585.13
450.65	594.50
450.83	566.41
451.02	517.26
451.20	535.98
451.39	592.16
451.57	554.71
451.76	547.69
451.94	596.84
452.13	615.56
452.31	634.29
452.49	547.69
452.68	533.64
452.86	526.62
453.05	505.56
453.23	653.01
453.42	575.77
453.60	493.85
453.78	545.34
453.97	507.90
454.15	538.32
454.34	571.09
454.52	573.43
454.70	538.32
454.89	524.28
455.07	608.54
455.26	596.84
455.44	585.13
455.62	512.58
455.81	514.92
455.99	550.03
456.17	582.79
456.36	540.66
456.54	533.64
456.73	657.69
456.91	622.58
457.09	589.82
457.28	608.54
457.46	608.54
457.64	645.99
457.83	533.64
458.01	571.09
458.19	634.29
458.38	486.83
458.56	599.18
458.74	545.34
458.93	543.00
459.11	550.03
459.29	528.96
459.48	571.09
459.66	617.90
459.84	629.60
460.03	608.54
460.21	547.69
460.39	482.15
460.57	493.85
460.76	573.43
460.94	606.20
461.12	603.86
461.31	566.41
461.49	589.82
461.67	496.19
461.85	615.56
462.04	564.07
462.22	1060.26
462.40	601.52
462.59	557.05
462.77	550.03
462.95	512.58
463.13	594.50
463.32	610.88
463.50	533.64
463.68	545.34
463.86	596.84
464.05	557.05
464.23	533.64
464.41	575.77
464.59	627.26
464.78	634.29
464.96	603.86
465.14	472.79
465.32	545.34
465.50	500.87
465.69	554.71
465.87	592.16
466.05	531.30
466.23	531.30
466.41	528.96
466.60	692.80
466.78	624.92
466.96	627.26
467.14	615.56
467.32	545.34
467.51	676.41
467.69	559.39
467.87	557.05
468.05	430.66
468.23	615.56
468.41	601.52
468.60	454.06
468.78	475.13
468.96	514.92
469.14	491.51
469.32	482.15
469.50	512.58
469.69	489.17
469.87	498.53
470.05	470.45
470.23	447.04
470.41	458.74
470.59	418.96
470.77	444.70
470.95	505.56
471.14	531.30
471.32	524.28
471.50	540.66
471.68	538.32
471.86	526.62
472.04	559.39
472.22	472.79
472.40	503.22
472.58	435.34
472.77	503.22
472.95	582.79
473.13	575.77
473.31	486.83
473.49	613.22
473.67	528.96
473.85	603.86
474.03	575.77
474.21	528.96
474.39	535.98
474.57	587.47
474.75	498.53
474.93	489.17
475.12	561.73
475.30	468.11
475.48	507.90
475.66	451.72
475.84	503.22
476.02	592.16
476.20	503.22
476.38	564.07
476.56	575.77
476.74	528.96
476.92	533.64
477.10	622.58
477.28	599.18
477.46	484.49
477.64	510.24
477.82	519.60
478.00	564.07
478.18	610.88
478.36	552.37
478.54	571.09
478.72	627.26
478.90	681.10
479.08	629.60
479.26	676.41
479.44	662.37
479.62	706.84
479.80	723.23
479.98	753.65
480.16	795.78
480.34	767.70
480.52	844.93
480.70	861.32
480.88	800.46
481.06	842.59
481.24	966.64
481.41	1039.20
481.59	1121.12
481.77	1163.25
481.95	1100.05
482.13	1341.13
482.31	1404.32
482.49	1401.98
482.67	1465.18
482.85	1633.69
483.03	1732.00
483.21	1961.37
483.39	2022.22
483.57	2064.35
483.74	2296.07
483.92	2380.32
484.10	2466.92
484.28	2719.70
484.46	2906.95
484.64	2913.97
484.82	3042.70
485.00	3229.94
485.18	3492.08
485.35	3566.98
485.53	3716.77
485.71	4021.04
485.89	4095.94
486.07	4245.73
486.25	4395.53
486.43	4180.20
486.61	4423.61
486.78	4365.10
486.96	4369.78
487.14	4325.31
487.32	4149.77
487.50	4329.99
487.68	4355.74
487.85	4269.14
488.03	4215.30
488.21	4032.74
488.39	3985.93
488.57	4002.32
488.75	3756.56
488.92	3941.46
489.10	3728.47
489.28	3660.60
489.46	3602.08
489.64	3297.81
489.81	3407.82
489.99	3372.71
490.17	3386.76
490.35	3349.31
490.53	3148.02
490.70	3117.59
490.88	3229.94
491.06	3307.18
491.24	3592.72
491.41	3791.67
491.59	3555.27
491.77	3190.15
491.95	3176.11
492.13	2958.44
492.30	3000.57
492.48	2967.80
492.66	2857.79
492.84	2881.20
493.01	2754.81
493.19	2839.07
493.37	2759.49
493.54	2590.97
493.72	2614.38
493.90	2581.61
494.08	2518.42
494.25	2626.08
494.43	2445.86
494.61	2438.84
494.79	2438.84
494.96	2424.80
495.14	2417.77
495.32	2321.81
495.49	2249.25
495.67	2282.02
495.85	2169.68
496.02	2134.57
496.20	2153.29
496.38	2045.63
496.55	2148.61
496.73	2064.35
496.91	1977.75
497.09	1963.71
497.26	2062.01
497.44	1905.20
497.62	1930.94
497.79	1785.83
497.97	1760.08
498.14	1757.74
498.32	1736.68
498.50	1717.95
498.67	1607.95
498.85	1591.56
499.03	1547.09
499.20	1437.09
499.38	1537.73
499.56	1460.49
499.73	1537.73
499.91	1493.26
500.08	1397.30
500.26	1383.26
500.44	1322.40
500.61	1263.89
500.79	1100.05
500.97	1128.14
501.14	1193.67
501.32	1132.82
501.49	1109.41
501.67	1118.78
501.84	1015.79
502.02	1013.45
502.20	947.92
502.37	992.39
502.55	924.51
502.72	905.79
502.90	894.08
503.07	861.32
503.25	784.08
503.43	793.44
503.60	812.17
503.78	741.95
503.95	734.93
504.13	730.25
504.30	704.50
504.48	737.27
504.65	774.72
504.83	653.01
505.01	711.52
505.18	662.37
505.36	645.99
505.53	725.57
505.71	671.73
505.88	662.37
506.06	629.60
506.23	561.73
506.41	589.82
506.58	613.22
506.76	554.71
506.93	589.82
507.11	645.99
507.28	585.13
507.46	559.39
507.63	545.34
507.81	524.28
507.98	610.88
508.16	535.98
508.33	521.94
508.50	615.56
508.68	498.53
508.85	650.67
509.03	613.22
509.20	674.07
509.38	620.24
509.55	608.54
509.73	582.79
509.90	582.79
510.08	489.17
510.25	594.50
510.42	498.53
510.60	514.92
510.77	531.30
510.95	531.30
511.12	493.85
511.30	454.06
511.47	550.03
511.64	507.90
511.82	512.58
511.99	554.71
512.17	543.00
512.34	550.03
512.51	468.11
512.69	517.26
512.86	505.56
513.04	559.39
513.21	369.80
513.38	503.22
513.56	433.00
513.73	444.70
513.90	521.94
514.08	458.74
514.25	409.59
514.43	503.22
514.60	491.51
514.77	449.38
514.95	407.25
515.12	430.66
515.29	463.43
515.47	409.59
515.64	437.68
515.81	416.62
515.99	472.79
516.16	430.66
516.33	500.87
516.51	463.43
516.68	444.70
516.85	489.17
517.03	493.85
517.20	393.21
517.37	390.87
517.54	435.34
517.72	390.87
517.89	355.76
518.06	344.06
518.24	468.11
518.41	517.26
518.58	482.15
518.75	416.62
518.93	386.19
519.10	383.85
519.27	341.72
519.45	388.53
519.62	411.93
519.79	486.83
519.96	454.06
520.14	430.66
520.31	372.15
520.48	376.83
520.65	433.00
520.83	416.62
521.00	440.02
521.17	416.62
521.34	400.23
521.52	365.12
521.69	360.44
521.86	411.93
522.03	463.43
522.20	386.19
522.38	369.80
522.55	325.33
522.72	425.98
522.89	472.79
523.07	447.04
523.24	381.51
523.41	444.70
523.58	465.77
523.75	416.62
523.92	414.27
524.10	433.00
524.27	449.38
524.44	428.32
524.61	437.68
524.78	379.17
524.96	425.98
525.13	442.36
525.30	491.51
525.47	491.51
525.64	458.74
525.81	482.15
525.98	475.13
526.16	430.66
526.33	416.62
526.50	486.83
526.67	472.79
526.84	430.66
527.01	486.83
527.18	564.07
527.36	580.45
527.53	610.88
527.70	727.91
527.87	608.54
528.04	580.45
528.21	587.47
528.38	528.96
528.55	538.32
528.72	564.07
528.89	589.82
529.07	587.47
529.24	566.41
529.41	557.05
529.58	538.32
529.75	538.32
529.92	610.88
530.09	554.71
530.26	545.34
530.43	601.52
530.60	641.31
530.77	713.86
530.94	697.48
531.11	695.14
531.28	716.20
531.46	793.44
531.63	758.33
531.80	784.08
531.97	861.32
532.14	976.00
532.31	1245.16
532.48	1432.41
532.65	1643.06
532.82	1891.15
532.99	1984.77
533.16	2455.22
533.33	2670.55
533.50	2511.39
533.67	2097.12
533.84	1804.55
534.01	1631.35
534.18	1437.09
534.35	1462.83
534.52	1394.96
534.69	1537.73
534.86	1563.48
535.03	1703.91
535.20	1612.63
535.37	1837.32
535.54	1860.73
535.71	1973.07
535.88	2083.08
536.05	2249.25
536.22	2413.09
536.38	2555.86
536.55	2803.96
536.72	3243.98
536.89	3562.30
537.06	3850.18
537.23	4271.48
537.40	4730.22
537.57	5177.26
537.74	5514.30
537.91	5741.33
538.08	5636.01
538.25	5951.98
538.42	6080.71
538.59	6073.69
538.75	6148.59
538.92	6558.18
539.09	7164.38
539.26	8037.40
539.43	8744.24
539.60	10221.12
539.77	11492.03
539.94	12865.92
540.11	14246.84
540.28	16210.55
540.44	17383.16
540.61	19208.78
540.78	21844.22
540.95	26185.91
541.12	31541.06
541.29	36287.67
541.46	38536.92
541.62	37883.91
541.79	36486.61
541.96	34141.39
542.13	30974.65
542.30	28919.66
542.47	27843.01
542.63	26504.23
542.80	25219.27
542.97	24702.01
543.14	24388.38
543.31	24233.91
543.48	24617.75
543.64	25319.92
543.81	24772.23
543.98	25387.79
544.15	25399.49
544.32	25685.04
544.48	25614.82
544.65	25296.51
544.82	24851.81
544.99	24915.00
545.16	25104.59
545.32	26602.53
545.49	39215.68
545.66	58789.58
545.83	65535.00
546.00	65535.00
546.16	60509.87
546.33	43501.20
546.50	33083.47
546.67	26150.81
546.83	22955.97
547.00	22064.23
547.17	21233.34
547.34	20346.28
547.50	19295.38
547.67	18698.54
547.84	17942.55
548.00	16996.97
548.17	16521.84
548.34	16102.89
548.51	15538.82
548.67	14429.40
548.84	13874.70
549.01	13020.40
549.18	12470.37
549.34	12049.08
549.51	11480.33
549.68	11253.30
549.84	10574.54
550.01	10303.04
550.18	9598.54
550.34	9153.84
550.51	8828.50
550.68	8428.27
550.84	8051.44
551.01	7796.32
551.18	7178.42
551.34	6942.03
551.51	6436.47
551.68	6263.27
551.84	6174.33
552.01	5797.51
552.18	5563.45
552.34	5338.76
552.51	5039.17
552.68	4966.62
552.84	4690.43
553.01	4472.76
553.18	4535.96
553.34	4388.50
553.51	4187.22
553.67	4035.08
553.84	3826.78
554.01	3632.51
554.17	3356.33
554.34	3105.89
554.51	3082.49
554.67	2878.86
554.84	2626.08
555.00	2408.41
555.17	2392.03
555.33	2321.81
555.50	2094.78
555.67	2029.24
555.83	1942.64
556.00	1916.90
556.16	2054.99
556.33	1827.96
556.50	1675.82
556.66	1638.38
556.83	1687.53
556.99	1502.62
557.16	1570.50
557.32	1607.95
557.49	1460.49
557.65	1341.13
557.82	1296.66
557.98	1320.06
558.15	1308.36
558.32	1275.59
558.48	1149.20
558.65	1207.72
558.81	1172.61
558.98	1240.48
559.14	1111.75
559.31	1149.20
559.47	1149.20
559.64	1071.97
559.80	1153.88
559.97	1046.22
560.13	1041.54
560.30	919.83
560.46	987.71
560.63	971.32
560.79	1114.10
560.96	1018.13
561.12	957.28
561.29	1015.79
561.45	1006.43
561.61	992.39
561.78	1114.10
561.94	1064.94
562.11	1050.90
562.27	964.30
562.44	978.34
562.60	1008.77
562.77	1032.18
562.93	997.07
563.10	826.21
563.26	861.32
563.42	931.53
563.59	903.45
563.75	798.12
563.92	884.72
564.08	823.87
564.24	952.60
564.41	814.51
564.57	788.76
564.74	751.31
564.90	858.98
565.07	826.21
565.23	774.72
565.39	711.52
565.56	702.16
565.72	814.51
565.88	730.25
566.05	727.91
566.21	772.38
566.38	744.29
566.54	730.25
566.70	751.31
566.87	681.10
567.03	753.65
567.19	781.74
567.36	823.87
567.52	720.88
567.68	725.57
567.85	772.38
568.01	699.82
568.17	800.46
568.34	840.25
568.50	795.78
568.66	741.95
568.83	837.91
568.99	744.29
569.15	781.74
569.32	748.97
569.48	727.91
569.64	727.91
569.81	671.73
569.97	622.58
570.13	627.26
570.30	566.41
570.46	634.29
570.62	671.73
570.78	596.84
570.95	571.09
571.11	582.79
571.27	526.62
571.43	503.22
571.60	617.90
571.76	526.62
571.92	479.81
572.09	533.64
572.25	557.05
572.41	561.73
572.57	573.43
572.74	643.65
572.90	643.65
573.06	585.13
573.22	554.71
573.38	624.92
573.55	645.99
573.71	697.48
573.87	620.24
574.03	617.90
574.20	606.20
574.36	690.46
574.52	713.86
574.68	798.12
574.84	772.38
575.01	823.87
575.17	830.89
575.33	753.65
575.49	966.64
575.65	945.58
575.82	1146.86
575.98	1146.86
576.14	1277.93
576.30	2338.20
576.46	7302.47
576.62	14998.15
576.79	20996.95
576.95	15096.46
577.11	8833.18
577.27	6179.01
577.43	4009.34
577.59	2457.56
577.75	2101.80
577.92	1872.43
578.08	1748.38
578.24	1806.89
578.40	2565.23
578.56	6799.26
578.72	14001.08
578.88	19271.97
579.04	13973.00
579.21	8386.14
579.37	5975.39
579.53	4601.49
579.69	4222.33
579.85	5156.20
580.01	6375.62
580.17	6562.86
580.33	5633.67
580.49	4641.28
580.65	4093.60
580.82	3796.35
580.98	3606.77
581.14	3763.58
581.30	3925.08
581.46	4135.73
581.62	4440.00
581.78	4561.70
581.94	5305.99
582.10	5430.04
582.26	5694.52
582.42	5956.66
582.58	6146.25
582.74	6181.35
582.90	6335.83
583.06	6340.51
583.22	6441.15
583.38	6422.43
583.54	6223.48
583.70	6452.86
583.86	6331.15
584.02	5933.26
584.18	6108.80
584.34	6099.44
584.50	5909.85
584.66	5703.89
584.82	5884.11
584.98	5657.07
585.14	5584.52
585.30	5455.79
585.46	5228.76
585.62	5217.05
585.78	5289.61
585.94	5235.78
586.10	5240.46
586.26	5633.67
586.42	6169.65
586.58	7463.97
586.74	9160.86
586.90	11204.14
587.06	12842.52
587.22	12807.41
587.38	11669.91
587.54	9745.99
587.70	8205.92
587.86	6977.14
588.02	5900.49
588.18	5022.79
588.34	4643.62
588.49	4341.69
588.65	4018.70
588.81	3754.22
588.97	3592.72
589.13	3473.36
589.29	3513.14
589.45	3534.21
589.61	3440.59
589.77	3520.17
589.93	3382.07
590.08	3695.71
590.24	3581.02
590.40	3751.88
590.56	4002.32
590.72	4058.49
590.88	4147.43
591.04	4259.78
591.20	4465.74
591.35	4760.65
591.51	4940.87
591.67	5132.79
591.83	5268.55
591.99	5561.11
592.15	6183.70
592.31	6988.84
592.46	7648.87
592.62	8196.56
592.78	8669.34
592.94	9331.72
593.10	9118.73
593.26	8627.21
593.41	7988.25
593.57	7082.46
593.73	6298.38
593.89	5589.20
594.05	5013.43
594.20	4526.60
594.36	4049.13
594.52	3719.11
594.68	3571.66
594.84	3463.99
594.99	3393.78
595.15	3225.26
595.31	3171.43
595.47	3143.34
595.62	3208.87
595.78	3115.25
595.94	3211.22
596.10	3155.04
596.25	3096.53
596.41	3169.09
596.57	3206.53
596.73	3148.02
596.88	3148.02
597.04	3096.53
597.20	3091.85
597.36	3232.28
597.51	3361.01
597.67	3473.36
597.83	3548.25
597.99	3719.11
598.14	4032.74
598.30	4140.41
598.46	4374.46
598.61	4573.41
598.77	5015.77
598.93	5123.43
599.09	5235.78
599.24	5474.51
599.40	5366.85
599.56	5160.88
599.71	4922.15
599.87	4697.46
600.03	4484.47
600.18	4215.30
600.34	3829.12
600.50	3618.47
600.65	3316.54
600.81	3199.51
600.97	3084.83
601.12	2867.16
601.28	2729.06
601.44	2745.45
601.59	2539.48
601.75	2497.35
601.91	2298.41
602.06	2186.06
602.22	2256.28
602.37	2101.80
602.53	2101.80
602.69	2078.40
602.84	1980.09
603.00	1989.46
603.16	2104.14
603.31	2071.37
603.47	2176.70
603.62	2134.57
603.78	2293.72
603.94	2251.60
604.09	2270.32
604.25	2389.69
604.40	2359.26
604.56	2385.01
