SpectraSuite Data File
++++++++++++++++++++++++++++++++++++
Date: Fri Oct 04 11:41:47 GMT-05:00 2013
User: price-jones
Dark Spectrum Present: No
Reference Spectrum Present: No
Number of Sampled Component Spectra: 1
Spectrometers: USB2+H05261
Integration Time (usec): 100000 (USB2+H05261)
Spectra Averaged: 1 (USB2+H05261)
Boxcar Smoothing: 0 (USB2+H05261)
Correct for Electrical Dark: No (USB2+H05261)
Strobe/Lamp Enabled: No (USB2+H05261)
Correct for Detector Non-linearity: No (USB2+H05261)
Correct for Stray Light: No (USB2+H05261)
Number of Pixels in Processed Spectrum: 2048
>>>>>Begin Processed Spectral Data<<<<<
365.73	53.83
365.92	53.83
366.12	53.83
366.32	0.00
366.52	0.00
366.72	0.00
366.91	0.00
367.11	0.00
367.31	0.00
367.51	0.00
367.70	0.00
367.90	0.00
368.10	0.00
368.30	0.00
368.49	0.00
368.69	0.00
368.89	0.00
369.09	0.00
369.28	11.70
369.48	0.00
369.68	0.00
369.87	2.34
370.07	9.36
370.27	23.41
370.47	60.85
370.66	35.11
370.86	152.13
371.06	100.64
371.25	124.05
371.45	46.81
371.65	93.62
371.84	86.60
372.04	44.47
372.24	100.64
372.44	53.83
372.63	56.17
372.83	154.48
373.03	91.28
373.22	98.30
373.42	95.96
373.62	135.75
373.81	91.28
374.01	102.98
374.21	79.58
374.40	128.73
374.60	128.73
374.79	58.51
374.99	105.32
375.19	100.64
375.38	138.09
375.58	138.09
375.78	175.54
375.97	180.22
376.17	220.01
376.37	166.18
376.56	184.90
376.76	147.45
376.95	100.64
377.15	79.58
377.35	117.03
377.54	110.01
377.74	70.22
377.93	117.03
378.13	117.03
378.33	93.62
378.52	105.32
378.72	126.39
378.91	79.58
379.11	114.69
379.31	112.35
379.50	23.41
379.70	98.30
379.89	147.45
380.09	84.26
380.28	107.66
380.48	74.90
380.68	182.56
380.87	191.92
381.07	107.66
381.26	163.84
381.46	145.11
381.65	133.41
381.85	170.86
382.04	166.18
382.24	93.62
382.43	131.07
382.63	81.92
382.83	16.38
383.02	205.97
383.22	86.60
383.41	107.66
383.61	142.77
383.80	67.88
384.00	95.96
384.19	86.60
384.39	23.41
384.58	110.01
384.78	194.26
384.97	133.41
385.17	152.13
385.36	107.66
385.56	166.18
385.75	114.69
385.95	77.24
386.14	72.56
386.34	131.07
386.53	28.09
386.72	58.51
386.92	98.30
387.11	98.30
387.31	159.16
387.50	37.45
387.70	81.92
387.89	114.69
388.09	135.75
388.28	145.11
388.48	100.64
388.67	121.71
388.86	180.22
389.06	147.45
389.25	84.26
389.45	32.77
389.64	119.37
389.84	189.58
390.03	128.73
390.22	142.77
390.42	91.28
390.61	131.07
390.81	58.51
391.00	140.43
391.19	110.01
391.39	163.84
391.58	126.39
391.78	154.48
391.97	114.69
392.16	30.43
392.36	175.54
392.55	177.88
392.75	124.05
392.94	86.60
393.13	53.83
393.33	159.16
393.52	135.75
393.71	154.48
393.91	98.30
394.10	37.45
394.29	51.49
394.49	95.96
394.68	154.48
394.88	168.52
395.07	95.96
395.26	212.99
395.46	201.29
395.65	168.52
395.84	93.62
396.04	163.84
396.23	112.35
396.42	91.28
396.62	149.79
396.81	112.35
397.00	98.30
397.19	168.52
397.39	102.98
397.58	145.11
397.77	117.03
397.97	107.66
398.16	128.73
398.35	149.79
398.55	110.01
398.74	74.90
398.93	212.99
399.12	159.16
399.32	95.96
399.51	128.73
399.70	124.05
399.90	177.88
400.09	166.18
400.28	142.77
400.47	100.64
400.67	187.24
400.86	198.95
401.05	65.54
401.24	100.64
401.44	149.79
401.63	177.88
401.82	93.62
402.01	114.69
402.21	100.64
402.40	91.28
402.59	149.79
402.78	154.48
402.97	156.82
403.17	184.90
403.36	208.31
403.55	180.22
403.74	454.06
403.93	1371.55
404.13	2867.16
404.32	3316.54
404.51	2558.21
404.70	1614.97
404.89	664.71
405.09	344.06
405.28	163.84
405.47	163.84
405.66	124.05
405.85	210.65
406.05	187.24
406.24	107.66
406.43	175.54
406.62	168.52
406.81	264.48
407.00	264.48
407.20	442.36
407.39	489.17
407.58	472.79
407.77	355.76
407.96	322.99
408.15	191.92
408.34	224.69
408.54	173.20
408.73	128.73
408.92	128.73
409.11	196.60
409.30	252.78
409.49	145.11
409.68	140.43
409.87	107.66
410.07	163.84
410.26	131.07
410.45	154.48
410.64	173.20
410.83	182.56
411.02	196.60
411.21	180.22
411.40	159.16
411.59	196.60
411.78	196.60
411.98	163.84
412.17	117.03
412.36	128.73
412.55	170.86
412.74	212.99
412.93	175.54
413.12	126.39
413.31	203.63
413.50	117.03
413.69	170.86
413.88	189.58
414.07	208.31
414.26	133.41
414.45	177.88
414.64	170.86
414.83	149.79
415.02	154.48
415.22	198.95
415.41	222.35
415.60	159.16
415.79	166.18
415.98	126.39
416.17	147.45
416.36	145.11
416.55	189.58
416.74	217.67
416.93	234.05
417.12	194.26
417.31	156.82
417.50	198.95
417.69	208.31
417.88	198.95
418.07	210.65
418.26	217.67
418.45	220.01
418.64	252.78
418.83	227.03
419.02	152.13
419.21	205.97
419.39	147.45
419.58	229.37
419.77	175.54
419.96	236.39
420.15	224.69
420.34	161.50
420.53	201.29
420.72	252.78
420.91	212.99
421.10	238.73
421.29	294.91
421.48	262.14
421.67	201.29
421.86	194.26
422.05	152.13
422.24	198.95
422.43	227.03
422.61	189.58
422.80	180.22
422.99	170.86
423.18	243.42
423.37	271.50
423.56	266.82
423.75	236.39
423.94	227.03
424.13	119.37
424.32	227.03
424.50	194.26
424.69	173.20
424.88	243.42
425.07	248.10
425.26	215.33
425.45	210.65
425.64	229.37
425.83	212.99
426.01	259.80
426.20	262.14
426.39	187.24
426.58	168.52
426.77	205.97
426.96	203.63
427.15	159.16
427.33	168.52
427.52	250.44
427.71	229.37
427.90	266.82
428.09	198.95
428.28	205.97
428.46	273.84
428.65	152.13
428.84	269.16
429.03	243.42
429.22	234.05
429.40	210.65
429.59	234.05
429.78	334.70
429.97	262.14
430.16	196.60
430.34	276.18
430.53	215.33
430.72	236.39
430.91	210.65
431.10	304.27
431.28	212.99
431.47	299.59
431.66	306.61
431.85	224.69
432.03	259.80
432.22	304.27
432.41	290.23
432.60	294.91
432.79	231.71
432.97	334.70
433.16	358.10
433.35	358.10
433.54	458.74
433.72	318.31
433.91	367.46
434.10	440.02
434.28	484.49
434.47	482.15
434.66	650.67
434.85	781.74
435.03	2340.54
435.22	8397.84
435.41	14796.87
435.59	12849.54
435.78	8329.97
435.97	4133.39
436.16	1696.89
436.34	653.01
436.53	528.96
436.72	409.59
436.90	360.44
437.09	332.36
437.28	411.93
437.46	320.65
437.65	374.49
437.84	322.99
438.02	313.63
438.21	315.97
438.40	266.82
438.58	283.20
438.77	273.84
438.96	236.39
439.14	301.93
439.33	360.44
439.52	334.70
439.70	299.59
439.89	255.12
440.08	257.46
440.26	243.42
440.45	285.55
440.63	376.83
440.82	205.97
441.01	238.73
441.19	290.23
441.38	330.02
441.57	250.44
441.75	266.82
441.94	339.38
442.12	259.80
442.31	252.78
442.50	236.39
442.68	241.08
442.87	236.39
443.05	306.61
443.24	337.04
443.43	283.20
443.61	341.72
443.80	320.65
443.98	273.84
444.17	245.76
444.35	266.82
444.54	271.50
444.73	248.10
444.91	311.29
445.10	299.59
445.28	187.24
445.47	306.61
445.65	229.37
445.84	227.03
446.02	238.73
446.21	304.27
446.39	276.18
446.58	252.78
446.77	177.88
446.95	301.93
447.14	360.44
447.32	327.68
447.51	308.95
447.69	287.89
447.88	311.29
448.06	257.46
448.25	304.27
448.43	280.86
448.62	297.25
448.80	269.16
448.99	215.33
449.17	203.63
449.36	318.31
449.54	353.42
449.73	234.05
449.91	306.61
450.10	318.31
450.28	400.23
450.46	334.70
450.65	306.61
450.83	250.44
451.02	257.46
451.20	280.86
451.39	269.16
451.57	269.16
451.76	271.50
451.94	337.04
452.13	306.61
452.31	287.89
452.49	344.06
452.68	252.78
452.86	229.37
453.05	257.46
453.23	266.82
453.42	255.12
453.60	292.57
453.78	280.86
453.97	301.93
454.15	278.52
454.34	344.06
454.52	290.23
454.70	327.68
454.89	266.82
455.07	287.89
455.26	287.89
455.44	322.99
455.62	290.23
455.81	294.91
455.99	278.52
456.17	271.50
456.36	259.80
456.54	269.16
456.73	217.67
456.91	248.10
457.09	315.97
457.28	250.44
457.46	360.44
457.64	308.95
457.83	229.37
458.01	322.99
458.19	299.59
458.38	271.50
458.56	266.82
458.74	287.89
458.93	266.82
459.11	250.44
459.29	259.80
459.48	294.91
459.66	369.80
459.84	238.73
460.03	327.68
460.21	315.97
460.39	327.68
460.57	330.02
460.76	276.18
460.94	276.18
461.12	351.08
461.31	308.95
461.49	217.67
461.67	243.42
461.85	278.52
462.04	220.01
462.22	746.63
462.40	344.06
462.59	332.36
462.77	212.99
462.95	311.29
463.13	271.50
463.32	271.50
463.50	325.33
463.68	236.39
463.86	227.03
464.05	339.38
464.23	297.25
464.41	290.23
464.59	339.38
464.78	315.97
464.96	290.23
465.14	243.42
465.32	257.46
465.50	374.49
465.69	369.80
465.87	292.57
466.05	280.86
466.23	306.61
466.41	299.59
466.60	273.84
466.78	341.72
466.96	341.72
467.14	294.91
467.32	294.91
467.51	320.65
467.69	318.31
467.87	360.44
468.05	252.78
468.23	297.25
468.41	191.92
468.60	337.04
468.78	372.15
468.96	320.65
469.14	280.86
469.32	353.42
469.50	220.01
469.69	248.10
469.87	229.37
470.05	334.70
470.23	273.84
470.41	285.55
470.59	180.22
470.77	271.50
470.95	238.73
471.14	250.44
471.32	322.99
471.50	273.84
471.68	264.48
471.86	245.76
472.04	245.76
472.22	322.99
472.40	196.60
472.58	290.23
472.77	250.44
472.95	266.82
473.13	327.68
473.31	360.44
473.49	238.73
473.67	224.69
473.85	369.80
474.03	304.27
474.21	327.68
474.39	341.72
474.57	337.04
474.75	311.29
474.93	304.27
475.12	280.86
475.30	255.12
475.48	278.52
475.66	322.99
475.84	210.65
476.02	215.33
476.20	266.82
476.38	236.39
476.56	386.19
476.74	339.38
476.92	287.89
477.10	311.29
477.28	278.52
477.46	334.70
477.64	252.78
477.82	255.12
478.00	266.82
478.18	386.19
478.36	327.68
478.54	341.72
478.72	292.57
478.90	332.36
479.08	367.46
479.26	390.87
479.44	299.59
479.62	322.99
479.80	313.63
479.98	372.15
480.16	404.91
480.34	360.44
480.52	395.55
480.70	297.25
480.88	334.70
481.06	461.09
481.24	444.70
481.41	421.30
481.59	489.17
481.77	545.34
481.95	440.02
482.13	599.18
482.31	550.03
482.49	500.87
482.67	657.69
482.85	650.67
483.03	695.14
483.21	805.14
483.39	711.52
483.57	751.31
483.74	966.64
483.92	926.85
484.10	966.64
484.28	1053.24
484.46	999.41
484.64	1060.26
484.82	1050.90
485.00	1156.22
485.18	1254.53
485.35	1376.24
485.53	1322.40
485.71	1387.94
485.89	1350.49
486.07	1444.11
486.25	1490.92
486.43	1605.61
486.61	1406.66
486.78	1519.01
486.96	1458.15
487.14	1476.88
487.32	1397.30
487.50	1495.60
487.68	1547.09
487.85	1378.58
488.03	1446.45
488.21	1432.41
488.39	1296.66
488.57	1404.32
488.75	1399.64
488.92	1481.56
489.10	1306.02
489.28	1308.36
489.46	1221.76
489.64	1188.99
489.81	1174.95
489.99	1235.80
490.17	1219.42
490.35	1254.53
490.53	1078.99
490.70	1214.74
490.88	1137.50
491.06	1277.93
491.24	1275.59
491.41	1320.06
491.59	1179.63
491.77	1149.20
491.95	1125.80
492.13	1057.92
492.30	1008.77
492.48	966.64
492.66	1008.77
492.84	912.81
493.01	1041.54
493.19	952.60
493.37	985.37
493.54	938.55
493.72	1015.79
493.90	912.81
494.08	910.47
494.25	828.55
494.43	1004.09
494.61	910.47
494.79	861.32
494.96	875.36
495.14	887.06
495.32	898.77
495.49	889.40
495.67	873.02
495.85	868.34
496.02	849.61
496.20	866.00
496.38	884.72
496.55	765.36
496.73	713.86
496.91	793.44
497.09	772.38
497.26	760.67
497.44	709.18
497.62	690.46
497.79	746.63
497.97	711.52
498.14	725.57
498.32	645.99
498.50	671.73
498.67	559.39
498.85	566.41
499.03	667.05
499.20	631.94
499.38	578.11
499.56	660.03
499.73	608.54
499.91	589.82
500.08	599.18
500.26	603.86
500.44	538.32
500.61	486.83
500.79	472.79
500.97	554.71
501.14	587.47
501.32	514.92
501.49	465.77
501.67	510.24
501.84	433.00
502.02	526.62
502.20	468.11
502.37	503.22
502.55	430.66
502.72	395.55
502.90	358.10
503.07	383.85
503.25	423.64
503.43	355.76
503.60	365.12
503.78	418.96
503.95	423.64
504.13	379.17
504.30	414.27
504.48	306.61
504.65	337.04
504.83	409.59
505.01	337.04
505.18	367.46
505.36	428.32
505.53	411.93
505.71	330.02
505.88	346.40
506.06	351.08
506.23	362.78
506.41	376.83
506.58	348.74
506.76	332.36
506.93	348.74
507.11	341.72
507.28	308.95
507.46	297.25
507.63	348.74
507.81	222.35
507.98	348.74
508.16	259.80
508.33	362.78
508.50	353.42
508.68	376.83
508.85	339.38
509.03	346.40
509.20	262.14
509.38	297.25
509.55	365.12
509.73	367.46
509.90	369.80
510.08	292.57
510.25	264.48
510.42	337.04
510.60	339.38
510.77	287.89
510.95	365.12
511.12	269.16
511.30	306.61
511.47	308.95
511.64	437.68
511.82	269.16
511.99	355.76
512.17	318.31
512.34	348.74
512.51	322.99
512.69	337.04
512.86	365.12
513.04	362.78
513.21	383.85
513.38	252.78
513.56	325.33
513.73	285.55
513.90	280.86
514.08	346.40
514.25	273.84
514.43	280.86
514.60	276.18
514.77	292.57
514.95	330.02
515.12	301.93
515.29	290.23
515.47	297.25
515.64	369.80
515.81	320.65
515.99	280.86
516.16	257.46
516.33	287.89
516.51	262.14
516.68	299.59
516.85	297.25
517.03	278.52
517.20	327.68
517.37	241.08
517.54	362.78
517.72	259.80
517.89	259.80
518.06	220.01
518.24	327.68
518.41	306.61
518.58	313.63
518.75	238.73
518.93	325.33
519.10	334.70
519.27	269.16
519.45	337.04
519.62	276.18
519.79	294.91
519.96	304.27
520.14	297.25
520.31	339.38
520.48	252.78
520.65	280.86
520.83	315.97
521.00	262.14
521.17	290.23
521.34	299.59
521.52	283.20
521.69	325.33
521.86	271.50
522.03	285.55
522.20	318.31
522.38	341.72
522.55	308.95
522.72	243.42
522.89	306.61
523.07	301.93
523.24	276.18
523.41	313.63
523.58	348.74
523.75	299.59
523.92	262.14
524.10	360.44
524.27	252.78
524.44	245.76
524.61	337.04
524.78	243.42
524.96	360.44
525.13	285.55
525.30	358.10
525.47	341.72
525.64	344.06
525.81	332.36
525.98	360.44
526.16	262.14
526.33	294.91
526.50	337.04
526.67	285.55
526.84	259.80
527.01	243.42
527.18	299.59
527.36	339.38
527.53	351.08
527.70	397.89
527.87	327.68
528.04	306.61
528.21	330.02
528.38	355.76
528.55	339.38
528.72	358.10
528.89	337.04
529.07	241.08
529.24	348.74
529.41	407.25
529.58	318.31
529.75	327.68
529.92	379.17
530.09	365.12
530.26	348.74
530.43	369.80
530.60	334.70
530.77	283.20
530.94	341.72
531.11	409.59
531.28	355.76
531.46	393.21
531.63	402.57
531.80	479.81
531.97	418.96
532.14	531.30
532.31	582.79
532.48	638.97
532.65	650.67
532.82	676.41
532.99	814.51
533.16	905.79
533.33	936.21
533.50	929.19
533.67	784.08
533.84	643.65
534.01	664.71
534.18	643.65
534.35	589.82
534.52	552.37
534.69	713.86
534.86	634.29
535.03	664.71
535.20	711.52
535.37	730.25
535.54	734.93
535.71	786.42
535.88	854.30
536.05	880.04
536.22	858.98
536.38	999.41
536.55	1137.50
536.72	1160.91
536.89	1231.12
537.06	1352.83
537.23	1397.30
537.40	1638.38
537.57	1692.21
537.74	1823.28
537.91	1923.92
538.08	1926.26
538.25	1970.73
538.42	1994.14
538.59	2050.31
538.75	2043.29
538.92	2202.44
539.09	2406.07
539.26	2619.06
539.43	3012.27
539.60	3480.38
539.77	3782.31
539.94	4184.88
540.11	4498.51
540.28	4924.49
540.44	5404.30
540.61	6066.67
540.78	6684.57
540.95	8308.90
541.12	9816.21
541.29	10621.35
541.46	10946.69
541.62	10731.36
541.79	10345.17
541.96	9584.49
542.13	9022.77
542.30	8477.42
542.47	8149.75
542.63	7733.13
542.80	7517.80
542.97	7470.99
543.14	7403.11
543.31	7262.68
543.48	7454.61
543.64	7571.63
543.81	7648.87
543.98	7531.84
544.15	7630.15
544.32	7653.55
544.48	7644.19
544.65	7463.97
544.82	7506.10
544.99	7318.86
545.16	7758.88
545.32	8156.77
545.49	16453.97
545.66	26972.33
545.83	28751.14
546.00	23503.66
546.16	16526.52
546.33	11957.80
546.50	8980.64
546.67	7375.03
546.83	6747.76
547.00	6492.65
547.17	6099.44
547.34	5872.40
547.50	5694.52
547.67	5458.13
547.84	5359.83
548.00	5074.28
548.17	4798.10
548.34	4617.88
548.51	4449.36
548.67	4372.12
548.84	4102.96
549.01	4077.21
549.18	3754.22
549.34	3669.96
549.51	3550.59
549.68	3459.31
549.84	3318.88
550.01	3197.17
550.18	3094.19
550.34	3077.80
550.51	2794.60
550.68	2616.72
550.84	2504.37
551.01	2413.09
551.18	2321.81
551.34	2232.87
551.51	2101.80
551.68	2033.93
551.84	1984.77
552.01	1881.79
552.18	1778.81
552.34	1750.72
552.51	1678.16
552.68	1673.48
552.84	1500.28
553.01	1488.58
553.18	1537.73
553.34	1378.58
553.51	1493.26
553.67	1306.02
553.84	1235.80
554.01	1128.14
554.17	1121.12
554.34	1093.03
554.51	1086.01
554.67	961.96
554.84	999.41
555.00	873.02
555.17	807.48
555.33	851.96
555.50	791.10
555.67	725.57
555.83	702.16
556.00	662.37
556.16	889.40
556.33	678.76
556.50	634.29
556.66	636.63
556.83	568.75
556.99	603.86
557.16	606.20
557.32	631.94
557.49	667.05
557.65	592.16
557.82	592.16
557.98	512.58
558.15	538.32
558.32	543.00
558.48	500.87
558.65	472.79
558.81	540.66
558.98	456.40
559.14	486.83
559.31	458.74
559.47	489.17
559.64	519.60
559.80	463.43
559.97	498.53
560.13	475.13
560.30	456.40
560.46	444.70
560.63	435.34
560.79	468.11
560.96	449.38
561.12	468.11
561.29	425.98
561.45	447.04
561.61	465.77
561.78	552.37
561.94	397.89
562.11	451.72
562.27	465.77
562.44	433.00
562.60	458.74
562.77	463.43
562.93	587.47
563.10	388.53
563.26	444.70
563.42	503.22
563.59	456.40
563.75	425.98
563.92	393.21
564.08	409.59
564.24	475.13
564.41	447.04
564.57	360.44
564.74	397.89
564.90	353.42
565.07	418.96
565.23	409.59
565.39	358.10
565.56	482.15
565.72	430.66
565.88	433.00
566.05	393.21
566.21	397.89
566.38	433.00
566.54	409.59
566.70	430.66
566.87	379.17
567.03	360.44
567.19	372.15
567.36	421.30
567.52	327.68
567.68	332.36
567.85	383.85
568.01	344.06
568.17	425.98
568.34	355.76
568.50	407.25
568.66	374.49
568.83	428.32
568.99	374.49
569.15	372.15
569.32	376.83
569.48	351.08
569.64	381.51
569.81	362.78
569.97	367.46
570.13	348.74
570.30	372.15
570.46	353.42
570.62	318.31
570.78	351.08
570.95	294.91
571.11	355.76
571.27	341.72
571.43	306.61
571.60	365.12
571.76	404.91
571.92	315.97
572.09	311.29
572.25	369.80
572.41	308.95
572.57	318.31
572.74	362.78
572.90	339.38
573.06	351.08
573.22	339.38
573.38	407.25
573.55	308.95
573.71	299.59
573.87	360.44
574.03	379.17
574.20	341.72
574.36	369.80
574.52	365.12
574.68	409.59
574.84	407.25
575.01	477.47
575.17	510.24
575.33	423.64
575.49	428.32
575.65	500.87
575.82	451.72
575.98	571.09
576.14	594.50
576.30	1280.27
576.46	3674.64
576.62	4917.47
576.79	4854.27
576.95	3431.23
577.11	2448.20
577.27	1713.27
577.43	1228.78
577.59	919.83
577.75	807.48
577.92	702.16
578.08	655.35
578.24	718.54
578.40	1444.11
578.56	3534.21
578.72	4636.60
578.88	4470.42
579.04	3496.76
579.21	2347.56
579.37	1851.36
579.53	1551.78
579.69	1586.88
579.85	1994.14
580.01	2069.03
580.17	1961.37
580.33	1654.76
580.49	1472.20
580.65	1348.15
580.82	1270.91
580.98	1259.21
581.14	1207.72
581.30	1289.64
581.46	1364.53
581.62	1455.81
581.78	1516.67
581.94	1668.80
582.10	1668.80
582.26	1830.30
582.42	1968.39
582.58	1977.75
582.74	1940.30
582.90	2090.10
583.06	1944.99
583.22	2062.01
583.38	2043.29
583.54	1984.77
583.70	1989.46
583.86	1966.05
584.02	1991.80
584.18	1877.11
584.34	1877.11
584.50	1961.37
584.66	1813.92
584.82	1816.26
584.98	1771.79
585.14	1769.44
585.30	1760.08
585.46	1685.19
585.62	1671.14
585.78	1678.16
585.94	1661.78
586.10	1701.57
586.26	1771.79
586.42	2235.21
586.58	2476.29
586.74	3009.93
586.90	3522.51
587.06	3691.02
587.22	3691.02
587.38	3087.17
587.54	2738.43
587.70	2415.43
587.86	2059.67
588.02	1846.68
588.18	1638.38
588.34	1460.49
588.49	1327.08
588.65	1306.02
588.81	1219.42
588.97	1111.75
589.13	1132.82
589.29	1214.74
589.45	1186.65
589.61	1203.04
589.77	1184.31
589.93	1158.57
590.08	1224.10
590.24	1299.00
590.40	1263.89
590.56	1320.06
590.72	1277.93
590.88	1299.00
591.04	1420.71
591.20	1357.51
591.35	1530.71
591.51	1582.20
591.67	1598.59
591.83	1696.89
591.99	1811.57
592.15	2010.52
592.31	2113.50
592.46	2267.98
592.62	2497.35
592.78	2600.34
592.94	2642.46
593.10	2670.55
593.26	2420.11
593.41	2279.68
593.57	2071.37
593.73	1806.89
593.89	1764.76
594.05	1500.28
594.20	1387.94
594.36	1380.92
594.52	1151.54
594.68	1121.12
594.84	1071.97
594.99	1083.67
595.15	1156.22
595.31	1111.75
595.47	1107.07
595.62	1043.88
595.78	1158.57
595.94	1034.52
596.10	1093.03
596.25	1018.13
596.41	1011.11
596.57	1123.46
596.73	945.58
596.88	1139.84
597.04	1041.54
597.20	1025.15
597.36	1013.45
597.51	1086.01
597.67	1116.44
597.83	1130.48
597.99	1291.98
598.14	1235.80
598.30	1362.19
598.46	1376.24
598.61	1593.90
598.77	1427.73
598.93	1577.52
599.09	1572.84
599.24	1727.32
599.40	1643.06
599.56	1614.97
599.71	1638.38
599.87	1469.86
600.03	1418.36
600.18	1341.13
600.34	1277.93
600.50	1053.24
600.65	1095.37
600.81	1050.90
600.97	940.90
601.12	990.05
601.28	978.34
601.44	894.08
601.59	905.79
601.75	863.66
601.91	781.74
602.06	788.76
602.22	875.36
602.37	791.10
602.53	702.16
602.69	812.17
602.84	741.95
603.00	791.10
603.16	770.04
603.31	821.53
603.47	770.04
603.62	753.65
603.78	800.46
603.94	840.25
604.09	856.64
604.25	856.64
604.40	887.06
604.56	837.91
604.71	880.04
604.87	854.30
605.03	922.17
605.18	873.02
605.34	875.36
605.49	908.13
605.65	1027.50
605.80	936.21
605.96	952.60
606.12	1008.77
606.27	1067.28
606.43	1057.92
606.58	1165.59
606.74	1174.95
606.89	1188.99
607.05	1249.85
607.20	1406.66
607.36	1514.33
607.51	1523.69
