SpectraSuite Data File
++++++++++++++++++++++++++++++++++++
Date: Fri Oct 04 11:42:29 GMT-05:00 2013
User: price-jones
Dark Spectrum Present: No
Reference Spectrum Present: No
Number of Sampled Component Spectra: 1
Spectrometers: USB2+H05261
Integration Time (usec): 100000 (USB2+H05261)
Spectra Averaged: 1 (USB2+H05261)
Boxcar Smoothing: 0 (USB2+H05261)
Correct for Electrical Dark: No (USB2+H05261)
Strobe/Lamp Enabled: No (USB2+H05261)
Correct for Detector Non-linearity: No (USB2+H05261)
Correct for Stray Light: No (USB2+H05261)
Number of Pixels in Processed Spectrum: 2048
>>>>>Begin Processed Spectral Data<<<<<
365.73	117.03
365.92	117.03
366.12	117.03
366.32	14.04
366.52	0.00
366.72	0.00
366.91	0.00
367.11	0.00
367.31	0.00
367.51	0.00
367.70	0.00
367.90	0.00
368.10	0.00
368.30	0.00
368.49	4.68
368.69	0.00
368.89	0.00
369.09	0.00
369.28	0.00
369.48	0.00
369.68	0.00
369.87	0.00
370.07	0.00
370.27	42.13
370.47	9.36
370.66	0.00
370.86	53.83
371.06	56.17
371.25	0.00
371.45	7.02
371.65	84.26
371.84	16.38
372.04	117.03
372.24	58.51
372.44	84.26
372.63	102.98
372.83	124.05
373.03	145.11
373.22	65.54
373.42	70.22
373.62	51.49
373.81	77.24
374.01	95.96
374.21	168.52
374.40	105.32
374.60	121.71
374.79	170.86
374.99	72.56
375.19	140.43
375.38	208.31
375.58	100.64
375.78	110.01
375.97	128.73
376.17	105.32
376.37	140.43
376.56	81.92
376.76	133.41
376.95	100.64
377.15	149.79
377.35	88.94
377.54	140.43
377.74	114.69
377.93	56.17
378.13	133.41
378.33	105.32
378.52	191.92
378.72	117.03
378.91	133.41
379.11	142.77
379.31	124.05
379.50	84.26
379.70	210.65
379.89	138.09
380.09	93.62
380.28	107.66
380.48	81.92
380.68	74.90
380.87	95.96
381.07	53.83
381.26	79.58
381.46	105.32
381.65	166.18
381.85	91.28
382.04	93.62
382.24	210.65
382.43	100.64
382.63	107.66
382.83	147.45
383.02	84.26
383.22	133.41
383.41	77.24
383.61	42.13
383.80	95.96
384.00	77.24
384.19	187.24
384.39	112.35
384.58	91.28
384.78	105.32
384.97	100.64
385.17	74.90
385.36	81.92
385.56	58.51
385.75	79.58
385.95	42.13
386.14	88.94
386.34	65.54
386.53	107.66
386.72	91.28
386.92	84.26
387.11	112.35
387.31	107.66
387.50	110.01
387.70	37.45
387.89	79.58
388.09	105.32
388.28	72.56
388.48	142.77
388.67	166.18
388.86	102.98
389.06	138.09
389.25	184.90
389.45	138.09
389.64	58.51
389.84	163.84
390.03	110.01
390.22	173.20
390.42	168.52
390.61	152.13
390.81	65.54
391.00	124.05
391.19	168.52
391.39	131.07
391.58	128.73
391.78	91.28
391.97	128.73
392.16	74.90
392.36	135.75
392.55	107.66
392.75	56.17
392.94	121.71
393.13	121.71
393.33	128.73
393.52	112.35
393.71	112.35
393.91	70.22
394.10	100.64
394.29	88.94
394.49	79.58
394.68	142.77
394.88	119.37
395.07	93.62
395.26	128.73
395.46	128.73
395.65	128.73
395.84	163.84
396.04	114.69
396.23	74.90
396.42	67.88
396.62	100.64
396.81	84.26
397.00	60.85
397.19	135.75
397.39	159.16
397.58	182.56
397.77	159.16
397.97	154.48
398.16	145.11
398.35	159.16
398.55	177.88
398.74	168.52
398.93	149.79
399.12	91.28
399.32	145.11
399.51	112.35
399.70	98.30
399.90	159.16
400.09	49.15
400.28	86.60
400.47	46.81
400.67	121.71
400.86	145.11
401.05	105.32
401.24	102.98
401.44	154.48
401.63	208.31
401.82	194.26
402.01	91.28
402.21	149.79
402.40	191.92
402.59	112.35
402.78	133.41
402.97	159.16
403.17	184.90
403.36	128.73
403.55	161.50
403.74	341.72
403.93	880.04
404.13	1626.67
404.32	1771.79
404.51	1406.66
404.70	880.04
404.89	414.27
405.09	170.86
405.28	159.16
405.47	163.84
405.66	149.79
405.85	159.16
406.05	121.71
406.24	133.41
406.43	194.26
406.62	128.73
406.81	98.30
407.00	229.37
407.20	290.23
407.39	306.61
407.58	301.93
407.77	250.44
407.96	173.20
408.15	114.69
408.34	163.84
408.54	128.73
408.73	212.99
408.92	145.11
409.11	170.86
409.30	227.03
409.49	88.94
409.68	145.11
409.87	117.03
410.07	168.52
410.26	173.20
410.45	161.50
410.64	49.15
410.83	65.54
411.02	203.63
411.21	110.01
411.40	79.58
411.59	187.24
411.78	170.86
411.98	154.48
412.17	140.43
412.36	124.05
412.55	114.69
412.74	128.73
412.93	229.37
413.12	182.56
413.31	196.60
413.50	152.13
413.69	147.45
413.88	212.99
414.07	175.54
414.26	173.20
414.45	86.60
414.64	191.92
414.83	98.30
415.02	98.30
415.22	140.43
415.41	189.58
415.60	135.75
415.79	117.03
415.98	208.31
416.17	152.13
416.36	184.90
416.55	88.94
416.74	170.86
416.93	224.69
417.12	105.32
417.31	177.88
417.50	168.52
417.69	182.56
417.88	119.37
418.07	168.52
418.26	173.20
418.45	163.84
418.64	220.01
418.83	163.84
419.02	201.29
419.21	196.60
419.39	166.18
419.58	65.54
419.77	163.84
419.96	93.62
420.15	189.58
420.34	154.48
420.53	215.33
420.72	159.16
420.91	147.45
421.10	161.50
421.29	170.86
421.48	231.71
421.67	170.86
421.86	149.79
422.05	93.62
422.24	119.37
422.43	252.78
422.61	152.13
422.80	170.86
422.99	124.05
423.18	205.97
423.37	215.33
423.56	191.92
423.75	191.92
423.94	107.66
424.13	198.95
424.32	177.88
424.50	154.48
424.69	208.31
424.88	187.24
425.07	98.30
425.26	128.73
425.45	184.90
425.64	184.90
425.83	177.88
426.01	222.35
426.20	224.69
426.39	187.24
426.58	180.22
426.77	191.92
426.96	154.48
427.15	194.26
427.33	203.63
427.52	194.26
427.71	161.50
427.90	168.52
428.09	152.13
428.28	189.58
428.46	234.05
428.65	208.31
428.84	229.37
429.03	191.92
429.22	152.13
429.40	114.69
429.59	184.90
429.78	241.08
429.97	229.37
430.16	147.45
430.34	168.52
430.53	187.24
430.72	189.58
430.91	245.76
431.10	112.35
431.28	191.92
431.47	201.29
431.66	191.92
431.85	196.60
432.03	215.33
432.22	259.80
432.41	243.42
432.60	152.13
432.79	198.95
432.97	287.89
433.16	229.37
433.35	255.12
433.54	278.52
433.72	264.48
433.91	266.82
434.10	308.95
434.28	355.76
434.47	327.68
434.66	435.34
434.85	538.32
435.03	1568.16
435.22	5256.84
435.41	8126.34
435.59	7176.08
435.78	4491.49
435.97	2277.34
436.16	973.66
436.34	477.47
436.53	346.40
436.72	301.93
436.90	184.90
437.09	238.73
437.28	248.10
437.46	290.23
437.65	278.52
437.84	301.93
438.02	203.63
438.21	243.42
438.40	93.62
438.58	208.31
438.77	278.52
438.96	243.42
439.14	159.16
439.33	304.27
439.52	243.42
439.70	138.09
439.89	290.23
440.08	224.69
440.26	257.46
440.45	231.71
440.63	285.55
440.82	224.69
441.01	203.63
441.19	222.35
441.38	241.08
441.57	177.88
441.75	250.44
441.94	224.69
442.12	217.67
442.31	278.52
442.50	168.52
442.68	236.39
442.87	325.33
443.05	241.08
443.24	262.14
443.43	238.73
443.61	236.39
443.80	241.08
443.98	210.65
444.17	252.78
444.35	255.12
444.54	173.20
444.73	196.60
444.91	266.82
445.10	259.80
445.28	175.54
445.47	250.44
445.65	191.92
445.84	180.22
446.02	255.12
446.21	285.55
446.39	189.58
446.58	189.58
446.77	194.26
446.95	220.01
447.14	126.39
447.32	182.56
447.51	208.31
447.69	297.25
447.88	224.69
448.06	266.82
448.25	276.18
448.43	145.11
448.62	248.10
448.80	173.20
448.99	198.95
449.17	273.84
449.36	217.67
449.54	170.86
449.73	138.09
449.91	227.03
450.10	229.37
450.28	262.14
450.46	243.42
450.65	299.59
450.83	222.35
451.02	212.99
451.20	205.97
451.39	194.26
451.57	229.37
451.76	208.31
451.94	149.79
452.13	264.48
452.31	180.22
452.49	212.99
452.68	255.12
452.86	271.50
453.05	191.92
453.23	217.67
453.42	149.79
453.60	184.90
453.78	245.76
453.97	208.31
454.15	135.75
454.34	208.31
454.52	201.29
454.70	241.08
454.89	234.05
455.07	182.56
455.26	248.10
455.44	292.57
455.62	191.92
455.81	257.46
455.99	252.78
456.17	283.20
456.36	269.16
456.54	217.67
456.73	210.65
456.91	173.20
457.09	236.39
457.28	245.76
457.46	208.31
457.64	215.33
457.83	203.63
458.01	241.08
458.19	325.33
458.38	187.24
458.56	248.10
458.74	191.92
458.93	231.71
459.11	266.82
459.29	241.08
459.48	280.86
459.66	227.03
459.84	271.50
460.03	292.57
460.21	224.69
460.39	276.18
460.57	210.65
460.76	262.14
460.94	241.08
461.12	198.95
461.31	315.97
461.49	252.78
461.67	278.52
461.85	215.33
462.04	280.86
462.22	348.74
462.40	269.16
462.59	224.69
462.77	189.58
462.95	205.97
463.13	191.92
463.32	201.29
463.50	250.44
463.68	201.29
463.86	269.16
464.05	259.80
464.23	341.72
464.41	205.97
464.59	180.22
464.78	299.59
464.96	187.24
465.14	229.37
465.32	175.54
465.50	290.23
465.69	266.82
465.87	252.78
466.05	217.67
466.23	220.01
466.41	278.52
466.60	187.24
466.78	250.44
466.96	271.50
467.14	297.25
467.32	234.05
467.51	245.76
467.69	259.80
467.87	269.16
468.05	259.80
468.23	241.08
468.41	297.25
468.60	187.24
468.78	238.73
468.96	236.39
469.14	234.05
469.32	229.37
469.50	208.31
469.69	278.52
469.87	234.05
470.05	292.57
470.23	252.78
470.41	128.73
470.59	177.88
470.77	224.69
470.95	187.24
471.14	236.39
471.32	243.42
471.50	177.88
471.68	210.65
471.86	252.78
472.04	250.44
472.22	163.84
472.40	252.78
472.58	311.29
472.77	236.39
472.95	224.69
473.13	252.78
473.31	194.26
473.49	210.65
473.67	227.03
473.85	203.63
474.03	259.80
474.21	227.03
474.39	372.15
474.57	351.08
474.75	210.65
474.93	149.79
475.12	152.13
475.30	201.29
475.48	224.69
475.66	224.69
475.84	241.08
476.02	203.63
476.20	229.37
476.38	227.03
476.56	287.89
476.74	266.82
476.92	159.16
477.10	241.08
477.28	308.95
477.46	248.10
477.64	269.16
477.82	241.08
478.00	257.46
478.18	196.60
478.36	292.57
478.54	252.78
478.72	313.63
478.90	166.18
479.08	332.36
479.26	280.86
479.44	224.69
479.62	301.93
479.80	313.63
479.98	262.14
480.16	404.91
480.34	304.27
480.52	257.46
480.70	330.02
480.88	311.29
481.06	222.35
481.24	348.74
481.41	358.10
481.59	372.15
481.77	294.91
481.95	376.83
482.13	430.66
482.31	428.32
482.49	386.19
482.67	507.90
482.85	496.19
483.03	521.94
483.21	531.30
483.39	489.17
483.57	531.30
483.74	688.12
483.92	617.90
484.10	559.39
484.28	685.78
484.46	674.07
484.64	716.20
484.82	748.97
485.00	753.65
485.18	791.10
485.35	882.38
485.53	828.55
485.71	908.13
485.89	793.44
486.07	910.47
486.25	990.05
486.43	999.41
486.61	978.34
486.78	968.98
486.96	835.57
487.14	936.21
487.32	847.27
487.50	873.02
487.68	964.30
487.85	926.85
488.03	964.30
488.21	826.21
488.39	880.04
488.57	880.04
488.75	795.78
488.92	1036.86
489.10	847.27
489.28	812.17
489.46	739.61
489.64	748.97
489.81	718.54
489.99	828.55
490.17	711.52
490.35	870.68
490.53	751.31
490.70	718.54
490.88	870.68
491.06	758.33
491.24	788.76
491.41	875.36
491.59	800.46
491.77	734.93
491.95	755.99
492.13	779.40
492.30	713.86
492.48	662.37
492.66	634.29
492.84	692.80
493.01	624.92
493.19	674.07
493.37	737.27
493.54	683.44
493.72	634.29
493.90	648.33
494.08	662.37
494.25	648.33
494.43	641.31
494.61	592.16
494.79	615.56
494.96	550.03
495.14	540.66
495.32	557.05
495.49	505.56
495.67	526.62
495.85	535.98
496.02	557.05
496.20	519.60
496.38	531.30
496.55	566.41
496.73	566.41
496.91	610.88
497.09	519.60
497.26	557.05
497.44	589.82
497.62	601.52
497.79	545.34
497.97	540.66
498.14	496.19
498.32	538.32
498.50	458.74
498.67	470.45
498.85	517.26
499.03	503.22
499.20	442.36
499.38	456.40
499.56	397.89
499.73	517.26
499.91	472.79
500.08	421.30
500.26	372.15
500.44	358.10
500.61	479.81
500.79	339.38
500.97	358.10
501.14	428.32
501.32	325.33
501.49	362.78
501.67	423.64
501.84	376.83
502.02	259.80
502.20	379.17
502.37	259.80
502.55	234.05
502.72	297.25
502.90	353.42
503.07	308.95
503.25	306.61
503.43	334.70
503.60	402.57
503.78	313.63
503.95	283.20
504.13	351.08
504.30	287.89
504.48	372.15
504.65	325.33
504.83	365.12
505.01	376.83
505.18	374.49
505.36	407.25
505.53	304.27
505.71	283.20
505.88	322.99
506.06	264.48
506.23	250.44
506.41	330.02
506.58	266.82
506.76	248.10
506.93	280.86
507.11	306.61
507.28	344.06
507.46	243.42
507.63	250.44
507.81	234.05
507.98	351.08
508.16	285.55
508.33	297.25
508.50	276.18
508.68	358.10
508.85	231.71
509.03	332.36
509.20	276.18
509.38	283.20
509.55	290.23
509.73	276.18
509.90	369.80
510.08	269.16
510.25	264.48
510.42	271.50
510.60	330.02
510.77	273.84
510.95	266.82
511.12	278.52
511.30	276.18
511.47	245.76
511.64	255.12
511.82	355.76
511.99	276.18
512.17	262.14
512.34	248.10
512.51	278.52
512.69	348.74
512.86	322.99
513.04	243.42
513.21	245.76
513.38	250.44
513.56	245.76
513.73	276.18
513.90	266.82
514.08	229.37
514.25	292.57
514.43	259.80
514.60	241.08
514.77	283.20
514.95	278.52
515.12	215.33
515.29	245.76
515.47	238.73
515.64	245.76
515.81	311.29
515.99	325.33
516.16	287.89
516.33	280.86
516.51	334.70
516.68	294.91
516.85	257.46
517.03	250.44
517.20	252.78
517.37	299.59
517.54	238.73
517.72	276.18
517.89	234.05
518.06	196.60
518.24	318.31
518.41	276.18
518.58	285.55
518.75	308.95
518.93	217.67
519.10	243.42
519.27	271.50
519.45	243.42
519.62	285.55
519.79	264.48
519.96	238.73
520.14	287.89
520.31	299.59
520.48	217.67
520.65	224.69
520.83	313.63
521.00	297.25
521.17	250.44
521.34	255.12
521.52	287.89
521.69	255.12
521.86	262.14
522.03	287.89
522.20	318.31
522.38	245.76
522.55	222.35
522.72	311.29
522.89	299.59
523.07	264.48
523.24	231.71
523.41	292.57
523.58	292.57
523.75	311.29
523.92	222.35
524.10	231.71
524.27	224.69
524.44	255.12
524.61	339.38
524.78	290.23
524.96	290.23
525.13	262.14
525.30	264.48
525.47	299.59
525.64	182.56
525.81	182.56
525.98	292.57
526.16	215.33
526.33	236.39
526.50	236.39
526.67	257.46
526.84	245.76
527.01	250.44
527.18	308.95
527.36	285.55
527.53	353.42
527.70	372.15
527.87	210.65
528.04	334.70
528.21	250.44
528.38	330.02
528.55	299.59
528.72	332.36
528.89	365.12
529.07	292.57
529.24	393.21
529.41	294.91
529.58	297.25
529.75	322.99
529.92	330.02
530.09	304.27
530.26	306.61
530.43	346.40
530.60	236.39
530.77	280.86
530.94	346.40
531.11	322.99
531.28	306.61
531.46	379.17
531.63	306.61
531.80	362.78
531.97	351.08
532.14	372.15
532.31	433.00
532.48	475.13
532.65	440.02
532.82	404.91
532.99	580.45
533.16	660.03
533.33	582.79
533.50	580.45
533.67	596.84
533.84	528.96
534.01	514.92
534.18	470.45
534.35	503.22
534.52	430.66
534.69	528.96
534.86	472.79
535.03	503.22
535.20	482.15
535.37	543.00
535.54	566.41
535.71	547.69
535.88	503.22
536.05	585.13
536.22	622.58
536.38	648.33
536.55	671.73
536.72	760.67
536.89	770.04
537.06	973.66
537.23	898.77
537.40	1064.94
537.57	1062.60
537.74	1186.65
537.91	1210.06
538.08	1114.10
538.25	1184.31
538.42	1177.29
538.59	1207.72
538.75	1338.79
538.92	1324.74
539.09	1448.79
539.26	1582.20
539.43	1827.96
539.60	2080.74
539.77	2209.47
539.94	2434.16
540.11	2726.72
540.28	2920.99
540.44	3082.49
540.61	3478.04
540.78	3957.85
540.95	4954.91
541.12	5614.95
541.29	5966.03
541.46	6153.27
541.62	6167.31
541.79	6059.65
541.96	5617.29
542.13	5205.35
542.30	4835.55
542.47	4650.64
542.63	4489.15
542.80	4329.99
542.97	4301.90
543.14	4255.09
543.31	4248.07
543.48	4372.12
543.64	4636.60
543.81	4367.44
543.98	4374.46
544.15	4393.19
544.32	4437.66
544.48	4369.78
544.65	4294.88
544.82	4278.50
544.99	4301.90
545.16	4383.82
545.32	4791.08
545.49	9837.27
545.66	15176.03
545.83	16091.18
546.00	13350.42
546.16	8952.55
546.33	6843.73
546.50	5226.42
546.67	4285.52
546.83	3964.87
547.00	3716.77
547.17	3599.74
547.34	3431.23
547.50	3398.46
547.67	3054.40
547.84	3028.65
548.00	2916.31
548.17	2878.86
548.34	2637.78
548.51	2717.36
548.67	2565.23
548.84	2417.77
549.01	2352.24
549.18	2392.03
549.34	2139.25
549.51	2150.95
549.68	1991.80
549.84	1956.69
550.01	1909.88
550.18	1825.62
550.34	1764.76
550.51	1643.06
550.68	1577.52
550.84	1509.65
551.01	1493.26
551.18	1476.88
551.34	1247.51
551.51	1242.82
551.68	1371.55
551.84	1366.87
552.01	1074.31
552.18	1062.60
552.34	1177.29
552.51	1086.01
552.68	1025.15
552.84	1039.20
553.01	964.30
553.18	964.30
553.34	971.32
553.51	903.45
553.67	851.96
553.84	873.02
554.01	863.66
554.17	751.31
554.34	704.50
554.51	662.37
554.67	657.69
554.84	692.80
555.00	599.18
555.17	603.86
555.33	606.20
555.50	545.34
555.67	557.05
555.83	538.32
556.00	533.64
556.16	627.26
556.33	477.47
556.50	500.87
556.66	433.00
556.83	449.38
556.99	454.06
557.16	381.51
557.32	430.66
557.49	416.62
557.65	449.38
557.82	442.36
557.98	470.45
558.15	383.85
558.32	444.70
558.48	383.85
558.65	374.49
558.81	407.25
558.98	390.87
559.14	409.59
559.31	341.72
559.47	404.91
559.64	372.15
559.80	372.15
559.97	327.68
560.13	397.89
560.30	283.20
560.46	379.17
560.63	383.85
560.79	383.85
560.96	306.61
561.12	315.97
561.29	418.96
561.45	315.97
561.61	367.46
561.78	428.32
561.94	423.64
562.11	383.85
562.27	383.85
562.44	301.93
562.60	337.04
562.77	395.55
562.93	430.66
563.10	367.46
563.26	348.74
563.42	341.72
563.59	383.85
563.75	358.10
563.92	241.08
564.08	372.15
564.24	372.15
564.41	390.87
564.57	306.61
564.74	322.99
564.90	285.55
565.07	337.04
565.23	287.89
565.39	252.78
565.56	266.82
565.72	250.44
565.88	430.66
566.05	360.44
566.21	339.38
566.38	362.78
566.54	315.97
566.70	330.02
566.87	290.23
567.03	325.33
567.19	320.65
567.36	292.57
567.52	381.51
567.68	362.78
567.85	283.20
568.01	346.40
568.17	201.29
568.34	348.74
568.50	376.83
568.66	313.63
568.83	376.83
568.99	339.38
569.15	290.23
569.32	313.63
569.48	301.93
569.64	283.20
569.81	304.27
569.97	243.42
570.13	344.06
570.30	285.55
570.46	322.99
570.62	341.72
570.78	330.02
570.95	290.23
571.11	280.86
571.27	308.95
571.43	203.63
571.60	231.71
571.76	273.84
571.92	238.73
572.09	313.63
572.25	297.25
572.41	259.80
572.57	234.05
572.74	334.70
572.90	301.93
573.06	259.80
573.22	304.27
573.38	337.04
573.55	402.57
573.71	308.95
573.87	280.86
574.03	220.01
574.20	257.46
574.36	341.72
574.52	322.99
574.68	292.57
574.84	306.61
575.01	397.89
575.17	320.65
575.33	360.44
575.49	407.25
575.65	381.51
575.82	315.97
575.98	423.64
576.14	358.10
576.30	903.45
576.46	2150.95
576.62	2810.98
576.79	2920.99
576.95	2054.99
577.11	1406.66
577.27	1107.07
577.43	816.85
577.59	585.13
577.75	491.51
577.92	489.17
578.08	505.56
578.24	430.66
578.40	903.45
578.56	2050.31
578.72	2612.04
578.88	2600.34
579.04	1963.71
579.21	1458.15
579.37	1095.37
579.53	945.58
579.69	1048.56
579.85	1104.73
580.01	1160.91
580.17	1179.63
580.33	1020.47
580.49	964.30
580.65	809.83
580.82	770.04
580.98	779.40
581.14	781.74
581.30	903.45
581.46	868.34
581.62	936.21
581.78	1008.77
581.94	1078.99
582.10	1116.44
582.26	1172.61
582.42	1160.91
582.58	1256.87
582.74	1163.25
582.90	1207.72
583.06	1228.78
583.22	1151.54
583.38	1284.95
583.54	1160.91
583.70	1203.04
583.86	1252.19
584.02	1114.10
584.18	1226.44
584.34	1198.35
584.50	1128.14
584.66	1067.28
584.82	1067.28
584.98	1132.82
585.14	1095.37
585.30	1041.54
585.46	1043.88
585.62	1015.79
585.78	1011.11
585.94	1025.15
586.10	1107.07
586.26	1146.86
586.42	1301.34
586.58	1469.86
586.74	1757.74
586.90	2073.71
587.06	2186.06
587.22	2078.40
587.38	1905.20
587.54	1619.65
587.70	1448.79
587.86	1200.69
588.02	1090.69
588.18	968.98
588.34	950.26
588.49	795.78
588.65	840.25
588.81	837.91
588.97	784.08
589.13	779.40
589.29	784.08
589.45	779.40
589.61	753.65
589.77	851.96
589.93	709.18
590.08	681.10
590.24	704.50
590.40	816.85
590.56	875.36
590.72	800.46
590.88	873.02
591.04	898.77
591.20	903.45
591.35	950.26
591.51	912.81
591.67	1046.22
591.83	1151.54
591.99	1109.41
592.15	1165.59
592.31	1296.66
592.46	1406.66
592.62	1519.01
592.78	1584.54
592.94	1664.12
593.10	1640.72
593.26	1331.76
593.41	1310.70
593.57	1245.16
593.73	1149.20
593.89	1071.97
594.05	931.53
594.20	802.80
594.36	856.64
594.52	734.93
594.68	716.20
594.84	805.14
594.99	737.27
595.15	807.48
595.31	720.88
595.47	608.54
595.62	617.90
595.78	699.82
595.94	711.52
596.10	704.50
596.25	720.88
596.41	676.41
596.57	606.20
596.73	704.50
596.88	706.84
597.04	622.58
597.20	592.16
597.36	676.41
597.51	692.80
597.67	667.05
597.83	702.16
597.99	800.46
598.14	947.92
598.30	849.61
598.46	858.98
598.61	905.79
598.77	978.34
598.93	873.02
599.09	1114.10
599.24	1100.05
599.40	1071.97
599.56	983.02
599.71	959.62
599.87	985.37
600.03	940.90
600.18	800.46
600.34	851.96
600.50	697.48
600.65	770.04
600.81	702.16
600.97	589.82
601.12	657.69
601.28	517.26
601.44	575.77
601.59	552.37
601.75	507.90
601.91	547.69
602.06	503.22
602.22	578.11
602.37	566.41
602.53	472.79
602.69	505.56
602.84	489.17
603.00	554.71
603.16	543.00
603.31	543.00
603.47	552.37
603.62	477.47
603.78	543.00
603.94	601.52
604.09	634.29
604.25	550.03
604.40	526.62
604.56	594.50
604.71	606.20
604.87	629.60
605.03	575.77
605.18	601.52
605.34	645.99
605.49	587.47
605.65	613.22
605.80	580.45
605.96	695.14
606.12	669.39
606.27	734.93
606.43	744.29
606.58	669.39
606.74	791.10
606.89	788.76
607.05	777.06
607.20	905.79
607.36	877.70
607.51	919.83
607.67	1006.43
607.82	1006.43
607.98	1163.25
608.13	1111.75
608.29	1359.85
608.44	1378.58
608.60	1401.98
608.75	1593.90
608.91	1706.25
609.06	1776.47
609.22	2019.88
609.37	2272.66
