SpectraSuite Data File
++++++++++++++++++++++++++++++++++++
Date: Fri Oct 04 11:41:45 GMT-05:00 2013
User: price-jones
Dark Spectrum Present: No
Reference Spectrum Present: No
Number of Sampled Component Spectra: 1
Spectrometers: USB2+H05261
Integration Time (usec): 100000 (USB2+H05261)
Spectra Averaged: 1 (USB2+H05261)
Boxcar Smoothing: 0 (USB2+H05261)
Correct for Electrical Dark: No (USB2+H05261)
Strobe/Lamp Enabled: No (USB2+H05261)
Correct for Detector Non-linearity: No (USB2+H05261)
Correct for Stray Light: No (USB2+H05261)
Number of Pixels in Processed Spectrum: 2048
>>>>>Begin Processed Spectral Data<<<<<
365.73	23.41
365.92	23.41
366.12	23.41
366.32	0.00
366.52	0.00
366.72	0.00
366.91	0.00
367.11	0.00
367.31	0.00
367.51	0.00
367.70	0.00
367.90	0.00
368.10	0.00
368.30	0.00
368.49	0.00
368.69	0.00
368.89	0.00
369.09	0.00
369.28	0.00
369.48	0.00
369.68	0.00
369.87	0.00
370.07	0.00
370.27	7.02
370.47	51.49
370.66	28.09
370.86	79.58
371.06	112.35
371.25	23.41
371.45	18.72
371.65	79.58
371.84	70.22
372.04	70.22
372.24	58.51
372.44	79.58
372.63	140.43
372.83	128.73
373.03	173.20
373.22	114.69
373.42	51.49
373.62	72.56
373.81	163.84
374.01	138.09
374.21	86.60
374.40	32.77
374.60	152.13
374.79	102.98
374.99	107.66
375.19	93.62
375.38	91.28
375.58	88.94
375.78	117.03
375.97	147.45
376.17	205.97
376.37	95.96
376.56	198.95
376.76	107.66
376.95	49.15
377.15	140.43
377.35	63.19
377.54	131.07
377.74	86.60
377.93	93.62
378.13	107.66
378.33	119.37
378.52	159.16
378.72	110.01
378.91	180.22
379.11	128.73
379.31	91.28
379.50	102.98
379.70	154.48
379.89	149.79
380.09	56.17
380.28	25.75
380.48	53.83
380.68	177.88
380.87	133.41
381.07	177.88
381.26	93.62
381.46	126.39
381.65	77.24
381.85	133.41
382.04	114.69
382.24	81.92
382.43	161.50
382.63	102.98
382.83	102.98
383.02	161.50
383.22	112.35
383.41	58.51
383.61	121.71
383.80	152.13
384.00	128.73
384.19	147.45
384.39	56.17
384.58	79.58
384.78	147.45
384.97	114.69
385.17	53.83
385.36	84.26
385.56	166.18
385.75	56.17
385.95	28.09
386.14	114.69
386.34	117.03
386.53	133.41
386.72	93.62
386.92	110.01
387.11	138.09
387.31	98.30
387.50	70.22
387.70	67.88
387.89	72.56
388.09	86.60
388.28	114.69
388.48	133.41
388.67	173.20
388.86	53.83
389.06	163.84
389.25	79.58
389.45	77.24
389.64	140.43
389.84	156.82
390.03	107.66
390.22	124.05
390.42	105.32
390.61	63.19
390.81	159.16
391.00	65.54
391.19	93.62
391.39	156.82
391.58	128.73
391.78	60.85
391.97	142.77
392.16	46.81
392.36	177.88
392.55	161.50
392.75	119.37
392.94	131.07
393.13	93.62
393.33	93.62
393.52	110.01
393.71	88.94
393.91	154.48
394.10	117.03
394.29	81.92
394.49	114.69
394.68	124.05
394.88	135.75
395.07	147.45
395.26	98.30
395.46	124.05
395.65	147.45
395.84	98.30
396.04	205.97
396.23	93.62
396.42	105.32
396.62	180.22
396.81	149.79
397.00	168.52
397.19	117.03
397.39	72.56
397.58	170.86
397.77	100.64
397.97	107.66
398.16	70.22
398.35	77.24
398.55	91.28
398.74	93.62
398.93	149.79
399.12	140.43
399.32	147.45
399.51	112.35
399.70	95.96
399.90	98.30
400.09	107.66
400.28	208.31
400.47	117.03
400.67	205.97
400.86	161.50
401.05	173.20
401.24	166.18
401.44	159.16
401.63	180.22
401.82	156.82
402.01	161.50
402.21	121.71
402.40	175.54
402.59	95.96
402.78	126.39
402.97	84.26
403.17	126.39
403.36	124.05
403.55	166.18
403.74	217.67
403.93	346.40
404.13	582.79
404.32	622.58
404.51	440.02
404.70	327.68
404.89	140.43
405.09	222.35
405.28	156.82
405.47	138.09
405.66	77.24
405.85	114.69
406.05	142.77
406.24	163.84
406.43	152.13
406.62	114.69
406.81	189.58
407.00	180.22
407.20	196.60
407.39	189.58
407.58	168.52
407.77	194.26
407.96	163.84
408.15	170.86
408.34	180.22
408.54	114.69
408.73	191.92
408.92	203.63
409.11	154.48
409.30	133.41
409.49	100.64
409.68	133.41
409.87	168.52
410.07	105.32
410.26	70.22
410.45	168.52
410.64	133.41
410.83	159.16
411.02	133.41
411.21	166.18
411.40	119.37
411.59	114.69
411.78	142.77
411.98	105.32
412.17	86.60
412.36	117.03
412.55	105.32
412.74	191.92
412.93	196.60
413.12	175.54
413.31	133.41
413.50	107.66
413.69	102.98
413.88	135.75
414.07	149.79
414.26	91.28
414.45	91.28
414.64	110.01
414.83	51.49
415.02	187.24
415.22	102.98
415.41	189.58
415.60	140.43
415.79	203.63
415.98	194.26
416.17	156.82
416.36	177.88
416.55	156.82
416.74	173.20
416.93	102.98
417.12	133.41
417.31	205.97
417.50	196.60
417.69	175.54
417.88	142.77
418.07	100.64
418.26	166.18
418.45	189.58
418.64	187.24
418.83	152.13
419.02	72.56
419.21	114.69
419.39	107.66
419.58	98.30
419.77	175.54
419.96	212.99
420.15	105.32
420.34	168.52
420.53	135.75
420.72	201.29
420.91	149.79
421.10	210.65
421.29	119.37
421.48	184.90
421.67	187.24
421.86	133.41
422.05	142.77
422.24	196.60
422.43	201.29
422.61	154.48
422.80	198.95
422.99	203.63
423.18	119.37
423.37	285.55
423.56	161.50
423.75	229.37
423.94	88.94
424.13	163.84
424.32	126.39
424.50	135.75
424.69	147.45
424.88	175.54
425.07	175.54
425.26	128.73
425.45	173.20
425.64	189.58
425.83	131.07
426.01	149.79
426.20	184.90
426.39	147.45
426.58	145.11
426.77	173.20
426.96	163.84
427.15	187.24
427.33	128.73
427.52	131.07
427.71	138.09
427.90	161.50
428.09	86.60
428.28	124.05
428.46	159.16
428.65	215.33
428.84	189.58
429.03	205.97
429.22	170.86
429.40	79.58
429.59	194.26
429.78	191.92
429.97	119.37
430.16	126.39
430.34	152.13
430.53	191.92
430.72	133.41
430.91	166.18
431.10	161.50
431.28	191.92
431.47	126.39
431.66	182.56
431.85	112.35
432.03	156.82
432.22	227.03
432.41	210.65
432.60	149.79
432.79	170.86
432.97	140.43
433.16	142.77
433.35	201.29
433.54	145.11
433.72	191.92
433.91	189.58
434.10	156.82
434.28	173.20
434.47	191.92
434.66	184.90
434.85	283.20
435.03	643.65
435.22	1739.02
435.41	2375.64
435.59	2324.15
435.78	1612.63
435.97	786.42
436.16	447.04
436.34	191.92
436.53	170.86
436.72	262.14
436.90	229.37
437.09	173.20
437.28	149.79
437.46	234.05
437.65	128.73
437.84	140.43
438.02	201.29
438.21	110.01
438.40	145.11
438.58	229.37
438.77	243.42
438.96	154.48
439.14	124.05
439.33	135.75
439.52	142.77
439.70	210.65
439.89	196.60
440.08	182.56
440.26	152.13
440.45	177.88
440.63	177.88
440.82	161.50
441.01	145.11
441.19	198.95
441.38	168.52
441.57	222.35
441.75	163.84
441.94	166.18
442.12	227.03
442.31	177.88
442.50	191.92
442.68	177.88
442.87	180.22
443.05	177.88
443.24	266.82
443.43	105.32
443.61	156.82
443.80	177.88
443.98	196.60
444.17	180.22
444.35	222.35
444.54	117.03
444.73	145.11
444.91	147.45
445.10	112.35
445.28	131.07
445.47	198.95
445.65	175.54
445.84	133.41
446.02	177.88
446.21	124.05
446.39	220.01
446.58	170.86
446.77	180.22
446.95	187.24
447.14	205.97
447.32	191.92
447.51	189.58
447.69	259.80
447.88	208.31
448.06	149.79
448.25	191.92
448.43	110.01
448.62	210.65
448.80	208.31
448.99	248.10
449.17	271.50
449.36	194.26
449.54	170.86
449.73	159.16
449.91	205.97
450.10	128.73
450.28	252.78
450.46	191.92
450.65	212.99
450.83	175.54
451.02	227.03
451.20	191.92
451.39	102.98
451.57	138.09
451.76	133.41
451.94	161.50
452.13	149.79
452.31	189.58
452.49	173.20
452.68	187.24
452.86	173.20
453.05	194.26
453.23	210.65
453.42	187.24
453.60	170.86
453.78	187.24
453.97	187.24
454.15	182.56
454.34	93.62
454.52	159.16
454.70	308.95
454.89	222.35
455.07	128.73
455.26	194.26
455.44	170.86
455.62	117.03
455.81	184.90
455.99	173.20
456.17	250.44
456.36	189.58
456.54	201.29
456.73	224.69
456.91	163.84
457.09	212.99
457.28	173.20
457.46	194.26
457.64	161.50
457.83	170.86
458.01	161.50
458.19	159.16
458.38	196.60
458.56	159.16
458.74	191.92
458.93	177.88
459.11	205.97
459.29	234.05
459.48	168.52
459.66	212.99
459.84	203.63
460.03	245.76
460.21	212.99
460.39	161.50
460.57	259.80
460.76	163.84
460.94	100.64
461.12	147.45
461.31	255.12
461.49	154.48
461.67	140.43
461.85	201.29
462.04	131.07
462.22	259.80
462.40	210.65
462.59	241.08
462.77	198.95
462.95	220.01
463.13	124.05
463.32	238.73
463.50	205.97
463.68	203.63
463.86	168.52
464.05	152.13
464.23	182.56
464.41	133.41
464.59	105.32
464.78	173.20
464.96	170.86
465.14	191.92
465.32	156.82
465.50	231.71
465.69	224.69
465.87	194.26
466.05	187.24
466.23	208.31
466.41	224.69
466.60	217.67
466.78	212.99
466.96	198.95
467.14	173.20
467.32	154.48
467.51	177.88
467.69	210.65
467.87	217.67
468.05	194.26
468.23	201.29
468.41	163.84
468.60	189.58
468.78	163.84
468.96	159.16
469.14	168.52
469.32	180.22
469.50	168.52
469.69	236.39
469.87	138.09
470.05	170.86
470.23	224.69
470.41	161.50
470.59	98.30
470.77	227.03
470.95	187.24
471.14	238.73
471.32	238.73
471.50	170.86
471.68	175.54
471.86	201.29
472.04	114.69
472.22	212.99
472.40	152.13
472.58	124.05
472.77	152.13
472.95	163.84
473.13	170.86
473.31	191.92
473.49	173.20
473.67	217.67
473.85	266.82
474.03	152.13
474.21	107.66
474.39	138.09
474.57	189.58
474.75	142.77
474.93	128.73
475.12	91.28
475.30	187.24
475.48	201.29
475.66	142.77
475.84	196.60
476.02	203.63
476.20	208.31
476.38	208.31
476.56	264.48
476.74	191.92
476.92	198.95
477.10	161.50
477.28	217.67
477.46	205.97
477.64	173.20
477.82	234.05
478.00	184.90
478.18	149.79
478.36	166.18
478.54	191.92
478.72	210.65
478.90	189.58
479.08	322.99
479.26	191.92
479.44	294.91
479.62	201.29
479.80	177.88
479.98	217.67
480.16	203.63
480.34	201.29
480.52	189.58
480.70	173.20
480.88	170.86
481.06	182.56
481.24	245.76
481.41	145.11
481.59	271.50
481.77	243.42
481.95	210.65
482.13	297.25
482.31	222.35
482.49	210.65
482.67	259.80
482.85	212.99
483.03	264.48
483.21	287.89
483.39	320.65
483.57	322.99
483.74	306.61
483.92	283.20
484.10	273.84
484.28	362.78
484.46	383.85
484.64	315.97
484.82	372.15
485.00	327.68
485.18	383.85
485.35	456.40
485.53	334.70
485.71	430.66
485.89	383.85
486.07	351.08
486.25	423.64
486.43	468.11
486.61	449.38
486.78	358.10
486.96	369.80
487.14	416.62
487.32	386.19
487.50	358.10
487.68	447.04
487.85	379.17
488.03	381.51
488.21	430.66
488.39	379.17
488.57	355.76
488.75	290.23
488.92	624.92
489.10	430.66
489.28	332.36
489.46	360.44
489.64	400.23
489.81	330.02
489.99	355.76
490.17	386.19
490.35	461.09
490.53	402.57
490.70	341.72
490.88	416.62
491.06	330.02
491.24	454.06
491.41	421.30
491.59	379.17
491.77	346.40
491.95	325.33
492.13	425.98
492.30	374.49
492.48	294.91
492.66	322.99
492.84	294.91
493.01	348.74
493.19	294.91
493.37	444.70
493.54	257.46
493.72	320.65
493.90	325.33
494.08	430.66
494.25	360.44
494.43	334.70
494.61	395.55
494.79	334.70
494.96	297.25
495.14	334.70
495.32	330.02
495.49	383.85
495.67	369.80
495.85	397.89
496.02	334.70
496.20	259.80
496.38	325.33
496.55	372.15
496.73	365.12
496.91	301.93
497.09	308.95
497.26	334.70
497.44	362.78
497.62	250.44
497.79	311.29
497.97	311.29
498.14	337.04
498.32	348.74
498.50	402.57
498.67	311.29
498.85	299.59
499.03	388.53
499.20	255.12
499.38	292.57
499.56	250.44
499.73	304.27
499.91	266.82
500.08	308.95
500.26	243.42
500.44	266.82
500.61	257.46
500.79	269.16
500.97	337.04
501.14	297.25
501.32	306.61
501.49	276.18
501.67	236.39
501.84	322.99
502.02	250.44
502.20	332.36
502.37	276.18
502.55	313.63
502.72	283.20
502.90	271.50
503.07	283.20
503.25	220.01
503.43	201.29
503.60	257.46
503.78	217.67
503.95	252.78
504.13	248.10
504.30	259.80
504.48	145.11
504.65	250.44
504.83	245.76
505.01	320.65
505.18	241.08
505.36	238.73
505.53	245.76
505.71	264.48
505.88	287.89
506.06	304.27
506.23	248.10
506.41	250.44
506.58	222.35
506.76	278.52
506.93	276.18
507.11	161.50
507.28	229.37
507.46	231.71
507.63	215.33
507.81	227.03
507.98	318.31
508.16	290.23
508.33	290.23
508.50	241.08
508.68	175.54
508.85	168.52
509.03	280.86
509.20	191.92
509.38	259.80
509.55	280.86
509.73	217.67
509.90	231.71
510.08	203.63
510.25	273.84
510.42	283.20
510.60	194.26
510.77	231.71
510.95	259.80
511.12	252.78
511.30	259.80
511.47	285.55
511.64	367.46
511.82	276.18
511.99	152.13
512.17	250.44
512.34	255.12
512.51	241.08
512.69	259.80
512.86	287.89
513.04	191.92
513.21	269.16
513.38	243.42
513.56	227.03
513.73	180.22
513.90	245.76
514.08	227.03
514.25	227.03
514.43	287.89
514.60	212.99
514.77	210.65
514.95	198.95
515.12	161.50
515.29	238.73
515.47	257.46
515.64	278.52
515.81	205.97
515.99	369.80
516.16	287.89
516.33	278.52
516.51	227.03
516.68	220.01
516.85	243.42
517.03	259.80
517.20	217.67
517.37	220.01
517.54	269.16
517.72	271.50
517.89	224.69
518.06	266.82
518.24	301.93
518.41	266.82
518.58	271.50
518.75	264.48
518.93	191.92
519.10	222.35
519.27	163.84
519.45	250.44
519.62	262.14
519.79	170.86
519.96	238.73
520.14	161.50
520.31	224.69
520.48	224.69
520.65	278.52
520.83	299.59
521.00	255.12
521.17	273.84
521.34	250.44
521.52	238.73
521.69	276.18
521.86	215.33
522.03	252.78
522.20	271.50
522.38	287.89
522.55	245.76
522.72	112.35
522.89	238.73
523.07	243.42
523.24	229.37
523.41	280.86
523.58	266.82
523.75	220.01
523.92	212.99
524.10	222.35
524.27	276.18
524.44	205.97
524.61	252.78
524.78	252.78
524.96	264.48
525.13	264.48
525.30	285.55
525.47	248.10
525.64	154.48
525.81	227.03
525.98	248.10
526.16	248.10
526.33	215.33
526.50	215.33
526.67	308.95
526.84	245.76
527.01	212.99
527.18	299.59
527.36	248.10
527.53	262.14
527.70	315.97
527.87	266.82
528.04	362.78
528.21	196.60
528.38	318.31
528.55	322.99
528.72	278.52
528.89	285.55
529.07	285.55
529.24	229.37
529.41	308.95
529.58	280.86
529.75	250.44
529.92	285.55
530.09	269.16
530.26	313.63
530.43	304.27
530.60	308.95
530.77	290.23
530.94	341.72
531.11	318.31
531.28	348.74
531.46	351.08
531.63	231.71
531.80	287.89
531.97	318.31
532.14	311.29
532.31	306.61
532.48	266.82
532.65	318.31
532.82	250.44
532.99	330.02
533.16	355.76
533.33	383.85
533.50	383.85
533.67	355.76
533.84	348.74
534.01	250.44
534.18	334.70
534.35	304.27
534.52	318.31
534.69	337.04
534.86	339.38
535.03	257.46
535.20	234.05
535.37	355.76
535.54	313.63
535.71	311.29
535.88	346.40
536.05	353.42
536.22	362.78
536.38	311.29
536.55	346.40
536.72	404.91
536.89	374.49
537.06	332.36
537.23	386.19
537.40	447.04
537.57	425.98
537.74	498.53
537.91	479.81
538.08	512.58
538.25	533.64
538.42	573.43
538.59	566.41
538.75	519.60
538.92	554.71
539.09	638.97
539.26	596.84
539.43	697.48
539.60	713.86
539.77	814.51
539.94	844.93
540.11	891.74
540.28	959.62
540.44	992.39
540.61	1158.57
540.78	1256.87
540.95	1310.70
541.12	1542.41
541.29	1708.59
541.46	1788.17
541.62	1734.34
541.79	1769.44
541.96	1715.61
542.13	1593.90
542.30	1570.50
542.47	1572.84
542.63	1483.90
542.80	1406.66
542.97	1455.81
543.14	1366.87
543.31	1490.92
543.48	1474.54
543.64	1511.99
543.81	1406.66
543.98	1387.94
544.15	1387.94
544.32	1401.98
544.48	1362.19
544.65	1299.00
544.82	1385.60
544.99	1364.53
545.16	1451.13
545.32	1465.18
545.49	2537.14
545.66	3794.01
545.83	4430.63
546.00	3651.24
546.16	2654.17
546.33	1916.90
546.50	1458.15
546.67	1315.38
546.83	1210.06
547.00	1086.01
547.17	1125.80
547.34	1139.84
547.50	1069.62
547.67	1064.94
547.84	961.96
548.00	940.90
548.17	882.38
548.34	915.15
548.51	870.68
548.67	835.57
548.84	786.42
549.01	816.85
549.18	821.53
549.34	802.80
549.51	819.19
549.68	753.65
549.84	681.10
550.01	603.86
550.18	704.50
550.34	709.18
550.51	650.67
550.68	643.65
550.84	592.16
551.01	573.43
551.18	631.94
551.34	540.66
551.51	484.49
551.68	468.11
551.84	517.26
552.01	524.28
552.18	510.24
552.34	456.40
552.51	451.72
552.68	435.34
552.84	463.43
553.01	435.34
553.18	390.87
553.34	341.72
553.51	358.10
553.67	475.13
553.84	470.45
554.01	360.44
554.17	409.59
554.34	379.17
554.51	369.80
554.67	388.53
554.84	393.21
555.00	362.78
555.17	327.68
555.33	337.04
555.50	383.85
555.67	346.40
555.83	325.33
556.00	311.29
556.16	456.40
556.33	262.14
556.50	259.80
556.66	353.42
556.83	344.06
556.99	283.20
557.16	273.84
557.32	322.99
557.49	327.68
557.65	320.65
557.82	262.14
557.98	276.18
558.15	273.84
558.32	215.33
558.48	297.25
558.65	334.70
558.81	252.78
558.98	285.55
559.14	271.50
559.31	243.42
559.47	327.68
559.64	220.01
559.80	369.80
559.97	224.69
560.13	308.95
560.30	236.39
560.46	124.05
560.63	255.12
560.79	278.52
560.96	327.68
561.12	266.82
561.29	243.42
561.45	320.65
561.61	177.88
561.78	404.91
561.94	276.18
562.11	259.80
562.27	292.57
562.44	147.45
562.60	243.42
562.77	241.08
562.93	395.55
563.10	320.65
563.26	306.61
563.42	322.99
563.59	292.57
563.75	250.44
563.92	320.65
564.08	297.25
564.24	278.52
564.41	353.42
564.57	257.46
564.74	294.91
564.90	290.23
565.07	313.63
565.23	327.68
565.39	280.86
565.56	294.91
565.72	241.08
565.88	205.97
566.05	189.58
566.21	297.25
566.38	280.86
566.54	271.50
566.70	278.52
566.87	318.31
567.03	180.22
567.19	318.31
567.36	306.61
567.52	262.14
567.68	301.93
567.85	220.01
568.01	201.29
568.17	320.65
568.34	297.25
568.50	301.93
568.66	273.84
568.83	283.20
568.99	203.63
569.15	259.80
569.32	201.29
569.48	276.18
569.64	196.60
569.81	170.86
569.97	205.97
570.13	290.23
570.30	269.16
570.46	266.82
570.62	301.93
570.78	231.71
570.95	180.22
571.11	266.82
571.27	301.93
571.43	257.46
571.60	217.67
571.76	252.78
571.92	236.39
572.09	250.44
572.25	194.26
572.41	231.71
572.57	198.95
572.74	287.89
572.90	189.58
573.06	287.89
573.22	297.25
573.38	304.27
573.55	304.27
573.71	257.46
573.87	243.42
574.03	248.10
574.20	271.50
574.36	250.44
574.52	255.12
574.68	191.92
574.84	208.31
575.01	304.27
575.17	255.12
575.33	243.42
575.49	234.05
575.65	304.27
575.82	252.78
575.98	327.68
576.14	301.93
576.30	440.02
576.46	702.16
576.62	933.87
576.79	924.51
576.95	688.12
577.11	559.39
577.27	428.32
577.43	339.38
577.59	334.70
577.75	318.31
577.92	276.18
578.08	367.46
578.24	264.48
578.40	421.30
578.56	779.40
578.72	912.81
578.88	938.55
579.04	662.37
579.21	627.26
579.37	463.43
579.53	430.66
579.69	449.38
579.85	472.79
580.01	575.77
580.17	524.28
580.33	514.92
580.49	400.23
580.65	437.68
580.82	346.40
580.98	304.27
581.14	325.33
581.30	374.49
581.46	341.72
581.62	365.12
581.78	372.15
581.94	461.09
582.10	498.53
582.26	484.49
582.42	512.58
582.58	493.85
582.74	479.81
582.90	507.90
583.06	500.87
583.22	475.13
583.38	526.62
583.54	437.68
583.70	592.16
583.86	493.85
584.02	585.13
584.18	526.62
584.34	496.19
584.50	482.15
584.66	575.77
584.82	390.87
584.98	454.06
585.14	477.47
585.30	540.66
585.46	447.04
585.62	458.74
585.78	465.77
585.94	421.30
586.10	486.83
586.26	470.45
586.42	620.24
586.58	610.88
586.74	629.60
586.90	664.71
587.06	791.10
587.22	709.18
587.38	664.71
587.54	528.96
587.70	540.66
587.86	540.66
588.02	472.79
588.18	423.64
588.34	381.51
588.49	376.83
588.65	404.91
588.81	433.00
588.97	308.95
589.13	304.27
589.29	407.25
589.45	322.99
589.61	334.70
589.77	341.72
589.93	407.25
590.08	404.91
590.24	311.29
590.40	294.91
590.56	430.66
590.72	330.02
590.88	322.99
591.04	365.12
591.20	383.85
591.35	402.57
591.51	407.25
591.67	411.93
591.83	442.36
591.99	407.25
592.15	484.49
592.31	526.62
592.46	524.28
592.62	629.60
592.78	596.84
592.94	603.86
593.10	484.49
593.26	580.45
593.41	568.75
593.57	428.32
593.73	416.62
593.89	423.64
594.05	400.23
594.20	308.95
594.36	294.91
594.52	332.36
594.68	353.42
594.84	381.51
594.99	344.06
595.15	334.70
595.31	339.38
595.47	355.76
595.62	355.76
595.78	454.06
595.94	320.65
596.10	402.57
596.25	332.36
596.41	346.40
596.57	351.08
596.73	287.89
596.88	308.95
597.04	332.36
597.20	400.23
597.36	327.68
597.51	294.91
597.67	306.61
597.83	339.38
597.99	430.66
598.14	325.33
598.30	411.93
598.46	397.89
598.61	397.89
598.77	414.27
598.93	425.98
599.09	458.74
599.24	433.00
599.40	418.96
599.56	407.25
599.71	484.49
599.87	388.53
600.03	409.59
600.18	397.89
600.34	411.93
600.50	344.06
600.65	337.04
600.81	262.14
600.97	334.70
601.12	339.38
601.28	341.72
601.44	383.85
601.59	327.68
601.75	308.95
601.91	257.46
602.06	308.95
602.22	327.68
602.37	355.76
602.53	243.42
602.69	278.52
602.84	304.27
603.00	299.59
603.16	259.80
603.31	313.63
603.47	348.74
603.62	250.44
603.78	355.76
603.94	273.84
604.09	292.57
604.25	285.55
604.40	348.74
604.56	220.01
604.71	287.89
604.87	285.55
605.03	276.18
605.18	255.12
605.34	353.42
605.49	271.50
605.65	318.31
605.80	313.63
605.96	311.29
606.12	365.12
606.27	285.55
606.43	358.10
606.58	418.96
606.74	301.93
606.89	393.21
607.05	290.23
607.20	306.61
607.36	442.36
607.51	421.30
607.67	388.53
607.82	423.64
607.98	461.09
608.13	421.30
608.29	428.32
608.44	545.34
608.60	531.30
608.75	589.82
608.91	620.24
609.06	634.29
609.22	631.94
609.37	685.78
609.53	681.10
609.68	777.06
609.84	887.06
609.99	1097.71
610.15	1188.99
610.30	1570.50
610.46	1778.81
610.61	2172.02
610.76	2860.13
610.92	3265.05
