SpectraSuite Data File
++++++++++++++++++++++++++++++++++++
Date: Fri Oct 04 11:42:24 GMT-05:00 2013
User: price-jones
Dark Spectrum Present: No
Reference Spectrum Present: No
Number of Sampled Component Spectra: 1
Spectrometers: USB2+H05261
Integration Time (usec): 100000 (USB2+H05261)
Spectra Averaged: 1 (USB2+H05261)
Boxcar Smoothing: 0 (USB2+H05261)
Correct for Electrical Dark: No (USB2+H05261)
Strobe/Lamp Enabled: No (USB2+H05261)
Correct for Detector Non-linearity: No (USB2+H05261)
Correct for Stray Light: No (USB2+H05261)
Number of Pixels in Processed Spectrum: 2048
>>>>>Begin Processed Spectral Data<<<<<
365.73	25.75
365.92	25.75
366.12	25.75
366.32	0.00
366.52	0.00
366.72	0.00
366.91	0.00
367.11	0.00
367.31	0.00
367.51	9.36
367.70	0.00
367.90	0.00
368.10	0.00
368.30	0.00
368.49	0.00
368.69	0.00
368.89	0.00
369.09	0.00
369.28	0.00
369.48	0.00
369.68	0.00
369.87	0.00
370.07	0.00
370.27	25.75
370.47	0.00
370.66	25.75
370.86	44.47
371.06	42.13
371.25	77.24
371.45	0.00
371.65	91.28
371.84	72.56
372.04	88.94
372.24	84.26
372.44	35.11
372.63	102.98
372.83	58.51
373.03	60.85
373.22	145.11
373.42	56.17
373.62	67.88
373.81	70.22
374.01	112.35
374.21	203.63
374.40	63.19
374.60	203.63
374.79	191.92
374.99	133.41
375.19	79.58
375.38	77.24
375.58	182.56
375.78	142.77
375.97	142.77
376.17	196.60
376.37	46.81
376.56	168.52
376.76	93.62
376.95	135.75
377.15	107.66
377.35	119.37
377.54	102.98
377.74	110.01
377.93	37.45
378.13	98.30
378.33	152.13
378.52	79.58
378.72	91.28
378.91	117.03
379.11	114.69
379.31	117.03
379.50	81.92
379.70	163.84
379.89	79.58
380.09	100.64
380.28	112.35
380.48	138.09
380.68	105.32
380.87	117.03
381.07	149.79
381.26	147.45
381.46	110.01
381.65	138.09
381.85	30.43
382.04	88.94
382.24	110.01
382.43	95.96
382.63	102.98
382.83	56.17
383.02	102.98
383.22	67.88
383.41	70.22
383.61	53.83
383.80	77.24
384.00	114.69
384.19	72.56
384.39	142.77
384.58	72.56
384.78	65.54
384.97	110.01
385.17	70.22
385.36	124.05
385.56	135.75
385.75	154.48
385.95	128.73
386.14	159.16
386.34	121.71
386.53	168.52
386.72	37.45
386.92	81.92
387.11	147.45
387.31	100.64
387.50	81.92
387.70	133.41
387.89	84.26
388.09	81.92
388.28	98.30
388.48	77.24
388.67	88.94
388.86	100.64
389.06	126.39
389.25	126.39
389.45	95.96
389.64	180.22
389.84	145.11
390.03	189.58
390.22	168.52
390.42	30.43
390.61	159.16
390.81	98.30
391.00	128.73
391.19	81.92
391.39	152.13
391.58	175.54
391.78	93.62
391.97	91.28
392.16	79.58
392.36	173.20
392.55	79.58
392.75	159.16
392.94	79.58
393.13	63.19
393.33	135.75
393.52	102.98
393.71	114.69
393.91	126.39
394.10	74.90
394.29	110.01
394.49	58.51
394.68	98.30
394.88	105.32
395.07	145.11
395.26	175.54
395.46	119.37
395.65	161.50
395.84	100.64
396.04	126.39
396.23	149.79
396.42	95.96
396.62	128.73
396.81	142.77
397.00	147.45
397.19	58.51
397.39	105.32
397.58	227.03
397.77	72.56
397.97	102.98
398.16	63.19
398.35	133.41
398.55	105.32
398.74	138.09
398.93	126.39
399.12	117.03
399.32	67.88
399.51	100.64
399.70	191.92
399.90	121.71
400.09	147.45
400.28	177.88
400.47	88.94
400.67	154.48
400.86	124.05
401.05	110.01
401.24	133.41
401.44	93.62
401.63	49.15
401.82	135.75
402.01	152.13
402.21	154.48
402.40	105.32
402.59	149.79
402.78	79.58
402.97	124.05
403.17	166.18
403.36	196.60
403.55	166.18
403.74	154.48
403.93	372.15
404.13	653.01
404.32	741.95
404.51	566.41
404.70	421.30
404.89	231.71
405.09	231.71
405.28	81.92
405.47	133.41
405.66	128.73
405.85	110.01
406.05	133.41
406.24	152.13
406.43	107.66
406.62	133.41
406.81	222.35
407.00	91.28
407.20	189.58
407.39	147.45
407.58	159.16
407.77	138.09
407.96	166.18
408.15	217.67
408.34	102.98
408.54	140.43
408.73	133.41
408.92	58.51
409.11	84.26
409.30	175.54
409.49	114.69
409.68	126.39
409.87	110.01
410.07	98.30
410.26	154.48
410.45	114.69
410.64	110.01
410.83	140.43
411.02	145.11
411.21	220.01
411.40	163.84
411.59	161.50
411.78	124.05
411.98	110.01
412.17	79.58
412.36	140.43
412.55	159.16
412.74	124.05
412.93	191.92
413.12	138.09
413.31	177.88
413.50	117.03
413.69	81.92
413.88	241.08
414.07	182.56
414.26	140.43
414.45	184.90
414.64	154.48
414.83	145.11
415.02	112.35
415.22	131.07
415.41	182.56
415.60	145.11
415.79	74.90
415.98	163.84
416.17	114.69
416.36	124.05
416.55	135.75
416.74	131.07
416.93	163.84
417.12	154.48
417.31	131.07
417.50	159.16
417.69	168.52
417.88	93.62
418.07	163.84
418.26	180.22
418.45	191.92
418.64	182.56
418.83	173.20
419.02	191.92
419.21	110.01
419.39	189.58
419.58	154.48
419.77	105.32
419.96	133.41
420.15	212.99
420.34	177.88
420.53	177.88
420.72	205.97
420.91	198.95
421.10	124.05
421.29	163.84
421.48	124.05
421.67	203.63
421.86	133.41
422.05	161.50
422.24	117.03
422.43	149.79
422.61	86.60
422.80	126.39
422.99	138.09
423.18	145.11
423.37	159.16
423.56	128.73
423.75	173.20
423.94	142.77
424.13	196.60
424.32	145.11
424.50	173.20
424.69	124.05
424.88	95.96
425.07	154.48
425.26	175.54
425.45	133.41
425.64	170.86
425.83	203.63
426.01	182.56
426.20	135.75
426.39	152.13
426.58	149.79
426.77	161.50
426.96	107.66
427.15	147.45
427.33	191.92
427.52	154.48
427.71	124.05
427.90	217.67
428.09	145.11
428.28	119.37
428.46	161.50
428.65	159.16
428.84	126.39
429.03	161.50
429.22	131.07
429.40	133.41
429.59	124.05
429.78	222.35
429.97	133.41
430.16	147.45
430.34	163.84
430.53	173.20
430.72	138.09
430.91	191.92
431.10	152.13
431.28	203.63
431.47	238.73
431.66	168.52
431.85	191.92
432.03	135.75
432.22	248.10
432.41	215.33
432.60	187.24
432.79	163.84
432.97	194.26
433.16	145.11
433.35	196.60
433.54	187.24
433.72	208.31
433.91	210.65
434.10	194.26
434.28	231.71
434.47	215.33
434.66	318.31
434.85	276.18
435.03	692.80
435.22	1870.09
435.41	2876.52
435.59	2722.04
435.78	1781.15
435.97	938.55
436.16	521.94
436.34	198.95
436.53	269.16
436.72	243.42
436.90	215.33
437.09	131.07
437.28	212.99
437.46	159.16
437.65	201.29
437.84	227.03
438.02	145.11
438.21	140.43
438.40	166.18
438.58	212.99
438.77	280.86
438.96	152.13
439.14	182.56
439.33	191.92
439.52	292.57
439.70	196.60
439.89	154.48
440.08	135.75
440.26	114.69
440.45	147.45
440.63	163.84
440.82	187.24
441.01	163.84
441.19	203.63
441.38	135.75
441.57	159.16
441.75	215.33
441.94	224.69
442.12	163.84
442.31	227.03
442.50	198.95
442.68	154.48
442.87	236.39
443.05	175.54
443.24	135.75
443.43	318.31
443.61	248.10
443.80	173.20
443.98	201.29
444.17	156.82
444.35	173.20
444.54	175.54
444.73	189.58
444.91	161.50
445.10	177.88
445.28	184.90
445.47	177.88
445.65	227.03
445.84	215.33
446.02	184.90
446.21	166.18
446.39	198.95
446.58	231.71
446.77	170.86
446.95	117.03
447.14	198.95
447.32	194.26
447.51	163.84
447.69	168.52
447.88	128.73
448.06	189.58
448.25	173.20
448.43	170.86
448.62	182.56
448.80	224.69
448.99	290.23
449.17	248.10
449.36	184.90
449.54	205.97
449.73	98.30
449.91	196.60
450.10	112.35
450.28	250.44
450.46	283.20
450.65	168.52
450.83	276.18
451.02	250.44
451.20	198.95
451.39	217.67
451.57	182.56
451.76	205.97
451.94	95.96
452.13	241.08
452.31	212.99
452.49	126.39
452.68	107.66
452.86	212.99
453.05	287.89
453.23	217.67
453.42	170.86
453.60	255.12
453.78	173.20
453.97	201.29
454.15	177.88
454.34	198.95
454.52	201.29
454.70	147.45
454.89	201.29
455.07	180.22
455.26	205.97
455.44	170.86
455.62	149.79
455.81	201.29
455.99	248.10
456.17	198.95
456.36	166.18
456.54	173.20
456.73	166.18
456.91	124.05
457.09	135.75
457.28	173.20
457.46	205.97
457.64	189.58
457.83	198.95
458.01	138.09
458.19	159.16
458.38	166.18
458.56	238.73
458.74	203.63
458.93	152.13
459.11	184.90
459.29	112.35
459.48	175.54
459.66	290.23
459.84	292.57
460.03	353.42
460.21	196.60
460.39	201.29
460.57	196.60
460.76	175.54
460.94	138.09
461.12	210.65
461.31	175.54
461.49	135.75
461.67	152.13
461.85	187.24
462.04	175.54
462.22	325.33
462.40	215.33
462.59	238.73
462.77	187.24
462.95	203.63
463.13	184.90
463.32	217.67
463.50	306.61
463.68	231.71
463.86	142.77
464.05	145.11
464.23	276.18
464.41	203.63
464.59	231.71
464.78	194.26
464.96	290.23
465.14	236.39
465.32	285.55
465.50	255.12
465.69	208.31
465.87	173.20
466.05	236.39
466.23	212.99
466.41	196.60
466.60	131.07
466.78	210.65
466.96	224.69
467.14	187.24
467.32	248.10
467.51	112.35
467.69	236.39
467.87	262.14
468.05	182.56
468.23	222.35
468.41	210.65
468.60	175.54
468.78	156.82
468.96	159.16
469.14	156.82
469.32	117.03
469.50	215.33
469.69	173.20
469.87	201.29
470.05	156.82
470.23	215.33
470.41	201.29
470.59	156.82
470.77	205.97
470.95	149.79
471.14	222.35
471.32	205.97
471.50	208.31
471.68	245.76
471.86	208.31
472.04	175.54
472.22	168.52
472.40	147.45
472.58	184.90
472.77	159.16
472.95	215.33
473.13	212.99
473.31	287.89
473.49	138.09
473.67	152.13
473.85	208.31
474.03	175.54
474.21	196.60
474.39	283.20
474.57	273.84
474.75	180.22
474.93	126.39
475.12	168.52
475.30	196.60
475.48	161.50
475.66	184.90
475.84	241.08
476.02	292.57
476.20	170.86
476.38	156.82
476.56	269.16
476.74	205.97
476.92	210.65
477.10	95.96
477.28	276.18
477.46	234.05
477.64	170.86
477.82	189.58
478.00	180.22
478.18	245.76
478.36	135.75
478.54	170.86
478.72	208.31
478.90	224.69
479.08	217.67
479.26	205.97
479.44	182.56
479.62	170.86
479.80	257.46
479.98	133.41
480.16	262.14
480.34	234.05
480.52	191.92
480.70	283.20
480.88	210.65
481.06	227.03
481.24	173.20
481.41	224.69
481.59	175.54
481.77	191.92
481.95	252.78
482.13	299.59
482.31	170.86
482.49	173.20
482.67	301.93
482.85	325.33
483.03	266.82
483.21	301.93
483.39	266.82
483.57	339.38
483.74	311.29
483.92	308.95
484.10	297.25
484.28	290.23
484.46	414.27
484.64	374.49
484.82	306.61
485.00	379.17
485.18	440.02
485.35	395.55
485.53	383.85
485.71	543.00
485.89	330.02
486.07	449.38
486.25	468.11
486.43	444.70
486.61	505.56
486.78	369.80
486.96	374.49
487.14	367.46
487.32	451.72
487.50	500.87
487.68	423.64
487.85	423.64
488.03	435.34
488.21	379.17
488.39	383.85
488.57	414.27
488.75	351.08
488.92	667.05
489.10	437.68
489.28	449.38
489.46	416.62
489.64	351.08
489.81	470.45
489.99	421.30
490.17	416.62
490.35	433.00
490.53	294.91
490.70	376.83
490.88	454.06
491.06	456.40
491.24	430.66
491.41	430.66
491.59	404.91
491.77	299.59
491.95	330.02
492.13	330.02
492.30	477.47
492.48	351.08
492.66	369.80
492.84	325.33
493.01	320.65
493.19	315.97
493.37	346.40
493.54	313.63
493.72	353.42
493.90	379.17
494.08	388.53
494.25	386.19
494.43	311.29
494.61	341.72
494.79	344.06
494.96	327.68
495.14	358.10
495.32	306.61
495.49	337.04
495.67	259.80
495.85	299.59
496.02	362.78
496.20	369.80
496.38	358.10
496.55	348.74
496.73	353.42
496.91	299.59
497.09	337.04
497.26	376.83
497.44	257.46
497.62	386.19
497.79	315.97
497.97	318.31
498.14	308.95
498.32	308.95
498.50	339.38
498.67	266.82
498.85	332.36
499.03	290.23
499.20	306.61
499.38	318.31
499.56	287.89
499.73	383.85
499.91	243.42
500.08	287.89
500.26	315.97
500.44	255.12
500.61	271.50
500.79	269.16
500.97	297.25
501.14	285.55
501.32	266.82
501.49	280.86
501.67	283.20
501.84	271.50
502.02	227.03
502.20	278.52
502.37	348.74
502.55	297.25
502.72	238.73
502.90	273.84
503.07	236.39
503.25	250.44
503.43	290.23
503.60	241.08
503.78	287.89
503.95	208.31
504.13	273.84
504.30	248.10
504.48	241.08
504.65	313.63
504.83	287.89
505.01	250.44
505.18	339.38
505.36	271.50
505.53	255.12
505.71	215.33
505.88	257.46
506.06	224.69
506.23	264.48
506.41	259.80
506.58	234.05
506.76	231.71
506.93	301.93
507.11	259.80
507.28	269.16
507.46	241.08
507.63	198.95
507.81	271.50
507.98	248.10
508.16	248.10
508.33	278.52
508.50	243.42
508.68	299.59
508.85	313.63
509.03	248.10
509.20	259.80
509.38	262.14
509.55	276.18
509.73	252.78
509.90	231.71
510.08	273.84
510.25	238.73
510.42	255.12
510.60	238.73
510.77	287.89
510.95	224.69
511.12	306.61
511.30	252.78
511.47	318.31
511.64	299.59
511.82	283.20
511.99	283.20
512.17	198.95
512.34	250.44
512.51	222.35
512.69	220.01
512.86	266.82
513.04	220.01
513.21	351.08
513.38	266.82
513.56	287.89
513.73	156.82
513.90	215.33
514.08	187.24
514.25	243.42
514.43	250.44
514.60	250.44
514.77	248.10
514.95	278.52
515.12	241.08
515.29	234.05
515.47	215.33
515.64	308.95
515.81	264.48
515.99	222.35
516.16	320.65
516.33	250.44
516.51	259.80
516.68	236.39
516.85	257.46
517.03	248.10
517.20	210.65
517.37	297.25
517.54	278.52
517.72	273.84
517.89	187.24
518.06	177.88
518.24	224.69
518.41	348.74
518.58	259.80
518.75	234.05
518.93	212.99
519.10	271.50
519.27	210.65
519.45	189.58
519.62	208.31
519.79	280.86
519.96	269.16
520.14	250.44
520.31	299.59
520.48	250.44
520.65	273.84
520.83	205.97
521.00	315.97
521.17	241.08
521.34	161.50
521.52	269.16
521.69	210.65
521.86	280.86
522.03	313.63
522.20	255.12
522.38	280.86
522.55	175.54
522.72	290.23
522.89	271.50
523.07	360.44
523.24	236.39
523.41	229.37
523.58	205.97
523.75	285.55
523.92	325.33
524.10	278.52
524.27	250.44
524.44	332.36
524.61	301.93
524.78	243.42
524.96	250.44
525.13	241.08
525.30	229.37
525.47	299.59
525.64	217.67
525.81	285.55
525.98	222.35
526.16	231.71
526.33	236.39
526.50	290.23
526.67	198.95
526.84	248.10
527.01	189.58
527.18	308.95
527.36	248.10
527.53	220.01
527.70	259.80
527.87	229.37
528.04	283.20
528.21	250.44
528.38	243.42
528.55	227.03
528.72	292.57
528.89	315.97
529.07	262.14
529.24	280.86
529.41	283.20
529.58	262.14
529.75	266.82
529.92	280.86
530.09	252.78
530.26	264.48
530.43	250.44
530.60	372.15
530.77	212.99
530.94	227.03
531.11	308.95
531.28	255.12
531.46	269.16
531.63	250.44
531.80	320.65
531.97	273.84
532.14	311.29
532.31	271.50
532.48	348.74
532.65	243.42
532.82	313.63
532.99	348.74
533.16	390.87
533.33	358.10
533.50	348.74
533.67	299.59
533.84	381.51
534.01	393.21
534.18	259.80
534.35	285.55
534.52	353.42
534.69	374.49
534.86	308.95
535.03	320.65
535.20	362.78
535.37	341.72
535.54	339.38
535.71	388.53
535.88	390.87
536.05	330.02
536.22	341.72
536.38	414.27
536.55	435.34
536.72	463.43
536.89	348.74
537.06	456.40
537.23	416.62
537.40	514.92
537.57	528.96
537.74	568.75
537.91	517.26
538.08	608.54
538.25	526.62
538.42	528.96
538.59	550.03
538.75	599.18
538.92	667.05
539.09	671.73
539.26	702.16
539.43	758.33
539.60	765.36
539.77	842.59
539.94	922.17
540.11	1060.26
540.28	1039.20
540.44	1172.61
540.61	1315.38
540.78	1418.36
540.95	1596.25
541.12	1860.73
541.29	1952.01
541.46	2073.71
541.62	2059.67
541.79	2169.68
541.96	1806.89
542.13	1921.58
542.30	1757.74
542.47	1643.06
542.63	1603.27
542.80	1605.61
542.97	1701.57
543.14	1607.95
543.31	1661.78
543.48	1722.63
543.64	1612.63
543.81	1722.63
543.98	1748.38
544.15	1666.46
544.32	1614.97
544.48	1610.29
544.65	1497.94
544.82	1507.30
544.99	1640.72
545.16	1614.97
545.32	1685.19
545.49	3145.68
545.66	4676.39
545.83	5069.60
546.00	4393.19
546.16	3014.61
546.33	2363.94
546.50	1923.92
546.67	1547.09
546.83	1394.96
547.00	1256.87
547.17	1329.42
547.34	1214.74
547.50	1135.16
547.67	1139.84
547.84	1083.67
548.00	1060.26
548.17	1006.43
548.34	980.68
548.51	1043.88
548.67	1001.75
548.84	966.64
549.01	887.06
549.18	880.04
549.34	901.11
549.51	823.87
549.68	798.12
549.84	833.23
550.01	706.84
550.18	856.64
550.34	795.78
550.51	711.52
550.68	720.88
550.84	741.95
551.01	596.84
551.18	615.56
551.34	472.79
551.51	596.84
551.68	547.69
551.84	568.75
552.01	514.92
552.18	526.62
552.34	496.19
552.51	477.47
552.68	547.69
552.84	533.64
553.01	503.22
553.18	535.98
553.34	433.00
553.51	465.77
553.67	395.55
553.84	514.92
554.01	447.04
554.17	440.02
554.34	456.40
554.51	379.17
554.67	414.27
554.84	341.72
555.00	355.76
555.17	393.21
555.33	404.91
555.50	482.15
555.67	374.49
555.83	365.12
556.00	320.65
556.16	489.17
556.33	320.65
556.50	353.42
556.66	294.91
556.83	393.21
556.99	299.59
557.16	318.31
557.32	299.59
557.49	320.65
557.65	271.50
557.82	285.55
557.98	325.33
558.15	386.19
558.32	346.40
558.48	299.59
558.65	262.14
558.81	280.86
558.98	301.93
559.14	236.39
559.31	306.61
559.47	283.20
559.64	306.61
559.80	285.55
559.97	297.25
560.13	245.76
560.30	341.72
560.46	332.36
560.63	346.40
560.79	301.93
560.96	320.65
561.12	248.10
561.29	315.97
561.45	259.80
561.61	299.59
561.78	330.02
561.94	301.93
562.11	243.42
562.27	224.69
562.44	294.91
562.60	285.55
562.77	285.55
562.93	294.91
563.10	318.31
563.26	320.65
563.42	325.33
563.59	280.86
563.75	313.63
563.92	367.46
564.08	330.02
564.24	320.65
564.41	351.08
564.57	259.80
564.74	276.18
564.90	234.05
565.07	271.50
565.23	222.35
565.39	241.08
565.56	229.37
565.72	278.52
565.88	217.67
566.05	210.65
566.21	198.95
566.38	315.97
566.54	308.95
566.70	241.08
566.87	278.52
567.03	283.20
567.19	297.25
567.36	269.16
567.52	285.55
567.68	297.25
567.85	250.44
568.01	318.31
568.17	255.12
568.34	236.39
568.50	257.46
568.66	229.37
568.83	325.33
568.99	285.55
569.15	257.46
569.32	229.37
569.48	210.65
569.64	283.20
569.81	238.73
569.97	238.73
570.13	229.37
570.30	191.92
570.46	234.05
570.62	248.10
570.78	259.80
570.95	203.63
571.11	285.55
571.27	292.57
571.43	294.91
571.60	222.35
571.76	203.63
571.92	255.12
572.09	325.33
572.25	271.50
572.41	243.42
572.57	189.58
572.74	278.52
572.90	262.14
573.06	308.95
573.22	280.86
573.38	346.40
573.55	259.80
573.71	297.25
573.87	287.89
574.03	201.29
574.20	278.52
574.36	278.52
574.52	201.29
574.68	241.08
574.84	255.12
575.01	262.14
575.17	238.73
575.33	276.18
575.49	273.84
575.65	334.70
575.82	315.97
575.98	379.17
576.14	304.27
576.30	416.62
576.46	634.29
576.62	973.66
576.79	997.07
576.95	791.10
577.11	613.22
577.27	470.45
577.43	505.56
577.59	390.87
577.75	330.02
577.92	313.63
578.08	299.59
578.24	276.18
578.40	374.49
578.56	753.65
578.72	966.64
578.88	1039.20
579.04	737.27
579.21	596.84
579.37	559.39
579.53	470.45
579.69	468.11
579.85	535.98
580.01	575.77
580.17	552.37
580.33	491.51
580.49	484.49
580.65	479.81
580.82	416.62
580.98	409.59
581.14	444.70
581.30	421.30
581.46	411.93
581.62	468.11
581.78	500.87
581.94	482.15
582.10	447.04
582.26	477.47
582.42	521.94
582.58	561.73
582.74	526.62
582.90	545.34
583.06	503.22
583.22	564.07
583.38	641.31
583.54	615.56
583.70	561.73
583.86	627.26
584.02	582.79
584.18	559.39
584.34	519.60
584.50	514.92
584.66	477.47
584.82	512.58
584.98	482.15
585.14	498.53
585.30	425.98
585.46	456.40
585.62	416.62
585.78	425.98
585.94	491.51
586.10	564.07
586.26	528.96
586.42	636.63
586.58	648.33
586.74	634.29
586.90	734.93
587.06	844.93
587.22	760.67
587.38	706.84
587.54	641.31
587.70	650.67
587.86	547.69
588.02	505.56
588.18	425.98
588.34	416.62
588.49	423.64
588.65	451.72
588.81	344.06
588.97	411.93
589.13	402.57
589.29	367.46
589.45	418.96
589.61	372.15
589.77	383.85
589.93	374.49
590.08	376.83
590.24	332.36
590.40	397.89
590.56	374.49
590.72	383.85
590.88	402.57
591.04	414.27
591.20	386.19
591.35	458.74
591.51	414.27
591.67	425.98
591.83	418.96
591.99	571.09
592.15	606.20
592.31	482.15
592.46	582.79
592.62	613.22
592.78	559.39
592.94	601.52
593.10	585.13
593.26	601.52
593.41	519.60
593.57	521.94
593.73	528.96
593.89	449.38
594.05	404.91
594.20	418.96
594.36	477.47
594.52	388.53
594.68	390.87
594.84	367.46
594.99	402.57
595.15	362.78
595.31	465.77
595.47	433.00
595.62	346.40
595.78	306.61
595.94	337.04
596.10	355.76
596.25	369.80
596.41	332.36
596.57	299.59
596.73	306.61
596.88	435.34
597.04	376.83
597.20	318.31
597.36	322.99
597.51	327.68
597.67	332.36
597.83	435.34
597.99	369.80
598.14	423.64
598.30	414.27
598.46	337.04
598.61	468.11
598.77	470.45
598.93	339.38
599.09	465.77
599.24	486.83
599.40	482.15
599.56	479.81
599.71	564.07
599.87	461.09
600.03	423.64
600.18	383.85
600.34	397.89
600.50	348.74
600.65	365.12
600.81	362.78
600.97	337.04
601.12	358.10
601.28	369.80
601.44	327.68
601.59	315.97
601.75	341.72
601.91	407.25
602.06	285.55
602.22	369.80
602.37	290.23
602.53	257.46
602.69	337.04
602.84	243.42
603.00	308.95
603.16	299.59
603.31	278.52
603.47	369.80
603.62	276.18
603.78	259.80
603.94	250.44
604.09	266.82
604.25	290.23
604.40	402.57
604.56	318.31
604.71	330.02
604.87	266.82
605.03	330.02
605.18	344.06
605.34	327.68
605.49	367.46
605.65	369.80
605.80	308.95
605.96	313.63
606.12	327.68
606.27	339.38
606.43	390.87
606.58	397.89
606.74	379.17
606.89	386.19
607.05	402.57
607.20	400.23
607.36	414.27
607.51	358.10
607.67	437.68
607.82	472.79
607.98	503.22
608.13	465.77
608.29	461.09
608.44	557.05
608.60	578.11
608.75	657.69
608.91	624.92
609.06	741.95
609.22	706.84
609.37	748.97
609.53	858.98
609.68	931.53
609.84	992.39
609.99	1203.04
610.15	1385.60
610.30	1640.72
610.46	2073.71
610.61	2527.78
610.76	3204.19
610.92	3908.69
