SpectraSuite Data File
++++++++++++++++++++++++++++++++++++
Date: Fri Oct 04 11:41:49 GMT-05:00 2013
User: price-jones
Dark Spectrum Present: No
Reference Spectrum Present: No
Number of Sampled Component Spectra: 1
Spectrometers: USB2+H05261
Integration Time (usec): 100000 (USB2+H05261)
Spectra Averaged: 1 (USB2+H05261)
Boxcar Smoothing: 0 (USB2+H05261)
Correct for Electrical Dark: No (USB2+H05261)
Strobe/Lamp Enabled: No (USB2+H05261)
Correct for Detector Non-linearity: No (USB2+H05261)
Correct for Stray Light: No (USB2+H05261)
Number of Pixels in Processed Spectrum: 2048
>>>>>Begin Processed Spectral Data<<<<<
365.73	18.72
365.92	18.72
366.12	18.72
366.32	0.00
366.52	0.00
366.72	0.00
366.91	0.00
367.11	0.00
367.31	0.00
367.51	0.00
367.70	0.00
367.90	0.00
368.10	0.00
368.30	0.00
368.49	0.00
368.69	0.00
368.89	0.00
369.09	0.00
369.28	0.00
369.48	4.68
369.68	35.11
369.87	0.00
370.07	28.09
370.27	0.00
370.47	0.00
370.66	65.54
370.86	44.47
371.06	126.39
371.25	67.88
371.45	114.69
371.65	91.28
371.84	161.50
372.04	70.22
372.24	107.66
372.44	14.04
372.63	114.69
372.83	124.05
373.03	88.94
373.22	95.96
373.42	56.17
373.62	126.39
373.81	105.32
374.01	131.07
374.21	191.92
374.40	156.82
374.60	117.03
374.79	203.63
374.99	107.66
375.19	35.11
375.38	110.01
375.58	149.79
375.78	161.50
375.97	107.66
376.17	224.69
376.37	131.07
376.56	142.77
376.76	95.96
376.95	95.96
377.15	135.75
377.35	121.71
377.54	126.39
377.74	149.79
377.93	84.26
378.13	138.09
378.33	152.13
378.52	67.88
378.72	156.82
378.91	91.28
379.11	128.73
379.31	114.69
379.50	93.62
379.70	124.05
379.89	131.07
380.09	152.13
380.28	135.75
380.48	110.01
380.68	142.77
380.87	51.49
381.07	119.37
381.26	182.56
381.46	114.69
381.65	187.24
381.85	168.52
382.04	149.79
382.24	121.71
382.43	124.05
382.63	107.66
382.83	121.71
383.02	114.69
383.22	142.77
383.41	88.94
383.61	112.35
383.80	210.65
384.00	210.65
384.19	133.41
384.39	133.41
384.58	121.71
384.78	159.16
384.97	152.13
385.17	124.05
385.36	140.43
385.56	196.60
385.75	147.45
385.95	102.98
386.14	110.01
386.34	161.50
386.53	107.66
386.72	39.79
386.92	142.77
387.11	91.28
387.31	98.30
387.50	114.69
387.70	100.64
387.89	154.48
388.09	63.19
388.28	121.71
388.48	74.90
388.67	145.11
388.86	156.82
389.06	147.45
389.25	102.98
389.45	86.60
389.64	184.90
389.84	152.13
390.03	117.03
390.22	140.43
390.42	177.88
390.61	112.35
390.81	79.58
391.00	154.48
391.19	140.43
391.39	147.45
391.58	70.22
391.78	112.35
391.97	121.71
392.16	117.03
392.36	100.64
392.55	135.75
392.75	70.22
392.94	95.96
393.13	84.26
393.33	42.13
393.52	117.03
393.71	161.50
393.91	154.48
394.10	140.43
394.29	140.43
394.49	138.09
394.68	110.01
394.88	117.03
395.07	180.22
395.26	124.05
395.46	170.86
395.65	166.18
395.84	135.75
396.04	243.42
396.23	95.96
396.42	138.09
396.62	124.05
396.81	147.45
397.00	74.90
397.19	107.66
397.39	142.77
397.58	166.18
397.77	110.01
397.97	117.03
398.16	170.86
398.35	93.62
398.55	128.73
398.74	159.16
398.93	222.35
399.12	102.98
399.32	196.60
399.51	79.58
399.70	173.20
399.90	191.92
400.09	95.96
400.28	222.35
400.47	117.03
400.67	182.56
400.86	107.66
401.05	177.88
401.24	124.05
401.44	156.82
401.63	255.12
401.82	280.86
402.01	161.50
402.21	194.26
402.40	266.82
402.59	238.73
402.78	198.95
402.97	191.92
403.17	273.84
403.36	315.97
403.55	411.93
403.74	734.93
403.93	2347.56
404.13	6024.54
404.32	9886.42
404.51	10551.14
404.70	6724.36
404.89	2509.05
405.09	678.76
405.28	280.86
405.47	252.78
405.66	292.57
405.85	257.46
406.05	255.12
406.24	292.57
406.43	187.24
406.62	264.48
406.81	299.59
407.00	395.55
407.20	734.93
407.39	1256.87
407.58	1528.37
407.77	1156.22
407.96	568.75
408.15	308.95
408.34	259.80
408.54	180.22
408.73	224.69
408.92	250.44
409.11	187.24
409.30	250.44
409.49	187.24
409.68	159.16
409.87	229.37
410.07	175.54
410.26	191.92
410.45	252.78
410.64	243.42
410.83	124.05
411.02	243.42
411.21	299.59
411.40	248.10
411.59	287.89
411.78	191.92
411.98	220.01
412.17	255.12
412.36	212.99
412.55	245.76
412.74	269.16
412.93	318.31
413.12	280.86
413.31	217.67
413.50	220.01
413.69	248.10
413.88	313.63
414.07	283.20
414.26	278.52
414.45	252.78
414.64	285.55
414.83	243.42
415.02	231.71
415.22	325.33
415.41	348.74
415.60	227.03
415.79	294.91
415.98	365.12
416.17	292.57
416.36	320.65
416.55	266.82
416.74	334.70
416.93	351.08
417.12	271.50
417.31	255.12
417.50	358.10
417.69	318.31
417.88	346.40
418.07	287.89
418.26	276.18
418.45	341.72
418.64	337.04
418.83	299.59
419.02	255.12
419.21	255.12
419.39	334.70
419.58	283.20
419.77	255.12
419.96	428.32
420.15	353.42
420.34	322.99
420.53	290.23
420.72	297.25
420.91	278.52
421.10	271.50
421.29	372.15
421.48	306.61
421.67	402.57
421.86	285.55
422.05	360.44
422.24	360.44
422.43	351.08
422.61	315.97
422.80	332.36
422.99	402.57
423.18	358.10
423.37	407.25
423.56	337.04
423.75	330.02
423.94	330.02
424.13	407.25
424.32	358.10
424.50	400.23
424.69	395.55
424.88	414.27
425.07	372.15
425.26	421.30
425.45	344.06
425.64	311.29
425.83	404.91
426.01	367.46
426.20	348.74
426.39	339.38
426.58	465.77
426.77	435.34
426.96	404.91
427.15	482.15
427.33	367.46
427.52	444.70
427.71	362.78
427.90	388.53
428.09	367.46
428.28	402.57
428.46	414.27
428.65	416.62
428.84	449.38
429.03	461.09
429.22	437.68
429.40	461.09
429.59	442.36
429.78	552.37
429.97	421.30
430.16	458.74
430.34	517.26
430.53	482.15
430.72	496.19
430.91	507.90
431.10	423.64
431.28	482.15
431.47	564.07
431.66	505.56
431.85	486.83
432.03	463.43
432.22	526.62
432.41	540.66
432.60	580.45
432.79	519.60
432.97	627.26
433.16	538.32
433.35	791.10
433.54	858.98
433.72	882.38
433.91	849.61
434.10	903.45
434.28	1144.52
434.47	1313.04
434.66	1437.09
434.85	1748.38
435.03	4079.55
435.22	14125.13
435.41	36605.98
435.59	50309.82
435.78	38927.79
435.97	17390.18
436.16	6291.36
436.34	2085.42
436.53	1212.40
436.72	1004.09
436.90	805.14
437.09	816.85
437.28	718.54
437.46	624.92
437.65	760.67
437.84	676.41
438.02	650.67
438.21	657.69
438.40	573.43
438.58	613.22
438.77	594.50
438.96	671.73
439.14	603.86
439.33	575.77
439.52	566.41
439.70	571.09
439.89	662.37
440.08	564.07
440.26	580.45
440.45	631.94
440.63	592.16
440.82	601.52
441.01	573.43
441.19	547.69
441.38	627.26
441.57	573.43
441.75	613.22
441.94	606.20
442.12	622.58
442.31	580.45
442.50	589.82
442.68	517.26
442.87	603.86
443.05	641.31
443.24	587.47
443.43	662.37
443.61	648.33
443.80	660.03
443.98	554.71
444.17	545.34
444.35	622.58
444.54	603.86
444.73	704.50
444.91	641.31
445.10	638.97
445.28	564.07
445.47	568.75
445.65	613.22
445.84	547.69
446.02	636.63
446.21	648.33
446.39	538.32
446.58	671.73
446.77	484.49
446.95	578.11
447.14	545.34
447.32	683.44
447.51	641.31
447.69	596.84
447.88	589.82
448.06	627.26
448.25	613.22
448.43	589.82
448.62	554.71
448.80	526.62
448.99	564.07
449.17	538.32
449.36	557.05
449.54	503.22
449.73	528.96
449.91	566.41
450.10	610.88
450.28	634.29
450.46	554.71
450.65	533.64
450.83	620.24
451.02	650.67
451.20	624.92
451.39	472.79
451.57	589.82
451.76	554.71
451.94	540.66
452.13	613.22
452.31	634.29
452.49	629.60
452.68	610.88
452.86	634.29
453.05	596.84
453.23	559.39
453.42	528.96
453.60	526.62
453.78	599.18
453.97	433.00
454.15	547.69
454.34	503.22
454.52	606.20
454.70	589.82
454.89	566.41
455.07	566.41
455.26	533.64
455.44	521.94
455.62	580.45
455.81	575.77
455.99	587.47
456.17	566.41
456.36	573.43
456.54	582.79
456.73	554.71
456.91	573.43
457.09	594.50
457.28	599.18
457.46	610.88
457.64	601.52
457.83	575.77
458.01	512.58
458.19	650.67
458.38	535.98
458.56	622.58
458.74	517.26
458.93	629.60
459.11	573.43
459.29	545.34
459.48	650.67
459.66	535.98
459.84	543.00
460.03	564.07
460.21	617.90
460.39	559.39
460.57	510.24
460.76	592.16
460.94	580.45
461.12	624.92
461.31	641.31
461.49	578.11
461.67	512.58
461.85	535.98
462.04	545.34
462.22	950.26
462.40	601.52
462.59	655.35
462.77	580.45
462.95	573.43
463.13	505.56
463.32	596.84
463.50	622.58
463.68	557.05
463.86	561.73
464.05	580.45
464.23	580.45
464.41	571.09
464.59	594.50
464.78	615.56
464.96	615.56
465.14	507.90
465.32	601.52
465.50	596.84
465.69	571.09
465.87	578.11
466.05	554.71
466.23	641.31
466.41	585.13
466.60	643.65
466.78	648.33
466.96	594.50
467.14	554.71
467.32	601.52
467.51	610.88
467.69	538.32
467.87	559.39
468.05	664.71
468.23	521.94
468.41	512.58
468.60	507.90
468.78	533.64
468.96	486.83
469.14	561.73
469.32	526.62
469.50	545.34
469.69	580.45
469.87	519.60
470.05	435.34
470.23	533.64
470.41	575.77
470.59	472.79
470.77	505.56
470.95	554.71
471.14	496.19
471.32	503.22
471.50	592.16
471.68	545.34
471.86	571.09
472.04	482.15
472.22	589.82
472.40	543.00
472.58	545.34
472.77	510.24
472.95	503.22
473.13	552.37
473.31	587.47
473.49	526.62
473.67	599.18
473.85	571.09
474.03	531.30
474.21	545.34
474.39	554.71
474.57	575.77
474.75	531.30
474.93	535.98
475.12	421.30
475.30	571.09
475.48	543.00
475.66	454.06
475.84	489.17
476.02	538.32
476.20	547.69
476.38	512.58
476.56	688.12
476.74	573.43
476.92	552.37
477.10	617.90
477.28	622.58
477.46	526.62
477.64	580.45
477.82	571.09
478.00	557.05
478.18	613.22
478.36	657.69
478.54	617.90
478.72	690.46
478.90	716.20
479.08	718.54
479.26	617.90
479.44	781.74
479.62	662.37
479.80	676.41
479.98	786.42
480.16	770.04
480.34	863.66
480.52	901.11
480.70	800.46
480.88	915.15
481.06	943.24
481.24	912.81
481.41	1053.24
481.59	1076.65
481.77	1181.97
481.95	1198.35
482.13	1280.27
482.31	1348.15
482.49	1511.99
482.67	1629.01
482.85	1699.23
483.03	1834.98
483.21	2029.24
483.39	2078.40
483.57	2197.76
483.74	2370.96
483.92	2509.05
484.10	2668.21
484.28	2829.71
484.46	3000.57
484.64	3054.40
484.82	3157.38
485.00	3449.95
485.18	3524.85
485.35	3899.33
485.53	4011.68
485.71	4339.35
485.89	4430.63
486.07	4463.40
486.25	4550.00
486.43	4606.17
486.61	4472.76
486.78	4615.54
486.96	4737.24
487.14	4627.24
487.32	4505.53
487.50	4465.74
487.68	4472.76
487.85	4489.15
488.03	4386.16
488.21	4379.14
488.39	4133.39
488.57	4065.51
488.75	4112.32
488.92	4224.67
489.10	3920.40
489.28	3772.94
489.46	3742.52
489.64	3536.55
489.81	3487.40
489.99	3485.06
490.17	3421.86
490.35	3590.38
490.53	3339.94
490.70	3412.50
490.88	3318.88
491.06	3639.53
491.24	3801.03
491.41	4002.32
491.59	3728.47
491.77	3419.52
491.95	3286.11
492.13	3173.77
492.30	3173.77
492.48	2995.89
492.66	2916.31
492.84	3030.99
493.01	3012.27
493.19	2904.60
493.37	2909.29
493.54	2820.35
493.72	2682.25
493.90	2708.00
494.08	2747.79
494.25	2733.75
494.43	2562.89
494.61	2541.82
494.79	2597.99
494.96	2424.80
495.14	2457.56
495.32	2450.54
495.49	2392.03
495.67	2342.88
495.85	2380.32
496.02	2286.70
496.20	2214.15
496.38	2162.66
496.55	2195.42
496.73	2172.02
496.91	2190.74
497.09	2062.01
497.26	1984.77
497.44	1977.75
497.62	2010.52
497.79	2024.56
497.97	1820.94
498.14	1884.13
498.32	1762.42
498.50	1778.81
498.67	1586.88
498.85	1645.40
499.03	1572.84
499.20	1659.44
499.38	1575.18
499.56	1621.99
499.73	1554.12
499.91	1563.48
500.08	1523.69
500.26	1397.30
500.44	1357.51
500.61	1247.51
500.79	1184.31
500.97	1158.57
501.14	1249.85
501.32	1139.84
501.49	1100.05
501.67	1095.37
501.84	1053.24
502.02	985.37
502.20	1081.33
502.37	1015.79
502.55	966.64
502.72	915.15
502.90	880.04
503.07	870.68
503.25	821.53
503.43	798.12
503.60	753.65
503.78	772.38
503.95	777.06
504.13	823.87
504.30	767.70
504.48	819.19
504.65	786.42
504.83	823.87
505.01	751.31
505.18	648.33
505.36	678.76
505.53	667.05
505.71	624.92
505.88	751.31
506.06	669.39
506.23	676.41
506.41	641.31
506.58	657.69
506.76	676.41
506.93	613.22
507.11	594.50
507.28	528.96
507.46	568.75
507.63	559.39
507.81	608.54
507.98	507.90
508.16	479.81
508.33	454.06
508.50	592.16
508.68	540.66
508.85	613.22
509.03	636.63
509.20	669.39
509.38	620.24
509.55	615.56
509.73	615.56
509.90	585.13
510.08	519.60
510.25	489.17
510.42	550.03
510.60	505.56
510.77	641.31
510.95	547.69
511.12	547.69
511.30	524.28
511.47	505.56
511.64	535.98
511.82	533.64
511.99	557.05
512.17	603.86
512.34	521.94
512.51	533.64
512.69	585.13
512.86	557.05
513.04	543.00
513.21	535.98
513.38	479.81
513.56	498.53
513.73	421.30
513.90	437.68
514.08	442.36
514.25	447.04
514.43	449.38
514.60	503.22
514.77	472.79
514.95	440.02
515.12	451.72
515.29	428.32
515.47	447.04
515.64	491.51
515.81	491.51
515.99	493.85
516.16	397.89
516.33	526.62
516.51	505.56
516.68	444.70
516.85	442.36
517.03	449.38
517.20	486.83
517.37	418.96
517.54	411.93
517.72	435.34
517.89	411.93
518.06	386.19
518.24	482.15
518.41	475.13
518.58	475.13
518.75	400.23
518.93	449.38
519.10	465.77
519.27	440.02
519.45	479.81
519.62	433.00
519.79	379.17
519.96	379.17
520.14	407.25
520.31	489.17
520.48	437.68
520.65	433.00
520.83	435.34
521.00	454.06
521.17	374.49
521.34	428.32
521.52	386.19
521.69	362.78
521.86	447.04
522.03	421.30
522.20	437.68
522.38	358.10
522.55	418.96
522.72	425.98
522.89	400.23
523.07	444.70
523.24	421.30
523.41	395.55
523.58	320.65
523.75	418.96
523.92	524.28
524.10	463.43
524.27	447.04
524.44	449.38
524.61	533.64
524.78	456.40
524.96	458.74
525.13	538.32
525.30	498.53
525.47	500.87
525.64	437.68
525.81	594.50
525.98	479.81
526.16	519.60
526.33	430.66
526.50	393.21
526.67	526.62
526.84	547.69
527.01	585.13
527.18	461.09
527.36	554.71
527.53	603.86
527.70	603.86
527.87	531.30
528.04	613.22
528.21	594.50
528.38	512.58
528.55	517.26
528.72	552.37
528.89	653.01
529.07	592.16
529.24	554.71
529.41	638.97
529.58	592.16
529.75	655.35
529.92	648.33
530.09	580.45
530.26	594.50
530.43	730.25
530.60	690.46
530.77	706.84
530.94	718.54
531.11	671.73
531.28	774.72
531.46	709.18
531.63	791.10
531.80	894.08
531.97	915.15
532.14	950.26
532.31	1294.32
532.48	1455.81
532.65	1668.80
532.82	1823.28
532.99	2169.68
533.16	2490.33
533.33	2796.94
533.50	2555.86
533.67	2270.32
533.84	1923.92
534.01	1736.68
534.18	1598.59
534.35	1378.58
534.52	1563.48
534.69	1504.96
534.86	1633.69
535.03	1661.78
535.20	1795.19
535.37	1888.81
535.54	1947.33
535.71	2080.74
535.88	2242.23
536.05	2305.43
536.22	2560.55
536.38	2705.66
536.55	3091.85
536.72	3370.37
536.89	3620.81
537.06	4098.28
537.23	4699.80
537.40	4957.25
537.57	5469.83
537.74	5694.52
537.91	5851.34
538.08	6066.67
538.25	6296.04
538.42	6101.78
538.59	6469.24
538.75	6375.62
538.92	6855.43
539.09	7377.37
539.26	8189.53
539.43	9287.25
539.60	10860.09
539.77	11971.84
539.94	13706.18
540.11	15002.83
540.28	16545.25
540.44	18476.19
540.61	20034.99
540.78	22876.40
540.95	27122.13
541.12	32772.18
541.29	37947.11
541.46	40245.51
541.62	39548.03
541.79	37794.97
541.96	35524.65
542.13	33336.25
542.30	30740.60
542.47	28945.41
542.63	27028.51
542.80	26478.48
542.97	26108.68
543.14	25717.81
543.31	25645.25
543.48	25640.57
543.64	26361.45
543.81	26441.03
543.98	26494.86
544.15	26939.57
544.32	27012.12
544.48	27091.70
544.65	26984.04
544.82	26733.60
544.99	26764.03
545.16	27154.90
545.32	28009.19
545.49	40435.10
545.66	60437.31
545.83	65535.00
546.00	65535.00
546.16	62581.24
546.33	45727.05
546.50	35789.13
546.67	27700.24
546.83	24423.49
547.00	23065.98
547.17	22590.85
547.34	21504.84
547.50	20233.93
547.67	19775.19
547.84	19084.73
548.00	18204.69
548.17	17420.61
548.34	16692.70
548.51	16416.52
548.67	15382.00
548.84	14558.13
549.01	13865.33
549.18	13259.13
549.34	12571.02
549.51	12343.99
549.68	12006.95
549.84	11494.37
550.01	10850.72
550.18	10293.68
550.34	9741.31
550.51	9235.75
550.68	8854.25
550.84	8313.58
551.01	7878.24
551.18	7562.27
551.34	7393.75
551.51	7009.90
551.68	6590.95
551.84	6347.53
552.01	6207.10
552.18	5865.38
552.34	5624.31
552.51	5369.19
552.68	5282.59
552.84	4889.38
553.01	4854.27
553.18	4795.76
553.34	4648.30
553.51	4369.78
553.67	4374.46
553.84	3967.21
554.01	3857.20
554.17	3557.61
554.34	3353.99
554.51	3190.15
554.67	3000.57
554.84	2843.75
555.00	2574.59
555.17	2497.35
555.33	2291.38
555.50	2326.49
555.67	2111.16
555.83	2155.63
556.00	1919.24
556.16	2078.40
556.33	1860.73
556.50	1792.85
556.66	1736.68
556.83	1790.51
556.99	1577.52
557.16	1586.88
557.32	1605.61
557.49	1366.87
557.65	1467.52
557.82	1394.96
557.98	1362.19
558.15	1308.36
558.32	1310.70
558.48	1268.57
558.65	1306.02
558.81	1193.67
558.98	1121.12
559.14	1167.93
559.31	1074.31
559.47	1086.01
559.64	1062.60
559.80	1123.46
559.97	1090.69
560.13	1097.71
560.30	1069.62
560.46	999.41
560.63	1001.75
560.79	950.26
560.96	1022.81
561.12	940.90
561.29	1088.35
561.45	943.24
561.61	983.02
561.78	1097.71
561.94	973.66
562.11	1078.99
562.27	994.73
562.44	1027.50
562.60	994.73
562.77	940.90
562.93	1053.24
563.10	980.68
563.26	847.27
563.42	980.68
563.59	889.40
563.75	922.17
563.92	898.77
564.08	814.51
564.24	910.47
564.41	898.77
564.57	807.48
564.74	833.23
564.90	816.85
565.07	767.70
565.23	835.57
565.39	744.29
565.56	842.59
565.72	835.57
565.88	753.65
566.05	812.17
566.21	741.95
566.38	866.00
566.54	765.36
566.70	798.12
566.87	884.72
567.03	842.59
567.19	786.42
567.36	837.91
567.52	741.95
567.68	863.66
567.85	821.53
568.01	812.17
568.17	748.97
568.34	798.12
568.50	793.44
568.66	816.85
568.83	898.77
568.99	734.93
569.15	753.65
569.32	800.46
569.48	734.93
569.64	716.20
569.81	674.07
569.97	573.43
570.13	667.05
570.30	655.35
570.46	610.88
570.62	582.79
570.78	566.41
570.95	496.19
571.11	538.32
571.27	636.63
571.43	554.71
571.60	669.39
571.76	585.13
571.92	657.69
572.09	575.77
572.25	631.94
572.41	601.52
572.57	587.47
572.74	624.92
572.90	578.11
573.06	634.29
573.22	645.99
573.38	634.29
573.55	599.18
573.71	692.80
573.87	727.91
574.03	697.48
574.20	648.33
574.36	802.80
574.52	627.26
574.68	800.46
574.84	802.80
575.01	767.70
575.17	945.58
575.33	957.28
575.49	957.28
575.65	994.73
575.82	1139.84
575.98	1135.16
576.14	1373.89
576.30	2406.07
576.46	7485.03
576.62	16051.39
576.79	23400.68
576.95	15789.25
577.11	9132.77
577.27	6094.76
577.43	4049.13
577.59	2635.44
577.75	2162.66
577.92	1816.26
578.08	1912.22
578.24	1818.60
578.40	2733.75
578.56	7037.99
578.72	15094.11
578.88	21153.76
579.04	14679.84
579.21	8849.57
579.37	6394.34
579.53	4926.83
579.69	4486.81
579.85	5390.25
580.01	6731.38
580.17	7047.35
580.33	5930.92
580.49	4922.15
580.65	4276.16
580.82	3850.18
580.98	3777.62
581.14	3803.37
581.30	4051.47
581.46	4278.50
581.62	4716.18
581.78	5022.79
581.94	5406.64
582.10	5797.51
582.26	6092.41
582.42	6441.15
582.58	6635.42
582.74	6597.97
582.90	6626.06
583.06	6839.05
583.22	6658.82
583.38	6726.70
583.54	6600.31
583.70	6700.95
583.86	6408.39
584.02	6312.42
584.18	6448.18
584.34	6359.24
584.50	6097.10
584.66	6057.31
584.82	5877.09
584.98	6012.84
585.14	5891.13
585.30	5757.72
585.46	5584.52
585.62	5401.96
585.78	5659.42
585.94	5533.03
586.10	5596.22
586.26	5982.41
586.42	6691.59
586.58	7967.18
586.74	9687.48
586.90	11908.65
587.06	13373.82
587.22	13422.97
587.38	12360.37
587.54	10342.83
587.70	8587.43
587.86	7215.87
588.02	6190.72
588.18	5607.92
588.34	4919.81
588.49	4395.53
588.65	4348.72
588.81	3990.61
588.97	3981.25
589.13	3641.87
589.29	3616.13
589.45	3616.13
589.61	3730.81
589.77	3686.34
589.93	3742.52
590.08	3775.28
590.24	3904.01
590.40	4159.13
590.56	4266.80
590.72	4299.56
590.88	4271.48
591.04	4404.89
591.20	4667.03
591.35	4908.10
591.51	5034.49
591.67	5198.33
591.83	5617.29
591.99	5984.75
592.15	6607.33
592.31	7396.09
592.46	7946.12
592.62	8580.40
592.78	8933.82
592.94	9518.96
593.10	9535.34
593.26	9128.09
593.41	8477.42
593.57	7669.94
593.73	6726.70
593.89	5881.77
594.05	5416.00
594.20	4561.70
594.36	4339.35
594.52	3847.84
594.68	3836.14
594.84	3522.51
594.99	3520.17
595.15	3330.58
595.31	3314.20
595.47	3272.07
595.62	3316.54
595.78	3361.01
595.94	3173.77
596.10	3473.36
596.25	3606.77
596.41	3349.31
596.57	3213.56
596.73	3335.26
596.88	3335.26
597.04	3204.19
597.20	3236.96
597.36	3246.32
597.51	3541.23
597.67	3597.40
597.83	3742.52
597.99	3967.21
598.14	4105.30
598.30	4475.10
598.46	4622.56
598.61	4903.42
598.77	5263.86
598.93	5420.68
599.09	5612.60
599.24	5788.14
599.40	5804.53
599.56	5598.56
599.71	5392.59
599.87	5195.99
600.03	4620.22
600.18	4367.44
600.34	4161.47
600.50	3831.46
600.65	3592.72
600.81	3456.97
600.97	3077.80
601.12	2974.82
601.28	2953.76
601.44	2766.51
601.59	2630.76
601.75	2548.84
601.91	2368.62
602.06	2223.51
602.22	2267.98
602.37	2228.19
602.53	2181.38
602.69	2167.34
602.84	2134.57
603.00	2036.27
603.16	2193.08
603.31	2157.97
603.47	2303.09
603.62	2265.64
603.78	2424.80
603.94	2457.56
604.09	2480.97
604.25	2483.31
604.40	2485.65
604.56	2520.76
