SpectraSuite Data File
++++++++++++++++++++++++++++++++++++
Date: Fri Oct 04 11:42:22 GMT-05:00 2013
User: price-jones
Dark Spectrum Present: No
Reference Spectrum Present: No
Number of Sampled Component Spectra: 1
Spectrometers: USB2+H05261
Integration Time (usec): 100000 (USB2+H05261)
Spectra Averaged: 1 (USB2+H05261)
Boxcar Smoothing: 0 (USB2+H05261)
Correct for Electrical Dark: No (USB2+H05261)
Strobe/Lamp Enabled: No (USB2+H05261)
Correct for Detector Non-linearity: No (USB2+H05261)
Correct for Stray Light: No (USB2+H05261)
Number of Pixels in Processed Spectrum: 2048
>>>>>Begin Processed Spectral Data<<<<<
365.73	32.77
365.92	32.77
366.12	32.77
366.32	0.00
366.52	0.00
366.72	0.00
366.91	0.00
367.11	0.00
367.31	0.00
367.51	0.00
367.70	0.00
367.90	0.00
368.10	0.00
368.30	35.11
368.49	0.00
368.69	0.00
368.89	0.00
369.09	0.00
369.28	0.00
369.48	0.00
369.68	0.00
369.87	4.68
370.07	0.00
370.27	74.90
370.47	100.64
370.66	461.09
370.86	465.77
371.06	578.11
371.25	709.18
371.45	543.00
371.65	475.13
371.84	437.68
372.04	468.11
372.24	531.30
372.44	545.34
372.63	606.20
372.83	533.64
373.03	423.64
373.22	454.06
373.42	402.57
373.62	545.34
373.81	564.07
374.01	561.73
374.21	526.62
374.40	552.37
374.60	564.07
374.79	589.82
374.99	585.13
375.19	683.44
375.38	643.65
375.58	662.37
375.78	657.69
375.97	697.48
376.17	753.65
376.37	730.25
376.56	578.11
376.76	730.25
376.95	753.65
377.15	748.97
377.35	868.34
377.54	882.38
377.74	821.53
377.93	737.27
378.13	786.42
378.33	788.76
378.52	676.41
378.72	830.89
378.91	772.38
379.11	685.78
379.31	690.46
379.50	692.80
379.70	755.99
379.89	718.54
380.09	821.53
380.28	854.30
380.48	861.32
380.68	861.32
380.87	868.34
381.07	800.46
381.26	763.01
381.46	711.52
381.65	641.31
381.85	601.52
382.04	580.45
382.24	592.16
382.43	573.43
382.63	531.30
382.83	528.96
383.02	627.26
383.22	589.82
383.41	550.03
383.61	620.24
383.80	578.11
384.00	683.44
384.19	758.33
384.39	791.10
384.58	770.04
384.78	830.89
384.97	812.17
385.17	844.93
385.36	676.41
385.56	741.95
385.75	720.88
385.95	861.32
386.14	814.51
386.34	877.70
386.53	751.31
386.72	898.77
386.92	861.32
387.11	802.80
387.31	828.55
387.50	826.21
387.70	788.76
387.89	802.80
388.09	819.19
388.28	781.74
388.48	770.04
388.67	844.93
388.86	947.92
389.06	957.28
389.25	1001.75
389.45	1128.14
389.64	1086.01
389.84	1093.03
390.03	997.07
390.22	1050.90
390.42	1025.15
390.61	1076.65
390.81	1118.78
391.00	1121.12
391.19	1132.82
391.39	1144.52
391.58	1095.37
391.78	994.73
391.97	992.39
392.16	919.83
392.36	919.83
392.55	734.93
392.75	664.71
392.94	550.03
393.13	571.09
393.33	671.73
393.52	678.76
393.71	868.34
393.91	908.13
394.10	1001.75
394.29	1048.56
394.49	1200.69
394.68	1203.04
394.88	1296.66
395.07	1282.61
395.26	1315.38
395.46	1231.12
395.65	1121.12
395.84	1020.47
396.04	952.60
396.23	753.65
396.42	704.50
396.62	638.97
396.81	755.99
397.00	826.21
397.19	1135.16
397.39	1203.04
397.58	1385.60
397.77	1460.49
397.97	1427.73
398.16	1495.60
398.35	1652.42
398.55	1502.62
398.74	1570.50
398.93	1612.63
399.12	1579.86
399.32	1537.73
399.51	1593.90
399.70	1675.82
399.90	1671.14
400.09	1724.97
400.28	1694.55
400.47	1680.50
400.67	1694.55
400.86	1788.17
401.05	1776.47
401.24	1900.52
401.44	1865.41
401.63	1916.90
401.82	1804.55
402.01	1767.10
402.21	1776.47
402.40	1846.68
402.59	1729.66
402.78	1743.70
402.97	1668.80
403.17	1739.02
403.36	1853.70
403.55	1853.70
403.74	1914.56
403.93	1982.43
404.13	1867.75
404.32	1813.92
404.51	1884.13
404.70	1921.58
404.89	1849.02
405.09	1792.85
405.28	1816.26
405.47	1778.81
405.66	1895.83
405.85	1727.32
406.05	1727.32
406.24	1825.62
406.43	1860.73
406.62	1893.49
406.81	1872.43
407.00	1832.64
407.20	1839.66
407.39	1881.79
407.58	1872.43
407.77	1961.37
407.96	1980.09
408.15	1947.33
408.34	2038.61
408.54	2235.21
408.73	2031.58
408.92	2143.93
409.11	2003.50
409.30	1933.28
409.49	1853.70
409.68	1767.10
409.87	1757.74
410.07	1687.53
410.26	1874.77
410.45	2057.33
410.64	1991.80
410.83	2054.99
411.02	2167.34
411.21	2225.85
411.40	2186.06
411.59	2157.97
411.78	2284.36
411.98	2139.25
412.17	2157.97
412.36	2202.44
412.55	2202.44
412.74	2263.30
412.93	2167.34
413.12	2057.33
413.31	2319.47
413.50	2270.32
413.69	2230.53
413.88	2363.94
414.07	2251.60
414.26	2237.55
414.45	2284.36
414.64	2310.11
414.83	2382.67
415.02	2216.49
415.22	2200.10
415.41	2347.56
415.60	2408.41
415.79	2443.52
415.98	2504.37
416.17	2527.78
416.36	2352.24
416.55	2483.31
416.74	2450.54
416.93	2345.22
417.12	2211.81
417.31	2277.34
417.50	2338.20
417.69	2373.30
417.88	2324.15
418.07	2377.98
418.26	2230.53
418.45	2427.14
418.64	2558.21
418.83	2466.92
419.02	2499.69
419.21	2572.25
419.39	2424.80
419.58	2275.00
419.77	2333.51
419.96	2359.26
420.15	2490.33
420.34	2527.78
420.53	2686.94
420.72	2712.68
420.91	2729.06
421.10	2684.59
421.29	2509.05
421.48	2555.86
421.67	2588.63
421.86	2600.34
422.05	2349.90
422.24	2221.17
422.43	2148.61
422.61	2293.72
422.80	2438.84
422.99	2541.82
423.18	2513.74
423.37	2434.16
423.56	2485.65
423.75	2427.14
423.94	2464.58
424.13	2377.98
424.32	2373.30
424.50	2445.86
424.69	2356.92
424.88	2434.16
425.07	2333.51
425.26	2396.71
425.45	2335.85
425.64	2382.67
425.83	2270.32
426.01	2443.52
426.20	2523.10
426.39	2499.69
426.58	2270.32
426.77	2047.97
426.96	2120.53
427.15	2122.87
427.33	2312.45
427.52	2485.65
427.71	2506.71
427.90	2413.09
428.09	2307.77
428.28	2270.32
428.46	2237.55
428.65	2256.28
428.84	2300.75
429.03	2452.88
429.22	2179.04
429.40	2040.95
429.59	1860.73
429.78	1823.28
429.97	1682.85
430.16	1610.29
430.34	1675.82
430.53	1724.97
430.72	1657.10
430.91	1888.81
431.10	2186.06
431.28	2464.58
431.47	2705.66
431.66	2780.56
431.85	2509.05
432.03	2485.65
432.22	2256.28
432.41	2296.07
432.60	2511.39
432.79	2808.64
432.97	2808.64
433.16	2647.15
433.35	2509.05
433.54	2296.07
433.72	2190.74
433.91	2305.43
434.10	2385.01
434.28	2523.10
434.47	2750.13
434.66	2869.50
434.85	2724.38
435.03	2761.83
435.22	3009.93
435.41	3375.05
435.59	3510.80
435.78	3335.26
435.97	3119.93
436.16	3023.97
436.34	2895.24
436.53	2850.77
436.72	2825.03
436.90	2722.04
437.09	2647.15
437.28	2607.36
437.46	2609.70
437.65	2679.91
437.84	2574.59
438.02	2422.45
438.21	2377.98
438.40	2558.21
438.58	2595.65
438.77	2693.96
438.96	2764.17
439.14	2839.07
439.33	2862.48
439.52	3026.31
439.70	2909.29
439.89	2853.11
440.08	2775.88
440.26	2855.45
440.45	2881.20
440.63	3056.74
440.82	3215.90
441.01	2939.71
441.19	3110.57
441.38	3101.21
441.57	3192.49
441.75	3351.65
441.94	3180.79
442.12	3199.51
442.31	3211.22
442.50	3246.32
442.68	3262.71
442.87	3281.43
443.05	3267.39
443.24	3253.34
443.43	3286.11
443.61	3204.19
443.80	3447.61
443.98	3265.05
444.17	3199.51
444.35	3389.10
444.54	3459.31
444.73	3295.47
444.91	3302.50
445.10	3141.00
445.28	3155.04
445.47	2855.45
445.65	3049.72
445.84	3014.61
446.02	3251.00
446.21	3070.78
446.39	3206.53
446.58	3164.40
446.77	3316.54
446.95	3248.66
447.14	3290.79
447.32	3440.59
447.51	3351.65
447.69	3166.74
447.88	3260.37
448.06	3389.10
448.25	3353.99
448.43	3431.23
448.62	3330.58
448.80	3330.58
448.99	3335.26
449.17	3396.12
449.36	3428.88
449.54	3403.14
449.73	3541.23
449.91	3585.70
450.10	3648.90
450.28	3674.64
450.46	3660.60
450.65	3667.62
450.83	3557.61
451.02	3405.48
451.20	3513.14
451.39	3447.61
451.57	3510.80
451.76	3456.97
451.94	3468.67
452.13	3424.20
452.31	3379.73
452.49	3187.81
452.68	3187.81
452.86	3288.45
453.05	3232.28
453.23	3314.20
453.42	3370.37
453.60	3482.72
453.78	3468.67
453.97	3370.37
454.15	3489.74
454.34	3489.74
454.52	3351.65
454.70	3391.44
454.89	3349.31
455.07	3297.81
455.26	3447.61
455.44	3496.76
455.62	3646.55
455.81	3566.98
455.99	3672.30
456.17	3644.21
456.36	3571.66
456.54	3730.81
456.73	3569.32
456.91	3662.94
457.09	3833.80
457.28	3899.33
457.46	3616.13
457.64	3733.15
457.83	3559.95
458.01	3543.57
458.19	3613.79
458.38	3583.36
458.56	3756.56
458.74	3709.75
458.93	3574.00
459.11	3604.42
459.29	3538.89
459.48	3545.91
459.66	3471.01
459.84	3545.91
460.03	3667.62
460.21	3653.58
460.39	3772.94
460.57	3733.15
460.76	3693.37
460.94	3779.97
461.12	3805.71
461.31	3641.87
461.49	3765.92
461.67	3691.02
461.85	3723.79
462.04	3789.33
462.22	3925.08
462.40	3817.41
462.59	3861.88
462.77	3742.52
462.95	3913.38
463.13	3674.64
463.32	3782.31
463.50	3733.15
463.68	3749.54
463.86	3639.53
464.05	3559.95
464.23	3709.75
464.41	3730.81
464.59	3583.36
464.78	3740.18
464.96	3653.58
465.14	3522.51
465.32	3660.60
465.50	3836.14
465.69	3756.56
465.87	3730.81
466.05	3716.77
466.23	3520.17
466.41	3445.27
466.60	3707.41
466.78	3510.80
466.96	3618.47
467.14	3676.98
467.32	3775.28
467.51	3733.15
467.69	3620.81
467.87	3623.15
468.05	3782.31
468.23	3763.58
468.41	3527.19
468.60	3784.65
468.78	3896.99
468.96	3691.02
469.14	3700.39
469.32	3728.47
469.50	3641.87
469.69	3665.28
469.87	3487.40
470.05	3522.51
470.23	3555.27
470.41	3566.98
470.59	3529.53
470.77	3749.54
470.95	3826.78
471.14	3850.18
471.32	3655.92
471.50	3934.44
471.68	3815.07
471.86	4042.11
472.04	3927.42
472.22	4077.21
472.40	3845.50
472.58	3719.11
472.77	3658.26
472.95	3775.28
473.13	3896.99
473.31	3854.86
473.49	3829.12
473.67	3892.31
473.85	3934.44
474.03	4063.17
474.21	4065.51
474.39	4091.26
474.57	4205.94
474.75	4138.07
474.93	3955.51
475.12	3925.08
475.30	4004.66
475.48	3997.64
475.66	4007.00
475.84	3988.27
476.02	3896.99
476.20	3969.55
476.38	3955.51
476.56	4133.39
476.74	4060.83
476.92	4138.07
477.10	4187.22
477.28	4461.06
477.46	4393.19
477.64	4402.55
477.82	4578.09
478.00	4496.17
478.18	4276.16
478.36	4362.76
478.54	4245.73
478.72	4397.87
478.90	4358.08
479.08	4699.80
479.26	4709.16
479.44	4629.58
479.62	4599.15
479.80	4550.00
479.98	4634.26
480.16	4699.80
480.34	4587.45
480.52	4554.68
480.70	4718.52
480.88	4718.52
481.06	4833.21
481.24	4753.63
481.41	5006.41
481.59	4908.10
481.77	4947.89
481.95	4849.59
482.13	4861.29
482.31	4828.53
482.49	5111.73
482.67	5011.09
482.85	5188.97
483.03	5078.96
483.21	5100.03
483.39	5226.42
483.57	5074.28
483.74	5118.75
483.92	5050.88
484.10	4978.32
484.28	5029.81
484.46	5095.35
484.64	5268.55
484.82	5245.14
485.00	5006.41
485.18	5011.09
485.35	4954.91
485.53	4629.58
485.71	4187.22
485.89	4124.02
486.07	4252.75
486.25	4678.73
486.43	4926.83
486.61	4933.85
486.78	5167.90
486.96	5048.54
487.14	5081.30
487.32	5418.34
487.50	5359.83
487.68	5556.43
487.85	5631.33
488.03	5816.23
488.21	5657.07
488.39	5645.37
488.57	5343.44
488.75	5432.38
488.92	5650.05
489.10	5970.71
489.28	6026.88
489.46	6317.11
489.64	6160.29
489.81	6113.48
489.99	6132.20
490.17	6108.80
490.35	6387.32
490.53	6099.44
490.70	6052.63
490.88	6005.81
491.06	6265.61
491.24	6272.64
491.41	6132.20
491.59	5923.90
491.77	5738.99
491.95	5846.66
492.13	5902.83
492.30	6040.92
492.48	6387.32
492.66	6417.75
492.84	6579.25
493.01	6434.13
493.19	6289.02
493.37	6202.42
493.54	6303.06
493.72	6363.92
493.90	6558.18
494.08	6628.40
494.25	6754.79
494.43	6939.69
494.61	7002.88
494.79	6979.48
494.96	6787.55
495.14	6794.58
495.32	6523.07
495.49	6403.71
495.67	6654.14
495.85	6920.96
496.02	6984.16
496.20	6988.84
496.38	6862.45
496.55	6916.28
496.73	6930.33
496.91	6967.77
497.09	7023.95
497.26	7279.07
497.44	7054.37
497.62	6937.35
497.79	6864.79
497.97	6724.36
498.14	6431.79
498.32	6703.29
498.50	6874.15
498.67	6902.24
498.85	7035.65
499.03	7033.31
499.20	7066.08
499.38	7108.21
499.56	7190.13
499.73	6843.73
499.91	6902.24
500.08	6754.79
500.26	6789.89
500.44	6787.55
500.61	6998.20
500.79	6715.00
500.97	6759.47
501.14	6803.94
501.32	6679.89
501.49	6506.69
501.67	6862.45
501.84	6991.18
502.02	6855.43
502.20	6960.75
502.37	7037.99
502.55	6881.18
502.72	6806.28
502.90	7187.79
503.07	7012.24
503.25	6829.68
503.43	6448.18
503.60	6434.13
503.78	6363.92
503.95	6347.53
504.13	6689.25
504.30	7098.84
504.48	7012.24
504.65	7136.29
504.83	7016.93
505.01	7103.53
505.18	7042.67
505.36	7286.09
505.53	7236.94
505.71	7286.09
505.88	7433.54
506.06	7272.04
506.23	7246.30
506.41	7026.29
506.58	7126.93
506.76	7169.06
506.93	7080.12
507.11	7143.32
507.28	7194.81
507.46	6918.62
507.63	6853.09
507.81	6881.18
507.98	6920.96
508.16	7056.72
508.33	7185.44
508.50	7342.26
508.68	7386.73
508.85	7428.86
509.03	7494.40
509.20	7414.82
509.38	7267.36
509.55	7136.29
509.73	7098.84
509.90	7424.18
510.08	7300.13
510.25	7403.11
510.42	7262.68
510.60	7253.32
510.77	7342.26
510.95	7342.26
511.12	7503.76
511.30	7595.04
511.47	7688.66
511.64	7749.51
511.82	7714.41
511.99	7410.14
512.17	7246.30
512.34	7162.04
512.51	7377.37
512.69	7332.90
512.86	7365.67
513.04	7538.87
513.21	7630.15
513.38	7456.95
513.56	7300.13
513.73	6913.94
513.90	7059.06
514.08	7059.06
514.25	7176.08
514.43	7417.16
514.60	7258.00
514.77	7300.13
514.95	7281.41
515.12	7304.81
515.29	7386.73
515.47	7520.14
515.64	7646.53
515.81	7674.62
515.99	7590.36
516.16	7180.76
516.33	6703.29
516.51	6410.73
516.68	6061.99
516.85	6045.60
517.03	5944.96
517.20	6459.88
517.37	7005.22
517.54	7377.37
517.72	7220.55
517.89	6792.23
518.06	6291.36
518.24	6108.80
518.41	6623.72
518.58	7047.35
518.75	6995.86
518.93	7119.91
519.10	7222.89
519.27	7089.48
519.45	7269.70
519.62	7323.54
519.79	7510.78
519.96	7164.38
520.14	7520.14
520.31	7295.45
520.48	7241.62
520.65	7131.61
520.83	7463.97
521.00	7613.76
521.17	7499.08
521.34	7503.76
521.52	7503.76
521.69	7709.72
521.86	7669.94
522.03	7688.66
522.20	7349.28
522.38	7105.87
522.55	7000.54
522.72	7129.27
522.89	7482.69
523.07	7445.24
523.24	7463.97
523.41	7559.93
523.58	7627.81
523.75	7681.64
523.92	7606.74
524.10	7789.30
524.27	7676.96
524.44	7859.52
524.61	7613.76
524.78	7625.47
524.96	7686.32
525.13	7644.19
525.30	7693.34
525.47	7749.51
525.64	7730.79
525.81	7583.34
525.98	7225.23
526.16	7009.90
526.33	6850.75
526.50	6558.18
526.67	6363.92
526.84	6607.33
527.01	6878.83
527.18	7035.65
527.36	7218.21
527.53	7578.65
527.70	7716.75
527.87	7592.70
528.04	7482.69
528.21	7421.84
528.38	7679.30
528.55	7892.29
528.72	7925.05
528.89	8067.83
529.07	7726.11
529.24	7770.58
529.41	7623.12
529.58	7513.12
529.75	7517.80
529.92	7562.27
530.09	7674.62
530.26	7758.88
530.43	7808.03
530.60	7903.99
530.77	8077.19
530.94	8013.99
531.11	7920.37
531.28	7681.64
531.46	7737.81
531.63	7627.81
531.80	7768.24
531.97	7573.97
532.14	7473.33
532.31	7215.87
532.48	7122.25
532.65	7063.74
532.82	7332.90
532.99	7576.31
533.16	7250.98
533.33	7843.14
533.50	7793.98
533.67	7449.93
533.84	7365.67
534.01	7527.16
534.18	7592.70
534.35	7510.78
534.52	7468.65
534.69	7463.97
534.86	7564.61
535.03	7691.00
535.20	7995.27
535.37	8070.17
535.54	7964.84
535.71	7866.54
535.88	7915.69
536.05	7789.30
536.22	7801.01
536.38	7478.01
536.55	7351.62
536.72	7283.75
536.89	7178.42
537.06	7449.93
537.23	7655.89
537.40	7669.94
537.57	7658.23
537.74	7908.67
537.91	7719.09
538.08	7585.68
538.25	7721.43
538.42	7896.97
538.59	7620.78
538.75	7571.63
538.92	7597.38
539.09	7536.52
539.26	7447.58
539.43	7325.88
539.60	7468.65
539.77	7510.78
539.94	7424.18
540.11	7183.10
540.28	7225.23
540.44	7208.85
540.61	7267.36
540.78	7417.16
540.95	7550.57
541.12	7983.57
541.29	7850.16
541.46	7974.21
541.62	8091.23
541.79	8210.60
541.96	7903.99
542.13	7712.07
542.30	7756.54
542.47	7911.01
542.63	7719.09
542.80	7613.76
542.97	7850.16
543.14	7552.91
543.31	7585.68
543.48	7691.00
543.64	8006.97
543.81	7918.03
543.98	8053.78
544.15	7803.35
544.32	7700.36
544.48	7698.02
544.65	7737.81
544.82	7887.61
544.99	7815.05
545.16	7927.39
545.32	7723.77
545.49	8292.52
545.66	9095.32
545.83	9324.69
546.00	8812.12
546.16	8271.45
546.33	8018.68
546.50	7700.36
546.67	7688.66
546.83	7634.83
547.00	7786.96
547.17	7590.36
547.34	7337.58
547.50	7283.75
547.67	7683.98
547.84	7346.94
548.00	7419.50
548.17	7627.81
548.34	7646.53
548.51	7740.15
548.67	7499.08
548.84	7400.77
549.01	7793.98
549.18	7555.25
549.34	7463.97
549.51	7279.07
549.68	7520.14
549.84	7414.82
550.01	7510.78
550.18	7482.69
550.34	7534.18
550.51	7480.35
550.68	7494.40
550.84	7442.90
551.01	7260.34
551.18	7421.84
551.34	7279.07
551.51	7447.58
551.68	7506.10
551.84	7576.31
552.01	7583.34
552.18	7466.31
552.34	7246.30
552.51	7068.42
552.68	7171.40
552.84	7176.08
553.01	7157.36
553.18	7386.73
553.34	7316.51
553.51	7091.82
553.67	7421.84
553.84	7363.33
554.01	7353.96
554.17	7169.06
554.34	7234.60
554.51	7382.05
554.67	7342.26
554.84	7503.76
555.00	7400.77
555.17	7194.81
555.33	7323.54
555.50	7019.27
555.67	7136.29
555.83	7084.80
556.00	7117.57
556.16	7379.71
556.33	7089.48
556.50	7000.54
556.66	7155.02
556.83	6906.92
556.99	6902.24
557.16	6780.53
557.32	6785.21
557.49	6913.94
557.65	7042.67
557.82	7068.42
557.98	7059.06
558.15	6991.18
558.32	6871.81
558.48	6586.27
558.65	6712.66
558.81	6715.00
558.98	6829.68
559.14	6747.76
559.31	6761.81
559.47	6850.75
559.64	6612.01
559.80	6710.32
559.97	6642.44
560.13	6876.49
560.30	6874.15
560.46	6876.49
560.63	7000.54
560.79	7140.97
560.96	7052.03
561.12	6860.11
561.29	6633.08
561.45	6511.37
561.61	6691.59
561.78	6736.06
561.94	6817.98
562.11	6787.55
562.27	6602.65
562.44	6745.42
562.60	6771.17
562.77	6867.13
562.93	6972.46
563.10	7138.63
563.26	6822.66
563.42	6864.79
563.59	6588.61
563.75	6555.84
563.92	6612.01
564.08	6677.55
564.24	6843.73
564.41	6895.22
564.57	6722.02
564.74	6836.70
564.90	6738.40
565.07	6623.72
565.23	6572.22
565.39	6361.58
565.56	6612.01
565.72	6389.66
565.88	6342.85
566.05	6401.37
566.21	6328.81
566.38	6609.67
566.54	6413.07
566.70	6558.18
566.87	6658.82
567.03	6780.53
567.19	6670.53
567.36	6530.09
567.52	6401.37
567.68	6450.52
567.85	6448.18
568.01	6104.12
568.17	6024.54
568.34	6139.23
568.50	5959.00
568.66	6061.99
568.83	6113.48
568.99	6036.24
569.15	6148.59
569.32	6242.21
569.48	5860.70
569.64	6003.47
569.81	5944.96
569.97	6118.16
570.13	6235.19
570.30	6057.31
570.46	5956.66
570.62	5921.56
570.78	6001.13
570.95	5898.15
571.11	6045.60
571.27	6059.65
571.43	6143.91
571.60	6092.41
571.76	6033.90
571.92	6209.44
572.09	6080.71
572.25	6157.95
572.41	6104.12
572.57	6190.72
572.74	6289.02
572.90	6272.64
573.06	6143.91
573.22	6251.57
573.38	6155.61
573.55	6118.16
573.71	6235.19
573.87	6291.36
574.03	6157.95
574.20	6092.41
574.36	5935.60
574.52	6052.63
574.68	6113.48
574.84	6008.16
575.01	5994.11
575.17	5912.19
575.33	5748.36
575.49	5792.83
575.65	6083.05
575.82	5809.21
575.98	5849.00
576.14	5982.41
576.30	6003.47
576.46	6183.70
576.62	6251.57
576.79	6321.79
576.95	6071.35
577.11	5928.58
577.27	6083.05
577.43	5989.43
577.59	5947.30
577.75	5846.66
577.92	5774.10
578.08	5870.06
578.24	5708.57
578.40	5811.55
578.56	6024.54
578.72	6106.46
578.88	6300.72
579.04	5980.07
579.21	6073.69
579.37	6015.18
579.53	6150.93
579.69	5923.90
579.85	6099.44
580.01	6040.92
580.17	6061.99
580.33	6113.48
580.49	6036.24
580.65	6026.88
580.82	6073.69
580.98	5830.27
581.14	5980.07
581.30	6076.03
581.46	5923.90
581.62	6153.27
581.78	5966.03
581.94	6132.20
582.10	6186.04
582.26	6136.88
582.42	6120.50
582.58	6228.17
582.74	6125.18
582.90	5895.81
583.06	6146.25
583.22	6078.37
583.38	6197.74
583.54	5996.45
583.70	6146.25
583.86	6162.63
584.02	6181.35
584.18	6090.07
584.34	6179.01
584.50	6141.57
584.66	6047.94
584.82	6008.16
584.98	5996.45
585.14	5750.70
585.30	5827.93
585.46	5783.46
585.62	5561.11
585.78	5659.42
585.94	5755.38
586.10	5905.17
586.26	5734.31
586.42	5942.62
586.58	5795.17
586.74	5774.10
586.90	5935.60
587.06	5849.00
587.22	5879.43
587.38	5736.65
587.54	5710.91
587.70	5451.11
587.86	5149.18
588.02	5200.67
588.18	5069.60
588.34	4765.33
588.49	4514.89
588.65	4294.88
588.81	4135.73
588.97	4081.89
589.13	4219.99
589.29	4222.33
589.45	4250.41
589.61	4346.37
589.77	4236.37
589.93	4390.84
590.08	4805.12
590.24	5078.96
590.40	4908.10
590.56	5004.07
590.72	4814.48
590.88	4791.08
591.04	4957.25
591.20	4894.06
591.35	4697.46
591.51	4767.67
591.67	4718.52
591.83	4678.73
591.99	4720.86
592.15	4812.14
592.31	4929.17
592.46	4952.57
592.62	5055.56
592.78	5085.98
592.94	5064.92
593.10	5074.28
593.26	5174.92
593.41	5207.69
593.57	5118.75
593.73	5022.79
593.89	4908.10
594.05	4793.42
594.20	4629.58
594.36	4402.55
594.52	4468.08
594.68	4386.16
594.84	4664.69
594.99	4760.65
595.15	4938.53
595.31	5004.07
595.47	4877.68
595.62	4961.94
595.78	4823.84
595.94	5060.24
596.10	5104.71
596.25	5128.11
596.41	4936.19
596.57	4746.61
596.73	4833.21
596.88	4908.10
597.04	4968.96
597.20	4978.32
597.36	4861.29
597.51	4844.91
597.67	4954.91
