SpectraSuite Data File
++++++++++++++++++++++++++++++++++++
Date: Fri Oct 04 11:42:22 GMT-05:00 2013
User: price-jones
Dark Spectrum Present: No
Reference Spectrum Present: No
Number of Sampled Component Spectra: 1
Spectrometers: USB2+H05261
Integration Time (usec): 100000 (USB2+H05261)
Spectra Averaged: 1 (USB2+H05261)
Boxcar Smoothing: 0 (USB2+H05261)
Correct for Electrical Dark: No (USB2+H05261)
Strobe/Lamp Enabled: No (USB2+H05261)
Correct for Detector Non-linearity: No (USB2+H05261)
Correct for Stray Light: No (USB2+H05261)
Number of Pixels in Processed Spectrum: 2048
>>>>>Begin Processed Spectral Data<<<<<
365.73	0.00
365.92	0.00
366.12	0.00
366.32	0.00
366.52	0.00
366.72	0.00
366.91	0.00
367.11	0.00
367.31	0.00
367.51	0.00
367.70	0.00
367.90	0.00
368.10	7.02
368.30	0.00
368.49	0.00
368.69	0.00
368.89	0.00
369.09	0.00
369.28	0.00
369.48	0.00
369.68	0.00
369.87	0.00
370.07	0.00
370.27	67.88
370.47	0.00
370.66	252.78
370.86	273.84
371.06	304.27
371.25	372.15
371.45	262.14
371.65	313.63
371.84	149.79
372.04	280.86
372.24	318.31
372.44	308.95
372.63	346.40
372.83	250.44
373.03	301.93
373.22	252.78
373.42	306.61
373.62	308.95
373.81	365.12
374.01	355.76
374.21	355.76
374.40	362.78
374.60	344.06
374.79	351.08
374.99	360.44
375.19	393.21
375.38	374.49
375.58	411.93
375.78	308.95
375.97	437.68
376.17	479.81
376.37	386.19
376.56	444.70
376.76	411.93
376.95	411.93
377.15	482.15
377.35	451.72
377.54	479.81
377.74	491.51
377.93	507.90
378.13	437.68
378.33	465.77
378.52	456.40
378.72	383.85
378.91	461.09
379.11	430.66
379.31	390.87
379.50	397.89
379.70	486.83
379.89	470.45
380.09	440.02
380.28	437.68
380.48	491.51
380.68	430.66
380.87	454.06
381.07	437.68
381.26	383.85
381.46	414.27
381.65	402.57
381.85	379.17
382.04	322.99
382.24	395.55
382.43	381.51
382.63	299.59
382.83	292.57
383.02	346.40
383.22	416.62
383.41	330.02
383.61	346.40
383.80	369.80
384.00	442.36
384.19	449.38
384.39	365.12
384.58	447.04
384.78	451.72
384.97	433.00
385.17	425.98
385.36	376.83
385.56	411.93
385.75	404.91
385.95	393.21
386.14	468.11
386.34	395.55
386.53	444.70
386.72	383.85
386.92	486.83
387.11	360.44
387.31	512.58
387.50	486.83
387.70	397.89
387.89	425.98
388.09	402.57
388.28	447.04
388.48	411.93
388.67	465.77
388.86	475.13
389.06	475.13
389.25	540.66
389.45	571.09
389.64	575.77
389.84	505.56
390.03	557.05
390.22	543.00
390.42	575.77
390.61	571.09
390.81	622.58
391.00	671.73
391.19	561.73
391.39	645.99
391.58	594.50
391.78	449.38
391.97	528.96
392.16	554.71
392.36	559.39
392.55	449.38
392.75	418.96
392.94	325.33
393.13	257.46
393.33	283.20
393.52	367.46
393.71	454.06
393.91	444.70
394.10	454.06
394.29	557.05
394.49	608.54
394.68	606.20
394.88	674.07
395.07	795.78
395.26	725.57
395.46	702.16
395.65	683.44
395.84	484.49
396.04	528.96
396.23	468.11
396.42	341.72
396.62	386.19
396.81	468.11
397.00	484.49
397.19	589.82
397.39	758.33
397.58	734.93
397.77	734.93
397.97	805.14
398.16	723.23
398.35	812.17
398.55	849.61
398.74	840.25
398.93	812.17
399.12	774.72
399.32	753.65
399.51	830.89
399.70	856.64
399.90	842.59
400.09	884.72
400.28	889.40
400.47	770.04
400.67	882.38
400.86	936.21
401.05	896.43
401.24	901.11
401.44	940.90
401.63	856.64
401.82	919.83
402.01	919.83
402.21	1027.50
402.40	990.05
402.59	950.26
402.78	919.83
402.97	884.72
403.17	880.04
403.36	931.53
403.55	950.26
403.74	1015.79
403.93	1015.79
404.13	1001.75
404.32	947.92
404.51	919.83
404.70	940.90
404.89	1001.75
405.09	933.87
405.28	940.90
405.47	985.37
405.66	957.28
405.85	875.36
406.05	889.40
406.24	919.83
406.43	875.36
406.62	936.21
406.81	1029.84
407.00	1006.43
407.20	910.47
407.39	929.19
407.58	971.32
407.77	1008.77
407.96	1008.77
408.15	1036.86
408.34	1046.22
408.54	1041.54
408.73	1095.37
408.92	1121.12
409.11	997.07
409.30	987.71
409.49	954.94
409.68	910.47
409.87	922.17
410.07	903.45
410.26	980.68
410.45	964.30
410.64	987.71
410.83	1039.20
411.02	1055.58
411.21	1097.71
411.40	1139.84
411.59	1057.92
411.78	1074.31
411.98	1025.15
412.17	1107.07
412.36	1095.37
412.55	1086.01
412.74	1121.12
412.93	1053.24
413.12	1149.20
413.31	1165.59
413.50	1224.10
413.69	1097.71
413.88	1137.50
414.07	1149.20
414.26	1186.65
414.45	1160.91
414.64	1167.93
414.83	1167.93
415.02	1125.80
415.22	1200.69
415.41	1186.65
415.60	1254.53
415.79	1196.01
415.98	1291.98
416.17	1299.00
416.36	1263.89
416.55	1167.93
416.74	1224.10
416.93	1153.88
417.12	1104.73
417.31	1093.03
417.50	1256.87
417.69	1303.68
417.88	1210.06
418.07	1233.46
418.26	1163.25
418.45	1280.27
418.64	1273.25
418.83	1294.32
419.02	1198.35
419.21	1247.51
419.39	1191.33
419.58	1184.31
419.77	1107.07
419.96	1221.76
420.15	1256.87
420.34	1341.13
420.53	1373.89
420.72	1409.00
420.91	1394.96
421.10	1308.36
421.29	1242.82
421.48	1315.38
421.67	1277.93
421.86	1289.64
422.05	1226.44
422.24	1064.94
422.43	1193.67
422.61	1198.35
422.80	1366.87
422.99	1373.89
423.18	1247.51
423.37	1242.82
423.56	1188.99
423.75	1252.19
423.94	1205.38
424.13	1132.82
424.32	1303.68
424.50	1214.74
424.69	1142.18
424.88	1235.80
425.07	1177.29
425.26	1247.51
425.45	1151.54
425.64	1046.22
425.83	1149.20
426.01	1205.38
426.20	1301.34
426.39	1188.99
426.58	1167.93
426.77	1086.01
426.96	1081.33
427.15	1069.62
427.33	1146.86
427.52	1249.85
427.71	1184.31
427.90	1193.67
428.09	1217.08
428.28	1188.99
428.46	1097.71
428.65	1060.26
428.84	1156.22
429.03	1268.57
429.22	1076.65
429.40	1013.45
429.59	910.47
429.78	964.30
429.97	910.47
430.16	912.81
430.34	959.62
430.53	821.53
430.72	919.83
430.91	959.62
431.10	1043.88
431.28	1284.95
431.47	1378.58
431.66	1434.75
431.85	1310.70
432.03	1301.34
432.22	1196.01
432.41	1146.86
432.60	1306.02
432.79	1352.83
432.97	1383.26
433.16	1280.27
433.35	1245.16
433.54	1188.99
433.72	1179.63
433.91	1151.54
434.10	1247.51
434.28	1352.83
434.47	1343.47
434.66	1357.51
434.85	1306.02
435.03	1385.60
435.22	1640.72
435.41	1926.26
435.59	1919.24
435.78	1696.89
435.97	1659.44
436.16	1556.46
436.34	1380.92
436.53	1460.49
436.72	1455.81
436.90	1448.79
437.09	1301.34
437.28	1437.09
437.46	1329.42
437.65	1411.34
437.84	1392.62
438.02	1221.76
438.21	1217.08
438.40	1146.86
438.58	1203.04
438.77	1380.92
438.96	1341.13
439.14	1406.66
439.33	1486.24
439.52	1516.67
439.70	1444.11
439.89	1392.62
440.08	1366.87
440.26	1474.54
440.45	1399.64
440.63	1535.39
440.82	1584.54
441.01	1582.20
441.19	1455.81
441.38	1488.58
441.57	1689.87
441.75	1586.88
441.94	1626.67
442.12	1600.93
442.31	1647.74
442.50	1624.33
442.68	1675.82
442.87	1455.81
443.05	1554.12
443.24	1605.61
443.43	1638.38
443.61	1717.95
443.80	1708.59
443.98	1516.67
444.17	1565.82
444.35	1722.63
444.54	1666.46
444.73	1678.16
444.91	1614.97
445.10	1565.82
445.28	1497.94
445.47	1530.71
445.65	1511.99
445.84	1565.82
446.02	1575.18
446.21	1589.22
446.39	1621.99
446.58	1528.37
446.77	1685.19
446.95	1565.82
447.14	1739.02
447.32	1666.46
447.51	1629.01
447.69	1668.80
447.88	1551.78
448.06	1685.19
448.25	1671.14
448.43	1715.61
448.62	1605.61
448.80	1692.21
448.99	1708.59
449.17	1631.35
449.36	1561.14
449.54	1750.72
449.73	1788.17
449.91	1827.96
450.10	1722.63
450.28	1893.49
450.46	1874.77
450.65	1827.96
450.83	1849.02
451.02	1806.89
451.20	1717.95
451.39	1753.06
451.57	1715.61
451.76	1778.81
451.94	1741.36
452.13	1687.53
452.31	1694.55
452.49	1652.42
452.68	1610.29
452.86	1586.88
453.05	1619.65
453.23	1654.76
453.42	1710.93
453.60	1827.96
453.78	1689.87
453.97	1600.93
454.15	1710.93
454.34	1708.59
454.52	1722.63
454.70	1788.17
454.89	1638.38
455.07	1666.46
455.26	1748.38
455.44	1785.83
455.62	1736.68
455.81	1734.34
455.99	1774.13
456.17	1781.15
456.36	1827.96
456.54	1802.21
456.73	1858.39
456.91	1823.28
457.09	1820.94
457.28	1832.64
457.46	1802.21
457.64	1823.28
457.83	1802.21
458.01	1703.91
458.19	1739.02
458.38	1734.34
458.56	1905.20
458.74	1792.85
458.93	1874.77
459.11	1834.98
459.29	1778.81
459.48	1739.02
459.66	1778.81
459.84	1813.92
460.03	1844.34
460.21	1781.15
460.39	1809.23
460.57	1898.17
460.76	1870.09
460.94	1898.17
461.12	1872.43
461.31	1905.20
461.49	1795.19
461.67	1743.70
461.85	1853.70
462.04	1870.09
462.22	2038.61
462.40	1937.96
462.59	1921.58
462.77	1928.60
462.95	1874.77
463.13	1923.92
463.32	1879.45
463.50	1832.64
463.68	1844.34
463.86	1781.15
464.05	2001.16
464.23	1846.68
464.41	1849.02
464.59	1720.29
464.78	1834.98
464.96	1834.98
465.14	1710.93
465.32	1760.08
465.50	1851.36
465.69	1844.34
465.87	1865.41
466.05	1907.54
466.23	1657.10
466.41	1769.44
466.60	1708.59
466.78	1657.10
466.96	1818.60
467.14	1746.04
467.32	1813.92
467.51	1898.17
467.69	1713.27
467.87	1757.74
468.05	1844.34
468.23	1867.75
468.41	1776.47
468.60	1933.28
468.78	1867.75
468.96	1799.87
469.14	1834.98
469.32	1720.29
469.50	1678.16
469.69	1834.98
469.87	1792.85
470.05	1785.83
470.23	1865.41
470.41	1694.55
470.59	1795.19
470.77	1844.34
470.95	1834.98
471.14	1877.11
471.32	1858.39
471.50	1977.75
471.68	1956.69
471.86	2069.03
472.04	1888.81
472.22	2008.18
472.40	1937.96
472.58	1825.62
472.77	1853.70
472.95	1893.49
473.13	2054.99
473.31	1996.48
473.49	1804.55
473.67	1881.79
473.85	1937.96
474.03	2050.31
474.21	1907.54
474.39	1975.41
474.57	2069.03
474.75	2015.20
474.93	1942.64
475.12	1860.73
475.30	1933.28
475.48	1937.96
475.66	1975.41
475.84	2010.52
476.02	1980.09
476.20	1865.41
476.38	1870.09
476.56	2015.20
476.74	1991.80
476.92	2073.71
477.10	2153.29
477.28	2071.37
477.46	2050.31
477.64	2132.23
477.82	2258.62
478.00	2202.44
478.18	2169.68
478.36	2090.10
478.54	2076.06
478.72	2050.31
478.90	2146.27
479.08	2221.17
479.26	2172.02
479.44	2244.57
479.62	2232.87
479.80	2200.10
479.98	2345.22
480.16	2298.41
480.34	2319.47
480.52	2314.79
480.70	2263.30
480.88	2190.74
481.06	2239.89
481.24	2310.11
481.41	2359.26
481.59	2495.01
481.77	2406.07
481.95	2448.20
482.13	2406.07
482.31	2537.14
482.49	2476.29
482.67	2375.64
482.85	2410.75
483.03	2509.05
483.21	2546.50
483.39	2511.39
483.57	2487.99
483.74	2495.01
483.92	2452.88
484.10	2427.14
484.28	2605.02
484.46	2600.34
484.64	2520.76
484.82	2544.16
485.00	2583.95
485.18	2464.58
485.35	2340.54
485.53	2225.85
485.71	2214.15
485.89	1935.62
486.07	2094.78
486.25	2300.75
486.43	2485.65
486.61	2406.07
486.78	2434.16
486.96	2511.39
487.14	2572.25
487.32	2686.94
487.50	2717.36
487.68	2822.69
487.85	2719.70
488.03	2719.70
488.21	2794.60
488.39	2686.94
488.57	2628.42
488.75	2717.36
488.92	3035.67
489.10	2675.23
489.28	2867.16
489.46	2984.18
489.64	2939.71
489.81	2939.71
489.99	2925.67
490.17	3150.36
490.35	2956.10
490.53	3089.51
490.70	2984.18
490.88	2988.86
491.06	3049.72
491.24	3021.63
491.41	2944.39
491.59	2965.46
491.77	2740.77
491.95	2843.75
492.13	2897.58
492.30	3009.93
492.48	2981.84
492.66	3138.66
492.84	3136.32
493.01	3173.77
493.19	3150.36
493.37	3096.53
493.54	3103.55
493.72	3094.19
493.90	3211.22
494.08	3309.52
494.25	3269.73
494.43	3255.69
494.61	3307.18
494.79	3335.26
494.96	3353.99
495.14	3414.84
495.32	3222.92
495.49	3096.53
495.67	3234.62
495.85	3304.84
496.02	3363.35
496.20	3281.43
496.38	3353.99
496.55	3323.56
496.73	3297.81
496.91	3361.01
497.09	3463.99
497.26	3503.78
497.44	3372.71
497.62	3452.29
497.79	3183.13
497.97	3180.79
498.14	3246.32
498.32	3197.17
498.50	3316.54
498.67	3377.39
498.85	3379.73
499.03	3506.12
499.20	3370.37
499.38	3517.83
499.56	3445.27
499.73	3440.59
499.91	3440.59
500.08	3239.30
500.26	3375.05
500.44	3286.11
500.61	3295.47
500.79	3330.58
500.97	3225.26
501.14	3276.75
501.32	3234.62
501.49	3159.72
501.67	3318.88
501.84	3344.63
502.02	3265.05
502.20	3424.20
502.37	3449.95
502.55	3377.39
502.72	3358.67
502.90	3471.01
503.07	3339.94
503.25	3344.63
503.43	3176.11
503.60	3075.46
503.78	3108.23
503.95	3019.29
504.13	3325.90
504.30	3222.92
504.48	3417.18
504.65	3452.29
504.83	3517.83
505.01	3466.33
505.18	3531.87
505.36	3442.93
505.53	3625.49
505.71	3634.85
505.88	3548.25
506.06	3611.45
506.23	3588.04
506.41	3548.25
506.58	3363.35
506.76	3515.48
506.93	3534.21
507.11	3524.85
507.28	3508.46
507.46	3454.63
507.63	3375.05
507.81	3243.98
507.98	3410.16
508.16	3566.98
508.33	3520.17
508.50	3679.32
508.68	3662.94
508.85	3737.84
509.03	3616.13
509.20	3653.58
509.38	3672.30
509.55	3468.67
509.73	3513.14
509.90	3681.66
510.08	3641.87
510.25	3566.98
510.42	3676.98
510.60	3616.13
510.77	3613.79
510.95	3627.83
511.12	3698.05
511.30	3698.05
511.47	3735.50
511.64	3845.50
511.82	3742.52
511.99	3590.38
512.17	3585.70
512.34	3599.74
512.51	3707.41
512.69	3611.45
512.86	3602.08
513.04	3747.20
513.21	3698.05
513.38	3597.40
513.56	3599.74
513.73	3487.40
513.90	3384.41
514.08	3604.42
514.25	3513.14
514.43	3581.02
514.60	3478.04
514.77	3637.19
514.95	3555.27
515.12	3557.61
515.29	3555.27
515.47	3620.81
515.64	3684.00
515.81	3693.37
515.99	3707.41
516.16	3536.55
516.33	3358.67
516.51	3068.44
516.68	2977.16
516.85	2920.99
517.03	2951.42
517.20	3087.17
517.37	3585.70
517.54	3698.05
517.72	3534.21
517.89	3468.67
518.06	2967.80
518.24	3124.62
518.41	3323.56
518.58	3543.57
518.75	3428.88
518.93	3456.97
519.10	3524.85
519.27	3627.83
519.45	3676.98
519.62	3740.18
519.79	3691.02
519.96	3644.21
520.14	3641.87
520.31	3602.08
520.48	3602.08
520.65	3733.15
520.83	3749.54
521.00	3803.37
521.17	3777.62
521.34	3714.43
521.52	3698.05
521.69	3728.47
521.86	3777.62
522.03	3831.46
522.20	3700.39
522.38	3618.47
522.55	3538.89
522.72	3552.93
522.89	3637.19
523.07	3695.71
523.24	3555.27
523.41	3716.77
523.58	3840.82
523.75	3775.28
523.92	3955.51
524.10	3918.06
524.27	3922.74
524.44	3812.73
524.61	3859.54
524.78	3824.44
524.96	3786.99
525.13	3791.67
525.30	3871.25
525.47	3920.40
525.64	3880.61
525.81	3911.04
525.98	3667.62
526.16	3382.07
526.33	3370.37
526.50	3372.71
526.67	3286.11
526.84	3262.71
527.01	3506.12
527.18	3440.59
527.36	3536.55
527.53	3684.00
527.70	3939.12
527.87	3702.73
528.04	3630.17
528.21	3660.60
528.38	3950.82
528.55	4002.32
528.72	3978.91
528.89	3985.93
529.07	3995.29
529.24	4035.08
529.41	3871.25
529.58	3726.13
529.75	3702.73
529.92	3899.33
530.09	3824.44
530.26	3911.04
530.43	3889.97
530.60	3999.98
530.77	3999.98
530.94	4067.85
531.11	3948.48
531.28	3871.25
531.46	3882.95
531.63	3826.78
531.80	3751.88
531.97	3791.67
532.14	3754.22
532.31	3597.40
532.48	3611.45
532.65	3632.51
532.82	3571.66
532.99	3754.22
533.16	3751.88
533.33	3943.80
533.50	3880.61
533.67	3831.46
533.84	3770.60
534.01	3852.52
534.18	3737.84
534.35	3836.14
534.52	3784.65
534.69	4065.51
534.86	3918.06
535.03	3943.80
535.20	3990.61
535.37	4053.81
535.54	4124.02
535.71	4051.47
535.88	3943.80
536.05	3798.69
536.22	3850.18
536.38	3779.97
536.55	3716.77
536.72	3667.62
536.89	3541.23
537.06	3829.12
537.23	3815.07
537.40	3962.53
537.57	3861.88
537.74	3826.78
537.91	3873.59
538.08	3908.69
538.25	3857.20
538.42	3981.25
538.59	3882.95
538.75	3932.10
538.92	3836.14
539.09	3808.05
539.26	3908.69
539.43	3810.39
539.60	3742.52
539.77	3831.46
539.94	3908.69
540.11	3620.81
540.28	3693.37
540.44	3737.84
540.61	3719.11
540.78	3817.41
540.95	3948.48
541.12	4117.00
541.29	4077.21
541.46	4109.98
541.62	4093.60
541.79	4362.76
541.96	4121.68
542.13	4105.30
542.30	4138.07
542.47	4152.11
542.63	4030.40
542.80	3997.64
542.97	4105.30
543.14	3918.06
543.31	3985.93
543.48	4077.21
543.64	4180.20
543.81	4245.73
543.98	4208.28
544.15	4234.03
544.32	4067.85
544.48	4039.76
544.65	4081.89
544.82	4149.77
544.99	4168.49
545.16	4117.00
545.32	4112.32
545.49	4468.08
545.66	4842.57
545.83	4952.57
546.00	4678.73
546.16	4526.60
546.33	4255.09
546.50	4114.66
546.67	3997.64
546.83	4028.06
547.00	3997.64
547.17	3911.04
547.34	3728.47
547.50	3723.79
547.67	3831.46
547.84	3763.58
548.00	3932.10
548.17	3901.67
548.34	3904.01
548.51	3875.93
548.67	3995.29
548.84	3817.41
549.01	3894.65
549.18	3756.56
549.34	3794.01
549.51	3922.74
549.68	3808.05
549.84	3728.47
550.01	3838.48
550.18	3784.65
550.34	3969.55
550.51	3794.01
550.68	3850.18
550.84	3794.01
551.01	3749.54
551.18	3719.11
551.34	3676.98
551.51	3824.44
551.68	3796.35
551.84	3772.94
552.01	3882.95
552.18	3775.28
552.34	3730.81
552.51	3756.56
552.68	3602.08
552.84	3691.02
553.01	3784.65
553.18	3777.62
553.34	3758.90
553.51	3695.71
553.67	3695.71
553.84	3850.18
554.01	3833.80
554.17	3733.15
554.34	3719.11
554.51	3803.37
554.67	3786.99
554.84	3815.07
555.00	3829.12
555.17	3791.67
555.33	3763.58
555.50	3623.15
555.67	3733.15
555.83	3606.77
556.00	3562.30
556.16	3782.31
556.33	3578.68
556.50	3618.47
556.66	3620.81
556.83	3574.00
556.99	3566.98
557.16	3609.11
557.32	3623.15
557.49	3641.87
557.65	3613.79
557.82	3695.71
557.98	3599.74
558.15	3566.98
558.32	3417.18
558.48	3370.37
558.65	3335.26
558.81	3332.92
558.98	3393.78
559.14	3454.63
559.31	3368.03
559.47	3531.87
559.64	3492.08
559.80	3426.54
559.97	3506.12
560.13	3365.69
560.30	3503.78
560.46	3571.66
560.63	3548.25
560.79	3578.68
560.96	3679.32
561.12	3372.71
561.29	3393.78
561.45	3534.21
561.61	3407.82
561.78	3410.16
561.94	3501.44
562.11	3433.57
562.27	3496.76
562.44	3435.91
562.60	3543.57
562.77	3339.94
562.93	3550.59
563.10	3517.83
563.26	3398.46
563.42	3569.32
563.59	3419.52
563.75	3440.59
563.92	3276.75
564.08	3332.92
564.24	3475.70
564.41	3630.17
564.57	3463.99
564.74	3325.90
564.90	3541.23
565.07	3442.93
565.23	3405.48
565.39	3293.13
565.56	3346.97
565.72	3335.26
565.88	3391.44
566.05	3148.02
566.21	3286.11
566.38	3361.01
566.54	3419.52
566.70	3304.84
566.87	3419.52
567.03	3342.28
567.19	3286.11
567.36	3368.03
567.52	3365.69
567.68	3332.92
567.85	3234.62
568.01	3211.22
568.17	3014.61
568.34	3164.40
568.50	3112.91
568.66	2984.18
568.83	3117.59
568.99	3129.30
569.15	3159.72
569.32	3166.74
569.48	3117.59
569.64	3112.91
569.81	3054.40
569.97	3075.46
570.13	3199.51
570.30	3178.45
570.46	3087.17
570.62	3061.42
570.78	2979.50
570.95	2993.55
571.11	3080.14
571.27	3066.10
571.43	3155.04
571.60	3038.02
571.76	3117.59
571.92	3183.13
572.09	3234.62
572.25	3283.77
572.41	3180.79
572.57	3152.70
572.74	3129.30
572.90	3063.76
573.06	3229.94
573.22	3117.59
573.38	3190.15
573.55	3194.83
573.71	3122.27
573.87	3133.98
574.03	3108.23
574.20	3019.29
574.36	3063.76
574.52	3075.46
574.68	2970.14
574.84	3047.38
575.01	3038.02
575.17	2958.44
575.33	3059.08
575.49	3143.34
575.65	3035.67
575.82	3073.12
575.98	3082.49
576.14	2951.42
576.30	3080.14
576.46	3206.53
576.62	3187.81
576.79	3211.22
576.95	3234.62
577.11	3016.95
577.27	3080.14
577.43	3009.93
577.59	3220.58
577.75	2902.26
577.92	2911.63
578.08	2958.44
578.24	2942.05
578.40	2988.86
578.56	3082.49
578.72	3159.72
578.88	3339.94
579.04	3171.43
579.21	3066.10
579.37	3129.30
579.53	3112.91
579.69	3087.17
579.85	3145.68
580.01	3187.81
580.17	3183.13
580.33	3028.65
580.49	3112.91
580.65	3117.59
580.82	3087.17
580.98	3131.64
581.14	3082.49
581.30	3145.68
581.46	3070.78
581.62	3220.58
581.78	3021.63
581.94	3176.11
582.10	3096.53
582.26	3084.83
582.42	3241.64
582.58	3105.89
582.74	3232.28
582.90	3103.55
583.06	3208.87
583.22	3115.25
583.38	3077.80
583.54	3105.89
583.70	3213.56
583.86	3094.19
584.02	3070.78
584.18	3316.54
584.34	3180.79
584.50	2991.20
584.66	2963.12
584.82	2923.33
584.98	3026.31
585.14	2895.24
585.30	3023.97
585.46	2925.67
585.62	2918.65
585.78	2988.86
585.94	2909.29
586.10	2972.48
586.26	2993.55
586.42	3049.72
586.58	3023.97
586.74	2963.12
586.90	3145.68
587.06	2956.10
587.22	2949.08
587.38	2850.77
587.54	2843.75
587.70	2820.35
587.86	2619.06
588.02	2635.44
588.18	2595.65
588.34	2490.33
588.49	2417.77
588.65	2258.62
588.81	2223.51
588.97	2197.76
589.13	2193.08
589.29	2230.53
589.45	2195.42
589.61	2258.62
589.77	2310.11
589.93	2352.24
590.08	2525.44
590.24	2434.16
590.40	2497.35
590.56	2619.06
590.72	2445.86
590.88	2441.18
591.04	2530.12
591.20	2431.82
591.35	2469.27
591.51	2478.63
591.67	2457.56
591.83	2487.99
591.99	2490.33
592.15	2469.27
592.31	2471.61
592.46	2616.72
592.62	2597.99
592.78	2600.34
592.94	2703.32
593.10	2719.70
593.26	2668.21
593.41	2803.96
593.57	2764.17
593.73	2562.89
593.89	2385.01
594.05	2394.37
594.20	2361.60
594.36	2277.34
594.52	2253.94
594.68	2207.13
594.84	2253.94
594.99	2605.02
595.15	2588.63
595.31	2539.48
595.47	2595.65
595.62	2492.67
595.78	2424.80
595.94	2562.89
596.10	2658.85
596.25	2569.91
596.41	2541.82
596.57	2342.88
596.73	2558.21
596.88	2647.15
597.04	2703.32
597.20	2539.48
597.36	2450.54
597.51	2569.91
597.67	2572.25
597.83	2565.23
597.99	2581.61
598.14	2600.34
598.30	2567.57
598.46	2497.35
598.61	2651.83
