SpectraSuite Data File
++++++++++++++++++++++++++++++++++++
Date: Fri Oct 04 11:41:53 GMT-05:00 2013
User: price-jones
Dark Spectrum Present: No
Reference Spectrum Present: No
Number of Sampled Component Spectra: 1
Spectrometers: USB2+H05261
Integration Time (usec): 100000 (USB2+H05261)
Spectra Averaged: 1 (USB2+H05261)
Boxcar Smoothing: 0 (USB2+H05261)
Correct for Electrical Dark: No (USB2+H05261)
Strobe/Lamp Enabled: No (USB2+H05261)
Correct for Detector Non-linearity: No (USB2+H05261)
Correct for Stray Light: No (USB2+H05261)
Number of Pixels in Processed Spectrum: 2048
>>>>>Begin Processed Spectral Data<<<<<
365.73	0.00
365.92	0.00
366.12	0.00
366.32	0.00
366.52	0.00
366.72	7.02
366.91	0.00
367.11	0.00
367.31	0.00
367.51	0.00
367.70	0.00
367.90	0.00
368.10	0.00
368.30	0.00
368.49	0.00
368.69	0.00
368.89	0.00
369.09	0.00
369.28	0.00
369.48	0.00
369.68	0.00
369.87	32.77
370.07	9.36
370.27	21.06
370.47	2.34
370.66	28.09
370.86	58.51
371.06	93.62
371.25	121.71
371.45	0.00
371.65	88.94
371.84	117.03
372.04	21.06
372.24	93.62
372.44	117.03
372.63	91.28
372.83	138.09
373.03	159.16
373.22	42.13
373.42	79.58
373.62	149.79
373.81	102.98
374.01	182.56
374.21	159.16
374.40	102.98
374.60	133.41
374.79	124.05
374.99	117.03
375.19	124.05
375.38	119.37
375.58	187.24
375.78	215.33
375.97	72.56
376.17	205.97
376.37	152.13
376.56	138.09
376.76	124.05
376.95	124.05
377.15	135.75
377.35	259.80
377.54	145.11
377.74	100.64
377.93	117.03
378.13	138.09
378.33	175.54
378.52	98.30
378.72	163.84
378.91	154.48
379.11	110.01
379.31	126.39
379.50	133.41
379.70	163.84
379.89	126.39
380.09	208.31
380.28	107.66
380.48	161.50
380.68	140.43
380.87	42.13
381.07	138.09
381.26	140.43
381.46	215.33
381.65	126.39
381.85	121.71
382.04	161.50
382.24	98.30
382.43	138.09
382.63	88.94
382.83	140.43
383.02	196.60
383.22	135.75
383.41	149.79
383.61	140.43
383.80	121.71
384.00	138.09
384.19	126.39
384.39	58.51
384.58	147.45
384.78	126.39
384.97	74.90
385.17	72.56
385.36	88.94
385.56	105.32
385.75	77.24
385.95	177.88
386.14	126.39
386.34	95.96
386.53	51.49
386.72	102.98
386.92	189.58
387.11	142.77
387.31	77.24
387.50	86.60
387.70	35.11
387.89	135.75
388.09	110.01
388.28	147.45
388.48	163.84
388.67	140.43
388.86	124.05
389.06	147.45
389.25	175.54
389.45	102.98
389.64	142.77
389.84	224.69
390.03	126.39
390.22	100.64
390.42	177.88
390.61	51.49
390.81	74.90
391.00	110.01
391.19	126.39
391.39	128.73
391.58	140.43
391.78	135.75
391.97	79.58
392.16	135.75
392.36	170.86
392.55	187.24
392.75	100.64
392.94	86.60
393.13	145.11
393.33	100.64
393.52	100.64
393.71	110.01
393.91	100.64
394.10	93.62
394.29	84.26
394.49	133.41
394.68	126.39
394.88	135.75
395.07	177.88
395.26	175.54
395.46	149.79
395.65	140.43
395.84	86.60
396.04	173.20
396.23	149.79
396.42	124.05
396.62	107.66
396.81	107.66
397.00	152.13
397.19	180.22
397.39	166.18
397.58	182.56
397.77	173.20
397.97	51.49
398.16	121.71
398.35	212.99
398.55	121.71
398.74	128.73
398.93	117.03
399.12	145.11
399.32	156.82
399.51	72.56
399.70	128.73
399.90	217.67
400.09	173.20
400.28	154.48
400.47	187.24
400.67	170.86
400.86	194.26
401.05	203.63
401.24	138.09
401.44	203.63
401.63	121.71
401.82	229.37
402.01	189.58
402.21	131.07
402.40	194.26
402.59	163.84
402.78	154.48
402.97	189.58
403.17	177.88
403.36	271.50
403.55	245.76
403.74	676.41
403.93	2139.25
404.13	5345.78
404.32	8870.63
404.51	8615.51
404.70	5565.79
404.89	1923.92
405.09	582.79
405.28	353.42
405.47	315.97
405.66	276.18
405.85	222.35
406.05	259.80
406.24	208.31
406.43	194.26
406.62	264.48
406.81	292.57
407.00	365.12
407.20	657.69
407.39	1137.50
407.58	1299.00
407.77	1069.62
407.96	603.86
408.15	280.86
408.34	271.50
408.54	166.18
408.73	145.11
408.92	112.35
409.11	262.14
409.30	217.67
409.49	163.84
409.68	243.42
409.87	245.76
410.07	196.60
410.26	201.29
410.45	264.48
410.64	248.10
410.83	124.05
411.02	203.63
411.21	187.24
411.40	238.73
411.59	191.92
411.78	187.24
411.98	212.99
412.17	276.18
412.36	299.59
412.55	187.24
412.74	304.27
412.93	205.97
413.12	215.33
413.31	269.16
413.50	269.16
413.69	264.48
413.88	280.86
414.07	234.05
414.26	266.82
414.45	278.52
414.64	299.59
414.83	362.78
415.02	264.48
415.22	280.86
415.41	229.37
415.60	313.63
415.79	262.14
415.98	255.12
416.17	252.78
416.36	271.50
416.55	252.78
416.74	322.99
416.93	346.40
417.12	325.33
417.31	278.52
417.50	236.39
417.69	304.27
417.88	290.23
418.07	266.82
418.26	269.16
418.45	255.12
418.64	306.61
418.83	280.86
419.02	294.91
419.21	264.48
419.39	273.84
419.58	241.08
419.77	285.55
419.96	269.16
420.15	269.16
420.34	294.91
420.53	334.70
420.72	273.84
420.91	362.78
421.10	285.55
421.29	299.59
421.48	330.02
421.67	376.83
421.86	367.46
422.05	299.59
422.24	351.08
422.43	269.16
422.61	243.42
422.80	320.65
422.99	327.68
423.18	318.31
423.37	271.50
423.56	318.31
423.75	397.89
423.94	327.68
424.13	255.12
424.32	325.33
424.50	353.42
424.69	320.65
424.88	325.33
425.07	376.83
425.26	409.59
425.45	369.80
425.64	372.15
425.83	339.38
426.01	407.25
426.20	376.83
426.39	416.62
426.58	400.23
426.77	341.72
426.96	423.64
427.15	358.10
427.33	327.68
427.52	318.31
427.71	355.76
427.90	369.80
428.09	454.06
428.28	395.55
428.46	402.57
428.65	440.02
428.84	386.19
429.03	489.17
429.22	418.96
429.40	362.78
429.59	430.66
429.78	470.45
429.97	440.02
430.16	493.85
430.34	477.47
430.53	400.23
430.72	449.38
430.91	463.43
431.10	437.68
431.28	463.43
431.47	404.91
431.66	521.94
431.85	447.04
432.03	496.19
432.22	500.87
432.41	486.83
432.60	482.15
432.79	535.98
432.97	627.26
433.16	585.13
433.35	578.11
433.54	702.16
433.72	854.30
433.91	725.57
434.10	849.61
434.28	976.00
434.47	1210.06
434.66	1334.11
434.85	1474.54
435.03	3716.77
435.22	13453.40
435.41	33647.54
435.59	44762.75
435.78	31641.70
435.97	14747.72
436.16	5502.60
436.34	1853.70
436.53	1151.54
436.72	896.43
436.90	777.06
437.09	732.59
437.28	589.82
437.46	566.41
437.65	620.24
437.84	599.18
438.02	552.37
438.21	559.39
438.40	610.88
438.58	540.66
438.77	540.66
438.96	568.75
439.14	550.03
439.33	564.07
439.52	596.84
439.70	564.07
439.89	596.84
440.08	512.58
440.26	468.11
440.45	561.73
440.63	587.47
440.82	531.30
441.01	477.47
441.19	566.41
441.38	519.60
441.57	500.87
441.75	533.64
441.94	582.79
442.12	566.41
442.31	510.24
442.50	550.03
442.68	533.64
442.87	486.83
443.05	571.09
443.24	559.39
443.43	589.82
443.61	615.56
443.80	505.56
443.98	564.07
444.17	505.56
444.35	524.28
444.54	533.64
444.73	582.79
444.91	662.37
445.10	482.15
445.28	510.24
445.47	533.64
445.65	603.86
445.84	526.62
446.02	538.32
446.21	533.64
446.39	571.09
446.58	585.13
446.77	491.51
446.95	543.00
447.14	580.45
447.32	505.56
447.51	528.96
447.69	533.64
447.88	552.37
448.06	594.50
448.25	575.77
448.43	496.19
448.62	477.47
448.80	587.47
448.99	603.86
449.17	482.15
449.36	550.03
449.54	561.73
449.73	645.99
449.91	564.07
450.10	505.56
450.28	545.34
450.46	545.34
450.65	524.28
450.83	575.77
451.02	554.71
451.20	444.70
451.39	521.94
451.57	578.11
451.76	500.87
451.94	517.26
452.13	596.84
452.31	535.98
452.49	463.43
452.68	599.18
452.86	662.37
453.05	547.69
453.23	610.88
453.42	550.03
453.60	514.92
453.78	435.34
453.97	568.75
454.15	554.71
454.34	531.30
454.52	496.19
454.70	580.45
454.89	575.77
455.07	470.45
455.26	519.60
455.44	500.87
455.62	543.00
455.81	524.28
455.99	561.73
456.17	568.75
456.36	433.00
456.54	540.66
456.73	547.69
456.91	538.32
457.09	479.81
457.28	507.90
457.46	521.94
457.64	489.17
457.83	533.64
458.01	507.90
458.19	528.96
458.38	566.41
458.56	538.32
458.74	512.58
458.93	465.77
459.11	503.22
459.29	528.96
459.48	479.81
459.66	500.87
459.84	568.75
460.03	585.13
460.21	613.22
460.39	512.58
460.57	535.98
460.76	575.77
460.94	554.71
461.12	571.09
461.31	608.54
461.49	524.28
461.67	498.53
461.85	531.30
462.04	418.96
462.22	990.05
462.40	505.56
462.59	636.63
462.77	493.85
462.95	521.94
463.13	416.62
463.32	557.05
463.50	514.92
463.68	484.49
463.86	575.77
464.05	500.87
464.23	566.41
464.41	564.07
464.59	566.41
464.78	543.00
464.96	521.94
465.14	442.36
465.32	472.79
465.50	517.26
465.69	491.51
465.87	517.26
466.05	510.24
466.23	451.72
466.41	465.77
466.60	592.16
466.78	575.77
466.96	571.09
467.14	545.34
467.32	587.47
467.51	470.45
467.69	531.30
467.87	601.52
468.05	470.45
468.23	535.98
468.41	477.47
468.60	482.15
468.78	435.34
468.96	545.34
469.14	468.11
469.32	484.49
469.50	388.53
469.69	484.49
469.87	444.70
470.05	512.58
470.23	472.79
470.41	479.81
470.59	456.40
470.77	475.13
470.95	456.40
471.14	505.56
471.32	505.56
471.50	514.92
471.68	482.15
471.86	552.37
472.04	449.38
472.22	580.45
472.40	425.98
472.58	543.00
472.77	498.53
472.95	458.74
473.13	601.52
473.31	531.30
473.49	470.45
473.67	482.15
473.85	479.81
474.03	500.87
474.21	491.51
474.39	454.06
474.57	594.50
474.75	456.40
474.93	465.77
475.12	423.64
475.30	475.13
475.48	489.17
475.66	496.19
475.84	500.87
476.02	484.49
476.20	463.43
476.38	503.22
476.56	519.60
476.74	535.98
476.92	449.38
477.10	463.43
477.28	552.37
477.46	538.32
477.64	550.03
477.82	547.69
478.00	514.92
478.18	552.37
478.36	510.24
478.54	571.09
478.72	500.87
478.90	500.87
479.08	692.80
479.26	629.60
479.44	627.26
479.62	645.99
479.80	657.69
479.98	716.20
480.16	713.86
480.34	751.31
480.52	748.97
480.70	809.83
480.88	819.19
481.06	875.36
481.24	870.68
481.41	877.70
481.59	973.66
481.77	1104.73
481.95	1076.65
482.13	1053.24
482.31	1231.12
482.49	1345.81
482.67	1373.89
482.85	1593.90
483.03	1605.61
483.21	1785.83
483.39	1888.81
483.57	1827.96
483.74	2054.99
483.92	2239.89
484.10	2335.85
484.28	2438.84
484.46	2588.63
484.64	2672.89
484.82	2799.28
485.00	3009.93
485.18	3234.62
485.35	3351.65
485.53	3421.86
485.71	3531.87
485.89	3838.48
486.07	3808.05
486.25	4084.23
486.43	3859.54
486.61	4021.04
486.78	3904.01
486.96	4007.00
487.14	4035.08
487.32	3906.35
487.50	3913.38
487.68	3899.33
487.85	3805.71
488.03	3920.40
488.21	3754.22
488.39	3513.14
488.57	3634.85
488.75	3487.40
488.92	3602.08
489.10	3405.48
489.28	3311.86
489.46	3150.36
489.64	3199.51
489.81	3045.04
489.99	2953.76
490.17	2986.52
490.35	2977.16
490.53	2923.33
490.70	2946.73
490.88	3007.59
491.06	3129.30
491.24	3251.00
491.41	3368.03
491.59	3229.94
491.77	2935.03
491.95	2857.79
492.13	2708.00
492.30	2773.53
492.48	2579.27
492.66	2712.68
492.84	2677.57
493.01	2635.44
493.19	2569.91
493.37	2555.86
493.54	2459.90
493.72	2483.31
493.90	2277.34
494.08	2338.20
494.25	2347.56
494.43	2324.15
494.61	2200.10
494.79	2272.66
494.96	2172.02
495.14	2090.10
495.32	2125.21
495.49	2038.61
495.67	2050.31
495.85	2127.55
496.02	2073.71
496.20	2012.86
496.38	1902.86
496.55	1923.92
496.73	1961.37
496.91	1863.07
497.09	1790.51
497.26	1830.30
497.44	1762.42
497.62	1664.12
497.79	1783.49
497.97	1657.10
498.14	1675.82
498.32	1575.18
498.50	1469.86
498.67	1523.69
498.85	1451.13
499.03	1413.68
499.20	1448.79
499.38	1369.21
499.56	1378.58
499.73	1256.87
499.91	1327.08
500.08	1221.76
500.26	1280.27
500.44	1123.46
500.61	1088.35
500.79	1109.41
500.97	1032.18
501.14	1008.77
501.32	976.00
501.49	1060.26
501.67	866.00
501.84	961.96
502.02	976.00
502.20	922.17
502.37	908.13
502.55	861.32
502.72	844.93
502.90	917.49
503.07	844.93
503.25	800.46
503.43	725.57
503.60	737.27
503.78	697.48
503.95	657.69
504.13	645.99
504.30	622.58
504.48	683.44
504.65	842.59
504.83	692.80
505.01	662.37
505.18	580.45
505.36	648.33
505.53	550.03
505.71	643.65
505.88	613.22
506.06	589.82
506.23	578.11
506.41	496.19
506.58	601.52
506.76	594.50
506.93	496.19
507.11	662.37
507.28	519.60
507.46	482.15
507.63	510.24
507.81	533.64
507.98	519.60
508.16	566.41
508.33	617.90
508.50	489.17
508.68	674.07
508.85	557.05
509.03	634.29
509.20	552.37
509.38	587.47
509.55	559.39
509.73	528.96
509.90	589.82
510.08	477.47
510.25	493.85
510.42	423.64
510.60	486.83
510.77	533.64
510.95	433.00
511.12	449.38
511.30	519.60
511.47	503.22
511.64	533.64
511.82	472.79
511.99	442.36
512.17	505.56
512.34	484.49
512.51	463.43
512.69	461.09
512.86	482.15
513.04	500.87
513.21	447.04
513.38	517.26
513.56	458.74
513.73	437.68
513.90	437.68
514.08	477.47
514.25	500.87
514.43	510.24
514.60	517.26
514.77	358.10
514.95	418.96
515.12	423.64
515.29	491.51
515.47	435.34
515.64	353.42
515.81	433.00
515.99	482.15
516.16	451.72
516.33	486.83
516.51	454.06
516.68	461.09
516.85	437.68
517.03	463.43
517.20	344.06
517.37	451.72
517.54	496.19
517.72	458.74
517.89	355.76
518.06	327.68
518.24	404.91
518.41	437.68
518.58	433.00
518.75	433.00
518.93	435.34
519.10	454.06
519.27	440.02
519.45	376.83
519.62	381.51
519.79	339.38
519.96	407.25
520.14	440.02
520.31	404.91
520.48	381.51
520.65	440.02
520.83	496.19
521.00	414.27
521.17	318.31
521.34	421.30
521.52	400.23
521.69	369.80
521.86	388.53
522.03	428.32
522.20	510.24
522.38	393.21
522.55	379.17
522.72	353.42
522.89	390.87
523.07	421.30
523.24	383.85
523.41	407.25
523.58	351.08
523.75	477.47
523.92	465.77
524.10	397.89
524.27	390.87
524.44	400.23
524.61	397.89
524.78	500.87
524.96	435.34
525.13	369.80
525.30	512.58
525.47	561.73
525.64	535.98
525.81	465.77
525.98	449.38
526.16	468.11
526.33	362.78
526.50	402.57
526.67	322.99
526.84	430.66
527.01	496.19
527.18	543.00
527.36	552.37
527.53	517.26
527.70	514.92
527.87	543.00
528.04	538.32
528.21	500.87
528.38	554.71
528.55	528.96
528.72	454.06
528.89	629.60
529.07	566.41
529.24	486.83
529.41	510.24
529.58	571.09
529.75	543.00
529.92	599.18
530.09	526.62
530.26	533.64
530.43	573.43
530.60	580.45
530.77	660.03
530.94	662.37
531.11	631.94
531.28	641.31
531.46	683.44
531.63	690.46
531.80	779.40
531.97	798.12
532.14	931.53
532.31	1004.09
532.48	1231.12
532.65	1500.28
532.82	1675.82
532.99	2015.20
533.16	2296.07
533.33	2469.27
533.50	2260.96
533.67	1905.20
533.84	1612.63
534.01	1458.15
534.18	1362.19
534.35	1423.05
534.52	1373.89
534.69	1399.64
534.86	1467.52
535.03	1533.05
535.20	1446.45
535.37	1727.32
535.54	1771.79
535.71	1930.94
535.88	1952.01
536.05	2108.82
536.22	2253.94
536.38	2431.82
536.55	2534.80
536.72	2909.29
536.89	3162.06
537.06	3581.02
537.23	4051.47
537.40	4409.57
537.57	4690.43
537.74	4954.91
537.91	5121.09
538.08	5254.50
538.25	5359.83
538.42	5280.25
538.59	5425.36
538.75	5687.50
538.92	6069.01
539.09	6466.90
539.26	7286.09
539.43	8262.09
539.60	9083.62
539.77	10359.21
539.94	11899.28
540.11	13048.49
540.28	14157.90
540.44	15925.00
540.61	17350.39
540.78	19887.53
540.95	23576.22
541.12	28217.50
541.29	32833.04
541.46	34162.46
541.62	34059.48
541.79	33141.99
541.96	30565.06
542.13	28613.05
542.30	26558.06
542.47	24545.20
542.63	23412.38
542.80	22422.33
542.97	22291.26
543.14	22553.40
543.31	22424.67
543.48	21848.90
543.64	22635.32
543.81	22616.60
543.98	22986.40
544.15	23098.75
544.32	23103.43
544.48	23314.08
544.65	23161.94
544.82	22569.79
544.99	22427.01
545.16	23396.00
545.32	24025.60
545.49	36039.57
545.66	57698.89
545.83	65535.00
546.00	65535.00
546.16	53432.09
546.33	40086.36
546.50	30087.59
546.67	24046.66
546.83	20748.85
547.00	19814.98
547.17	19133.88
547.34	18370.86
547.50	17626.57
547.67	16870.58
547.84	15782.23
548.00	15484.98
548.17	14953.68
548.34	14548.77
548.51	13846.61
548.67	13387.86
548.84	12493.78
549.01	11962.48
549.18	11316.49
549.34	10991.16
549.51	10782.85
549.68	10338.15
549.84	9905.15
550.01	9081.28
550.18	8945.53
550.34	8362.73
550.51	8156.77
550.68	7864.20
550.84	7218.21
551.01	6956.07
551.18	6492.65
551.34	6160.29
551.51	6047.94
551.68	5600.90
551.84	5547.07
552.01	5425.36
552.18	4954.91
552.34	4983.00
552.51	4685.75
552.68	4489.15
552.84	4215.30
553.01	4046.79
553.18	3981.25
553.34	3756.56
553.51	3840.82
553.67	3772.94
553.84	3597.40
554.01	3255.69
554.17	3063.76
554.34	2895.24
554.51	2708.00
554.67	2677.57
554.84	2525.44
555.00	2284.36
555.17	2176.70
555.33	2120.53
555.50	2076.06
555.67	1877.11
555.83	1905.20
556.00	1827.96
556.16	1853.70
556.33	1598.59
556.50	1600.93
556.66	1434.75
556.83	1467.52
556.99	1371.55
557.16	1416.02
557.32	1327.08
557.49	1299.00
557.65	1350.49
557.82	1273.25
557.98	1203.04
558.15	1231.12
558.32	1142.18
558.48	1186.65
558.65	1125.80
558.81	1135.16
558.98	1081.33
559.14	952.60
559.31	1015.79
559.47	940.90
559.64	978.34
559.80	950.26
559.97	959.62
560.13	929.19
560.30	851.96
560.46	908.13
560.63	917.49
560.79	966.64
560.96	999.41
561.12	912.81
561.29	1008.77
561.45	910.47
561.61	809.83
561.78	1011.11
561.94	968.98
562.11	891.74
562.27	912.81
562.44	959.62
562.60	779.40
562.77	847.27
562.93	936.21
563.10	814.51
563.26	835.57
563.42	851.96
563.59	772.38
563.75	723.23
563.92	833.23
564.08	805.14
564.24	767.70
564.41	840.25
564.57	676.41
564.74	751.31
564.90	807.48
565.07	716.20
565.23	685.78
565.39	765.36
565.56	760.67
565.72	765.36
565.88	765.36
566.05	718.54
566.21	622.58
566.38	723.23
566.54	723.23
566.70	739.61
566.87	765.36
567.03	606.20
567.19	734.93
567.36	725.57
567.52	732.59
567.68	702.16
567.85	720.88
568.01	734.93
568.17	725.57
568.34	774.72
568.50	737.27
568.66	732.59
568.83	760.67
568.99	774.72
569.15	732.59
569.32	685.78
569.48	580.45
569.64	617.90
569.81	613.22
569.97	631.94
570.13	615.56
570.30	571.09
570.46	589.82
570.62	482.15
570.78	592.16
570.95	622.58
571.11	613.22
571.27	552.37
571.43	578.11
571.60	568.75
571.76	500.87
571.92	538.32
572.09	547.69
572.25	561.73
572.41	582.79
572.57	554.71
572.74	636.63
572.90	610.88
573.06	559.39
573.22	573.43
573.38	507.90
573.55	585.13
573.71	638.97
573.87	610.88
574.03	601.52
574.20	671.73
574.36	685.78
574.52	631.94
574.68	732.59
574.84	767.70
575.01	741.95
575.17	870.68
575.33	877.70
575.49	908.13
575.65	959.62
575.82	968.98
575.98	1172.61
576.14	1235.80
576.30	2204.78
576.46	7162.04
576.62	14005.77
576.79	18183.62
576.95	12695.07
577.11	7801.01
577.27	5444.09
577.43	3541.23
577.59	2359.26
577.75	1839.66
577.92	1694.55
578.08	1593.90
578.24	1685.19
578.40	2438.84
578.56	6396.68
578.72	12601.44
578.88	16556.95
579.04	12039.72
579.21	7487.37
579.37	5390.25
579.53	4386.16
579.69	3995.29
579.85	4884.70
580.01	5893.47
580.17	6001.13
580.33	5039.17
580.49	4273.82
580.65	3824.44
580.82	3344.63
580.98	3283.77
581.14	3361.01
581.30	3562.30
581.46	3791.67
581.62	4145.09
581.78	4297.22
581.94	4784.06
582.10	4873.00
582.26	5280.25
582.42	5301.31
582.58	5535.37
582.74	5675.80
582.90	5720.27
583.06	5710.91
583.22	5755.38
583.38	5654.73
583.54	5944.96
583.70	5743.67
583.86	5551.75
584.02	5423.02
584.18	5467.49
584.34	5533.03
584.50	5294.29
584.66	5153.86
584.82	5282.59
584.98	5111.73
585.14	5076.62
585.30	4863.63
585.46	4812.14
585.62	4599.15
585.78	4905.76
585.94	4830.87
586.10	4791.08
586.26	5247.48
586.42	5804.53
586.58	6815.64
586.74	8290.18
586.90	10265.59
587.06	11522.46
587.22	11447.56
587.38	10480.92
587.54	8606.15
587.70	7522.48
587.86	6160.29
588.02	5481.53
588.18	4812.14
588.34	4325.31
588.49	3911.04
588.65	3644.21
588.81	3375.05
588.97	3365.69
589.13	3232.28
589.29	3204.19
589.45	3103.55
589.61	3145.68
589.77	3176.11
589.93	3049.72
590.08	3253.34
590.24	3403.14
590.40	3468.67
590.56	3597.40
590.72	3700.39
590.88	3709.75
591.04	3819.75
591.20	4007.00
591.35	4168.49
591.51	4262.12
591.67	4547.66
591.83	4938.53
591.99	5139.82
592.15	5673.46
592.31	6279.66
592.46	6820.32
592.62	7470.99
592.78	7929.74
592.94	8074.85
593.10	8238.69
593.26	7770.58
593.41	7049.69
593.57	6368.60
593.73	5722.61
593.89	5011.09
594.05	4329.99
594.20	4128.70
594.36	3698.05
594.52	3421.86
594.68	3234.62
594.84	3152.70
594.99	3068.44
595.15	2988.86
595.31	2885.88
595.47	2892.90
595.62	2731.41
595.78	2736.09
595.94	2775.88
596.10	2890.56
596.25	2981.84
596.41	2871.84
596.57	2827.37
596.73	2813.32
596.88	2717.36
597.04	2822.69
597.20	2864.82
597.36	2923.33
597.51	3094.19
597.67	3059.08
597.83	3213.56
597.99	3407.82
598.14	3590.38
598.30	3950.82
598.46	4133.39
598.61	4367.44
598.77	4390.84
598.93	4512.55
599.09	4800.44
599.24	4971.30
599.40	4868.31
599.56	4622.56
599.71	4533.62
599.87	4339.35
600.03	4065.51
600.18	3831.46
600.34	3510.80
600.50	3321.22
600.65	3229.94
600.81	2937.37
600.97	2759.49
601.12	2679.91
601.28	2602.68
601.44	2314.79
601.59	2228.19
601.75	2099.46
601.91	2071.37
602.06	2221.17
602.22	1944.99
602.37	1846.68
602.53	1813.92
602.69	1994.14
602.84	1846.68
603.00	1872.43
603.16	1802.21
603.31	1832.64
603.47	2059.67
603.62	2001.16
603.78	2019.88
603.94	2059.67
604.09	2155.63
604.25	2097.12
604.40	2153.29
604.56	2216.49
604.71	2230.53
604.87	2307.77
