SpectraSuite Data File
++++++++++++++++++++++++++++++++++++
Date: Fri Oct 04 11:42:22 GMT-05:00 2013
User: price-jones
Dark Spectrum Present: No
Reference Spectrum Present: No
Number of Sampled Component Spectra: 1
Spectrometers: USB2+H05261
Integration Time (usec): 100000 (USB2+H05261)
Spectra Averaged: 1 (USB2+H05261)
Boxcar Smoothing: 0 (USB2+H05261)
Correct for Electrical Dark: No (USB2+H05261)
Strobe/Lamp Enabled: No (USB2+H05261)
Correct for Detector Non-linearity: No (USB2+H05261)
Correct for Stray Light: No (USB2+H05261)
Number of Pixels in Processed Spectrum: 2048
>>>>>Begin Processed Spectral Data<<<<<
365.73	7.02
365.92	7.02
366.12	7.02
366.32	0.00
366.52	0.00
366.72	9.36
366.91	0.00
367.11	0.00
367.31	0.00
367.51	9.36
367.70	0.00
367.90	0.00
368.10	0.00
368.30	0.00
368.49	0.00
368.69	0.00
368.89	0.00
369.09	0.00
369.28	0.00
369.48	0.00
369.68	2.34
369.87	0.00
370.07	0.00
370.27	32.77
370.47	0.00
370.66	70.22
370.86	23.41
371.06	56.17
371.25	149.79
371.45	46.81
371.65	102.98
371.84	91.28
372.04	107.66
372.24	81.92
372.44	159.16
372.63	74.90
372.83	175.54
373.03	180.22
373.22	39.79
373.42	112.35
373.62	14.04
373.81	14.04
374.01	126.39
374.21	110.01
374.40	128.73
374.60	187.24
374.79	74.90
374.99	135.75
375.19	131.07
375.38	117.03
375.58	112.35
375.78	124.05
375.97	133.41
376.17	163.84
376.37	100.64
376.56	91.28
376.76	51.49
376.95	126.39
377.15	133.41
377.35	95.96
377.54	100.64
377.74	105.32
377.93	81.92
378.13	170.86
378.33	114.69
378.52	86.60
378.72	133.41
378.91	133.41
379.11	128.73
379.31	124.05
379.50	128.73
379.70	126.39
379.89	131.07
380.09	166.18
380.28	44.47
380.48	107.66
380.68	102.98
380.87	114.69
381.07	126.39
381.26	126.39
381.46	161.50
381.65	133.41
381.85	119.37
382.04	100.64
382.24	121.71
382.43	91.28
382.63	142.77
382.83	72.56
383.02	149.79
383.22	117.03
383.41	91.28
383.61	114.69
383.80	117.03
384.00	49.15
384.19	91.28
384.39	46.81
384.58	98.30
384.78	152.13
384.97	39.79
385.17	77.24
385.36	126.39
385.56	112.35
385.75	119.37
385.95	84.26
386.14	124.05
386.34	110.01
386.53	147.45
386.72	23.41
386.92	182.56
387.11	124.05
387.31	180.22
387.50	114.69
387.70	25.75
387.89	60.85
388.09	58.51
388.28	105.32
388.48	126.39
388.67	182.56
388.86	114.69
389.06	173.20
389.25	128.73
389.45	170.86
389.64	98.30
389.84	196.60
390.03	98.30
390.22	140.43
390.42	119.37
390.61	37.45
390.81	28.09
391.00	35.11
391.19	95.96
391.39	131.07
391.58	117.03
391.78	140.43
391.97	152.13
392.16	119.37
392.36	110.01
392.55	138.09
392.75	135.75
392.94	107.66
393.13	140.43
393.33	154.48
393.52	72.56
393.71	140.43
393.91	128.73
394.10	67.88
394.29	9.36
394.49	91.28
394.68	107.66
394.88	145.11
395.07	105.32
395.26	182.56
395.46	107.66
395.65	156.82
395.84	154.48
396.04	131.07
396.23	114.69
396.42	86.60
396.62	128.73
396.81	124.05
397.00	161.50
397.19	110.01
397.39	77.24
397.58	107.66
397.77	182.56
397.97	168.52
398.16	121.71
398.35	135.75
398.55	46.81
398.74	93.62
398.93	100.64
399.12	91.28
399.32	67.88
399.51	182.56
399.70	128.73
399.90	58.51
400.09	81.92
400.28	95.96
400.47	77.24
400.67	149.79
400.86	170.86
401.05	182.56
401.24	126.39
401.44	138.09
401.63	107.66
401.82	217.67
402.01	25.75
402.21	77.24
402.40	121.71
402.59	98.30
402.78	124.05
402.97	126.39
403.17	145.11
403.36	105.32
403.55	91.28
403.74	175.54
403.93	189.58
404.13	304.27
404.32	245.76
404.51	231.71
404.70	266.82
404.89	117.03
405.09	170.86
405.28	86.60
405.47	107.66
405.66	42.13
405.85	177.88
406.05	91.28
406.24	49.15
406.43	98.30
406.62	121.71
406.81	191.92
407.00	159.16
407.20	177.88
407.39	198.95
407.58	138.09
407.77	149.79
407.96	154.48
408.15	133.41
408.34	147.45
408.54	98.30
408.73	119.37
408.92	91.28
409.11	126.39
409.30	175.54
409.49	117.03
409.68	91.28
409.87	46.81
410.07	201.29
410.26	175.54
410.45	56.17
410.64	56.17
410.83	93.62
411.02	156.82
411.21	138.09
411.40	184.90
411.59	124.05
411.78	175.54
411.98	114.69
412.17	74.90
412.36	35.11
412.55	161.50
412.74	91.28
412.93	138.09
413.12	95.96
413.31	163.84
413.50	166.18
413.69	145.11
413.88	156.82
414.07	168.52
414.26	112.35
414.45	194.26
414.64	77.24
414.83	156.82
415.02	81.92
415.22	187.24
415.41	93.62
415.60	88.94
415.79	112.35
415.98	201.29
416.17	133.41
416.36	145.11
416.55	145.11
416.74	203.63
416.93	220.01
417.12	84.26
417.31	91.28
417.50	187.24
417.69	187.24
417.88	161.50
418.07	114.69
418.26	152.13
418.45	121.71
418.64	117.03
418.83	175.54
419.02	135.75
419.21	93.62
419.39	180.22
419.58	156.82
419.77	105.32
419.96	126.39
420.15	128.73
420.34	205.97
420.53	121.71
420.72	201.29
420.91	170.86
421.10	140.43
421.29	114.69
421.48	152.13
421.67	189.58
421.86	126.39
422.05	163.84
422.24	154.48
422.43	117.03
422.61	58.51
422.80	196.60
422.99	175.54
423.18	133.41
423.37	149.79
423.56	147.45
423.75	100.64
423.94	154.48
424.13	163.84
424.32	67.88
424.50	53.83
424.69	177.88
424.88	126.39
425.07	79.58
425.26	203.63
425.45	142.77
425.64	100.64
425.83	131.07
426.01	145.11
426.20	121.71
426.39	191.92
426.58	93.62
426.77	124.05
426.96	177.88
427.15	187.24
427.33	138.09
427.52	159.16
427.71	102.98
427.90	110.01
428.09	102.98
428.28	128.73
428.46	138.09
428.65	147.45
428.84	229.37
429.03	271.50
429.22	102.98
429.40	100.64
429.59	201.29
429.78	175.54
429.97	107.66
430.16	79.58
430.34	138.09
430.53	135.75
430.72	142.77
430.91	95.96
431.10	138.09
431.28	126.39
431.47	102.98
431.66	173.20
431.85	196.60
432.03	170.86
432.22	191.92
432.41	161.50
432.60	184.90
432.79	177.88
432.97	180.22
433.16	196.60
433.35	133.41
433.54	142.77
433.72	145.11
433.91	224.69
434.10	114.69
434.28	126.39
434.47	93.62
434.66	152.13
434.85	220.01
435.03	367.46
435.22	692.80
435.41	1184.31
435.59	1235.80
435.78	863.66
435.97	571.09
436.16	294.91
436.34	259.80
436.53	175.54
436.72	152.13
436.90	140.43
437.09	191.92
437.28	161.50
437.46	105.32
437.65	135.75
437.84	196.60
438.02	166.18
438.21	222.35
438.40	135.75
438.58	152.13
438.77	198.95
438.96	149.79
439.14	243.42
439.33	147.45
439.52	191.92
439.70	201.29
439.89	163.84
440.08	124.05
440.26	170.86
440.45	135.75
440.63	187.24
440.82	189.58
441.01	208.31
441.19	124.05
441.38	163.84
441.57	147.45
441.75	217.67
441.94	147.45
442.12	175.54
442.31	203.63
442.50	91.28
442.68	131.07
442.87	149.79
443.05	250.44
443.24	175.54
443.43	175.54
443.61	212.99
443.80	140.43
443.98	217.67
444.17	161.50
444.35	210.65
444.54	198.95
444.73	147.45
444.91	170.86
445.10	67.88
445.28	184.90
445.47	182.56
445.65	147.45
445.84	124.05
446.02	191.92
446.21	222.35
446.39	131.07
446.58	119.37
446.77	110.01
446.95	224.69
447.14	159.16
447.32	156.82
447.51	177.88
447.69	154.48
447.88	154.48
448.06	173.20
448.25	191.92
448.43	161.50
448.62	124.05
448.80	138.09
448.99	205.97
449.17	149.79
449.36	208.31
449.54	107.66
449.73	138.09
449.91	198.95
450.10	140.43
450.28	182.56
450.46	189.58
450.65	210.65
450.83	196.60
451.02	105.32
451.20	175.54
451.39	201.29
451.57	168.52
451.76	191.92
451.94	93.62
452.13	117.03
452.31	198.95
452.49	208.31
452.68	124.05
452.86	173.20
453.05	140.43
453.23	203.63
453.42	229.37
453.60	142.77
453.78	112.35
453.97	168.52
454.15	110.01
454.34	154.48
454.52	88.94
454.70	177.88
454.89	131.07
455.07	145.11
455.26	149.79
455.44	259.80
455.62	234.05
455.81	266.82
455.99	152.13
456.17	138.09
456.36	102.98
456.54	131.07
456.73	191.92
456.91	203.63
457.09	238.73
457.28	145.11
457.46	196.60
457.64	133.41
457.83	229.37
458.01	217.67
458.19	138.09
458.38	198.95
458.56	159.16
458.74	102.98
458.93	191.92
459.11	201.29
459.29	145.11
459.48	149.79
459.66	255.12
459.84	189.58
460.03	290.23
460.21	135.75
460.39	156.82
460.57	224.69
460.76	152.13
460.94	166.18
461.12	227.03
461.31	168.52
461.49	154.48
461.67	212.99
461.85	93.62
462.04	107.66
462.22	365.12
462.40	236.39
462.59	149.79
462.77	177.88
462.95	86.60
463.13	198.95
463.32	208.31
463.50	147.45
463.68	234.05
463.86	180.22
464.05	208.31
464.23	189.58
464.41	142.77
464.59	208.31
464.78	170.86
464.96	161.50
465.14	201.29
465.32	86.60
465.50	217.67
465.69	110.01
465.87	147.45
466.05	152.13
466.23	180.22
466.41	140.43
466.60	266.82
466.78	173.20
466.96	163.84
467.14	187.24
467.32	175.54
467.51	194.26
467.69	234.05
467.87	212.99
468.05	142.77
468.23	222.35
468.41	128.73
468.60	117.03
468.78	126.39
468.96	187.24
469.14	208.31
469.32	173.20
469.50	133.41
469.69	184.90
469.87	194.26
470.05	100.64
470.23	163.84
470.41	224.69
470.59	224.69
470.77	135.75
470.95	182.56
471.14	198.95
471.32	168.52
471.50	175.54
471.68	149.79
471.86	177.88
472.04	222.35
472.22	184.90
472.40	184.90
472.58	166.18
472.77	100.64
472.95	182.56
473.13	184.90
473.31	201.29
473.49	177.88
473.67	100.64
473.85	156.82
474.03	236.39
474.21	135.75
474.39	159.16
474.57	187.24
474.75	222.35
474.93	100.64
475.12	161.50
475.30	131.07
475.48	173.20
475.66	180.22
475.84	154.48
476.02	138.09
476.20	138.09
476.38	257.46
476.56	252.78
476.74	194.26
476.92	166.18
477.10	187.24
477.28	154.48
477.46	194.26
477.64	313.63
477.82	252.78
478.00	135.75
478.18	175.54
478.36	212.99
478.54	220.01
478.72	175.54
478.90	147.45
479.08	208.31
479.26	229.37
479.44	138.09
479.62	175.54
479.80	180.22
479.98	138.09
480.16	159.16
480.34	182.56
480.52	156.82
480.70	194.26
480.88	156.82
481.06	196.60
481.24	215.33
481.41	173.20
481.59	222.35
481.77	208.31
481.95	269.16
482.13	262.14
482.31	241.08
482.49	182.56
482.67	198.95
482.85	243.42
483.03	243.42
483.21	313.63
483.39	184.90
483.57	285.55
483.74	318.31
483.92	315.97
484.10	243.42
484.28	215.33
484.46	252.78
484.64	269.16
484.82	285.55
485.00	280.86
485.18	299.59
485.35	266.82
485.53	322.99
485.71	308.95
485.89	252.78
486.07	266.82
486.25	290.23
486.43	262.14
486.61	397.89
486.78	339.38
486.96	320.65
487.14	308.95
487.32	292.57
487.50	290.23
487.68	461.09
487.85	353.42
488.03	395.55
488.21	374.49
488.39	301.93
488.57	346.40
488.75	259.80
488.92	517.26
489.10	297.25
489.28	337.04
489.46	241.08
489.64	315.97
489.81	255.12
489.99	308.95
490.17	346.40
490.35	322.99
490.53	334.70
490.70	308.95
490.88	292.57
491.06	315.97
491.24	292.57
491.41	334.70
491.59	278.52
491.77	271.50
491.95	325.33
492.13	318.31
492.30	262.14
492.48	273.84
492.66	344.06
492.84	278.52
493.01	280.86
493.19	271.50
493.37	311.29
493.54	234.05
493.72	322.99
493.90	283.20
494.08	311.29
494.25	311.29
494.43	337.04
494.61	266.82
494.79	166.18
494.96	222.35
495.14	395.55
495.32	212.99
495.49	227.03
495.67	315.97
495.85	227.03
496.02	255.12
496.20	374.49
496.38	285.55
496.55	266.82
496.73	348.74
496.91	166.18
497.09	292.57
497.26	290.23
497.44	243.42
497.62	224.69
497.79	278.52
497.97	353.42
498.14	320.65
498.32	341.72
498.50	201.29
498.67	320.65
498.85	273.84
499.03	241.08
499.20	220.01
499.38	224.69
499.56	236.39
499.73	285.55
499.91	337.04
500.08	255.12
500.26	215.33
500.44	210.65
500.61	238.73
500.79	224.69
500.97	231.71
501.14	220.01
501.32	210.65
501.49	238.73
501.67	198.95
501.84	255.12
502.02	196.60
502.20	276.18
502.37	308.95
502.55	250.44
502.72	194.26
502.90	152.13
503.07	290.23
503.25	250.44
503.43	224.69
503.60	220.01
503.78	224.69
503.95	231.71
504.13	198.95
504.30	252.78
504.48	257.46
504.65	264.48
504.83	344.06
505.01	227.03
505.18	220.01
505.36	222.35
505.53	166.18
505.71	215.33
505.88	248.10
506.06	222.35
506.23	208.31
506.41	252.78
506.58	201.29
506.76	252.78
506.93	208.31
507.11	259.80
507.28	182.56
507.46	224.69
507.63	266.82
507.81	184.90
507.98	187.24
508.16	217.67
508.33	285.55
508.50	208.31
508.68	248.10
508.85	271.50
509.03	367.46
509.20	212.99
509.38	210.65
509.55	220.01
509.73	203.63
509.90	285.55
510.08	283.20
510.25	315.97
510.42	229.37
510.60	248.10
510.77	238.73
510.95	262.14
511.12	238.73
511.30	238.73
511.47	294.91
511.64	248.10
511.82	222.35
511.99	245.76
512.17	215.33
512.34	262.14
512.51	238.73
512.69	182.56
512.86	266.82
513.04	290.23
513.21	229.37
513.38	241.08
513.56	285.55
513.73	299.59
513.90	269.16
514.08	194.26
514.25	189.58
514.43	257.46
514.60	227.03
514.77	189.58
514.95	231.71
515.12	220.01
515.29	248.10
515.47	201.29
515.64	236.39
515.81	264.48
515.99	252.78
516.16	238.73
516.33	262.14
516.51	154.48
516.68	212.99
516.85	187.24
517.03	229.37
517.20	227.03
517.37	147.45
517.54	231.71
517.72	248.10
517.89	175.54
518.06	215.33
518.24	308.95
518.41	250.44
518.58	236.39
518.75	170.86
518.93	257.46
519.10	222.35
519.27	203.63
519.45	234.05
519.62	229.37
519.79	222.35
519.96	262.14
520.14	210.65
520.31	264.48
520.48	290.23
520.65	243.42
520.83	273.84
521.00	299.59
521.17	224.69
521.34	266.82
521.52	227.03
521.69	241.08
521.86	196.60
522.03	245.76
522.20	318.31
522.38	273.84
522.55	224.69
522.72	220.01
522.89	283.20
523.07	337.04
523.24	301.93
523.41	220.01
523.58	229.37
523.75	255.12
523.92	229.37
524.10	231.71
524.27	320.65
524.44	255.12
524.61	308.95
524.78	234.05
524.96	220.01
525.13	245.76
525.30	285.55
525.47	318.31
525.64	276.18
525.81	301.93
525.98	318.31
526.16	236.39
526.33	217.67
526.50	255.12
526.67	227.03
526.84	224.69
527.01	210.65
527.18	292.57
527.36	297.25
527.53	276.18
527.70	271.50
527.87	330.02
528.04	337.04
528.21	266.82
528.38	287.89
528.55	264.48
528.72	294.91
528.89	273.84
529.07	311.29
529.24	269.16
529.41	255.12
529.58	203.63
529.75	184.90
529.92	299.59
530.09	308.95
530.26	271.50
530.43	234.05
530.60	278.52
530.77	278.52
530.94	210.65
531.11	299.59
531.28	322.99
531.46	203.63
531.63	273.84
531.80	222.35
531.97	189.58
532.14	306.61
532.31	212.99
532.48	248.10
532.65	320.65
532.82	290.23
532.99	257.46
533.16	285.55
533.33	337.04
533.50	311.29
533.67	325.33
533.84	259.80
534.01	259.80
534.18	201.29
534.35	290.23
534.52	280.86
534.69	318.31
534.86	255.12
535.03	271.50
535.20	243.42
535.37	367.46
535.54	379.17
535.71	294.91
535.88	264.48
536.05	262.14
536.22	311.29
536.38	313.63
536.55	390.87
536.72	301.93
536.89	276.18
537.06	351.08
537.23	365.12
537.40	353.42
537.57	369.80
537.74	407.25
537.91	456.40
538.08	440.02
538.25	489.17
538.42	430.66
538.59	503.22
538.75	442.36
538.92	468.11
539.09	433.00
539.26	510.24
539.43	552.37
539.60	580.45
539.77	603.86
539.94	669.39
540.11	674.07
540.28	758.33
540.44	763.01
540.61	786.42
540.78	877.70
540.95	1013.45
541.12	1221.76
541.29	1284.95
541.46	1364.53
541.62	1364.53
541.79	1357.51
541.96	1334.11
542.13	1210.06
542.30	1275.59
542.47	1139.84
542.63	1179.63
542.80	1128.14
542.97	1163.25
543.14	1109.41
543.31	1090.69
543.48	1125.80
543.64	1151.54
543.81	1118.78
543.98	1205.38
544.15	1039.20
544.32	1167.93
544.48	1097.71
544.65	1196.01
544.82	1125.80
544.99	1146.86
545.16	1097.71
545.32	1139.84
545.49	1703.91
545.66	2651.83
545.83	3206.53
546.00	2857.79
546.16	2101.80
546.33	1486.24
546.50	1228.78
546.67	1057.92
546.83	997.07
547.00	851.96
547.17	784.08
547.34	767.70
547.50	837.91
547.67	744.29
547.84	772.38
548.00	706.84
548.17	674.07
548.34	648.33
548.51	664.71
548.67	690.46
548.84	704.50
549.01	685.78
549.18	655.35
549.34	645.99
549.51	582.79
549.68	592.16
549.84	578.11
550.01	594.50
550.18	582.79
550.34	638.97
550.51	550.03
550.68	510.24
550.84	433.00
551.01	470.45
551.18	475.13
551.34	444.70
551.51	442.36
551.68	449.38
551.84	475.13
552.01	428.32
552.18	390.87
552.34	423.64
552.51	449.38
552.68	407.25
552.84	299.59
553.01	353.42
553.18	369.80
553.34	346.40
553.51	325.33
553.67	337.04
553.84	348.74
554.01	381.51
554.17	362.78
554.34	325.33
554.51	276.18
554.67	339.38
554.84	304.27
555.00	287.89
555.17	262.14
555.33	362.78
555.50	306.61
555.67	276.18
555.83	196.60
556.00	285.55
556.16	482.15
556.33	271.50
556.50	294.91
556.66	327.68
556.83	220.01
556.99	236.39
557.16	210.65
557.32	285.55
557.49	205.97
557.65	292.57
557.82	278.52
557.98	252.78
558.15	315.97
558.32	315.97
558.48	269.16
558.65	266.82
558.81	257.46
558.98	184.90
559.14	191.92
559.31	196.60
559.47	266.82
559.64	290.23
559.80	280.86
559.97	273.84
560.13	234.05
560.30	203.63
560.46	229.37
560.63	250.44
560.79	285.55
560.96	320.65
561.12	229.37
561.29	250.44
561.45	182.56
561.61	238.73
561.78	325.33
561.94	322.99
562.11	262.14
562.27	283.20
562.44	269.16
562.60	341.72
562.77	271.50
562.93	276.18
563.10	292.57
563.26	250.44
563.42	283.20
563.59	243.42
563.75	191.92
563.92	376.83
564.08	217.67
564.24	292.57
564.41	334.70
564.57	196.60
564.74	231.71
564.90	325.33
565.07	175.54
565.23	292.57
565.39	220.01
565.56	339.38
565.72	262.14
565.88	243.42
566.05	156.82
566.21	208.31
566.38	259.80
566.54	215.33
566.70	259.80
566.87	266.82
567.03	175.54
567.19	262.14
567.36	287.89
567.52	301.93
567.68	229.37
567.85	215.33
568.01	142.77
568.17	210.65
568.34	266.82
568.50	187.24
568.66	205.97
568.83	262.14
568.99	224.69
569.15	266.82
569.32	210.65
569.48	154.48
569.64	273.84
569.81	198.95
569.97	245.76
570.13	245.76
570.30	231.71
570.46	227.03
570.62	220.01
570.78	203.63
570.95	243.42
571.11	220.01
571.27	299.59
571.43	238.73
571.60	250.44
571.76	152.13
571.92	220.01
572.09	271.50
572.25	231.71
572.41	241.08
572.57	229.37
572.74	264.48
572.90	231.71
573.06	304.27
573.22	248.10
573.38	259.80
573.55	273.84
573.71	255.12
573.87	255.12
574.03	152.13
574.20	299.59
574.36	283.20
574.52	266.82
574.68	154.48
574.84	250.44
575.01	208.31
575.17	205.97
575.33	227.03
575.49	325.33
575.65	290.23
575.82	248.10
575.98	287.89
576.14	149.79
576.30	301.93
576.46	603.86
576.62	648.33
576.79	786.42
576.95	709.18
577.11	383.85
577.27	416.62
577.43	327.68
577.59	294.91
577.75	301.93
577.92	264.48
578.08	283.20
578.24	217.67
578.40	367.46
578.56	496.19
578.72	641.31
578.88	753.65
579.04	669.39
579.21	451.72
579.37	411.93
579.53	411.93
579.69	404.91
579.85	440.02
580.01	437.68
580.17	491.51
580.33	414.27
580.49	353.42
580.65	365.12
580.82	301.93
580.98	290.23
581.14	304.27
581.30	376.83
581.46	430.66
581.62	372.15
581.78	433.00
581.94	421.30
582.10	402.57
582.26	414.27
582.42	388.53
582.58	503.22
582.74	383.85
582.90	463.43
583.06	425.98
583.22	491.51
583.38	362.78
583.54	400.23
583.70	486.83
583.86	411.93
584.02	402.57
584.18	491.51
584.34	489.17
584.50	479.81
584.66	479.81
584.82	376.83
584.98	327.68
585.14	358.10
585.30	447.04
585.46	402.57
585.62	358.10
585.78	414.27
585.94	388.53
586.10	433.00
586.26	428.32
586.42	491.51
586.58	624.92
586.74	547.69
586.90	557.05
587.06	622.58
587.22	550.03
587.38	580.45
587.54	582.79
587.70	519.60
587.86	470.45
588.02	402.57
588.18	351.08
588.34	449.38
588.49	250.44
588.65	414.27
588.81	327.68
588.97	266.82
589.13	285.55
589.29	421.30
589.45	252.78
589.61	442.36
589.77	325.33
589.93	397.89
590.08	297.25
590.24	320.65
590.40	407.25
590.56	297.25
590.72	292.57
590.88	353.42
591.04	341.72
591.20	353.42
591.35	416.62
591.51	411.93
591.67	376.83
591.83	393.21
591.99	440.02
592.15	500.87
592.31	437.68
592.46	423.64
592.62	543.00
592.78	465.77
592.94	503.22
593.10	482.15
593.26	540.66
593.41	461.09
593.57	414.27
593.73	404.91
593.89	381.51
594.05	365.12
594.20	322.99
594.36	358.10
594.52	250.44
594.68	252.78
594.84	255.12
594.99	367.46
595.15	283.20
595.31	283.20
595.47	315.97
595.62	243.42
595.78	346.40
595.94	308.95
596.10	301.93
596.25	353.42
596.41	294.91
596.57	299.59
596.73	294.91
596.88	276.18
597.04	236.39
597.20	278.52
597.36	332.36
597.51	283.20
597.67	341.72
597.83	360.44
597.99	322.99
598.14	287.89
598.30	369.80
598.46	325.33
598.61	421.30
598.77	325.33
598.93	411.93
599.09	318.31
599.24	386.19
599.40	407.25
599.56	383.85
599.71	327.68
599.87	255.12
600.03	348.74
600.18	327.68
600.34	280.86
600.50	379.17
600.65	337.04
600.81	325.33
600.97	322.99
601.12	283.20
601.28	404.91
601.44	318.31
601.59	241.08
601.75	252.78
601.91	313.63
602.06	264.48
602.22	332.36
602.37	248.10
602.53	264.48
602.69	220.01
602.84	322.99
603.00	210.65
603.16	287.89
603.31	315.97
603.47	337.04
603.62	271.50
603.78	290.23
603.94	299.59
604.09	245.76
604.25	276.18
604.40	322.99
604.56	297.25
604.71	320.65
604.87	297.25
605.03	315.97
605.18	285.55
605.34	301.93
605.49	271.50
605.65	280.86
605.80	322.99
605.96	271.50
606.12	365.12
606.27	299.59
606.43	248.10
606.58	421.30
606.74	362.78
606.89	266.82
607.05	358.10
607.20	390.87
607.36	395.55
607.51	325.33
607.67	332.36
607.82	297.25
607.98	416.62
608.13	433.00
608.29	468.11
608.44	486.83
608.60	374.49
608.75	512.58
608.91	479.81
609.06	519.60
609.22	564.07
609.37	585.13
609.53	624.92
609.68	725.57
609.84	770.04
609.99	873.02
610.15	936.21
610.30	1233.46
610.46	1600.93
610.61	1968.39
610.76	2270.32
610.92	2630.76
611.07	3028.65
611.23	3157.38
