SpectraSuite Data File
++++++++++++++++++++++++++++++++++++
Date: Fri Oct 04 11:42:25 GMT-05:00 2013
User: price-jones
Dark Spectrum Present: No
Reference Spectrum Present: No
Number of Sampled Component Spectra: 1
Spectrometers: USB2+H05261
Integration Time (usec): 100000 (USB2+H05261)
Spectra Averaged: 1 (USB2+H05261)
Boxcar Smoothing: 0 (USB2+H05261)
Correct for Electrical Dark: No (USB2+H05261)
Strobe/Lamp Enabled: No (USB2+H05261)
Correct for Detector Non-linearity: No (USB2+H05261)
Correct for Stray Light: No (USB2+H05261)
Number of Pixels in Processed Spectrum: 2048
>>>>>Begin Processed Spectral Data<<<<<
365.73	0.00
365.92	0.00
366.12	0.00
366.32	0.00
366.52	0.00
366.72	21.06
366.91	25.75
367.11	0.00
367.31	0.00
367.51	0.00
367.70	0.00
367.90	0.00
368.10	0.00
368.30	0.00
368.49	0.00
368.69	9.36
368.89	0.00
369.09	0.00
369.28	0.00
369.48	0.00
369.68	11.70
369.87	37.45
370.07	0.00
370.27	72.56
370.47	4.68
370.66	0.00
370.86	37.45
371.06	42.13
371.25	37.45
371.45	98.30
371.65	60.85
371.84	102.98
372.04	53.83
372.24	72.56
372.44	112.35
372.63	159.16
372.83	147.45
373.03	53.83
373.22	60.85
373.42	49.15
373.62	161.50
373.81	152.13
374.01	135.75
374.21	100.64
374.40	117.03
374.60	191.92
374.79	189.58
374.99	100.64
375.19	147.45
375.38	105.32
375.58	124.05
375.78	142.77
375.97	163.84
376.17	194.26
376.37	124.05
376.56	180.22
376.76	60.85
376.95	107.66
377.15	156.82
377.35	91.28
377.54	131.07
377.74	112.35
377.93	133.41
378.13	222.35
378.33	180.22
378.52	98.30
378.72	91.28
378.91	105.32
379.11	79.58
379.31	126.39
379.50	131.07
379.70	126.39
379.89	107.66
380.09	60.85
380.28	58.51
380.48	86.60
380.68	145.11
380.87	194.26
381.07	77.24
381.26	156.82
381.46	170.86
381.65	168.52
381.85	126.39
382.04	93.62
382.24	86.60
382.43	119.37
382.63	107.66
382.83	140.43
383.02	67.88
383.22	159.16
383.41	65.54
383.61	145.11
383.80	140.43
384.00	100.64
384.19	91.28
384.39	91.28
384.58	60.85
384.78	124.05
384.97	81.92
385.17	81.92
385.36	49.15
385.56	88.94
385.75	126.39
385.95	81.92
386.14	91.28
386.34	114.69
386.53	133.41
386.72	166.18
386.92	110.01
387.11	121.71
387.31	142.77
387.50	170.86
387.70	77.24
387.89	56.17
388.09	74.90
388.28	112.35
388.48	121.71
388.67	88.94
388.86	142.77
389.06	0.00
389.25	145.11
389.45	159.16
389.64	53.83
389.84	124.05
390.03	170.86
390.22	140.43
390.42	184.90
390.61	105.32
390.81	131.07
391.00	65.54
391.19	142.77
391.39	86.60
391.58	154.48
391.78	98.30
391.97	88.94
392.16	67.88
392.36	140.43
392.55	70.22
392.75	93.62
392.94	67.88
393.13	100.64
393.33	65.54
393.52	124.05
393.71	79.58
393.91	126.39
394.10	81.92
394.29	107.66
394.49	117.03
394.68	112.35
394.88	93.62
395.07	149.79
395.26	93.62
395.46	100.64
395.65	138.09
395.84	131.07
396.04	177.88
396.23	81.92
396.42	53.83
396.62	88.94
396.81	105.32
397.00	196.60
397.19	107.66
397.39	112.35
397.58	168.52
397.77	81.92
397.97	77.24
398.16	91.28
398.35	152.13
398.55	100.64
398.74	135.75
398.93	100.64
399.12	14.04
399.32	205.97
399.51	88.94
399.70	121.71
399.90	121.71
400.09	208.31
400.28	135.75
400.47	161.50
400.67	105.32
400.86	110.01
401.05	100.64
401.24	159.16
401.44	163.84
401.63	124.05
401.82	163.84
402.01	126.39
402.21	145.11
402.40	114.69
402.59	138.09
402.78	74.90
402.97	154.48
403.17	168.52
403.36	187.24
403.55	236.39
403.74	313.63
403.93	653.01
404.13	1483.90
404.32	2387.35
404.51	2593.31
404.70	1753.06
404.89	655.35
405.09	210.65
405.28	198.95
405.47	133.41
405.66	203.63
405.85	177.88
406.05	175.54
406.24	126.39
406.43	173.20
406.62	168.52
406.81	203.63
407.00	184.90
407.20	266.82
407.39	428.32
407.58	498.53
407.77	458.74
407.96	266.82
408.15	234.05
408.34	147.45
408.54	53.83
408.73	72.56
408.92	215.33
409.11	102.98
409.30	93.62
409.49	117.03
409.68	173.20
409.87	191.92
410.07	149.79
410.26	238.73
410.45	180.22
410.64	119.37
410.83	107.66
411.02	114.69
411.21	133.41
411.40	201.29
411.59	142.77
411.78	112.35
411.98	166.18
412.17	145.11
412.36	203.63
412.55	91.28
412.74	135.75
412.93	114.69
413.12	168.52
413.31	191.92
413.50	81.92
413.69	180.22
413.88	114.69
414.07	163.84
414.26	220.01
414.45	187.24
414.64	191.92
414.83	166.18
415.02	198.95
415.22	119.37
415.41	252.78
415.60	159.16
415.79	159.16
415.98	184.90
416.17	168.52
416.36	177.88
416.55	133.41
416.74	215.33
416.93	135.75
417.12	168.52
417.31	227.03
417.50	102.98
417.69	304.27
417.88	198.95
418.07	161.50
418.26	217.67
418.45	142.77
418.64	220.01
418.83	156.82
419.02	194.26
419.21	175.54
419.39	194.26
419.58	175.54
419.77	187.24
419.96	191.92
420.15	234.05
420.34	163.84
420.53	184.90
420.72	133.41
420.91	191.92
421.10	175.54
421.29	187.24
421.48	205.97
421.67	145.11
421.86	182.56
422.05	241.08
422.24	163.84
422.43	205.97
422.61	147.45
422.80	131.07
422.99	294.91
423.18	159.16
423.37	212.99
423.56	264.48
423.75	243.42
423.94	234.05
424.13	250.44
424.32	166.18
424.50	229.37
424.69	177.88
424.88	187.24
425.07	159.16
425.26	203.63
425.45	187.24
425.64	203.63
425.83	243.42
426.01	149.79
426.20	175.54
426.39	194.26
426.58	175.54
426.77	290.23
426.96	212.99
427.15	290.23
427.33	248.10
427.52	250.44
427.71	222.35
427.90	196.60
428.09	234.05
428.28	173.20
428.46	191.92
428.65	187.24
428.84	177.88
429.03	271.50
429.22	133.41
429.40	196.60
429.59	238.73
429.78	311.29
429.97	191.92
430.16	208.31
430.34	224.69
430.53	198.95
430.72	177.88
430.91	205.97
431.10	215.33
431.28	294.91
431.47	290.23
431.66	220.01
431.85	227.03
432.03	299.59
432.22	297.25
432.41	280.86
432.60	238.73
432.79	266.82
432.97	238.73
433.16	271.50
433.35	273.84
433.54	369.80
433.72	381.51
433.91	339.38
434.10	341.72
434.28	386.19
434.47	461.09
434.66	440.02
434.85	496.19
435.03	1100.05
435.22	3309.52
435.41	7889.95
435.59	10796.89
435.78	8395.50
435.97	3939.12
436.16	1535.39
436.34	559.39
436.53	416.62
436.72	397.89
436.90	308.95
437.09	348.74
437.28	273.84
437.46	243.42
437.65	369.80
437.84	276.18
438.02	273.84
438.21	222.35
438.40	189.58
438.58	166.18
438.77	257.46
438.96	264.48
439.14	248.10
439.33	259.80
439.52	257.46
439.70	276.18
439.89	238.73
440.08	306.61
440.26	278.52
440.45	325.33
440.63	294.91
440.82	276.18
441.01	255.12
441.19	196.60
441.38	243.42
441.57	290.23
441.75	248.10
441.94	414.27
442.12	294.91
442.31	210.65
442.50	234.05
442.68	259.80
442.87	280.86
443.05	208.31
443.24	266.82
443.43	280.86
443.61	369.80
443.80	290.23
443.98	294.91
444.17	184.90
444.35	266.82
444.54	250.44
444.73	304.27
444.91	283.20
445.10	320.65
445.28	322.99
445.47	283.20
445.65	276.18
445.84	257.46
446.02	318.31
446.21	227.03
446.39	285.55
446.58	311.29
446.77	285.55
446.95	283.20
447.14	325.33
447.32	283.20
447.51	255.12
447.69	257.46
447.88	266.82
448.06	299.59
448.25	287.89
448.43	250.44
448.62	220.01
448.80	231.71
448.99	301.93
449.17	285.55
449.36	205.97
449.54	257.46
449.73	287.89
449.91	318.31
450.10	224.69
450.28	318.31
450.46	294.91
450.65	266.82
450.83	271.50
451.02	250.44
451.20	252.78
451.39	222.35
451.57	299.59
451.76	231.71
451.94	224.69
452.13	238.73
452.31	330.02
452.49	292.57
452.68	252.78
452.86	257.46
453.05	315.97
453.23	351.08
453.42	264.48
453.60	276.18
453.78	301.93
453.97	341.72
454.15	210.65
454.34	217.67
454.52	252.78
454.70	294.91
454.89	250.44
455.07	236.39
455.26	273.84
455.44	318.31
455.62	322.99
455.81	264.48
455.99	311.29
456.17	299.59
456.36	252.78
456.54	241.08
456.73	299.59
456.91	264.48
457.09	252.78
457.28	236.39
457.46	205.97
457.64	344.06
457.83	229.37
458.01	285.55
458.19	308.95
458.38	215.33
458.56	227.03
458.74	231.71
458.93	304.27
459.11	227.03
459.29	201.29
459.48	252.78
459.66	262.14
459.84	280.86
460.03	315.97
460.21	322.99
460.39	224.69
460.57	367.46
460.76	280.86
460.94	292.57
461.12	287.89
461.31	283.20
461.49	250.44
461.67	341.72
461.85	313.63
462.04	299.59
462.22	421.30
462.40	259.80
462.59	175.54
462.77	234.05
462.95	227.03
463.13	234.05
463.32	278.52
463.50	264.48
463.68	273.84
463.86	287.89
464.05	259.80
464.23	308.95
464.41	285.55
464.59	255.12
464.78	271.50
464.96	306.61
465.14	220.01
465.32	276.18
465.50	348.74
465.69	348.74
465.87	205.97
466.05	294.91
466.23	257.46
466.41	210.65
466.60	311.29
466.78	313.63
466.96	372.15
467.14	273.84
467.32	292.57
467.51	353.42
467.69	287.89
467.87	308.95
468.05	276.18
468.23	341.72
468.41	266.82
468.60	252.78
468.78	175.54
468.96	283.20
469.14	341.72
469.32	301.93
469.50	241.08
469.69	243.42
469.87	301.93
470.05	248.10
470.23	222.35
470.41	241.08
470.59	215.33
470.77	266.82
470.95	294.91
471.14	259.80
471.32	245.76
471.50	334.70
471.68	271.50
471.86	238.73
472.04	266.82
472.22	262.14
472.40	198.95
472.58	250.44
472.77	278.52
472.95	311.29
473.13	320.65
473.31	330.02
473.49	231.71
473.67	227.03
473.85	287.89
474.03	283.20
474.21	217.67
474.39	255.12
474.57	383.85
474.75	306.61
474.93	227.03
475.12	252.78
475.30	250.44
475.48	262.14
475.66	262.14
475.84	196.60
476.02	231.71
476.20	308.95
476.38	297.25
476.56	334.70
476.74	238.73
476.92	276.18
477.10	238.73
477.28	280.86
477.46	304.27
477.64	362.78
477.82	339.38
478.00	238.73
478.18	285.55
478.36	320.65
478.54	264.48
478.72	276.18
478.90	250.44
479.08	297.25
479.26	306.61
479.44	330.02
479.62	292.57
479.80	278.52
479.98	292.57
480.16	320.65
480.34	330.02
480.52	344.06
480.70	318.31
480.88	315.97
481.06	358.10
481.24	360.44
481.41	362.78
481.59	416.62
481.77	365.12
481.95	421.30
482.13	435.34
482.31	498.53
482.49	470.45
482.67	512.58
482.85	566.41
483.03	594.50
483.21	582.79
483.39	592.16
483.57	653.01
483.74	760.67
483.92	791.10
484.10	732.59
484.28	875.36
484.46	954.94
484.64	943.24
484.82	1018.13
485.00	1074.31
485.18	1123.46
485.35	1179.63
485.53	1186.65
485.71	1245.16
485.89	1268.57
486.07	1261.55
486.25	1481.56
486.43	1291.98
486.61	1446.45
486.78	1413.68
486.96	1511.99
487.14	1460.49
487.32	1399.64
487.50	1329.42
487.68	1331.76
487.85	1322.40
488.03	1404.32
488.21	1507.30
488.39	1357.51
488.57	1500.28
488.75	1306.02
488.92	1769.44
489.10	1380.92
489.28	1432.41
489.46	1345.81
489.64	1320.06
489.81	1317.72
489.99	1273.25
490.17	1224.10
490.35	1329.42
490.53	1350.49
490.70	1238.14
490.88	1233.46
491.06	1256.87
491.24	1296.66
491.41	1458.15
491.59	1315.38
491.77	1240.48
491.95	1203.04
492.13	1172.61
492.30	1179.63
492.48	1196.01
492.66	1104.73
492.84	1104.73
493.01	1142.18
493.19	1151.54
493.37	1123.46
493.54	1027.50
493.72	1071.97
493.90	1048.56
494.08	1095.37
494.25	1011.11
494.43	1025.15
494.61	1008.77
494.79	910.47
494.96	922.17
495.14	910.47
495.32	943.24
495.49	919.83
495.67	858.98
495.85	884.72
496.02	910.47
496.20	861.32
496.38	908.13
496.55	950.26
496.73	896.43
496.91	880.04
497.09	964.30
497.26	898.77
497.44	777.06
497.62	835.57
497.79	884.72
497.97	844.93
498.14	772.38
498.32	748.97
498.50	725.57
498.67	688.12
498.85	641.31
499.03	657.69
499.20	660.03
499.38	627.26
499.56	573.43
499.73	627.26
499.91	568.75
500.08	568.75
500.26	465.77
500.44	491.51
500.61	440.02
500.79	402.57
500.97	528.96
501.14	526.62
501.32	468.11
501.49	461.09
501.67	402.57
501.84	407.25
502.02	407.25
502.20	409.59
502.37	372.15
502.55	358.10
502.72	360.44
502.90	346.40
503.07	351.08
503.25	376.83
503.43	318.31
503.60	374.49
503.78	367.46
503.95	327.68
504.13	313.63
504.30	271.50
504.48	416.62
504.65	353.42
504.83	299.59
505.01	196.60
505.18	315.97
505.36	276.18
505.53	346.40
505.71	308.95
505.88	348.74
506.06	285.55
506.23	306.61
506.41	276.18
506.58	308.95
506.76	332.36
506.93	222.35
507.11	278.52
507.28	203.63
507.46	255.12
507.63	248.10
507.81	227.03
507.98	334.70
508.16	248.10
508.33	287.89
508.50	327.68
508.68	332.36
508.85	355.76
509.03	294.91
509.20	339.38
509.38	365.12
509.55	276.18
509.73	320.65
509.90	351.08
510.08	271.50
510.25	358.10
510.42	266.82
510.60	297.25
510.77	322.99
510.95	297.25
511.12	325.33
511.30	255.12
511.47	299.59
511.64	238.73
511.82	376.83
511.99	301.93
512.17	325.33
512.34	355.76
512.51	330.02
512.69	276.18
512.86	351.08
513.04	250.44
513.21	290.23
513.38	313.63
513.56	346.40
513.73	278.52
513.90	255.12
514.08	311.29
514.25	308.95
514.43	301.93
514.60	273.84
514.77	278.52
514.95	325.33
515.12	278.52
515.29	299.59
515.47	313.63
515.64	339.38
515.81	194.26
515.99	322.99
516.16	259.80
516.33	280.86
516.51	203.63
516.68	299.59
516.85	280.86
517.03	259.80
517.20	283.20
517.37	315.97
517.54	264.48
517.72	308.95
517.89	236.39
518.06	280.86
518.24	367.46
518.41	337.04
518.58	308.95
518.75	273.84
518.93	318.31
519.10	255.12
519.27	266.82
519.45	304.27
519.62	285.55
519.79	344.06
519.96	297.25
520.14	142.77
520.31	304.27
520.48	308.95
520.65	315.97
520.83	327.68
521.00	203.63
521.17	318.31
521.34	283.20
521.52	318.31
521.69	287.89
521.86	255.12
522.03	278.52
522.20	362.78
522.38	255.12
522.55	243.42
522.72	248.10
522.89	262.14
523.07	243.42
523.24	325.33
523.41	234.05
523.58	245.76
523.75	273.84
523.92	285.55
524.10	266.82
524.27	292.57
524.44	327.68
524.61	325.33
524.78	353.42
524.96	322.99
525.13	299.59
525.30	290.23
525.47	318.31
525.64	271.50
525.81	292.57
525.98	320.65
526.16	222.35
526.33	257.46
526.50	229.37
526.67	325.33
526.84	264.48
527.01	292.57
527.18	287.89
527.36	257.46
527.53	322.99
527.70	358.10
527.87	327.68
528.04	353.42
528.21	252.78
528.38	301.93
528.55	304.27
528.72	360.44
528.89	337.04
529.07	292.57
529.24	301.93
529.41	334.70
529.58	339.38
529.75	269.16
529.92	320.65
530.09	255.12
530.26	395.55
530.43	311.29
530.60	269.16
530.77	280.86
530.94	330.02
531.11	381.51
531.28	271.50
531.46	318.31
531.63	327.68
531.80	290.23
531.97	365.12
532.14	362.78
532.31	409.59
532.48	414.27
532.65	421.30
532.82	543.00
532.99	533.64
533.16	683.44
533.33	695.14
533.50	664.71
533.67	547.69
533.84	540.66
534.01	526.62
534.18	430.66
534.35	486.83
534.52	498.53
534.69	571.09
534.86	477.47
535.03	510.24
535.20	484.49
535.37	550.03
535.54	437.68
535.71	519.60
535.88	526.62
536.05	552.37
536.22	631.94
536.38	692.80
536.55	704.50
536.72	706.84
536.89	821.53
537.06	866.00
537.23	884.72
537.40	1032.18
537.57	983.02
537.74	1233.46
537.91	1254.53
538.08	1329.42
538.25	1535.39
538.42	1596.25
538.59	1636.03
538.75	1710.93
538.92	1781.15
539.09	1886.47
539.26	1809.23
539.43	1966.05
539.60	2265.64
539.77	2394.37
539.94	2644.81
540.11	2843.75
540.28	3056.74
540.44	3110.57
540.61	3344.63
540.78	3644.21
540.95	4156.79
541.12	4746.61
541.29	5453.45
541.46	6443.49
541.62	7206.51
541.79	8060.80
541.96	9064.89
542.13	9867.70
542.30	10214.10
542.47	10258.57
542.63	10029.20
542.80	9867.70
542.97	10026.86
543.14	10047.92
543.31	10176.65
543.48	10342.83
543.64	10359.21
543.81	10223.46
543.98	9832.59
544.15	9561.09
544.32	9296.61
544.48	9100.00
544.65	8659.98
544.82	8166.13
544.99	7798.66
545.16	7569.29
545.32	7459.29
545.49	9923.87
545.66	16411.84
545.83	25092.88
546.00	24868.19
546.16	14045.55
546.33	9123.41
546.50	6530.09
546.67	4851.93
546.83	3971.89
547.00	3548.25
547.17	3311.86
547.34	3068.44
547.50	2942.05
547.67	2925.67
547.84	2885.88
548.00	2897.58
548.17	2890.56
548.34	2946.73
548.51	3138.66
548.67	3197.17
548.84	3159.72
549.01	3232.28
549.18	3236.96
549.34	3288.45
549.51	3171.43
549.68	2925.67
549.84	2822.69
550.01	2560.55
550.18	2537.14
550.34	2499.69
550.51	2293.72
550.68	2427.14
550.84	2197.76
551.01	2115.84
551.18	2157.97
551.34	2090.10
551.51	2139.25
551.68	2005.84
551.84	2132.23
552.01	2073.71
552.18	2015.20
552.34	2019.88
552.51	1923.92
552.68	1816.26
552.84	1776.47
553.01	1701.57
553.18	1652.42
553.34	1476.88
553.51	1472.20
553.67	1200.69
553.84	1252.19
554.01	1078.99
554.17	1036.86
554.34	976.00
554.51	809.83
554.67	856.64
554.84	767.70
555.00	760.67
555.17	692.80
555.33	653.01
555.50	636.63
555.67	608.54
555.83	573.43
556.00	538.32
556.16	732.59
556.33	538.32
556.50	561.73
556.66	512.58
556.83	430.66
556.99	503.22
557.16	496.19
557.32	444.70
557.49	395.55
557.65	365.12
557.82	374.49
557.98	437.68
558.15	540.66
558.32	456.40
558.48	388.53
558.65	402.57
558.81	388.53
558.98	362.78
559.14	388.53
559.31	379.17
559.47	425.98
559.64	416.62
559.80	313.63
559.97	397.89
560.13	383.85
560.30	411.93
560.46	341.72
560.63	353.42
560.79	425.98
560.96	393.21
561.12	388.53
561.29	369.80
561.45	334.70
561.61	287.89
561.78	393.21
561.94	362.78
562.11	299.59
562.27	351.08
562.44	358.10
562.60	388.53
562.77	381.51
562.93	388.53
563.10	353.42
563.26	325.33
563.42	344.06
563.59	372.15
563.75	344.06
563.92	248.10
564.08	299.59
564.24	355.76
564.41	332.36
564.57	334.70
564.74	313.63
564.90	337.04
565.07	334.70
565.23	304.27
565.39	355.76
565.56	227.03
565.72	355.76
565.88	259.80
566.05	245.76
566.21	397.89
566.38	367.46
566.54	327.68
566.70	325.33
566.87	287.89
567.03	255.12
567.19	318.31
567.36	341.72
567.52	311.29
567.68	388.53
567.85	358.10
568.01	318.31
568.17	320.65
568.34	287.89
568.50	313.63
568.66	292.57
568.83	320.65
568.99	276.18
569.15	283.20
569.32	320.65
569.48	287.89
569.64	259.80
569.81	306.61
569.97	224.69
570.13	337.04
570.30	294.91
570.46	358.10
570.62	280.86
570.78	301.93
570.95	339.38
571.11	311.29
571.27	283.20
571.43	294.91
571.60	374.49
571.76	301.93
571.92	294.91
572.09	269.16
572.25	353.42
572.41	346.40
572.57	376.83
572.74	465.77
572.90	374.49
573.06	358.10
573.22	322.99
573.38	381.51
573.55	351.08
573.71	355.76
573.87	330.02
574.03	341.72
574.20	395.55
574.36	461.09
574.52	360.44
574.68	463.43
574.84	400.23
575.01	423.64
575.17	447.04
575.33	430.66
575.49	437.68
575.65	489.17
575.82	470.45
575.98	561.73
576.14	603.86
576.30	720.88
576.46	1802.21
576.62	3309.52
576.79	4786.40
576.95	3574.00
577.11	2113.50
577.27	1406.66
577.43	992.39
577.59	758.33
577.75	613.22
577.92	582.79
578.08	587.47
578.24	653.01
578.40	819.19
578.56	1820.94
578.72	3206.53
578.88	4636.60
579.04	3445.27
579.21	2347.56
579.37	1802.21
579.53	1549.43
579.69	1533.05
579.85	1760.08
580.01	2054.99
580.17	2111.16
580.33	2019.88
580.49	1717.95
580.65	1509.65
580.82	1399.64
580.98	1336.45
581.14	1270.91
581.30	1362.19
581.46	1420.71
581.62	1413.68
581.78	1462.83
581.94	1600.93
582.10	1582.20
582.26	1612.63
582.42	1558.80
582.58	1851.36
582.74	1844.34
582.90	2050.31
583.06	2136.91
583.22	2132.23
583.38	2193.08
583.54	2153.29
583.70	2277.34
583.86	2162.66
584.02	2157.97
584.18	2106.48
584.34	2087.76
584.50	2026.90
584.66	1867.75
584.82	1839.66
584.98	1680.50
585.14	1673.48
585.30	1687.53
585.46	1582.20
585.62	1605.61
585.78	1626.67
585.94	1624.33
586.10	1696.89
586.26	1739.02
586.42	1935.62
586.58	2179.04
586.74	2576.93
586.90	3066.10
587.06	3471.01
587.22	3552.93
587.38	3248.66
587.54	2911.63
587.70	2803.96
587.86	2448.20
588.02	2223.51
588.18	2019.88
588.34	1921.58
588.49	1699.23
588.65	1610.29
588.81	1516.67
588.97	1535.39
589.13	1519.01
589.29	1575.18
589.45	1483.90
589.61	1479.22
589.77	1493.26
589.93	1359.85
590.08	1313.04
590.24	1460.49
590.40	1308.36
590.56	1362.19
590.72	1355.17
590.88	1390.28
591.04	1371.55
591.20	1273.25
591.35	1331.76
591.51	1226.44
591.67	1350.49
591.83	1275.59
591.99	1493.26
592.15	1605.61
592.31	1682.85
592.46	1825.62
592.62	1973.07
592.78	2022.22
592.94	2062.01
593.10	2104.14
593.26	2054.99
593.41	1675.82
593.57	1682.85
593.73	1476.88
593.89	1301.34
594.05	1160.91
594.20	1001.75
594.36	987.71
594.52	926.85
594.68	861.32
594.84	854.30
594.99	828.55
595.15	830.89
595.31	798.12
595.47	770.04
595.62	786.42
595.78	777.06
595.94	828.55
596.10	837.91
596.25	730.25
596.41	716.20
596.57	772.38
596.73	807.48
596.88	755.99
597.04	695.14
597.20	751.31
597.36	781.74
597.51	870.68
597.67	844.93
597.83	821.53
597.99	1029.84
598.14	1015.79
598.30	1055.58
598.46	973.66
598.61	1083.67
598.77	1160.91
598.93	1188.99
599.09	1296.66
599.24	1256.87
599.40	1212.40
599.56	1287.29
599.71	1238.14
599.87	1104.73
600.03	1078.99
600.18	1034.52
600.34	997.07
600.50	882.38
600.65	751.31
600.81	821.53
600.97	755.99
601.12	732.59
601.28	662.37
601.44	720.88
601.59	645.99
601.75	657.69
601.91	613.22
602.06	554.71
602.22	645.99
602.37	653.01
602.53	599.18
602.69	543.00
602.84	550.03
603.00	521.94
603.16	662.37
603.31	440.02
603.47	524.28
603.62	531.30
603.78	566.41
603.94	521.94
604.09	624.92
604.25	624.92
604.40	662.37
604.56	587.47
604.71	592.16
604.87	627.26
605.03	702.16
605.18	739.61
605.34	732.59
605.49	734.93
605.65	655.35
605.80	739.61
605.96	699.82
606.12	699.82
606.27	830.89
606.43	723.23
606.58	863.66
606.74	891.74
606.89	908.13
607.05	1011.11
607.20	901.11
607.36	964.30
607.51	1125.80
607.67	1043.88
607.82	1221.76
607.98	1284.95
