SpectraSuite Data File
++++++++++++++++++++++++++++++++++++
Date: Fri Oct 04 11:42:27 GMT-05:00 2013
User: price-jones
Dark Spectrum Present: No
Reference Spectrum Present: No
Number of Sampled Component Spectra: 1
Spectrometers: USB2+H05261
Integration Time (usec): 100000 (USB2+H05261)
Spectra Averaged: 1 (USB2+H05261)
Boxcar Smoothing: 0 (USB2+H05261)
Correct for Electrical Dark: No (USB2+H05261)
Strobe/Lamp Enabled: No (USB2+H05261)
Correct for Detector Non-linearity: No (USB2+H05261)
Correct for Stray Light: No (USB2+H05261)
Number of Pixels in Processed Spectrum: 2048
>>>>>Begin Processed Spectral Data<<<<<
365.73	28.09
365.92	28.09
366.12	28.09
366.32	0.00
366.52	0.00
366.72	0.00
366.91	0.00
367.11	0.00
367.31	0.00
367.51	0.00
367.70	0.00
367.90	0.00
368.10	0.00
368.30	0.00
368.49	0.00
368.69	0.00
368.89	0.00
369.09	0.00
369.28	0.00
369.48	0.00
369.68	0.00
369.87	11.70
370.07	0.00
370.27	28.09
370.47	0.00
370.66	35.11
370.86	58.51
371.06	74.90
371.25	117.03
371.45	14.04
371.65	88.94
371.84	42.13
372.04	131.07
372.24	70.22
372.44	102.98
372.63	135.75
372.83	119.37
373.03	70.22
373.22	95.96
373.42	28.09
373.62	147.45
373.81	100.64
374.01	161.50
374.21	112.35
374.40	159.16
374.60	147.45
374.79	175.54
374.99	114.69
375.19	159.16
375.38	166.18
375.58	53.83
375.78	86.60
375.97	168.52
376.17	114.69
376.37	142.77
376.56	175.54
376.76	53.83
376.95	4.68
377.15	88.94
377.35	126.39
377.54	161.50
377.74	173.20
377.93	79.58
378.13	95.96
378.33	112.35
378.52	79.58
378.72	117.03
378.91	142.77
379.11	98.30
379.31	102.98
379.50	140.43
379.70	102.98
379.89	126.39
380.09	124.05
380.28	65.54
380.48	0.00
380.68	11.70
380.87	100.64
381.07	126.39
381.26	133.41
381.46	93.62
381.65	119.37
381.85	2.34
382.04	119.37
382.24	93.62
382.43	102.98
382.63	98.30
382.83	133.41
383.02	180.22
383.22	198.95
383.41	77.24
383.61	84.26
383.80	133.41
384.00	102.98
384.19	0.00
384.39	128.73
384.58	112.35
384.78	131.07
384.97	105.32
385.17	107.66
385.36	128.73
385.56	138.09
385.75	110.01
385.95	156.82
386.14	147.45
386.34	42.13
386.53	86.60
386.72	77.24
386.92	114.69
387.11	163.84
387.31	112.35
387.50	74.90
387.70	131.07
387.89	180.22
388.09	107.66
388.28	86.60
388.48	114.69
388.67	126.39
388.86	102.98
389.06	112.35
389.25	49.15
389.45	91.28
389.64	175.54
389.84	142.77
390.03	121.71
390.22	133.41
390.42	65.54
390.61	79.58
390.81	88.94
391.00	81.92
391.19	187.24
391.39	84.26
391.58	117.03
391.78	105.32
391.97	110.01
392.16	98.30
392.36	154.48
392.55	184.90
392.75	159.16
392.94	77.24
393.13	191.92
393.33	124.05
393.52	51.49
393.71	208.31
393.91	53.83
394.10	81.92
394.29	70.22
394.49	124.05
394.68	100.64
394.88	156.82
395.07	194.26
395.26	119.37
395.46	114.69
395.65	140.43
395.84	114.69
396.04	191.92
396.23	182.56
396.42	149.79
396.62	112.35
396.81	161.50
397.00	110.01
397.19	126.39
397.39	117.03
397.58	44.47
397.77	112.35
397.97	2.34
398.16	124.05
398.35	191.92
398.55	126.39
398.74	91.28
398.93	191.92
399.12	88.94
399.32	170.86
399.51	102.98
399.70	187.24
399.90	67.88
400.09	72.56
400.28	107.66
400.47	112.35
400.67	201.29
400.86	58.51
401.05	128.73
401.24	39.79
401.44	98.30
401.63	173.20
401.82	159.16
402.01	135.75
402.21	177.88
402.40	39.79
402.59	191.92
402.78	49.15
402.97	119.37
403.17	140.43
403.36	140.43
403.55	114.69
403.74	152.13
403.93	182.56
404.13	201.29
404.32	315.97
404.51	217.67
404.70	222.35
404.89	163.84
405.09	180.22
405.28	112.35
405.47	84.26
405.66	133.41
405.85	166.18
406.05	215.33
406.24	133.41
406.43	142.77
406.62	60.85
406.81	149.79
407.00	166.18
407.20	170.86
407.39	124.05
407.58	135.75
407.77	149.79
407.96	163.84
408.15	140.43
408.34	191.92
408.54	114.69
408.73	161.50
408.92	42.13
409.11	142.77
409.30	142.77
409.49	23.41
409.68	131.07
409.87	135.75
410.07	53.83
410.26	140.43
410.45	142.77
410.64	93.62
410.83	117.03
411.02	166.18
411.21	112.35
411.40	88.94
411.59	126.39
411.78	145.11
411.98	124.05
412.17	238.73
412.36	159.16
412.55	100.64
412.74	133.41
412.93	128.73
413.12	131.07
413.31	112.35
413.50	191.92
413.69	182.56
413.88	180.22
414.07	154.48
414.26	67.88
414.45	117.03
414.64	201.29
414.83	154.48
415.02	131.07
415.22	177.88
415.41	100.64
415.60	154.48
415.79	128.73
415.98	227.03
416.17	163.84
416.36	255.12
416.55	128.73
416.74	196.60
416.93	145.11
417.12	196.60
417.31	159.16
417.50	203.63
417.69	241.08
417.88	133.41
418.07	49.15
418.26	147.45
418.45	170.86
418.64	135.75
418.83	163.84
419.02	124.05
419.21	163.84
419.39	93.62
419.58	149.79
419.77	154.48
419.96	227.03
420.15	159.16
420.34	166.18
420.53	107.66
420.72	65.54
420.91	91.28
421.10	184.90
421.29	84.26
421.48	152.13
421.67	121.71
421.86	187.24
422.05	63.19
422.24	161.50
422.43	124.05
422.61	88.94
422.80	177.88
422.99	152.13
423.18	168.52
423.37	131.07
423.56	112.35
423.75	156.82
423.94	107.66
424.13	102.98
424.32	138.09
424.50	126.39
424.69	156.82
424.88	208.31
425.07	131.07
425.26	105.32
425.45	114.69
425.64	156.82
425.83	105.32
426.01	234.05
426.20	154.48
426.39	95.96
426.58	180.22
426.77	138.09
426.96	231.71
427.15	133.41
427.33	166.18
427.52	149.79
427.71	119.37
427.90	154.48
428.09	159.16
428.28	74.90
428.46	114.69
428.65	180.22
428.84	133.41
429.03	159.16
429.22	159.16
429.40	131.07
429.59	105.32
429.78	234.05
429.97	121.71
430.16	168.52
430.34	180.22
430.53	131.07
430.72	208.31
430.91	208.31
431.10	121.71
431.28	163.84
431.47	180.22
431.66	147.45
431.85	117.03
432.03	128.73
432.22	255.12
432.41	159.16
432.60	180.22
432.79	88.94
432.97	51.49
433.16	140.43
433.35	135.75
433.54	133.41
433.72	191.92
433.91	149.79
434.10	147.45
434.28	163.84
434.47	168.52
434.66	248.10
434.85	194.26
435.03	276.18
435.22	566.41
435.41	1104.73
435.59	1064.94
435.78	830.89
435.97	468.11
436.16	290.23
436.34	131.07
436.53	166.18
436.72	142.77
436.90	191.92
437.09	170.86
437.28	212.99
437.46	170.86
437.65	215.33
437.84	102.98
438.02	205.97
438.21	205.97
438.40	142.77
438.58	121.71
438.77	121.71
438.96	131.07
439.14	138.09
439.33	196.60
439.52	187.24
439.70	140.43
439.89	201.29
440.08	173.20
440.26	184.90
440.45	191.92
440.63	114.69
440.82	222.35
441.01	77.24
441.19	203.63
441.38	196.60
441.57	175.54
441.75	220.01
441.94	175.54
442.12	245.76
442.31	170.86
442.50	168.52
442.68	124.05
442.87	177.88
443.05	124.05
443.24	180.22
443.43	285.55
443.61	220.01
443.80	210.65
443.98	140.43
444.17	131.07
444.35	250.44
444.54	117.03
444.73	37.45
444.91	147.45
445.10	145.11
445.28	168.52
445.47	201.29
445.65	189.58
445.84	173.20
446.02	154.48
446.21	105.32
446.39	131.07
446.58	159.16
446.77	126.39
446.95	198.95
447.14	203.63
447.32	133.41
447.51	112.35
447.69	100.64
447.88	201.29
448.06	145.11
448.25	161.50
448.43	191.92
448.62	112.35
448.80	142.77
448.99	250.44
449.17	145.11
449.36	217.67
449.54	236.39
449.73	131.07
449.91	264.48
450.10	154.48
450.28	238.73
450.46	175.54
450.65	126.39
450.83	224.69
451.02	154.48
451.20	210.65
451.39	224.69
451.57	152.13
451.76	140.43
451.94	187.24
452.13	159.16
452.31	198.95
452.49	205.97
452.68	189.58
452.86	147.45
453.05	173.20
453.23	184.90
453.42	138.09
453.60	128.73
453.78	170.86
453.97	100.64
454.15	241.08
454.34	126.39
454.52	142.77
454.70	236.39
454.89	212.99
455.07	152.13
455.26	184.90
455.44	210.65
455.62	145.11
455.81	147.45
455.99	205.97
456.17	163.84
456.36	86.60
456.54	170.86
456.73	145.11
456.91	173.20
457.09	191.92
457.28	177.88
457.46	159.16
457.64	208.31
457.83	140.43
458.01	212.99
458.19	163.84
458.38	124.05
458.56	114.69
458.74	191.92
458.93	184.90
459.11	173.20
459.29	182.56
459.48	112.35
459.66	250.44
459.84	248.10
460.03	234.05
460.21	182.56
460.39	229.37
460.57	161.50
460.76	194.26
460.94	217.67
461.12	189.58
461.31	191.92
461.49	184.90
461.67	163.84
461.85	234.05
462.04	201.29
462.22	322.99
462.40	217.67
462.59	196.60
462.77	112.35
462.95	142.77
463.13	133.41
463.32	198.95
463.50	222.35
463.68	234.05
463.86	154.48
464.05	110.01
464.23	173.20
464.41	229.37
464.59	224.69
464.78	168.52
464.96	152.13
465.14	194.26
465.32	187.24
465.50	173.20
465.69	163.84
465.87	135.75
466.05	173.20
466.23	149.79
466.41	187.24
466.60	180.22
466.78	145.11
466.96	189.58
467.14	273.84
467.32	255.12
467.51	161.50
467.69	236.39
467.87	241.08
468.05	194.26
468.23	196.60
468.41	163.84
468.60	238.73
468.78	147.45
468.96	198.95
469.14	180.22
469.32	257.46
469.50	133.41
469.69	229.37
469.87	224.69
470.05	121.71
470.23	156.82
470.41	124.05
470.59	126.39
470.77	135.75
470.95	224.69
471.14	248.10
471.32	184.90
471.50	215.33
471.68	198.95
471.86	191.92
472.04	191.92
472.22	168.52
472.40	252.78
472.58	212.99
472.77	166.18
472.95	147.45
473.13	163.84
473.31	184.90
473.49	196.60
473.67	194.26
473.85	191.92
474.03	236.39
474.21	208.31
474.39	173.20
474.57	126.39
474.75	194.26
474.93	198.95
475.12	147.45
475.30	215.33
475.48	131.07
475.66	135.75
475.84	182.56
476.02	128.73
476.20	177.88
476.38	138.09
476.56	163.84
476.74	175.54
476.92	170.86
477.10	168.52
477.28	229.37
477.46	147.45
477.64	252.78
477.82	210.65
478.00	243.42
478.18	168.52
478.36	140.43
478.54	182.56
478.72	145.11
478.90	177.88
479.08	210.65
479.26	156.82
479.44	198.95
479.62	238.73
479.80	140.43
479.98	229.37
480.16	170.86
480.34	128.73
480.52	241.08
480.70	191.92
480.88	180.22
481.06	175.54
481.24	241.08
481.41	210.65
481.59	217.67
481.77	196.60
481.95	241.08
482.13	248.10
482.31	248.10
482.49	205.97
482.67	191.92
482.85	201.29
483.03	348.74
483.21	243.42
483.39	173.20
483.57	252.78
483.74	287.89
483.92	269.16
484.10	231.71
484.28	227.03
484.46	273.84
484.64	231.71
484.82	241.08
485.00	241.08
485.18	212.99
485.35	259.80
485.53	330.02
485.71	285.55
485.89	234.05
486.07	325.33
486.25	294.91
486.43	304.27
486.61	294.91
486.78	374.49
486.96	339.38
487.14	339.38
487.32	259.80
487.50	334.70
487.68	325.33
487.85	330.02
488.03	334.70
488.21	355.76
488.39	353.42
488.57	287.89
488.75	294.91
488.92	592.16
489.10	365.12
489.28	367.46
489.46	252.78
489.64	283.20
489.81	313.63
489.99	285.55
490.17	320.65
490.35	330.02
490.53	255.12
490.70	231.71
490.88	390.87
491.06	290.23
491.24	292.57
491.41	315.97
491.59	269.16
491.77	250.44
491.95	245.76
492.13	271.50
492.30	276.18
492.48	301.93
492.66	243.42
492.84	191.92
493.01	348.74
493.19	203.63
493.37	280.86
493.54	327.68
493.72	224.69
493.90	341.72
494.08	287.89
494.25	299.59
494.43	269.16
494.61	287.89
494.79	252.78
494.96	341.72
495.14	280.86
495.32	283.20
495.49	257.46
495.67	257.46
495.85	292.57
496.02	273.84
496.20	318.31
496.38	278.52
496.55	278.52
496.73	315.97
496.91	269.16
497.09	264.48
497.26	280.86
497.44	229.37
497.62	311.29
497.79	292.57
497.97	346.40
498.14	308.95
498.32	337.04
498.50	238.73
498.67	224.69
498.85	283.20
499.03	229.37
499.20	234.05
499.38	287.89
499.56	212.99
499.73	297.25
499.91	203.63
500.08	227.03
500.26	231.71
500.44	227.03
500.61	215.33
500.79	212.99
500.97	294.91
501.14	308.95
501.32	215.33
501.49	304.27
501.67	292.57
501.84	194.26
502.02	210.65
502.20	273.84
502.37	250.44
502.55	285.55
502.72	248.10
502.90	236.39
503.07	252.78
503.25	234.05
503.43	273.84
503.60	201.29
503.78	276.18
503.95	313.63
504.13	248.10
504.30	250.44
504.48	248.10
504.65	266.82
504.83	252.78
505.01	252.78
505.18	234.05
505.36	252.78
505.53	271.50
505.71	234.05
505.88	301.93
506.06	191.92
506.23	234.05
506.41	262.14
506.58	248.10
506.76	299.59
506.93	250.44
507.11	227.03
507.28	248.10
507.46	180.22
507.63	255.12
507.81	250.44
507.98	229.37
508.16	257.46
508.33	257.46
508.50	264.48
508.68	203.63
508.85	243.42
509.03	234.05
509.20	215.33
509.38	248.10
509.55	327.68
509.73	278.52
509.90	290.23
510.08	177.88
510.25	264.48
510.42	273.84
510.60	198.95
510.77	259.80
510.95	278.52
511.12	294.91
511.30	271.50
511.47	294.91
511.64	234.05
511.82	301.93
511.99	145.11
512.17	250.44
512.34	203.63
512.51	205.97
512.69	222.35
512.86	346.40
513.04	255.12
513.21	299.59
513.38	248.10
513.56	191.92
513.73	285.55
513.90	250.44
514.08	262.14
514.25	259.80
514.43	264.48
514.60	243.42
514.77	252.78
514.95	243.42
515.12	189.58
515.29	266.82
515.47	255.12
515.64	276.18
515.81	266.82
515.99	290.23
516.16	262.14
516.33	224.69
516.51	308.95
516.68	220.01
516.85	243.42
517.03	234.05
517.20	231.71
517.37	227.03
517.54	297.25
517.72	217.67
517.89	175.54
518.06	135.75
518.24	315.97
518.41	332.36
518.58	236.39
518.75	252.78
518.93	187.24
519.10	168.52
519.27	255.12
519.45	264.48
519.62	198.95
519.79	236.39
519.96	217.67
520.14	252.78
520.31	304.27
520.48	250.44
520.65	259.80
520.83	273.84
521.00	308.95
521.17	283.20
521.34	269.16
521.52	231.71
521.69	266.82
521.86	180.22
522.03	243.42
522.20	285.55
522.38	184.90
522.55	269.16
522.72	196.60
522.89	203.63
523.07	276.18
523.24	203.63
523.41	262.14
523.58	189.58
523.75	248.10
523.92	332.36
524.10	322.99
524.27	259.80
524.44	208.31
524.61	236.39
524.78	287.89
524.96	236.39
525.13	210.65
525.30	297.25
525.47	320.65
525.64	229.37
525.81	236.39
525.98	259.80
526.16	231.71
526.33	339.38
526.50	250.44
526.67	217.67
526.84	177.88
527.01	292.57
527.18	306.61
527.36	252.78
527.53	212.99
527.70	255.12
527.87	271.50
528.04	339.38
528.21	311.29
528.38	311.29
528.55	374.49
528.72	325.33
528.89	355.76
529.07	227.03
529.24	269.16
529.41	311.29
529.58	297.25
529.75	215.33
529.92	266.82
530.09	273.84
530.26	236.39
530.43	297.25
530.60	311.29
530.77	334.70
530.94	245.76
531.11	299.59
531.28	212.99
531.46	217.67
531.63	299.59
531.80	320.65
531.97	280.86
532.14	311.29
532.31	320.65
532.48	304.27
532.65	278.52
532.82	266.82
532.99	229.37
533.16	304.27
533.33	287.89
533.50	271.50
533.67	271.50
533.84	252.78
534.01	262.14
534.18	264.48
534.35	294.91
534.52	327.68
534.69	365.12
534.86	306.61
535.03	262.14
535.20	374.49
535.37	318.31
535.54	339.38
535.71	304.27
535.88	407.25
536.05	351.08
536.22	322.99
536.38	337.04
536.55	330.02
536.72	395.55
536.89	341.72
537.06	318.31
537.23	280.86
537.40	339.38
537.57	376.83
537.74	447.04
537.91	360.44
538.08	416.62
538.25	409.59
538.42	402.57
538.59	416.62
538.75	423.64
538.92	423.64
539.09	557.05
539.26	433.00
539.43	503.22
539.60	489.17
539.77	622.58
539.94	674.07
540.11	645.99
540.28	688.12
540.44	690.46
540.61	767.70
540.78	746.63
540.95	917.49
541.12	1032.18
541.29	1060.26
541.46	1146.86
541.62	1306.02
541.79	1217.08
541.96	1177.29
542.13	1249.85
542.30	1203.04
542.47	1146.86
542.63	1036.86
542.80	1093.03
542.97	1156.22
543.14	1163.25
543.31	1132.82
543.48	1137.50
543.64	1174.95
543.81	1146.86
543.98	1036.86
544.15	1020.47
544.32	1132.82
544.48	1043.88
544.65	1062.60
544.82	1064.94
544.99	1027.50
545.16	1100.05
545.32	1114.10
545.49	1519.01
545.66	2326.49
545.83	2883.54
546.00	2614.38
546.16	1797.53
546.33	1343.47
546.50	1074.31
546.67	891.74
546.83	884.72
547.00	795.78
547.17	753.65
547.34	720.88
547.50	767.70
547.67	629.60
547.84	627.26
548.00	723.23
548.17	631.94
548.34	681.10
548.51	716.20
548.67	730.25
548.84	631.94
549.01	678.76
549.18	617.90
549.34	580.45
549.51	592.16
549.68	580.45
549.84	486.83
550.01	498.53
550.18	634.29
550.34	566.41
550.51	437.68
550.68	545.34
550.84	493.85
551.01	465.77
551.18	449.38
551.34	475.13
551.51	482.15
551.68	407.25
551.84	514.92
552.01	484.49
552.18	383.85
552.34	362.78
552.51	390.87
552.68	397.89
552.84	437.68
553.01	442.36
553.18	440.02
553.34	418.96
553.51	304.27
553.67	341.72
553.84	397.89
554.01	374.49
554.17	348.74
554.34	353.42
554.51	355.76
554.67	334.70
554.84	313.63
555.00	301.93
555.17	315.97
555.33	334.70
555.50	402.57
555.67	325.33
555.83	304.27
556.00	322.99
556.16	400.23
556.33	276.18
556.50	297.25
556.66	280.86
556.83	262.14
556.99	273.84
557.16	145.11
557.32	198.95
557.49	294.91
557.65	290.23
557.82	231.71
557.98	234.05
558.15	243.42
558.32	215.33
558.48	227.03
558.65	290.23
558.81	278.52
558.98	252.78
559.14	330.02
559.31	205.97
559.47	304.27
559.64	177.88
559.80	259.80
559.97	231.71
560.13	201.29
560.30	234.05
560.46	212.99
560.63	201.29
560.79	222.35
560.96	297.25
561.12	264.48
561.29	238.73
561.45	262.14
561.61	306.61
561.78	308.95
561.94	175.54
562.11	257.46
562.27	290.23
562.44	227.03
562.60	201.29
562.77	234.05
562.93	297.25
563.10	271.50
563.26	180.22
563.42	290.23
563.59	259.80
563.75	234.05
563.92	278.52
564.08	264.48
564.24	257.46
564.41	327.68
564.57	212.99
564.74	184.90
564.90	189.58
565.07	287.89
565.23	245.76
565.39	273.84
565.56	287.89
565.72	259.80
565.88	287.89
566.05	252.78
566.21	194.26
566.38	248.10
566.54	278.52
566.70	205.97
566.87	217.67
567.03	227.03
567.19	280.86
567.36	313.63
567.52	250.44
567.68	243.42
567.85	299.59
568.01	238.73
568.17	243.42
568.34	191.92
568.50	229.37
568.66	210.65
568.83	217.67
568.99	231.71
569.15	241.08
569.32	278.52
569.48	241.08
569.64	236.39
569.81	248.10
569.97	182.56
570.13	234.05
570.30	191.92
570.46	224.69
570.62	262.14
570.78	222.35
570.95	229.37
571.11	313.63
571.27	304.27
571.43	271.50
571.60	271.50
571.76	280.86
571.92	301.93
572.09	238.73
572.25	170.86
572.41	231.71
572.57	238.73
572.74	292.57
572.90	201.29
573.06	262.14
573.22	285.55
573.38	250.44
573.55	269.16
573.71	320.65
573.87	236.39
574.03	152.13
574.20	243.42
574.36	320.65
574.52	250.44
574.68	248.10
574.84	208.31
575.01	283.20
575.17	227.03
575.33	252.78
575.49	262.14
575.65	271.50
575.82	269.16
575.98	294.91
576.14	287.89
576.30	369.80
576.46	503.22
576.62	624.92
576.79	702.16
576.95	561.73
577.11	489.17
577.27	339.38
577.43	372.15
577.59	337.04
577.75	311.29
577.92	252.78
578.08	271.50
578.24	318.31
578.40	372.15
578.56	456.40
578.72	657.69
578.88	725.57
579.04	545.34
579.21	418.96
579.37	404.91
579.53	393.21
579.69	416.62
579.85	411.93
580.01	390.87
580.17	360.44
580.33	362.78
580.49	402.57
580.65	393.21
580.82	318.31
580.98	327.68
581.14	414.27
581.30	351.08
581.46	409.59
581.62	365.12
581.78	395.55
581.94	390.87
582.10	362.78
582.26	393.21
582.42	360.44
582.58	362.78
582.74	456.40
582.90	425.98
583.06	517.26
583.22	500.87
583.38	409.59
583.54	463.43
583.70	404.91
583.86	482.15
584.02	454.06
584.18	482.15
584.34	423.64
584.50	442.36
584.66	386.19
584.82	414.27
584.98	500.87
585.14	372.15
585.30	409.59
585.46	447.04
585.62	433.00
585.78	369.80
585.94	372.15
586.10	433.00
586.26	381.51
586.42	465.77
586.58	500.87
586.74	512.58
586.90	545.34
587.06	557.05
587.22	545.34
587.38	505.56
587.54	482.15
587.70	479.81
587.86	451.72
588.02	465.77
588.18	339.38
588.34	376.83
588.49	367.46
588.65	372.15
588.81	355.76
588.97	229.37
589.13	250.44
589.29	334.70
589.45	311.29
589.61	241.08
589.77	287.89
589.93	351.08
590.08	304.27
590.24	208.31
590.40	287.89
590.56	320.65
590.72	255.12
590.88	306.61
591.04	341.72
591.20	320.65
591.35	400.23
591.51	433.00
591.67	313.63
591.83	334.70
591.99	376.83
592.15	386.19
592.31	409.59
592.46	416.62
592.62	433.00
592.78	447.04
592.94	425.98
593.10	425.98
593.26	416.62
593.41	358.10
593.57	423.64
593.73	299.59
593.89	367.46
594.05	332.36
594.20	299.59
594.36	273.84
594.52	278.52
594.68	276.18
594.84	362.78
594.99	299.59
595.15	344.06
595.31	334.70
595.47	339.38
595.62	334.70
595.78	257.46
595.94	374.49
596.10	280.86
596.25	308.95
596.41	315.97
596.57	292.57
596.73	285.55
596.88	330.02
597.04	341.72
597.20	252.78
597.36	262.14
597.51	304.27
597.67	308.95
597.83	341.72
597.99	273.84
598.14	411.93
598.30	250.44
598.46	360.44
598.61	353.42
598.77	341.72
598.93	381.51
599.09	402.57
599.24	376.83
599.40	353.42
599.56	383.85
599.71	362.78
599.87	215.33
600.03	304.27
600.18	313.63
600.34	381.51
600.50	264.48
600.65	325.33
600.81	311.29
600.97	208.31
601.12	290.23
601.28	315.97
601.44	287.89
601.59	308.95
601.75	308.95
601.91	285.55
602.06	311.29
602.22	351.08
602.37	290.23
602.53	353.42
602.69	243.42
602.84	227.03
603.00	257.46
603.16	250.44
603.31	297.25
603.47	248.10
603.62	191.92
603.78	250.44
603.94	308.95
604.09	245.76
604.25	236.39
604.40	224.69
604.56	194.26
604.71	212.99
604.87	231.71
605.03	297.25
605.18	304.27
605.34	355.76
605.49	332.36
605.65	234.05
605.80	264.48
605.96	241.08
606.12	348.74
606.27	341.72
606.43	304.27
606.58	252.78
606.74	266.82
606.89	379.17
607.05	313.63
607.20	355.76
607.36	351.08
607.51	320.65
607.67	320.65
607.82	327.68
607.98	386.19
608.13	332.36
608.29	362.78
608.44	395.55
608.60	341.72
608.75	463.43
608.91	491.51
609.06	484.49
609.22	519.60
609.37	571.09
609.53	543.00
609.68	641.31
609.84	711.52
609.99	779.40
610.15	903.45
610.30	1071.97
610.46	1338.79
610.61	1661.78
610.76	1919.24
610.92	2387.35
611.07	2590.97
