SpectraSuite Data File
++++++++++++++++++++++++++++++++++++
Date: Fri Oct 04 11:41:43 GMT-05:00 2013
User: price-jones
Dark Spectrum Present: No
Reference Spectrum Present: No
Number of Sampled Component Spectra: 1
Spectrometers: USB2+H05261
Integration Time (usec): 100000 (USB2+H05261)
Spectra Averaged: 1 (USB2+H05261)
Boxcar Smoothing: 0 (USB2+H05261)
Correct for Electrical Dark: No (USB2+H05261)
Strobe/Lamp Enabled: No (USB2+H05261)
Correct for Detector Non-linearity: No (USB2+H05261)
Correct for Stray Light: No (USB2+H05261)
Number of Pixels in Processed Spectrum: 2048
>>>>>Begin Processed Spectral Data<<<<<
365.73	77.24
365.92	77.24
366.12	77.24
366.32	0.00
366.52	0.00
366.72	0.00
366.91	0.00
367.11	28.09
367.31	0.00
367.51	0.00
367.70	0.00
367.90	0.00
368.10	0.00
368.30	0.00
368.49	0.00
368.69	0.00
368.89	0.00
369.09	0.00
369.28	0.00
369.48	0.00
369.68	0.00
369.87	11.70
370.07	63.19
370.27	35.11
370.47	21.06
370.66	63.19
370.86	60.85
371.06	124.05
371.25	147.45
371.45	105.32
371.65	91.28
371.84	67.88
372.04	107.66
372.24	60.85
372.44	102.98
372.63	107.66
372.83	208.31
373.03	81.92
373.22	86.60
373.42	93.62
373.62	117.03
373.81	152.13
374.01	194.26
374.21	58.51
374.40	161.50
374.60	163.84
374.79	86.60
374.99	128.73
375.19	168.52
375.38	121.71
375.58	191.92
375.78	212.99
375.97	212.99
376.17	147.45
376.37	126.39
376.56	107.66
376.76	74.90
376.95	95.96
377.15	105.32
377.35	117.03
377.54	39.79
377.74	124.05
377.93	166.18
378.13	117.03
378.33	112.35
378.52	191.92
378.72	187.24
378.91	121.71
379.11	149.79
379.31	117.03
379.50	168.52
379.70	114.69
379.89	81.92
380.09	74.90
380.28	74.90
380.48	133.41
380.68	173.20
380.87	112.35
381.07	117.03
381.26	131.07
381.46	201.29
381.65	196.60
381.85	100.64
382.04	81.92
382.24	147.45
382.43	140.43
382.63	100.64
382.83	166.18
383.02	110.01
383.22	170.86
383.41	58.51
383.61	110.01
383.80	170.86
384.00	133.41
384.19	168.52
384.39	184.90
384.58	161.50
384.78	107.66
384.97	88.94
385.17	91.28
385.36	161.50
385.56	135.75
385.75	152.13
385.95	114.69
386.14	140.43
386.34	168.52
386.53	154.48
386.72	138.09
386.92	161.50
387.11	110.01
387.31	142.77
387.50	100.64
387.70	39.79
387.89	93.62
388.09	95.96
388.28	100.64
388.48	114.69
388.67	161.50
388.86	102.98
389.06	140.43
389.25	189.58
389.45	147.45
389.64	170.86
389.84	170.86
390.03	126.39
390.22	133.41
390.42	102.98
390.61	138.09
390.81	124.05
391.00	205.97
391.19	121.71
391.39	182.56
391.58	105.32
391.78	131.07
391.97	135.75
392.16	140.43
392.36	140.43
392.55	166.18
392.75	114.69
392.94	140.43
393.13	121.71
393.33	170.86
393.52	102.98
393.71	187.24
393.91	201.29
394.10	98.30
394.29	138.09
394.49	95.96
394.68	154.48
394.88	205.97
395.07	184.90
395.26	173.20
395.46	170.86
395.65	102.98
395.84	154.48
396.04	201.29
396.23	149.79
396.42	60.85
396.62	105.32
396.81	189.58
397.00	135.75
397.19	198.95
397.39	102.98
397.58	177.88
397.77	98.30
397.97	159.16
398.16	149.79
398.35	187.24
398.55	215.33
398.74	135.75
398.93	198.95
399.12	23.41
399.32	138.09
399.51	161.50
399.70	105.32
399.90	126.39
400.09	177.88
400.28	152.13
400.47	72.56
400.67	212.99
400.86	156.82
401.05	208.31
401.24	203.63
401.44	126.39
401.63	198.95
401.82	222.35
402.01	229.37
402.21	241.08
402.40	210.65
402.59	229.37
402.78	194.26
402.97	187.24
403.17	212.99
403.36	313.63
403.55	362.78
403.74	772.38
403.93	2420.11
404.13	5966.03
404.32	10417.72
404.51	11613.74
404.70	7419.50
404.89	2583.95
405.09	636.63
405.28	365.12
405.47	325.33
405.66	278.52
405.85	332.36
406.05	222.35
406.24	189.58
406.43	271.50
406.62	238.73
406.81	299.59
407.00	374.49
407.20	744.29
407.39	1299.00
407.58	1675.82
407.77	1371.55
407.96	744.29
408.15	313.63
408.34	255.12
408.54	194.26
408.73	236.39
408.92	215.33
409.11	271.50
409.30	212.99
409.49	180.22
409.68	252.78
409.87	208.31
410.07	184.90
410.26	325.33
410.45	210.65
410.64	259.80
410.83	236.39
411.02	154.48
411.21	245.76
411.40	276.18
411.59	262.14
411.78	245.76
411.98	229.37
412.17	196.60
412.36	243.42
412.55	252.78
412.74	290.23
412.93	327.68
413.12	217.67
413.31	271.50
413.50	271.50
413.69	215.33
413.88	220.01
414.07	229.37
414.26	222.35
414.45	234.05
414.64	189.58
414.83	271.50
415.02	264.48
415.22	287.89
415.41	255.12
415.60	306.61
415.79	297.25
415.98	351.08
416.17	301.93
416.36	362.78
416.55	273.84
416.74	257.46
416.93	322.99
417.12	376.83
417.31	290.23
417.50	271.50
417.69	290.23
417.88	294.91
418.07	271.50
418.26	330.02
418.45	337.04
418.64	285.55
418.83	320.65
419.02	369.80
419.21	339.38
419.39	341.72
419.58	278.52
419.77	346.40
419.96	348.74
420.15	278.52
420.34	400.23
420.53	355.76
420.72	376.83
420.91	402.57
421.10	367.46
421.29	414.27
421.48	393.21
421.67	376.83
421.86	337.04
422.05	358.10
422.24	402.57
422.43	362.78
422.61	383.85
422.80	341.72
422.99	360.44
423.18	362.78
423.37	414.27
423.56	425.98
423.75	348.74
423.94	304.27
424.13	372.15
424.32	346.40
424.50	292.57
424.69	358.10
424.88	449.38
425.07	397.89
425.26	353.42
425.45	418.96
425.64	407.25
425.83	409.59
426.01	463.43
426.20	461.09
426.39	423.64
426.58	423.64
426.77	358.10
426.96	416.62
427.15	491.51
427.33	404.91
427.52	414.27
427.71	503.22
427.90	496.19
428.09	418.96
428.28	409.59
428.46	470.45
428.65	510.24
428.84	507.90
429.03	465.77
429.22	442.36
429.40	376.83
429.59	458.74
429.78	444.70
429.97	498.53
430.16	430.66
430.34	451.72
430.53	482.15
430.72	447.04
430.91	470.45
431.10	521.94
431.28	535.98
431.47	498.53
431.66	613.22
431.85	528.96
432.03	538.32
432.22	582.79
432.41	564.07
432.60	575.77
432.79	631.94
432.97	688.12
433.16	615.56
433.35	643.65
433.54	819.19
433.72	976.00
433.91	858.98
434.10	943.24
434.28	1130.48
434.47	1455.81
434.66	1643.06
434.85	1802.21
435.03	4100.62
435.22	14572.18
435.41	37326.86
435.59	52306.29
435.78	42843.51
435.97	18810.89
436.16	7002.88
436.34	2340.54
436.53	1214.74
436.72	976.00
436.90	842.59
437.09	781.74
437.28	690.46
437.46	737.27
437.65	706.84
437.84	660.03
438.02	657.69
438.21	664.71
438.40	678.76
438.58	681.10
438.77	681.10
438.96	653.01
439.14	603.86
439.33	596.84
439.52	580.45
439.70	596.84
439.89	641.31
440.08	622.58
440.26	638.97
440.45	657.69
440.63	678.76
440.82	636.63
441.01	622.58
441.19	641.31
441.38	554.71
441.57	610.88
441.75	711.52
441.94	692.80
442.12	617.90
442.31	622.58
442.50	543.00
442.68	662.37
442.87	636.63
443.05	617.90
443.24	589.82
443.43	622.58
443.61	706.84
443.80	671.73
443.98	580.45
444.17	580.45
444.35	741.95
444.54	671.73
444.73	617.90
444.91	596.84
445.10	617.90
445.28	650.67
445.47	653.01
445.65	683.44
445.84	587.47
446.02	683.44
446.21	610.88
446.39	674.07
446.58	709.18
446.77	648.33
446.95	617.90
447.14	645.99
447.32	650.67
447.51	608.54
447.69	557.05
447.88	552.37
448.06	697.48
448.25	617.90
448.43	599.18
448.62	554.71
448.80	650.67
448.99	636.63
449.17	627.26
449.36	650.67
449.54	601.52
449.73	601.52
449.91	734.93
450.10	622.58
450.28	603.86
450.46	589.82
450.65	657.69
450.83	631.94
451.02	622.58
451.20	547.69
451.39	543.00
451.57	526.62
451.76	545.34
451.94	561.73
452.13	585.13
452.31	655.35
452.49	627.26
452.68	580.45
452.86	617.90
453.05	641.31
453.23	594.50
453.42	557.05
453.60	582.79
453.78	610.88
453.97	627.26
454.15	533.64
454.34	571.09
454.52	599.18
454.70	641.31
454.89	688.12
455.07	585.13
455.26	496.19
455.44	660.03
455.62	624.92
455.81	674.07
455.99	606.20
456.17	620.24
456.36	622.58
456.54	648.33
456.73	678.76
456.91	667.05
457.09	613.22
457.28	547.69
457.46	566.41
457.64	547.69
457.83	573.43
458.01	552.37
458.19	634.29
458.38	533.64
458.56	540.66
458.74	566.41
458.93	575.77
459.11	545.34
459.29	603.86
459.48	678.76
459.66	587.47
459.84	580.45
460.03	650.67
460.21	594.50
460.39	603.86
460.57	676.41
460.76	540.66
460.94	589.82
461.12	648.33
461.31	496.19
461.49	580.45
461.67	589.82
461.85	585.13
462.04	564.07
462.22	711.52
462.40	606.20
462.59	697.48
462.77	533.64
462.95	615.56
463.13	678.76
463.32	585.13
463.50	587.47
463.68	517.26
463.86	631.94
464.05	571.09
464.23	664.71
464.41	596.84
464.59	566.41
464.78	706.84
464.96	645.99
465.14	561.73
465.32	596.84
465.50	681.10
465.69	594.50
465.87	472.79
466.05	550.03
466.23	512.58
466.41	645.99
466.60	613.22
466.78	720.88
466.96	690.46
467.14	676.41
467.32	641.31
467.51	697.48
467.69	578.11
467.87	566.41
468.05	524.28
468.23	524.28
468.41	578.11
468.60	561.73
468.78	533.64
468.96	526.62
469.14	554.71
469.32	545.34
469.50	484.49
469.69	550.03
469.87	475.13
470.05	552.37
470.23	596.84
470.41	592.16
470.59	540.66
470.77	568.75
470.95	524.28
471.14	543.00
471.32	538.32
471.50	641.31
471.68	510.24
471.86	554.71
472.04	575.77
472.22	510.24
472.40	568.75
472.58	674.07
472.77	545.34
472.95	627.26
473.13	699.82
473.31	650.67
473.49	564.07
473.67	580.45
473.85	678.76
474.03	643.65
474.21	528.96
474.39	571.09
474.57	510.24
474.75	575.77
474.93	538.32
475.12	486.83
475.30	566.41
475.48	550.03
475.66	503.22
475.84	603.86
476.02	521.94
476.20	603.86
476.38	587.47
476.56	641.31
476.74	587.47
476.92	543.00
477.10	660.03
477.28	608.54
477.46	627.26
477.64	660.03
477.82	601.52
478.00	634.29
478.18	702.16
478.36	650.67
478.54	664.71
478.72	706.84
478.90	688.12
479.08	765.36
479.26	725.57
479.44	760.67
479.62	753.65
479.80	702.16
479.98	868.34
480.16	744.29
480.34	851.96
480.52	833.23
480.70	1006.43
480.88	901.11
481.06	931.53
481.24	1078.99
481.41	1001.75
481.59	1184.31
481.77	1294.32
481.95	1357.51
482.13	1427.73
482.31	1516.67
482.49	1582.20
482.67	1727.32
482.85	1748.38
483.03	2024.56
483.21	2076.06
483.39	2317.13
483.57	2260.96
483.74	2576.93
483.92	2612.04
484.10	2733.75
484.28	2981.84
484.46	3152.70
484.64	3461.65
484.82	3384.41
485.00	3789.33
485.18	3714.43
485.35	3974.23
485.53	4149.77
485.71	4325.31
485.89	4521.92
486.07	4784.06
486.25	4842.57
486.43	4814.48
486.61	4739.58
486.78	4905.76
486.96	4816.82
487.14	4833.21
487.32	4765.33
487.50	4760.65
487.68	4662.35
487.85	4545.32
488.03	4720.86
488.21	4704.48
488.39	4416.59
488.57	4262.12
488.75	4238.71
488.92	4397.87
489.10	4095.94
489.28	3861.88
489.46	3845.50
489.64	3775.28
489.81	3674.64
489.99	3674.64
490.17	3520.17
490.35	3742.52
490.53	3644.21
490.70	3702.73
490.88	3637.19
491.06	3655.92
491.24	3969.55
491.41	4063.17
491.59	4002.32
491.77	3613.79
491.95	3435.91
492.13	3286.11
492.30	3276.75
492.48	3229.94
492.66	3206.53
492.84	3131.64
493.01	3028.65
493.19	3108.23
493.37	3080.14
493.54	2930.35
493.72	3028.65
493.90	2913.97
494.08	2832.05
494.25	2902.26
494.43	2818.00
494.61	2705.66
494.79	2661.19
494.96	2511.39
495.14	2626.08
495.32	2602.68
495.49	2530.12
495.67	2429.48
495.85	2380.32
496.02	2239.89
496.20	2394.37
496.38	2387.35
496.55	2237.55
496.73	2225.85
496.91	2237.55
497.09	2183.72
497.26	2106.48
497.44	2150.95
497.62	2139.25
497.79	1994.14
497.97	1884.13
498.14	1856.04
498.32	1926.26
498.50	1799.87
498.67	1813.92
498.85	1830.30
499.03	1685.19
499.20	1706.25
499.38	1603.27
499.56	1689.87
499.73	1556.46
499.91	1540.07
500.08	1472.20
500.26	1519.01
500.44	1324.74
500.61	1327.08
500.79	1268.57
500.97	1263.89
501.14	1249.85
501.32	1191.33
501.49	1172.61
501.67	1111.75
501.84	1083.67
502.02	1034.52
502.20	1188.99
502.37	999.41
502.55	1064.94
502.72	978.34
502.90	943.24
503.07	968.98
503.25	849.61
503.43	858.98
503.60	849.61
503.78	936.21
503.95	844.93
504.13	791.10
504.30	830.89
504.48	777.06
504.65	828.55
504.83	854.30
505.01	779.40
505.18	777.06
505.36	793.44
505.53	653.01
505.71	678.76
505.88	702.16
506.06	669.39
506.23	636.63
506.41	655.35
506.58	631.94
506.76	674.07
506.93	603.86
507.11	634.29
507.28	580.45
507.46	601.52
507.63	730.25
507.81	566.41
507.98	540.66
508.16	629.60
508.33	641.31
508.50	606.20
508.68	615.56
508.85	575.77
509.03	676.41
509.20	655.35
509.38	720.88
509.55	720.88
509.73	627.26
509.90	634.29
510.08	594.50
510.25	550.03
510.42	571.09
510.60	596.84
510.77	610.88
510.95	589.82
511.12	507.90
511.30	526.62
511.47	624.92
511.64	585.13
511.82	566.41
511.99	545.34
512.17	531.30
512.34	482.15
512.51	482.15
512.69	606.20
512.86	617.90
513.04	535.98
513.21	528.96
513.38	533.64
513.56	550.03
513.73	430.66
513.90	491.51
514.08	498.53
514.25	503.22
514.43	561.73
514.60	447.04
514.77	430.66
514.95	369.80
515.12	430.66
515.29	372.15
515.47	440.02
515.64	491.51
515.81	475.13
515.99	594.50
516.16	456.40
516.33	489.17
516.51	472.79
516.68	484.49
516.85	421.30
517.03	395.55
517.20	507.90
517.37	491.51
517.54	430.66
517.72	425.98
517.89	421.30
518.06	416.62
518.24	465.77
518.41	430.66
518.58	456.40
518.75	409.59
518.93	491.51
519.10	472.79
519.27	456.40
519.45	444.70
519.62	454.06
519.79	461.09
519.96	477.47
520.14	409.59
520.31	477.47
520.48	531.30
520.65	472.79
520.83	500.87
521.00	428.32
521.17	411.93
521.34	404.91
521.52	435.34
521.69	383.85
521.86	437.68
522.03	444.70
522.20	454.06
522.38	379.17
522.55	407.25
522.72	409.59
522.89	454.06
523.07	472.79
523.24	430.66
523.41	461.09
523.58	433.00
523.75	407.25
523.92	472.79
524.10	407.25
524.27	449.38
524.44	421.30
524.61	437.68
524.78	369.80
524.96	491.51
525.13	535.98
525.30	465.77
525.47	470.45
525.64	463.43
525.81	437.68
525.98	500.87
526.16	463.43
526.33	449.38
526.50	444.70
526.67	456.40
526.84	540.66
527.01	484.49
527.18	510.24
527.36	550.03
527.53	725.57
527.70	697.48
527.87	601.52
528.04	566.41
528.21	482.15
528.38	575.77
528.55	575.77
528.72	601.52
528.89	557.05
529.07	564.07
529.24	559.39
529.41	580.45
529.58	575.77
529.75	676.41
529.92	634.29
530.09	760.67
530.26	592.16
530.43	711.52
530.60	671.73
530.77	676.41
530.94	704.50
531.11	720.88
531.28	748.97
531.46	695.14
531.63	814.51
531.80	795.78
531.97	943.24
532.14	1109.41
532.31	1301.34
532.48	1479.22
532.65	1783.49
532.82	1954.35
532.99	2260.96
533.16	2743.11
533.33	2995.89
533.50	2733.75
533.67	2347.56
533.84	1912.22
534.01	1771.79
534.18	1589.22
534.35	1570.50
534.52	1540.07
534.69	1661.78
534.86	1629.01
535.03	1746.04
535.20	1851.36
535.37	2005.84
535.54	1996.48
535.71	2059.67
535.88	2352.24
536.05	2429.48
536.22	2597.99
536.38	2916.31
536.55	3112.91
536.72	3492.08
536.89	3716.77
537.06	4313.61
537.23	4774.69
537.40	5455.79
537.57	5687.50
537.74	5984.75
537.91	6235.19
538.08	6345.19
538.25	6429.45
538.42	6689.25
538.59	6827.34
538.75	6906.92
538.92	7339.92
539.09	7735.47
539.26	8819.14
539.43	10169.63
539.60	11452.24
539.77	13205.30
539.94	14410.68
540.11	15992.88
540.28	17652.32
540.44	19220.48
540.61	21186.53
540.78	24049.00
540.95	28898.59
541.12	34857.60
541.29	40835.33
541.46	42607.11
541.62	42529.87
541.79	41305.77
541.96	37628.79
542.13	35585.50
542.30	32676.22
542.47	31005.08
542.63	29359.68
542.80	28208.14
542.97	27875.78
543.14	27466.19
543.31	27323.41
543.48	27864.08
543.64	28362.61
543.81	28343.89
543.98	28102.81
544.15	28573.26
544.32	28849.44
544.48	28982.85
544.65	28584.96
544.82	27658.11
544.99	27833.65
545.16	28716.03
545.32	29350.32
545.49	42483.06
545.66	61118.41
545.83	65535.00
546.00	65535.00
546.16	64025.35
546.33	48175.25
546.50	37273.03
546.67	29219.25
546.83	25717.81
547.00	24730.10
547.17	23978.79
547.34	22555.74
547.50	21593.78
547.67	21270.79
547.84	19625.39
548.00	19559.86
548.17	18476.19
548.34	17984.68
548.51	17256.77
548.67	16367.37
548.84	15676.91
549.01	14974.75
549.18	14193.01
549.34	13767.03
549.51	13050.83
549.68	12545.27
549.84	12035.03
550.01	11417.13
550.18	10806.25
550.34	10434.11
550.51	9994.09
550.68	9392.57
550.84	9067.24
551.01	8449.33
551.18	8009.31
551.34	7564.61
551.51	7262.68
551.68	7033.31
551.84	6647.12
552.01	6377.96
552.18	6270.30
552.34	5989.43
552.51	5799.85
552.68	5528.35
552.84	5317.70
553.01	5144.50
553.18	4987.68
553.34	4660.01
553.51	4592.13
553.67	4428.29
553.84	4241.05
554.01	4191.90
554.17	3707.41
554.34	3489.74
554.51	3262.71
554.67	3133.98
554.84	3014.61
555.00	2848.43
555.17	2682.25
555.33	2478.63
555.50	2399.05
555.67	2272.66
555.83	2172.02
556.00	2204.78
556.16	2225.85
556.33	1912.22
556.50	1914.56
556.66	1827.96
556.83	1762.42
556.99	1710.93
557.16	1703.91
557.32	1708.59
557.49	1519.01
557.65	1519.01
557.82	1504.96
557.98	1462.83
558.15	1364.53
558.32	1364.53
558.48	1291.98
558.65	1369.21
558.81	1235.80
558.98	1266.23
559.14	1313.04
559.31	1191.33
559.47	1219.42
559.64	1186.65
559.80	1205.38
559.97	1160.91
560.13	1025.15
560.30	1102.39
560.46	1086.01
560.63	1097.71
560.79	1095.37
560.96	1067.28
561.12	1100.05
561.29	1057.92
561.45	997.07
561.61	1142.18
561.78	1163.25
561.94	1083.67
562.11	1078.99
562.27	1153.88
562.44	1011.11
562.60	1097.71
562.77	1022.81
562.93	1029.84
563.10	1043.88
563.26	1055.58
563.42	1001.75
563.59	957.28
563.75	931.53
563.92	950.26
564.08	905.79
564.24	936.21
564.41	1039.20
564.57	858.98
564.74	823.87
564.90	791.10
565.07	786.42
565.23	863.66
565.39	777.06
565.56	889.40
565.72	816.85
565.88	763.01
566.05	751.31
566.21	884.72
566.38	830.89
566.54	812.17
566.70	823.87
566.87	781.74
567.03	826.21
567.19	889.40
567.36	821.53
567.52	835.57
567.68	844.93
567.85	910.47
568.01	830.89
568.17	870.68
568.34	908.13
568.50	896.43
568.66	880.04
568.83	929.19
568.99	880.04
569.15	851.96
569.32	711.52
569.48	758.33
569.64	755.99
569.81	746.63
569.97	713.86
570.13	667.05
570.30	580.45
570.46	589.82
570.62	606.20
570.78	596.84
570.95	559.39
571.11	627.26
571.27	636.63
571.43	571.09
571.60	571.09
571.76	561.73
571.92	613.22
572.09	601.52
572.25	653.01
572.41	538.32
572.57	524.28
572.74	648.33
572.90	601.52
573.06	559.39
573.22	676.41
573.38	620.24
573.55	718.54
573.71	692.80
573.87	688.12
574.03	744.29
574.20	709.18
574.36	755.99
574.52	678.76
574.68	772.38
574.84	861.32
575.01	835.57
575.17	926.85
575.33	807.48
575.49	987.71
575.65	1088.35
575.82	1095.37
575.98	1252.19
576.14	1406.66
576.30	2504.37
576.46	7555.25
576.62	16088.84
576.79	23796.23
576.95	17022.72
577.11	9958.98
577.27	6267.95
577.43	4266.80
577.59	2689.28
577.75	2155.63
577.92	1909.88
578.08	1799.87
578.24	2036.27
578.40	2857.79
578.56	7349.28
578.72	14831.97
578.88	22939.59
579.04	16264.38
579.21	9488.53
579.37	6724.36
579.53	5277.91
579.69	4770.01
579.85	5905.17
580.01	7573.97
580.17	7700.36
580.33	6394.34
580.49	5242.80
580.65	4650.64
580.82	4215.30
580.98	4098.28
581.14	3927.42
581.30	4154.45
581.46	4519.57
581.62	4910.44
581.78	5219.39
581.94	5895.81
582.10	5991.77
582.26	6455.20
582.42	6855.43
582.58	7192.47
582.74	6911.60
582.90	7030.97
583.06	7075.44
583.22	7059.06
583.38	7225.23
583.54	7162.04
583.70	7267.36
583.86	7014.59
584.02	6729.04
584.18	6743.08
584.34	6595.63
584.50	6487.96
584.66	6616.69
584.82	6494.99
584.98	6296.04
585.14	6188.38
585.30	6029.22
585.46	6057.31
585.62	5851.34
585.78	5816.23
585.94	5741.33
586.10	5898.15
586.26	6129.86
586.42	7248.64
586.58	8243.37
586.74	10253.89
586.90	12631.87
587.06	14324.08
587.22	14668.14
587.38	13135.09
587.54	11241.59
587.70	9305.97
587.86	7597.38
588.02	6406.05
588.18	5832.62
588.34	5128.11
588.49	4610.86
588.65	4517.23
588.81	4252.75
588.97	4072.53
589.13	3974.23
589.29	3887.63
589.45	3918.06
589.61	3833.80
589.77	3932.10
589.93	3978.91
590.08	3997.64
590.24	4159.13
590.40	4367.44
590.56	4552.34
590.72	4608.51
590.88	4594.47
591.04	4629.58
591.20	4959.60
591.35	5132.79
591.51	5362.17
591.67	5607.92
591.83	5994.11
591.99	6558.18
592.15	7288.43
592.31	7789.30
592.46	8369.76
592.62	9329.38
592.78	9923.87
592.94	10153.24
593.10	10237.50
593.26	9846.63
593.41	8847.22
593.57	8088.89
593.73	7222.89
593.89	6120.50
594.05	5568.13
594.20	5060.24
594.36	4538.30
594.52	4194.24
594.68	3953.16
594.84	3838.48
594.99	3833.80
595.15	3538.89
595.31	3510.80
595.47	3485.06
595.62	3527.19
595.78	3475.70
595.94	3529.53
596.10	3581.02
596.25	3506.12
596.41	3445.27
596.57	3522.51
596.73	3517.83
596.88	3393.78
597.04	3372.71
597.20	3412.50
597.36	3517.83
597.51	3609.11
597.67	3721.45
597.83	3920.40
597.99	4217.65
598.14	4498.51
598.30	4784.06
598.46	5020.45
598.61	5373.87
598.77	5495.58
598.93	5738.99
599.09	6019.86
599.24	6017.52
599.40	6069.01
599.56	5928.58
599.71	5619.63
599.87	5146.84
600.03	4931.51
600.18	4559.36
600.34	4432.97
600.50	4002.32
600.65	3840.82
600.81	3543.57
600.97	3538.89
601.12	3243.98
601.28	3005.25
601.44	3049.72
601.59	2768.85
601.75	2677.57
601.91	2537.14
602.06	2476.29
602.22	2457.56
602.37	2282.02
602.53	2251.60
602.69	2270.32
602.84	2181.38
603.00	2270.32
603.16	2335.85
603.31	2305.43
603.47	2310.11
603.62	2422.45
603.78	2410.75
603.94	2415.43
604.09	2633.10
604.25	2651.83
