SpectraSuite Data File
++++++++++++++++++++++++++++++++++++
Date: Fri Oct 04 11:41:43 GMT-05:00 2013
User: price-jones
Dark Spectrum Present: No
Reference Spectrum Present: No
Number of Sampled Component Spectra: 1
Spectrometers: USB2+H05261
Integration Time (usec): 100000 (USB2+H05261)
Spectra Averaged: 1 (USB2+H05261)
Boxcar Smoothing: 0 (USB2+H05261)
Correct for Electrical Dark: No (USB2+H05261)
Strobe/Lamp Enabled: No (USB2+H05261)
Correct for Detector Non-linearity: No (USB2+H05261)
Correct for Stray Light: No (USB2+H05261)
Number of Pixels in Processed Spectrum: 2048
>>>>>Begin Processed Spectral Data<<<<<
365.73	49.15
365.92	49.15
366.12	49.15
366.32	0.00
366.52	0.00
366.72	0.00
366.91	0.00
367.11	0.00
367.31	0.00
367.51	0.00
367.70	0.00
367.90	0.00
368.10	0.00
368.30	0.00
368.49	0.00
368.69	0.00
368.89	0.00
369.09	0.00
369.28	2.34
369.48	0.00
369.68	2.34
369.87	25.75
370.07	0.00
370.27	0.00
370.47	0.00
370.66	37.45
370.86	93.62
371.06	102.98
371.25	110.01
371.45	65.54
371.65	142.77
371.84	86.60
372.04	81.92
372.24	145.11
372.44	161.50
372.63	70.22
372.83	110.01
373.03	187.24
373.22	86.60
373.42	44.47
373.62	119.37
373.81	159.16
374.01	131.07
374.21	114.69
374.40	91.28
374.60	117.03
374.79	119.37
374.99	166.18
375.19	117.03
375.38	135.75
375.58	163.84
375.78	236.39
375.97	107.66
376.17	154.48
376.37	149.79
376.56	166.18
376.76	131.07
376.95	133.41
377.15	135.75
377.35	205.97
377.54	140.43
377.74	105.32
377.93	128.73
378.13	140.43
378.33	166.18
378.52	142.77
378.72	152.13
378.91	156.82
379.11	86.60
379.31	107.66
379.50	135.75
379.70	154.48
379.89	114.69
380.09	133.41
380.28	102.98
380.48	161.50
380.68	110.01
380.87	156.82
381.07	182.56
381.26	163.84
381.46	161.50
381.65	107.66
381.85	77.24
382.04	224.69
382.24	135.75
382.43	163.84
382.63	135.75
382.83	138.09
383.02	149.79
383.22	135.75
383.41	152.13
383.61	224.69
383.80	182.56
384.00	163.84
384.19	131.07
384.39	95.96
384.58	70.22
384.78	84.26
384.97	105.32
385.17	74.90
385.36	187.24
385.56	175.54
385.75	124.05
385.95	60.85
386.14	102.98
386.34	126.39
386.53	124.05
386.72	112.35
386.92	114.69
387.11	110.01
387.31	210.65
387.50	107.66
387.70	110.01
387.89	159.16
388.09	135.75
388.28	93.62
388.48	84.26
388.67	91.28
388.86	65.54
389.06	147.45
389.25	177.88
389.45	105.32
389.64	60.85
389.84	236.39
390.03	145.11
390.22	131.07
390.42	182.56
390.61	63.19
390.81	152.13
391.00	140.43
391.19	149.79
391.39	177.88
391.58	128.73
391.78	110.01
391.97	142.77
392.16	135.75
392.36	220.01
392.55	175.54
392.75	131.07
392.94	84.26
393.13	177.88
393.33	114.69
393.52	72.56
393.71	175.54
393.91	93.62
394.10	166.18
394.29	107.66
394.49	126.39
394.68	194.26
394.88	217.67
395.07	203.63
395.26	229.37
395.46	142.77
395.65	154.48
395.84	138.09
396.04	187.24
396.23	124.05
396.42	182.56
396.62	163.84
396.81	161.50
397.00	184.90
397.19	168.52
397.39	135.75
397.58	166.18
397.77	147.45
397.97	126.39
398.16	182.56
398.35	156.82
398.55	126.39
398.74	212.99
398.93	138.09
399.12	128.73
399.32	147.45
399.51	156.82
399.70	227.03
399.90	135.75
400.09	189.58
400.28	217.67
400.47	163.84
400.67	161.50
400.86	182.56
401.05	177.88
401.24	227.03
401.44	196.60
401.63	220.01
401.82	152.13
402.01	205.97
402.21	241.08
402.40	266.82
402.59	227.03
402.78	196.60
402.97	234.05
403.17	149.79
403.36	287.89
403.55	409.59
403.74	812.17
403.93	2298.41
404.13	6167.31
404.32	10333.47
404.51	11461.60
404.70	7548.23
404.89	2569.91
405.09	739.61
405.28	388.53
405.47	271.50
405.66	262.14
405.85	271.50
406.05	205.97
406.24	205.97
406.43	229.37
406.62	189.58
406.81	311.29
407.00	386.19
407.20	671.73
407.39	1196.01
407.58	1570.50
407.77	1364.53
407.96	725.57
408.15	294.91
408.34	318.31
408.54	234.05
408.73	187.24
408.92	149.79
409.11	241.08
409.30	241.08
409.49	224.69
409.68	255.12
409.87	271.50
410.07	210.65
410.26	203.63
410.45	177.88
410.64	308.95
410.83	269.16
411.02	290.23
411.21	196.60
411.40	262.14
411.59	266.82
411.78	292.57
411.98	252.78
412.17	271.50
412.36	220.01
412.55	276.18
412.74	276.18
412.93	292.57
413.12	205.97
413.31	255.12
413.50	287.89
413.69	245.76
413.88	351.08
414.07	241.08
414.26	297.25
414.45	306.61
414.64	301.93
414.83	245.76
415.02	180.22
415.22	220.01
415.41	301.93
415.60	266.82
415.79	276.18
415.98	318.31
416.17	290.23
416.36	262.14
416.55	231.71
416.74	330.02
416.93	393.21
417.12	285.55
417.31	346.40
417.50	208.31
417.69	348.74
417.88	290.23
418.07	299.59
418.26	269.16
418.45	304.27
418.64	351.08
418.83	334.70
419.02	348.74
419.21	297.25
419.39	339.38
419.58	203.63
419.77	315.97
419.96	414.27
420.15	365.12
420.34	315.97
420.53	341.72
420.72	372.15
420.91	325.33
421.10	304.27
421.29	423.64
421.48	400.23
421.67	423.64
421.86	376.83
422.05	327.68
422.24	311.29
422.43	341.72
422.61	294.91
422.80	294.91
422.99	330.02
423.18	414.27
423.37	477.47
423.56	327.68
423.75	402.57
423.94	337.04
424.13	360.44
424.32	376.83
424.50	353.42
424.69	442.36
424.88	400.23
425.07	430.66
425.26	430.66
425.45	393.21
425.64	388.53
425.83	360.44
426.01	475.13
426.20	411.93
426.39	416.62
426.58	472.79
426.77	404.91
426.96	411.93
427.15	400.23
427.33	393.21
427.52	418.96
427.71	440.02
427.90	423.64
428.09	470.45
428.28	479.81
428.46	552.37
428.65	407.25
428.84	440.02
429.03	440.02
429.22	461.09
429.40	468.11
429.59	414.27
429.78	461.09
429.97	458.74
430.16	437.68
430.34	503.22
430.53	528.96
430.72	491.51
430.91	578.11
431.10	451.72
431.28	512.58
431.47	566.41
431.66	615.56
431.85	540.66
432.03	535.98
432.22	657.69
432.41	650.67
432.60	634.29
432.79	545.34
432.97	594.50
433.16	704.50
433.35	702.16
433.54	798.12
433.72	997.07
433.91	912.81
434.10	947.92
434.28	1137.50
434.47	1434.75
434.66	1577.52
434.85	1783.49
435.03	4145.09
435.22	14932.62
435.41	37699.01
435.59	53174.63
435.78	44875.09
435.97	19278.99
436.16	6977.14
436.34	2338.20
436.53	1226.44
436.72	1043.88
436.90	863.66
437.09	786.42
437.28	847.27
437.46	695.14
437.65	716.20
437.84	763.01
438.02	723.23
438.21	704.50
438.40	613.22
438.58	622.58
438.77	645.99
438.96	678.76
439.14	660.03
439.33	617.90
439.52	613.22
439.70	706.84
439.89	648.33
440.08	615.56
440.26	641.31
440.45	690.46
440.63	674.07
440.82	606.20
441.01	552.37
441.19	702.16
441.38	655.35
441.57	739.61
441.75	685.78
441.94	643.65
442.12	657.69
442.31	582.79
442.50	725.57
442.68	617.90
442.87	589.82
443.05	662.37
443.24	641.31
443.43	706.84
443.61	634.29
443.80	678.76
443.98	645.99
444.17	636.63
444.35	674.07
444.54	596.84
444.73	674.07
444.91	610.88
445.10	601.52
445.28	552.37
445.47	685.78
445.65	610.88
445.84	601.52
446.02	601.52
446.21	650.67
446.39	709.18
446.58	601.52
446.77	603.86
446.95	603.86
447.14	606.20
447.32	608.54
447.51	580.45
447.69	578.11
447.88	638.97
448.06	657.69
448.25	613.22
448.43	592.16
448.62	615.56
448.80	594.50
448.99	664.71
449.17	622.58
449.36	674.07
449.54	601.52
449.73	648.33
449.91	608.54
450.10	587.47
450.28	629.60
450.46	688.12
450.65	699.82
450.83	582.79
451.02	608.54
451.20	664.71
451.39	681.10
451.57	582.79
451.76	540.66
451.94	615.56
452.13	634.29
452.31	624.92
452.49	528.96
452.68	699.82
452.86	571.09
453.05	685.78
453.23	535.98
453.42	624.92
453.60	660.03
453.78	596.84
453.97	540.66
454.15	571.09
454.34	596.84
454.52	613.22
454.70	667.05
454.89	599.18
455.07	519.60
455.26	606.20
455.44	599.18
455.62	573.43
455.81	627.26
455.99	550.03
456.17	552.37
456.36	624.92
456.54	613.22
456.73	613.22
456.91	531.30
457.09	641.31
457.28	566.41
457.46	620.24
457.64	596.84
457.83	617.90
458.01	566.41
458.19	543.00
458.38	664.71
458.56	636.63
458.74	629.60
458.93	638.97
459.11	557.05
459.29	571.09
459.48	613.22
459.66	620.24
459.84	587.47
460.03	638.97
460.21	648.33
460.39	582.79
460.57	587.47
460.76	564.07
460.94	599.18
461.12	681.10
461.31	645.99
461.49	578.11
461.67	622.58
461.85	559.39
462.04	638.97
462.22	774.72
462.40	641.31
462.59	617.90
462.77	557.05
462.95	573.43
463.13	500.87
463.32	599.18
463.50	559.39
463.68	645.99
463.86	582.79
464.05	573.43
464.23	561.73
464.41	606.20
464.59	601.52
464.78	596.84
464.96	557.05
465.14	596.84
465.32	540.66
465.50	643.65
465.69	603.86
465.87	512.58
466.05	566.41
466.23	592.16
466.41	582.79
466.60	645.99
466.78	636.63
466.96	664.71
467.14	573.43
467.32	587.47
467.51	608.54
467.69	617.90
467.87	587.47
468.05	517.26
468.23	615.56
468.41	528.96
468.60	575.77
468.78	592.16
468.96	505.56
469.14	498.53
469.32	582.79
469.50	468.11
469.69	433.00
469.87	535.98
470.05	519.60
470.23	524.28
470.41	500.87
470.59	540.66
470.77	533.64
470.95	545.34
471.14	587.47
471.32	559.39
471.50	629.60
471.68	564.07
471.86	629.60
472.04	479.81
472.22	617.90
472.40	648.33
472.58	557.05
472.77	535.98
472.95	589.82
473.13	550.03
473.31	589.82
473.49	524.28
473.67	624.92
473.85	510.24
474.03	580.45
474.21	564.07
474.39	528.96
474.57	601.52
474.75	641.31
474.93	554.71
475.12	634.29
475.30	587.47
475.48	521.94
475.66	606.20
475.84	573.43
476.02	472.79
476.20	634.29
476.38	447.04
476.56	690.46
476.74	610.88
476.92	531.30
477.10	559.39
477.28	620.24
477.46	568.75
477.64	622.58
477.82	627.26
478.00	720.88
478.18	634.29
478.36	589.82
478.54	704.50
478.72	669.39
478.90	702.16
479.08	669.39
479.26	723.23
479.44	779.40
479.62	751.31
479.80	833.23
479.98	821.53
480.16	873.02
480.34	924.51
480.52	905.79
480.70	933.87
480.88	943.24
481.06	994.73
481.24	1043.88
481.41	1188.99
481.59	1104.73
481.77	1268.57
481.95	1261.55
482.13	1446.45
482.31	1472.20
482.49	1572.84
482.67	1750.72
482.85	1849.02
483.03	2012.86
483.21	1980.09
483.39	2094.78
483.57	2263.30
483.74	2502.03
483.92	2661.19
484.10	2822.69
484.28	2972.48
484.46	3145.68
484.64	3379.73
484.82	3421.86
485.00	3604.42
485.18	3880.61
485.35	4128.70
485.53	4271.48
485.71	4456.38
485.89	4641.28
486.07	4713.84
486.25	4791.08
486.43	4781.71
486.61	4788.74
486.78	4919.81
486.96	4858.95
487.14	4723.20
487.32	4889.38
487.50	4638.94
487.68	4901.08
487.85	4767.67
488.03	4674.05
488.21	4526.60
488.39	4458.72
488.57	4402.55
488.75	4285.52
488.92	4440.00
489.10	3894.65
489.28	3988.27
489.46	3946.14
489.64	3878.27
489.81	3770.60
489.99	3733.15
490.17	3684.00
490.35	3786.99
490.53	3595.06
490.70	3634.85
490.88	3667.62
491.06	3765.92
491.24	3887.63
491.41	4159.13
491.59	4119.34
491.77	3737.84
491.95	3517.83
492.13	3445.27
492.30	3424.20
492.48	3267.39
492.66	3286.11
492.84	3183.13
493.01	3208.87
493.19	3173.77
493.37	3105.89
493.54	3103.55
493.72	2864.82
493.90	2906.95
494.08	2981.84
494.25	2839.07
494.43	2820.35
494.61	2792.26
494.79	2708.00
494.96	2717.36
495.14	2663.53
495.32	2534.80
495.49	2530.12
495.67	2576.93
495.85	2448.20
496.02	2368.62
496.20	2338.20
496.38	2312.45
496.55	2214.15
496.73	2300.75
496.91	2272.66
497.09	2197.76
497.26	2106.48
497.44	2195.42
497.62	2076.06
497.79	2136.91
497.97	1973.07
498.14	1947.33
498.32	1935.62
498.50	1921.58
498.67	1916.90
498.85	1753.06
499.03	1680.50
499.20	1645.40
499.38	1582.20
499.56	1619.65
499.73	1741.36
499.91	1626.67
500.08	1526.03
500.26	1521.35
500.44	1493.26
500.61	1268.57
500.79	1299.00
500.97	1221.76
501.14	1256.87
501.32	1249.85
501.49	1245.16
501.67	1186.65
501.84	1165.59
502.02	1151.54
502.20	1128.14
502.37	1095.37
502.55	1018.13
502.72	976.00
502.90	936.21
503.07	856.64
503.25	880.04
503.43	812.17
503.60	936.21
503.78	809.83
503.95	751.31
504.13	798.12
504.30	889.40
504.48	875.36
504.65	903.45
504.83	786.42
505.01	802.80
505.18	739.61
505.36	774.72
505.53	711.52
505.71	809.83
505.88	648.33
506.06	622.58
506.23	704.50
506.41	615.56
506.58	648.33
506.76	629.60
506.93	704.50
507.11	674.07
507.28	634.29
507.46	578.11
507.63	697.48
507.81	543.00
507.98	627.26
508.16	575.77
508.33	608.54
508.50	667.05
508.68	610.88
508.85	620.24
509.03	737.27
509.20	636.63
509.38	627.26
509.55	650.67
509.73	645.99
509.90	606.20
510.08	608.54
510.25	519.60
510.42	557.05
510.60	557.05
510.77	713.86
510.95	582.79
511.12	517.26
511.30	669.39
511.47	521.94
511.64	613.22
511.82	552.37
511.99	634.29
512.17	615.56
512.34	554.71
512.51	512.58
512.69	552.37
512.86	575.77
513.04	566.41
513.21	566.41
513.38	557.05
513.56	547.69
513.73	512.58
513.90	566.41
514.08	484.49
514.25	517.26
514.43	447.04
514.60	456.40
514.77	444.70
514.95	514.92
515.12	454.06
515.29	505.56
515.47	538.32
515.64	514.92
515.81	447.04
515.99	521.94
516.16	550.03
516.33	519.60
516.51	561.73
516.68	423.64
516.85	526.62
517.03	519.60
517.20	407.25
517.37	449.38
517.54	489.17
517.72	381.51
517.89	447.04
518.06	442.36
518.24	465.77
518.41	428.32
518.58	468.11
518.75	411.93
518.93	475.13
519.10	461.09
519.27	470.45
519.45	524.28
519.62	456.40
519.79	447.04
519.96	423.64
520.14	517.26
520.31	510.24
520.48	411.93
520.65	362.78
520.83	404.91
521.00	442.36
521.17	444.70
521.34	423.64
521.52	428.32
521.69	390.87
521.86	428.32
522.03	435.34
522.20	451.72
522.38	468.11
522.55	379.17
522.72	379.17
522.89	416.62
523.07	435.34
523.24	351.08
523.41	458.74
523.58	435.34
523.75	472.79
523.92	435.34
524.10	430.66
524.27	433.00
524.44	435.34
524.61	442.36
524.78	444.70
524.96	465.77
525.13	540.66
525.30	465.77
525.47	454.06
525.64	409.59
525.81	528.96
525.98	454.06
526.16	472.79
526.33	456.40
526.50	510.24
526.67	507.90
526.84	519.60
527.01	538.32
527.18	557.05
527.36	582.79
527.53	627.26
527.70	615.56
527.87	582.79
528.04	622.58
528.21	571.09
528.38	582.79
528.55	601.52
528.72	711.52
528.89	615.56
529.07	599.18
529.24	622.58
529.41	620.24
529.58	617.90
529.75	629.60
529.92	627.26
530.09	585.13
530.26	617.90
530.43	676.41
530.60	690.46
530.77	760.67
530.94	788.76
531.11	774.72
531.28	737.27
531.46	730.25
531.63	812.17
531.80	947.92
531.97	983.02
532.14	1046.22
532.31	1315.38
532.48	1640.72
532.65	1776.47
532.82	1874.77
532.99	2286.70
533.16	2663.53
533.33	3077.80
533.50	2923.33
533.67	2443.52
533.84	2022.22
534.01	1820.94
534.18	1636.03
534.35	1650.08
534.52	1610.29
534.69	1671.14
534.86	1750.72
535.03	1764.76
535.20	1853.70
535.37	1940.30
535.54	2080.74
535.71	2101.80
535.88	2314.79
536.05	2567.57
536.22	2654.17
536.38	2974.82
536.55	3169.09
536.72	3513.14
536.89	3983.59
537.06	4376.80
537.23	4643.62
537.40	5355.15
537.57	5849.00
537.74	6183.70
537.91	6256.25
538.08	6682.23
538.25	6511.37
538.42	6490.31
538.59	6794.58
538.75	6829.68
538.92	7452.27
539.09	7934.42
539.26	8992.34
539.43	10246.87
539.60	11377.34
539.77	12947.84
539.94	14298.33
540.11	16177.78
540.28	18125.11
540.44	19414.74
540.61	21556.33
540.78	24645.84
540.95	29420.53
541.12	35077.61
541.29	41642.81
541.46	44409.32
541.62	43292.89
541.79	41305.77
541.96	38689.06
542.13	35517.63
542.30	33074.11
542.47	31005.08
542.63	29752.89
542.80	28659.86
542.97	28460.91
543.14	28105.15
543.31	27875.78
543.48	27953.02
543.64	28032.60
543.81	28638.80
543.98	28371.97
544.15	28664.54
544.32	29198.18
544.48	29284.78
544.65	28678.58
544.82	28465.60
544.99	27875.78
545.16	29106.90
545.32	29993.97
545.49	42689.03
545.66	61436.72
545.83	65535.00
546.00	65535.00
546.16	64338.99
546.33	48865.70
546.50	37488.36
546.67	29322.23
546.83	25804.41
547.00	24847.13
547.17	24009.22
547.34	22829.59
547.50	21783.37
547.67	21238.02
547.84	20533.52
548.00	19564.54
548.17	18750.03
548.34	18188.30
548.51	17341.03
548.67	16570.99
548.84	15683.93
549.01	14881.13
549.18	14125.13
549.34	13720.22
549.51	13083.59
549.68	12500.80
549.84	12042.06
550.01	11749.49
550.18	10937.32
550.34	10509.01
550.51	10115.80
550.68	9558.75
550.84	8980.64
551.01	8723.18
551.18	8177.83
551.34	7805.69
551.51	7623.12
551.68	7279.07
551.84	6827.34
552.01	6698.61
552.18	6399.02
552.34	6043.26
552.51	5837.30
552.68	5472.17
552.84	5310.68
553.01	5050.88
553.18	5001.72
553.34	4800.44
553.51	4702.14
553.67	4498.51
553.84	4344.03
554.01	4077.21
554.17	3892.31
554.34	3574.00
554.51	3323.56
554.67	3098.87
554.84	2956.10
555.00	2729.06
555.17	2810.98
555.33	2518.42
555.50	2424.80
555.67	2345.22
555.83	2172.02
556.00	2115.84
556.16	2256.28
556.33	1895.83
556.50	1839.66
556.66	1842.00
556.83	1675.82
556.99	1659.44
557.16	1673.48
557.32	1732.00
557.49	1600.93
557.65	1497.94
557.82	1448.79
557.98	1460.49
558.15	1430.07
558.32	1401.98
558.48	1364.53
558.65	1263.89
558.81	1359.85
558.98	1336.45
559.14	1135.16
559.31	1170.27
559.47	1203.04
559.64	1191.33
559.80	1144.52
559.97	1172.61
560.13	1165.59
560.30	1104.73
560.46	1074.31
560.63	1118.78
560.79	1111.75
560.96	1090.69
561.12	1032.18
561.29	1111.75
561.45	1125.80
561.61	1090.69
561.78	1167.93
561.94	1043.88
562.11	1001.75
562.27	1097.71
562.44	1029.84
562.60	1095.37
562.77	1048.56
562.93	1174.95
563.10	1027.50
563.26	973.66
563.42	1001.75
563.59	922.17
563.75	976.00
563.92	898.77
564.08	901.11
564.24	844.93
564.41	964.30
564.57	950.26
564.74	880.04
564.90	961.96
565.07	866.00
565.23	908.13
565.39	854.30
565.56	889.40
565.72	844.93
565.88	858.98
566.05	847.27
566.21	837.91
566.38	807.48
566.54	774.72
566.70	898.77
566.87	880.04
567.03	798.12
567.19	840.25
567.36	847.27
567.52	821.53
567.68	901.11
567.85	770.04
568.01	805.14
568.17	800.46
568.34	840.25
568.50	905.79
568.66	866.00
568.83	917.49
568.99	805.14
569.15	858.98
569.32	763.01
569.48	748.97
569.64	758.33
569.81	786.42
569.97	741.95
570.13	692.80
570.30	620.24
570.46	638.97
570.62	648.33
570.78	662.37
570.95	554.71
571.11	568.75
571.27	587.47
571.43	510.24
571.60	585.13
571.76	674.07
571.92	615.56
572.09	580.45
572.25	587.47
572.41	627.26
572.57	653.01
572.74	589.82
572.90	608.54
573.06	582.79
573.22	716.20
573.38	669.39
573.55	723.23
573.71	683.44
573.87	723.23
574.03	648.33
574.20	681.10
574.36	763.01
574.52	819.19
574.68	802.80
574.84	863.66
575.01	821.53
575.17	891.74
575.33	938.55
575.49	1039.20
575.65	1128.14
575.82	1097.71
575.98	1331.76
576.14	1448.79
576.30	2532.46
576.46	7852.50
576.62	16320.56
576.79	24870.53
576.95	17303.58
577.11	9844.29
577.27	6654.14
577.43	4397.87
577.59	2796.94
577.75	2335.85
577.92	2127.55
578.08	1928.60
578.24	2038.61
578.40	2946.73
578.56	7068.42
578.72	14970.07
578.88	23204.07
579.04	15990.54
579.21	9446.40
579.37	6743.08
579.53	5329.40
579.69	4695.11
579.85	5916.87
580.01	7400.77
580.17	7763.56
580.33	6665.85
580.49	5371.53
580.65	4540.64
580.82	4030.40
580.98	4023.38
581.14	4070.19
581.30	4351.06
581.46	4629.58
581.62	5043.85
581.78	5376.21
581.94	5832.62
582.10	6190.72
582.26	6602.65
582.42	6745.42
582.58	6977.14
582.74	7016.93
582.90	7265.02
583.06	7297.79
583.22	7232.26
583.38	7480.35
583.54	7335.24
583.70	7222.89
583.86	7021.61
584.02	6953.73
584.18	6726.70
584.34	6595.63
584.50	6644.78
584.66	6532.44
584.82	6532.44
584.98	6324.13
585.14	6291.36
585.30	6099.44
585.46	5839.64
585.62	5912.19
585.78	5933.26
585.94	5825.59
586.10	6143.91
586.26	6525.41
586.42	7014.59
586.58	8264.43
586.74	10303.04
586.90	13090.62
587.06	14773.46
587.22	14780.48
587.38	13067.21
587.54	11183.08
587.70	9362.14
587.86	7845.48
588.02	6572.22
588.18	5827.93
588.34	5383.23
588.49	4861.29
588.65	4505.53
588.81	4245.73
588.97	4135.73
589.13	4072.53
589.29	4023.38
589.45	3786.99
589.61	3929.76
589.77	3946.14
589.93	3920.40
590.08	3957.85
590.24	4091.26
590.40	4402.55
590.56	4479.79
590.72	4524.26
590.88	4802.78
591.04	4875.34
591.20	4990.02
591.35	5207.69
591.51	5523.66
591.67	5678.14
591.83	6061.99
591.99	6328.81
592.15	7164.38
592.31	7838.45
592.46	8418.91
592.62	9235.75
592.78	9919.19
592.94	10242.18
593.10	10366.23
593.26	9879.40
593.41	9149.15
593.57	8114.64
593.73	7321.20
593.89	6291.36
594.05	5675.80
594.20	4933.85
594.36	4681.07
594.52	4273.82
594.68	4025.72
594.84	3896.99
594.99	3836.14
595.15	3609.11
595.31	3529.53
595.47	3592.72
595.62	3583.36
595.78	3452.29
595.94	3522.51
596.10	3592.72
596.25	3595.06
596.41	3590.38
596.57	3613.79
596.73	3552.93
596.88	3475.70
597.04	3531.87
597.20	3564.64
597.36	3508.46
597.51	3765.92
597.67	3854.86
597.83	4084.23
597.99	4264.46
598.14	4519.57
598.30	4807.46
598.46	4891.72
598.61	5284.93
598.77	5516.64
598.93	5748.36
599.09	5900.49
599.24	6242.21
599.40	6087.73
599.56	5987.09
599.71	5703.89
599.87	5518.98
600.03	4990.02
600.18	4538.30
600.34	4299.56
600.50	4227.01
600.65	3789.33
600.81	3538.89
600.97	3288.45
601.12	3325.90
601.28	3080.14
601.44	2920.99
601.59	2825.03
601.75	2668.21
601.91	2583.95
602.06	2574.59
602.22	2396.71
602.37	2328.83
602.53	2363.94
602.69	2298.41
602.84	2310.11
603.00	2228.19
603.16	2321.81
603.31	2321.81
603.47	2443.52
603.62	2445.86
603.78	2509.05
603.94	2462.24
604.09	2567.57
604.25	2609.70
