SpectraSuite Data File
++++++++++++++++++++++++++++++++++++
Date: Fri Oct 04 11:41:44 GMT-05:00 2013
User: price-jones
Dark Spectrum Present: No
Reference Spectrum Present: No
Number of Sampled Component Spectra: 1
Spectrometers: USB2+H05261
Integration Time (usec): 100000 (USB2+H05261)
Spectra Averaged: 1 (USB2+H05261)
Boxcar Smoothing: 0 (USB2+H05261)
Correct for Electrical Dark: No (USB2+H05261)
Strobe/Lamp Enabled: No (USB2+H05261)
Correct for Detector Non-linearity: No (USB2+H05261)
Correct for Stray Light: No (USB2+H05261)
Number of Pixels in Processed Spectrum: 2048
>>>>>Begin Processed Spectral Data<<<<<
365.73	58.51
365.92	58.51
366.12	58.51
366.32	0.00
366.52	0.00
366.72	0.00
366.91	0.00
367.11	0.00
367.31	0.00
367.51	0.00
367.70	0.00
367.90	0.00
368.10	0.00
368.30	0.00
368.49	0.00
368.69	0.00
368.89	0.00
369.09	0.00
369.28	0.00
369.48	0.00
369.68	0.00
369.87	0.00
370.07	0.00
370.27	0.00
370.47	4.68
370.66	51.49
370.86	67.88
371.06	70.22
371.25	168.52
371.45	107.66
371.65	135.75
371.84	63.19
372.04	91.28
372.24	124.05
372.44	110.01
372.63	159.16
372.83	149.79
373.03	79.58
373.22	124.05
373.42	84.26
373.62	98.30
373.81	63.19
374.01	194.26
374.21	58.51
374.40	110.01
374.60	107.66
374.79	184.90
374.99	107.66
375.19	105.32
375.38	187.24
375.58	161.50
375.78	140.43
375.97	168.52
376.17	170.86
376.37	168.52
376.56	117.03
376.76	133.41
376.95	126.39
377.15	98.30
377.35	156.82
377.54	121.71
377.74	105.32
377.93	124.05
378.13	177.88
378.33	191.92
378.52	102.98
378.72	98.30
378.91	175.54
379.11	138.09
379.31	147.45
379.50	100.64
379.70	86.60
379.89	140.43
380.09	224.69
380.28	95.96
380.48	79.58
380.68	220.01
380.87	173.20
381.07	154.48
381.26	170.86
381.46	72.56
381.65	100.64
381.85	154.48
382.04	102.98
382.24	135.75
382.43	140.43
382.63	124.05
382.83	93.62
383.02	102.98
383.22	159.16
383.41	49.15
383.61	84.26
383.80	77.24
384.00	152.13
384.19	51.49
384.39	81.92
384.58	175.54
384.78	152.13
384.97	149.79
385.17	100.64
385.36	119.37
385.56	159.16
385.75	93.62
385.95	100.64
386.14	140.43
386.34	98.30
386.53	142.77
386.72	117.03
386.92	201.29
387.11	133.41
387.31	243.42
387.50	88.94
387.70	124.05
387.89	145.11
388.09	88.94
388.28	163.84
388.48	112.35
388.67	175.54
388.86	154.48
389.06	147.45
389.25	135.75
389.45	163.84
389.64	177.88
389.84	159.16
390.03	154.48
390.22	163.84
390.42	124.05
390.61	147.45
390.81	74.90
391.00	138.09
391.19	105.32
391.39	117.03
391.58	58.51
391.78	152.13
391.97	124.05
392.16	126.39
392.36	149.79
392.55	121.71
392.75	184.90
392.94	88.94
393.13	126.39
393.33	77.24
393.52	79.58
393.71	156.82
393.91	110.01
394.10	56.17
394.29	91.28
394.49	93.62
394.68	154.48
394.88	138.09
395.07	149.79
395.26	121.71
395.46	88.94
395.65	149.79
395.84	121.71
396.04	250.44
396.23	147.45
396.42	72.56
396.62	182.56
396.81	126.39
397.00	107.66
397.19	72.56
397.39	119.37
397.58	168.52
397.77	140.43
397.97	159.16
398.16	114.69
398.35	140.43
398.55	114.69
398.74	114.69
398.93	175.54
399.12	95.96
399.32	161.50
399.51	107.66
399.70	135.75
399.90	173.20
400.09	117.03
400.28	93.62
400.47	161.50
400.67	159.16
400.86	117.03
401.05	189.58
401.24	145.11
401.44	112.35
401.63	149.79
401.82	189.58
402.01	128.73
402.21	173.20
402.40	128.73
402.59	161.50
402.78	201.29
402.97	196.60
403.17	184.90
403.36	201.29
403.55	236.39
403.74	582.79
403.93	1891.15
404.13	4332.33
404.32	5526.00
404.51	4861.29
404.70	2860.13
404.89	1102.39
405.09	393.21
405.28	212.99
405.47	224.69
405.66	231.71
405.85	236.39
406.05	168.52
406.24	131.07
406.43	189.58
406.62	236.39
406.81	320.65
407.00	344.06
407.20	608.54
407.39	758.33
407.58	847.27
407.77	557.05
407.96	369.80
408.15	180.22
408.34	187.24
408.54	189.58
408.73	222.35
408.92	234.05
409.11	205.97
409.30	194.26
409.49	215.33
409.68	266.82
409.87	229.37
410.07	142.77
410.26	145.11
410.45	138.09
410.64	149.79
410.83	163.84
411.02	180.22
411.21	140.43
411.40	173.20
411.59	203.63
411.78	198.95
411.98	212.99
412.17	121.71
412.36	189.58
412.55	238.73
412.74	198.95
412.93	297.25
413.12	140.43
413.31	201.29
413.50	184.90
413.69	159.16
413.88	234.05
414.07	205.97
414.26	140.43
414.45	95.96
414.64	173.20
414.83	224.69
415.02	252.78
415.22	273.84
415.41	269.16
415.60	217.67
415.79	173.20
415.98	224.69
416.17	236.39
416.36	203.63
416.55	252.78
416.74	220.01
416.93	201.29
417.12	224.69
417.31	217.67
417.50	194.26
417.69	217.67
417.88	234.05
418.07	212.99
418.26	243.42
418.45	208.31
418.64	327.68
418.83	259.80
419.02	241.08
419.21	220.01
419.39	196.60
419.58	276.18
419.77	266.82
419.96	276.18
420.15	220.01
420.34	241.08
420.53	285.55
420.72	252.78
420.91	208.31
421.10	248.10
421.29	255.12
421.48	266.82
421.67	294.91
421.86	227.03
422.05	154.48
422.24	262.14
422.43	262.14
422.61	234.05
422.80	252.78
422.99	255.12
423.18	257.46
423.37	243.42
423.56	292.57
423.75	322.99
423.94	234.05
424.13	250.44
424.32	262.14
424.50	369.80
424.69	264.48
424.88	344.06
425.07	280.86
425.26	250.44
425.45	243.42
425.64	283.20
425.83	299.59
426.01	325.33
426.20	304.27
426.39	318.31
426.58	283.20
426.77	250.44
426.96	299.59
427.15	299.59
427.33	297.25
427.52	257.46
427.71	297.25
427.90	360.44
428.09	332.36
428.28	252.78
428.46	280.86
428.65	285.55
428.84	404.91
429.03	266.82
429.22	320.65
429.40	297.25
429.59	264.48
429.78	299.59
429.97	238.73
430.16	304.27
430.34	348.74
430.53	252.78
430.72	337.04
430.91	308.95
431.10	271.50
431.28	353.42
431.47	358.10
431.66	360.44
431.85	365.12
432.03	287.89
432.22	383.85
432.41	339.38
432.60	435.34
432.79	418.96
432.97	465.77
433.16	414.27
433.35	521.94
433.54	507.90
433.72	550.03
433.91	507.90
434.10	596.84
434.28	702.16
434.47	798.12
434.66	950.26
434.85	1109.41
435.03	3028.65
435.22	11627.78
435.41	24938.41
435.59	25736.53
435.78	16156.72
435.97	8269.11
436.16	3049.72
436.34	1135.16
436.53	741.95
436.72	655.35
436.90	566.41
437.09	475.13
437.28	440.02
437.46	477.47
437.65	526.62
437.84	468.11
438.02	404.91
438.21	458.74
438.40	355.76
438.58	416.62
438.77	458.74
438.96	404.91
439.14	411.93
439.33	486.83
439.52	472.79
439.70	421.30
439.89	425.98
440.08	547.69
440.26	428.32
440.45	397.89
440.63	374.49
440.82	444.70
441.01	402.57
441.19	463.43
441.38	381.51
441.57	365.12
441.75	475.13
441.94	395.55
442.12	402.57
442.31	400.23
442.50	451.72
442.68	402.57
442.87	454.06
443.05	360.44
443.24	365.12
443.43	465.77
443.61	421.30
443.80	411.93
443.98	353.42
444.17	381.51
444.35	383.85
444.54	440.02
444.73	404.91
444.91	402.57
445.10	404.91
445.28	374.49
445.47	447.04
445.65	477.47
445.84	390.87
446.02	381.51
446.21	414.27
446.39	351.08
446.58	416.62
446.77	402.57
446.95	444.70
447.14	365.12
447.32	418.96
447.51	346.40
447.69	404.91
447.88	393.21
448.06	421.30
448.25	383.85
448.43	379.17
448.62	344.06
448.80	433.00
448.99	374.49
449.17	416.62
449.36	320.65
449.54	374.49
449.73	425.98
449.91	444.70
450.10	348.74
450.28	489.17
450.46	365.12
450.65	379.17
450.83	397.89
451.02	400.23
451.20	379.17
451.39	407.25
451.57	308.95
451.76	355.76
451.94	416.62
452.13	418.96
452.31	411.93
452.49	397.89
452.68	393.21
452.86	334.70
453.05	475.13
453.23	475.13
453.42	393.21
453.60	367.46
453.78	454.06
453.97	397.89
454.15	322.99
454.34	348.74
454.52	416.62
454.70	360.44
454.89	421.30
455.07	437.68
455.26	365.12
455.44	423.64
455.62	322.99
455.81	465.77
455.99	393.21
456.17	360.44
456.36	407.25
456.54	402.57
456.73	423.64
456.91	411.93
457.09	404.91
457.28	346.40
457.46	449.38
457.64	449.38
457.83	435.34
458.01	365.12
458.19	337.04
458.38	362.78
458.56	320.65
458.74	318.31
458.93	397.89
459.11	339.38
459.29	308.95
459.48	472.79
459.66	482.15
459.84	433.00
460.03	496.19
460.21	351.08
460.39	435.34
460.57	388.53
460.76	390.87
460.94	393.21
461.12	393.21
461.31	435.34
461.49	407.25
461.67	423.64
461.85	393.21
462.04	355.76
462.22	470.45
462.40	409.59
462.59	465.77
462.77	346.40
462.95	332.36
463.13	276.18
463.32	390.87
463.50	344.06
463.68	369.80
463.86	365.12
464.05	402.57
464.23	395.55
464.41	369.80
464.59	297.25
464.78	451.72
464.96	369.80
465.14	365.12
465.32	393.21
465.50	353.42
465.69	313.63
465.87	346.40
466.05	351.08
466.23	294.91
466.41	369.80
466.60	400.23
466.78	458.74
466.96	360.44
467.14	414.27
467.32	414.27
467.51	414.27
467.69	360.44
467.87	395.55
468.05	353.42
468.23	334.70
468.41	327.68
468.60	339.38
468.78	337.04
468.96	311.29
469.14	346.40
469.32	334.70
469.50	390.87
469.69	374.49
469.87	308.95
470.05	355.76
470.23	344.06
470.41	341.72
470.59	299.59
470.77	372.15
470.95	318.31
471.14	360.44
471.32	339.38
471.50	376.83
471.68	337.04
471.86	325.33
472.04	348.74
472.22	381.51
472.40	311.29
472.58	404.91
472.77	395.55
472.95	454.06
473.13	437.68
473.31	444.70
473.49	322.99
473.67	248.10
473.85	411.93
474.03	416.62
474.21	346.40
474.39	320.65
474.57	435.34
474.75	402.57
474.93	379.17
475.12	276.18
475.30	348.74
475.48	372.15
475.66	344.06
475.84	280.86
476.02	379.17
476.20	411.93
476.38	337.04
476.56	388.53
476.74	397.89
476.92	367.46
477.10	365.12
477.28	404.91
477.46	444.70
477.64	423.64
477.82	451.72
478.00	341.72
478.18	330.02
478.36	414.27
478.54	372.15
478.72	437.68
478.90	477.47
479.08	437.68
479.26	475.13
479.44	475.13
479.62	411.93
479.80	500.87
479.98	505.56
480.16	444.70
480.34	650.67
480.52	587.47
480.70	578.11
480.88	498.53
481.06	573.43
481.24	585.13
481.41	704.50
481.59	751.31
481.77	690.46
481.95	748.97
482.13	807.48
482.31	847.27
482.49	861.32
482.67	1027.50
482.85	1027.50
483.03	1071.97
483.21	1107.07
483.39	1210.06
483.57	1350.49
483.74	1385.60
483.92	1418.36
484.10	1500.28
484.28	1612.63
484.46	1645.40
484.64	1755.40
484.82	1834.98
485.00	1952.01
485.18	2101.80
485.35	2167.34
485.53	2218.83
485.71	2509.05
485.89	2429.48
486.07	2457.56
486.25	2565.23
486.43	2490.33
486.61	2562.89
486.78	2448.20
486.96	2492.67
487.14	2518.42
487.32	2553.52
487.50	2443.52
487.68	2495.01
487.85	2403.73
488.03	2408.41
488.21	2361.60
488.39	2296.07
488.57	2321.81
488.75	2312.45
488.92	2410.75
489.10	2108.82
489.28	2146.27
489.46	1933.28
489.64	1954.35
489.81	1952.01
489.99	1973.07
490.17	1881.79
490.35	2090.10
490.53	1937.96
490.70	1867.75
490.88	1820.94
491.06	1968.39
491.24	2052.65
491.41	2104.14
491.59	1966.05
491.77	1872.43
491.95	1942.64
492.13	1820.94
492.30	1872.43
492.48	1699.23
492.66	1722.63
492.84	1689.87
493.01	1774.13
493.19	1654.76
493.37	1654.76
493.54	1547.09
493.72	1600.93
493.90	1568.16
494.08	1500.28
494.25	1500.28
494.43	1500.28
494.61	1493.26
494.79	1516.67
494.96	1369.21
495.14	1427.73
495.32	1348.15
495.49	1329.42
495.67	1432.41
495.85	1277.93
496.02	1327.08
496.20	1221.76
496.38	1188.99
496.55	1198.35
496.73	1247.51
496.91	1132.82
497.09	1277.93
497.26	1210.06
497.44	1170.27
497.62	1137.50
497.79	1048.56
497.97	1172.61
498.14	1156.22
498.32	1088.35
498.50	1064.94
498.67	1048.56
498.85	990.05
499.03	994.73
499.20	938.55
499.38	976.00
499.56	889.40
499.73	968.98
499.91	912.81
500.08	854.30
500.26	826.21
500.44	727.91
500.61	861.32
500.79	732.59
500.97	767.70
501.14	784.08
501.32	622.58
501.49	758.33
501.67	615.56
501.84	753.65
502.02	566.41
502.20	695.14
502.37	706.84
502.55	674.07
502.72	662.37
502.90	573.43
503.07	615.56
503.25	629.60
503.43	653.01
503.60	538.32
503.78	540.66
503.95	512.58
504.13	454.06
504.30	524.28
504.48	557.05
504.65	564.07
504.83	418.96
505.01	430.66
505.18	514.92
505.36	503.22
505.53	395.55
505.71	463.43
505.88	458.74
506.06	468.11
506.23	491.51
506.41	430.66
506.58	468.11
506.76	430.66
506.93	404.91
507.11	437.68
507.28	337.04
507.46	374.49
507.63	456.40
507.81	444.70
507.98	400.23
508.16	416.62
508.33	491.51
508.50	458.74
508.68	507.90
508.85	449.38
509.03	458.74
509.20	414.27
509.38	374.49
509.55	414.27
509.73	472.79
509.90	472.79
510.08	428.32
510.25	395.55
510.42	390.87
510.60	379.17
510.77	404.91
510.95	374.49
511.12	423.64
511.30	386.19
511.47	421.30
511.64	454.06
511.82	318.31
511.99	430.66
512.17	369.80
512.34	409.59
512.51	425.98
512.69	383.85
512.86	360.44
513.04	442.36
513.21	397.89
513.38	393.21
513.56	330.02
513.73	322.99
513.90	400.23
514.08	358.10
514.25	327.68
514.43	308.95
514.60	397.89
514.77	355.76
514.95	456.40
515.12	322.99
515.29	372.15
515.47	358.10
515.64	362.78
515.81	325.33
515.99	393.21
516.16	393.21
516.33	339.38
516.51	386.19
516.68	374.49
516.85	407.25
517.03	287.89
517.20	416.62
517.37	332.36
517.54	332.36
517.72	367.46
517.89	287.89
518.06	276.18
518.24	313.63
518.41	330.02
518.58	322.99
518.75	362.78
518.93	299.59
519.10	388.53
519.27	332.36
519.45	395.55
519.62	355.76
519.79	315.97
519.96	294.91
520.14	301.93
520.31	383.85
520.48	325.33
520.65	365.12
520.83	344.06
521.00	351.08
521.17	386.19
521.34	327.68
521.52	315.97
521.69	306.61
521.86	337.04
522.03	330.02
522.20	386.19
522.38	369.80
522.55	353.42
522.72	353.42
522.89	388.53
523.07	388.53
523.24	383.85
523.41	351.08
523.58	372.15
523.75	379.17
523.92	365.12
524.10	337.04
524.27	327.68
524.44	430.66
524.61	318.31
524.78	280.86
524.96	390.87
525.13	423.64
525.30	400.23
525.47	421.30
525.64	348.74
525.81	367.46
525.98	365.12
526.16	365.12
526.33	341.72
526.50	376.83
526.67	379.17
526.84	362.78
527.01	369.80
527.18	472.79
527.36	388.53
527.53	463.43
527.70	465.77
527.87	402.57
528.04	461.09
528.21	358.10
528.38	463.43
528.55	435.34
528.72	430.66
528.89	451.72
529.07	365.12
529.24	411.93
529.41	418.96
529.58	479.81
529.75	379.17
529.92	416.62
530.09	344.06
530.26	470.45
530.43	491.51
530.60	421.30
530.77	484.49
530.94	554.71
531.11	571.09
531.28	479.81
531.46	571.09
531.63	557.05
531.80	617.90
531.97	622.58
532.14	662.37
532.31	798.12
532.48	922.17
532.65	1050.90
532.82	1118.78
532.99	1296.66
533.16	1516.67
533.33	1624.33
533.50	1418.36
533.67	1263.89
533.84	1095.37
534.01	1008.77
534.18	924.51
534.35	933.87
534.52	952.60
534.69	1048.56
534.86	952.60
535.03	1020.47
535.20	1025.15
535.37	1107.07
535.54	1174.95
535.71	1245.16
535.88	1350.49
536.05	1345.81
536.22	1563.48
536.38	1652.42
536.55	1757.74
536.72	1970.73
536.89	2092.44
537.06	2443.52
537.23	2455.22
537.40	2874.18
537.57	2977.16
537.74	3199.51
537.91	3290.79
538.08	3267.39
538.25	3316.54
538.42	3400.80
538.59	3510.80
538.75	3616.13
538.92	3925.08
539.09	4093.60
539.26	4739.58
539.43	5268.55
539.60	5930.92
539.77	6595.63
539.94	7405.46
540.11	8149.75
540.28	9083.62
540.44	9837.27
540.61	10803.91
540.78	12461.01
540.95	14871.76
541.12	17657.00
541.29	19899.23
541.46	21380.79
541.62	20704.38
541.79	19826.68
541.96	18583.85
542.13	16961.86
542.30	15967.13
542.47	15206.46
542.63	14427.06
542.80	14045.55
542.97	13572.77
543.14	13568.09
543.31	13509.57
543.48	13783.41
543.64	13919.17
543.81	13884.06
543.98	13841.93
544.15	14328.76
544.32	14193.01
544.48	14462.17
544.65	13834.91
544.82	13944.91
544.99	13764.69
545.16	14225.78
545.32	15138.58
545.49	25530.56
545.66	47580.75
545.83	53563.16
546.00	46466.66
546.16	31768.09
546.33	23789.20
546.50	18029.15
546.67	14354.51
546.83	12685.70
547.00	12388.46
547.17	11426.50
547.34	10927.96
547.50	10747.74
547.67	10310.06
547.84	9720.24
548.00	9371.50
548.17	9083.62
548.34	8802.75
548.51	8629.56
548.67	8198.90
548.84	7786.96
549.01	7300.13
549.18	6984.16
549.34	6846.07
549.51	6373.28
549.68	6286.68
549.84	5961.34
550.01	5750.70
550.18	5387.91
550.34	5256.84
550.51	5048.54
550.68	4648.30
550.84	4552.34
551.01	4468.08
551.18	4009.34
551.34	3791.67
551.51	3772.94
551.68	3606.77
551.84	3585.70
552.01	3375.05
552.18	3321.22
552.34	3096.53
552.51	2906.95
552.68	2815.66
552.84	2738.43
553.01	2544.16
553.18	2665.87
553.34	2553.52
553.51	2382.67
553.67	2373.30
553.84	2289.04
554.01	2052.65
554.17	1954.35
554.34	1928.60
554.51	1832.64
554.67	1682.85
554.84	1577.52
555.00	1476.88
555.17	1434.75
555.33	1322.40
555.50	1242.82
555.67	1224.10
555.83	1163.25
556.00	1193.67
556.16	1231.12
556.33	1067.28
556.50	1064.94
556.66	1100.05
556.83	976.00
556.99	992.39
557.16	954.94
557.32	945.58
557.49	861.32
557.65	887.06
557.82	863.66
557.98	854.30
558.15	828.55
558.32	826.21
558.48	758.33
558.65	784.08
558.81	805.14
558.98	870.68
559.14	772.38
559.31	692.80
559.47	739.61
559.64	674.07
559.80	695.14
559.97	653.01
560.13	720.88
560.30	643.65
560.46	648.33
560.63	648.33
560.79	667.05
560.96	690.46
561.12	641.31
561.29	674.07
561.45	610.88
561.61	648.33
561.78	772.38
561.94	636.63
562.11	655.35
562.27	648.33
562.44	716.20
562.60	643.65
562.77	578.11
562.93	718.54
563.10	543.00
563.26	610.88
563.42	533.64
563.59	610.88
563.75	580.45
563.92	629.60
564.08	566.41
564.24	634.29
564.41	648.33
564.57	580.45
564.74	552.37
564.90	592.16
565.07	505.56
565.23	524.28
565.39	521.94
565.56	521.94
565.72	564.07
565.88	517.26
566.05	585.13
566.21	545.34
566.38	561.73
566.54	531.30
566.70	472.79
566.87	564.07
567.03	461.09
567.19	531.30
567.36	554.71
567.52	608.54
567.68	559.39
567.85	531.30
568.01	472.79
568.17	622.58
568.34	528.96
568.50	599.18
568.66	587.47
568.83	624.92
568.99	517.26
569.15	531.30
569.32	521.94
569.48	465.77
569.64	458.74
569.81	437.68
569.97	507.90
570.13	442.36
570.30	484.49
570.46	374.49
570.62	355.76
570.78	372.15
570.95	404.91
571.11	435.34
571.27	482.15
571.43	353.42
571.60	433.00
571.76	411.93
571.92	414.27
572.09	430.66
572.25	463.43
572.41	400.23
572.57	393.21
572.74	484.49
572.90	486.83
573.06	484.49
573.22	479.81
573.38	482.15
573.55	493.85
573.71	400.23
573.87	461.09
574.03	517.26
574.20	414.27
574.36	433.00
574.52	486.83
574.68	500.87
574.84	531.30
575.01	465.77
575.17	573.43
575.33	594.50
575.49	692.80
575.65	627.26
575.82	732.59
575.98	802.80
576.14	844.93
576.30	1851.36
576.46	5767.08
576.62	9650.03
576.79	9790.46
576.95	6977.14
577.11	4629.58
577.27	3255.69
577.43	2207.13
577.59	1509.65
577.75	1228.78
577.92	1043.88
578.08	1074.31
578.24	1015.79
578.40	1830.30
578.56	5245.14
578.72	8400.18
578.88	9181.92
579.04	6675.21
579.21	4634.26
579.37	3548.25
579.53	2693.96
579.69	2635.44
579.85	3201.85
580.01	3700.39
580.17	3463.99
580.33	3026.31
580.49	2562.89
580.65	2392.03
580.82	2305.43
580.98	2136.91
581.14	2150.95
581.30	2356.92
581.46	2424.80
581.62	2572.25
581.78	2733.75
581.94	3047.38
582.10	3096.53
582.26	3307.18
582.42	3300.16
582.58	3370.37
582.74	3536.55
582.90	3574.00
583.06	3667.62
583.22	3623.15
583.38	3653.58
583.54	3648.90
583.70	3662.94
583.86	3445.27
584.02	3365.69
584.18	3492.08
584.34	3318.88
584.50	3337.60
584.66	3307.18
584.82	3293.13
584.98	3162.06
585.14	3164.40
585.30	3068.44
585.46	2993.55
585.62	2995.89
585.78	3026.31
585.94	3042.70
586.10	3126.96
586.26	3150.36
586.42	3712.09
586.58	4355.74
586.74	5418.34
586.90	6382.64
587.06	6963.09
587.22	6832.02
587.38	6080.71
587.54	5144.50
587.70	4430.63
587.86	3852.52
588.02	3138.66
588.18	2825.03
588.34	2581.61
588.49	2401.39
588.65	2235.21
588.81	2232.87
588.97	2047.97
589.13	2052.65
589.29	1994.14
589.45	1998.82
589.61	1863.07
589.77	1994.14
589.93	2076.06
590.08	2132.23
590.24	2136.91
590.40	2260.96
590.56	2450.54
590.72	2246.91
590.88	2300.75
591.04	2457.56
591.20	2483.31
591.35	2658.85
591.51	2724.38
591.67	2773.53
591.83	3009.93
591.99	3255.69
592.15	3669.96
592.31	3967.21
592.46	4243.39
592.62	4582.77
592.78	4980.66
592.94	5004.07
593.10	4917.47
593.26	4690.43
593.41	4362.76
593.57	3817.41
593.73	3492.08
593.89	3068.44
594.05	2796.94
594.20	2363.94
594.36	2270.32
594.52	2249.25
594.68	2083.08
594.84	1942.64
594.99	2064.35
595.15	1909.88
595.31	1919.24
595.47	1902.86
595.62	1781.15
595.78	1767.10
595.94	1757.74
596.10	1933.28
596.25	1888.81
596.41	1783.49
596.57	1764.76
596.73	1790.51
596.88	1792.85
597.04	1865.41
597.20	1877.11
597.36	1933.28
597.51	1898.17
597.67	1923.92
597.83	2001.16
597.99	2258.62
598.14	2314.79
598.30	2434.16
598.46	2499.69
598.61	2686.94
598.77	2843.75
598.93	2853.11
599.09	2911.63
599.24	3056.74
599.40	2911.63
599.56	2857.79
599.71	2832.05
599.87	2712.68
600.03	2614.38
600.18	2300.75
600.34	2167.34
600.50	2043.29
600.65	1860.73
600.81	1851.36
600.97	1673.48
601.12	1563.48
601.28	1568.16
601.44	1542.41
601.59	1551.78
601.75	1331.76
601.91	1334.11
602.06	1238.14
602.22	1331.76
602.37	1261.55
602.53	1219.42
602.69	1268.57
602.84	1203.04
603.00	1282.61
603.16	1254.53
603.31	1235.80
603.47	1287.29
603.62	1273.25
603.78	1327.08
603.94	1371.55
604.09	1465.18
604.25	1460.49
604.40	1376.24
604.56	1418.36
604.71	1434.75
604.87	1425.39
605.03	1413.68
605.18	1453.47
605.34	1486.24
605.49	1605.61
605.65	1619.65
605.80	1633.69
