SpectraSuite Data File
++++++++++++++++++++++++++++++++++++
Date: Fri Oct 04 11:41:55 GMT-05:00 2013
User: price-jones
Dark Spectrum Present: No
Reference Spectrum Present: No
Number of Sampled Component Spectra: 1
Spectrometers: USB2+H05261
Integration Time (usec): 100000 (USB2+H05261)
Spectra Averaged: 1 (USB2+H05261)
Boxcar Smoothing: 0 (USB2+H05261)
Correct for Electrical Dark: No (USB2+H05261)
Strobe/Lamp Enabled: No (USB2+H05261)
Correct for Detector Non-linearity: No (USB2+H05261)
Correct for Stray Light: No (USB2+H05261)
Number of Pixels in Processed Spectrum: 2048
>>>>>Begin Processed Spectral Data<<<<<
365.73	46.81
365.92	46.81
366.12	46.81
366.32	0.00
366.52	0.00
366.72	7.02
366.91	0.00
367.11	0.00
367.31	0.00
367.51	0.00
367.70	0.00
367.90	0.00
368.10	0.00
368.30	0.00
368.49	0.00
368.69	7.02
368.89	21.06
369.09	0.00
369.28	0.00
369.48	0.00
369.68	0.00
369.87	0.00
370.07	2.34
370.27	46.81
370.47	49.15
370.66	98.30
370.86	46.81
371.06	37.45
371.25	114.69
371.45	74.90
371.65	110.01
371.84	63.19
372.04	56.17
372.24	145.11
372.44	56.17
372.63	140.43
372.83	128.73
373.03	105.32
373.22	95.96
373.42	135.75
373.62	131.07
373.81	182.56
374.01	175.54
374.21	117.03
374.40	102.98
374.60	170.86
374.79	222.35
374.99	105.32
375.19	81.92
375.38	198.95
375.58	161.50
375.78	173.20
375.97	184.90
376.17	156.82
376.37	142.77
376.56	170.86
376.76	102.98
376.95	119.37
377.15	184.90
377.35	135.75
377.54	95.96
377.74	133.41
377.93	154.48
378.13	163.84
378.33	126.39
378.52	196.60
378.72	191.92
378.91	102.98
379.11	112.35
379.31	145.11
379.50	152.13
379.70	133.41
379.89	205.97
380.09	95.96
380.28	112.35
380.48	88.94
380.68	58.51
380.87	53.83
381.07	100.64
381.26	102.98
381.46	121.71
381.65	156.82
381.85	70.22
382.04	138.09
382.24	107.66
382.43	86.60
382.63	112.35
382.83	88.94
383.02	166.18
383.22	217.67
383.41	70.22
383.61	124.05
383.80	102.98
384.00	91.28
384.19	156.82
384.39	154.48
384.58	105.32
384.78	53.83
384.97	102.98
385.17	128.73
385.36	72.56
385.56	154.48
385.75	126.39
385.95	110.01
386.14	168.52
386.34	60.85
386.53	154.48
386.72	98.30
386.92	138.09
387.11	126.39
387.31	117.03
387.50	42.13
387.70	133.41
387.89	110.01
388.09	60.85
388.28	58.51
388.48	161.50
388.67	133.41
388.86	100.64
389.06	117.03
389.25	168.52
389.45	102.98
389.64	110.01
389.84	194.26
390.03	173.20
390.22	117.03
390.42	149.79
390.61	88.94
390.81	149.79
391.00	79.58
391.19	131.07
391.39	163.84
391.58	182.56
391.78	25.75
391.97	135.75
392.16	152.13
392.36	152.13
392.55	170.86
392.75	142.77
392.94	105.32
393.13	159.16
393.33	39.79
393.52	98.30
393.71	168.52
393.91	98.30
394.10	152.13
394.29	156.82
394.49	114.69
394.68	182.56
394.88	147.45
395.07	201.29
395.26	121.71
395.46	107.66
395.65	191.92
395.84	177.88
396.04	152.13
396.23	152.13
396.42	53.83
396.62	210.65
396.81	114.69
397.00	84.26
397.19	124.05
397.39	147.45
397.58	145.11
397.77	140.43
397.97	156.82
398.16	128.73
398.35	182.56
398.55	102.98
398.74	131.07
398.93	91.28
399.12	107.66
399.32	135.75
399.51	154.48
399.70	187.24
399.90	147.45
400.09	133.41
400.28	152.13
400.47	152.13
400.67	236.39
400.86	208.31
401.05	168.52
401.24	222.35
401.44	182.56
401.63	215.33
401.82	241.08
402.01	182.56
402.21	220.01
402.40	280.86
402.59	159.16
402.78	196.60
402.97	231.71
403.17	255.12
403.36	264.48
403.55	390.87
403.74	746.63
403.93	2085.42
404.13	5659.42
404.32	9624.28
404.51	9977.70
404.70	6363.92
404.89	2347.56
405.09	716.20
405.28	325.33
405.47	278.52
405.66	273.84
405.85	339.38
406.05	271.50
406.24	191.92
406.43	182.56
406.62	222.35
406.81	330.02
407.00	325.33
407.20	662.37
407.39	1219.42
407.58	1458.15
407.77	1121.12
407.96	603.86
408.15	294.91
408.34	236.39
408.54	234.05
408.73	140.43
408.92	182.56
409.11	114.69
409.30	236.39
409.49	217.67
409.68	217.67
409.87	201.29
410.07	212.99
410.26	220.01
410.45	168.52
410.64	229.37
410.83	194.26
411.02	194.26
411.21	229.37
411.40	259.80
411.59	306.61
411.78	264.48
411.98	133.41
412.17	194.26
412.36	229.37
412.55	208.31
412.74	234.05
412.93	245.76
413.12	212.99
413.31	264.48
413.50	245.76
413.69	243.42
413.88	243.42
414.07	252.78
414.26	311.29
414.45	287.89
414.64	306.61
414.83	255.12
415.02	294.91
415.22	259.80
415.41	252.78
415.60	236.39
415.79	231.71
415.98	280.86
416.17	299.59
416.36	271.50
416.55	266.82
416.74	381.51
416.93	365.12
417.12	360.44
417.31	334.70
417.50	344.06
417.69	276.18
417.88	255.12
418.07	306.61
418.26	271.50
418.45	334.70
418.64	327.68
418.83	278.52
419.02	330.02
419.21	318.31
419.39	301.93
419.58	315.97
419.77	301.93
419.96	383.85
420.15	259.80
420.34	348.74
420.53	320.65
420.72	376.83
420.91	397.89
421.10	344.06
421.29	334.70
421.48	334.70
421.67	381.51
421.86	311.29
422.05	358.10
422.24	278.52
422.43	311.29
422.61	379.17
422.80	320.65
422.99	348.74
423.18	407.25
423.37	362.78
423.56	390.87
423.75	358.10
423.94	376.83
424.13	386.19
424.32	241.08
424.50	409.59
424.69	334.70
424.88	397.89
425.07	308.95
425.26	283.20
425.45	374.49
425.64	395.55
425.83	386.19
426.01	451.72
426.20	395.55
426.39	442.36
426.58	437.68
426.77	383.85
426.96	360.44
427.15	386.19
427.33	393.21
427.52	390.87
427.71	397.89
427.90	463.43
428.09	390.87
428.28	369.80
428.46	423.64
428.65	449.38
428.84	430.66
429.03	430.66
429.22	454.06
429.40	472.79
429.59	395.55
429.78	489.17
429.97	440.02
430.16	400.23
430.34	409.59
430.53	430.66
430.72	418.96
430.91	496.19
431.10	484.49
431.28	468.11
431.47	456.40
431.66	491.51
431.85	430.66
432.03	566.41
432.22	568.75
432.41	571.09
432.60	526.62
432.79	580.45
432.97	561.73
433.16	671.73
433.35	690.46
433.54	690.46
433.72	847.27
433.91	809.83
434.10	877.70
434.28	1109.41
434.47	1310.70
434.66	1373.89
434.85	1605.61
435.03	3854.86
435.22	13902.78
435.41	35370.18
435.59	48975.71
435.78	37177.07
435.97	16594.40
436.16	6061.99
436.34	2019.88
436.53	1165.59
436.72	954.94
436.90	718.54
437.09	772.38
437.28	760.67
437.46	603.86
437.65	580.45
437.84	636.63
438.02	662.37
438.21	578.11
438.40	641.31
438.58	610.88
438.77	608.54
438.96	587.47
439.14	456.40
439.33	503.22
439.52	545.34
439.70	692.80
439.89	613.22
440.08	519.60
440.26	519.60
440.45	571.09
440.63	610.88
440.82	557.05
441.01	601.52
441.19	620.24
441.38	552.37
441.57	573.43
441.75	580.45
441.94	592.16
442.12	533.64
442.31	603.86
442.50	550.03
442.68	664.71
442.87	596.84
443.05	620.24
443.24	650.67
443.43	629.60
443.61	657.69
443.80	624.92
443.98	559.39
444.17	503.22
444.35	575.77
444.54	554.71
444.73	543.00
444.91	610.88
445.10	568.75
445.28	624.92
445.47	486.83
445.65	603.86
445.84	641.31
446.02	599.18
446.21	578.11
446.39	468.11
446.58	596.84
446.77	589.82
446.95	571.09
447.14	498.53
447.32	500.87
447.51	540.66
447.69	550.03
447.88	603.86
448.06	645.99
448.25	603.86
448.43	655.35
448.62	540.66
448.80	566.41
448.99	479.81
449.17	578.11
449.36	648.33
449.54	540.66
449.73	603.86
449.91	580.45
450.10	533.64
450.28	653.01
450.46	613.22
450.65	573.43
450.83	587.47
451.02	587.47
451.20	557.05
451.39	571.09
451.57	538.32
451.76	582.79
451.94	573.43
452.13	496.19
452.31	568.75
452.49	695.14
452.68	596.84
452.86	571.09
453.05	557.05
453.23	580.45
453.42	493.85
453.60	629.60
453.78	470.45
453.97	564.07
454.15	533.64
454.34	505.56
454.52	526.62
454.70	615.56
454.89	603.86
455.07	561.73
455.26	521.94
455.44	543.00
455.62	510.24
455.81	505.56
455.99	561.73
456.17	503.22
456.36	571.09
456.54	547.69
456.73	535.98
456.91	578.11
457.09	559.39
457.28	573.43
457.46	629.60
457.64	660.03
457.83	622.58
458.01	547.69
458.19	660.03
458.38	578.11
458.56	627.26
458.74	587.47
458.93	552.37
459.11	636.63
459.29	645.99
459.48	603.86
459.66	552.37
459.84	622.58
460.03	660.03
460.21	554.71
460.39	540.66
460.57	641.31
460.76	564.07
460.94	538.32
461.12	638.97
461.31	608.54
461.49	550.03
461.67	550.03
461.85	566.41
462.04	552.37
462.22	964.30
462.40	543.00
462.59	596.84
462.77	561.73
462.95	512.58
463.13	566.41
463.32	486.83
463.50	540.66
463.68	561.73
463.86	564.07
464.05	571.09
464.23	573.43
464.41	524.28
464.59	566.41
464.78	601.52
464.96	575.77
465.14	573.43
465.32	547.69
465.50	533.64
465.69	578.11
465.87	552.37
466.05	573.43
466.23	559.39
466.41	550.03
466.60	610.88
466.78	552.37
466.96	699.82
467.14	596.84
467.32	575.77
467.51	573.43
467.69	571.09
467.87	650.67
468.05	585.13
468.23	540.66
468.41	566.41
468.60	486.83
468.78	566.41
468.96	496.19
469.14	571.09
469.32	461.09
469.50	505.56
469.69	564.07
469.87	517.26
470.05	505.56
470.23	465.77
470.41	472.79
470.59	454.06
470.77	456.40
470.95	451.72
471.14	564.07
471.32	465.77
471.50	510.24
471.68	592.16
471.86	547.69
472.04	507.90
472.22	561.73
472.40	617.90
472.58	505.56
472.77	496.19
472.95	557.05
473.13	528.96
473.31	613.22
473.49	475.13
473.67	559.39
473.85	519.60
474.03	498.53
474.21	543.00
474.39	470.45
474.57	589.82
474.75	517.26
474.93	500.87
475.12	477.47
475.30	514.92
475.48	500.87
475.66	510.24
475.84	547.69
476.02	557.05
476.20	582.79
476.38	585.13
476.56	699.82
476.74	587.47
476.92	547.69
477.10	486.83
477.28	592.16
477.46	573.43
477.64	557.05
477.82	517.26
478.00	561.73
478.18	657.69
478.36	676.41
478.54	608.54
478.72	580.45
478.90	613.22
479.08	688.12
479.26	657.69
479.44	638.97
479.62	737.27
479.80	702.16
479.98	737.27
480.16	709.18
480.34	866.00
480.52	774.72
480.70	793.44
480.88	880.04
481.06	990.05
481.24	978.34
481.41	1027.50
481.59	1046.22
481.77	1186.65
481.95	1210.06
482.13	1413.68
482.31	1411.34
482.49	1343.47
482.67	1607.95
482.85	1556.46
483.03	1952.01
483.21	1963.71
483.39	2052.65
483.57	2113.50
483.74	2356.92
483.92	2506.71
484.10	2441.18
484.28	2661.19
484.46	2918.65
484.64	2977.16
484.82	3148.02
485.00	3222.92
485.18	3400.80
485.35	3679.32
485.53	4018.70
485.71	4119.34
485.89	4156.79
486.07	4334.67
486.25	4334.67
486.43	4280.84
486.61	4322.97
486.78	4404.89
486.96	4280.84
487.14	4559.36
487.32	4519.57
487.50	4243.39
487.68	4395.53
487.85	4308.93
488.03	4222.33
488.21	4114.66
488.39	4007.00
488.57	4128.70
488.75	3866.56
488.92	4159.13
489.10	3749.54
489.28	3585.70
489.46	3557.61
489.64	3410.16
489.81	3482.72
489.99	3363.35
490.17	3435.91
490.35	3459.31
490.53	3262.71
490.70	3424.20
490.88	3300.16
491.06	3412.50
491.24	3644.21
491.41	3808.05
491.59	3688.68
491.77	3361.01
491.95	3241.64
492.13	3052.06
492.30	3021.63
492.48	2867.16
492.66	2920.99
492.84	2925.67
493.01	3012.27
493.19	2857.79
493.37	2745.45
493.54	2733.75
493.72	2729.06
493.90	2583.95
494.08	2605.02
494.25	2562.89
494.43	2602.68
494.61	2457.56
494.79	2455.22
494.96	2408.41
495.14	2291.38
495.32	2319.47
495.49	2293.72
495.67	2342.88
495.85	2228.19
496.02	2157.97
496.20	2118.18
496.38	2232.87
496.55	2099.46
496.73	2111.16
496.91	1928.60
497.09	1984.77
497.26	1926.26
497.44	1921.58
497.62	1905.20
497.79	1788.17
497.97	1839.66
498.14	1811.57
498.32	1746.04
498.50	1687.53
498.67	1598.59
498.85	1554.12
499.03	1528.37
499.20	1507.30
499.38	1469.86
499.56	1514.33
499.73	1490.92
499.91	1504.96
500.08	1455.81
500.26	1348.15
500.44	1245.16
500.61	1329.42
500.79	1186.65
500.97	1235.80
501.14	1203.04
501.32	1132.82
501.49	1114.10
501.67	1139.84
501.84	1022.81
502.02	987.71
502.20	1027.50
502.37	1043.88
502.55	947.92
502.72	856.64
502.90	877.70
503.07	901.11
503.25	884.72
503.43	844.93
503.60	755.99
503.78	814.51
503.95	802.80
504.13	753.65
504.30	706.84
504.48	786.42
504.65	683.44
504.83	732.59
505.01	683.44
505.18	706.84
505.36	664.71
505.53	627.26
505.71	627.26
505.88	702.16
506.06	638.97
506.23	720.88
506.41	566.41
506.58	622.58
506.76	648.33
506.93	545.34
507.11	624.92
507.28	582.79
507.46	610.88
507.63	599.18
507.81	543.00
507.98	543.00
508.16	578.11
508.33	550.03
508.50	615.56
508.68	664.71
508.85	664.71
509.03	683.44
509.20	660.03
509.38	655.35
509.55	627.26
509.73	521.94
509.90	578.11
510.08	526.62
510.25	580.45
510.42	538.32
510.60	589.82
510.77	545.34
510.95	524.28
511.12	477.47
511.30	552.37
511.47	545.34
511.64	505.56
511.82	507.90
511.99	568.75
512.17	498.53
512.34	514.92
512.51	517.26
512.69	634.29
512.86	564.07
513.04	461.09
513.21	585.13
513.38	507.90
513.56	461.09
513.73	470.45
513.90	482.15
514.08	433.00
514.25	449.38
514.43	477.47
514.60	388.53
514.77	470.45
514.95	470.45
515.12	451.72
515.29	423.64
515.47	454.06
515.64	482.15
515.81	428.32
515.99	475.13
516.16	463.43
516.33	475.13
516.51	433.00
516.68	486.83
516.85	433.00
517.03	454.06
517.20	498.53
517.37	430.66
517.54	468.11
517.72	461.09
517.89	428.32
518.06	397.89
518.24	463.43
518.41	442.36
518.58	404.91
518.75	416.62
518.93	365.12
519.10	362.78
519.27	367.46
519.45	461.09
519.62	395.55
519.79	491.51
519.96	447.04
520.14	416.62
520.31	500.87
520.48	451.72
520.65	381.51
520.83	435.34
521.00	407.25
521.17	468.11
521.34	447.04
521.52	421.30
521.69	421.30
521.86	400.23
522.03	383.85
522.20	475.13
522.38	409.59
522.55	444.70
522.72	355.76
522.89	437.68
523.07	510.24
523.24	416.62
523.41	440.02
523.58	465.77
523.75	402.57
523.92	404.91
524.10	447.04
524.27	503.22
524.44	454.06
524.61	433.00
524.78	425.98
524.96	442.36
525.13	437.68
525.30	470.45
525.47	531.30
525.64	442.36
525.81	503.22
525.98	461.09
526.16	484.49
526.33	540.66
526.50	400.23
526.67	559.39
526.84	505.56
527.01	505.56
527.18	505.56
527.36	608.54
527.53	582.79
527.70	662.37
527.87	526.62
528.04	552.37
528.21	578.11
528.38	531.30
528.55	552.37
528.72	622.58
528.89	603.86
529.07	573.43
529.24	606.20
529.41	678.76
529.58	568.75
529.75	561.73
529.92	610.88
530.09	620.24
530.26	582.79
530.43	685.78
530.60	643.65
530.77	669.39
530.94	657.69
531.11	720.88
531.28	737.27
531.46	732.59
531.63	695.14
531.80	812.17
531.97	929.19
532.14	1069.62
532.31	1135.16
532.48	1310.70
532.65	1626.67
532.82	1792.85
532.99	2160.31
533.16	2504.37
533.33	2747.79
533.50	2523.10
533.67	2024.56
533.84	1870.09
534.01	1624.33
534.18	1540.07
534.35	1481.56
534.52	1511.99
534.69	1540.07
534.86	1547.09
535.03	1488.58
535.20	1792.85
535.37	1783.49
535.54	1839.66
535.71	1937.96
535.88	2106.48
536.05	2204.78
536.22	2399.05
536.38	2504.37
536.55	2867.16
536.72	3066.10
536.89	3503.78
537.06	3918.06
537.23	4430.63
537.40	4610.86
537.57	5404.30
537.74	5530.69
537.91	5785.80
538.08	5923.90
538.25	5893.47
538.42	6005.81
538.59	6267.95
538.75	6162.63
538.92	6764.15
539.09	7332.90
539.26	8131.02
539.43	9111.71
539.60	10359.21
539.77	11756.51
539.94	13261.48
540.11	14384.93
540.28	16491.41
540.44	17888.71
540.61	19491.98
540.78	21937.84
540.95	26260.81
541.12	31952.99
541.29	36961.74
541.46	38841.19
541.62	38450.32
541.79	36975.78
541.96	34146.08
542.13	32037.25
542.30	29589.05
542.47	27730.67
542.63	26354.43
542.80	25315.23
542.97	24809.68
543.14	24559.24
543.31	24620.10
543.48	24685.63
543.64	25315.23
543.81	25394.81
543.98	25806.75
544.15	26017.40
544.32	26345.07
544.48	26328.69
544.65	25921.43
544.82	25582.06
544.99	25518.86
545.16	26202.30
545.32	27328.10
545.49	39000.35
545.66	59531.53
545.83	65535.00
546.00	65535.00
546.16	61577.15
546.33	44538.05
546.50	34422.26
546.67	26525.29
546.83	23744.73
547.00	22735.96
547.17	21888.69
547.34	20585.01
547.50	19667.52
547.67	19084.73
547.84	18319.37
548.00	17867.65
548.17	17060.16
548.34	16140.33
548.51	15838.41
548.67	14796.87
548.84	14097.05
549.01	13467.44
549.18	12891.67
549.34	12449.31
549.51	11868.86
549.68	11566.93
549.84	11157.33
550.01	10714.97
550.18	10099.41
550.34	9504.92
550.51	8990.00
550.68	8514.87
550.84	7875.90
551.01	7761.22
551.18	7377.37
551.34	7042.67
551.51	6689.25
551.68	6399.02
551.84	6260.93
552.01	5895.81
552.18	5832.62
552.34	5472.17
552.51	5200.67
552.68	5055.56
552.84	4875.34
553.01	4521.92
553.18	4557.02
553.34	4383.82
553.51	4285.52
553.67	4067.85
553.84	4065.51
554.01	3754.22
554.17	3447.61
554.34	3089.51
554.51	2932.69
554.67	2920.99
554.84	2792.26
555.00	2567.57
555.17	2462.24
555.33	2370.96
555.50	2263.30
555.67	2169.68
555.83	1994.14
556.00	1884.13
556.16	1961.37
556.33	1844.34
556.50	1757.74
556.66	1661.78
556.83	1673.48
556.99	1659.44
557.16	1535.39
557.32	1497.94
557.49	1490.92
557.65	1355.17
557.82	1310.70
557.98	1313.04
558.15	1289.64
558.32	1320.06
558.48	1263.89
558.65	1357.51
558.81	1277.93
558.98	1214.74
559.14	1158.57
559.31	1156.22
559.47	1086.01
559.64	1067.28
559.80	1102.39
559.97	1011.11
560.13	992.39
560.30	1046.22
560.46	1027.50
560.63	929.19
560.79	1001.75
560.96	1041.54
561.12	943.24
561.29	985.37
561.45	1078.99
561.61	1057.92
561.78	1174.95
561.94	964.30
562.11	992.39
562.27	985.37
562.44	1083.67
562.60	1069.62
562.77	889.40
562.93	980.68
563.10	1032.18
563.26	933.87
563.42	1050.90
563.59	947.92
563.75	910.47
563.92	931.53
564.08	814.51
564.24	891.74
564.41	809.83
564.57	765.36
564.74	849.61
564.90	873.02
565.07	760.67
565.23	767.70
565.39	854.30
565.56	840.25
565.72	770.04
565.88	791.10
566.05	748.97
566.21	702.16
566.38	737.27
566.54	755.99
566.70	791.10
566.87	814.51
567.03	774.72
567.19	777.06
567.36	779.40
567.52	758.33
567.68	791.10
567.85	774.72
568.01	720.88
568.17	823.87
568.34	830.89
568.50	875.36
568.66	802.80
568.83	835.57
568.99	741.95
569.15	786.42
569.32	709.18
569.48	767.70
569.64	669.39
569.81	650.67
569.97	704.50
570.13	685.78
570.30	519.60
570.46	592.16
570.62	531.30
570.78	540.66
570.95	486.83
571.11	568.75
571.27	594.50
571.43	554.71
571.60	568.75
571.76	561.73
571.92	543.00
572.09	568.75
572.25	606.20
572.41	564.07
572.57	554.71
572.74	643.65
572.90	564.07
573.06	594.50
573.22	711.52
573.38	615.56
573.55	638.97
573.71	688.12
573.87	643.65
574.03	660.03
574.20	638.97
574.36	732.59
574.52	636.63
574.68	685.78
574.84	837.91
575.01	777.06
575.17	858.98
575.33	877.70
575.49	973.66
575.65	1088.35
575.82	1069.62
575.98	1177.29
576.14	1301.34
576.30	2303.09
576.46	7206.51
576.62	15386.68
576.79	22548.72
576.95	15180.71
577.11	8868.29
577.27	5961.34
577.43	3971.89
577.59	2647.15
577.75	2043.29
577.92	1856.04
578.08	1724.97
578.24	1727.32
578.40	2689.28
578.56	6923.30
578.72	14841.34
578.88	20617.78
579.04	14185.99
579.21	8664.66
579.37	6171.99
579.53	4723.20
579.69	4304.25
579.85	5334.08
580.01	6555.84
580.17	6661.16
580.33	5799.85
580.49	4882.36
580.65	4236.37
580.82	3686.34
580.98	3756.56
581.14	3721.45
581.30	3899.33
581.46	4084.23
581.62	4547.66
581.78	4812.14
581.94	5338.76
582.10	5706.23
582.26	6069.01
582.42	6256.25
582.58	6347.53
582.74	6338.17
582.90	6324.13
583.06	6483.28
583.22	6546.48
583.38	6497.33
583.54	6497.33
583.70	6602.65
583.86	6567.54
584.02	6179.01
584.18	6216.46
584.34	5895.81
584.50	5949.64
584.66	6040.92
584.82	5916.87
584.98	5685.16
585.14	5715.59
585.30	5516.64
585.46	5416.00
585.62	5247.48
585.78	5448.77
585.94	5507.28
586.10	5518.98
586.26	5776.44
586.42	6476.26
586.58	7473.33
586.74	9387.89
586.90	11468.62
587.06	12662.30
587.22	13029.76
587.38	11690.98
587.54	10171.97
587.70	8329.97
587.86	7166.72
588.02	6118.16
588.18	5380.89
588.34	4826.18
588.49	4292.54
588.65	4095.94
588.81	3911.04
588.97	3691.02
589.13	3595.06
589.29	3653.58
589.45	3279.09
589.61	3492.08
589.77	3545.91
589.93	3620.81
590.08	3693.37
590.24	3648.90
590.40	3962.53
590.56	3985.93
590.72	4109.98
590.88	4273.82
591.04	4358.08
591.20	4613.20
591.35	4734.90
591.51	4938.53
591.67	4968.96
591.83	5401.96
591.99	5813.89
592.15	6183.70
592.31	6925.65
592.46	7576.31
592.62	8177.83
592.78	8807.44
592.94	9195.96
593.10	9294.27
593.26	8872.97
593.41	7925.05
593.57	7297.79
593.73	6480.94
593.89	5654.73
594.05	4966.62
594.20	4418.93
594.36	4189.56
594.52	3756.56
594.68	3655.92
594.84	3489.74
594.99	3475.70
595.15	3258.03
595.31	3290.79
595.47	3150.36
595.62	3201.85
595.78	3215.90
595.94	3229.94
596.10	3194.83
596.25	3143.34
596.41	3098.87
596.57	3211.22
596.73	3091.85
596.88	3094.19
597.04	3201.85
597.20	3169.09
597.36	3316.54
597.51	3288.45
597.67	3424.20
597.83	3637.19
597.99	3967.21
598.14	4196.58
598.30	4318.29
598.46	4505.53
598.61	4861.29
598.77	5078.96
598.93	5247.48
599.09	5399.62
599.24	5643.03
599.40	5626.65
599.56	5350.46
599.71	5095.35
599.87	4908.10
600.03	4617.88
600.18	4259.78
600.34	3906.35
600.50	3637.19
600.65	3473.36
600.81	3293.13
600.97	3117.59
601.12	3066.10
601.28	2785.24
601.44	2562.89
601.59	2607.36
601.75	2558.21
601.91	2249.25
602.06	2244.57
602.22	2319.47
602.37	2169.68
602.53	2085.42
602.69	2078.40
602.84	2085.42
603.00	2136.91
603.16	2176.70
603.31	2153.29
603.47	2165.00
603.62	2296.07
603.78	2190.74
603.94	2338.20
604.09	2314.79
604.25	2345.22
604.40	2436.50
604.56	2394.37
