SpectraSuite Data File
++++++++++++++++++++++++++++++++++++
Date: Fri Oct 04 11:42:15 GMT-05:00 2013
User: price-jones
Dark Spectrum Present: No
Reference Spectrum Present: No
Number of Sampled Component Spectra: 1
Spectrometers: USB2+H05261
Integration Time (usec): 100000 (USB2+H05261)
Spectra Averaged: 1 (USB2+H05261)
Boxcar Smoothing: 0 (USB2+H05261)
Correct for Electrical Dark: No (USB2+H05261)
Strobe/Lamp Enabled: No (USB2+H05261)
Correct for Detector Non-linearity: No (USB2+H05261)
Correct for Stray Light: No (USB2+H05261)
Number of Pixels in Processed Spectrum: 2048
>>>>>Begin Processed Spectral Data<<<<<
365.73	84.26
365.92	84.26
366.12	84.26
366.32	0.00
366.52	0.00
366.72	0.00
366.91	0.00
367.11	0.00
367.31	0.00
367.51	0.00
367.70	0.00
367.90	0.00
368.10	0.00
368.30	0.00
368.49	0.00
368.69	21.06
368.89	0.00
369.09	0.00
369.28	0.00
369.48	0.00
369.68	18.72
369.87	0.00
370.07	0.00
370.27	35.11
370.47	16.38
370.66	196.60
370.86	227.03
371.06	262.14
371.25	278.52
371.45	259.80
371.65	262.14
371.84	245.76
372.04	222.35
372.24	325.33
372.44	297.25
372.63	283.20
372.83	259.80
373.03	252.78
373.22	210.65
373.42	245.76
373.62	264.48
373.81	255.12
374.01	332.36
374.21	301.93
374.40	273.84
374.60	278.52
374.79	273.84
374.99	311.29
375.19	327.68
375.38	276.18
375.58	327.68
375.78	353.42
375.97	337.04
376.17	395.55
376.37	369.80
376.56	325.33
376.76	280.86
376.95	383.85
377.15	346.40
377.35	390.87
377.54	397.89
377.74	365.12
377.93	351.08
378.13	411.93
378.33	376.83
378.52	390.87
378.72	400.23
378.91	374.49
379.11	369.80
379.31	379.17
379.50	318.31
379.70	376.83
379.89	353.42
380.09	292.57
380.28	388.53
380.48	388.53
380.68	428.32
380.87	376.83
381.07	339.38
381.26	409.59
381.46	311.29
381.65	292.57
381.85	294.91
382.04	308.95
382.24	257.46
382.43	327.68
382.63	236.39
382.83	299.59
383.02	355.76
383.22	271.50
383.41	248.10
383.61	231.71
383.80	325.33
384.00	374.49
384.19	243.42
384.39	313.63
384.58	351.08
384.78	341.72
384.97	381.51
385.17	318.31
385.36	348.74
385.56	285.55
385.75	297.25
385.95	339.38
386.14	449.38
386.34	374.49
386.53	337.04
386.72	304.27
386.92	330.02
387.11	334.70
387.31	365.12
387.50	341.72
387.70	346.40
387.89	404.91
388.09	388.53
388.28	367.46
388.48	327.68
388.67	353.42
388.86	376.83
389.06	433.00
389.25	390.87
389.45	409.59
389.64	433.00
389.84	491.51
390.03	475.13
390.22	461.09
390.42	477.47
390.61	491.51
390.81	475.13
391.00	538.32
391.19	601.52
391.39	496.19
391.58	465.77
391.78	498.53
391.97	486.83
392.16	395.55
392.36	353.42
392.55	369.80
392.75	271.50
392.94	227.03
393.13	292.57
393.33	301.93
393.52	344.06
393.71	348.74
393.91	449.38
394.10	337.04
394.29	477.47
394.49	517.26
394.68	578.11
394.88	603.86
395.07	594.50
395.26	491.51
395.46	543.00
395.65	512.58
395.84	484.49
396.04	390.87
396.23	337.04
396.42	280.86
396.62	271.50
396.81	241.08
397.00	348.74
397.19	470.45
397.39	531.30
397.58	531.30
397.77	678.76
397.97	589.82
398.16	692.80
398.35	648.33
398.55	601.52
398.74	601.52
398.93	669.39
399.12	636.63
399.32	669.39
399.51	678.76
399.70	667.05
399.90	760.67
400.09	669.39
400.28	746.63
400.47	702.16
400.67	760.67
400.86	739.61
401.05	753.65
401.24	753.65
401.44	746.63
401.63	830.89
401.82	774.72
402.01	681.10
402.21	702.16
402.40	760.67
402.59	753.65
402.78	662.37
402.97	702.16
403.17	662.37
403.36	737.27
403.55	777.06
403.74	763.01
403.93	770.04
404.13	720.88
404.32	849.61
404.51	856.64
404.70	791.10
404.89	741.95
405.09	784.08
405.28	758.33
405.47	723.23
405.66	667.05
405.85	798.12
406.05	688.12
406.24	723.23
406.43	716.20
406.62	781.74
406.81	798.12
407.00	751.31
407.20	711.52
407.39	674.07
407.58	737.27
407.77	741.95
407.96	802.80
408.15	819.19
408.34	685.78
408.54	856.64
408.73	774.72
408.92	856.64
409.11	809.83
409.30	753.65
409.49	758.33
409.68	645.99
409.87	636.63
410.07	690.46
410.26	781.74
410.45	798.12
410.64	772.38
410.83	826.21
411.02	849.61
411.21	870.68
411.40	805.14
411.59	809.83
411.78	795.78
411.98	819.19
412.17	812.17
412.36	798.12
412.55	802.80
412.74	800.46
412.93	854.30
413.12	748.97
413.31	903.45
413.50	947.92
413.69	840.25
413.88	971.32
414.07	903.45
414.26	816.85
414.45	877.70
414.64	842.59
414.83	894.08
415.02	823.87
415.22	1004.09
415.41	884.72
415.60	924.51
415.79	952.60
415.98	1046.22
416.17	978.34
416.36	1001.75
416.55	858.98
416.74	912.81
416.93	919.83
417.12	891.74
417.31	858.98
417.50	844.93
417.69	990.05
417.88	990.05
418.07	957.28
418.26	870.68
418.45	926.85
418.64	1006.43
418.83	952.60
419.02	947.92
419.21	908.13
419.39	856.64
419.58	961.96
419.77	922.17
419.96	947.92
420.15	926.85
420.34	1060.26
420.53	985.37
420.72	1027.50
420.91	1029.84
421.10	980.68
421.29	978.34
421.48	1001.75
421.67	1004.09
421.86	940.90
422.05	971.32
422.24	863.66
422.43	915.15
422.61	901.11
422.80	980.68
422.99	983.02
423.18	957.28
423.37	1062.60
423.56	973.66
423.75	1006.43
423.94	931.53
424.13	964.30
424.32	915.15
424.50	964.30
424.69	968.98
424.88	940.90
425.07	903.45
425.26	901.11
425.45	1020.47
425.64	933.87
425.83	926.85
426.01	1093.03
426.20	994.73
426.39	919.83
426.58	896.43
426.77	774.72
426.96	894.08
427.15	851.96
427.33	933.87
427.52	882.38
427.71	873.02
427.90	964.30
428.09	851.96
428.28	802.80
428.46	922.17
428.65	910.47
428.84	873.02
429.03	947.92
429.22	866.00
429.40	873.02
429.59	706.84
429.78	739.61
429.97	690.46
430.16	634.29
430.34	634.29
430.53	751.31
430.72	770.04
430.91	760.67
431.10	781.74
431.28	1022.81
431.47	1034.52
431.66	1018.13
431.85	994.73
432.03	954.94
432.22	924.51
432.41	971.32
432.60	980.68
432.79	973.66
432.97	1032.18
433.16	880.04
433.35	983.02
433.54	887.06
433.72	915.15
433.91	940.90
434.10	1025.15
434.28	1018.13
434.47	1050.90
434.66	1060.26
434.85	1074.31
435.03	1139.84
435.22	1476.88
435.41	1879.45
435.59	1930.94
435.78	1724.97
435.97	1350.49
436.16	1261.55
436.34	1097.71
436.53	1174.95
436.72	1165.59
436.90	1043.88
437.09	1144.52
437.28	1055.58
437.46	1083.67
437.65	1081.33
437.84	945.58
438.02	1001.75
438.21	999.41
438.40	917.49
438.58	985.37
438.77	980.68
438.96	1086.01
439.14	1083.67
439.33	1018.13
439.52	1064.94
439.70	1188.99
439.89	1156.22
440.08	1116.44
440.26	1090.69
440.45	1130.48
440.63	1165.59
440.82	1228.78
441.01	1160.91
441.19	1177.29
441.38	1198.35
441.57	1284.95
441.75	1259.21
441.94	1224.10
442.12	1240.48
442.31	1280.27
442.50	1217.08
442.68	1282.61
442.87	1186.65
443.05	1280.27
443.24	1196.01
443.43	1310.70
443.61	1416.02
443.80	1301.34
443.98	1238.14
444.17	1200.69
444.35	1282.61
444.54	1355.17
444.73	1228.78
444.91	1228.78
445.10	1273.25
445.28	1275.59
445.47	1083.67
445.65	1245.16
445.84	1149.20
446.02	1228.78
446.21	1263.89
446.39	1256.87
446.58	1240.48
446.77	1299.00
446.95	1284.95
447.14	1249.85
447.32	1387.94
447.51	1270.91
447.69	1287.29
447.88	1380.92
448.06	1200.69
448.25	1345.81
448.43	1263.89
448.62	1270.91
448.80	1317.72
448.99	1247.51
449.17	1327.08
449.36	1291.98
449.54	1338.79
449.73	1341.13
449.91	1385.60
450.10	1329.42
450.28	1451.13
450.46	1462.83
450.65	1430.07
450.83	1418.36
451.02	1200.69
451.20	1341.13
451.39	1299.00
451.57	1420.71
451.76	1364.53
451.94	1355.17
452.13	1359.85
452.31	1214.74
452.49	1296.66
452.68	1280.27
452.86	1181.97
453.05	1310.70
453.23	1322.40
453.42	1203.04
453.60	1366.87
453.78	1303.68
453.97	1247.51
454.15	1359.85
454.34	1334.11
454.52	1207.72
454.70	1291.98
454.89	1282.61
455.07	1221.76
455.26	1291.98
455.44	1291.98
455.62	1289.64
455.81	1310.70
455.99	1401.98
456.17	1348.15
456.36	1345.81
456.54	1291.98
456.73	1282.61
456.91	1327.08
457.09	1439.43
457.28	1439.43
457.46	1416.02
457.64	1427.73
457.83	1355.17
458.01	1320.06
458.19	1380.92
458.38	1434.75
458.56	1453.47
458.74	1460.49
458.93	1446.45
459.11	1348.15
459.29	1371.55
459.48	1294.32
459.66	1299.00
459.84	1406.66
460.03	1476.88
460.21	1453.47
460.39	1589.22
460.57	1467.52
460.76	1411.34
460.94	1446.45
461.12	1437.09
461.31	1397.30
461.49	1427.73
461.67	1404.32
461.85	1352.83
462.04	1416.02
462.22	1535.39
462.40	1558.80
462.59	1474.54
462.77	1439.43
462.95	1519.01
463.13	1322.40
463.32	1427.73
463.50	1472.20
463.68	1366.87
463.86	1416.02
464.05	1432.41
464.23	1406.66
464.41	1401.98
464.59	1273.25
464.78	1397.30
464.96	1434.75
465.14	1488.58
465.32	1507.30
465.50	1490.92
465.69	1476.88
465.87	1460.49
466.05	1432.41
466.23	1261.55
466.41	1331.76
466.60	1331.76
466.78	1432.41
466.96	1385.60
467.14	1465.18
467.32	1427.73
467.51	1411.34
467.69	1376.24
467.87	1357.51
468.05	1413.68
468.23	1406.66
468.41	1467.52
468.60	1366.87
468.78	1420.71
468.96	1397.30
469.14	1409.00
469.32	1383.26
469.50	1273.25
469.69	1355.17
469.87	1341.13
470.05	1291.98
470.23	1343.47
470.41	1310.70
470.59	1413.68
470.77	1331.76
470.95	1441.77
471.14	1378.58
471.32	1418.36
471.50	1547.09
471.68	1507.30
471.86	1502.62
472.04	1502.62
472.22	1549.43
472.40	1397.30
472.58	1446.45
472.77	1502.62
472.95	1448.79
473.13	1584.54
473.31	1441.77
473.49	1502.62
473.67	1413.68
473.85	1469.86
474.03	1490.92
474.21	1469.86
474.39	1549.43
474.57	1610.29
474.75	1554.12
474.93	1542.41
475.12	1385.60
475.30	1479.22
475.48	1582.20
475.66	1549.43
475.84	1500.28
476.02	1507.30
476.20	1507.30
476.38	1558.80
476.56	1519.01
476.74	1488.58
476.92	1523.69
477.10	1652.42
477.28	1598.59
477.46	1666.46
477.64	1645.40
477.82	1734.34
478.00	1689.87
478.18	1589.22
478.36	1589.22
478.54	1586.88
478.72	1621.99
478.90	1612.63
479.08	1788.17
479.26	1870.09
479.44	1605.61
479.62	1743.70
479.80	1699.23
479.98	1661.78
480.16	1699.23
480.34	1764.76
480.52	1818.60
480.70	1776.47
480.88	1823.28
481.06	1806.89
481.24	1842.00
481.41	1813.92
481.59	1865.41
481.77	1916.90
481.95	1865.41
482.13	1944.99
482.31	1937.96
482.49	1877.11
482.67	1809.23
482.85	1921.58
483.03	1879.45
483.21	1923.92
483.39	1968.39
483.57	1959.03
483.74	1825.62
483.92	1973.07
484.10	1912.22
484.28	1987.11
484.46	1954.35
484.64	2019.88
484.82	2064.35
485.00	1942.64
485.18	1844.34
485.35	1912.22
485.53	1746.04
485.71	1776.47
485.89	1614.97
486.07	1701.57
486.25	1827.96
486.43	1900.52
486.61	1952.01
486.78	1930.94
486.96	1921.58
487.14	2024.56
487.32	2113.50
487.50	1959.03
487.68	2270.32
487.85	2221.17
488.03	2139.25
488.21	2090.10
488.39	2054.99
488.57	2050.31
488.75	2150.95
488.92	2363.94
489.10	2263.30
489.28	2256.28
489.46	2359.26
489.64	2258.62
489.81	2265.64
489.99	2408.41
490.17	2478.63
490.35	2509.05
490.53	2303.09
490.70	2296.07
490.88	2275.00
491.06	2504.37
491.24	2387.35
491.41	2310.11
491.59	2249.25
491.77	2186.06
491.95	2239.89
492.13	2305.43
492.30	2347.56
492.48	2310.11
492.66	2436.50
492.84	2422.45
493.01	2466.92
493.19	2523.10
493.37	2427.14
493.54	2286.70
493.72	2256.28
493.90	2448.20
494.08	2520.76
494.25	2469.27
494.43	2574.59
494.61	2595.65
494.79	2642.46
494.96	2586.29
495.14	2495.01
495.32	2417.77
495.49	2403.73
495.67	2520.76
495.85	2597.99
496.02	2619.06
496.20	2691.62
496.38	2579.27
496.55	2558.21
496.73	2782.90
496.91	2637.78
497.09	2644.81
497.26	2693.96
497.44	2527.78
497.62	2525.44
497.79	2424.80
497.97	2392.03
498.14	2626.08
498.32	2471.61
498.50	2485.65
498.67	2499.69
498.85	2588.63
499.03	2504.37
499.20	2621.40
499.38	2796.94
499.56	2693.96
499.73	2572.25
499.91	2511.39
500.08	2544.16
500.26	2427.14
500.44	2537.14
500.61	2546.50
500.79	2502.03
500.97	2459.90
501.14	2532.46
501.32	2537.14
501.49	2429.48
501.67	2480.97
501.84	2499.69
502.02	2583.95
502.20	2553.52
502.37	2544.16
502.55	2537.14
502.72	2492.67
502.90	2546.50
503.07	2612.04
503.25	2434.16
503.43	2392.03
503.60	2340.54
503.78	2340.54
503.95	2490.33
504.13	2555.86
504.30	2691.62
504.48	2530.12
504.65	2586.29
504.83	2588.63
505.01	2602.68
505.18	2609.70
505.36	2696.30
505.53	2677.57
505.71	2663.53
505.88	2698.64
506.06	2609.70
506.23	2670.55
506.41	2513.74
506.58	2633.10
506.76	2621.40
506.93	2579.27
507.11	2614.38
507.28	2693.96
507.46	2532.46
507.63	2441.18
507.81	2492.67
507.98	2466.92
508.16	2581.61
508.33	2743.11
508.50	2759.49
508.68	2656.51
508.85	2771.19
509.03	2649.49
509.20	2813.32
509.38	2738.43
509.55	2644.81
509.73	2576.93
509.90	2670.55
510.08	2771.19
510.25	2698.64
510.42	2640.12
510.60	2647.15
510.77	2759.49
510.95	2820.35
511.12	2717.36
511.30	2876.52
511.47	2808.64
511.64	2829.71
511.82	2825.03
511.99	2649.49
512.17	2675.23
512.34	2696.30
512.51	2651.83
512.69	2644.81
512.86	2696.30
513.04	2766.51
513.21	2773.53
513.38	2743.11
513.56	2597.99
513.73	2607.36
513.90	2654.17
514.08	2619.06
514.25	2555.86
514.43	2588.63
514.60	2724.38
514.77	2757.15
514.95	2658.85
515.12	2619.06
515.29	2778.22
515.47	2771.19
515.64	2691.62
515.81	2782.90
515.99	2700.98
516.16	2626.08
516.33	2448.20
516.51	2368.62
516.68	2211.81
516.85	2221.17
517.03	2197.76
517.20	2452.88
517.37	2614.38
517.54	2722.04
517.72	2593.31
517.89	2452.88
518.06	2221.17
518.24	2230.53
518.41	2534.80
518.58	2640.12
518.75	2621.40
518.93	2647.15
519.10	2506.71
519.27	2609.70
519.45	2726.72
519.62	2773.53
519.79	2832.05
519.96	2677.57
520.14	2693.96
520.31	2626.08
520.48	2715.02
520.65	2675.23
520.83	2686.94
521.00	2810.98
521.17	2733.75
521.34	2715.02
521.52	2883.54
521.69	2705.66
521.86	2876.52
522.03	2825.03
522.20	2717.36
522.38	2581.61
522.55	2593.31
522.72	2649.49
522.89	2600.34
523.07	2803.96
523.24	2675.23
523.41	2682.25
523.58	2696.30
523.75	2897.58
523.92	2874.18
524.10	2883.54
524.27	2806.30
524.44	2841.41
524.61	2705.66
524.78	2782.90
524.96	2869.50
525.13	2710.34
525.30	2794.60
525.47	2885.88
525.64	3007.59
525.81	2867.16
525.98	2600.34
526.16	2476.29
526.33	2377.98
526.50	2333.51
526.67	2427.14
526.84	2445.86
527.01	2495.01
527.18	2672.89
527.36	2684.59
527.53	2647.15
527.70	2775.88
527.87	2647.15
528.04	2752.47
528.21	2670.55
528.38	2813.32
528.55	2843.75
528.72	2939.71
528.89	2965.46
529.07	2757.15
529.24	2775.88
529.41	2820.35
529.58	2693.96
529.75	2743.11
529.92	2752.47
530.09	2771.19
530.26	2967.80
530.43	2890.56
530.60	2822.69
530.77	2876.52
530.94	2825.03
531.11	2787.58
531.28	2722.04
531.46	2860.13
531.63	2850.77
531.80	2752.47
531.97	2696.30
532.14	2672.89
532.31	2588.63
532.48	2492.67
532.65	2686.94
532.82	2656.51
532.99	2745.45
533.16	2693.96
533.33	2733.75
533.50	2736.09
533.67	2747.79
533.84	2738.43
534.01	2738.43
534.18	2750.13
534.35	2733.75
534.52	2670.55
534.69	2808.64
534.86	2745.45
535.03	2951.42
535.20	2869.50
535.37	2815.66
535.54	2871.84
535.71	2881.20
535.88	3073.12
536.05	2818.00
536.22	2782.90
536.38	2759.49
536.55	2792.26
536.72	2773.53
536.89	2710.34
537.06	2754.81
537.23	2829.71
537.40	2944.39
537.57	2810.98
537.74	2883.54
537.91	2923.33
538.08	2918.65
538.25	2813.32
538.42	2871.84
538.59	2839.07
538.75	2946.73
538.92	2834.39
539.09	2904.60
539.26	2836.73
539.43	2890.56
539.60	2796.94
539.77	2918.65
539.94	2911.63
540.11	2942.05
540.28	2946.73
540.44	3005.25
540.61	2972.48
540.78	3084.83
540.95	3117.59
541.12	3286.11
541.29	3407.82
541.46	3529.53
541.62	3548.25
541.79	3389.10
541.96	3414.84
542.13	3426.54
542.30	3440.59
542.47	3318.88
542.63	3389.10
542.80	3260.37
542.97	3307.18
543.14	3215.90
543.31	3311.86
543.48	3405.48
543.64	3520.17
543.81	3356.33
543.98	3456.97
544.15	3279.09
544.32	3368.03
544.48	3129.30
544.65	3187.81
544.82	3377.39
544.99	3335.26
545.16	3288.45
545.32	3218.24
545.49	3824.44
545.66	4571.07
545.83	5004.07
546.00	4594.47
546.16	4037.42
546.33	3632.51
546.50	3368.03
546.67	3148.02
546.83	3258.03
547.00	3307.18
547.17	3049.72
547.34	2920.99
547.50	2991.20
547.67	3056.74
547.84	2991.20
548.00	2937.37
548.17	3007.59
548.34	2986.52
548.51	2960.78
548.67	3110.57
548.84	3045.04
549.01	2925.67
549.18	2885.88
549.34	3021.63
549.51	2764.17
549.68	2995.89
549.84	2780.56
550.01	2841.41
550.18	2878.86
550.34	2918.65
550.51	2867.16
550.68	2951.42
550.84	2754.81
551.01	2827.37
551.18	2799.28
551.34	2876.52
551.51	2883.54
551.68	2850.77
551.84	2862.48
552.01	2796.94
552.18	2897.58
552.34	2696.30
552.51	2623.74
552.68	2773.53
552.84	2567.57
553.01	2705.66
553.18	2715.02
553.34	2715.02
553.51	2787.58
553.67	2754.81
553.84	2686.94
554.01	2726.72
554.17	2705.66
554.34	2738.43
554.51	2677.57
554.67	2752.47
554.84	2703.32
555.00	2553.52
555.17	2658.85
555.33	2703.32
555.50	2558.21
555.67	2689.28
555.83	2708.00
556.00	2530.12
556.16	2745.45
556.33	2560.55
556.50	2558.21
556.66	2495.01
556.83	2377.98
556.99	2525.44
557.16	2506.71
557.32	2668.21
557.49	2642.46
557.65	2586.29
557.82	2612.04
557.98	2619.06
558.15	2445.86
558.32	2473.95
558.48	2455.22
558.65	2541.82
558.81	2380.32
558.98	2417.77
559.14	2352.24
559.31	2602.68
559.47	2452.88
559.64	2434.16
559.80	2450.54
559.97	2331.17
560.13	2450.54
560.30	2438.84
560.46	2499.69
560.63	2569.91
560.79	2647.15
560.96	2553.52
561.12	2541.82
561.29	2422.45
561.45	2473.95
561.61	2377.98
561.78	2581.61
561.94	2476.29
562.11	2424.80
562.27	2518.42
562.44	2567.57
562.60	2548.84
562.77	2541.82
562.93	2464.58
563.10	2359.26
563.26	2478.63
563.42	2497.35
563.59	2567.57
563.75	2551.18
563.92	2438.84
564.08	2375.64
564.24	2473.95
564.41	2495.01
564.57	2499.69
564.74	2495.01
564.90	2462.24
565.07	2324.15
565.23	2382.67
565.39	2349.90
565.56	2314.79
565.72	2340.54
565.88	2349.90
566.05	2373.30
566.21	2361.60
566.38	2277.34
566.54	2359.26
566.70	2396.71
566.87	2410.75
567.03	2420.11
567.19	2516.08
567.36	2377.98
567.52	2424.80
567.68	2356.92
567.85	2296.07
568.01	2284.36
568.17	2223.51
568.34	2197.76
568.50	2193.08
568.66	2228.19
568.83	2225.85
568.99	2244.57
569.15	2197.76
569.32	2195.42
569.48	2242.23
569.64	2186.06
569.81	2216.49
569.97	2204.78
570.13	2312.45
570.30	2150.95
570.46	2118.18
570.62	2134.57
570.78	2033.93
570.95	2246.91
571.11	2282.02
571.27	2256.28
571.43	2193.08
571.60	2300.75
571.76	2218.83
571.92	2190.74
572.09	2270.32
572.25	2354.58
572.41	2216.49
572.57	2211.81
572.74	2284.36
572.90	2221.17
573.06	2307.77
573.22	2169.68
573.38	2300.75
573.55	2286.70
573.71	2193.08
573.87	2200.10
574.03	2200.10
574.20	2160.31
574.36	2204.78
574.52	2209.47
574.68	2200.10
574.84	2160.31
575.01	2176.70
575.17	2146.27
575.33	2183.72
575.49	2083.08
575.65	2307.77
575.82	2153.29
575.98	2174.36
576.14	2193.08
576.30	2223.51
576.46	2375.64
576.62	2579.27
576.79	2619.06
576.95	2586.29
577.11	2368.62
577.27	2270.32
577.43	2197.76
577.59	2148.61
577.75	2064.35
577.92	2097.12
578.08	2197.76
578.24	2129.89
578.40	2155.63
578.56	2413.09
578.72	2466.92
578.88	2588.63
579.04	2448.20
579.21	2387.35
579.37	2300.75
579.53	2202.44
579.69	2401.39
579.85	2333.51
580.01	2202.44
580.17	2256.28
580.33	2256.28
580.49	2282.02
580.65	2214.15
580.82	2237.55
580.98	2307.77
581.14	2279.68
581.30	2197.76
581.46	2312.45
581.62	2361.60
581.78	2270.32
581.94	2312.45
582.10	2188.40
582.26	2368.62
582.42	2293.72
582.58	2293.72
582.74	2265.64
582.90	2448.20
583.06	2420.11
583.22	2277.34
583.38	2375.64
583.54	2310.11
583.70	2377.98
583.86	2373.30
584.02	2377.98
584.18	2326.49
584.34	2129.89
584.50	2356.92
584.66	2207.13
584.82	2289.04
584.98	2342.88
585.14	2190.74
585.30	2232.87
585.46	2157.97
585.62	2148.61
585.78	2179.04
585.94	2113.50
586.10	2193.08
586.26	2165.00
586.42	2211.81
586.58	2202.44
586.74	2352.24
586.90	2359.26
587.06	2310.11
587.22	2389.69
587.38	2312.45
587.54	2188.40
587.70	2160.31
587.86	2141.59
588.02	1996.48
588.18	1872.43
588.34	1865.41
588.49	1727.32
588.65	1647.74
588.81	1540.07
588.97	1659.44
589.13	1673.48
589.29	1582.20
589.45	1593.90
589.61	1647.74
589.77	1701.57
589.93	1659.44
590.08	1827.96
590.24	1813.92
590.40	1886.47
590.56	1916.90
590.72	1902.86
590.88	1743.70
591.04	1952.01
591.20	1729.66
591.35	1858.39
591.51	1806.89
591.67	1898.17
591.83	1671.14
591.99	1921.58
592.15	1968.39
592.31	1923.92
592.46	1959.03
592.62	2026.90
592.78	2036.27
592.94	2029.24
593.10	2073.71
593.26	2012.86
593.41	2083.08
593.57	1909.88
593.73	1846.68
593.89	1764.76
594.05	1792.85
594.20	1750.72
594.36	1760.08
594.52	1694.55
594.68	1755.40
594.84	1764.76
594.99	1900.52
595.15	1870.09
595.31	1797.53
595.47	1935.62
595.62	1851.36
595.78	1816.26
595.94	1909.88
596.10	1905.20
596.25	1902.86
596.41	1865.41
596.57	1874.77
596.73	1942.64
596.88	1928.60
597.04	1926.26
597.20	1888.81
597.36	1767.10
597.51	1802.21
597.67	1947.33
597.83	1886.47
597.99	1811.57
598.14	1928.60
598.30	1860.73
598.46	1914.56
598.61	1942.64
598.77	1891.15
598.93	1975.41
599.09	2017.54
599.24	2005.84
599.40	2064.35
599.56	1942.64
599.71	1989.46
