SpectraSuite Data File
++++++++++++++++++++++++++++++++++++
Date: Fri Oct 04 11:42:00 GMT-05:00 2013
User: price-jones
Dark Spectrum Present: No
Reference Spectrum Present: No
Number of Sampled Component Spectra: 1
Spectrometers: USB2+H05261
Integration Time (usec): 100000 (USB2+H05261)
Spectra Averaged: 1 (USB2+H05261)
Boxcar Smoothing: 0 (USB2+H05261)
Correct for Electrical Dark: No (USB2+H05261)
Strobe/Lamp Enabled: No (USB2+H05261)
Correct for Detector Non-linearity: No (USB2+H05261)
Correct for Stray Light: No (USB2+H05261)
Number of Pixels in Processed Spectrum: 2048
>>>>>Begin Processed Spectral Data<<<<<
365.73	67.88
365.92	67.88
366.12	67.88
366.32	0.00
366.52	0.00
366.72	0.00
366.91	0.00
367.11	0.00
367.31	0.00
367.51	0.00
367.70	0.00
367.90	0.00
368.10	0.00
368.30	0.00
368.49	0.00
368.69	21.06
368.89	0.00
369.09	0.00
369.28	0.00
369.48	21.06
369.68	0.00
369.87	0.00
370.07	37.45
370.27	23.41
370.47	30.43
370.66	0.00
370.86	72.56
371.06	187.24
371.25	121.71
371.45	72.56
371.65	98.30
371.84	117.03
372.04	98.30
372.24	107.66
372.44	98.30
372.63	147.45
372.83	138.09
373.03	140.43
373.22	107.66
373.42	53.83
373.62	107.66
373.81	131.07
374.01	114.69
374.21	114.69
374.40	53.83
374.60	72.56
374.79	95.96
374.99	170.86
375.19	156.82
375.38	91.28
375.58	102.98
375.78	203.63
375.97	81.92
376.17	180.22
376.37	121.71
376.56	114.69
376.76	112.35
376.95	60.85
377.15	142.77
377.35	131.07
377.54	86.60
377.74	133.41
377.93	56.17
378.13	81.92
378.33	84.26
378.52	102.98
378.72	180.22
378.91	152.13
379.11	102.98
379.31	166.18
379.50	121.71
379.70	145.11
379.89	133.41
380.09	30.43
380.28	56.17
380.48	110.01
380.68	112.35
380.87	56.17
381.07	63.19
381.26	128.73
381.46	110.01
381.65	138.09
381.85	110.01
382.04	105.32
382.24	145.11
382.43	119.37
382.63	49.15
382.83	138.09
383.02	140.43
383.22	138.09
383.41	128.73
383.61	170.86
383.80	124.05
384.00	67.88
384.19	131.07
384.39	63.19
384.58	46.81
384.78	145.11
384.97	131.07
385.17	140.43
385.36	72.56
385.56	79.58
385.75	140.43
385.95	110.01
386.14	65.54
386.34	138.09
386.53	156.82
386.72	112.35
386.92	161.50
387.11	170.86
387.31	168.52
387.50	147.45
387.70	119.37
387.89	156.82
388.09	102.98
388.28	7.02
388.48	95.96
388.67	149.79
388.86	198.95
389.06	124.05
389.25	184.90
389.45	86.60
389.64	74.90
389.84	189.58
390.03	166.18
390.22	107.66
390.42	131.07
390.61	182.56
390.81	117.03
391.00	133.41
391.19	147.45
391.39	98.30
391.58	91.28
391.78	149.79
391.97	53.83
392.16	117.03
392.36	149.79
392.55	93.62
392.75	220.01
392.94	112.35
393.13	161.50
393.33	81.92
393.52	72.56
393.71	77.24
393.91	194.26
394.10	135.75
394.29	98.30
394.49	95.96
394.68	140.43
394.88	149.79
395.07	161.50
395.26	212.99
395.46	121.71
395.65	163.84
395.84	117.03
396.04	156.82
396.23	114.69
396.42	145.11
396.62	140.43
396.81	145.11
397.00	149.79
397.19	117.03
397.39	133.41
397.58	81.92
397.77	91.28
397.97	149.79
398.16	124.05
398.35	86.60
398.55	102.98
398.74	79.58
398.93	205.97
399.12	163.84
399.32	173.20
399.51	133.41
399.70	170.86
399.90	124.05
400.09	149.79
400.28	107.66
400.47	149.79
400.67	198.95
400.86	117.03
401.05	131.07
401.24	133.41
401.44	163.84
401.63	147.45
401.82	142.77
402.01	166.18
402.21	184.90
402.40	147.45
402.59	269.16
402.78	177.88
402.97	194.26
403.17	189.58
403.36	236.39
403.55	285.55
403.74	545.34
403.93	1959.03
404.13	4411.91
404.32	5717.93
404.51	4828.53
404.70	2864.82
404.89	1004.09
405.09	381.51
405.28	266.82
405.47	227.03
405.66	175.54
405.85	187.24
406.05	168.52
406.24	231.71
406.43	175.54
406.62	198.95
406.81	280.86
407.00	304.27
407.20	533.64
407.39	795.78
407.58	795.78
407.77	507.90
407.96	379.17
408.15	273.84
408.34	187.24
408.54	198.95
408.73	222.35
408.92	175.54
409.11	189.58
409.30	243.42
409.49	140.43
409.68	154.48
409.87	126.39
410.07	198.95
410.26	175.54
410.45	168.52
410.64	177.88
410.83	194.26
411.02	159.16
411.21	227.03
411.40	177.88
411.59	238.73
411.78	105.32
411.98	159.16
412.17	112.35
412.36	95.96
412.55	175.54
412.74	182.56
412.93	152.13
413.12	196.60
413.31	198.95
413.50	229.37
413.69	163.84
413.88	266.82
414.07	163.84
414.26	175.54
414.45	224.69
414.64	292.57
414.83	220.01
415.02	220.01
415.22	224.69
415.41	248.10
415.60	241.08
415.79	238.73
415.98	320.65
416.17	203.63
416.36	159.16
416.55	234.05
416.74	234.05
416.93	222.35
417.12	238.73
417.31	184.90
417.50	208.31
417.69	231.71
417.88	262.14
418.07	264.48
418.26	269.16
418.45	273.84
418.64	266.82
418.83	283.20
419.02	184.90
419.21	287.89
419.39	208.31
419.58	147.45
419.77	220.01
419.96	201.29
420.15	229.37
420.34	297.25
420.53	290.23
420.72	322.99
420.91	259.80
421.10	292.57
421.29	276.18
421.48	341.72
421.67	369.80
421.86	257.46
422.05	266.82
422.24	266.82
422.43	191.92
422.61	290.23
422.80	215.33
422.99	290.23
423.18	234.05
423.37	322.99
423.56	297.25
423.75	264.48
423.94	285.55
424.13	241.08
424.32	227.03
424.50	297.25
424.69	262.14
424.88	381.51
425.07	262.14
425.26	315.97
425.45	400.23
425.64	250.44
425.83	245.76
426.01	294.91
426.20	262.14
426.39	304.27
426.58	283.20
426.77	301.93
426.96	381.51
427.15	304.27
427.33	339.38
427.52	299.59
427.71	330.02
427.90	362.78
428.09	278.52
428.28	266.82
428.46	271.50
428.65	304.27
428.84	320.65
429.03	299.59
429.22	322.99
429.40	250.44
429.59	287.89
429.78	390.87
429.97	332.36
430.16	271.50
430.34	308.95
430.53	315.97
430.72	355.76
430.91	330.02
431.10	322.99
431.28	372.15
431.47	348.74
431.66	273.84
431.85	313.63
432.03	344.06
432.22	454.06
432.41	421.30
432.60	360.44
432.79	358.10
432.97	374.49
433.16	376.83
433.35	491.51
433.54	554.71
433.72	547.69
433.91	500.87
434.10	507.90
434.28	737.27
434.47	833.23
434.66	917.49
434.85	1064.94
435.03	3096.53
435.22	11548.20
435.41	24709.04
435.59	25146.72
435.78	16077.14
435.97	7901.65
436.16	2988.86
436.34	1174.95
436.53	767.70
436.72	554.71
436.90	554.71
437.09	449.38
437.28	451.72
437.46	367.46
437.65	386.19
437.84	433.00
438.02	463.43
438.21	470.45
438.40	433.00
438.58	433.00
438.77	461.09
438.96	383.85
439.14	400.23
439.33	421.30
439.52	421.30
439.70	379.17
439.89	409.59
440.08	360.44
440.26	409.59
440.45	409.59
440.63	463.43
440.82	416.62
441.01	447.04
441.19	390.87
441.38	365.12
441.57	414.27
441.75	388.53
441.94	437.68
442.12	411.93
442.31	358.10
442.50	428.32
442.68	339.38
442.87	381.51
443.05	407.25
443.24	472.79
443.43	458.74
443.61	407.25
443.80	374.49
443.98	332.36
444.17	322.99
444.35	393.21
444.54	472.79
444.73	463.43
444.91	433.00
445.10	411.93
445.28	430.66
445.47	435.34
445.65	454.06
445.84	433.00
446.02	484.49
446.21	294.91
446.39	409.59
446.58	428.32
446.77	379.17
446.95	407.25
447.14	421.30
447.32	425.98
447.51	360.44
447.69	418.96
447.88	503.22
448.06	463.43
448.25	365.12
448.43	351.08
448.62	437.68
448.80	409.59
448.99	447.04
449.17	395.55
449.36	353.42
449.54	395.55
449.73	379.17
449.91	407.25
450.10	339.38
450.28	407.25
450.46	409.59
450.65	365.12
450.83	353.42
451.02	386.19
451.20	308.95
451.39	416.62
451.57	395.55
451.76	362.78
451.94	400.23
452.13	383.85
452.31	409.59
452.49	346.40
452.68	344.06
452.86	397.89
453.05	407.25
453.23	402.57
453.42	367.46
453.60	463.43
453.78	334.70
453.97	313.63
454.15	304.27
454.34	479.81
454.52	383.85
454.70	484.49
454.89	442.36
455.07	379.17
455.26	428.32
455.44	423.64
455.62	229.37
455.81	374.49
455.99	367.46
456.17	444.70
456.36	341.72
456.54	386.19
456.73	437.68
456.91	437.68
457.09	388.53
457.28	454.06
457.46	440.02
457.64	376.83
457.83	390.87
458.01	430.66
458.19	435.34
458.38	376.83
458.56	348.74
458.74	365.12
458.93	358.10
459.11	421.30
459.29	325.33
459.48	383.85
459.66	440.02
459.84	416.62
460.03	470.45
460.21	425.98
460.39	414.27
460.57	472.79
460.76	393.21
460.94	379.17
461.12	503.22
461.31	400.23
461.49	369.80
461.67	358.10
461.85	325.33
462.04	383.85
462.22	835.57
462.40	425.98
462.59	367.46
462.77	344.06
462.95	393.21
463.13	402.57
463.32	348.74
463.50	390.87
463.68	390.87
463.86	355.76
464.05	395.55
464.23	418.96
464.41	484.49
464.59	379.17
464.78	423.64
464.96	395.55
465.14	381.51
465.32	430.66
465.50	369.80
465.69	292.57
465.87	318.31
466.05	369.80
466.23	437.68
466.41	402.57
466.60	388.53
466.78	395.55
466.96	449.38
467.14	423.64
467.32	395.55
467.51	355.76
467.69	404.91
467.87	390.87
468.05	348.74
468.23	374.49
468.41	402.57
468.60	388.53
468.78	308.95
468.96	468.11
469.14	311.29
469.32	276.18
469.50	271.50
469.69	358.10
469.87	332.36
470.05	397.89
470.23	353.42
470.41	447.04
470.59	294.91
470.77	386.19
470.95	379.17
471.14	472.79
471.32	414.27
471.50	388.53
471.68	425.98
471.86	386.19
472.04	386.19
472.22	440.02
472.40	355.76
472.58	369.80
472.77	472.79
472.95	390.87
473.13	407.25
473.31	409.59
473.49	315.97
473.67	355.76
473.85	362.78
474.03	379.17
474.21	425.98
474.39	425.98
474.57	442.36
474.75	400.23
474.93	332.36
475.12	353.42
475.30	388.53
475.48	348.74
475.66	423.64
475.84	362.78
476.02	327.68
476.20	334.70
476.38	376.83
476.56	423.64
476.74	294.91
476.92	402.57
477.10	425.98
477.28	402.57
477.46	400.23
477.64	358.10
477.82	418.96
478.00	425.98
478.18	456.40
478.36	444.70
478.54	362.78
478.72	327.68
478.90	500.87
479.08	491.51
479.26	435.34
479.44	395.55
479.62	468.11
479.80	489.17
479.98	425.98
480.16	517.26
480.34	535.98
480.52	430.66
480.70	629.60
480.88	500.87
481.06	582.79
481.24	667.05
481.41	603.86
481.59	814.51
481.77	723.23
481.95	706.84
482.13	847.27
482.31	873.02
482.49	898.77
482.67	950.26
482.85	971.32
483.03	1200.69
483.21	1275.59
483.39	1196.01
483.57	1317.72
483.74	1411.34
483.92	1416.02
484.10	1509.65
484.28	1600.93
484.46	1790.51
484.64	1727.32
484.82	1778.81
485.00	1930.94
485.18	2169.68
485.35	2286.70
485.53	2296.07
485.71	2387.35
485.89	2520.76
486.07	2525.44
486.25	2558.21
486.43	2569.91
486.61	2593.31
486.78	2593.31
486.96	2490.33
487.14	2647.15
487.32	2523.10
487.50	2572.25
487.68	2532.46
487.85	2572.25
488.03	2511.39
488.21	2417.77
488.39	2476.29
488.57	2385.01
488.75	2230.53
488.92	2462.24
489.10	2153.29
489.28	2143.93
489.46	2190.74
489.64	2092.44
489.81	2118.18
489.99	1987.11
490.17	1961.37
490.35	1949.67
490.53	1858.39
490.70	1923.92
490.88	1916.90
491.06	2139.25
491.24	2239.89
491.41	2211.81
491.59	2141.59
491.77	1998.82
491.95	1846.68
492.13	1884.13
492.30	1797.53
492.48	1788.17
492.66	1739.02
492.84	1664.12
493.01	1621.99
493.19	1696.89
493.37	1732.00
493.54	1610.29
493.72	1703.91
493.90	1551.78
494.08	1614.97
494.25	1516.67
494.43	1511.99
494.61	1465.18
494.79	1600.93
494.96	1434.75
495.14	1434.75
495.32	1430.07
495.49	1434.75
495.67	1397.30
495.85	1371.55
496.02	1434.75
496.20	1294.32
496.38	1294.32
496.55	1331.76
496.73	1306.02
496.91	1207.72
497.09	1221.76
497.26	1240.48
497.44	1301.34
497.62	1184.31
497.79	1200.69
497.97	1132.82
498.14	1121.12
498.32	1083.67
498.50	1015.79
498.67	1046.22
498.85	1102.39
499.03	1078.99
499.20	987.71
499.38	940.90
499.56	952.60
499.73	980.68
499.91	882.38
500.08	798.12
500.26	821.53
500.44	805.14
500.61	943.24
500.79	786.42
500.97	741.95
501.14	753.65
501.32	765.36
501.49	772.38
501.67	699.82
501.84	739.61
502.02	664.71
502.20	681.10
502.37	716.20
502.55	638.97
502.72	636.63
502.90	622.58
503.07	557.05
503.25	667.05
503.43	594.50
503.60	578.11
503.78	557.05
503.95	479.81
504.13	571.09
504.30	437.68
504.48	543.00
504.65	627.26
504.83	531.30
505.01	517.26
505.18	395.55
505.36	479.81
505.53	491.51
505.71	416.62
505.88	437.68
506.06	416.62
506.23	435.34
506.41	411.93
506.58	433.00
506.76	512.58
506.93	437.68
507.11	440.02
507.28	461.09
507.46	463.43
507.63	362.78
507.81	430.66
507.98	430.66
508.16	397.89
508.33	430.66
508.50	465.77
508.68	411.93
508.85	444.70
509.03	507.90
509.20	510.24
509.38	444.70
509.55	535.98
509.73	479.81
509.90	393.21
510.08	409.59
510.25	425.98
510.42	491.51
510.60	414.27
510.77	475.13
510.95	507.90
511.12	390.87
511.30	423.64
511.47	423.64
511.64	484.49
511.82	470.45
511.99	407.25
512.17	365.12
512.34	374.49
512.51	367.46
512.69	393.21
512.86	393.21
513.04	477.47
513.21	397.89
513.38	463.43
513.56	318.31
513.73	388.53
513.90	404.91
514.08	322.99
514.25	341.72
514.43	304.27
514.60	372.15
514.77	327.68
514.95	306.61
515.12	353.42
515.29	362.78
515.47	344.06
515.64	351.08
515.81	341.72
515.99	306.61
516.16	433.00
516.33	440.02
516.51	367.46
516.68	362.78
516.85	358.10
517.03	325.33
517.20	332.36
517.37	400.23
517.54	339.38
517.72	351.08
517.89	325.33
518.06	341.72
518.24	449.38
518.41	383.85
518.58	355.76
518.75	278.52
518.93	388.53
519.10	259.80
519.27	332.36
519.45	271.50
519.62	290.23
519.79	381.51
519.96	280.86
520.14	243.42
520.31	362.78
520.48	341.72
520.65	341.72
520.83	318.31
521.00	430.66
521.17	358.10
521.34	372.15
521.52	327.68
521.69	294.91
521.86	383.85
522.03	299.59
522.20	318.31
522.38	346.40
522.55	418.96
522.72	379.17
522.89	449.38
523.07	390.87
523.24	341.72
523.41	369.80
523.58	311.29
523.75	435.34
523.92	362.78
524.10	372.15
524.27	332.36
524.44	367.46
524.61	388.53
524.78	299.59
524.96	372.15
525.13	489.17
525.30	369.80
525.47	437.68
525.64	374.49
525.81	390.87
525.98	423.64
526.16	407.25
526.33	360.44
526.50	388.53
526.67	376.83
526.84	449.38
527.01	285.55
527.18	477.47
527.36	425.98
527.53	454.06
527.70	393.21
527.87	418.96
528.04	379.17
528.21	482.15
528.38	489.17
528.55	521.94
528.72	451.72
528.89	442.36
529.07	425.98
529.24	463.43
529.41	493.85
529.58	386.19
529.75	437.68
529.92	388.53
530.09	491.51
530.26	454.06
530.43	433.00
530.60	414.27
530.77	512.58
530.94	526.62
531.11	528.96
531.28	456.40
531.46	510.24
531.63	589.82
531.80	582.79
531.97	603.86
532.14	709.18
532.31	802.80
532.48	924.51
532.65	1097.71
532.82	1191.33
532.99	1493.26
533.16	1584.54
533.33	1727.32
533.50	1516.67
533.67	1324.74
533.84	1074.31
534.01	990.05
534.18	1006.43
534.35	929.19
534.52	912.81
534.69	971.32
534.86	912.81
535.03	1039.20
535.20	1205.38
535.37	1177.29
535.54	1203.04
535.71	1193.67
535.88	1387.94
536.05	1404.32
536.22	1584.54
536.38	1540.07
536.55	1769.44
536.72	2008.18
536.89	2256.28
537.06	2401.39
537.23	2607.36
537.40	2827.37
537.57	3148.02
537.74	3396.12
537.91	3534.21
538.08	3501.44
538.25	3494.42
538.42	3485.06
538.59	3681.66
538.75	3730.81
538.92	3974.23
539.09	4400.21
539.26	4952.57
539.43	5401.96
539.60	5940.28
539.77	7019.27
539.94	7950.80
540.11	8535.93
540.28	9327.03
540.44	10401.34
540.61	11578.63
540.78	12994.65
540.95	15861.81
541.12	18728.97
541.29	21252.06
541.46	21727.19
541.62	21385.47
541.79	20547.56
541.96	19309.42
542.13	18078.30
542.30	16966.54
542.47	15749.46
542.63	15049.64
542.80	14668.14
542.97	14160.24
543.14	14104.07
543.31	14523.02
543.48	14204.71
543.64	14663.46
543.81	14775.80
543.98	14590.90
544.15	14778.14
544.32	14944.32
544.48	14494.94
544.65	14911.55
544.82	14663.46
544.99	14424.72
545.16	14703.25
545.32	16051.39
545.49	27185.32
545.66	50314.50
545.83	56362.44
546.00	49911.92
546.16	35068.25
546.33	25736.53
546.50	18721.95
546.67	14773.46
546.83	12931.46
547.00	12718.47
547.17	12224.62
547.34	11510.75
547.50	10981.79
547.67	10916.26
547.84	10492.62
548.00	10033.88
548.17	9753.01
548.34	9186.60
548.51	8959.57
548.67	8617.85
548.84	8128.68
549.01	7730.79
549.18	7302.47
549.34	7105.87
549.51	6808.62
549.68	6420.09
549.84	6153.27
550.01	6115.82
550.18	5731.97
550.34	5596.22
550.51	5226.42
550.68	5062.58
550.84	4737.24
551.01	4463.40
551.18	4379.14
551.34	4234.03
551.51	3981.25
551.68	3808.05
551.84	3576.34
552.01	3335.26
552.18	3442.93
552.34	3293.13
552.51	3021.63
552.68	2953.76
552.84	2750.13
553.01	2780.56
553.18	2689.28
553.34	2729.06
553.51	2553.52
553.67	2366.28
553.84	2394.37
554.01	2225.85
554.17	2047.97
554.34	1916.90
554.51	1799.87
554.67	1811.57
554.84	1621.99
555.00	1558.80
555.17	1509.65
555.33	1455.81
555.50	1306.02
555.67	1364.53
555.83	1296.66
556.00	1188.99
556.16	1273.25
556.33	1177.29
556.50	1015.79
556.66	1139.84
556.83	1069.62
556.99	980.68
557.16	1055.58
557.32	945.58
557.49	961.96
557.65	987.71
557.82	938.55
557.98	903.45
558.15	870.68
558.32	830.89
558.48	784.08
558.65	758.33
558.81	791.10
558.98	805.14
559.14	837.91
559.31	739.61
559.47	791.10
559.64	716.20
559.80	760.67
559.97	683.44
560.13	741.95
560.30	732.59
560.46	678.76
560.63	711.52
560.79	608.54
560.96	645.99
561.12	772.38
561.29	744.29
561.45	751.31
561.61	753.65
561.78	854.30
561.94	725.57
562.11	697.48
562.27	624.92
562.44	636.63
562.60	634.29
562.77	746.63
562.93	638.97
563.10	681.10
563.26	669.39
563.42	505.56
563.59	617.90
563.75	599.18
563.92	634.29
564.08	594.50
564.24	664.71
564.41	592.16
564.57	519.60
564.74	517.26
564.90	610.88
565.07	566.41
565.23	573.43
565.39	566.41
565.56	641.31
565.72	395.55
565.88	498.53
566.05	514.92
566.21	540.66
566.38	573.43
566.54	564.07
566.70	519.60
566.87	585.13
567.03	514.92
567.19	653.01
567.36	641.31
567.52	564.07
567.68	594.50
567.85	561.73
568.01	498.53
568.17	594.50
568.34	582.79
568.50	653.01
568.66	528.96
568.83	554.71
568.99	557.05
569.15	538.32
569.32	472.79
569.48	465.77
569.64	512.58
569.81	477.47
569.97	468.11
570.13	503.22
570.30	428.32
570.46	400.23
570.62	440.02
570.78	414.27
570.95	404.91
571.11	510.24
571.27	465.77
571.43	374.49
571.60	477.47
571.76	374.49
571.92	365.12
572.09	423.64
572.25	397.89
572.41	435.34
572.57	411.93
572.74	489.17
572.90	458.74
573.06	454.06
573.22	477.47
573.38	454.06
573.55	479.81
573.71	540.66
573.87	458.74
574.03	486.83
574.20	554.71
574.36	512.58
574.52	524.28
574.68	531.30
574.84	550.03
575.01	674.07
575.17	617.90
575.33	655.35
575.49	692.80
575.65	746.63
575.82	737.27
575.98	889.40
576.14	931.53
576.30	1849.02
576.46	5865.38
576.62	9921.53
576.79	10249.21
576.95	7496.74
577.11	5034.49
577.27	3524.85
577.43	2448.20
577.59	1657.10
577.75	1282.61
577.92	1186.65
578.08	1149.20
578.24	1196.01
578.40	1944.99
578.56	5565.79
578.72	8767.65
578.88	9092.98
579.04	6977.14
579.21	4889.38
579.37	3548.25
579.53	2773.53
579.69	2878.86
579.85	3445.27
580.01	3913.38
580.17	3679.32
580.33	3201.85
580.49	2658.85
580.65	2551.18
580.82	2335.85
580.98	2230.53
581.14	2256.28
581.30	2396.71
581.46	2551.18
581.62	2698.64
581.78	2871.84
581.94	3070.78
582.10	3248.66
582.26	3461.65
582.42	3667.62
582.58	3658.26
582.74	3758.90
582.90	3733.15
583.06	3824.44
583.22	3791.67
583.38	3747.20
583.54	3850.18
583.70	3805.71
583.86	3805.71
584.02	3719.11
584.18	3735.50
584.34	3545.91
584.50	3480.38
584.66	3501.44
584.82	3538.89
584.98	3272.07
585.14	3225.26
585.30	3332.92
585.46	3229.94
585.62	3150.36
585.78	3009.93
585.94	3234.62
586.10	3208.87
586.26	3485.06
586.42	3946.14
586.58	4725.54
586.74	5584.52
586.90	6719.68
587.06	7332.90
587.22	7213.53
587.38	6370.94
587.54	5518.98
587.70	4699.80
587.86	4007.00
588.02	3515.48
588.18	3056.74
588.34	2796.94
588.49	2506.71
588.65	2352.24
588.81	2319.47
588.97	2258.62
589.13	2083.08
589.29	2125.21
589.45	2101.80
589.61	2108.82
589.77	2209.47
589.93	2141.59
590.08	2162.66
590.24	2331.17
590.40	2251.60
590.56	2431.82
590.72	2609.70
590.88	2499.69
591.04	2644.81
591.20	2572.25
591.35	2731.41
591.51	2878.86
591.67	3023.97
591.83	3243.98
591.99	3538.89
592.15	3794.01
592.31	4056.15
592.46	4379.14
592.62	4971.30
592.78	5242.80
592.94	5460.47
593.10	5270.89
593.26	4947.89
593.41	4580.43
593.57	4109.98
593.73	3658.26
593.89	3227.60
594.05	2972.48
594.20	2633.10
594.36	2455.22
594.52	2279.68
594.68	2094.78
594.84	2052.65
594.99	2097.12
595.15	1989.46
595.31	1933.28
595.47	1884.13
595.62	1865.41
595.78	1914.56
595.94	1844.34
596.10	1973.07
596.25	1907.54
596.41	2038.61
596.57	2012.86
596.73	1846.68
596.88	1853.70
597.04	1923.92
597.20	2022.22
597.36	1947.33
597.51	2052.65
597.67	2010.52
597.83	2216.49
597.99	2349.90
598.14	2431.82
598.30	2513.74
598.46	2605.02
598.61	2895.24
598.77	3012.27
598.93	3089.51
599.09	3110.57
599.24	3204.19
599.40	3129.30
599.56	3112.91
599.71	2808.64
599.87	2857.79
600.03	2761.83
600.18	2532.46
600.34	2317.13
600.50	2066.69
600.65	2024.56
600.81	1961.37
600.97	1846.68
601.12	1764.76
601.28	1703.91
601.44	1621.99
601.59	1502.62
601.75	1500.28
601.91	1383.26
602.06	1364.53
602.22	1416.02
602.37	1343.47
602.53	1231.12
602.69	1254.53
602.84	1252.19
603.00	1296.66
603.16	1308.36
603.31	1394.96
603.47	1317.72
603.62	1331.76
603.78	1444.11
603.94	1383.26
604.09	1420.71
604.25	1519.01
604.40	1425.39
604.56	1458.15
604.71	1561.14
604.87	1530.71
605.03	1540.07
605.18	1586.88
605.34	1666.46
605.49	1671.14
605.65	1736.68
605.80	1708.59
