SpectraSuite Data File
++++++++++++++++++++++++++++++++++++
Date: Fri Oct 04 11:42:02 GMT-05:00 2013
User: price-jones
Dark Spectrum Present: No
Reference Spectrum Present: No
Number of Sampled Component Spectra: 1
Spectrometers: USB2+H05261
Integration Time (usec): 100000 (USB2+H05261)
Spectra Averaged: 1 (USB2+H05261)
Boxcar Smoothing: 0 (USB2+H05261)
Correct for Electrical Dark: No (USB2+H05261)
Strobe/Lamp Enabled: No (USB2+H05261)
Correct for Detector Non-linearity: No (USB2+H05261)
Correct for Stray Light: No (USB2+H05261)
Number of Pixels in Processed Spectrum: 2048
>>>>>Begin Processed Spectral Data<<<<<
365.73	98.30
365.92	98.30
366.12	98.30
366.32	9.36
366.52	0.00
366.72	70.22
366.91	0.00
367.11	0.00
367.31	0.00
367.51	0.00
367.70	0.00
367.90	0.00
368.10	0.00
368.30	0.00
368.49	0.00
368.69	0.00
368.89	0.00
369.09	0.00
369.28	28.09
369.48	0.00
369.68	9.36
369.87	0.00
370.07	9.36
370.27	63.19
370.47	67.88
370.66	16.38
370.86	0.00
371.06	86.60
371.25	32.77
371.45	16.38
371.65	107.66
371.84	18.72
372.04	149.79
372.24	0.00
372.44	25.75
372.63	39.79
372.83	114.69
373.03	95.96
373.22	58.51
373.42	65.54
373.62	30.43
373.81	159.16
374.01	117.03
374.21	88.94
374.40	119.37
374.60	95.96
374.79	147.45
374.99	60.85
375.19	46.81
375.38	187.24
375.58	159.16
375.78	133.41
375.97	168.52
376.17	163.84
376.37	88.94
376.56	152.13
376.76	175.54
376.95	63.19
377.15	159.16
377.35	100.64
377.54	53.83
377.74	49.15
377.93	86.60
378.13	105.32
378.33	138.09
378.52	161.50
378.72	163.84
378.91	74.90
379.11	147.45
379.31	51.49
379.50	81.92
379.70	88.94
379.89	128.73
380.09	154.48
380.28	98.30
380.48	161.50
380.68	112.35
380.87	124.05
381.07	121.71
381.26	110.01
381.46	84.26
381.65	105.32
381.85	149.79
382.04	112.35
382.24	145.11
382.43	107.66
382.63	37.45
382.83	65.54
383.02	156.82
383.22	175.54
383.41	58.51
383.61	154.48
383.80	49.15
384.00	70.22
384.19	84.26
384.39	77.24
384.58	37.45
384.78	86.60
384.97	84.26
385.17	110.01
385.36	145.11
385.56	191.92
385.75	86.60
385.95	65.54
386.14	112.35
386.34	114.69
386.53	119.37
386.72	63.19
386.92	131.07
387.11	84.26
387.31	152.13
387.50	110.01
387.70	81.92
387.89	105.32
388.09	117.03
388.28	93.62
388.48	49.15
388.67	110.01
388.86	35.11
389.06	124.05
389.25	77.24
389.45	112.35
389.64	124.05
389.84	142.77
390.03	152.13
390.22	105.32
390.42	203.63
390.61	187.24
390.81	63.19
391.00	60.85
391.19	93.62
391.39	88.94
391.58	100.64
391.78	30.43
391.97	70.22
392.16	107.66
392.36	147.45
392.55	46.81
392.75	161.50
392.94	121.71
393.13	121.71
393.33	53.83
393.52	119.37
393.71	117.03
393.91	170.86
394.10	84.26
394.29	142.77
394.49	91.28
394.68	135.75
394.88	126.39
395.07	93.62
395.26	93.62
395.46	51.49
395.65	117.03
395.84	149.79
396.04	196.60
396.23	65.54
396.42	117.03
396.62	58.51
396.81	159.16
397.00	145.11
397.19	88.94
397.39	182.56
397.58	152.13
397.77	124.05
397.97	93.62
398.16	163.84
398.35	126.39
398.55	88.94
398.74	114.69
398.93	67.88
399.12	117.03
399.32	135.75
399.51	128.73
399.70	131.07
399.90	154.48
400.09	138.09
400.28	161.50
400.47	121.71
400.67	166.18
400.86	86.60
401.05	102.98
401.24	112.35
401.44	117.03
401.63	133.41
401.82	95.96
402.01	51.49
402.21	166.18
402.40	131.07
402.59	112.35
402.78	105.32
402.97	187.24
403.17	84.26
403.36	119.37
403.55	124.05
403.74	110.01
403.93	138.09
404.13	227.03
404.32	187.24
404.51	198.95
404.70	231.71
404.89	161.50
405.09	184.90
405.28	147.45
405.47	95.96
405.66	93.62
405.85	107.66
406.05	100.64
406.24	112.35
406.43	67.88
406.62	149.79
406.81	208.31
407.00	77.24
407.20	145.11
407.39	70.22
407.58	95.96
407.77	86.60
407.96	196.60
408.15	105.32
408.34	121.71
408.54	145.11
408.73	147.45
408.92	138.09
409.11	140.43
409.30	184.90
409.49	121.71
409.68	145.11
409.87	142.77
410.07	102.98
410.26	180.22
410.45	79.58
410.64	133.41
410.83	133.41
411.02	142.77
411.21	126.39
411.40	154.48
411.59	30.43
411.78	142.77
411.98	140.43
412.17	105.32
412.36	107.66
412.55	135.75
412.74	107.66
412.93	170.86
413.12	121.71
413.31	166.18
413.50	154.48
413.69	177.88
413.88	177.88
414.07	112.35
414.26	91.28
414.45	72.56
414.64	184.90
414.83	180.22
415.02	58.51
415.22	138.09
415.41	222.35
415.60	140.43
415.79	138.09
415.98	147.45
416.17	149.79
416.36	133.41
416.55	135.75
416.74	119.37
416.93	231.71
417.12	168.52
417.31	182.56
417.50	152.13
417.69	236.39
417.88	140.43
418.07	163.84
418.26	140.43
418.45	203.63
418.64	210.65
418.83	161.50
419.02	163.84
419.21	117.03
419.39	114.69
419.58	124.05
419.77	210.65
419.96	180.22
420.15	140.43
420.34	98.30
420.53	156.82
420.72	177.88
420.91	201.29
421.10	133.41
421.29	182.56
421.48	145.11
421.67	152.13
421.86	154.48
422.05	156.82
422.24	234.05
422.43	161.50
422.61	124.05
422.80	140.43
422.99	159.16
423.18	46.81
423.37	201.29
423.56	154.48
423.75	203.63
423.94	105.32
424.13	196.60
424.32	133.41
424.50	93.62
424.69	184.90
424.88	154.48
425.07	128.73
425.26	196.60
425.45	142.77
425.64	107.66
425.83	84.26
426.01	149.79
426.20	117.03
426.39	107.66
426.58	212.99
426.77	182.56
426.96	159.16
427.15	105.32
427.33	154.48
427.52	149.79
427.71	210.65
427.90	173.20
428.09	117.03
428.28	95.96
428.46	112.35
428.65	175.54
428.84	56.17
429.03	180.22
429.22	135.75
429.40	243.42
429.59	93.62
429.78	175.54
429.97	177.88
430.16	147.45
430.34	173.20
430.53	56.17
430.72	182.56
430.91	182.56
431.10	63.19
431.28	156.82
431.47	166.18
431.66	227.03
431.85	163.84
432.03	102.98
432.22	217.67
432.41	142.77
432.60	210.65
432.79	128.73
432.97	166.18
433.16	93.62
433.35	133.41
433.54	159.16
433.72	182.56
433.91	168.52
434.10	98.30
434.28	205.97
434.47	124.05
434.66	234.05
434.85	184.90
435.03	250.44
435.22	550.03
435.41	915.15
435.59	858.98
435.78	660.03
435.97	456.40
436.16	292.57
436.34	163.84
436.53	203.63
436.72	161.50
436.90	161.50
437.09	212.99
437.28	159.16
437.46	126.39
437.65	250.44
437.84	156.82
438.02	182.56
438.21	175.54
438.40	121.71
438.58	135.75
438.77	114.69
438.96	177.88
439.14	145.11
439.33	124.05
439.52	114.69
439.70	180.22
439.89	149.79
440.08	110.01
440.26	180.22
440.45	231.71
440.63	107.66
440.82	198.95
441.01	117.03
441.19	142.77
441.38	121.71
441.57	142.77
441.75	154.48
441.94	182.56
442.12	140.43
442.31	163.84
442.50	152.13
442.68	140.43
442.87	156.82
443.05	177.88
443.24	149.79
443.43	189.58
443.61	105.32
443.80	191.92
443.98	117.03
444.17	138.09
444.35	175.54
444.54	126.39
444.73	177.88
444.91	124.05
445.10	273.84
445.28	124.05
445.47	117.03
445.65	110.01
445.84	117.03
446.02	173.20
446.21	147.45
446.39	154.48
446.58	170.86
446.77	177.88
446.95	168.52
447.14	156.82
447.32	238.73
447.51	128.73
447.69	131.07
447.88	220.01
448.06	203.63
448.25	184.90
448.43	114.69
448.62	189.58
448.80	210.65
448.99	149.79
449.17	163.84
449.36	98.30
449.54	154.48
449.73	126.39
449.91	149.79
450.10	135.75
450.28	149.79
450.46	229.37
450.65	236.39
450.83	234.05
451.02	84.26
451.20	170.86
451.39	170.86
451.57	145.11
451.76	58.51
451.94	163.84
452.13	147.45
452.31	229.37
452.49	124.05
452.68	140.43
452.86	166.18
453.05	154.48
453.23	166.18
453.42	135.75
453.60	166.18
453.78	131.07
453.97	138.09
454.15	135.75
454.34	180.22
454.52	133.41
454.70	210.65
454.89	140.43
455.07	208.31
455.26	196.60
455.44	159.16
455.62	102.98
455.81	236.39
455.99	124.05
456.17	215.33
456.36	161.50
456.54	177.88
456.73	173.20
456.91	217.67
457.09	180.22
457.28	184.90
457.46	248.10
457.64	161.50
457.83	189.58
458.01	170.86
458.19	142.77
458.38	245.76
458.56	166.18
458.74	234.05
458.93	93.62
459.11	175.54
459.29	161.50
459.48	184.90
459.66	140.43
459.84	168.52
460.03	231.71
460.21	191.92
460.39	210.65
460.57	273.84
460.76	180.22
460.94	236.39
461.12	182.56
461.31	142.77
461.49	220.01
461.67	177.88
461.85	177.88
462.04	170.86
462.22	592.16
462.40	191.92
462.59	163.84
462.77	210.65
462.95	107.66
463.13	182.56
463.32	152.13
463.50	131.07
463.68	147.45
463.86	138.09
464.05	156.82
464.23	170.86
464.41	180.22
464.59	126.39
464.78	231.71
464.96	161.50
465.14	210.65
465.32	133.41
465.50	152.13
465.69	187.24
465.87	112.35
466.05	140.43
466.23	149.79
466.41	170.86
466.60	184.90
466.78	152.13
466.96	184.90
467.14	163.84
467.32	138.09
467.51	187.24
467.69	196.60
467.87	189.58
468.05	224.69
468.23	241.08
468.41	128.73
468.60	110.01
468.78	198.95
468.96	205.97
469.14	175.54
469.32	196.60
469.50	159.16
469.69	215.33
469.87	245.76
470.05	168.52
470.23	173.20
470.41	163.84
470.59	112.35
470.77	163.84
470.95	142.77
471.14	182.56
471.32	114.69
471.50	238.73
471.68	184.90
471.86	224.69
472.04	124.05
472.22	133.41
472.40	198.95
472.58	107.66
472.77	110.01
472.95	102.98
473.13	159.16
473.31	145.11
473.49	133.41
473.67	215.33
473.85	110.01
474.03	184.90
474.21	149.79
474.39	184.90
474.57	138.09
474.75	196.60
474.93	152.13
475.12	152.13
475.30	163.84
475.48	224.69
475.66	212.99
475.84	135.75
476.02	184.90
476.20	189.58
476.38	147.45
476.56	224.69
476.74	163.84
476.92	135.75
477.10	161.50
477.28	168.52
477.46	147.45
477.64	222.35
477.82	201.29
478.00	124.05
478.18	138.09
478.36	203.63
478.54	187.24
478.72	124.05
478.90	217.67
479.08	215.33
479.26	231.71
479.44	187.24
479.62	140.43
479.80	175.54
479.98	191.92
480.16	229.37
480.34	208.31
480.52	224.69
480.70	145.11
480.88	154.48
481.06	205.97
481.24	196.60
481.41	210.65
481.59	205.97
481.77	257.46
481.95	287.89
482.13	210.65
482.31	241.08
482.49	161.50
482.67	175.54
482.85	224.69
483.03	243.42
483.21	205.97
483.39	208.31
483.57	194.26
483.74	262.14
483.92	201.29
484.10	210.65
484.28	224.69
484.46	276.18
484.64	269.16
484.82	198.95
485.00	135.75
485.18	208.31
485.35	255.12
485.53	217.67
485.71	271.50
485.89	196.60
486.07	250.44
486.25	351.08
486.43	294.91
486.61	231.71
486.78	299.59
486.96	252.78
487.14	287.89
487.32	271.50
487.50	341.72
487.68	208.31
487.85	292.57
488.03	287.89
488.21	290.23
488.39	262.14
488.57	341.72
488.75	299.59
488.92	538.32
489.10	318.31
489.28	320.65
489.46	301.93
489.64	278.52
489.81	252.78
489.99	325.33
490.17	346.40
490.35	348.74
490.53	224.69
490.70	299.59
490.88	285.55
491.06	243.42
491.24	276.18
491.41	346.40
491.59	308.95
491.77	252.78
491.95	299.59
492.13	196.60
492.30	315.97
492.48	334.70
492.66	280.86
492.84	255.12
493.01	327.68
493.19	250.44
493.37	255.12
493.54	294.91
493.72	304.27
493.90	269.16
494.08	227.03
494.25	229.37
494.43	276.18
494.61	266.82
494.79	198.95
494.96	250.44
495.14	224.69
495.32	196.60
495.49	322.99
495.67	334.70
495.85	224.69
496.02	250.44
496.20	264.48
496.38	252.78
496.55	252.78
496.73	243.42
496.91	243.42
497.09	304.27
497.26	236.39
497.44	257.46
497.62	222.35
497.79	255.12
497.97	266.82
498.14	353.42
498.32	290.23
498.50	285.55
498.67	259.80
498.85	266.82
499.03	231.71
499.20	234.05
499.38	217.67
499.56	248.10
499.73	339.38
499.91	276.18
500.08	241.08
500.26	231.71
500.44	196.60
500.61	238.73
500.79	203.63
500.97	203.63
501.14	217.67
501.32	217.67
501.49	224.69
501.67	201.29
501.84	259.80
502.02	210.65
502.20	330.02
502.37	241.08
502.55	212.99
502.72	215.33
502.90	292.57
503.07	250.44
503.25	212.99
503.43	311.29
503.60	208.31
503.78	243.42
503.95	205.97
504.13	161.50
504.30	285.55
504.48	234.05
504.65	325.33
504.83	252.78
505.01	212.99
505.18	227.03
505.36	217.67
505.53	308.95
505.71	238.73
505.88	257.46
506.06	191.92
506.23	163.84
506.41	208.31
506.58	262.14
506.76	203.63
506.93	191.92
507.11	241.08
507.28	222.35
507.46	163.84
507.63	259.80
507.81	205.97
507.98	198.95
508.16	248.10
508.33	236.39
508.50	243.42
508.68	215.33
508.85	283.20
509.03	173.20
509.20	215.33
509.38	248.10
509.55	241.08
509.73	215.33
509.90	163.84
510.08	208.31
510.25	262.14
510.42	255.12
510.60	276.18
510.77	220.01
510.95	227.03
511.12	248.10
511.30	198.95
511.47	203.63
511.64	257.46
511.82	264.48
511.99	238.73
512.17	250.44
512.34	212.99
512.51	231.71
512.69	201.29
512.86	191.92
513.04	227.03
513.21	229.37
513.38	276.18
513.56	224.69
513.73	222.35
513.90	194.26
514.08	238.73
514.25	238.73
514.43	257.46
514.60	149.79
514.77	222.35
514.95	262.14
515.12	266.82
515.29	297.25
515.47	276.18
515.64	269.16
515.81	297.25
515.99	196.60
516.16	245.76
516.33	308.95
516.51	180.22
516.68	166.18
516.85	170.86
517.03	208.31
517.20	245.76
517.37	208.31
517.54	252.78
517.72	191.92
517.89	205.97
518.06	271.50
518.24	238.73
518.41	234.05
518.58	224.69
518.75	264.48
518.93	229.37
519.10	259.80
519.27	257.46
519.45	217.67
519.62	243.42
519.79	330.02
519.96	297.25
520.14	212.99
520.31	311.29
520.48	191.92
520.65	189.58
520.83	266.82
521.00	306.61
521.17	276.18
521.34	170.86
521.52	245.76
521.69	220.01
521.86	189.58
522.03	159.16
522.20	341.72
522.38	252.78
522.55	227.03
522.72	243.42
522.89	308.95
523.07	287.89
523.24	215.33
523.41	238.73
523.58	245.76
523.75	252.78
523.92	191.92
524.10	252.78
524.27	210.65
524.44	262.14
524.61	280.86
524.78	266.82
524.96	266.82
525.13	304.27
525.30	266.82
525.47	250.44
525.64	278.52
525.81	294.91
525.98	182.56
526.16	205.97
526.33	229.37
526.50	161.50
526.67	238.73
526.84	175.54
527.01	215.33
527.18	194.26
527.36	266.82
527.53	248.10
527.70	255.12
527.87	191.92
528.04	339.38
528.21	217.67
528.38	227.03
528.55	341.72
528.72	283.20
528.89	313.63
529.07	243.42
529.24	259.80
529.41	308.95
529.58	297.25
529.75	187.24
529.92	250.44
530.09	220.01
530.26	266.82
530.43	294.91
530.60	252.78
530.77	308.95
530.94	238.73
531.11	241.08
531.28	224.69
531.46	255.12
531.63	287.89
531.80	252.78
531.97	234.05
532.14	304.27
532.31	234.05
532.48	266.82
532.65	215.33
532.82	224.69
532.99	236.39
533.16	259.80
533.33	292.57
533.50	358.10
533.67	271.50
533.84	290.23
534.01	287.89
534.18	217.67
534.35	184.90
534.52	262.14
534.69	280.86
534.86	250.44
535.03	287.89
535.20	266.82
535.37	269.16
535.54	313.63
535.71	262.14
535.88	285.55
536.05	266.82
536.22	325.33
536.38	397.89
536.55	346.40
536.72	341.72
536.89	306.61
537.06	292.57
537.23	311.29
537.40	297.25
537.57	313.63
537.74	404.91
537.91	437.68
538.08	362.78
538.25	397.89
538.42	367.46
538.59	407.25
538.75	414.27
538.92	362.78
539.09	491.51
539.26	442.36
539.43	540.66
539.60	552.37
539.77	550.03
539.94	578.11
540.11	645.99
540.28	655.35
540.44	622.58
540.61	643.65
540.78	683.44
540.95	748.97
541.12	926.85
541.29	973.66
541.46	1078.99
541.62	1076.65
541.79	1064.94
541.96	957.28
542.13	987.71
542.30	961.96
542.47	983.02
542.63	1025.15
542.80	938.55
542.97	889.40
543.14	861.32
543.31	884.72
543.48	994.73
543.64	954.94
543.81	1001.75
543.98	910.47
544.15	866.00
544.32	903.45
544.48	891.74
544.65	938.55
544.82	858.98
544.99	922.17
545.16	849.61
545.32	964.30
545.49	1418.36
545.66	2097.12
545.83	2485.65
546.00	2225.85
546.16	1549.43
546.33	1097.71
546.50	936.21
546.67	844.93
546.83	692.80
547.00	645.99
547.17	662.37
547.34	587.47
547.50	606.20
547.67	662.37
547.84	645.99
548.00	669.39
548.17	627.26
548.34	552.37
548.51	554.71
548.67	592.16
548.84	589.82
549.01	578.11
549.18	517.26
549.34	477.47
549.51	554.71
549.68	470.45
549.84	397.89
550.01	482.15
550.18	627.26
550.34	456.40
550.51	433.00
550.68	463.43
550.84	395.55
551.01	409.59
551.18	433.00
551.34	379.17
551.51	365.12
551.68	411.93
551.84	491.51
552.01	402.57
552.18	367.46
552.34	379.17
552.51	372.15
552.68	400.23
552.84	395.55
553.01	346.40
553.18	365.12
553.34	362.78
553.51	407.25
553.67	376.83
553.84	358.10
554.01	292.57
554.17	234.05
554.34	304.27
554.51	297.25
554.67	322.99
554.84	308.95
555.00	238.73
555.17	313.63
555.33	334.70
555.50	273.84
555.67	266.82
555.83	318.31
556.00	341.72
556.16	440.02
556.33	348.74
556.50	266.82
556.66	294.91
556.83	322.99
556.99	262.14
557.16	257.46
557.32	234.05
557.49	241.08
557.65	248.10
557.82	306.61
557.98	327.68
558.15	227.03
558.32	196.60
558.48	241.08
558.65	266.82
558.81	285.55
558.98	332.36
559.14	262.14
559.31	252.78
559.47	365.12
559.64	252.78
559.80	308.95
559.97	264.48
560.13	243.42
560.30	287.89
560.46	245.76
560.63	184.90
560.79	231.71
560.96	276.18
561.12	264.48
561.29	95.96
561.45	283.20
561.61	212.99
561.78	327.68
561.94	250.44
562.11	280.86
562.27	257.46
562.44	238.73
562.60	161.50
562.77	283.20
562.93	255.12
563.10	250.44
563.26	227.03
563.42	271.50
563.59	243.42
563.75	238.73
563.92	271.50
564.08	290.23
564.24	259.80
564.41	301.93
564.57	262.14
564.74	280.86
564.90	280.86
565.07	297.25
565.23	259.80
565.39	184.90
565.56	212.99
565.72	196.60
565.88	285.55
566.05	259.80
566.21	231.71
566.38	222.35
566.54	266.82
566.70	159.16
566.87	243.42
567.03	238.73
567.19	285.55
567.36	252.78
567.52	259.80
567.68	227.03
567.85	292.57
568.01	180.22
568.17	220.01
568.34	203.63
568.50	224.69
568.66	269.16
568.83	318.31
568.99	154.48
569.15	365.12
569.32	248.10
569.48	194.26
569.64	245.76
569.81	222.35
569.97	269.16
570.13	294.91
570.30	208.31
570.46	173.20
570.62	208.31
570.78	231.71
570.95	234.05
571.11	355.76
571.27	337.04
571.43	250.44
571.60	234.05
571.76	243.42
571.92	255.12
572.09	196.60
572.25	224.69
572.41	234.05
572.57	198.95
572.74	273.84
572.90	287.89
573.06	222.35
573.22	238.73
573.38	330.02
573.55	285.55
573.71	250.44
573.87	315.97
574.03	248.10
574.20	229.37
574.36	238.73
574.52	191.92
574.68	283.20
574.84	313.63
575.01	238.73
575.17	205.97
575.33	198.95
575.49	259.80
575.65	297.25
575.82	257.46
575.98	318.31
576.14	248.10
576.30	332.36
576.46	402.57
576.62	585.13
576.79	620.24
576.95	491.51
577.11	416.62
577.27	212.99
577.43	283.20
577.59	311.29
577.75	252.78
577.92	325.33
578.08	301.93
578.24	227.03
578.40	320.65
578.56	482.15
578.72	620.24
578.88	608.54
579.04	547.69
579.21	465.77
579.37	365.12
579.53	311.29
579.69	367.46
579.85	311.29
580.01	414.27
580.17	339.38
580.33	334.70
580.49	362.78
580.65	374.49
580.82	332.36
580.98	304.27
581.14	348.74
581.30	348.74
581.46	315.97
581.62	245.76
581.78	397.89
581.94	388.53
582.10	301.93
582.26	376.83
582.42	400.23
582.58	393.21
582.74	372.15
582.90	435.34
583.06	395.55
583.22	400.23
583.38	472.79
583.54	381.51
583.70	372.15
583.86	362.78
584.02	388.53
584.18	418.96
584.34	379.17
584.50	390.87
584.66	374.49
584.82	299.59
584.98	402.57
585.14	322.99
585.30	433.00
585.46	376.83
585.62	339.38
585.78	327.68
585.94	351.08
586.10	365.12
586.26	346.40
586.42	383.85
586.58	400.23
586.74	449.38
586.90	528.96
587.06	547.69
587.22	557.05
587.38	510.24
587.54	383.85
587.70	411.93
587.86	346.40
588.02	395.55
588.18	367.46
588.34	367.46
588.49	280.86
588.65	355.76
588.81	320.65
588.97	330.02
589.13	297.25
589.29	250.44
589.45	351.08
589.61	330.02
589.77	245.76
589.93	318.31
590.08	278.52
590.24	250.44
590.40	320.65
590.56	325.33
590.72	337.04
590.88	264.48
591.04	280.86
591.20	341.72
591.35	339.38
591.51	337.04
591.67	292.57
591.83	322.99
591.99	386.19
592.15	404.91
592.31	362.78
592.46	362.78
592.62	526.62
592.78	414.27
592.94	411.93
593.10	404.91
593.26	381.51
593.41	386.19
593.57	353.42
593.73	306.61
593.89	386.19
594.05	332.36
594.20	320.65
594.36	362.78
594.52	257.46
594.68	238.73
594.84	306.61
594.99	308.95
595.15	273.84
595.31	231.71
595.47	376.83
595.62	320.65
595.78	243.42
595.94	287.89
596.10	297.25
596.25	327.68
596.41	292.57
596.57	278.52
596.73	238.73
596.88	292.57
597.04	234.05
597.20	304.27
597.36	337.04
597.51	210.65
597.67	278.52
597.83	306.61
597.99	311.29
598.14	259.80
598.30	327.68
598.46	318.31
598.61	341.72
598.77	301.93
598.93	318.31
599.09	339.38
599.24	365.12
599.40	280.86
599.56	365.12
599.71	353.42
599.87	308.95
600.03	365.12
600.18	416.62
600.34	297.25
600.50	337.04
600.65	304.27
600.81	299.59
600.97	285.55
601.12	234.05
601.28	234.05
601.44	273.84
601.59	236.39
601.75	306.61
601.91	330.02
602.06	290.23
602.22	365.12
602.37	170.86
602.53	187.24
602.69	304.27
602.84	208.31
603.00	306.61
603.16	283.20
603.31	280.86
603.47	297.25
603.62	259.80
603.78	266.82
603.94	255.12
604.09	196.60
604.25	259.80
604.40	313.63
604.56	266.82
604.71	276.18
604.87	283.20
605.03	320.65
605.18	252.78
605.34	318.31
605.49	294.91
605.65	327.68
605.80	241.08
605.96	304.27
606.12	341.72
606.27	297.25
606.43	276.18
606.58	299.59
606.74	259.80
606.89	248.10
607.05	365.12
607.20	248.10
607.36	353.42
607.51	341.72
607.67	301.93
607.82	369.80
607.98	330.02
608.13	332.36
608.29	351.08
608.44	386.19
608.60	369.80
608.75	437.68
608.91	449.38
609.06	383.85
609.22	531.30
609.37	484.49
609.53	451.72
609.68	573.43
609.84	662.37
609.99	634.29
610.15	802.80
610.30	966.64
610.46	1170.27
610.61	1565.82
610.76	1736.68
610.92	2162.66
611.07	2282.02
611.23	2375.64
611.38	2275.00
611.54	1959.03
