SpectraSuite Data File
++++++++++++++++++++++++++++++++++++
Date: Fri Oct 04 11:41:46 GMT-05:00 2013
User: price-jones
Dark Spectrum Present: No
Reference Spectrum Present: No
Number of Sampled Component Spectra: 1
Spectrometers: USB2+H05261
Integration Time (usec): 100000 (USB2+H05261)
Spectra Averaged: 1 (USB2+H05261)
Boxcar Smoothing: 0 (USB2+H05261)
Correct for Electrical Dark: No (USB2+H05261)
Strobe/Lamp Enabled: No (USB2+H05261)
Correct for Detector Non-linearity: No (USB2+H05261)
Correct for Stray Light: No (USB2+H05261)
Number of Pixels in Processed Spectrum: 2048
>>>>>Begin Processed Spectral Data<<<<<
365.73	46.81
365.92	46.81
366.12	46.81
366.32	0.00
366.52	0.00
366.72	0.00
366.91	0.00
367.11	0.00
367.31	0.00
367.51	0.00
367.70	0.00
367.90	0.00
368.10	0.00
368.30	0.00
368.49	0.00
368.69	0.00
368.89	0.00
369.09	0.00
369.28	0.00
369.48	0.00
369.68	0.00
369.87	21.06
370.07	0.00
370.27	14.04
370.47	0.00
370.66	11.70
370.86	4.68
371.06	161.50
371.25	138.09
371.45	28.09
371.65	77.24
371.84	95.96
372.04	58.51
372.24	46.81
372.44	117.03
372.63	138.09
372.83	128.73
373.03	102.98
373.22	117.03
373.42	63.19
373.62	114.69
373.81	163.84
374.01	175.54
374.21	198.95
374.40	110.01
374.60	124.05
374.79	91.28
374.99	42.13
375.19	119.37
375.38	138.09
375.58	107.66
375.78	107.66
375.97	168.52
376.17	208.31
376.37	142.77
376.56	154.48
376.76	117.03
376.95	112.35
377.15	124.05
377.35	180.22
377.54	124.05
377.74	105.32
377.93	110.01
378.13	37.45
378.33	166.18
378.52	173.20
378.72	102.98
378.91	180.22
379.11	133.41
379.31	154.48
379.50	170.86
379.70	212.99
379.89	119.37
380.09	105.32
380.28	77.24
380.48	114.69
380.68	67.88
380.87	128.73
381.07	138.09
381.26	142.77
381.46	173.20
381.65	133.41
381.85	140.43
382.04	95.96
382.24	135.75
382.43	140.43
382.63	74.90
382.83	93.62
383.02	140.43
383.22	191.92
383.41	67.88
383.61	107.66
383.80	124.05
384.00	128.73
384.19	140.43
384.39	140.43
384.58	39.79
384.78	184.90
384.97	39.79
385.17	110.01
385.36	98.30
385.56	168.52
385.75	112.35
385.95	159.16
386.14	126.39
386.34	117.03
386.53	126.39
386.72	77.24
386.92	173.20
387.11	126.39
387.31	135.75
387.50	95.96
387.70	152.13
387.89	131.07
388.09	173.20
388.28	84.26
388.48	74.90
388.67	163.84
388.86	110.01
389.06	133.41
389.25	74.90
389.45	107.66
389.64	42.13
389.84	112.35
390.03	121.71
390.22	133.41
390.42	117.03
390.61	70.22
390.81	191.92
391.00	177.88
391.19	142.77
391.39	102.98
391.58	154.48
391.78	173.20
391.97	77.24
392.16	21.06
392.36	58.51
392.55	121.71
392.75	124.05
392.94	128.73
393.13	60.85
393.33	107.66
393.52	156.82
393.71	215.33
393.91	149.79
394.10	128.73
394.29	107.66
394.49	84.26
394.68	72.56
394.88	88.94
395.07	189.58
395.26	180.22
395.46	126.39
395.65	149.79
395.84	112.35
396.04	180.22
396.23	79.58
396.42	126.39
396.62	152.13
396.81	102.98
397.00	191.92
397.19	107.66
397.39	100.64
397.58	152.13
397.77	117.03
397.97	161.50
398.16	67.88
398.35	107.66
398.55	182.56
398.74	128.73
398.93	203.63
399.12	173.20
399.32	180.22
399.51	210.65
399.70	210.65
399.90	163.84
400.09	135.75
400.28	217.67
400.47	196.60
400.67	117.03
400.86	159.16
401.05	124.05
401.24	215.33
401.44	208.31
401.63	212.99
401.82	234.05
402.01	215.33
402.21	234.05
402.40	189.58
402.59	187.24
402.78	145.11
402.97	208.31
403.17	215.33
403.36	325.33
403.55	318.31
403.74	664.71
403.93	2230.53
404.13	5125.77
404.32	7290.77
404.51	6375.62
404.70	3927.42
404.89	1495.60
405.09	468.11
405.28	315.97
405.47	215.33
405.66	215.33
405.85	189.58
406.05	248.10
406.24	142.77
406.43	147.45
406.62	217.67
406.81	161.50
407.00	430.66
407.20	706.84
407.39	1034.52
407.58	1043.88
407.77	706.84
407.96	418.96
408.15	238.73
408.34	224.69
408.54	259.80
408.73	231.71
408.92	152.13
409.11	177.88
409.30	205.97
409.49	238.73
409.68	205.97
409.87	189.58
410.07	149.79
410.26	201.29
410.45	227.03
410.64	191.92
410.83	245.76
411.02	304.27
411.21	196.60
411.40	201.29
411.59	177.88
411.78	191.92
411.98	191.92
412.17	156.82
412.36	184.90
412.55	276.18
412.74	229.37
412.93	262.14
413.12	266.82
413.31	191.92
413.50	180.22
413.69	152.13
413.88	245.76
414.07	210.65
414.26	182.56
414.45	156.82
414.64	168.52
414.83	259.80
415.02	294.91
415.22	222.35
415.41	294.91
415.60	170.86
415.79	273.84
415.98	276.18
416.17	161.50
416.36	259.80
416.55	224.69
416.74	259.80
416.93	271.50
417.12	187.24
417.31	273.84
417.50	229.37
417.69	201.29
417.88	297.25
418.07	238.73
418.26	262.14
418.45	262.14
418.64	236.39
418.83	276.18
419.02	294.91
419.21	210.65
419.39	212.99
419.58	301.93
419.77	280.86
419.96	287.89
420.15	337.04
420.34	238.73
420.53	222.35
420.72	327.68
420.91	241.08
421.10	222.35
421.29	229.37
421.48	358.10
421.67	313.63
421.86	210.65
422.05	278.52
422.24	318.31
422.43	259.80
422.61	280.86
422.80	276.18
422.99	255.12
423.18	304.27
423.37	348.74
423.56	266.82
423.75	355.76
423.94	231.71
424.13	273.84
424.32	304.27
424.50	341.72
424.69	266.82
424.88	280.86
425.07	285.55
425.26	283.20
425.45	383.85
425.64	360.44
425.83	421.30
426.01	365.12
426.20	379.17
426.39	294.91
426.58	327.68
426.77	290.23
426.96	330.02
427.15	330.02
427.33	337.04
427.52	290.23
427.71	369.80
427.90	409.59
428.09	332.36
428.28	346.40
428.46	330.02
428.65	365.12
428.84	454.06
429.03	341.72
429.22	299.59
429.40	341.72
429.59	353.42
429.78	433.00
429.97	409.59
430.16	341.72
430.34	421.30
430.53	325.33
430.72	409.59
430.91	339.38
431.10	351.08
431.28	430.66
431.47	393.21
431.66	463.43
431.85	416.62
432.03	423.64
432.22	444.70
432.41	425.98
432.60	503.22
432.79	512.58
432.97	491.51
433.16	463.43
433.35	507.90
433.54	702.16
433.72	697.48
433.91	690.46
434.10	692.80
434.28	891.74
434.47	933.87
434.66	1142.18
434.85	1362.19
435.03	3545.91
435.22	13188.92
435.41	30859.96
435.59	35035.48
435.78	22185.94
435.97	11021.58
436.16	4147.43
436.34	1516.67
436.53	908.13
436.72	744.29
436.90	655.35
437.09	571.09
437.28	564.07
437.46	435.34
437.65	531.30
437.84	507.90
438.02	521.94
438.21	463.43
438.40	484.49
438.58	393.21
438.77	465.77
438.96	517.26
439.14	447.04
439.33	486.83
439.52	500.87
439.70	381.51
439.89	489.17
440.08	486.83
440.26	472.79
440.45	493.85
440.63	538.32
440.82	409.59
441.01	489.17
441.19	503.22
441.38	414.27
441.57	444.70
441.75	461.09
441.94	472.79
442.12	425.98
442.31	475.13
442.50	475.13
442.68	475.13
442.87	430.66
443.05	470.45
443.24	486.83
443.43	463.43
443.61	423.64
443.80	461.09
443.98	425.98
444.17	472.79
444.35	475.13
444.54	442.36
444.73	454.06
444.91	477.47
445.10	496.19
445.28	475.13
445.47	465.77
445.65	463.43
445.84	505.56
446.02	493.85
446.21	475.13
446.39	484.49
446.58	477.47
446.77	390.87
446.95	437.68
447.14	479.81
447.32	526.62
447.51	447.04
447.69	456.40
447.88	367.46
448.06	423.64
448.25	433.00
448.43	416.62
448.62	381.51
448.80	489.17
448.99	376.83
449.17	437.68
449.36	475.13
449.54	472.79
449.73	397.89
449.91	489.17
450.10	430.66
450.28	461.09
450.46	449.38
450.65	433.00
450.83	411.93
451.02	386.19
451.20	498.53
451.39	414.27
451.57	447.04
451.76	475.13
451.94	479.81
452.13	512.58
452.31	482.15
452.49	484.49
452.68	433.00
452.86	519.60
453.05	421.30
453.23	393.21
453.42	430.66
453.60	444.70
453.78	486.83
453.97	402.57
454.15	517.26
454.34	482.15
454.52	500.87
454.70	496.19
454.89	484.49
455.07	463.43
455.26	470.45
455.44	505.56
455.62	489.17
455.81	449.38
455.99	449.38
456.17	409.59
456.36	454.06
456.54	433.00
456.73	454.06
456.91	472.79
457.09	491.51
457.28	425.98
457.46	493.85
457.64	447.04
457.83	472.79
458.01	484.49
458.19	507.90
458.38	461.09
458.56	449.38
458.74	491.51
458.93	454.06
459.11	372.15
459.29	472.79
459.48	461.09
459.66	400.23
459.84	430.66
460.03	493.85
460.21	365.12
460.39	395.55
460.57	437.68
460.76	442.36
460.94	486.83
461.12	379.17
461.31	454.06
461.49	486.83
461.67	416.62
461.85	383.85
462.04	440.02
462.22	550.03
462.40	433.00
462.59	411.93
462.77	362.78
462.95	470.45
463.13	468.11
463.32	547.69
463.50	409.59
463.68	454.06
463.86	414.27
464.05	482.15
464.23	535.98
464.41	484.49
464.59	554.71
464.78	470.45
464.96	440.02
465.14	500.87
465.32	491.51
465.50	512.58
465.69	472.79
465.87	475.13
466.05	442.36
466.23	475.13
466.41	454.06
466.60	421.30
466.78	503.22
466.96	479.81
467.14	484.49
467.32	468.11
467.51	484.49
467.69	526.62
467.87	521.94
468.05	395.55
468.23	430.66
468.41	451.72
468.60	430.66
468.78	468.11
468.96	477.47
469.14	440.02
469.32	409.59
469.50	407.25
469.69	407.25
469.87	421.30
470.05	393.21
470.23	334.70
470.41	381.51
470.59	388.53
470.77	395.55
470.95	430.66
471.14	404.91
471.32	444.70
471.50	430.66
471.68	421.30
471.86	409.59
472.04	379.17
472.22	414.27
472.40	332.36
472.58	402.57
472.77	444.70
472.95	423.64
473.13	482.15
473.31	458.74
473.49	397.89
473.67	491.51
473.85	369.80
474.03	425.98
474.21	421.30
474.39	531.30
474.57	524.28
474.75	397.89
474.93	409.59
475.12	430.66
475.30	393.21
475.48	526.62
475.66	528.96
475.84	456.40
476.02	433.00
476.20	423.64
476.38	475.13
476.56	510.24
476.74	433.00
476.92	402.57
477.10	416.62
477.28	482.15
477.46	575.77
477.64	454.06
477.82	514.92
478.00	409.59
478.18	587.47
478.36	479.81
478.54	517.26
478.72	500.87
478.90	477.47
479.08	573.43
479.26	486.83
479.44	482.15
479.62	610.88
479.80	627.26
479.98	582.79
480.16	587.47
480.34	662.37
480.52	653.01
480.70	758.33
480.88	720.88
481.06	826.21
481.24	702.16
481.41	851.96
481.59	842.59
481.77	835.57
481.95	894.08
482.13	1039.20
482.31	997.07
482.49	1074.31
482.67	1121.12
482.85	1343.47
483.03	1324.74
483.21	1486.24
483.39	1516.67
483.57	1764.76
483.74	1767.10
483.92	1898.17
484.10	1907.54
484.28	2106.48
484.46	2176.70
484.64	2368.62
484.82	2434.16
485.00	2476.29
485.18	2633.10
485.35	2836.73
485.53	2979.50
485.71	3002.91
485.89	3243.98
486.07	3290.79
486.25	3222.92
486.43	3173.77
486.61	3225.26
486.78	3204.19
486.96	3300.16
487.14	3241.64
487.32	3138.66
487.50	3283.77
487.68	3190.15
487.85	3272.07
488.03	3089.51
488.21	3145.68
488.39	2925.67
488.57	2944.39
488.75	2981.84
488.92	3091.85
489.10	2796.94
489.28	2766.51
489.46	2703.32
489.64	2691.62
489.81	2544.16
489.99	2656.51
490.17	2448.20
490.35	2708.00
490.53	2424.80
490.70	2546.50
490.88	2417.77
491.06	2647.15
491.24	2764.17
491.41	2909.29
491.59	2647.15
491.77	2370.96
491.95	2354.58
492.13	2443.52
492.30	2333.51
492.48	2188.40
492.66	2200.10
492.84	2314.79
493.01	2132.23
493.19	2057.33
493.37	2157.97
493.54	2106.48
493.72	2019.88
493.90	1919.24
494.08	2036.27
494.25	2064.35
494.43	1898.17
494.61	1923.92
494.79	1825.62
494.96	1783.49
495.14	1748.38
495.32	1792.85
495.49	1771.79
495.67	1753.06
495.85	1703.91
496.02	1722.63
496.20	1673.48
496.38	1605.61
496.55	1451.13
496.73	1654.76
496.91	1631.35
497.09	1638.38
497.26	1446.45
497.44	1516.67
497.62	1511.99
497.79	1479.22
497.97	1434.75
498.14	1345.81
498.32	1315.38
498.50	1324.74
498.67	1245.16
498.85	1284.95
499.03	1181.97
499.20	1205.38
499.38	1167.93
499.56	1111.75
499.73	1184.31
499.91	1167.93
500.08	1095.37
500.26	1001.75
500.44	976.00
500.61	1034.52
500.79	919.83
500.97	931.53
501.14	952.60
501.32	781.74
501.49	863.66
501.67	732.59
501.84	912.81
502.02	763.01
502.20	844.93
502.37	774.72
502.55	713.86
502.72	620.24
502.90	748.97
503.07	653.01
503.25	713.86
503.43	734.93
503.60	671.73
503.78	638.97
503.95	610.88
504.13	688.12
504.30	641.31
504.48	594.50
504.65	603.86
504.83	613.22
505.01	617.90
505.18	566.41
505.36	636.63
505.53	489.17
505.71	582.79
505.88	557.05
506.06	589.82
506.23	468.11
506.41	552.37
506.58	521.94
506.76	461.09
506.93	491.51
507.11	526.62
507.28	454.06
507.46	433.00
507.63	517.26
507.81	395.55
507.98	421.30
508.16	383.85
508.33	498.53
508.50	519.60
508.68	449.38
508.85	519.60
509.03	484.49
509.20	521.94
509.38	503.22
509.55	552.37
509.73	482.15
509.90	531.30
510.08	493.85
510.25	397.89
510.42	524.28
510.60	411.93
510.77	519.60
510.95	496.19
511.12	400.23
511.30	425.98
511.47	435.34
511.64	468.11
511.82	435.34
511.99	404.91
512.17	440.02
512.34	390.87
512.51	500.87
512.69	440.02
512.86	498.53
513.04	461.09
513.21	411.93
513.38	433.00
513.56	383.85
513.73	468.11
513.90	409.59
514.08	381.51
514.25	456.40
514.43	374.49
514.60	341.72
514.77	425.98
514.95	397.89
515.12	433.00
515.29	416.62
515.47	360.44
515.64	379.17
515.81	339.38
515.99	369.80
516.16	404.91
516.33	447.04
516.51	351.08
516.68	353.42
516.85	440.02
517.03	430.66
517.20	341.72
517.37	311.29
517.54	447.04
517.72	353.42
517.89	351.08
518.06	337.04
518.24	374.49
518.41	367.46
518.58	489.17
518.75	400.23
518.93	369.80
519.10	346.40
519.27	421.30
519.45	395.55
519.62	435.34
519.79	365.12
519.96	351.08
520.14	425.98
520.31	381.51
520.48	285.55
520.65	330.02
520.83	355.76
521.00	355.76
521.17	433.00
521.34	330.02
521.52	320.65
521.69	318.31
521.86	404.91
522.03	397.89
522.20	374.49
522.38	301.93
522.55	285.55
522.72	348.74
522.89	376.83
523.07	376.83
523.24	388.53
523.41	353.42
523.58	367.46
523.75	383.85
523.92	262.14
524.10	458.74
524.27	332.36
524.44	383.85
524.61	475.13
524.78	362.78
524.96	454.06
525.13	418.96
525.30	369.80
525.47	477.47
525.64	365.12
525.81	428.32
525.98	416.62
526.16	311.29
526.33	491.51
526.50	339.38
526.67	435.34
526.84	351.08
527.01	404.91
527.18	475.13
527.36	526.62
527.53	519.60
527.70	528.96
527.87	519.60
528.04	444.70
528.21	482.15
528.38	475.13
528.55	451.72
528.72	524.28
528.89	521.94
529.07	489.17
529.24	489.17
529.41	543.00
529.58	428.32
529.75	449.38
529.92	507.90
530.09	507.90
530.26	547.69
530.43	599.18
530.60	540.66
530.77	566.41
530.94	631.94
531.11	704.50
531.28	627.26
531.46	603.86
531.63	571.09
531.80	671.73
531.97	751.31
532.14	849.61
532.31	992.39
532.48	1104.73
532.65	1317.72
532.82	1348.15
532.99	1685.19
533.16	1844.34
533.33	1935.62
533.50	1884.13
533.67	1528.37
533.84	1467.52
534.01	1252.19
534.18	1214.74
534.35	1158.57
534.52	1158.57
534.69	1252.19
534.86	1277.93
535.03	1303.68
535.20	1378.58
535.37	1404.32
535.54	1488.58
535.71	1589.22
535.88	1600.93
536.05	1682.85
536.22	1893.49
536.38	1977.75
536.55	2282.02
536.72	2499.69
536.89	2668.21
537.06	3002.91
537.23	3328.24
537.40	3761.24
537.57	4166.15
537.74	4042.11
537.91	4273.82
538.08	4479.79
538.25	4461.06
538.42	4498.51
538.59	4732.56
538.75	4805.12
538.92	5191.31
539.09	5413.66
539.26	6094.76
539.43	6991.18
539.60	7719.09
539.77	8896.38
539.94	10120.48
540.11	10698.59
540.28	12189.51
540.44	13338.71
540.61	14621.33
540.78	16659.93
540.95	19936.68
541.12	24058.37
541.29	27047.23
541.46	28748.80
541.62	28407.08
541.79	27321.07
541.96	25214.59
542.13	23513.02
542.30	22181.26
542.47	20980.56
542.63	19335.17
542.80	18974.72
542.97	18405.97
543.14	18129.79
543.31	18480.87
543.48	18787.48
543.64	19047.28
543.81	18801.52
543.98	18740.67
544.15	19005.15
544.32	19344.53
544.48	19066.00
544.65	19037.92
544.82	18960.68
544.99	18934.93
545.16	19297.72
545.32	20219.89
545.49	32966.45
545.66	54637.47
545.83	62492.30
546.00	58848.09
546.16	45886.20
546.33	33481.36
546.50	24739.46
546.67	19468.58
546.83	17394.86
547.00	16493.76
547.17	15838.41
547.34	15290.72
547.50	14513.66
547.67	14057.26
547.84	13312.97
548.00	12917.42
548.17	12365.05
548.34	11861.84
548.51	11328.19
548.67	11169.04
548.84	10534.75
549.01	9823.23
549.18	9430.02
549.34	9202.99
549.51	8526.57
549.68	8344.01
549.84	8248.05
550.01	7751.85
550.18	7428.86
550.34	7094.16
550.51	6766.49
550.68	6413.07
550.84	5928.58
551.01	5762.40
551.18	5500.26
551.34	5170.24
551.51	4947.89
551.68	4706.82
551.84	4603.83
552.01	4418.93
552.18	4168.49
552.34	4175.52
552.51	3789.33
552.68	3861.88
552.84	3616.13
553.01	3478.04
553.18	3323.56
553.34	3342.28
553.51	3258.03
553.67	3054.40
553.84	3000.57
554.01	2874.18
554.17	2623.74
554.34	2420.11
554.51	2328.83
554.67	2150.95
554.84	2115.84
555.00	1888.81
555.17	1799.87
555.33	1804.55
555.50	1755.40
555.67	1593.90
555.83	1612.63
556.00	1516.67
556.16	1572.84
556.33	1439.43
556.50	1334.11
556.66	1310.70
556.83	1231.12
556.99	1224.10
557.16	1198.35
557.32	1130.48
557.49	1048.56
557.65	1151.54
557.82	1123.46
557.98	1048.56
558.15	1027.50
558.32	976.00
558.48	950.26
558.65	919.83
558.81	905.79
558.98	954.94
559.14	938.55
559.31	968.98
559.47	917.49
559.64	861.32
559.80	894.08
559.97	748.97
560.13	880.04
560.30	844.93
560.46	910.47
560.63	781.74
560.79	842.59
560.96	763.01
561.12	690.46
561.29	851.96
561.45	692.80
561.61	816.85
561.78	898.77
561.94	755.99
562.11	767.70
562.27	868.34
562.44	887.06
562.60	807.48
562.77	777.06
562.93	851.96
563.10	751.31
563.26	727.91
563.42	800.46
563.59	655.35
563.75	617.90
563.92	706.84
564.08	765.36
564.24	678.76
564.41	702.16
564.57	629.60
564.74	636.63
564.90	660.03
565.07	676.41
565.23	615.56
565.39	610.88
565.56	596.84
565.72	634.29
565.88	669.39
566.05	589.82
566.21	566.41
566.38	613.22
566.54	580.45
566.70	641.31
566.87	655.35
567.03	608.54
567.19	603.86
567.36	599.18
567.52	638.97
567.68	592.16
567.85	592.16
568.01	566.41
568.17	690.46
568.34	653.01
568.50	674.07
568.66	634.29
568.83	695.14
568.99	610.88
569.15	629.60
569.32	617.90
569.48	582.79
569.64	655.35
569.81	512.58
569.97	538.32
570.13	472.79
570.30	510.24
570.46	517.26
570.62	479.81
570.78	519.60
570.95	463.43
571.11	486.83
571.27	575.77
571.43	416.62
571.60	545.34
571.76	543.00
571.92	547.69
572.09	470.45
572.25	498.53
572.41	395.55
572.57	435.34
572.74	538.32
572.90	568.75
573.06	484.49
573.22	468.11
573.38	498.53
573.55	545.34
573.71	554.71
573.87	543.00
574.03	470.45
574.20	524.28
574.36	599.18
574.52	657.69
574.68	608.54
574.84	559.39
575.01	592.16
575.17	699.82
575.33	718.54
575.49	816.85
575.65	873.02
575.82	819.19
575.98	1025.15
576.14	1144.52
576.30	2076.06
576.46	6675.21
576.62	12542.93
576.79	14026.83
576.95	10050.26
577.11	6399.02
577.27	4542.98
577.43	3016.95
577.59	2071.37
577.75	1577.52
577.92	1373.89
578.08	1378.58
578.24	1486.24
578.40	2399.05
578.56	6293.70
578.72	11494.37
578.88	12882.31
579.04	9591.52
579.21	6452.86
579.37	4690.43
579.53	3672.30
579.69	3489.74
579.85	4161.47
580.01	4917.47
580.17	4929.17
580.33	4131.05
580.49	3543.57
580.65	3185.47
580.82	2752.47
580.98	2679.91
581.14	2698.64
581.30	3047.38
581.46	3311.86
581.62	3487.40
581.78	3742.52
581.94	3997.64
582.10	4168.49
582.26	4435.32
582.42	4610.86
582.58	4709.16
582.74	4947.89
582.90	4922.15
583.06	4924.49
583.22	4980.66
583.38	4884.70
583.54	4725.54
583.70	4905.76
583.86	4809.80
584.02	4674.05
584.18	4739.58
584.34	4685.75
584.50	4526.60
584.66	4421.27
584.82	4348.72
584.98	4301.90
585.14	4187.22
585.30	4077.21
585.46	4138.07
585.62	3946.14
585.78	4056.15
585.94	3992.95
586.10	4184.88
586.26	4292.54
586.42	5018.11
586.58	5806.87
586.74	7162.04
586.90	8638.92
587.06	9408.95
587.22	9481.51
587.38	8446.99
587.54	7379.71
587.70	6270.30
587.86	5217.05
588.02	4535.96
588.18	4011.68
588.34	3562.30
588.49	3225.26
588.65	3103.55
588.81	2897.58
588.97	2806.30
589.13	2782.90
589.29	2630.76
589.45	2675.23
589.61	2647.15
589.77	2708.00
589.93	2876.52
590.08	2839.07
590.24	2787.58
590.40	2953.76
590.56	3070.78
590.72	3098.87
590.88	3243.98
591.04	3318.88
591.20	3412.50
591.35	3576.34
591.51	3613.79
591.67	3754.22
591.83	4149.77
591.99	4454.04
592.15	4674.05
592.31	5341.10
592.46	5888.79
592.62	6263.27
592.78	6782.87
592.94	6764.15
593.10	6801.60
593.26	6448.18
593.41	6045.60
593.57	5249.82
593.73	4880.02
593.89	4163.81
594.05	3756.56
594.20	3309.52
594.36	3108.23
594.52	2930.35
594.68	2703.32
594.84	2607.36
594.99	2565.23
595.15	2607.36
595.31	2530.12
595.47	2532.46
595.62	2359.26
595.78	2377.98
595.94	2319.47
596.10	2424.80
596.25	2445.86
596.41	2434.16
596.57	2324.15
596.73	2237.55
596.88	2347.56
597.04	2392.03
597.20	2279.68
597.36	2359.26
597.51	2583.95
597.67	2686.94
597.83	2715.02
597.99	3042.70
598.14	3047.38
598.30	3342.28
598.46	3417.18
598.61	3651.24
598.77	3854.86
598.93	3967.21
599.09	4077.21
599.24	4121.68
599.40	3967.21
599.56	3887.63
599.71	3775.28
599.87	3632.51
600.03	3503.78
600.18	3112.91
600.34	3021.63
600.50	2614.38
600.65	2689.28
600.81	2590.97
600.97	2300.75
601.12	2160.31
601.28	2064.35
601.44	1961.37
601.59	1891.15
601.75	1905.20
601.91	1902.86
602.06	1746.04
602.22	1696.89
602.37	1659.44
602.53	1629.01
602.69	1659.44
602.84	1561.14
603.00	1619.65
603.16	1582.20
603.31	1638.38
603.47	1680.50
603.62	1647.74
603.78	1727.32
603.94	1863.07
604.09	1811.57
604.25	1886.47
604.40	1865.41
604.56	1820.94
604.71	1912.22
604.87	1933.28
605.03	1898.17
605.18	1930.94
