SpectraSuite Data File
++++++++++++++++++++++++++++++++++++
Date: Fri Oct 04 11:41:42 GMT-05:00 2013
User: price-jones
Dark Spectrum Present: No
Reference Spectrum Present: No
Number of Sampled Component Spectra: 1
Spectrometers: USB2+H05261
Integration Time (usec): 100000 (USB2+H05261)
Spectra Averaged: 1 (USB2+H05261)
Boxcar Smoothing: 0 (USB2+H05261)
Correct for Electrical Dark: No (USB2+H05261)
Strobe/Lamp Enabled: No (USB2+H05261)
Correct for Detector Non-linearity: No (USB2+H05261)
Correct for Stray Light: No (USB2+H05261)
Number of Pixels in Processed Spectrum: 2048
>>>>>Begin Processed Spectral Data<<<<<
365.73	67.88
365.92	67.88
366.12	67.88
366.32	0.00
366.52	0.00
366.72	0.00
366.91	0.00
367.11	0.00
367.31	0.00
367.51	0.00
367.70	0.00
367.90	0.00
368.10	0.00
368.30	0.00
368.49	0.00
368.69	0.00
368.89	0.00
369.09	18.72
369.28	32.77
369.48	0.00
369.68	0.00
369.87	0.00
370.07	0.00
370.27	25.75
370.47	35.11
370.66	0.00
370.86	2.34
371.06	119.37
371.25	65.54
371.45	51.49
371.65	107.66
371.84	63.19
372.04	117.03
372.24	161.50
372.44	107.66
372.63	138.09
372.83	140.43
373.03	149.79
373.22	112.35
373.42	110.01
373.62	140.43
373.81	145.11
374.01	170.86
374.21	156.82
374.40	88.94
374.60	147.45
374.79	138.09
374.99	133.41
375.19	100.64
375.38	84.26
375.58	126.39
375.78	105.32
375.97	170.86
376.17	203.63
376.37	105.32
376.56	154.48
376.76	107.66
376.95	98.30
377.15	184.90
377.35	163.84
377.54	117.03
377.74	128.73
377.93	95.96
378.13	114.69
378.33	117.03
378.52	102.98
378.72	149.79
378.91	159.16
379.11	173.20
379.31	95.96
379.50	58.51
379.70	175.54
379.89	208.31
380.09	95.96
380.28	140.43
380.48	133.41
380.68	149.79
380.87	79.58
381.07	46.81
381.26	156.82
381.46	91.28
381.65	152.13
381.85	107.66
382.04	79.58
382.24	161.50
382.43	86.60
382.63	138.09
382.83	149.79
383.02	208.31
383.22	107.66
383.41	121.71
383.61	117.03
383.80	81.92
384.00	128.73
384.19	140.43
384.39	135.75
384.58	51.49
384.78	16.38
384.97	131.07
385.17	86.60
385.36	70.22
385.56	117.03
385.75	72.56
385.95	119.37
386.14	53.83
386.34	205.97
386.53	145.11
386.72	107.66
386.92	142.77
387.11	100.64
387.31	159.16
387.50	140.43
387.70	56.17
387.89	126.39
388.09	112.35
388.28	131.07
388.48	128.73
388.67	203.63
388.86	98.30
389.06	88.94
389.25	135.75
389.45	112.35
389.64	110.01
389.84	102.98
390.03	163.84
390.22	112.35
390.42	107.66
390.61	51.49
390.81	145.11
391.00	133.41
391.19	121.71
391.39	42.13
391.58	159.16
391.78	124.05
391.97	166.18
392.16	114.69
392.36	145.11
392.55	84.26
392.75	91.28
392.94	128.73
393.13	126.39
393.33	63.19
393.52	114.69
393.71	105.32
393.91	32.77
394.10	84.26
394.29	131.07
394.49	95.96
394.68	98.30
394.88	159.16
395.07	187.24
395.26	105.32
395.46	79.58
395.65	131.07
395.84	140.43
396.04	161.50
396.23	114.69
396.42	126.39
396.62	154.48
396.81	107.66
397.00	95.96
397.19	140.43
397.39	107.66
397.58	107.66
397.77	121.71
397.97	88.94
398.16	70.22
398.35	138.09
398.55	159.16
398.74	156.82
398.93	187.24
399.12	98.30
399.32	102.98
399.51	177.88
399.70	154.48
399.90	159.16
400.09	133.41
400.28	163.84
400.47	147.45
400.67	231.71
400.86	98.30
401.05	163.84
401.24	187.24
401.44	166.18
401.63	152.13
401.82	133.41
402.01	140.43
402.21	205.97
402.40	161.50
402.59	154.48
402.78	166.18
402.97	262.14
403.17	227.03
403.36	224.69
403.55	367.46
403.74	608.54
403.93	1898.17
404.13	4561.70
404.32	6111.14
404.51	4992.36
404.70	3122.27
404.89	1207.72
405.09	486.83
405.28	271.50
405.47	280.86
405.66	243.42
405.85	170.86
406.05	187.24
406.24	208.31
406.43	168.52
406.62	252.78
406.81	266.82
407.00	372.15
407.20	557.05
407.39	835.57
407.58	842.59
407.77	650.67
407.96	369.80
408.15	236.39
408.34	201.29
408.54	140.43
408.73	152.13
408.92	149.79
409.11	236.39
409.30	173.20
409.49	105.32
409.68	149.79
409.87	191.92
410.07	156.82
410.26	224.69
410.45	245.76
410.64	114.69
410.83	201.29
411.02	180.22
411.21	194.26
411.40	201.29
411.59	191.92
411.78	220.01
411.98	189.58
412.17	166.18
412.36	250.44
412.55	182.56
412.74	224.69
412.93	280.86
413.12	198.95
413.31	245.76
413.50	220.01
413.69	182.56
413.88	177.88
414.07	264.48
414.26	280.86
414.45	224.69
414.64	210.65
414.83	276.18
415.02	208.31
415.22	180.22
415.41	262.14
415.60	201.29
415.79	283.20
415.98	194.26
416.17	231.71
416.36	238.73
416.55	180.22
416.74	234.05
416.93	224.69
417.12	285.55
417.31	283.20
417.50	220.01
417.69	276.18
417.88	224.69
418.07	217.67
418.26	149.79
418.45	243.42
418.64	259.80
418.83	332.36
419.02	262.14
419.21	280.86
419.39	294.91
419.58	159.16
419.77	212.99
419.96	243.42
420.15	313.63
420.34	264.48
420.53	194.26
420.72	287.89
420.91	287.89
421.10	311.29
421.29	304.27
421.48	290.23
421.67	306.61
421.86	269.16
422.05	334.70
422.24	252.78
422.43	278.52
422.61	229.37
422.80	287.89
422.99	308.95
423.18	294.91
423.37	252.78
423.56	322.99
423.75	367.46
423.94	339.38
424.13	236.39
424.32	229.37
424.50	285.55
424.69	297.25
424.88	292.57
425.07	259.80
425.26	315.97
425.45	308.95
425.64	294.91
425.83	308.95
426.01	379.17
426.20	294.91
426.39	269.16
426.58	278.52
426.77	313.63
426.96	299.59
427.15	348.74
427.33	320.65
427.52	351.08
427.71	365.12
427.90	367.46
428.09	301.93
428.28	229.37
428.46	283.20
428.65	374.49
428.84	292.57
429.03	409.59
429.22	306.61
429.40	301.93
429.59	285.55
429.78	418.96
429.97	285.55
430.16	334.70
430.34	327.68
430.53	393.21
430.72	313.63
430.91	416.62
431.10	304.27
431.28	428.32
431.47	374.49
431.66	292.57
431.85	346.40
432.03	397.89
432.22	479.81
432.41	425.98
432.60	402.57
432.79	428.32
432.97	367.46
433.16	451.72
433.35	491.51
433.54	573.43
433.72	624.92
433.91	533.64
434.10	613.22
434.28	781.74
434.47	830.89
434.66	971.32
434.85	1097.71
435.03	3073.12
435.22	11786.94
435.41	26471.46
435.59	26665.72
435.78	17357.41
435.97	8814.46
436.16	3407.82
436.34	1203.04
436.53	812.17
436.72	559.39
436.90	519.60
437.09	545.34
437.28	486.83
437.46	468.11
437.65	482.15
437.84	442.36
438.02	475.13
438.21	404.91
438.40	416.62
438.58	498.53
438.77	372.15
438.96	397.89
439.14	386.19
439.33	421.30
439.52	360.44
439.70	374.49
439.89	383.85
440.08	369.80
440.26	444.70
440.45	411.93
440.63	442.36
440.82	383.85
441.01	454.06
441.19	430.66
441.38	381.51
441.57	402.57
441.75	409.59
441.94	456.40
442.12	496.19
442.31	374.49
442.50	339.38
442.68	418.96
442.87	482.15
443.05	454.06
443.24	416.62
443.43	489.17
443.61	397.89
443.80	440.02
443.98	374.49
444.17	379.17
444.35	372.15
444.54	447.04
444.73	442.36
444.91	437.68
445.10	337.04
445.28	381.51
445.47	416.62
445.65	383.85
445.84	351.08
446.02	437.68
446.21	517.26
446.39	353.42
446.58	440.02
446.77	381.51
446.95	442.36
447.14	484.49
447.32	430.66
447.51	428.32
447.69	421.30
447.88	428.32
448.06	447.04
448.25	425.98
448.43	393.21
448.62	379.17
448.80	390.87
448.99	444.70
449.17	376.83
449.36	395.55
449.54	407.25
449.73	386.19
449.91	355.76
450.10	386.19
450.28	440.02
450.46	470.45
450.65	430.66
450.83	365.12
451.02	463.43
451.20	463.43
451.39	383.85
451.57	374.49
451.76	444.70
451.94	393.21
452.13	386.19
452.31	381.51
452.49	332.36
452.68	369.80
452.86	416.62
453.05	489.17
453.23	407.25
453.42	365.12
453.60	372.15
453.78	409.59
453.97	341.72
454.15	404.91
454.34	397.89
454.52	428.32
454.70	442.36
454.89	407.25
455.07	341.72
455.26	465.77
455.44	454.06
455.62	355.76
455.81	411.93
455.99	367.46
456.17	390.87
456.36	447.04
456.54	383.85
456.73	280.86
456.91	400.23
457.09	374.49
457.28	482.15
457.46	393.21
457.64	348.74
457.83	402.57
458.01	404.91
458.19	393.21
458.38	482.15
458.56	435.34
458.74	397.89
458.93	440.02
459.11	430.66
459.29	409.59
459.48	421.30
459.66	521.94
459.84	386.19
460.03	458.74
460.21	409.59
460.39	416.62
460.57	435.34
460.76	449.38
460.94	393.21
461.12	447.04
461.31	458.74
461.49	351.08
461.67	379.17
461.85	395.55
462.04	355.76
462.22	533.64
462.40	444.70
462.59	414.27
462.77	416.62
462.95	346.40
463.13	381.51
463.32	411.93
463.50	325.33
463.68	393.21
463.86	355.76
464.05	341.72
464.23	428.32
464.41	390.87
464.59	435.34
464.78	440.02
464.96	449.38
465.14	409.59
465.32	397.89
465.50	313.63
465.69	334.70
465.87	355.76
466.05	395.55
466.23	397.89
466.41	346.40
466.60	411.93
466.78	444.70
466.96	498.53
467.14	437.68
467.32	372.15
467.51	425.98
467.69	372.15
467.87	411.93
468.05	341.72
468.23	435.34
468.41	411.93
468.60	421.30
468.78	311.29
468.96	374.49
469.14	418.96
469.32	344.06
469.50	400.23
469.69	330.02
469.87	414.27
470.05	322.99
470.23	383.85
470.41	358.10
470.59	365.12
470.77	374.49
470.95	395.55
471.14	435.34
471.32	393.21
471.50	390.87
471.68	306.61
471.86	395.55
472.04	437.68
472.22	407.25
472.40	358.10
472.58	449.38
472.77	376.83
472.95	294.91
473.13	304.27
473.31	404.91
473.49	404.91
473.67	320.65
473.85	397.89
474.03	409.59
474.21	418.96
474.39	416.62
474.57	470.45
474.75	372.15
474.93	325.33
475.12	369.80
475.30	346.40
475.48	388.53
475.66	379.17
475.84	418.96
476.02	430.66
476.20	383.85
476.38	381.51
476.56	418.96
476.74	362.78
476.92	388.53
477.10	425.98
477.28	475.13
477.46	355.76
477.64	367.46
477.82	475.13
478.00	449.38
478.18	430.66
478.36	463.43
478.54	451.72
478.72	397.89
478.90	461.09
479.08	409.59
479.26	500.87
479.44	482.15
479.62	416.62
479.80	533.64
479.98	482.15
480.16	470.45
480.34	557.05
480.52	442.36
480.70	573.43
480.88	585.13
481.06	657.69
481.24	543.00
481.41	692.80
481.59	753.65
481.77	669.39
481.95	833.23
482.13	875.36
482.31	866.00
482.49	980.68
482.67	1029.84
482.85	1149.20
483.03	1207.72
483.21	1212.40
483.39	1315.38
483.57	1259.21
483.74	1469.86
483.92	1570.50
484.10	1624.33
484.28	1722.63
484.46	1743.70
484.64	1930.94
484.82	1884.13
485.00	2057.33
485.18	2115.84
485.35	2267.98
485.53	2436.50
485.71	2516.08
485.89	2635.44
486.07	2640.12
486.25	2675.23
486.43	2644.81
486.61	2731.41
486.78	2635.44
486.96	2644.81
487.14	2810.98
487.32	2656.51
487.50	2691.62
487.68	2658.85
487.85	2628.42
488.03	2548.84
488.21	2534.80
488.39	2445.86
488.57	2495.01
488.75	2282.02
488.92	2605.02
489.10	2394.37
489.28	2260.96
489.46	2223.51
489.64	2150.95
489.81	2040.95
489.99	2026.90
490.17	1998.82
490.35	2036.27
490.53	2122.87
490.70	1888.81
490.88	2155.63
491.06	2057.33
491.24	2338.20
491.41	2195.42
491.59	2134.57
491.77	2045.63
491.95	1966.05
492.13	1820.94
492.30	1846.68
492.48	1778.81
492.66	1914.56
492.84	1792.85
493.01	1734.34
493.19	1743.70
493.37	1699.23
493.54	1781.15
493.72	1617.31
493.90	1685.19
494.08	1633.69
494.25	1687.53
494.43	1603.27
494.61	1619.65
494.79	1575.18
494.96	1416.02
495.14	1439.43
495.32	1460.49
495.49	1406.66
495.67	1479.22
495.85	1387.94
496.02	1341.13
496.20	1313.04
496.38	1329.42
496.55	1231.12
496.73	1329.42
496.91	1322.40
497.09	1252.19
497.26	1254.53
497.44	1226.44
497.62	1226.44
497.79	1247.51
497.97	1151.54
498.14	1172.61
498.32	1100.05
498.50	1062.60
498.67	1043.88
498.85	978.34
499.03	1025.15
499.20	1034.52
499.38	987.71
499.56	936.21
499.73	952.60
499.91	915.15
500.08	1015.79
500.26	812.17
500.44	912.81
500.61	866.00
500.79	760.67
500.97	755.99
501.14	744.29
501.32	645.99
501.49	711.52
501.67	734.93
501.84	685.78
502.02	737.27
502.20	730.25
502.37	697.48
502.55	681.10
502.72	594.50
502.90	650.67
503.07	650.67
503.25	664.71
503.43	561.73
503.60	573.43
503.78	585.13
503.95	533.64
504.13	496.19
504.30	557.05
504.48	550.03
504.65	568.75
504.83	547.69
505.01	486.83
505.18	524.28
505.36	503.22
505.53	482.15
505.71	456.40
505.88	449.38
506.06	472.79
506.23	468.11
506.41	376.83
506.58	470.45
506.76	454.06
506.93	500.87
507.11	491.51
507.28	400.23
507.46	447.04
507.63	484.49
507.81	351.08
507.98	456.40
508.16	430.66
508.33	414.27
508.50	393.21
508.68	472.79
508.85	500.87
509.03	491.51
509.20	428.32
509.38	470.45
509.55	514.92
509.73	449.38
509.90	383.85
510.08	308.95
510.25	402.57
510.42	358.10
510.60	409.59
510.77	365.12
510.95	390.87
511.12	393.21
511.30	376.83
511.47	395.55
511.64	454.06
511.82	327.68
511.99	306.61
512.17	454.06
512.34	346.40
512.51	414.27
512.69	327.68
512.86	379.17
513.04	315.97
513.21	388.53
513.38	341.72
513.56	334.70
513.73	301.93
513.90	320.65
514.08	273.84
514.25	360.44
514.43	400.23
514.60	287.89
514.77	367.46
514.95	402.57
515.12	341.72
515.29	369.80
515.47	358.10
515.64	344.06
515.81	339.38
515.99	367.46
516.16	395.55
516.33	379.17
516.51	397.89
516.68	346.40
516.85	320.65
517.03	250.44
517.20	297.25
517.37	266.82
517.54	386.19
517.72	362.78
517.89	334.70
518.06	332.36
518.24	369.80
518.41	386.19
518.58	416.62
518.75	325.33
518.93	315.97
519.10	353.42
519.27	322.99
519.45	332.36
519.62	334.70
519.79	290.23
519.96	318.31
520.14	313.63
520.31	346.40
520.48	379.17
520.65	320.65
520.83	344.06
521.00	264.48
521.17	376.83
521.34	322.99
521.52	360.44
521.69	278.52
521.86	360.44
522.03	355.76
522.20	348.74
522.38	332.36
522.55	280.86
522.72	243.42
522.89	388.53
523.07	416.62
523.24	351.08
523.41	280.86
523.58	339.38
523.75	379.17
523.92	297.25
524.10	341.72
524.27	339.38
524.44	315.97
524.61	337.04
524.78	348.74
524.96	269.16
525.13	313.63
525.30	383.85
525.47	435.34
525.64	393.21
525.81	447.04
525.98	416.62
526.16	271.50
526.33	376.83
526.50	393.21
526.67	418.96
526.84	393.21
527.01	327.68
527.18	402.57
527.36	425.98
527.53	421.30
527.70	353.42
527.87	416.62
528.04	519.60
528.21	388.53
528.38	344.06
528.55	489.17
528.72	395.55
528.89	540.66
529.07	437.68
529.24	479.81
529.41	456.40
529.58	437.68
529.75	404.91
529.92	440.02
530.09	491.51
530.26	411.93
530.43	500.87
530.60	491.51
530.77	528.96
530.94	524.28
531.11	557.05
531.28	559.39
531.46	564.07
531.63	524.28
531.80	592.16
531.97	690.46
532.14	667.05
532.31	723.23
532.48	903.45
532.65	1078.99
532.82	1170.27
532.99	1296.66
533.16	1490.92
533.33	1694.55
533.50	1472.20
533.67	1301.34
533.84	1135.16
534.01	1088.35
534.18	952.60
534.35	1027.50
534.52	910.47
534.69	1135.16
534.86	1020.47
535.03	1071.97
535.20	1100.05
535.37	1135.16
535.54	1277.93
535.71	1193.67
535.88	1383.26
536.05	1390.28
536.22	1474.54
536.38	1696.89
536.55	1804.55
536.72	2019.88
536.89	2146.27
537.06	2410.75
537.23	2696.30
537.40	3021.63
537.57	3173.77
537.74	3236.96
537.91	3379.73
538.08	3403.14
538.25	3482.72
538.42	3501.44
538.59	3644.21
538.75	3695.71
538.92	3913.38
539.09	4306.59
539.26	5018.11
539.43	5509.62
539.60	6139.23
539.77	7021.61
539.94	7913.35
540.11	8547.64
540.28	9434.70
540.44	10207.08
540.61	11634.80
540.78	13076.57
540.95	15803.30
541.12	18831.95
541.29	20982.90
541.46	22176.58
541.62	21792.73
541.79	20444.58
541.96	19379.64
542.13	17916.80
542.30	16662.27
542.47	15676.91
542.63	14806.23
542.80	14279.61
542.97	14319.40
543.14	14230.46
543.31	14043.21
543.48	14164.92
543.64	14288.97
543.81	14572.18
543.98	14780.48
544.15	14740.69
544.32	14836.66
544.48	14848.36
544.65	14705.59
544.82	14361.53
544.99	14244.50
545.16	14913.89
545.32	15419.45
545.49	26792.11
545.66	48030.13
545.83	55121.96
546.00	49436.80
546.16	33654.56
546.33	24783.93
546.50	18881.10
546.67	14743.03
546.83	13188.92
547.00	12615.49
547.17	12198.87
547.34	11623.10
547.50	11094.14
547.67	10595.61
547.84	10106.43
548.00	10090.05
548.17	9558.75
548.34	9291.93
548.51	8657.64
548.67	8678.71
548.84	8021.02
549.01	7705.04
549.18	7337.58
549.34	6939.69
549.51	6764.15
549.68	6621.38
549.84	6153.27
550.01	5970.71
550.18	5823.25
550.34	5458.13
550.51	5268.55
550.68	4894.06
550.84	4727.88
551.01	4564.04
551.18	4152.11
551.34	3974.23
551.51	3815.07
551.68	3658.26
551.84	3625.49
552.01	3513.14
552.18	3449.95
552.34	3269.73
552.51	3047.38
552.68	2892.90
552.84	2911.63
553.01	2904.60
553.18	2647.15
553.34	2654.17
553.51	2527.78
553.67	2455.22
553.84	2354.58
554.01	2223.51
554.17	2024.56
554.34	1914.56
554.51	1849.02
554.67	1839.66
554.84	1533.05
555.00	1558.80
555.17	1533.05
555.33	1476.88
555.50	1413.68
555.67	1245.16
555.83	1270.91
556.00	1245.16
556.16	1434.75
556.33	1064.94
556.50	1011.11
556.66	1153.88
556.83	1046.22
556.99	875.36
557.16	990.05
557.32	990.05
557.49	887.06
557.65	903.45
557.82	849.61
557.98	924.51
558.15	896.43
558.32	800.46
558.48	800.46
558.65	748.97
558.81	802.80
558.98	734.93
559.14	615.56
559.31	741.95
559.47	734.93
559.64	711.52
559.80	702.16
559.97	645.99
560.13	713.86
560.30	690.46
560.46	641.31
560.63	683.44
560.79	685.78
560.96	655.35
561.12	645.99
561.29	692.80
561.45	653.01
561.61	681.10
561.78	805.14
561.94	662.37
562.11	617.90
562.27	627.26
562.44	706.84
562.60	709.18
562.77	636.63
562.93	711.52
563.10	580.45
563.26	587.47
563.42	662.37
563.59	627.26
563.75	655.35
563.92	526.62
564.08	608.54
564.24	571.09
564.41	596.84
564.57	533.64
564.74	580.45
564.90	585.13
565.07	519.60
565.23	554.71
565.39	650.67
565.56	531.30
565.72	486.83
565.88	519.60
566.05	463.43
566.21	484.49
566.38	566.41
566.54	587.47
566.70	587.47
566.87	587.47
567.03	571.09
567.19	617.90
567.36	617.90
567.52	550.03
567.68	582.79
567.85	571.09
568.01	517.26
568.17	587.47
568.34	538.32
568.50	631.94
568.66	472.79
568.83	645.99
568.99	477.47
569.15	535.98
569.32	425.98
569.48	456.40
569.64	461.09
569.81	451.72
569.97	531.30
570.13	538.32
570.30	411.93
570.46	430.66
570.62	409.59
570.78	421.30
570.95	365.12
571.11	442.36
571.27	402.57
571.43	388.53
571.60	388.53
571.76	344.06
571.92	404.91
572.09	472.79
572.25	472.79
572.41	409.59
572.57	475.13
572.74	603.86
572.90	435.34
573.06	463.43
573.22	407.25
573.38	503.22
573.55	468.11
573.71	442.36
573.87	440.02
574.03	468.11
574.20	472.79
574.36	493.85
574.52	543.00
574.68	552.37
574.84	585.13
575.01	535.98
575.17	589.82
575.33	629.60
575.49	648.33
575.65	599.18
575.82	727.91
575.98	795.78
576.14	837.91
576.30	1729.66
576.46	5818.57
576.62	9741.31
576.79	10312.40
576.95	7597.38
577.11	5022.79
577.27	3588.04
577.43	2422.45
577.59	1624.33
577.75	1310.70
577.92	1170.27
578.08	1200.69
578.24	1210.06
578.40	1914.56
578.56	5317.70
578.72	9039.15
578.88	9776.42
579.04	7180.76
579.21	4767.67
579.37	3651.24
579.53	2792.26
579.69	2766.51
579.85	3449.95
580.01	3857.20
580.17	3707.41
580.33	3117.59
580.49	2747.79
580.65	2417.77
580.82	2237.55
580.98	2104.14
581.14	2118.18
581.30	2387.35
581.46	2455.22
581.62	2619.06
581.78	2820.35
581.94	3063.76
582.10	3286.11
582.26	3482.72
582.42	3440.59
582.58	3712.09
582.74	3639.53
582.90	3712.09
583.06	3786.99
583.22	3616.13
583.38	3686.34
583.54	3669.96
583.70	3669.96
583.86	3625.49
584.02	3695.71
584.18	3566.98
584.34	3471.01
584.50	3438.25
584.66	3258.03
584.82	3288.45
584.98	3183.13
585.14	3169.09
585.30	3173.77
585.46	3105.89
585.62	3056.74
585.78	3047.38
585.94	3077.80
586.10	3199.51
586.26	3438.25
586.42	3803.37
586.58	4489.15
586.74	5476.85
586.90	6668.19
587.06	6998.20
587.22	6942.03
587.38	6445.84
587.54	5334.08
587.70	4617.88
587.86	3922.74
588.02	3300.16
588.18	3068.44
588.34	2684.59
588.49	2462.24
588.65	2368.62
588.81	2319.47
588.97	2200.10
589.13	2099.46
589.29	2111.16
589.45	2040.95
589.61	2001.16
589.77	2029.24
589.93	2153.29
590.08	2127.55
590.24	2253.94
590.40	2209.47
590.56	2331.17
590.72	2345.22
590.88	2352.24
591.04	2567.57
591.20	2651.83
591.35	2740.77
591.51	2775.88
591.67	3056.74
591.83	3302.50
591.99	3475.70
592.15	3508.46
592.31	3969.55
592.46	4327.65
592.62	4837.89
592.78	4999.38
592.94	5198.33
593.10	5107.05
593.26	4788.74
593.41	4559.36
593.57	4114.66
593.73	3466.33
593.89	3183.13
594.05	2754.81
594.20	2511.39
594.36	2443.52
594.52	2197.76
594.68	2113.50
594.84	2062.01
594.99	2043.29
595.15	2097.12
595.31	1783.49
595.47	1844.34
595.62	1860.73
595.78	1877.11
595.94	1827.96
596.10	1877.11
596.25	1923.92
596.41	1842.00
596.57	1919.24
596.73	1872.43
596.88	1881.79
597.04	1881.79
597.20	1834.98
597.36	1968.39
597.51	1900.52
597.67	2052.65
597.83	2064.35
597.99	2256.28
598.14	2352.24
598.30	2562.89
598.46	2712.68
598.61	2787.58
598.77	2785.24
598.93	2920.99
599.09	3150.36
599.24	3070.78
599.40	3012.27
599.56	3056.74
599.71	2794.60
599.87	2682.25
600.03	2551.18
600.18	2403.73
600.34	2310.11
600.50	2260.96
600.65	1966.05
600.81	1937.96
600.97	1830.30
601.12	1715.61
601.28	1708.59
601.44	1526.03
601.59	1521.35
601.75	1530.71
601.91	1406.66
602.06	1249.85
602.22	1413.68
602.37	1338.79
602.53	1268.57
602.69	1228.78
602.84	1364.53
603.00	1268.57
603.16	1198.35
603.31	1259.21
603.47	1355.17
603.62	1350.49
603.78	1343.47
603.94	1348.15
604.09	1313.04
604.25	1366.87
604.40	1479.22
604.56	1507.30
604.71	1465.18
604.87	1521.35
605.03	1619.65
605.18	1582.20
605.34	1638.38
605.49	1703.91
605.65	1650.08
