SpectraSuite Data File
++++++++++++++++++++++++++++++++++++
Date: Fri Oct 04 11:42:00 GMT-05:00 2013
User: price-jones
Dark Spectrum Present: No
Reference Spectrum Present: No
Number of Sampled Component Spectra: 1
Spectrometers: USB2+H05261
Integration Time (usec): 100000 (USB2+H05261)
Spectra Averaged: 1 (USB2+H05261)
Boxcar Smoothing: 0 (USB2+H05261)
Correct for Electrical Dark: No (USB2+H05261)
Strobe/Lamp Enabled: No (USB2+H05261)
Correct for Detector Non-linearity: No (USB2+H05261)
Correct for Stray Light: No (USB2+H05261)
Number of Pixels in Processed Spectrum: 2048
>>>>>Begin Processed Spectral Data<<<<<
365.73	0.00
365.92	0.00
366.12	0.00
366.32	2.34
366.52	0.00
366.72	0.00
366.91	0.00
367.11	0.00
367.31	0.00
367.51	0.00
367.70	0.00
367.90	0.00
368.10	0.00
368.30	0.00
368.49	0.00
368.69	0.00
368.89	0.00
369.09	0.00
369.28	0.00
369.48	0.00
369.68	14.04
369.87	88.94
370.07	0.00
370.27	46.81
370.47	0.00
370.66	18.72
370.86	2.34
371.06	49.15
371.25	107.66
371.45	53.83
371.65	37.45
371.84	79.58
372.04	91.28
372.24	7.02
372.44	35.11
372.63	173.20
372.83	110.01
373.03	100.64
373.22	145.11
373.42	74.90
373.62	91.28
373.81	88.94
374.01	91.28
374.21	161.50
374.40	147.45
374.60	98.30
374.79	142.77
374.99	28.09
375.19	88.94
375.38	156.82
375.58	124.05
375.78	67.88
375.97	138.09
376.17	177.88
376.37	56.17
376.56	135.75
376.76	100.64
376.95	98.30
377.15	133.41
377.35	124.05
377.54	84.26
377.74	105.32
377.93	175.54
378.13	149.79
378.33	133.41
378.52	140.43
378.72	210.65
378.91	77.24
379.11	70.22
379.31	124.05
379.50	86.60
379.70	119.37
379.89	149.79
380.09	149.79
380.28	65.54
380.48	126.39
380.68	81.92
380.87	65.54
381.07	177.88
381.26	86.60
381.46	166.18
381.65	138.09
381.85	25.75
382.04	46.81
382.24	126.39
382.43	91.28
382.63	154.48
382.83	124.05
383.02	147.45
383.22	231.71
383.41	77.24
383.61	100.64
383.80	67.88
384.00	154.48
384.19	170.86
384.39	44.47
384.58	100.64
384.78	44.47
384.97	65.54
385.17	138.09
385.36	159.16
385.56	138.09
385.75	79.58
385.95	154.48
386.14	124.05
386.34	131.07
386.53	128.73
386.72	177.88
386.92	91.28
387.11	112.35
387.31	159.16
387.50	74.90
387.70	152.13
387.89	135.75
388.09	110.01
388.28	126.39
388.48	86.60
388.67	102.98
388.86	72.56
389.06	84.26
389.25	77.24
389.45	77.24
389.64	119.37
389.84	168.52
390.03	84.26
390.22	102.98
390.42	53.83
390.61	159.16
390.81	119.37
391.00	67.88
391.19	81.92
391.39	142.77
391.58	140.43
391.78	114.69
391.97	154.48
392.16	138.09
392.36	119.37
392.55	91.28
392.75	98.30
392.94	49.15
393.13	154.48
393.33	102.98
393.52	65.54
393.71	91.28
393.91	100.64
394.10	145.11
394.29	53.83
394.49	70.22
394.68	133.41
394.88	173.20
395.07	86.60
395.26	107.66
395.46	142.77
395.65	102.98
395.84	67.88
396.04	182.56
396.23	119.37
396.42	133.41
396.62	74.90
396.81	98.30
397.00	105.32
397.19	119.37
397.39	95.96
397.58	189.58
397.77	152.13
397.97	105.32
398.16	84.26
398.35	117.03
398.55	147.45
398.74	124.05
398.93	133.41
399.12	126.39
399.32	95.96
399.51	131.07
399.70	140.43
399.90	138.09
400.09	175.54
400.28	117.03
400.47	58.51
400.67	154.48
400.86	145.11
401.05	126.39
401.24	126.39
401.44	105.32
401.63	84.26
401.82	119.37
402.01	140.43
402.21	154.48
402.40	121.71
402.59	117.03
402.78	131.07
402.97	98.30
403.17	110.01
403.36	114.69
403.55	95.96
403.74	74.90
403.93	119.37
404.13	306.61
404.32	191.92
404.51	255.12
404.70	168.52
404.89	166.18
405.09	112.35
405.28	201.29
405.47	117.03
405.66	28.09
405.85	121.71
406.05	110.01
406.24	121.71
406.43	180.22
406.62	100.64
406.81	163.84
407.00	70.22
407.20	180.22
407.39	201.29
407.58	161.50
407.77	154.48
407.96	131.07
408.15	72.56
408.34	105.32
408.54	147.45
408.73	107.66
408.92	168.52
409.11	121.71
409.30	203.63
409.49	173.20
409.68	110.01
409.87	98.30
410.07	161.50
410.26	93.62
410.45	145.11
410.64	156.82
410.83	166.18
411.02	163.84
411.21	212.99
411.40	117.03
411.59	44.47
411.78	145.11
411.98	79.58
412.17	114.69
412.36	126.39
412.55	121.71
412.74	140.43
412.93	203.63
413.12	102.98
413.31	154.48
413.50	152.13
413.69	93.62
413.88	133.41
414.07	105.32
414.26	93.62
414.45	56.17
414.64	161.50
414.83	131.07
415.02	156.82
415.22	100.64
415.41	128.73
415.60	93.62
415.79	187.24
415.98	191.92
416.17	121.71
416.36	117.03
416.55	114.69
416.74	131.07
416.93	159.16
417.12	88.94
417.31	149.79
417.50	159.16
417.69	189.58
417.88	182.56
418.07	102.98
418.26	121.71
418.45	119.37
418.64	217.67
418.83	107.66
419.02	168.52
419.21	105.32
419.39	194.26
419.58	121.71
419.77	105.32
419.96	245.76
420.15	210.65
420.34	212.99
420.53	182.56
420.72	175.54
420.91	145.11
421.10	135.75
421.29	93.62
421.48	86.60
421.67	205.97
421.86	133.41
422.05	152.13
422.24	119.37
422.43	126.39
422.61	152.13
422.80	154.48
422.99	112.35
423.18	107.66
423.37	166.18
423.56	133.41
423.75	187.24
423.94	128.73
424.13	142.77
424.32	102.98
424.50	138.09
424.69	100.64
424.88	198.95
425.07	208.31
425.26	191.92
425.45	124.05
425.64	112.35
425.83	159.16
426.01	131.07
426.20	147.45
426.39	58.51
426.58	100.64
426.77	163.84
426.96	154.48
427.15	194.26
427.33	154.48
427.52	51.49
427.71	133.41
427.90	135.75
428.09	93.62
428.28	154.48
428.46	170.86
428.65	110.01
428.84	210.65
429.03	135.75
429.22	175.54
429.40	138.09
429.59	110.01
429.78	203.63
429.97	121.71
430.16	102.98
430.34	191.92
430.53	114.69
430.72	149.79
430.91	133.41
431.10	88.94
431.28	184.90
431.47	131.07
431.66	131.07
431.85	154.48
432.03	95.96
432.22	203.63
432.41	156.82
432.60	168.52
432.79	163.84
432.97	175.54
433.16	138.09
433.35	227.03
433.54	159.16
433.72	191.92
433.91	210.65
434.10	145.11
434.28	177.88
434.47	173.20
434.66	248.10
434.85	215.33
435.03	280.86
435.22	629.60
435.41	1015.79
435.59	1118.78
435.78	844.93
435.97	449.38
436.16	227.03
436.34	212.99
436.53	138.09
436.72	135.75
436.90	142.77
437.09	227.03
437.28	201.29
437.46	177.88
437.65	168.52
437.84	182.56
438.02	145.11
438.21	166.18
438.40	140.43
438.58	168.52
438.77	177.88
438.96	198.95
439.14	187.24
439.33	227.03
439.52	159.16
439.70	194.26
439.89	135.75
440.08	168.52
440.26	149.79
440.45	173.20
440.63	177.88
440.82	86.60
441.01	140.43
441.19	65.54
441.38	147.45
441.57	173.20
441.75	198.95
441.94	236.39
442.12	142.77
442.31	110.01
442.50	184.90
442.68	205.97
442.87	140.43
443.05	212.99
443.24	189.58
443.43	161.50
443.61	203.63
443.80	152.13
443.98	203.63
444.17	177.88
444.35	152.13
444.54	177.88
444.73	163.84
444.91	133.41
445.10	56.17
445.28	250.44
445.47	182.56
445.65	131.07
445.84	177.88
446.02	180.22
446.21	166.18
446.39	107.66
446.58	131.07
446.77	203.63
446.95	170.86
447.14	152.13
447.32	161.50
447.51	191.92
447.69	128.73
447.88	114.69
448.06	257.46
448.25	203.63
448.43	124.05
448.62	145.11
448.80	138.09
448.99	147.45
449.17	53.83
449.36	170.86
449.54	67.88
449.73	131.07
449.91	156.82
450.10	173.20
450.28	182.56
450.46	161.50
450.65	290.23
450.83	184.90
451.02	163.84
451.20	124.05
451.39	208.31
451.57	156.82
451.76	133.41
451.94	102.98
452.13	189.58
452.31	231.71
452.49	198.95
452.68	102.98
452.86	182.56
453.05	138.09
453.23	224.69
453.42	220.01
453.60	145.11
453.78	102.98
453.97	248.10
454.15	170.86
454.34	175.54
454.52	198.95
454.70	149.79
454.89	140.43
455.07	102.98
455.26	121.71
455.44	187.24
455.62	231.71
455.81	161.50
455.99	222.35
456.17	145.11
456.36	154.48
456.54	135.75
456.73	175.54
456.91	191.92
457.09	152.13
457.28	201.29
457.46	201.29
457.64	194.26
457.83	220.01
458.01	124.05
458.19	201.29
458.38	198.95
458.56	145.11
458.74	114.69
458.93	184.90
459.11	201.29
459.29	107.66
459.48	203.63
459.66	161.50
459.84	234.05
460.03	227.03
460.21	220.01
460.39	110.01
460.57	156.82
460.76	175.54
460.94	168.52
461.12	236.39
461.31	283.20
461.49	152.13
461.67	133.41
461.85	198.95
462.04	128.73
462.22	638.97
462.40	184.90
462.59	191.92
462.77	105.32
462.95	189.58
463.13	112.35
463.32	170.86
463.50	187.24
463.68	102.98
463.86	152.13
464.05	182.56
464.23	161.50
464.41	198.95
464.59	159.16
464.78	189.58
464.96	131.07
465.14	131.07
465.32	180.22
465.50	173.20
465.69	187.24
465.87	154.48
466.05	189.58
466.23	156.82
466.41	210.65
466.60	212.99
466.78	170.86
466.96	196.60
467.14	138.09
467.32	170.86
467.51	182.56
467.69	182.56
467.87	252.78
468.05	131.07
468.23	236.39
468.41	262.14
468.60	182.56
468.78	184.90
468.96	227.03
469.14	140.43
469.32	131.07
469.50	159.16
469.69	196.60
469.87	131.07
470.05	95.96
470.23	224.69
470.41	170.86
470.59	182.56
470.77	124.05
470.95	140.43
471.14	154.48
471.32	173.20
471.50	210.65
471.68	198.95
471.86	273.84
472.04	196.60
472.22	222.35
472.40	166.18
472.58	107.66
472.77	159.16
472.95	184.90
473.13	229.37
473.31	241.08
473.49	170.86
473.67	173.20
473.85	215.33
474.03	173.20
474.21	198.95
474.39	215.33
474.57	238.73
474.75	248.10
474.93	191.92
475.12	184.90
475.30	184.90
475.48	142.77
475.66	128.73
475.84	147.45
476.02	81.92
476.20	212.99
476.38	194.26
476.56	189.58
476.74	189.58
476.92	187.24
477.10	201.29
477.28	243.42
477.46	161.50
477.64	236.39
477.82	231.71
478.00	220.01
478.18	231.71
478.36	168.52
478.54	170.86
478.72	231.71
478.90	229.37
479.08	166.18
479.26	220.01
479.44	147.45
479.62	140.43
479.80	217.67
479.98	220.01
480.16	194.26
480.34	245.76
480.52	231.71
480.70	194.26
480.88	217.67
481.06	182.56
481.24	166.18
481.41	191.92
481.59	243.42
481.77	187.24
481.95	119.37
482.13	117.03
482.31	189.58
482.49	222.35
482.67	271.50
482.85	205.97
483.03	184.90
483.21	252.78
483.39	220.01
483.57	255.12
483.74	346.40
483.92	255.12
484.10	280.86
484.28	304.27
484.46	248.10
484.64	227.03
484.82	337.04
485.00	217.67
485.18	346.40
485.35	271.50
485.53	194.26
485.71	320.65
485.89	271.50
486.07	250.44
486.25	337.04
486.43	292.57
486.61	315.97
486.78	318.31
486.96	259.80
487.14	341.72
487.32	318.31
487.50	297.25
487.68	280.86
487.85	257.46
488.03	390.87
488.21	318.31
488.39	344.06
488.57	292.57
488.75	280.86
488.92	538.32
489.10	306.61
489.28	313.63
489.46	287.89
489.64	358.10
489.81	320.65
489.99	250.44
490.17	252.78
490.35	306.61
490.53	238.73
490.70	250.44
490.88	332.36
491.06	287.89
491.24	231.71
491.41	369.80
491.59	294.91
491.77	290.23
491.95	311.29
492.13	313.63
492.30	292.57
492.48	311.29
492.66	250.44
492.84	241.08
493.01	271.50
493.19	191.92
493.37	330.02
493.54	341.72
493.72	297.25
493.90	259.80
494.08	344.06
494.25	238.73
494.43	273.84
494.61	287.89
494.79	248.10
494.96	297.25
495.14	243.42
495.32	285.55
495.49	337.04
495.67	262.14
495.85	262.14
496.02	234.05
496.20	241.08
496.38	255.12
496.55	313.63
496.73	334.70
496.91	248.10
497.09	369.80
497.26	245.76
497.44	301.93
497.62	252.78
497.79	222.35
497.97	210.65
498.14	264.48
498.32	292.57
498.50	283.20
498.67	257.46
498.85	238.73
499.03	152.13
499.20	255.12
499.38	297.25
499.56	238.73
499.73	311.29
499.91	252.78
500.08	294.91
500.26	210.65
500.44	257.46
500.61	271.50
500.79	168.52
500.97	245.76
501.14	248.10
501.32	210.65
501.49	243.42
501.67	264.48
501.84	304.27
502.02	222.35
502.20	259.80
502.37	259.80
502.55	327.68
502.72	205.97
502.90	224.69
503.07	248.10
503.25	205.97
503.43	231.71
503.60	205.97
503.78	238.73
503.95	227.03
504.13	280.86
504.30	290.23
504.48	306.61
504.65	266.82
504.83	245.76
505.01	243.42
505.18	287.89
505.36	273.84
505.53	283.20
505.71	184.90
505.88	257.46
506.06	220.01
506.23	201.29
506.41	252.78
506.58	191.92
506.76	252.78
506.93	264.48
507.11	264.48
507.28	264.48
507.46	243.42
507.63	243.42
507.81	168.52
507.98	273.84
508.16	234.05
508.33	147.45
508.50	224.69
508.68	250.44
508.85	278.52
509.03	266.82
509.20	224.69
509.38	285.55
509.55	257.46
509.73	252.78
509.90	276.18
510.08	182.56
510.25	290.23
510.42	236.39
510.60	229.37
510.77	290.23
510.95	224.69
511.12	203.63
511.30	264.48
511.47	182.56
511.64	262.14
511.82	210.65
511.99	224.69
512.17	252.78
512.34	187.24
512.51	177.88
512.69	227.03
512.86	259.80
513.04	189.58
513.21	278.52
513.38	238.73
513.56	255.12
513.73	191.92
513.90	189.58
514.08	189.58
514.25	269.16
514.43	196.60
514.60	262.14
514.77	231.71
514.95	222.35
515.12	287.89
515.29	210.65
515.47	266.82
515.64	255.12
515.81	271.50
515.99	245.76
516.16	234.05
516.33	243.42
516.51	191.92
516.68	212.99
516.85	280.86
517.03	252.78
517.20	229.37
517.37	257.46
517.54	297.25
517.72	224.69
517.89	250.44
518.06	177.88
518.24	248.10
518.41	276.18
518.58	205.97
518.75	227.03
518.93	210.65
519.10	215.33
519.27	198.95
519.45	252.78
519.62	252.78
519.79	210.65
519.96	177.88
520.14	212.99
520.31	212.99
520.48	217.67
520.65	234.05
520.83	287.89
521.00	208.31
521.17	191.92
521.34	191.92
521.52	243.42
521.69	224.69
521.86	203.63
522.03	196.60
522.20	224.69
522.38	198.95
522.55	217.67
522.72	238.73
522.89	255.12
523.07	294.91
523.24	227.03
523.41	262.14
523.58	220.01
523.75	325.33
523.92	154.48
524.10	227.03
524.27	210.65
524.44	159.16
524.61	224.69
524.78	194.26
524.96	205.97
525.13	231.71
525.30	184.90
525.47	252.78
525.64	245.76
525.81	278.52
525.98	231.71
526.16	184.90
526.33	241.08
526.50	220.01
526.67	259.80
526.84	205.97
527.01	210.65
527.18	325.33
527.36	264.48
527.53	163.84
527.70	290.23
527.87	287.89
528.04	306.61
528.21	189.58
528.38	262.14
528.55	285.55
528.72	306.61
528.89	306.61
529.07	351.08
529.24	238.73
529.41	257.46
529.58	212.99
529.75	191.92
529.92	327.68
530.09	269.16
530.26	280.86
530.43	252.78
530.60	313.63
530.77	231.71
530.94	271.50
531.11	156.82
531.28	210.65
531.46	273.84
531.63	243.42
531.80	299.59
531.97	287.89
532.14	255.12
532.31	285.55
532.48	250.44
532.65	236.39
532.82	257.46
532.99	330.02
533.16	276.18
533.33	306.61
533.50	287.89
533.67	325.33
533.84	269.16
534.01	301.93
534.18	243.42
534.35	285.55
534.52	259.80
534.69	367.46
534.86	259.80
535.03	304.27
535.20	262.14
535.37	353.42
535.54	320.65
535.71	332.36
535.88	264.48
536.05	243.42
536.22	369.80
536.38	255.12
536.55	285.55
536.72	388.53
536.89	393.21
537.06	348.74
537.23	351.08
537.40	369.80
537.57	299.59
537.74	395.55
537.91	327.68
538.08	365.12
538.25	409.59
538.42	388.53
538.59	404.91
538.75	447.04
538.92	376.83
539.09	433.00
539.26	430.66
539.43	447.04
539.60	512.58
539.77	489.17
539.94	535.98
540.11	498.53
540.28	648.33
540.44	650.67
540.61	671.73
540.78	702.16
540.95	849.61
541.12	924.51
541.29	1076.65
541.46	1158.57
541.62	1146.86
541.79	1203.04
541.96	1132.82
542.13	1078.99
542.30	976.00
542.47	1034.52
542.63	973.66
542.80	1064.94
542.97	990.05
543.14	931.53
543.31	933.87
543.48	1050.90
543.64	1104.73
543.81	901.11
543.98	1001.75
544.15	929.19
544.32	891.74
544.48	1015.79
544.65	875.36
544.82	950.26
544.99	856.64
545.16	856.64
545.32	1039.20
545.49	1497.94
545.66	2338.20
545.83	2647.15
546.00	2399.05
546.16	1633.69
546.33	1313.04
546.50	1022.81
546.67	833.23
546.83	716.20
547.00	685.78
547.17	690.46
547.34	608.54
547.50	713.86
547.67	751.31
547.84	582.79
548.00	622.58
548.17	568.75
548.34	587.47
548.51	627.26
548.67	683.44
548.84	561.73
549.01	608.54
549.18	594.50
549.34	599.18
549.51	603.86
549.68	627.26
549.84	550.03
550.01	493.85
550.18	514.92
550.34	486.83
550.51	479.81
550.68	411.93
550.84	440.02
551.01	433.00
551.18	447.04
551.34	507.90
551.51	437.68
551.68	341.72
551.84	493.85
552.01	468.11
552.18	411.93
552.34	423.64
552.51	376.83
552.68	341.72
552.84	402.57
553.01	344.06
553.18	428.32
553.34	400.23
553.51	346.40
553.67	341.72
553.84	358.10
554.01	276.18
554.17	376.83
554.34	271.50
554.51	355.76
554.67	313.63
554.84	278.52
555.00	285.55
555.17	290.23
555.33	294.91
555.50	248.10
555.67	301.93
555.83	327.68
556.00	407.25
556.16	414.27
556.33	287.89
556.50	245.76
556.66	271.50
556.83	273.84
556.99	297.25
557.16	259.80
557.32	297.25
557.49	201.29
557.65	252.78
557.82	210.65
557.98	280.86
558.15	287.89
558.32	299.59
558.48	243.42
558.65	259.80
558.81	238.73
558.98	257.46
559.14	257.46
559.31	297.25
559.47	369.80
559.64	257.46
559.80	264.48
559.97	290.23
560.13	320.65
560.30	259.80
560.46	229.37
560.63	301.93
560.79	252.78
560.96	285.55
561.12	313.63
561.29	297.25
561.45	273.84
561.61	217.67
561.78	386.19
561.94	285.55
562.11	259.80
562.27	266.82
562.44	250.44
562.60	290.23
562.77	180.22
562.93	290.23
563.10	297.25
563.26	243.42
563.42	337.04
563.59	245.76
563.75	203.63
563.92	266.82
564.08	269.16
564.24	271.50
564.41	315.97
564.57	234.05
564.74	196.60
564.90	264.48
565.07	271.50
565.23	208.31
565.39	229.37
565.56	257.46
565.72	212.99
565.88	184.90
566.05	297.25
566.21	215.33
566.38	215.33
566.54	297.25
566.70	269.16
566.87	271.50
567.03	217.67
567.19	215.33
567.36	229.37
567.52	238.73
567.68	325.33
567.85	283.20
568.01	278.52
568.17	215.33
568.34	205.97
568.50	311.29
568.66	252.78
568.83	259.80
568.99	238.73
569.15	304.27
569.32	234.05
569.48	227.03
569.64	180.22
569.81	250.44
569.97	271.50
570.13	259.80
570.30	238.73
570.46	201.29
570.62	245.76
570.78	231.71
570.95	170.86
571.11	222.35
571.27	318.31
571.43	212.99
571.60	271.50
571.76	224.69
571.92	159.16
572.09	222.35
572.25	191.92
572.41	208.31
572.57	210.65
572.74	259.80
572.90	304.27
573.06	306.61
573.22	327.68
573.38	208.31
573.55	224.69
573.71	287.89
573.87	248.10
574.03	208.31
574.20	203.63
574.36	280.86
574.52	135.75
574.68	217.67
574.84	212.99
575.01	177.88
575.17	198.95
575.33	161.50
575.49	243.42
575.65	252.78
575.82	285.55
575.98	294.91
576.14	278.52
576.30	318.31
576.46	444.70
576.62	587.47
576.79	655.35
576.95	547.69
577.11	444.70
577.27	264.48
577.43	376.83
577.59	372.15
577.75	283.20
577.92	259.80
578.08	217.67
578.24	259.80
578.40	339.38
578.56	486.83
578.72	622.58
578.88	713.86
579.04	519.60
579.21	540.66
579.37	409.59
579.53	346.40
579.69	400.23
579.85	411.93
580.01	423.64
580.17	308.95
580.33	346.40
580.49	341.72
580.65	337.04
580.82	287.89
580.98	276.18
581.14	330.02
581.30	383.85
581.46	320.65
581.62	397.89
581.78	294.91
581.94	339.38
582.10	301.93
582.26	339.38
582.42	334.70
582.58	437.68
582.74	470.45
582.90	360.44
583.06	409.59
583.22	437.68
583.38	334.70
583.54	421.30
583.70	433.00
583.86	421.30
584.02	379.17
584.18	365.12
584.34	318.31
584.50	393.21
584.66	402.57
584.82	447.04
584.98	381.51
585.14	393.21
585.30	416.62
585.46	404.91
585.62	395.55
585.78	322.99
585.94	402.57
586.10	322.99
586.26	360.44
586.42	355.76
586.58	510.24
586.74	442.36
586.90	573.43
587.06	585.13
587.22	571.09
587.38	552.37
587.54	470.45
587.70	521.94
587.86	449.38
588.02	383.85
588.18	360.44
588.34	308.95
588.49	355.76
588.65	339.38
588.81	372.15
588.97	341.72
589.13	294.91
589.29	337.04
589.45	292.57
589.61	313.63
589.77	269.16
589.93	259.80
590.08	266.82
590.24	297.25
590.40	351.08
590.56	400.23
590.72	320.65
590.88	318.31
591.04	311.29
591.20	346.40
591.35	339.38
591.51	395.55
591.67	311.29
591.83	367.46
591.99	318.31
592.15	400.23
592.31	374.49
592.46	440.02
592.62	447.04
592.78	423.64
592.94	374.49
593.10	482.15
593.26	383.85
593.41	461.09
593.57	430.66
593.73	372.15
593.89	306.61
594.05	285.55
594.20	290.23
594.36	273.84
594.52	318.31
594.68	252.78
594.84	348.74
594.99	322.99
595.15	238.73
595.31	285.55
595.47	297.25
595.62	332.36
595.78	280.86
595.94	250.44
596.10	402.57
596.25	292.57
596.41	287.89
596.57	259.80
596.73	196.60
596.88	304.27
597.04	224.69
597.20	220.01
597.36	271.50
597.51	318.31
597.67	308.95
597.83	180.22
597.99	346.40
598.14	351.08
598.30	337.04
598.46	315.97
598.61	344.06
598.77	287.89
598.93	287.89
599.09	407.25
599.24	311.29
599.40	341.72
599.56	341.72
599.71	299.59
599.87	346.40
600.03	334.70
600.18	320.65
600.34	346.40
600.50	297.25
600.65	313.63
600.81	290.23
600.97	346.40
601.12	315.97
601.28	383.85
601.44	220.01
601.59	238.73
601.75	271.50
601.91	266.82
602.06	322.99
602.22	334.70
602.37	203.63
602.53	217.67
602.69	189.58
602.84	220.01
603.00	259.80
603.16	308.95
603.31	252.78
603.47	301.93
603.62	318.31
603.78	259.80
603.94	245.76
604.09	255.12
604.25	262.14
604.40	308.95
604.56	196.60
604.71	262.14
604.87	245.76
605.03	271.50
605.18	280.86
605.34	294.91
605.49	257.46
605.65	245.76
605.80	217.67
605.96	259.80
606.12	283.20
606.27	301.93
606.43	297.25
606.58	381.51
606.74	374.49
606.89	360.44
607.05	299.59
607.20	341.72
607.36	383.85
607.51	280.86
607.67	346.40
607.82	311.29
607.98	402.57
608.13	344.06
608.29	397.89
608.44	465.77
608.60	393.21
608.75	491.51
608.91	409.59
609.06	472.79
609.22	484.49
609.37	512.58
609.53	566.41
609.68	594.50
609.84	692.80
609.99	725.57
610.15	805.14
610.30	999.41
610.46	1212.40
610.61	1528.37
610.76	1926.26
610.92	2324.15
611.07	2427.14
611.23	2555.86
611.38	2429.48
