SpectraSuite Data File
++++++++++++++++++++++++++++++++++++
Date: Fri Oct 04 11:42:31 GMT-05:00 2013
User: price-jones
Dark Spectrum Present: No
Reference Spectrum Present: No
Number of Sampled Component Spectra: 1
Spectrometers: USB2+H05261
Integration Time (usec): 100000 (USB2+H05261)
Spectra Averaged: 1 (USB2+H05261)
Boxcar Smoothing: 0 (USB2+H05261)
Correct for Electrical Dark: No (USB2+H05261)
Strobe/Lamp Enabled: No (USB2+H05261)
Correct for Detector Non-linearity: No (USB2+H05261)
Correct for Stray Light: No (USB2+H05261)
Number of Pixels in Processed Spectrum: 2048
>>>>>Begin Processed Spectral Data<<<<<
365.73	0.00
365.92	0.00
366.12	0.00
366.32	14.04
366.52	0.00
366.72	0.00
366.91	0.00
367.11	0.00
367.31	0.00
367.51	0.00
367.70	0.00
367.90	0.00
368.10	0.00
368.30	0.00
368.49	0.00
368.69	0.00
368.89	0.00
369.09	11.70
369.28	0.00
369.48	0.00
369.68	0.00
369.87	0.00
370.07	9.36
370.27	44.47
370.47	74.90
370.66	77.24
370.86	49.15
371.06	100.64
371.25	121.71
371.45	100.64
371.65	173.20
371.84	154.48
372.04	28.09
372.24	107.66
372.44	4.68
372.63	46.81
372.83	110.01
373.03	138.09
373.22	98.30
373.42	112.35
373.62	112.35
373.81	177.88
374.01	91.28
374.21	154.48
374.40	187.24
374.60	154.48
374.79	121.71
374.99	128.73
375.19	145.11
375.38	124.05
375.58	93.62
375.78	112.35
375.97	91.28
376.17	234.05
376.37	161.50
376.56	114.69
376.76	42.13
376.95	0.00
377.15	58.51
377.35	126.39
377.54	84.26
377.74	88.94
377.93	84.26
378.13	173.20
378.33	117.03
378.52	114.69
378.72	142.77
378.91	203.63
379.11	51.49
379.31	114.69
379.50	117.03
379.70	156.82
379.89	100.64
380.09	84.26
380.28	88.94
380.48	147.45
380.68	23.41
380.87	126.39
381.07	98.30
381.26	112.35
381.46	102.98
381.65	133.41
381.85	32.77
382.04	63.19
382.24	177.88
382.43	49.15
382.63	205.97
382.83	117.03
383.02	119.37
383.22	140.43
383.41	191.92
383.61	114.69
383.80	98.30
384.00	84.26
384.19	81.92
384.39	133.41
384.58	135.75
384.78	25.75
384.97	145.11
385.17	102.98
385.36	72.56
385.56	110.01
385.75	86.60
385.95	163.84
386.14	173.20
386.34	95.96
386.53	107.66
386.72	98.30
386.92	133.41
387.11	135.75
387.31	117.03
387.50	9.36
387.70	131.07
387.89	121.71
388.09	177.88
388.28	102.98
388.48	102.98
388.67	105.32
388.86	65.54
389.06	93.62
389.25	173.20
389.45	161.50
389.64	121.71
389.84	79.58
390.03	138.09
390.22	63.19
390.42	182.56
390.61	77.24
390.81	23.41
391.00	79.58
391.19	170.86
391.39	138.09
391.58	102.98
391.78	119.37
391.97	142.77
392.16	63.19
392.36	98.30
392.55	159.16
392.75	60.85
392.94	51.49
393.13	126.39
393.33	72.56
393.52	79.58
393.71	184.90
393.91	105.32
394.10	32.77
394.29	112.35
394.49	189.58
394.68	91.28
394.88	154.48
395.07	149.79
395.26	49.15
395.46	140.43
395.65	117.03
395.84	105.32
396.04	196.60
396.23	135.75
396.42	51.49
396.62	149.79
396.81	119.37
397.00	131.07
397.19	72.56
397.39	166.18
397.58	142.77
397.77	147.45
397.97	187.24
398.16	23.41
398.35	159.16
398.55	72.56
398.74	100.64
398.93	88.94
399.12	46.81
399.32	124.05
399.51	93.62
399.70	208.31
399.90	163.84
400.09	95.96
400.28	86.60
400.47	63.19
400.67	208.31
400.86	128.73
401.05	170.86
401.24	114.69
401.44	140.43
401.63	152.13
401.82	166.18
402.01	119.37
402.21	107.66
402.40	149.79
402.59	72.56
402.78	145.11
402.97	145.11
403.17	142.77
403.36	161.50
403.55	100.64
403.74	187.24
403.93	189.58
404.13	243.42
404.32	273.84
404.51	304.27
404.70	201.29
404.89	191.92
405.09	156.82
405.28	81.92
405.47	126.39
405.66	126.39
405.85	156.82
406.05	79.58
406.24	154.48
406.43	105.32
406.62	145.11
406.81	131.07
407.00	215.33
407.20	93.62
407.39	138.09
407.58	152.13
407.77	163.84
407.96	201.29
408.15	145.11
408.34	177.88
408.54	117.03
408.73	110.01
408.92	100.64
409.11	184.90
409.30	145.11
409.49	114.69
409.68	142.77
409.87	159.16
410.07	56.17
410.26	126.39
410.45	105.32
410.64	95.96
410.83	156.82
411.02	145.11
411.21	107.66
411.40	142.77
411.59	88.94
411.78	156.82
411.98	128.73
412.17	84.26
412.36	135.75
412.55	63.19
412.74	135.75
412.93	128.73
413.12	112.35
413.31	124.05
413.50	124.05
413.69	124.05
413.88	152.13
414.07	105.32
414.26	102.98
414.45	98.30
414.64	70.22
414.83	124.05
415.02	149.79
415.22	203.63
415.41	173.20
415.60	88.94
415.79	140.43
415.98	142.77
416.17	210.65
416.36	88.94
416.55	114.69
416.74	224.69
416.93	187.24
417.12	149.79
417.31	142.77
417.50	149.79
417.69	241.08
417.88	114.69
418.07	110.01
418.26	84.26
418.45	201.29
418.64	81.92
418.83	114.69
419.02	100.64
419.21	79.58
419.39	170.86
419.58	112.35
419.77	138.09
419.96	154.48
420.15	140.43
420.34	156.82
420.53	243.42
420.72	161.50
420.91	140.43
421.10	142.77
421.29	114.69
421.48	187.24
421.67	135.75
421.86	161.50
422.05	175.54
422.24	159.16
422.43	107.66
422.61	152.13
422.80	135.75
422.99	93.62
423.18	208.31
423.37	184.90
423.56	173.20
423.75	91.28
423.94	147.45
424.13	168.52
424.32	124.05
424.50	138.09
424.69	180.22
424.88	145.11
425.07	152.13
425.26	184.90
425.45	117.03
425.64	107.66
425.83	112.35
426.01	201.29
426.20	191.92
426.39	145.11
426.58	126.39
426.77	152.13
426.96	149.79
427.15	187.24
427.33	142.77
427.52	112.35
427.71	131.07
427.90	117.03
428.09	128.73
428.28	63.19
428.46	93.62
428.65	182.56
428.84	159.16
429.03	138.09
429.22	140.43
429.40	117.03
429.59	105.32
429.78	191.92
429.97	117.03
430.16	119.37
430.34	114.69
430.53	133.41
430.72	93.62
430.91	201.29
431.10	117.03
431.28	147.45
431.47	149.79
431.66	93.62
431.85	91.28
432.03	117.03
432.22	191.92
432.41	126.39
432.60	173.20
432.79	217.67
432.97	166.18
433.16	161.50
433.35	147.45
433.54	201.29
433.72	196.60
433.91	163.84
434.10	128.73
434.28	222.35
434.47	126.39
434.66	229.37
434.85	217.67
435.03	339.38
435.22	599.18
435.41	1013.45
435.59	1102.39
435.78	833.23
435.97	386.19
436.16	311.29
436.34	222.35
436.53	177.88
436.72	98.30
436.90	159.16
437.09	217.67
437.28	222.35
437.46	110.01
437.65	163.84
437.84	112.35
438.02	168.52
438.21	177.88
438.40	110.01
438.58	147.45
438.77	159.16
438.96	147.45
439.14	180.22
439.33	107.66
439.52	189.58
439.70	198.95
439.89	177.88
440.08	184.90
440.26	255.12
440.45	154.48
440.63	180.22
440.82	173.20
441.01	112.35
441.19	147.45
441.38	208.31
441.57	159.16
441.75	196.60
441.94	198.95
442.12	159.16
442.31	191.92
442.50	184.90
442.68	142.77
442.87	184.90
443.05	84.26
443.24	229.37
443.43	145.11
443.61	149.79
443.80	126.39
443.98	187.24
444.17	112.35
444.35	133.41
444.54	210.65
444.73	102.98
444.91	187.24
445.10	175.54
445.28	63.19
445.47	105.32
445.65	138.09
445.84	100.64
446.02	156.82
446.21	231.71
446.39	196.60
446.58	196.60
446.77	187.24
446.95	142.77
447.14	152.13
447.32	198.95
447.51	138.09
447.69	189.58
447.88	124.05
448.06	177.88
448.25	243.42
448.43	252.78
448.62	138.09
448.80	222.35
448.99	191.92
449.17	210.65
449.36	149.79
449.54	32.77
449.73	79.58
449.91	248.10
450.10	205.97
450.28	145.11
450.46	175.54
450.65	208.31
450.83	215.33
451.02	117.03
451.20	250.44
451.39	161.50
451.57	191.92
451.76	229.37
451.94	196.60
452.13	182.56
452.31	145.11
452.49	154.48
452.68	180.22
452.86	168.52
453.05	166.18
453.23	227.03
453.42	159.16
453.60	222.35
453.78	107.66
453.97	135.75
454.15	166.18
454.34	191.92
454.52	84.26
454.70	166.18
454.89	124.05
455.07	100.64
455.26	187.24
455.44	224.69
455.62	117.03
455.81	154.48
455.99	187.24
456.17	194.26
456.36	170.86
456.54	220.01
456.73	154.48
456.91	117.03
457.09	189.58
457.28	248.10
457.46	196.60
457.64	205.97
457.83	187.24
458.01	166.18
458.19	194.26
458.38	184.90
458.56	177.88
458.74	149.79
458.93	175.54
459.11	189.58
459.29	170.86
459.48	234.05
459.66	210.65
459.84	198.95
460.03	220.01
460.21	182.56
460.39	241.08
460.57	217.67
460.76	142.77
460.94	173.20
461.12	250.44
461.31	201.29
461.49	159.16
461.67	170.86
461.85	154.48
462.04	205.97
462.22	341.72
462.40	159.16
462.59	227.03
462.77	145.11
462.95	154.48
463.13	107.66
463.32	201.29
463.50	215.33
463.68	224.69
463.86	191.92
464.05	173.20
464.23	201.29
464.41	217.67
464.59	149.79
464.78	112.35
464.96	182.56
465.14	163.84
465.32	175.54
465.50	133.41
465.69	191.92
465.87	114.69
466.05	156.82
466.23	194.26
466.41	166.18
466.60	154.48
466.78	189.58
466.96	135.75
467.14	173.20
467.32	152.13
467.51	142.77
467.69	259.80
467.87	191.92
468.05	135.75
468.23	184.90
468.41	255.12
468.60	180.22
468.78	191.92
468.96	170.86
469.14	210.65
469.32	201.29
469.50	145.11
469.69	175.54
469.87	217.67
470.05	147.45
470.23	121.71
470.41	128.73
470.59	140.43
470.77	147.45
470.95	250.44
471.14	142.77
471.32	224.69
471.50	245.76
471.68	152.13
471.86	126.39
472.04	175.54
472.22	210.65
472.40	149.79
472.58	217.67
472.77	299.59
472.95	201.29
473.13	283.20
473.31	133.41
473.49	194.26
473.67	170.86
473.85	229.37
474.03	215.33
474.21	217.67
474.39	236.39
474.57	227.03
474.75	177.88
474.93	149.79
475.12	124.05
475.30	173.20
475.48	168.52
475.66	184.90
475.84	215.33
476.02	184.90
476.20	184.90
476.38	243.42
476.56	212.99
476.74	191.92
476.92	173.20
477.10	152.13
477.28	147.45
477.46	264.48
477.64	255.12
477.82	203.63
478.00	201.29
478.18	201.29
478.36	238.73
478.54	175.54
478.72	210.65
478.90	149.79
479.08	124.05
479.26	205.97
479.44	250.44
479.62	180.22
479.80	166.18
479.98	184.90
480.16	170.86
480.34	243.42
480.52	205.97
480.70	201.29
480.88	140.43
481.06	262.14
481.24	159.16
481.41	290.23
481.59	182.56
481.77	191.92
481.95	138.09
482.13	243.42
482.31	271.50
482.49	152.13
482.67	203.63
482.85	201.29
483.03	227.03
483.21	255.12
483.39	264.48
483.57	201.29
483.74	337.04
483.92	170.86
484.10	304.27
484.28	262.14
484.46	217.67
484.64	205.97
484.82	294.91
485.00	308.95
485.18	297.25
485.35	220.01
485.53	250.44
485.71	262.14
485.89	278.52
486.07	297.25
486.25	334.70
486.43	325.33
486.61	290.23
486.78	301.93
486.96	276.18
487.14	325.33
487.32	362.78
487.50	229.37
487.68	365.12
487.85	334.70
488.03	304.27
488.21	372.15
488.39	313.63
488.57	397.89
488.75	287.89
488.92	552.37
489.10	311.29
489.28	376.83
489.46	276.18
489.64	346.40
489.81	255.12
489.99	344.06
490.17	294.91
490.35	461.09
490.53	276.18
490.70	278.52
490.88	360.44
491.06	320.65
491.24	341.72
491.41	348.74
491.59	339.38
491.77	243.42
491.95	215.33
492.13	231.71
492.30	334.70
492.48	341.72
492.66	212.99
492.84	348.74
493.01	252.78
493.19	266.82
493.37	255.12
493.54	238.73
493.72	194.26
493.90	327.68
494.08	224.69
494.25	313.63
494.43	297.25
494.61	255.12
494.79	330.02
494.96	215.33
495.14	327.68
495.32	250.44
495.49	318.31
495.67	311.29
495.85	220.01
496.02	294.91
496.20	351.08
496.38	297.25
496.55	271.50
496.73	306.61
496.91	311.29
497.09	243.42
497.26	269.16
497.44	337.04
497.62	292.57
497.79	198.95
497.97	255.12
498.14	259.80
498.32	285.55
498.50	311.29
498.67	297.25
498.85	287.89
499.03	220.01
499.20	325.33
499.38	238.73
499.56	276.18
499.73	301.93
499.91	280.86
500.08	280.86
500.26	250.44
500.44	283.20
500.61	243.42
500.79	334.70
500.97	238.73
501.14	262.14
501.32	234.05
501.49	266.82
501.67	243.42
501.84	259.80
502.02	259.80
502.20	339.38
502.37	332.36
502.55	304.27
502.72	203.63
502.90	262.14
503.07	177.88
503.25	198.95
503.43	243.42
503.60	220.01
503.78	283.20
503.95	234.05
504.13	248.10
504.30	264.48
504.48	245.76
504.65	194.26
504.83	224.69
505.01	231.71
505.18	215.33
505.36	266.82
505.53	257.46
505.71	177.88
505.88	203.63
506.06	236.39
506.23	198.95
506.41	205.97
506.58	201.29
506.76	224.69
506.93	252.78
507.11	341.72
507.28	241.08
507.46	227.03
507.63	283.20
507.81	220.01
507.98	264.48
508.16	234.05
508.33	210.65
508.50	224.69
508.68	250.44
508.85	280.86
509.03	208.31
509.20	269.16
509.38	236.39
509.55	238.73
509.73	245.76
509.90	278.52
510.08	266.82
510.25	283.20
510.42	220.01
510.60	238.73
510.77	271.50
510.95	285.55
511.12	248.10
511.30	297.25
511.47	341.72
511.64	299.59
511.82	222.35
511.99	189.58
512.17	238.73
512.34	227.03
512.51	234.05
512.69	194.26
512.86	234.05
513.04	320.65
513.21	227.03
513.38	205.97
513.56	224.69
513.73	257.46
513.90	156.82
514.08	227.03
514.25	212.99
514.43	205.97
514.60	273.84
514.77	264.48
514.95	308.95
515.12	287.89
515.29	250.44
515.47	196.60
515.64	245.76
515.81	222.35
515.99	294.91
516.16	276.18
516.33	243.42
516.51	222.35
516.68	184.90
516.85	224.69
517.03	259.80
517.20	271.50
517.37	184.90
517.54	271.50
517.72	248.10
517.89	294.91
518.06	250.44
518.24	238.73
518.41	241.08
518.58	208.31
518.75	196.60
518.93	234.05
519.10	210.65
519.27	248.10
519.45	187.24
519.62	241.08
519.79	245.76
519.96	208.31
520.14	283.20
520.31	285.55
520.48	294.91
520.65	234.05
520.83	297.25
521.00	212.99
521.17	245.76
521.34	236.39
521.52	269.16
521.69	294.91
521.86	252.78
522.03	229.37
522.20	355.76
522.38	208.31
522.55	252.78
522.72	245.76
522.89	229.37
523.07	299.59
523.24	222.35
523.41	259.80
523.58	259.80
523.75	269.16
523.92	212.99
524.10	283.20
524.27	241.08
524.44	191.92
524.61	327.68
524.78	175.54
524.96	278.52
525.13	278.52
525.30	308.95
525.47	259.80
525.64	238.73
525.81	229.37
525.98	255.12
526.16	257.46
526.33	154.48
526.50	297.25
526.67	212.99
526.84	175.54
527.01	203.63
527.18	217.67
527.36	262.14
527.53	264.48
527.70	294.91
527.87	262.14
528.04	383.85
528.21	276.18
528.38	283.20
528.55	294.91
528.72	285.55
528.89	243.42
529.07	280.86
529.24	208.31
529.41	301.93
529.58	262.14
529.75	198.95
529.92	276.18
530.09	273.84
530.26	306.61
530.43	259.80
530.60	262.14
530.77	306.61
530.94	278.52
531.11	341.72
531.28	203.63
531.46	280.86
531.63	313.63
531.80	297.25
531.97	271.50
532.14	257.46
532.31	236.39
532.48	304.27
532.65	220.01
532.82	222.35
532.99	276.18
533.16	313.63
533.33	292.57
533.50	315.97
533.67	315.97
533.84	287.89
534.01	259.80
534.18	271.50
534.35	271.50
534.52	259.80
534.69	311.29
534.86	308.95
535.03	344.06
535.20	276.18
535.37	337.04
535.54	299.59
535.71	290.23
535.88	376.83
536.05	257.46
536.22	351.08
536.38	294.91
536.55	301.93
536.72	360.44
536.89	330.02
537.06	337.04
537.23	325.33
537.40	315.97
537.57	379.17
537.74	372.15
537.91	461.09
538.08	442.36
538.25	393.21
538.42	430.66
538.59	430.66
538.75	407.25
538.92	425.98
539.09	472.79
539.26	510.24
539.43	589.82
539.60	575.77
539.77	596.84
539.94	517.26
540.11	575.77
540.28	688.12
540.44	807.48
540.61	760.67
540.78	823.87
540.95	915.15
541.12	1057.92
541.29	1221.76
541.46	1196.01
541.62	1249.85
541.79	1231.12
541.96	1184.31
542.13	1240.48
542.30	1083.67
542.47	1249.85
542.63	1165.59
542.80	1057.92
542.97	1097.71
543.14	1144.52
543.31	1165.59
543.48	1181.97
543.64	1088.35
543.81	1123.46
543.98	1015.79
544.15	1062.60
544.32	1074.31
544.48	1135.16
544.65	1034.52
544.82	994.73
544.99	978.34
545.16	1076.65
545.32	1083.67
545.49	1561.14
545.66	2377.98
545.83	2911.63
546.00	2513.74
546.16	1781.15
546.33	1338.79
546.50	1043.88
546.67	873.02
546.83	702.16
547.00	854.30
547.17	774.72
547.34	683.44
547.50	692.80
547.67	631.94
547.84	613.22
548.00	683.44
548.17	655.35
548.34	610.88
548.51	697.48
548.67	634.29
548.84	624.92
549.01	592.16
549.18	603.86
549.34	617.90
549.51	575.77
549.68	638.97
549.84	533.64
550.01	514.92
550.18	599.18
550.34	566.41
550.51	538.32
550.68	587.47
550.84	421.30
551.01	458.74
551.18	447.04
551.34	395.55
551.51	437.68
551.68	414.27
551.84	472.79
552.01	468.11
552.18	477.47
552.34	454.06
552.51	447.04
552.68	416.62
552.84	465.77
553.01	346.40
553.18	372.15
553.34	341.72
553.51	362.78
553.67	388.53
553.84	367.46
554.01	367.46
554.17	241.08
554.34	285.55
554.51	360.44
554.67	306.61
554.84	355.76
555.00	320.65
555.17	266.82
555.33	337.04
555.50	311.29
555.67	304.27
555.83	248.10
556.00	313.63
556.16	444.70
556.33	315.97
556.50	255.12
556.66	358.10
556.83	369.80
556.99	264.48
557.16	276.18
557.32	311.29
557.49	306.61
557.65	264.48
557.82	229.37
557.98	318.31
558.15	241.08
558.32	264.48
558.48	306.61
558.65	252.78
558.81	231.71
558.98	278.52
559.14	297.25
559.31	273.84
559.47	276.18
559.64	299.59
559.80	304.27
559.97	255.12
560.13	292.57
560.30	278.52
560.46	250.44
560.63	224.69
560.79	173.20
560.96	311.29
561.12	250.44
561.29	330.02
561.45	236.39
561.61	255.12
561.78	365.12
561.94	262.14
562.11	276.18
562.27	262.14
562.44	252.78
562.60	255.12
562.77	191.92
562.93	259.80
563.10	215.33
563.26	304.27
563.42	264.48
563.59	276.18
563.75	250.44
563.92	255.12
564.08	264.48
564.24	269.16
564.41	301.93
564.57	189.58
564.74	198.95
564.90	273.84
565.07	297.25
565.23	334.70
565.39	152.13
565.56	308.95
565.72	255.12
565.88	252.78
566.05	234.05
566.21	306.61
566.38	292.57
566.54	229.37
566.70	320.65
566.87	234.05
567.03	140.43
567.19	217.67
567.36	250.44
567.52	294.91
567.68	259.80
567.85	304.27
568.01	203.63
568.17	191.92
568.34	145.11
568.50	262.14
568.66	243.42
568.83	227.03
568.99	227.03
569.15	337.04
569.32	201.29
569.48	248.10
569.64	241.08
569.81	287.89
569.97	243.42
570.13	175.54
570.30	229.37
570.46	224.69
570.62	201.29
570.78	184.90
570.95	236.39
571.11	292.57
571.27	234.05
571.43	210.65
571.60	269.16
571.76	264.48
571.92	259.80
572.09	212.99
572.25	276.18
572.41	245.76
572.57	278.52
572.74	259.80
572.90	304.27
573.06	299.59
573.22	238.73
573.38	278.52
573.55	266.82
573.71	269.16
573.87	250.44
574.03	227.03
574.20	238.73
574.36	257.46
574.52	280.86
574.68	250.44
574.84	322.99
575.01	299.59
575.17	294.91
575.33	259.80
575.49	287.89
575.65	299.59
575.82	290.23
575.98	283.20
576.14	320.65
576.30	297.25
576.46	477.47
576.62	678.76
576.79	685.78
576.95	634.29
577.11	498.53
577.27	365.12
577.43	374.49
577.59	308.95
577.75	224.69
577.92	285.55
578.08	222.35
578.24	271.50
578.40	411.93
578.56	503.22
578.72	601.52
578.88	723.23
579.04	528.96
579.21	491.51
579.37	355.76
579.53	397.89
579.69	404.91
579.85	365.12
580.01	442.36
580.17	365.12
580.33	440.02
580.49	355.76
580.65	355.76
580.82	395.55
580.98	280.86
581.14	264.48
581.30	325.33
581.46	285.55
581.62	386.19
581.78	393.21
581.94	379.17
582.10	358.10
582.26	454.06
582.42	440.02
582.58	440.02
582.74	414.27
582.90	397.89
583.06	449.38
583.22	519.60
583.38	491.51
583.54	411.93
583.70	451.72
583.86	414.27
584.02	400.23
584.18	486.83
584.34	447.04
584.50	407.25
584.66	372.15
584.82	411.93
584.98	416.62
585.14	411.93
585.30	449.38
585.46	400.23
585.62	374.49
585.78	414.27
585.94	395.55
586.10	383.85
586.26	407.25
586.42	472.79
586.58	507.90
586.74	463.43
586.90	533.64
587.06	594.50
587.22	528.96
587.38	454.06
587.54	559.39
587.70	519.60
587.86	393.21
588.02	355.76
588.18	360.44
588.34	334.70
588.49	376.83
588.65	388.53
588.81	325.33
588.97	330.02
589.13	276.18
589.29	264.48
589.45	318.31
589.61	327.68
589.77	376.83
589.93	283.20
590.08	259.80
590.24	337.04
590.40	322.99
590.56	322.99
590.72	318.31
590.88	322.99
591.04	397.89
591.20	299.59
591.35	428.32
591.51	388.53
591.67	362.78
591.83	351.08
591.99	376.83
592.15	388.53
592.31	404.91
592.46	447.04
592.62	554.71
592.78	461.09
592.94	507.90
593.10	454.06
593.26	383.85
593.41	397.89
593.57	407.25
593.73	325.33
593.89	322.99
594.05	308.95
594.20	330.02
594.36	262.14
594.52	278.52
594.68	257.46
594.84	294.91
594.99	383.85
595.15	276.18
595.31	262.14
595.47	308.95
595.62	306.61
595.78	287.89
595.94	273.84
596.10	372.15
596.25	337.04
596.41	322.99
596.57	252.78
596.73	156.82
596.88	241.08
597.04	271.50
597.20	262.14
597.36	250.44
597.51	229.37
597.67	313.63
597.83	346.40
597.99	346.40
598.14	360.44
598.30	278.52
598.46	381.51
598.61	341.72
598.77	374.49
598.93	322.99
599.09	386.19
599.24	367.46
599.40	348.74
599.56	330.02
599.71	308.95
599.87	327.68
600.03	278.52
600.18	348.74
600.34	297.25
600.50	332.36
600.65	346.40
600.81	341.72
600.97	330.02
601.12	339.38
601.28	294.91
601.44	236.39
601.59	325.33
601.75	257.46
601.91	297.25
602.06	271.50
602.22	381.51
602.37	332.36
602.53	297.25
602.69	231.71
602.84	304.27
603.00	250.44
603.16	285.55
603.31	236.39
603.47	271.50
603.62	271.50
603.78	318.31
603.94	322.99
604.09	252.78
604.25	276.18
604.40	287.89
604.56	220.01
604.71	264.48
604.87	273.84
605.03	315.97
605.18	318.31
605.34	313.63
605.49	346.40
605.65	273.84
605.80	332.36
605.96	294.91
606.12	273.84
606.27	290.23
606.43	315.97
606.58	332.36
606.74	294.91
606.89	365.12
607.05	376.83
607.20	285.55
607.36	374.49
607.51	344.06
607.67	374.49
607.82	358.10
607.98	344.06
608.13	344.06
608.29	337.04
608.44	435.34
608.60	395.55
608.75	472.79
608.91	449.38
609.06	566.41
609.22	493.85
609.37	557.05
609.53	575.77
609.68	650.67
609.84	671.73
609.99	858.98
610.15	943.24
610.30	1097.71
610.46	1226.44
610.61	1509.65
610.76	1973.07
610.92	2279.68
611.07	2499.69
611.23	2766.51
