SpectraSuite Data File
++++++++++++++++++++++++++++++++++++
Date: Fri Oct 04 11:41:53 GMT-05:00 2013
User: price-jones
Dark Spectrum Present: No
Reference Spectrum Present: No
Number of Sampled Component Spectra: 1
Spectrometers: USB2+H05261
Integration Time (usec): 100000 (USB2+H05261)
Spectra Averaged: 1 (USB2+H05261)
Boxcar Smoothing: 0 (USB2+H05261)
Correct for Electrical Dark: No (USB2+H05261)
Strobe/Lamp Enabled: No (USB2+H05261)
Correct for Detector Non-linearity: No (USB2+H05261)
Correct for Stray Light: No (USB2+H05261)
Number of Pixels in Processed Spectrum: 2048
>>>>>Begin Processed Spectral Data<<<<<
365.73	44.47
365.92	44.47
366.12	44.47
366.32	0.00
366.52	0.00
366.72	0.00
366.91	0.00
367.11	0.00
367.31	0.00
367.51	0.00
367.70	0.00
367.90	0.00
368.10	0.00
368.30	0.00
368.49	0.00
368.69	4.68
368.89	0.00
369.09	0.00
369.28	0.00
369.48	0.00
369.68	0.00
369.87	0.00
370.07	14.04
370.27	30.43
370.47	42.13
370.66	37.45
370.86	51.49
371.06	28.09
371.25	105.32
371.45	0.00
371.65	60.85
371.84	93.62
372.04	58.51
372.24	100.64
372.44	72.56
372.63	67.88
372.83	147.45
373.03	81.92
373.22	114.69
373.42	107.66
373.62	147.45
373.81	81.92
374.01	170.86
374.21	145.11
374.40	117.03
374.60	205.97
374.79	142.77
374.99	74.90
375.19	102.98
375.38	152.13
375.58	201.29
375.78	191.92
375.97	156.82
376.17	208.31
376.37	95.96
376.56	44.47
376.76	93.62
376.95	168.52
377.15	166.18
377.35	112.35
377.54	133.41
377.74	98.30
377.93	107.66
378.13	107.66
378.33	124.05
378.52	149.79
378.72	95.96
378.91	161.50
379.11	11.70
379.31	154.48
379.50	98.30
379.70	138.09
379.89	187.24
380.09	159.16
380.28	131.07
380.48	102.98
380.68	95.96
380.87	63.19
381.07	74.90
381.26	126.39
381.46	133.41
381.65	133.41
381.85	0.00
382.04	131.07
382.24	119.37
382.43	53.83
382.63	67.88
382.83	95.96
383.02	147.45
383.22	149.79
383.41	51.49
383.61	133.41
383.80	86.60
384.00	124.05
384.19	65.54
384.39	91.28
384.58	166.18
384.78	95.96
384.97	107.66
385.17	133.41
385.36	84.26
385.56	121.71
385.75	175.54
385.95	128.73
386.14	147.45
386.34	126.39
386.53	112.35
386.72	112.35
386.92	142.77
387.11	173.20
387.31	105.32
387.50	117.03
387.70	28.09
387.89	156.82
388.09	91.28
388.28	100.64
388.48	154.48
388.67	166.18
388.86	173.20
389.06	98.30
389.25	93.62
389.45	173.20
389.64	156.82
389.84	177.88
390.03	95.96
390.22	138.09
390.42	84.26
390.61	128.73
390.81	23.41
391.00	91.28
391.19	161.50
391.39	67.88
391.58	147.45
391.78	128.73
391.97	198.95
392.16	86.60
392.36	196.60
392.55	95.96
392.75	147.45
392.94	88.94
393.13	159.16
393.33	117.03
393.52	128.73
393.71	131.07
393.91	121.71
394.10	124.05
394.29	121.71
394.49	126.39
394.68	124.05
394.88	154.48
395.07	161.50
395.26	58.51
395.46	159.16
395.65	86.60
395.84	112.35
396.04	154.48
396.23	84.26
396.42	63.19
396.62	84.26
396.81	128.73
397.00	65.54
397.19	131.07
397.39	107.66
397.58	191.92
397.77	56.17
397.97	105.32
398.16	77.24
398.35	131.07
398.55	114.69
398.74	140.43
398.93	119.37
399.12	147.45
399.32	114.69
399.51	135.75
399.70	170.86
399.90	142.77
400.09	152.13
400.28	88.94
400.47	93.62
400.67	187.24
400.86	147.45
401.05	154.48
401.24	112.35
401.44	231.71
401.63	133.41
401.82	173.20
402.01	133.41
402.21	138.09
402.40	163.84
402.59	177.88
402.78	177.88
402.97	135.75
403.17	163.84
403.36	156.82
403.55	227.03
403.74	500.87
403.93	1416.02
404.13	2942.05
404.32	3286.11
404.51	2668.21
404.70	1544.75
404.89	578.11
405.09	353.42
405.28	220.01
405.47	93.62
405.66	182.56
405.85	159.16
406.05	205.97
406.24	198.95
406.43	180.22
406.62	149.79
406.81	177.88
407.00	278.52
407.20	433.00
407.39	596.84
407.58	535.98
407.77	379.17
407.96	304.27
408.15	177.88
408.34	121.71
408.54	262.14
408.73	163.84
408.92	131.07
409.11	166.18
409.30	168.52
409.49	140.43
409.68	161.50
409.87	107.66
410.07	159.16
410.26	177.88
410.45	159.16
410.64	95.96
410.83	184.90
411.02	170.86
411.21	128.73
411.40	133.41
411.59	210.65
411.78	152.13
411.98	154.48
412.17	180.22
412.36	154.48
412.55	212.99
412.74	184.90
412.93	173.20
413.12	180.22
413.31	147.45
413.50	182.56
413.69	184.90
413.88	184.90
414.07	131.07
414.26	159.16
414.45	180.22
414.64	187.24
414.83	208.31
415.02	142.77
415.22	135.75
415.41	182.56
415.60	175.54
415.79	210.65
415.98	255.12
416.17	191.92
416.36	220.01
416.55	184.90
416.74	145.11
416.93	191.92
417.12	180.22
417.31	173.20
417.50	175.54
417.69	229.37
417.88	184.90
418.07	196.60
418.26	156.82
418.45	208.31
418.64	224.69
418.83	205.97
419.02	198.95
419.21	177.88
419.39	227.03
419.58	168.52
419.77	112.35
419.96	234.05
420.15	215.33
420.34	159.16
420.53	227.03
420.72	187.24
420.91	145.11
421.10	191.92
421.29	170.86
421.48	229.37
421.67	217.67
421.86	224.69
422.05	156.82
422.24	234.05
422.43	234.05
422.61	236.39
422.80	198.95
422.99	154.48
423.18	292.57
423.37	198.95
423.56	187.24
423.75	175.54
423.94	191.92
424.13	210.65
424.32	194.26
424.50	217.67
424.69	194.26
424.88	294.91
425.07	128.73
425.26	250.44
425.45	220.01
425.64	215.33
425.83	308.95
426.01	191.92
426.20	229.37
426.39	166.18
426.58	133.41
426.77	238.73
426.96	276.18
427.15	297.25
427.33	229.37
427.52	142.77
427.71	283.20
427.90	220.01
428.09	250.44
428.28	175.54
428.46	322.99
428.65	227.03
428.84	255.12
429.03	243.42
429.22	222.35
429.40	301.93
429.59	234.05
429.78	276.18
429.97	220.01
430.16	208.31
430.34	224.69
430.53	297.25
430.72	248.10
430.91	280.86
431.10	217.67
431.28	227.03
431.47	271.50
431.66	318.31
431.85	241.08
432.03	271.50
432.22	325.33
432.41	184.90
432.60	351.08
432.79	304.27
432.97	210.65
433.16	299.59
433.35	337.04
433.54	283.20
433.72	346.40
433.91	381.51
434.10	447.04
434.28	571.09
434.47	582.79
434.66	648.33
434.85	844.93
435.03	2438.84
435.22	8372.10
435.41	15236.89
435.59	13830.23
435.78	8798.07
435.97	4320.63
436.16	1764.76
436.34	674.07
436.53	505.56
436.72	510.24
436.90	393.21
437.09	388.53
437.28	402.57
437.46	320.65
437.65	374.49
437.84	266.82
438.02	266.82
438.21	381.51
438.40	311.29
438.58	224.69
438.77	273.84
438.96	294.91
439.14	264.48
439.33	290.23
439.52	250.44
439.70	276.18
439.89	332.36
440.08	327.68
440.26	264.48
440.45	269.16
440.63	290.23
440.82	308.95
441.01	313.63
441.19	327.68
441.38	318.31
441.57	264.48
441.75	360.44
441.94	327.68
442.12	358.10
442.31	201.29
442.50	229.37
442.68	360.44
442.87	285.55
443.05	245.76
443.24	266.82
443.43	322.99
443.61	379.17
443.80	287.89
443.98	266.82
444.17	327.68
444.35	325.33
444.54	285.55
444.73	292.57
444.91	287.89
445.10	262.14
445.28	238.73
445.47	257.46
445.65	245.76
445.84	278.52
446.02	320.65
446.21	205.97
446.39	287.89
446.58	358.10
446.77	280.86
446.95	376.83
447.14	299.59
447.32	273.84
447.51	276.18
447.69	285.55
447.88	318.31
448.06	248.10
448.25	262.14
448.43	294.91
448.62	290.23
448.80	264.48
448.99	292.57
449.17	248.10
449.36	332.36
449.54	304.27
449.73	292.57
449.91	346.40
450.10	325.33
450.28	318.31
450.46	374.49
450.65	320.65
450.83	236.39
451.02	241.08
451.20	337.04
451.39	257.46
451.57	250.44
451.76	290.23
451.94	346.40
452.13	311.29
452.31	348.74
452.49	325.33
452.68	222.35
452.86	234.05
453.05	322.99
453.23	255.12
453.42	290.23
453.60	264.48
453.78	266.82
453.97	297.25
454.15	341.72
454.34	264.48
454.52	234.05
454.70	315.97
454.89	294.91
455.07	248.10
455.26	278.52
455.44	346.40
455.62	311.29
455.81	313.63
455.99	241.08
456.17	311.29
456.36	318.31
456.54	271.50
456.73	313.63
456.91	243.42
457.09	285.55
457.28	325.33
457.46	236.39
457.64	290.23
457.83	271.50
458.01	248.10
458.19	346.40
458.38	255.12
458.56	346.40
458.74	248.10
458.93	262.14
459.11	227.03
459.29	283.20
459.48	269.16
459.66	318.31
459.84	280.86
460.03	381.51
460.21	341.72
460.39	257.46
460.57	372.15
460.76	215.33
460.94	273.84
461.12	379.17
461.31	383.85
461.49	245.76
461.67	238.73
461.85	266.82
462.04	292.57
462.22	718.54
462.40	285.55
462.59	353.42
462.77	234.05
462.95	346.40
463.13	292.57
463.32	269.16
463.50	243.42
463.68	348.74
463.86	255.12
464.05	276.18
464.23	379.17
464.41	339.38
464.59	299.59
464.78	344.06
464.96	276.18
465.14	313.63
465.32	327.68
465.50	315.97
465.69	248.10
465.87	250.44
466.05	248.10
466.23	318.31
466.41	315.97
466.60	229.37
466.78	320.65
466.96	344.06
467.14	372.15
467.32	299.59
467.51	362.78
467.69	285.55
467.87	355.76
468.05	234.05
468.23	360.44
468.41	327.68
468.60	245.76
468.78	238.73
468.96	339.38
469.14	285.55
469.32	311.29
469.50	173.20
469.69	243.42
469.87	262.14
470.05	266.82
470.23	283.20
470.41	306.61
470.59	262.14
470.77	344.06
470.95	234.05
471.14	353.42
471.32	259.80
471.50	320.65
471.68	322.99
471.86	243.42
472.04	327.68
472.22	257.46
472.40	280.86
472.58	294.91
472.77	189.58
472.95	245.76
473.13	297.25
473.31	362.78
473.49	388.53
473.67	322.99
473.85	362.78
474.03	294.91
474.21	353.42
474.39	299.59
474.57	278.52
474.75	337.04
474.93	276.18
475.12	283.20
475.30	304.27
475.48	189.58
475.66	285.55
475.84	351.08
476.02	255.12
476.20	262.14
476.38	292.57
476.56	400.23
476.74	252.78
476.92	341.72
477.10	259.80
477.28	344.06
477.46	266.82
477.64	308.95
477.82	311.29
478.00	292.57
478.18	332.36
478.36	330.02
478.54	332.36
478.72	315.97
478.90	276.18
479.08	395.55
479.26	461.09
479.44	320.65
479.62	348.74
479.80	360.44
479.98	344.06
480.16	421.30
480.34	449.38
480.52	348.74
480.70	437.68
480.88	381.51
481.06	409.59
481.24	395.55
481.41	477.47
481.59	535.98
481.77	503.22
481.95	552.37
482.13	566.41
482.31	580.45
482.49	573.43
482.67	648.33
482.85	606.20
483.03	727.91
483.21	777.06
483.39	753.65
483.57	870.68
483.74	954.94
483.92	1020.47
484.10	894.08
484.28	978.34
484.46	1167.93
484.64	1125.80
484.82	1151.54
485.00	1188.99
485.18	1329.42
485.35	1348.15
485.53	1467.52
485.71	1434.75
485.89	1528.37
486.07	1556.46
486.25	1607.95
486.43	1586.88
486.61	1507.30
486.78	1633.69
486.96	1612.63
487.14	1540.07
487.32	1621.99
487.50	1530.71
487.68	1579.86
487.85	1483.90
488.03	1462.83
488.21	1476.88
488.39	1378.58
488.57	1502.62
488.75	1409.00
488.92	1640.72
489.10	1359.85
489.28	1359.85
489.46	1294.32
489.64	1249.85
489.81	1252.19
489.99	1242.82
490.17	1266.23
490.35	1275.59
490.53	1128.14
490.70	1207.72
490.88	1186.65
491.06	1301.34
491.24	1359.85
491.41	1378.58
491.59	1252.19
491.77	1200.69
491.95	1153.88
492.13	1193.67
492.30	1064.94
492.48	1139.84
492.66	1064.94
492.84	1053.24
493.01	999.41
493.19	1071.97
493.37	1067.28
493.54	1100.05
493.72	1100.05
493.90	978.34
494.08	901.11
494.25	1006.43
494.43	950.26
494.61	952.60
494.79	924.51
494.96	1001.75
495.14	961.96
495.32	945.58
495.49	926.85
495.67	861.32
495.85	837.91
496.02	847.27
496.20	896.43
496.38	812.17
496.55	807.48
496.73	835.57
496.91	791.10
497.09	807.48
497.26	802.80
497.44	795.78
497.62	812.17
497.79	744.29
497.97	734.93
498.14	779.40
498.32	685.78
498.50	702.16
498.67	730.25
498.85	702.16
499.03	734.93
499.20	716.20
499.38	676.41
499.56	631.94
499.73	608.54
499.91	615.56
500.08	709.18
500.26	578.11
500.44	465.77
500.61	531.30
500.79	587.47
500.97	561.73
501.14	634.29
501.32	531.30
501.49	500.87
501.67	442.36
501.84	463.43
502.02	510.24
502.20	566.41
502.37	444.70
502.55	447.04
502.72	475.13
502.90	477.47
503.07	365.12
503.25	451.72
503.43	425.98
503.60	355.76
503.78	447.04
503.95	348.74
504.13	362.78
504.30	332.36
504.48	451.72
504.65	447.04
504.83	414.27
505.01	414.27
505.18	475.13
505.36	388.53
505.53	276.18
505.71	365.12
505.88	369.80
506.06	330.02
506.23	280.86
506.41	369.80
506.58	369.80
506.76	442.36
506.93	360.44
507.11	353.42
507.28	381.51
507.46	348.74
507.63	311.29
507.81	332.36
507.98	318.31
508.16	325.33
508.33	358.10
508.50	358.10
508.68	369.80
508.85	315.97
509.03	447.04
509.20	355.76
509.38	294.91
509.55	262.14
509.73	397.89
509.90	315.97
510.08	381.51
510.25	395.55
510.42	278.52
510.60	374.49
510.77	290.23
510.95	285.55
511.12	365.12
511.30	355.76
511.47	360.44
511.64	376.83
511.82	304.27
511.99	362.78
512.17	341.72
512.34	337.04
512.51	276.18
512.69	313.63
512.86	430.66
513.04	341.72
513.21	257.46
513.38	248.10
513.56	315.97
513.73	337.04
513.90	234.05
514.08	287.89
514.25	283.20
514.43	318.31
514.60	304.27
514.77	285.55
514.95	339.38
515.12	308.95
515.29	339.38
515.47	327.68
515.64	393.21
515.81	264.48
515.99	332.36
516.16	287.89
516.33	362.78
516.51	353.42
516.68	257.46
516.85	327.68
517.03	322.99
517.20	259.80
517.37	285.55
517.54	353.42
517.72	311.29
517.89	184.90
518.06	341.72
518.24	334.70
518.41	337.04
518.58	346.40
518.75	299.59
518.93	306.61
519.10	290.23
519.27	327.68
519.45	355.76
519.62	339.38
519.79	304.27
519.96	252.78
520.14	276.18
520.31	339.38
520.48	217.67
520.65	294.91
520.83	255.12
521.00	344.06
521.17	262.14
521.34	187.24
521.52	259.80
521.69	334.70
521.86	315.97
522.03	365.12
522.20	393.21
522.38	313.63
522.55	243.42
522.72	337.04
522.89	365.12
523.07	367.46
523.24	365.12
523.41	367.46
523.58	339.38
523.75	276.18
523.92	250.44
524.10	252.78
524.27	334.70
524.44	276.18
524.61	337.04
524.78	341.72
524.96	308.95
525.13	276.18
525.30	297.25
525.47	334.70
525.64	327.68
525.81	315.97
525.98	315.97
526.16	285.55
526.33	269.16
526.50	320.65
526.67	297.25
526.84	306.61
527.01	255.12
527.18	367.46
527.36	369.80
527.53	365.12
527.70	369.80
527.87	325.33
528.04	433.00
528.21	416.62
528.38	330.02
528.55	334.70
528.72	311.29
528.89	411.93
529.07	376.83
529.24	381.51
529.41	393.21
529.58	367.46
529.75	348.74
529.92	355.76
530.09	409.59
530.26	458.74
530.43	386.19
530.60	341.72
530.77	456.40
530.94	416.62
531.11	367.46
531.28	479.81
531.46	330.02
531.63	400.23
531.80	454.06
531.97	503.22
532.14	507.90
532.31	669.39
532.48	606.20
532.65	662.37
532.82	767.70
532.99	863.66
533.16	997.07
533.33	987.71
533.50	950.26
533.67	725.57
533.84	669.39
534.01	676.41
534.18	660.03
534.35	638.97
534.52	660.03
534.69	587.47
534.86	699.82
535.03	727.91
535.20	681.10
535.37	821.53
535.54	861.32
535.71	814.51
535.88	903.45
536.05	931.53
536.22	997.07
536.38	1041.54
536.55	1088.35
536.72	1196.01
536.89	1291.98
537.06	1427.73
537.23	1497.94
537.40	1867.75
537.57	1802.21
537.74	1884.13
537.91	2050.31
538.08	2047.97
538.25	2019.88
538.42	2083.08
538.59	2136.91
538.75	2129.89
538.92	2310.11
539.09	2691.62
539.26	2782.90
539.43	3096.53
539.60	3676.98
539.77	3882.95
539.94	4358.08
540.11	4873.00
540.28	5254.50
540.44	5661.76
540.61	6382.64
540.78	7417.16
540.95	8865.95
541.12	10228.14
541.29	11360.96
541.46	11702.68
541.62	11749.49
541.79	11482.67
541.96	10424.75
542.13	9745.99
542.30	9235.75
542.47	8444.65
542.63	8217.62
542.80	8023.36
542.97	8044.42
543.14	7866.54
543.31	7971.86
543.48	7957.82
543.64	8011.65
543.81	8226.98
543.98	8093.57
544.15	8140.38
544.32	8124.00
544.48	8067.83
544.65	8203.58
544.82	7936.76
544.99	7948.46
545.16	8236.35
545.32	8950.21
545.49	17624.23
545.66	29134.99
545.83	32327.48
546.00	25783.34
546.16	18036.17
546.33	13202.96
546.50	10036.22
546.67	8128.68
546.83	7241.62
547.00	6803.94
547.17	6483.28
547.34	6246.89
547.50	5722.61
547.67	5802.19
547.84	5589.20
548.00	5486.22
548.17	5177.26
548.34	5090.67
548.51	4809.80
548.67	4723.20
548.84	4531.28
549.01	4184.88
549.18	4189.56
549.34	3840.82
549.51	3786.99
549.68	3730.81
549.84	3552.93
550.01	3314.20
550.18	3297.81
550.34	3159.72
550.51	3016.95
550.68	2902.26
550.84	2623.74
551.01	2560.55
551.18	2396.71
551.34	2324.15
551.51	2228.19
551.68	2146.27
551.84	2157.97
552.01	1970.73
552.18	1900.52
552.34	1856.04
552.51	1774.13
552.68	1919.24
552.84	1717.95
553.01	1600.93
553.18	1579.86
553.34	1479.22
553.51	1537.73
553.67	1441.77
553.84	1472.20
554.01	1397.30
554.17	1200.69
554.34	1177.29
554.51	1104.73
554.67	1064.94
554.84	983.02
555.00	985.37
555.17	896.43
555.33	978.34
555.50	912.81
555.67	755.99
555.83	758.33
556.00	709.18
556.16	868.34
556.33	704.50
556.50	737.27
556.66	690.46
556.83	709.18
556.99	636.63
557.16	615.56
557.32	641.31
557.49	627.26
557.65	589.82
557.82	608.54
557.98	610.88
558.15	603.86
558.32	606.20
558.48	505.56
558.65	540.66
558.81	500.87
558.98	596.84
559.14	519.60
559.31	514.92
559.47	496.19
559.64	482.15
559.80	416.62
559.97	407.25
560.13	521.94
560.30	486.83
560.46	463.43
560.63	454.06
560.79	547.69
560.96	472.79
561.12	454.06
561.29	451.72
561.45	489.17
561.61	465.77
561.78	575.77
561.94	451.72
562.11	423.64
562.27	498.53
562.44	486.83
562.60	416.62
562.77	430.66
562.93	535.98
563.10	421.30
563.26	402.57
563.42	486.83
563.59	458.74
563.75	416.62
563.92	397.89
564.08	451.72
564.24	500.87
564.41	414.27
564.57	341.72
564.74	390.87
564.90	367.46
565.07	393.21
565.23	479.81
565.39	428.32
565.56	400.23
565.72	395.55
565.88	423.64
566.05	463.43
566.21	440.02
566.38	362.78
566.54	425.98
566.70	435.34
566.87	409.59
567.03	390.87
567.19	365.12
567.36	414.27
567.52	425.98
567.68	325.33
567.85	383.85
568.01	313.63
568.17	372.15
568.34	463.43
568.50	458.74
568.66	369.80
568.83	465.77
568.99	409.59
569.15	484.49
569.32	367.46
569.48	332.36
569.64	325.33
569.81	322.99
569.97	348.74
570.13	369.80
570.30	292.57
570.46	346.40
570.62	390.87
570.78	358.10
570.95	299.59
571.11	248.10
571.27	322.99
571.43	325.33
571.60	344.06
571.76	341.72
571.92	393.21
572.09	367.46
572.25	407.25
572.41	325.33
572.57	285.55
572.74	348.74
572.90	290.23
573.06	379.17
573.22	456.40
573.38	393.21
573.55	362.78
573.71	285.55
573.87	322.99
574.03	353.42
574.20	360.44
574.36	388.53
574.52	353.42
574.68	362.78
574.84	400.23
575.01	430.66
575.17	458.74
575.33	437.68
575.49	451.72
575.65	486.83
575.82	533.64
575.98	535.98
576.14	620.24
576.30	1348.15
576.46	3983.59
576.62	5418.34
576.79	5432.38
576.95	3953.16
577.11	2541.82
577.27	1919.24
577.43	1235.80
577.59	903.45
577.75	793.44
577.92	748.97
578.08	746.63
578.24	795.78
578.40	1362.19
578.56	3616.13
578.72	4891.72
578.88	4947.89
579.04	3651.24
579.21	2672.89
579.37	2036.27
579.53	1570.50
579.69	1724.97
579.85	2071.37
580.01	2209.47
580.17	1996.48
580.33	1942.64
580.49	1591.56
580.65	1420.71
580.82	1327.08
580.98	1282.61
581.14	1207.72
581.30	1462.83
581.46	1558.80
581.62	1607.95
581.78	1673.48
581.94	1891.15
582.10	1944.99
582.26	1959.03
582.42	2092.44
582.58	2092.44
582.74	2071.37
582.90	2104.14
583.06	2181.38
583.22	2228.19
583.38	2188.40
583.54	1982.43
583.70	2101.80
583.86	2066.69
584.02	1973.07
584.18	2059.67
584.34	2003.50
584.50	1994.14
584.66	1921.58
584.82	1846.68
584.98	2019.88
585.14	1877.11
585.30	1886.47
585.46	1877.11
585.62	1748.38
585.78	1767.10
585.94	1816.26
586.10	1928.60
586.26	2052.65
586.42	2204.78
586.58	2794.60
586.74	3124.62
586.90	3765.92
587.06	4081.89
587.22	3819.75
587.38	3389.10
587.54	2897.58
587.70	2633.10
587.86	2368.62
588.02	1944.99
588.18	1753.06
588.34	1636.03
588.49	1380.92
588.65	1362.19
588.81	1315.38
588.97	1217.08
589.13	1263.89
589.29	1219.42
589.45	1186.65
589.61	1277.93
589.77	1270.91
589.93	1240.48
590.08	1231.12
590.24	1301.34
590.40	1338.79
590.56	1425.39
590.72	1423.05
590.88	1469.86
591.04	1483.90
591.20	1409.00
591.35	1687.53
591.51	1617.31
591.67	1708.59
591.83	1788.17
591.99	2015.20
592.15	2136.91
592.31	2377.98
592.46	2420.11
592.62	2619.06
592.78	2885.88
592.94	2981.84
593.10	2764.17
593.26	2768.85
593.41	2455.22
593.57	2204.78
593.73	1912.22
593.89	1860.73
594.05	1554.12
594.20	1453.47
594.36	1418.36
594.52	1268.57
594.68	1219.42
594.84	1156.22
594.99	1247.51
595.15	1193.67
595.31	1088.35
595.47	1132.82
595.62	1146.86
595.78	1125.80
595.94	1078.99
596.10	1228.78
596.25	1165.59
596.41	1146.86
596.57	1090.69
596.73	1160.91
596.88	1090.69
597.04	1121.12
597.20	1109.41
597.36	1188.99
597.51	1242.82
597.67	1282.61
597.83	1275.59
597.99	1268.57
598.14	1378.58
598.30	1451.13
598.46	1575.18
598.61	1654.76
598.77	1806.89
598.93	1760.08
599.09	1715.61
599.24	1804.55
599.40	1776.47
599.56	1774.13
599.71	1584.54
599.87	1584.54
600.03	1474.54
600.18	1336.45
600.34	1235.80
600.50	1235.80
600.65	1219.42
600.81	1125.80
600.97	940.90
601.12	1069.62
601.28	952.60
601.44	891.74
601.59	922.17
601.75	858.98
601.91	992.39
602.06	854.30
602.22	840.25
602.37	763.01
602.53	746.63
602.69	753.65
602.84	844.93
603.00	823.87
603.16	667.05
603.31	849.61
603.47	812.17
603.62	727.91
603.78	814.51
603.94	866.00
604.09	1001.75
604.25	1032.18
604.40	917.49
604.56	856.64
604.71	933.87
604.87	894.08
605.03	940.90
605.18	971.32
605.34	957.28
605.49	936.21
605.65	1076.65
605.80	1011.11
605.96	1081.33
606.12	1095.37
606.27	1048.56
606.43	1158.57
606.58	1291.98
606.74	1371.55
606.89	1359.85
607.05	1385.60
607.20	1430.07
607.36	1535.39
