SpectraSuite Data File
++++++++++++++++++++++++++++++++++++
Date: Fri Oct 04 11:42:25 GMT-05:00 2013
User: price-jones
Dark Spectrum Present: No
Reference Spectrum Present: No
Number of Sampled Component Spectra: 1
Spectrometers: USB2+H05261
Integration Time (usec): 100000 (USB2+H05261)
Spectra Averaged: 1 (USB2+H05261)
Boxcar Smoothing: 0 (USB2+H05261)
Correct for Electrical Dark: No (USB2+H05261)
Strobe/Lamp Enabled: No (USB2+H05261)
Correct for Detector Non-linearity: No (USB2+H05261)
Correct for Stray Light: No (USB2+H05261)
Number of Pixels in Processed Spectrum: 2048
>>>>>Begin Processed Spectral Data<<<<<
365.73	18.72
365.92	18.72
366.12	18.72
366.32	0.00
366.52	0.00
366.72	0.00
366.91	0.00
367.11	0.00
367.31	0.00
367.51	0.00
367.70	0.00
367.90	0.00
368.10	0.00
368.30	0.00
368.49	0.00
368.69	0.00
368.89	0.00
369.09	0.00
369.28	0.00
369.48	0.00
369.68	14.04
369.87	0.00
370.07	0.00
370.27	74.90
370.47	28.09
370.66	0.00
370.86	58.51
371.06	56.17
371.25	107.66
371.45	16.38
371.65	88.94
371.84	37.45
372.04	35.11
372.24	86.60
372.44	42.13
372.63	117.03
372.83	161.50
373.03	28.09
373.22	107.66
373.42	67.88
373.62	126.39
373.81	142.77
374.01	114.69
374.21	98.30
374.40	168.52
374.60	121.71
374.79	156.82
374.99	88.94
375.19	114.69
375.38	138.09
375.58	77.24
375.78	149.79
375.97	65.54
376.17	196.60
376.37	138.09
376.56	117.03
376.76	67.88
376.95	182.56
377.15	126.39
377.35	145.11
377.54	135.75
377.74	60.85
377.93	91.28
378.13	121.71
378.33	201.29
378.52	74.90
378.72	145.11
378.91	131.07
379.11	114.69
379.31	128.73
379.50	42.13
379.70	110.01
379.89	37.45
380.09	79.58
380.28	79.58
380.48	182.56
380.68	119.37
380.87	49.15
381.07	84.26
381.26	121.71
381.46	65.54
381.65	95.96
381.85	86.60
382.04	72.56
382.24	102.98
382.43	159.16
382.63	142.77
382.83	152.13
383.02	173.20
383.22	119.37
383.41	72.56
383.61	95.96
383.80	72.56
384.00	14.04
384.19	126.39
384.39	102.98
384.58	177.88
384.78	184.90
384.97	170.86
385.17	121.71
385.36	95.96
385.56	84.26
385.75	42.13
385.95	114.69
386.14	119.37
386.34	131.07
386.53	28.09
386.72	53.83
386.92	177.88
387.11	60.85
387.31	154.48
387.50	81.92
387.70	86.60
387.89	60.85
388.09	112.35
388.28	67.88
388.48	166.18
388.67	70.22
388.86	49.15
389.06	56.17
389.25	107.66
389.45	156.82
389.64	147.45
389.84	163.84
390.03	145.11
390.22	124.05
390.42	110.01
390.61	112.35
390.81	138.09
391.00	53.83
391.19	107.66
391.39	102.98
391.58	147.45
391.78	128.73
391.97	102.98
392.16	142.77
392.36	95.96
392.55	128.73
392.75	138.09
392.94	121.71
393.13	135.75
393.33	105.32
393.52	126.39
393.71	135.75
393.91	138.09
394.10	63.19
394.29	119.37
394.49	84.26
394.68	88.94
394.88	128.73
395.07	128.73
395.26	72.56
395.46	77.24
395.65	98.30
395.84	135.75
396.04	236.39
396.23	81.92
396.42	28.09
396.62	126.39
396.81	74.90
397.00	81.92
397.19	147.45
397.39	124.05
397.58	117.03
397.77	166.18
397.97	138.09
398.16	67.88
398.35	77.24
398.55	126.39
398.74	210.65
398.93	173.20
399.12	124.05
399.32	161.50
399.51	170.86
399.70	184.90
399.90	44.47
400.09	159.16
400.28	135.75
400.47	98.30
400.67	161.50
400.86	79.58
401.05	191.92
401.24	110.01
401.44	196.60
401.63	210.65
401.82	58.51
402.01	131.07
402.21	159.16
402.40	166.18
402.59	180.22
402.78	149.79
402.97	126.39
403.17	175.54
403.36	79.58
403.55	231.71
403.74	332.36
403.93	770.04
404.13	1486.24
404.32	2200.10
404.51	1928.60
404.70	1357.51
404.89	615.56
405.09	280.86
405.28	175.54
405.47	86.60
405.66	182.56
405.85	180.22
406.05	131.07
406.24	161.50
406.43	107.66
406.62	175.54
406.81	234.05
407.00	217.67
407.20	250.44
407.39	407.25
407.58	458.74
407.77	346.40
407.96	301.93
408.15	170.86
408.34	117.03
408.54	114.69
408.73	133.41
408.92	152.13
409.11	128.73
409.30	173.20
409.49	100.64
409.68	140.43
409.87	88.94
410.07	128.73
410.26	112.35
410.45	154.48
410.64	126.39
410.83	222.35
411.02	74.90
411.21	161.50
411.40	159.16
411.59	114.69
411.78	138.09
411.98	191.92
412.17	138.09
412.36	152.13
412.55	135.75
412.74	154.48
412.93	100.64
413.12	105.32
413.31	159.16
413.50	149.79
413.69	170.86
413.88	222.35
414.07	102.98
414.26	121.71
414.45	184.90
414.64	168.52
414.83	145.11
415.02	175.54
415.22	229.37
415.41	189.58
415.60	166.18
415.79	187.24
415.98	248.10
416.17	140.43
416.36	161.50
416.55	168.52
416.74	159.16
416.93	168.52
417.12	149.79
417.31	135.75
417.50	149.79
417.69	131.07
417.88	166.18
418.07	210.65
418.26	135.75
418.45	110.01
418.64	187.24
418.83	142.77
419.02	191.92
419.21	133.41
419.39	114.69
419.58	203.63
419.77	208.31
419.96	198.95
420.15	224.69
420.34	154.48
420.53	203.63
420.72	189.58
420.91	196.60
421.10	140.43
421.29	182.56
421.48	166.18
421.67	114.69
421.86	191.92
422.05	154.48
422.24	112.35
422.43	142.77
422.61	201.29
422.80	138.09
422.99	147.45
423.18	220.01
423.37	215.33
423.56	126.39
423.75	255.12
423.94	187.24
424.13	217.67
424.32	95.96
424.50	198.95
424.69	182.56
424.88	177.88
425.07	159.16
425.26	210.65
425.45	285.55
425.64	149.79
425.83	198.95
426.01	156.82
426.20	152.13
426.39	191.92
426.58	191.92
426.77	203.63
426.96	273.84
427.15	217.67
427.33	124.05
427.52	154.48
427.71	187.24
427.90	187.24
428.09	168.52
428.28	236.39
428.46	210.65
428.65	250.44
428.84	250.44
429.03	285.55
429.22	180.22
429.40	273.84
429.59	173.20
429.78	147.45
429.97	194.26
430.16	220.01
430.34	182.56
430.53	184.90
430.72	154.48
430.91	234.05
431.10	177.88
431.28	245.76
431.47	255.12
431.66	163.84
431.85	238.73
432.03	210.65
432.22	255.12
432.41	149.79
432.60	220.01
432.79	229.37
432.97	208.31
433.16	210.65
433.35	257.46
433.54	252.78
433.72	283.20
433.91	292.57
434.10	346.40
434.28	360.44
434.47	493.85
434.66	390.87
434.85	472.79
435.03	1064.94
435.22	3419.52
435.41	7667.60
435.59	9359.80
435.78	6176.67
435.97	3220.58
436.16	1378.58
436.34	491.51
436.53	388.53
436.72	278.52
436.90	278.52
437.09	304.27
437.28	227.03
437.46	294.91
437.65	292.57
437.84	212.99
438.02	210.65
438.21	276.18
438.40	266.82
438.58	266.82
438.77	208.31
438.96	248.10
439.14	170.86
439.33	257.46
439.52	166.18
439.70	287.89
439.89	346.40
440.08	201.29
440.26	248.10
440.45	292.57
440.63	259.80
440.82	306.61
441.01	280.86
441.19	273.84
441.38	280.86
441.57	245.76
441.75	332.36
441.94	285.55
442.12	262.14
442.31	194.26
442.50	297.25
442.68	241.08
442.87	264.48
443.05	222.35
443.24	273.84
443.43	262.14
443.61	280.86
443.80	222.35
443.98	205.97
444.17	194.26
444.35	294.91
444.54	271.50
444.73	283.20
444.91	278.52
445.10	231.71
445.28	224.69
445.47	212.99
445.65	290.23
445.84	280.86
446.02	257.46
446.21	280.86
446.39	304.27
446.58	173.20
446.77	208.31
446.95	180.22
447.14	315.97
447.32	248.10
447.51	344.06
447.69	278.52
447.88	217.67
448.06	220.01
448.25	238.73
448.43	234.05
448.62	283.20
448.80	278.52
448.99	238.73
449.17	285.55
449.36	250.44
449.54	273.84
449.73	224.69
449.91	264.48
450.10	234.05
450.28	266.82
450.46	334.70
450.65	337.04
450.83	238.73
451.02	250.44
451.20	234.05
451.39	201.29
451.57	243.42
451.76	290.23
451.94	304.27
452.13	241.08
452.31	311.29
452.49	220.01
452.68	262.14
452.86	259.80
453.05	210.65
453.23	180.22
453.42	241.08
453.60	285.55
453.78	234.05
453.97	189.58
454.15	231.71
454.34	250.44
454.52	220.01
454.70	301.93
454.89	271.50
455.07	283.20
455.26	301.93
455.44	278.52
455.62	241.08
455.81	187.24
455.99	238.73
456.17	266.82
456.36	341.72
456.54	301.93
456.73	212.99
456.91	280.86
457.09	245.76
457.28	229.37
457.46	236.39
457.64	280.86
457.83	264.48
458.01	248.10
458.19	212.99
458.38	166.18
458.56	198.95
458.74	170.86
458.93	264.48
459.11	269.16
459.29	259.80
459.48	294.91
459.66	315.97
459.84	297.25
460.03	337.04
460.21	339.38
460.39	210.65
460.57	248.10
460.76	304.27
460.94	245.76
461.12	255.12
461.31	313.63
461.49	278.52
461.67	318.31
461.85	231.71
462.04	313.63
462.22	395.55
462.40	252.78
462.59	327.68
462.77	220.01
462.95	306.61
463.13	173.20
463.32	236.39
463.50	243.42
463.68	278.52
463.86	301.93
464.05	184.90
464.23	262.14
464.41	220.01
464.59	271.50
464.78	271.50
464.96	248.10
465.14	271.50
465.32	196.60
465.50	257.46
465.69	245.76
465.87	191.92
466.05	287.89
466.23	227.03
466.41	285.55
466.60	348.74
466.78	301.93
466.96	297.25
467.14	264.48
467.32	205.97
467.51	229.37
467.69	283.20
467.87	304.27
468.05	255.12
468.23	271.50
468.41	311.29
468.60	201.29
468.78	212.99
468.96	224.69
469.14	227.03
469.32	182.56
469.50	205.97
469.69	250.44
469.87	231.71
470.05	257.46
470.23	264.48
470.41	198.95
470.59	138.09
470.77	243.42
470.95	231.71
471.14	283.20
471.32	245.76
471.50	264.48
471.68	245.76
471.86	224.69
472.04	250.44
472.22	241.08
472.40	205.97
472.58	208.31
472.77	252.78
472.95	227.03
473.13	290.23
473.31	304.27
473.49	196.60
473.67	283.20
473.85	222.35
474.03	269.16
474.21	248.10
474.39	205.97
474.57	236.39
474.75	278.52
474.93	262.14
475.12	198.95
475.30	243.42
475.48	257.46
475.66	184.90
475.84	222.35
476.02	266.82
476.20	250.44
476.38	304.27
476.56	355.76
476.74	231.71
476.92	243.42
477.10	208.31
477.28	285.55
477.46	299.59
477.64	201.29
477.82	297.25
478.00	227.03
478.18	248.10
478.36	250.44
478.54	215.33
478.72	259.80
478.90	210.65
479.08	234.05
479.26	287.89
479.44	283.20
479.62	276.18
479.80	283.20
479.98	292.57
480.16	292.57
480.34	287.89
480.52	255.12
480.70	367.46
480.88	287.89
481.06	224.69
481.24	292.57
481.41	290.23
481.59	318.31
481.77	484.49
481.95	362.78
482.13	444.70
482.31	388.53
482.49	430.66
482.67	519.60
482.85	510.24
483.03	552.37
483.21	589.82
483.39	599.18
483.57	617.90
483.74	671.73
483.92	676.41
484.10	706.84
484.28	807.48
484.46	854.30
484.64	816.85
484.82	816.85
485.00	910.47
485.18	1011.11
485.35	980.68
485.53	1020.47
485.71	1036.86
485.89	1090.69
486.07	1067.28
486.25	1235.80
486.43	1242.82
486.61	1224.10
486.78	1252.19
486.96	1226.44
487.14	1310.70
487.32	1233.46
487.50	1188.99
487.68	1181.97
487.85	1273.25
488.03	1287.29
488.21	1254.53
488.39	1165.59
488.57	1186.65
488.75	1203.04
488.92	1383.26
489.10	1240.48
489.28	1191.33
489.46	1160.91
489.64	1188.99
489.81	1184.31
489.99	1167.93
490.17	1118.78
490.35	1121.12
490.53	1125.80
490.70	1123.46
490.88	1064.94
491.06	1109.41
491.24	1170.27
491.41	1205.38
491.59	1118.78
491.77	1055.58
491.95	1034.52
492.13	1062.60
492.30	950.26
492.48	1053.24
492.66	1027.50
492.84	992.39
493.01	922.17
493.19	950.26
493.37	1020.47
493.54	931.53
493.72	1015.79
493.90	866.00
494.08	938.55
494.25	945.58
494.43	882.38
494.61	877.70
494.79	814.51
494.96	849.61
495.14	847.27
495.32	807.48
495.49	816.85
495.67	695.14
495.85	788.76
496.02	840.25
496.20	842.59
496.38	748.97
496.55	823.87
496.73	828.55
496.91	809.83
497.09	823.87
497.26	788.76
497.44	709.18
497.62	767.70
497.79	814.51
497.97	690.46
498.14	727.91
498.32	674.07
498.50	657.69
498.67	667.05
498.85	573.43
499.03	512.58
499.20	538.32
499.38	547.69
499.56	582.79
499.73	543.00
499.91	505.56
500.08	514.92
500.26	498.53
500.44	421.30
500.61	463.43
500.79	451.72
500.97	456.40
501.14	498.53
501.32	320.65
501.49	425.98
501.67	414.27
501.84	421.30
502.02	372.15
502.20	440.02
502.37	327.68
502.55	386.19
502.72	290.23
502.90	297.25
503.07	290.23
503.25	271.50
503.43	344.06
503.60	332.36
503.78	327.68
503.95	348.74
504.13	285.55
504.30	346.40
504.48	297.25
504.65	374.49
504.83	278.52
505.01	301.93
505.18	264.48
505.36	259.80
505.53	313.63
505.71	243.42
505.88	334.70
506.06	318.31
506.23	330.02
506.41	220.01
506.58	327.68
506.76	294.91
506.93	276.18
507.11	252.78
507.28	241.08
507.46	308.95
507.63	292.57
507.81	250.44
507.98	259.80
508.16	203.63
508.33	292.57
508.50	290.23
508.68	285.55
508.85	301.93
509.03	273.84
509.20	315.97
509.38	299.59
509.55	285.55
509.73	273.84
509.90	229.37
510.08	273.84
510.25	252.78
510.42	227.03
510.60	320.65
510.77	255.12
510.95	355.76
511.12	299.59
511.30	287.89
511.47	208.31
511.64	334.70
511.82	236.39
511.99	248.10
512.17	243.42
512.34	287.89
512.51	304.27
512.69	259.80
512.86	292.57
513.04	259.80
513.21	334.70
513.38	304.27
513.56	262.14
513.73	196.60
513.90	306.61
514.08	304.27
514.25	386.19
514.43	269.16
514.60	271.50
514.77	205.97
514.95	287.89
515.12	276.18
515.29	278.52
515.47	229.37
515.64	304.27
515.81	245.76
515.99	320.65
516.16	234.05
516.33	250.44
516.51	294.91
516.68	224.69
516.85	252.78
517.03	269.16
517.20	222.35
517.37	285.55
517.54	292.57
517.72	250.44
517.89	229.37
518.06	299.59
518.24	250.44
518.41	348.74
518.58	215.33
518.75	220.01
518.93	229.37
519.10	308.95
519.27	238.73
519.45	297.25
519.62	285.55
519.79	252.78
519.96	241.08
520.14	330.02
520.31	344.06
520.48	264.48
520.65	250.44
520.83	245.76
521.00	222.35
521.17	236.39
521.34	217.67
521.52	358.10
521.69	180.22
521.86	262.14
522.03	292.57
522.20	355.76
522.38	217.67
522.55	257.46
522.72	290.23
522.89	283.20
523.07	313.63
523.24	217.67
523.41	273.84
523.58	231.71
523.75	287.89
523.92	308.95
524.10	346.40
524.27	208.31
524.44	287.89
524.61	311.29
524.78	224.69
524.96	292.57
525.13	201.29
525.30	327.68
525.47	278.52
525.64	290.23
525.81	180.22
525.98	252.78
526.16	294.91
526.33	217.67
526.50	304.27
526.67	229.37
526.84	341.72
527.01	330.02
527.18	257.46
527.36	271.50
527.53	273.84
527.70	294.91
527.87	236.39
528.04	255.12
528.21	243.42
528.38	360.44
528.55	304.27
528.72	372.15
528.89	224.69
529.07	250.44
529.24	196.60
529.41	245.76
529.58	280.86
529.75	231.71
529.92	255.12
530.09	252.78
530.26	313.63
530.43	287.89
530.60	306.61
530.77	290.23
530.94	301.93
531.11	266.82
531.28	332.36
531.46	241.08
531.63	259.80
531.80	306.61
531.97	255.12
532.14	390.87
532.31	297.25
532.48	393.21
532.65	479.81
532.82	468.11
532.99	547.69
533.16	629.60
533.33	671.73
533.50	599.18
533.67	514.92
533.84	449.38
534.01	521.94
534.18	400.23
534.35	456.40
534.52	461.09
534.69	535.98
534.86	409.59
535.03	477.47
535.20	433.00
535.37	477.47
535.54	615.56
535.71	514.92
535.88	655.35
536.05	620.24
536.22	613.22
536.38	592.16
536.55	624.92
536.72	739.61
536.89	709.18
537.06	734.93
537.23	863.66
537.40	814.51
537.57	950.26
537.74	994.73
537.91	1135.16
538.08	1212.40
538.25	1245.16
538.42	1483.90
538.59	1514.33
538.75	1533.05
538.92	1631.35
539.09	1600.93
539.26	1610.29
539.43	1844.34
539.60	1916.90
539.77	2097.12
539.94	2338.20
540.11	2607.36
540.28	2768.85
540.44	2906.95
540.61	2925.67
540.78	3274.41
540.95	3723.79
541.12	4379.14
541.29	4936.19
541.46	5636.01
541.62	6242.21
541.79	7403.11
541.96	8063.15
542.13	8748.92
542.30	8755.94
542.47	8779.35
542.63	8627.21
542.80	8540.61
542.97	8585.08
543.14	8751.26
543.31	8667.00
543.48	8807.44
543.64	8814.46
543.81	8601.47
543.98	8486.78
544.15	8147.40
544.32	8065.49
544.48	7784.62
544.65	7386.73
544.82	7005.22
544.99	6635.42
545.16	6548.82
545.32	6532.44
545.49	9263.84
545.66	15843.09
545.83	21598.46
546.00	17914.46
546.16	11646.51
546.33	8046.76
546.50	5715.59
546.67	4095.94
546.83	3489.74
547.00	3131.64
547.17	2965.46
547.34	2731.41
547.50	2635.44
547.67	2663.53
547.84	2583.95
548.00	2586.29
548.17	2616.72
548.34	2644.81
548.51	2698.64
548.67	2904.60
548.84	2984.18
549.01	2829.71
549.18	2883.54
549.34	2780.56
549.51	2532.46
549.68	2499.69
549.84	2403.73
550.01	2267.98
550.18	2160.31
550.34	2150.95
550.51	2003.50
550.68	1811.57
550.84	1907.54
551.01	1895.83
551.18	1991.80
551.34	1872.43
551.51	1834.98
551.68	1884.13
551.84	1853.70
552.01	1757.74
552.18	1753.06
552.34	1706.25
552.51	1816.26
552.68	1682.85
552.84	1526.03
553.01	1397.30
553.18	1495.60
553.34	1345.81
553.51	1184.31
553.67	1198.35
553.84	1100.05
554.01	1013.45
554.17	880.04
554.34	835.57
554.51	770.04
554.67	795.78
554.84	695.14
555.00	671.73
555.17	575.77
555.33	573.43
555.50	617.90
555.67	535.98
555.83	463.43
556.00	526.62
556.16	655.35
556.33	589.82
556.50	451.72
556.66	461.09
556.83	456.40
556.99	383.85
557.16	463.43
557.32	411.93
557.49	379.17
557.65	414.27
557.82	444.70
557.98	407.25
558.15	374.49
558.32	374.49
558.48	414.27
558.65	395.55
558.81	390.87
558.98	400.23
559.14	280.86
559.31	311.29
559.47	299.59
559.64	442.36
559.80	346.40
559.97	299.59
560.13	355.76
560.30	360.44
560.46	304.27
560.63	376.83
560.79	409.59
560.96	379.17
561.12	308.95
561.29	320.65
561.45	325.33
561.61	294.91
561.78	367.46
561.94	372.15
562.11	358.10
562.27	381.51
562.44	315.97
562.60	322.99
562.77	330.02
562.93	355.76
563.10	360.44
563.26	337.04
563.42	369.80
563.59	376.83
563.75	276.18
563.92	358.10
564.08	362.78
564.24	315.97
564.41	407.25
564.57	351.08
564.74	353.42
564.90	334.70
565.07	266.82
565.23	280.86
565.39	262.14
565.56	304.27
565.72	332.36
565.88	308.95
566.05	252.78
566.21	351.08
566.38	271.50
566.54	269.16
566.70	250.44
566.87	269.16
567.03	294.91
567.19	355.76
567.36	266.82
567.52	337.04
567.68	318.31
567.85	276.18
568.01	351.08
568.17	273.84
568.34	259.80
568.50	203.63
568.66	318.31
568.83	301.93
568.99	271.50
569.15	325.33
569.32	304.27
569.48	273.84
569.64	248.10
569.81	337.04
569.97	276.18
570.13	266.82
570.30	276.18
570.46	269.16
570.62	315.97
570.78	163.84
570.95	229.37
571.11	292.57
571.27	292.57
571.43	198.95
571.60	276.18
571.76	297.25
571.92	348.74
572.09	322.99
572.25	337.04
572.41	292.57
572.57	322.99
572.74	330.02
572.90	393.21
573.06	360.44
573.22	341.72
573.38	440.02
573.55	374.49
573.71	404.91
573.87	341.72
574.03	372.15
574.20	372.15
574.36	339.38
574.52	381.51
574.68	351.08
574.84	369.80
575.01	358.10
575.17	353.42
575.33	311.29
575.49	409.59
575.65	524.28
575.82	475.13
575.98	533.64
576.14	524.28
576.30	805.14
576.46	1914.56
576.62	3243.98
576.79	3655.92
576.95	2801.62
577.11	1743.70
577.27	1242.82
577.43	931.53
577.59	748.97
577.75	631.94
577.92	463.43
578.08	575.77
578.24	599.18
578.40	919.83
578.56	1872.43
578.72	3187.81
578.88	3609.11
579.04	2729.06
579.21	1982.43
579.37	1657.10
579.53	1350.49
579.69	1341.13
579.85	1605.61
580.01	1830.30
580.17	1771.79
580.33	1530.71
580.49	1383.26
580.65	1184.31
580.82	1151.54
580.98	1083.67
581.14	1142.18
581.30	1207.72
581.46	1301.34
581.62	1352.83
581.78	1308.36
581.94	1329.42
582.10	1362.19
582.26	1444.11
582.42	1565.82
582.58	1654.76
582.74	1743.70
582.90	1811.57
583.06	1860.73
583.22	1877.11
583.38	1797.53
583.54	1956.69
583.70	1933.28
583.86	1954.35
584.02	1933.28
584.18	1919.24
584.34	1790.51
584.50	1746.04
584.66	1647.74
584.82	1600.93
584.98	1605.61
585.14	1378.58
585.30	1495.60
585.46	1540.07
585.62	1394.96
585.78	1373.89
585.94	1526.03
586.10	1420.71
586.26	1516.67
586.42	1708.59
586.58	1914.56
586.74	2352.24
586.90	2527.78
587.06	2883.54
587.22	3023.97
587.38	2843.75
587.54	2586.29
587.70	2401.39
587.86	1991.80
588.02	1806.89
588.18	1696.89
588.34	1621.99
588.49	1509.65
588.65	1462.83
588.81	1310.70
588.97	1343.47
589.13	1313.04
589.29	1322.40
589.45	1322.40
589.61	1181.97
589.77	1291.98
589.93	1228.78
590.08	1315.38
590.24	1228.78
590.40	1170.27
590.56	1254.53
590.72	1200.69
590.88	1132.82
591.04	1200.69
591.20	1181.97
591.35	1146.86
591.51	1130.48
591.67	1128.14
591.83	1158.57
591.99	1322.40
592.15	1383.26
592.31	1425.39
592.46	1631.35
592.62	1806.89
592.78	1701.57
592.94	1832.64
593.10	1867.75
593.26	1741.36
593.41	1671.14
593.57	1425.39
593.73	1256.87
593.89	1100.05
594.05	1032.18
594.20	880.04
594.36	854.30
594.52	805.14
594.68	786.42
594.84	779.40
594.99	777.06
595.15	704.50
595.31	741.95
595.47	678.76
595.62	620.24
595.78	692.80
595.94	634.29
596.10	692.80
596.25	662.37
596.41	732.59
596.57	660.03
596.73	692.80
596.88	674.07
597.04	676.41
597.20	617.90
597.36	718.54
597.51	765.36
597.67	816.85
597.83	819.19
597.99	814.51
598.14	807.48
598.30	835.57
598.46	826.21
598.61	957.28
598.77	1001.75
598.93	1097.71
599.09	1118.78
599.24	1177.29
599.40	1109.41
599.56	1104.73
599.71	1090.69
599.87	1034.52
600.03	992.39
600.18	950.26
600.34	926.85
600.50	826.21
600.65	744.29
600.81	774.72
600.97	751.31
601.12	678.76
601.28	636.63
601.44	660.03
601.59	671.73
601.75	568.75
601.91	482.15
602.06	545.34
602.22	599.18
602.37	528.96
602.53	503.22
602.69	507.90
602.84	503.22
603.00	484.49
603.16	486.83
603.31	615.56
603.47	557.05
603.62	587.47
603.78	589.82
603.94	606.20
604.09	559.39
604.25	573.43
604.40	589.82
604.56	566.41
604.71	674.07
604.87	535.98
605.03	613.22
605.18	599.18
605.34	648.33
605.49	629.60
605.65	702.16
605.80	671.73
605.96	671.73
606.12	657.69
606.27	669.39
606.43	751.31
606.58	774.72
606.74	748.97
606.89	746.63
607.05	814.51
607.20	952.60
607.36	997.07
607.51	987.71
607.67	966.64
607.82	1043.88
607.98	1090.69
608.13	1097.71
608.29	1291.98
608.44	1411.34
