SpectraSuite Data File
++++++++++++++++++++++++++++++++++++
Date: Fri Oct 04 11:42:15 GMT-05:00 2013
User: price-jones
Dark Spectrum Present: No
Reference Spectrum Present: No
Number of Sampled Component Spectra: 1
Spectrometers: USB2+H05261
Integration Time (usec): 100000 (USB2+H05261)
Spectra Averaged: 1 (USB2+H05261)
Boxcar Smoothing: 0 (USB2+H05261)
Correct for Electrical Dark: No (USB2+H05261)
Strobe/Lamp Enabled: No (USB2+H05261)
Correct for Detector Non-linearity: No (USB2+H05261)
Correct for Stray Light: No (USB2+H05261)
Number of Pixels in Processed Spectrum: 2048
>>>>>Begin Processed Spectral Data<<<<<
365.73	49.15
365.92	49.15
366.12	49.15
366.32	0.00
366.52	0.00
366.72	30.43
366.91	0.00
367.11	9.36
367.31	0.00
367.51	0.00
367.70	0.00
367.90	0.00
368.10	0.00
368.30	0.00
368.49	0.00
368.69	0.00
368.89	0.00
369.09	0.00
369.28	0.00
369.48	0.00
369.68	0.00
369.87	0.00
370.07	42.13
370.27	11.70
370.47	46.81
370.66	147.45
370.86	208.31
371.06	184.90
371.25	299.59
371.45	236.39
371.65	236.39
371.84	224.69
372.04	163.84
372.24	126.39
372.44	156.82
372.63	203.63
372.83	280.86
373.03	264.48
373.22	149.79
373.42	149.79
373.62	210.65
373.81	191.92
374.01	234.05
374.21	191.92
374.40	166.18
374.60	294.91
374.79	311.29
374.99	208.31
375.19	243.42
375.38	285.55
375.58	276.18
375.78	252.78
375.97	173.20
376.17	285.55
376.37	180.22
376.56	266.82
376.76	215.33
376.95	203.63
377.15	264.48
377.35	283.20
377.54	322.99
377.74	278.52
377.93	266.82
378.13	341.72
378.33	311.29
378.52	201.29
378.72	224.69
378.91	222.35
379.11	337.04
379.31	259.80
379.50	210.65
379.70	266.82
379.89	320.65
380.09	271.50
380.28	311.29
380.48	308.95
380.68	344.06
380.87	229.37
381.07	248.10
381.26	255.12
381.46	280.86
381.65	236.39
381.85	332.36
382.04	227.03
382.24	201.29
382.43	203.63
382.63	182.56
382.83	175.54
383.02	201.29
383.22	238.73
383.41	184.90
383.61	210.65
383.80	222.35
384.00	231.71
384.19	250.44
384.39	189.58
384.58	236.39
384.78	313.63
384.97	271.50
385.17	224.69
385.36	236.39
385.56	313.63
385.75	271.50
385.95	301.93
386.14	341.72
386.34	241.08
386.53	196.60
386.72	271.50
386.92	292.57
387.11	257.46
387.31	297.25
387.50	191.92
387.70	278.52
387.89	250.44
388.09	250.44
388.28	248.10
388.48	292.57
388.67	285.55
388.86	262.14
389.06	306.61
389.25	325.33
389.45	318.31
389.64	355.76
389.84	383.85
390.03	315.97
390.22	362.78
390.42	330.02
390.61	337.04
390.81	308.95
391.00	339.38
391.19	341.72
391.39	416.62
391.58	372.15
391.78	297.25
391.97	351.08
392.16	276.18
392.36	315.97
392.55	220.01
392.75	290.23
392.94	119.37
393.13	262.14
393.33	220.01
393.52	280.86
393.71	229.37
393.91	236.39
394.10	311.29
394.29	346.40
394.49	358.10
394.68	393.21
394.88	388.53
395.07	308.95
395.26	388.53
395.46	388.53
395.65	320.65
395.84	294.91
396.04	332.36
396.23	292.57
396.42	173.20
396.62	245.76
396.81	294.91
397.00	259.80
397.19	313.63
397.39	341.72
397.58	425.98
397.77	351.08
397.97	404.91
398.16	461.09
398.35	404.91
398.55	337.04
398.74	454.06
398.93	461.09
399.12	395.55
399.32	496.19
399.51	428.32
399.70	479.81
399.90	449.38
400.09	442.36
400.28	400.23
400.47	468.11
400.67	496.19
400.86	535.98
401.05	557.05
401.24	493.85
401.44	524.28
401.63	505.56
401.82	477.47
402.01	505.56
402.21	472.79
402.40	475.13
402.59	482.15
402.78	493.85
402.97	440.02
403.17	477.47
403.36	543.00
403.55	454.06
403.74	538.32
403.93	533.64
404.13	571.09
404.32	638.97
404.51	554.71
404.70	571.09
404.89	528.96
405.09	573.43
405.28	418.96
405.47	447.04
405.66	454.06
405.85	535.98
406.05	510.24
406.24	505.56
406.43	533.64
406.62	507.90
406.81	566.41
407.00	435.34
407.20	568.75
407.39	458.74
407.58	535.98
407.77	531.30
407.96	496.19
408.15	554.71
408.34	505.56
408.54	538.32
408.73	484.49
408.92	512.58
409.11	559.39
409.30	470.45
409.49	437.68
409.68	486.83
409.87	521.94
410.07	491.51
410.26	521.94
410.45	575.77
410.64	524.28
410.83	500.87
411.02	559.39
411.21	580.45
411.40	634.29
411.59	571.09
411.78	608.54
411.98	531.30
412.17	573.43
412.36	545.34
412.55	578.11
412.74	580.45
412.93	554.71
413.12	543.00
413.31	559.39
413.50	601.52
413.69	671.73
413.88	606.20
414.07	554.71
414.26	521.94
414.45	617.90
414.64	599.18
414.83	599.18
415.02	550.03
415.22	573.43
415.41	627.26
415.60	613.22
415.79	559.39
415.98	634.29
416.17	674.07
416.36	596.84
416.55	643.65
416.74	636.63
416.93	617.90
417.12	564.07
417.31	528.96
417.50	636.63
417.69	664.71
417.88	545.34
418.07	564.07
418.26	606.20
418.45	669.39
418.64	660.03
418.83	669.39
419.02	685.78
419.21	587.47
419.39	526.62
419.58	585.13
419.77	550.03
419.96	660.03
420.15	683.44
420.34	610.88
420.53	683.44
420.72	767.70
420.91	683.44
421.10	746.63
421.29	676.41
421.48	636.63
421.67	629.60
421.86	606.20
422.05	571.09
422.24	554.71
422.43	561.73
422.61	627.26
422.80	650.67
422.99	592.16
423.18	608.54
423.37	678.76
423.56	638.97
423.75	706.84
423.94	699.82
424.13	608.54
424.32	631.94
424.50	592.16
424.69	690.46
424.88	704.50
425.07	648.33
425.26	657.69
425.45	629.60
425.64	601.52
425.83	627.26
426.01	720.88
426.20	685.78
426.39	596.84
426.58	592.16
426.77	566.41
426.96	594.50
427.15	561.73
427.33	608.54
427.52	664.71
427.71	622.58
427.90	669.39
428.09	624.92
428.28	587.47
428.46	627.26
428.65	554.71
428.84	610.88
429.03	592.16
429.22	599.18
429.40	573.43
429.59	470.45
429.78	550.03
429.97	430.66
430.16	517.26
430.34	510.24
430.53	505.56
430.72	507.90
430.91	575.77
431.10	638.97
431.28	678.76
431.47	748.97
431.66	779.40
431.85	629.60
432.03	685.78
432.22	653.01
432.41	552.37
432.60	725.57
432.79	755.99
432.97	690.46
433.16	606.20
433.35	653.01
433.54	596.84
433.72	596.84
433.91	622.58
434.10	629.60
434.28	674.07
434.47	725.57
434.66	723.23
434.85	734.93
435.03	798.12
435.22	1046.22
435.41	1472.20
435.59	1713.27
435.78	1357.51
435.97	1034.52
436.16	856.64
436.34	816.85
436.53	791.10
436.72	800.46
436.90	697.48
437.09	596.84
437.28	674.07
437.46	716.20
437.65	709.18
437.84	753.65
438.02	650.67
438.21	566.41
438.40	662.37
438.58	734.93
438.77	624.92
438.96	683.44
439.14	688.12
439.33	720.88
439.52	720.88
439.70	763.01
439.89	688.12
440.08	711.52
440.26	763.01
440.45	826.21
440.63	777.06
440.82	765.36
441.01	788.76
441.19	706.84
441.38	704.50
441.57	774.72
441.75	779.40
441.94	858.98
442.12	866.00
442.31	840.25
442.50	809.83
442.68	863.66
442.87	863.66
443.05	847.27
443.24	875.36
443.43	863.66
443.61	856.64
443.80	851.96
443.98	795.78
444.17	788.76
444.35	863.66
444.54	891.74
444.73	821.53
444.91	760.67
445.10	763.01
445.28	781.74
445.47	798.12
445.65	751.31
445.84	793.44
446.02	828.55
446.21	795.78
446.39	751.31
446.58	823.87
446.77	786.42
446.95	905.79
447.14	716.20
447.32	882.38
447.51	833.23
447.69	751.31
447.88	861.32
448.06	884.72
448.25	842.59
448.43	758.33
448.62	786.42
448.80	763.01
448.99	847.27
449.17	788.76
449.36	823.87
449.54	842.59
449.73	861.32
449.91	929.19
450.10	919.83
450.28	947.92
450.46	1032.18
450.65	985.37
450.83	917.49
451.02	833.23
451.20	917.49
451.39	931.53
451.57	826.21
451.76	847.27
451.94	826.21
452.13	882.38
452.31	875.36
452.49	748.97
452.68	763.01
452.86	835.57
453.05	903.45
453.23	882.38
453.42	798.12
453.60	856.64
453.78	844.93
453.97	800.46
454.15	901.11
454.34	901.11
454.52	863.66
454.70	849.61
454.89	896.43
455.07	791.10
455.26	875.36
455.44	851.96
455.62	889.40
455.81	924.51
455.99	922.17
456.17	933.87
456.36	802.80
456.54	870.68
456.73	856.64
456.91	877.70
457.09	929.19
457.28	983.02
457.46	858.98
457.64	917.49
457.83	896.43
458.01	821.53
458.19	1034.52
458.38	901.11
458.56	851.96
458.74	882.38
458.93	940.90
459.11	898.77
459.29	873.02
459.48	931.53
459.66	926.85
459.84	943.24
460.03	957.28
460.21	936.21
460.39	844.93
460.57	861.32
460.76	947.92
460.94	940.90
461.12	990.05
461.31	1041.54
461.49	940.90
461.67	910.47
461.85	894.08
462.04	947.92
462.22	1188.99
462.40	898.77
462.59	985.37
462.77	992.39
462.95	936.21
463.13	976.00
463.32	966.64
463.50	947.92
463.68	903.45
463.86	868.34
464.05	912.81
464.23	924.51
464.41	901.11
464.59	861.32
464.78	894.08
464.96	971.32
465.14	954.94
465.32	875.36
465.50	929.19
465.69	877.70
465.87	976.00
466.05	1027.50
466.23	887.06
466.41	940.90
466.60	954.94
466.78	866.00
466.96	952.60
467.14	877.70
467.32	943.24
467.51	894.08
467.69	910.47
467.87	983.02
468.05	901.11
468.23	903.45
468.41	894.08
468.60	866.00
468.78	877.70
468.96	961.96
469.14	933.87
469.32	931.53
469.50	819.19
469.69	837.91
469.87	908.13
470.05	887.06
470.23	795.78
470.41	849.61
470.59	807.48
470.77	971.32
470.95	990.05
471.14	943.24
471.32	985.37
471.50	938.55
471.68	898.77
471.86	997.07
472.04	964.30
472.22	968.98
472.40	873.02
472.58	898.77
472.77	898.77
472.95	1027.50
473.13	952.60
473.31	961.96
473.49	1062.60
473.67	971.32
473.85	1029.84
474.03	912.81
474.21	952.60
474.39	980.68
474.57	1064.94
474.75	1050.90
474.93	952.60
475.12	978.34
475.30	971.32
475.48	945.58
475.66	952.60
475.84	1027.50
476.02	997.07
476.20	973.66
476.38	990.05
476.56	1036.86
476.74	1029.84
476.92	1015.79
477.10	1067.28
477.28	1036.86
477.46	959.62
477.64	1116.44
477.82	1100.05
478.00	1034.52
478.18	1060.26
478.36	1057.92
478.54	1022.81
478.72	999.41
478.90	1097.71
479.08	1144.52
479.26	1076.65
479.44	1107.07
479.62	1039.20
479.80	1067.28
479.98	1062.60
480.16	1090.69
480.34	1118.78
480.52	1036.86
480.70	1144.52
480.88	1100.05
481.06	1179.63
481.24	1118.78
481.41	1217.08
481.59	1156.22
481.77	1142.18
481.95	1128.14
482.13	1170.27
482.31	1231.12
482.49	1287.29
482.67	1186.65
482.85	1259.21
483.03	1345.81
483.21	1294.32
483.39	1277.93
483.57	1146.86
483.74	1331.76
483.92	1252.19
484.10	1256.87
484.28	1205.38
484.46	1345.81
484.64	1249.85
484.82	1313.04
485.00	1299.00
485.18	1240.48
485.35	1205.38
485.53	1114.10
485.71	1062.60
485.89	1006.43
486.07	1097.71
486.25	1273.25
486.43	1212.40
486.61	1221.76
486.78	1217.08
486.96	1212.40
487.14	1287.29
487.32	1364.53
487.50	1350.49
487.68	1390.28
487.85	1359.85
488.03	1348.15
488.21	1348.15
488.39	1371.55
488.57	1383.26
488.75	1322.40
488.92	1659.44
489.10	1488.58
489.28	1446.45
489.46	1511.99
489.64	1483.90
489.81	1479.22
489.99	1500.28
490.17	1528.37
490.35	1575.18
490.53	1465.18
490.70	1406.66
490.88	1565.82
491.06	1563.48
491.24	1479.22
491.41	1584.54
491.59	1420.71
491.77	1369.21
491.95	1497.94
492.13	1362.19
492.30	1434.75
492.48	1591.56
492.66	1490.92
492.84	1509.65
493.01	1603.27
493.19	1467.52
493.37	1547.09
493.54	1462.83
493.72	1502.62
493.90	1598.59
494.08	1486.24
494.25	1666.46
494.43	1687.53
494.61	1647.74
494.79	1502.62
494.96	1596.25
495.14	1678.16
495.32	1474.54
495.49	1526.03
495.67	1521.35
495.85	1617.31
496.02	1694.55
496.20	1640.72
496.38	1701.57
496.55	1671.14
496.73	1561.14
496.91	1699.23
497.09	1619.65
497.26	1591.56
497.44	1565.82
497.62	1687.53
497.79	1542.41
497.97	1556.46
498.14	1596.25
498.32	1561.14
498.50	1678.16
498.67	1610.29
498.85	1671.14
499.03	1710.93
499.20	1671.14
499.38	1764.76
499.56	1589.22
499.73	1729.66
499.91	1561.14
500.08	1570.50
500.26	1488.58
500.44	1591.56
500.61	1551.78
500.79	1523.69
500.97	1631.35
501.14	1502.62
501.32	1476.88
501.49	1551.78
501.67	1500.28
501.84	1570.50
502.02	1526.03
502.20	1650.08
502.37	1621.99
502.55	1614.97
502.72	1678.16
502.90	1621.99
503.07	1661.78
503.25	1664.12
503.43	1565.82
503.60	1376.24
503.78	1486.24
503.95	1500.28
504.13	1561.14
504.30	1535.39
504.48	1640.72
504.65	1612.63
504.83	1638.38
505.01	1720.29
505.18	1610.29
505.36	1692.21
505.53	1689.87
505.71	1736.68
505.88	1781.15
506.06	1654.76
506.23	1687.53
506.41	1603.27
506.58	1640.72
506.76	1654.76
506.93	1645.40
507.11	1687.53
507.28	1694.55
507.46	1671.14
507.63	1570.50
507.81	1593.90
507.98	1533.05
508.16	1640.72
508.33	1736.68
508.50	1727.32
508.68	1706.25
508.85	1675.82
509.03	1675.82
509.20	1636.03
509.38	1547.09
509.55	1542.41
509.73	1575.18
509.90	1732.00
510.08	1732.00
510.25	1708.59
510.42	1659.44
510.60	1671.14
510.77	1551.78
510.95	1706.25
511.12	1636.03
511.30	1710.93
511.47	1771.79
511.64	1870.09
511.82	1825.62
511.99	1694.55
512.17	1717.95
512.34	1715.61
512.51	1710.93
512.69	1724.97
512.86	1760.08
513.04	1755.40
513.21	1703.91
513.38	1633.69
513.56	1650.08
513.73	1746.04
513.90	1652.42
514.08	1614.97
514.25	1666.46
514.43	1563.48
514.60	1636.03
514.77	1687.53
514.95	1797.53
515.12	1650.08
515.29	1685.19
515.47	1750.72
515.64	1750.72
515.81	1771.79
515.99	1650.08
516.16	1633.69
516.33	1568.16
516.51	1376.24
516.68	1341.13
516.85	1401.98
517.03	1399.64
517.20	1526.03
517.37	1650.08
517.54	1727.32
517.72	1586.88
517.89	1455.81
518.06	1465.18
518.24	1472.20
518.41	1617.31
518.58	1572.84
518.75	1582.20
518.93	1624.33
519.10	1708.59
519.27	1755.40
519.45	1610.29
519.62	1593.90
519.79	1701.57
519.96	1710.93
520.14	1626.67
520.31	1682.85
520.48	1629.01
520.65	1671.14
520.83	1774.13
521.00	1713.27
521.17	1685.19
521.34	1729.66
521.52	1664.12
521.69	1699.23
521.86	1874.77
522.03	1722.63
522.20	1572.84
522.38	1547.09
522.55	1666.46
522.72	1717.95
522.89	1643.06
523.07	1715.61
523.24	1636.03
523.41	1839.66
523.58	1734.34
523.75	1732.00
523.92	1715.61
524.10	1741.36
524.27	1753.06
524.44	1792.85
524.61	1863.07
524.78	1654.76
524.96	1699.23
525.13	1741.36
525.30	1839.66
525.47	1762.42
525.64	1664.12
525.81	1724.97
525.98	1703.91
526.16	1493.26
526.33	1455.81
526.50	1528.37
526.67	1479.22
526.84	1504.96
527.01	1556.46
527.18	1619.65
527.36	1629.01
527.53	1633.69
527.70	1790.51
527.87	1633.69
528.04	1767.10
528.21	1788.17
528.38	1736.68
528.55	1846.68
528.72	1858.39
528.89	1750.72
529.07	1769.44
529.24	1724.97
529.41	1825.62
529.58	1799.87
529.75	1755.40
529.92	1813.92
530.09	1809.23
530.26	1881.79
530.43	1825.62
530.60	1724.97
530.77	1750.72
530.94	1764.76
531.11	1785.83
531.28	1818.60
531.46	1778.81
531.63	1762.42
531.80	1806.89
531.97	1764.76
532.14	1727.32
532.31	1577.52
532.48	1636.03
532.65	1701.57
532.82	1654.76
532.99	1830.30
533.16	1757.74
533.33	1863.07
533.50	1839.66
533.67	1736.68
533.84	1652.42
534.01	1785.83
534.18	1668.80
534.35	1806.89
534.52	1797.53
534.69	1825.62
534.86	1839.66
535.03	1720.29
535.20	1708.59
535.37	1804.55
535.54	1830.30
535.71	1788.17
535.88	1806.89
536.05	1743.70
536.22	1792.85
536.38	1809.23
536.55	1657.10
536.72	1783.49
536.89	1734.34
537.06	1732.00
537.23	1743.70
537.40	1748.38
537.57	1811.57
537.74	1867.75
537.91	1804.55
538.08	1907.54
538.25	1909.88
538.42	1886.47
538.59	1830.30
538.75	1909.88
538.92	1867.75
539.09	1792.85
539.26	1778.81
539.43	1893.49
539.60	1998.82
539.77	1973.07
539.94	2017.54
540.11	1926.26
540.28	1944.99
540.44	1914.56
540.61	2003.50
540.78	2179.04
540.95	2200.10
541.12	2338.20
541.29	2457.56
541.46	2572.25
541.62	2588.63
541.79	2410.75
541.96	2506.71
542.13	2422.45
542.30	2450.54
542.47	2368.62
542.63	2331.17
542.80	2352.24
542.97	2286.70
543.14	2347.56
543.31	2263.30
543.48	2293.72
543.64	2385.01
543.81	2431.82
543.98	2478.63
544.15	2319.47
544.32	2289.04
544.48	2282.02
544.65	2249.25
544.82	2394.37
544.99	2356.92
545.16	2277.34
545.32	2186.06
545.49	2867.16
545.66	3609.11
545.83	4039.76
546.00	3700.39
546.16	2939.71
546.33	2569.91
546.50	2394.37
546.67	2298.41
546.83	2101.80
547.00	2204.78
547.17	2019.88
547.34	2005.84
547.50	2073.71
547.67	1912.22
547.84	2022.22
548.00	1989.46
548.17	1980.09
548.34	2050.31
548.51	2127.55
548.67	2073.71
548.84	2097.12
549.01	2038.61
549.18	1961.37
549.34	1984.77
549.51	2001.16
549.68	1935.62
549.84	1851.36
550.01	1729.66
550.18	1902.86
550.34	1973.07
550.51	1898.17
550.68	1886.47
550.84	1884.13
551.01	1820.94
551.18	1858.39
551.34	1820.94
551.51	1769.44
551.68	1806.89
551.84	1750.72
552.01	1694.55
552.18	1753.06
552.34	1612.63
552.51	1825.62
552.68	1804.55
552.84	1729.66
553.01	1830.30
553.18	1858.39
553.34	1621.99
553.51	1692.21
553.67	1732.00
553.84	1771.79
554.01	1746.04
554.17	1694.55
554.34	1650.08
554.51	1774.13
554.67	1692.21
554.84	1661.78
555.00	1795.19
555.17	1633.69
555.33	1643.06
555.50	1673.48
555.67	1624.33
555.83	1643.06
556.00	1626.67
556.16	1785.83
556.33	1607.95
556.50	1694.55
556.66	1537.73
556.83	1612.63
556.99	1661.78
557.16	1633.69
557.32	1636.03
557.49	1598.59
557.65	1556.46
557.82	1664.12
557.98	1624.33
558.15	1591.56
558.32	1610.29
558.48	1596.25
558.65	1521.35
558.81	1549.43
558.98	1584.54
559.14	1495.60
559.31	1444.11
559.47	1537.73
559.64	1558.80
559.80	1547.09
559.97	1511.99
560.13	1526.03
560.30	1600.93
560.46	1629.01
560.63	1614.97
560.79	1664.12
560.96	1617.31
561.12	1582.20
561.29	1605.61
561.45	1572.84
561.61	1619.65
561.78	1584.54
561.94	1493.26
562.11	1575.18
562.27	1579.86
562.44	1514.33
562.60	1488.58
562.77	1511.99
562.93	1659.44
563.10	1558.80
563.26	1558.80
563.42	1575.18
563.59	1591.56
563.75	1619.65
563.92	1540.07
564.08	1427.73
564.24	1434.75
564.41	1558.80
564.57	1474.54
564.74	1526.03
564.90	1563.48
565.07	1598.59
565.23	1425.39
565.39	1495.60
565.56	1387.94
565.72	1474.54
565.88	1451.13
566.05	1486.24
566.21	1394.96
566.38	1465.18
566.54	1507.30
566.70	1528.37
566.87	1551.78
567.03	1558.80
567.19	1540.07
567.36	1497.94
567.52	1493.26
567.68	1418.36
567.85	1455.81
568.01	1343.47
568.17	1387.94
568.34	1409.00
568.50	1390.28
568.66	1469.86
568.83	1373.89
568.99	1376.24
569.15	1406.66
569.32	1404.32
569.48	1352.83
569.64	1364.53
569.81	1467.52
569.97	1460.49
570.13	1376.24
570.30	1362.19
570.46	1320.06
570.62	1348.15
570.78	1406.66
570.95	1324.74
571.11	1242.82
571.27	1416.02
571.43	1357.51
571.60	1380.92
571.76	1390.28
571.92	1434.75
572.09	1369.21
572.25	1425.39
572.41	1469.86
572.57	1432.41
572.74	1493.26
572.90	1446.45
573.06	1469.86
573.22	1392.62
573.38	1324.74
573.55	1554.12
573.71	1423.05
573.87	1434.75
574.03	1394.96
574.20	1359.85
574.36	1373.89
574.52	1359.85
574.68	1359.85
574.84	1364.53
575.01	1287.29
575.17	1401.98
575.33	1369.21
575.49	1324.74
575.65	1385.60
575.82	1369.21
575.98	1423.05
576.14	1256.87
576.30	1385.60
576.46	1671.14
576.62	1820.94
576.79	1811.57
576.95	1612.63
577.11	1540.07
577.27	1465.18
577.43	1528.37
577.59	1427.73
577.75	1385.60
577.92	1322.40
578.08	1404.32
578.24	1299.00
578.40	1547.09
578.56	1603.27
578.72	1652.42
578.88	1771.79
579.04	1577.52
579.21	1666.46
579.37	1549.43
579.53	1409.00
579.69	1488.58
579.85	1455.81
580.01	1509.65
580.17	1507.30
580.33	1467.52
580.49	1537.73
580.65	1502.62
580.82	1462.83
580.98	1420.71
581.14	1453.47
581.30	1437.09
581.46	1409.00
581.62	1483.90
581.78	1483.90
581.94	1476.88
582.10	1537.73
582.26	1504.96
582.42	1495.60
582.58	1469.86
582.74	1572.84
582.90	1544.75
583.06	1561.14
583.22	1479.22
583.38	1561.14
583.54	1582.20
583.70	1561.14
583.86	1514.33
584.02	1516.67
584.18	1469.86
584.34	1423.05
584.50	1533.05
584.66	1406.66
584.82	1547.09
584.98	1504.96
585.14	1392.62
585.30	1437.09
585.46	1493.26
585.62	1329.42
585.78	1376.24
585.94	1453.47
586.10	1495.60
586.26	1479.22
586.42	1493.26
586.58	1444.11
586.74	1495.60
586.90	1469.86
587.06	1591.56
587.22	1591.56
587.38	1540.07
587.54	1462.83
587.70	1434.75
587.86	1329.42
588.02	1331.76
588.18	1188.99
588.34	1266.23
588.49	1156.22
588.65	1116.44
588.81	1095.37
588.97	1083.67
589.13	1071.97
589.29	957.28
589.45	1011.11
589.61	1039.20
589.77	1167.93
589.93	1158.57
590.08	1203.04
590.24	1226.44
590.40	1177.29
590.56	1231.12
590.72	1280.27
590.88	1160.91
591.04	1207.72
591.20	1252.19
591.35	1217.08
591.51	1219.42
591.67	1261.55
591.83	1151.54
591.99	1247.51
592.15	1249.85
592.31	1345.81
592.46	1376.24
592.62	1437.09
592.78	1401.98
592.94	1336.45
593.10	1448.79
593.26	1334.11
593.41	1420.71
593.57	1348.15
593.73	1207.72
593.89	1254.53
594.05	1284.95
594.20	1146.86
594.36	1167.93
594.52	1153.88
594.68	1081.33
594.84	1118.78
594.99	1221.76
595.15	1226.44
595.31	1280.27
595.47	1308.36
595.62	1210.06
595.78	1212.40
595.94	1252.19
596.10	1277.93
596.25	1252.19
596.41	1121.12
596.57	1240.48
596.73	1135.16
596.88	1177.29
597.04	1210.06
597.20	1095.37
597.36	1214.74
597.51	1174.95
597.67	1200.69
597.83	1228.78
597.99	1221.76
598.14	1174.95
598.30	1301.34
598.46	1252.19
598.61	1270.91
598.77	1266.23
598.93	1247.51
599.09	1350.49
599.24	1282.61
599.40	1327.08
599.56	1313.04
599.71	1249.85
599.87	1224.10
600.03	1308.36
600.18	1228.78
600.34	1289.64
600.50	1198.35
600.65	1210.06
600.81	1385.60
600.97	1275.59
601.12	1181.97
601.28	1191.33
601.44	1245.16
601.59	1104.73
601.75	1118.78
601.91	1137.50
602.06	1235.80
602.22	1348.15
