SpectraSuite Data File
++++++++++++++++++++++++++++++++++++
Date: Fri Oct 04 11:41:52 GMT-05:00 2013
User: price-jones
Dark Spectrum Present: No
Reference Spectrum Present: No
Number of Sampled Component Spectra: 1
Spectrometers: USB2+H05261
Integration Time (usec): 100000 (USB2+H05261)
Spectra Averaged: 1 (USB2+H05261)
Boxcar Smoothing: 0 (USB2+H05261)
Correct for Electrical Dark: No (USB2+H05261)
Strobe/Lamp Enabled: No (USB2+H05261)
Correct for Detector Non-linearity: No (USB2+H05261)
Correct for Stray Light: No (USB2+H05261)
Number of Pixels in Processed Spectrum: 2048
>>>>>Begin Processed Spectral Data<<<<<
365.73	74.90
365.92	74.90
366.12	74.90
366.32	0.00
366.52	0.00
366.72	0.00
366.91	0.00
367.11	0.00
367.31	0.00
367.51	0.00
367.70	0.00
367.90	0.00
368.10	0.00
368.30	0.00
368.49	0.00
368.69	0.00
368.89	0.00
369.09	0.00
369.28	0.00
369.48	0.00
369.68	14.04
369.87	49.15
370.07	0.00
370.27	18.72
370.47	25.75
370.66	0.00
370.86	16.38
371.06	74.90
371.25	128.73
371.45	133.41
371.65	124.05
371.84	44.47
372.04	86.60
372.24	112.35
372.44	16.38
372.63	114.69
372.83	170.86
373.03	210.65
373.22	65.54
373.42	128.73
373.62	124.05
373.81	77.24
374.01	119.37
374.21	198.95
374.40	168.52
374.60	67.88
374.79	173.20
374.99	86.60
375.19	147.45
375.38	131.07
375.58	138.09
375.78	196.60
375.97	138.09
376.17	198.95
376.37	163.84
376.56	131.07
376.76	100.64
376.95	81.92
377.15	126.39
377.35	98.30
377.54	119.37
377.74	42.13
377.93	147.45
378.13	126.39
378.33	119.37
378.52	95.96
378.72	191.92
378.91	198.95
379.11	58.51
379.31	46.81
379.50	79.58
379.70	161.50
379.89	131.07
380.09	135.75
380.28	63.19
380.48	140.43
380.68	112.35
380.87	138.09
381.07	140.43
381.26	154.48
381.46	112.35
381.65	95.96
381.85	0.00
382.04	98.30
382.24	112.35
382.43	70.22
382.63	84.26
382.83	91.28
383.02	63.19
383.22	170.86
383.41	140.43
383.61	100.64
383.80	67.88
384.00	81.92
384.19	133.41
384.39	112.35
384.58	117.03
384.78	131.07
384.97	152.13
385.17	93.62
385.36	63.19
385.56	102.98
385.75	135.75
385.95	51.49
386.14	81.92
386.34	131.07
386.53	170.86
386.72	53.83
386.92	161.50
387.11	81.92
387.31	110.01
387.50	135.75
387.70	168.52
387.89	145.11
388.09	70.22
388.28	74.90
388.48	95.96
388.67	93.62
388.86	100.64
389.06	114.69
389.25	117.03
389.45	147.45
389.64	159.16
389.84	187.24
390.03	145.11
390.22	88.94
390.42	126.39
390.61	105.32
390.81	74.90
391.00	60.85
391.19	91.28
391.39	67.88
391.58	114.69
391.78	138.09
391.97	138.09
392.16	173.20
392.36	191.92
392.55	121.71
392.75	126.39
392.94	107.66
393.13	142.77
393.33	126.39
393.52	128.73
393.71	198.95
393.91	159.16
394.10	142.77
394.29	74.90
394.49	46.81
394.68	131.07
394.88	112.35
395.07	168.52
395.26	114.69
395.46	131.07
395.65	131.07
395.84	159.16
396.04	168.52
396.23	131.07
396.42	102.98
396.62	117.03
396.81	166.18
397.00	117.03
397.19	138.09
397.39	110.01
397.58	121.71
397.77	105.32
397.97	105.32
398.16	149.79
398.35	107.66
398.55	105.32
398.74	117.03
398.93	84.26
399.12	114.69
399.32	152.13
399.51	126.39
399.70	152.13
399.90	135.75
400.09	166.18
400.28	147.45
400.47	114.69
400.67	149.79
400.86	67.88
401.05	124.05
401.24	142.77
401.44	131.07
401.63	126.39
401.82	51.49
402.01	98.30
402.21	152.13
402.40	149.79
402.59	142.77
402.78	77.24
402.97	149.79
403.17	95.96
403.36	149.79
403.55	194.26
403.74	395.55
403.93	1050.90
404.13	1827.96
404.32	1888.81
404.51	1423.05
404.70	1011.11
404.89	374.49
405.09	262.14
405.28	196.60
405.47	100.64
405.66	121.71
405.85	177.88
406.05	180.22
406.24	159.16
406.43	182.56
406.62	222.35
406.81	175.54
407.00	161.50
407.20	285.55
407.39	313.63
407.58	334.70
407.77	304.27
407.96	229.37
408.15	175.54
408.34	149.79
408.54	133.41
408.73	156.82
408.92	159.16
409.11	191.92
409.30	236.39
409.49	114.69
409.68	180.22
409.87	184.90
410.07	215.33
410.26	147.45
410.45	131.07
410.64	149.79
410.83	140.43
411.02	138.09
411.21	180.22
411.40	124.05
411.59	152.13
411.78	184.90
411.98	163.84
412.17	100.64
412.36	102.98
412.55	147.45
412.74	187.24
412.93	121.71
413.12	128.73
413.31	220.01
413.50	175.54
413.69	117.03
413.88	238.73
414.07	168.52
414.26	180.22
414.45	117.03
414.64	138.09
414.83	173.20
415.02	177.88
415.22	231.71
415.41	180.22
415.60	117.03
415.79	124.05
415.98	175.54
416.17	191.92
416.36	187.24
416.55	175.54
416.74	196.60
416.93	187.24
417.12	210.65
417.31	84.26
417.50	100.64
417.69	187.24
417.88	112.35
418.07	163.84
418.26	152.13
418.45	110.01
418.64	161.50
418.83	198.95
419.02	121.71
419.21	152.13
419.39	250.44
419.58	227.03
419.77	98.30
419.96	133.41
420.15	166.18
420.34	159.16
420.53	177.88
420.72	168.52
420.91	215.33
421.10	131.07
421.29	170.86
421.48	222.35
421.67	224.69
421.86	189.58
422.05	184.90
422.24	168.52
422.43	208.31
422.61	166.18
422.80	194.26
422.99	248.10
423.18	170.86
423.37	198.95
423.56	131.07
423.75	119.37
423.94	72.56
424.13	276.18
424.32	224.69
424.50	264.48
424.69	152.13
424.88	215.33
425.07	266.82
425.26	222.35
425.45	105.32
425.64	212.99
425.83	262.14
426.01	147.45
426.20	191.92
426.39	170.86
426.58	58.51
426.77	238.73
426.96	168.52
427.15	161.50
427.33	138.09
427.52	187.24
427.71	205.97
427.90	208.31
428.09	138.09
428.28	121.71
428.46	152.13
428.65	208.31
428.84	163.84
429.03	222.35
429.22	248.10
429.40	168.52
429.59	100.64
429.78	227.03
429.97	241.08
430.16	156.82
430.34	180.22
430.53	180.22
430.72	203.63
430.91	201.29
431.10	159.16
431.28	156.82
431.47	227.03
431.66	217.67
431.85	217.67
432.03	194.26
432.22	318.31
432.41	170.86
432.60	217.67
432.79	196.60
432.97	266.82
433.16	283.20
433.35	201.29
433.54	308.95
433.72	271.50
433.91	308.95
434.10	266.82
434.28	334.70
434.47	423.64
434.66	470.45
434.85	545.34
435.03	1837.32
435.22	5493.24
435.41	8341.67
435.59	7459.29
435.78	4734.90
435.97	2410.75
436.16	1001.75
436.34	437.68
436.53	299.59
436.72	334.70
436.90	311.29
437.09	227.03
437.28	290.23
437.46	212.99
437.65	280.86
437.84	308.95
438.02	266.82
438.21	212.99
438.40	257.46
438.58	257.46
438.77	276.18
438.96	212.99
439.14	234.05
439.33	203.63
439.52	255.12
439.70	271.50
439.89	205.97
440.08	290.23
440.26	311.29
440.45	287.89
440.63	262.14
440.82	257.46
441.01	201.29
441.19	395.55
441.38	238.73
441.57	173.20
441.75	236.39
441.94	276.18
442.12	238.73
442.31	217.67
442.50	285.55
442.68	255.12
442.87	262.14
443.05	271.50
443.24	257.46
443.43	332.36
443.61	273.84
443.80	184.90
443.98	280.86
444.17	194.26
444.35	220.01
444.54	306.61
444.73	266.82
444.91	308.95
445.10	248.10
445.28	196.60
445.47	245.76
445.65	220.01
445.84	194.26
446.02	271.50
446.21	229.37
446.39	201.29
446.58	198.95
446.77	273.84
446.95	191.92
447.14	201.29
447.32	297.25
447.51	198.95
447.69	203.63
447.88	238.73
448.06	231.71
448.25	224.69
448.43	280.86
448.62	177.88
448.80	220.01
448.99	283.20
449.17	168.52
449.36	224.69
449.54	229.37
449.73	245.76
449.91	177.88
450.10	205.97
450.28	351.08
450.46	294.91
450.65	266.82
450.83	198.95
451.02	259.80
451.20	210.65
451.39	243.42
451.57	236.39
451.76	243.42
451.94	294.91
452.13	227.03
452.31	259.80
452.49	194.26
452.68	222.35
452.86	231.71
453.05	290.23
453.23	276.18
453.42	229.37
453.60	149.79
453.78	231.71
453.97	217.67
454.15	154.48
454.34	273.84
454.52	255.12
454.70	290.23
454.89	264.48
455.07	227.03
455.26	259.80
455.44	236.39
455.62	250.44
455.81	243.42
455.99	220.01
456.17	238.73
456.36	250.44
456.54	243.42
456.73	154.48
456.91	248.10
457.09	271.50
457.28	257.46
457.46	236.39
457.64	191.92
457.83	133.41
458.01	170.86
458.19	205.97
458.38	205.97
458.56	231.71
458.74	271.50
458.93	283.20
459.11	243.42
459.29	238.73
459.48	294.91
459.66	243.42
459.84	196.60
460.03	278.52
460.21	278.52
460.39	264.48
460.57	170.86
460.76	311.29
460.94	292.57
461.12	243.42
461.31	271.50
461.49	269.16
461.67	236.39
461.85	262.14
462.04	273.84
462.22	645.99
462.40	238.73
462.59	212.99
462.77	234.05
462.95	205.97
463.13	152.13
463.32	259.80
463.50	245.76
463.68	201.29
463.86	234.05
464.05	184.90
464.23	297.25
464.41	257.46
464.59	184.90
464.78	269.16
464.96	243.42
465.14	243.42
465.32	222.35
465.50	269.16
465.69	280.86
465.87	208.31
466.05	229.37
466.23	205.97
466.41	189.58
466.60	224.69
466.78	252.78
466.96	292.57
467.14	241.08
467.32	306.61
467.51	222.35
467.69	266.82
467.87	285.55
468.05	294.91
468.23	278.52
468.41	273.84
468.60	264.48
468.78	231.71
468.96	271.50
469.14	238.73
469.32	248.10
469.50	201.29
469.69	187.24
469.87	299.59
470.05	234.05
470.23	252.78
470.41	187.24
470.59	180.22
470.77	231.71
470.95	175.54
471.14	215.33
471.32	215.33
471.50	318.31
471.68	266.82
471.86	297.25
472.04	229.37
472.22	234.05
472.40	224.69
472.58	227.03
472.77	215.33
472.95	220.01
473.13	241.08
473.31	259.80
473.49	201.29
473.67	173.20
473.85	203.63
474.03	227.03
474.21	234.05
474.39	231.71
474.57	252.78
474.75	252.78
474.93	208.31
475.12	308.95
475.30	369.80
475.48	222.35
475.66	229.37
475.84	224.69
476.02	135.75
476.20	227.03
476.38	250.44
476.56	259.80
476.74	259.80
476.92	177.88
477.10	241.08
477.28	236.39
477.46	266.82
477.64	236.39
477.82	194.26
478.00	264.48
478.18	245.76
478.36	182.56
478.54	152.13
478.72	203.63
478.90	276.18
479.08	208.31
479.26	198.95
479.44	278.52
479.62	208.31
479.80	215.33
479.98	257.46
480.16	248.10
480.34	299.59
480.52	271.50
480.70	280.86
480.88	285.55
481.06	334.70
481.24	313.63
481.41	301.93
481.59	341.72
481.77	320.65
481.95	379.17
482.13	402.57
482.31	341.72
482.49	379.17
482.67	458.74
482.85	510.24
483.03	496.19
483.21	500.87
483.39	589.82
483.57	660.03
483.74	627.26
483.92	599.18
484.10	540.66
484.28	627.26
484.46	699.82
484.64	671.73
484.82	629.60
485.00	760.67
485.18	695.14
485.35	802.80
485.53	940.90
485.71	866.00
485.89	884.72
486.07	802.80
486.25	954.94
486.43	936.21
486.61	884.72
486.78	894.08
486.96	898.77
487.14	851.96
487.32	924.51
487.50	891.74
487.68	863.66
487.85	856.64
488.03	1006.43
488.21	802.80
488.39	936.21
488.57	823.87
488.75	821.53
488.92	943.24
489.10	863.66
489.28	788.76
489.46	784.08
489.64	770.04
489.81	828.55
489.99	723.23
490.17	622.58
490.35	723.23
490.53	690.46
490.70	734.93
490.88	781.74
491.06	779.40
491.24	800.46
491.41	898.77
491.59	814.51
491.77	653.01
491.95	723.23
492.13	695.14
492.30	697.48
492.48	669.39
492.66	678.76
492.84	699.82
493.01	634.29
493.19	634.29
493.37	690.46
493.54	739.61
493.72	575.77
493.90	589.82
494.08	575.77
494.25	664.71
494.43	535.98
494.61	582.79
494.79	592.16
494.96	543.00
495.14	592.16
495.32	533.64
495.49	603.86
495.67	496.19
495.85	571.09
496.02	498.53
496.20	505.56
496.38	540.66
496.55	514.92
496.73	538.32
496.91	547.69
497.09	538.32
497.26	503.22
497.44	433.00
497.62	512.58
497.79	528.96
497.97	510.24
498.14	484.49
498.32	418.96
498.50	418.96
498.67	449.38
498.85	404.91
499.03	428.32
499.20	475.13
499.38	404.91
499.56	430.66
499.73	472.79
499.91	381.51
500.08	339.38
500.26	447.04
500.44	430.66
500.61	404.91
500.79	285.55
500.97	430.66
501.14	386.19
501.32	376.83
501.49	395.55
501.67	360.44
501.84	416.62
502.02	259.80
502.20	381.51
502.37	421.30
502.55	365.12
502.72	313.63
502.90	388.53
503.07	334.70
503.25	353.42
503.43	259.80
503.60	360.44
503.78	269.16
503.95	320.65
504.13	325.33
504.30	266.82
504.48	311.29
504.65	367.46
504.83	369.80
505.01	248.10
505.18	252.78
505.36	322.99
505.53	250.44
505.71	234.05
505.88	318.31
506.06	362.78
506.23	283.20
506.41	299.59
506.58	278.52
506.76	341.72
506.93	294.91
507.11	231.71
507.28	318.31
507.46	325.33
507.63	292.57
507.81	287.89
507.98	259.80
508.16	290.23
508.33	283.20
508.50	313.63
508.68	320.65
508.85	304.27
509.03	313.63
509.20	320.65
509.38	276.18
509.55	308.95
509.73	285.55
509.90	318.31
510.08	271.50
510.25	308.95
510.42	194.26
510.60	236.39
510.77	353.42
510.95	304.27
511.12	273.84
511.30	276.18
511.47	301.93
511.64	344.06
511.82	322.99
511.99	252.78
512.17	292.57
512.34	220.01
512.51	341.72
512.69	306.61
512.86	374.49
513.04	283.20
513.21	322.99
513.38	308.95
513.56	198.95
513.73	252.78
513.90	339.38
514.08	266.82
514.25	280.86
514.43	311.29
514.60	299.59
514.77	236.39
514.95	278.52
515.12	334.70
515.29	287.89
515.47	252.78
515.64	245.76
515.81	245.76
515.99	301.93
516.16	245.76
516.33	245.76
516.51	245.76
516.68	280.86
516.85	285.55
517.03	259.80
517.20	273.84
517.37	266.82
517.54	276.18
517.72	250.44
517.89	208.31
518.06	194.26
518.24	238.73
518.41	283.20
518.58	236.39
518.75	227.03
518.93	187.24
519.10	222.35
519.27	266.82
519.45	250.44
519.62	304.27
519.79	285.55
519.96	245.76
520.14	248.10
520.31	264.48
520.48	276.18
520.65	264.48
520.83	330.02
521.00	292.57
521.17	299.59
521.34	173.20
521.52	224.69
521.69	297.25
521.86	271.50
522.03	236.39
522.20	315.97
522.38	250.44
522.55	220.01
522.72	220.01
522.89	276.18
523.07	278.52
523.24	287.89
523.41	245.76
523.58	212.99
523.75	322.99
523.92	215.33
524.10	318.31
524.27	264.48
524.44	245.76
524.61	292.57
524.78	273.84
524.96	262.14
525.13	280.86
525.30	297.25
525.47	313.63
525.64	301.93
525.81	285.55
525.98	266.82
526.16	262.14
526.33	222.35
526.50	262.14
526.67	259.80
526.84	222.35
527.01	248.10
527.18	334.70
527.36	322.99
527.53	280.86
527.70	280.86
527.87	327.68
528.04	315.97
528.21	191.92
528.38	322.99
528.55	313.63
528.72	337.04
528.89	339.38
529.07	278.52
529.24	322.99
529.41	294.91
529.58	299.59
529.75	294.91
529.92	285.55
530.09	308.95
530.26	287.89
530.43	262.14
530.60	278.52
530.77	362.78
530.94	320.65
531.11	248.10
531.28	346.40
531.46	320.65
531.63	299.59
531.80	369.80
531.97	454.06
532.14	325.33
532.31	500.87
532.48	430.66
532.65	430.66
532.82	517.26
532.99	620.24
533.16	608.54
533.33	578.11
533.50	688.12
533.67	533.64
533.84	528.96
534.01	512.58
534.18	400.23
534.35	404.91
534.52	435.34
534.69	540.66
534.86	519.60
535.03	475.13
535.20	449.38
535.37	547.69
535.54	517.26
535.71	533.64
535.88	566.41
536.05	564.07
536.22	624.92
536.38	601.52
536.55	732.59
536.72	816.85
536.89	737.27
537.06	856.64
537.23	945.58
537.40	1034.52
537.57	1041.54
537.74	1062.60
537.91	1142.18
538.08	1132.82
538.25	1200.69
538.42	1163.25
538.59	1210.06
538.75	1203.04
538.92	1224.10
539.09	1299.00
539.26	1488.58
539.43	1764.76
539.60	1902.86
539.77	2050.31
539.94	2385.01
540.11	2537.14
540.28	2801.62
540.44	3098.87
540.61	3398.46
540.78	3838.48
540.95	4325.31
541.12	5228.76
541.29	5631.33
541.46	5951.98
541.62	5743.67
541.79	5568.13
541.96	5317.70
542.13	4898.74
542.30	4561.70
542.47	4489.15
542.63	4241.05
542.80	4117.00
542.97	4219.99
543.14	4133.39
543.31	4058.49
543.48	4056.15
543.64	4170.83
543.81	3999.98
543.98	4025.72
544.15	4079.55
544.32	4161.47
544.48	4107.64
544.65	3854.86
544.82	4098.28
544.99	4049.13
545.16	4229.35
545.32	4650.64
545.49	9296.61
545.66	13289.56
545.83	14785.16
546.00	12152.06
546.16	8580.40
546.33	6179.01
546.50	4929.17
546.67	3918.06
546.83	3693.37
547.00	3463.99
547.17	3412.50
547.34	3213.56
547.50	3075.46
547.67	2946.73
547.84	2761.83
548.00	2733.75
548.17	2712.68
548.34	2607.36
548.51	2434.16
548.67	2349.90
548.84	2291.38
549.01	2279.68
549.18	2258.62
549.34	2033.93
549.51	2036.27
549.68	1975.41
549.84	1792.85
550.01	1727.32
550.18	1769.44
550.34	1621.99
550.51	1603.27
550.68	1486.24
550.84	1469.86
551.01	1350.49
551.18	1289.64
551.34	1118.78
551.51	1203.04
551.68	1212.40
551.84	1186.65
552.01	1128.14
552.18	1076.65
552.34	1062.60
552.51	964.30
552.68	992.39
552.84	954.94
553.01	959.62
553.18	983.02
553.34	858.98
553.51	842.59
553.67	835.57
553.84	856.64
554.01	760.67
554.17	786.42
554.34	788.76
554.51	732.59
554.67	695.14
554.84	578.11
555.00	645.99
555.17	592.16
555.33	571.09
555.50	533.64
555.67	524.28
555.83	465.77
556.00	447.04
556.16	636.63
556.33	472.79
556.50	500.87
556.66	425.98
556.83	386.19
556.99	451.72
557.16	451.72
557.32	367.46
557.49	376.83
557.65	505.56
557.82	409.59
557.98	440.02
558.15	444.70
558.32	423.64
558.48	339.38
558.65	379.17
558.81	411.93
558.98	308.95
559.14	428.32
559.31	397.89
559.47	325.33
559.64	369.80
559.80	435.34
559.97	365.12
560.13	390.87
560.30	402.57
560.46	320.65
560.63	365.12
560.79	334.70
560.96	372.15
561.12	301.93
561.29	376.83
561.45	301.93
561.61	397.89
561.78	463.43
561.94	358.10
562.11	320.65
562.27	304.27
562.44	421.30
562.60	348.74
562.77	409.59
562.93	435.34
563.10	320.65
563.26	379.17
563.42	348.74
563.59	287.89
563.75	325.33
563.92	367.46
564.08	360.44
564.24	341.72
564.41	325.33
564.57	318.31
564.74	280.86
564.90	287.89
565.07	322.99
565.23	348.74
565.39	325.33
565.56	339.38
565.72	283.20
565.88	320.65
566.05	313.63
566.21	313.63
566.38	313.63
566.54	334.70
566.70	381.51
566.87	273.84
567.03	292.57
567.19	409.59
567.36	351.08
567.52	297.25
567.68	297.25
567.85	337.04
568.01	360.44
568.17	301.93
568.34	262.14
568.50	404.91
568.66	283.20
568.83	348.74
568.99	276.18
569.15	407.25
569.32	269.16
569.48	252.78
569.64	241.08
569.81	238.73
569.97	292.57
570.13	308.95
570.30	278.52
570.46	255.12
570.62	248.10
570.78	332.36
570.95	280.86
571.11	301.93
571.27	297.25
571.43	252.78
571.60	318.31
571.76	266.82
571.92	262.14
572.09	320.65
572.25	292.57
572.41	290.23
572.57	306.61
572.74	304.27
572.90	299.59
573.06	411.93
573.22	306.61
573.38	360.44
573.55	229.37
573.71	330.02
573.87	376.83
574.03	308.95
574.20	290.23
574.36	287.89
574.52	273.84
574.68	255.12
574.84	290.23
575.01	311.29
575.17	409.59
575.33	322.99
575.49	414.27
575.65	374.49
575.82	372.15
575.98	503.22
576.14	400.23
576.30	924.51
576.46	2143.93
576.62	2724.38
576.79	2619.06
576.95	1963.71
577.11	1348.15
577.27	922.17
577.43	807.48
577.59	535.98
577.75	477.47
577.92	433.00
578.08	449.38
578.24	414.27
578.40	896.43
578.56	1935.62
578.72	2298.41
578.88	2314.79
579.04	1689.87
579.21	1193.67
579.37	1053.24
579.53	964.30
579.69	1004.09
579.85	1104.73
580.01	1188.99
580.17	1114.10
580.33	980.68
580.49	823.87
580.65	786.42
580.82	784.08
580.98	676.41
581.14	816.85
581.30	889.40
581.46	802.80
581.62	933.87
581.78	919.83
581.94	1001.75
582.10	994.73
582.26	1020.47
582.42	1027.50
582.58	1071.97
582.74	1123.46
582.90	1114.10
583.06	1135.16
583.22	1184.31
583.38	1174.95
583.54	1055.58
583.70	1151.54
583.86	1107.07
584.02	1146.86
584.18	1125.80
584.34	1090.69
584.50	1050.90
584.66	1064.94
584.82	1050.90
584.98	1046.22
585.14	1107.07
585.30	1008.77
585.46	1001.75
585.62	999.41
585.78	868.34
585.94	898.77
586.10	945.58
586.26	1086.01
586.42	1207.72
586.58	1327.08
586.74	1739.02
586.90	1963.71
587.06	2010.52
587.22	1963.71
587.38	1783.49
587.54	1495.60
587.70	1313.04
587.86	1151.54
588.02	985.37
588.18	943.24
588.34	889.40
588.49	760.67
588.65	734.93
588.81	674.07
588.97	592.16
589.13	688.12
589.29	739.61
589.45	760.67
589.61	688.12
589.77	732.59
589.93	678.76
590.08	713.86
590.24	755.99
590.40	720.88
590.56	744.29
590.72	833.23
590.88	823.87
591.04	844.93
591.20	828.55
591.35	943.24
591.51	1008.77
591.67	910.47
591.83	1029.84
591.99	1062.60
592.15	1100.05
592.31	1348.15
592.46	1261.55
592.62	1362.19
592.78	1322.40
592.94	1341.13
593.10	1460.49
593.26	1310.70
593.41	1245.16
593.57	1165.59
593.73	945.58
593.89	992.39
594.05	919.83
594.20	844.93
594.36	718.54
594.52	699.82
594.68	690.46
594.84	667.05
594.99	688.12
595.15	667.05
595.31	711.52
595.47	615.56
595.62	617.90
595.78	629.60
595.94	741.95
596.10	667.05
596.25	667.05
596.41	599.18
596.57	557.05
596.73	624.92
596.88	620.24
597.04	545.34
597.20	653.01
597.36	713.86
597.51	660.03
597.67	674.07
597.83	629.60
597.99	765.36
598.14	812.17
598.30	847.27
598.46	908.13
598.61	1018.13
598.77	957.28
598.93	1039.20
599.09	896.43
599.24	985.37
599.40	926.85
599.56	903.45
599.71	964.30
599.87	870.68
600.03	821.53
600.18	753.65
600.34	713.86
600.50	683.44
600.65	662.37
600.81	730.25
600.97	638.97
601.12	610.88
601.28	578.11
601.44	528.96
601.59	484.49
601.75	519.60
601.91	498.53
602.06	547.69
602.22	533.64
602.37	472.79
602.53	425.98
602.69	517.26
602.84	517.26
603.00	472.79
603.16	524.28
603.31	482.15
603.47	575.77
603.62	430.66
603.78	489.17
603.94	538.32
604.09	514.92
604.25	547.69
604.40	535.98
604.56	552.37
604.71	489.17
604.87	510.24
605.03	582.79
605.18	550.03
605.34	648.33
605.49	580.45
605.65	627.26
605.80	615.56
605.96	648.33
606.12	638.97
606.27	638.97
606.43	638.97
606.58	674.07
606.74	723.23
606.89	664.71
607.05	781.74
607.20	809.83
607.36	807.48
607.51	924.51
607.67	851.96
607.82	903.45
607.98	994.73
608.13	936.21
608.29	1158.57
608.44	1259.21
608.60	1224.10
608.75	1439.43
608.91	1626.67
609.06	1706.25
609.22	1806.89
