SpectraSuite Data File
++++++++++++++++++++++++++++++++++++
Date: Fri Oct 04 11:42:06 GMT-05:00 2013
User: price-jones
Dark Spectrum Present: No
Reference Spectrum Present: No
Number of Sampled Component Spectra: 1
Spectrometers: USB2+H05261
Integration Time (usec): 100000 (USB2+H05261)
Spectra Averaged: 1 (USB2+H05261)
Boxcar Smoothing: 0 (USB2+H05261)
Correct for Electrical Dark: No (USB2+H05261)
Strobe/Lamp Enabled: No (USB2+H05261)
Correct for Detector Non-linearity: No (USB2+H05261)
Correct for Stray Light: No (USB2+H05261)
Number of Pixels in Processed Spectrum: 2048
>>>>>Begin Processed Spectral Data<<<<<
365.73	35.11
365.92	35.11
366.12	35.11
366.32	0.00
366.52	0.00
366.72	9.36
366.91	0.00
367.11	0.00
367.31	0.00
367.51	0.00
367.70	0.00
367.90	0.00
368.10	0.00
368.30	0.00
368.49	0.00
368.69	0.00
368.89	0.00
369.09	0.00
369.28	0.00
369.48	0.00
369.68	4.68
369.87	0.00
370.07	0.00
370.27	4.68
370.47	0.00
370.66	0.00
370.86	28.09
371.06	37.45
371.25	112.35
371.45	42.13
371.65	70.22
371.84	84.26
372.04	67.88
372.24	84.26
372.44	91.28
372.63	142.77
372.83	105.32
373.03	131.07
373.22	110.01
373.42	84.26
373.62	126.39
373.81	168.52
374.01	140.43
374.21	126.39
374.40	117.03
374.60	175.54
374.79	119.37
374.99	86.60
375.19	93.62
375.38	133.41
375.58	187.24
375.78	177.88
375.97	77.24
376.17	140.43
376.37	149.79
376.56	145.11
376.76	126.39
376.95	91.28
377.15	168.52
377.35	166.18
377.54	180.22
377.74	102.98
377.93	126.39
378.13	105.32
378.33	77.24
378.52	98.30
378.72	112.35
378.91	119.37
379.11	53.83
379.31	74.90
379.50	138.09
379.70	133.41
379.89	145.11
380.09	124.05
380.28	25.75
380.48	105.32
380.68	93.62
380.87	67.88
381.07	107.66
381.26	163.84
381.46	112.35
381.65	117.03
381.85	147.45
382.04	135.75
382.24	56.17
382.43	37.45
382.63	112.35
382.83	110.01
383.02	156.82
383.22	105.32
383.41	86.60
383.61	49.15
383.80	100.64
384.00	56.17
384.19	184.90
384.39	140.43
384.58	142.77
384.78	44.47
384.97	163.84
385.17	88.94
385.36	93.62
385.56	131.07
385.75	67.88
385.95	110.01
386.14	91.28
386.34	88.94
386.53	117.03
386.72	138.09
386.92	102.98
387.11	114.69
387.31	72.56
387.50	138.09
387.70	74.90
387.89	140.43
388.09	154.48
388.28	58.51
388.48	147.45
388.67	32.77
388.86	119.37
389.06	79.58
389.25	133.41
389.45	105.32
389.64	133.41
389.84	60.85
390.03	105.32
390.22	145.11
390.42	67.88
390.61	107.66
390.81	98.30
391.00	154.48
391.19	126.39
391.39	81.92
391.58	128.73
391.78	117.03
391.97	133.41
392.16	140.43
392.36	135.75
392.55	135.75
392.75	60.85
392.94	93.62
393.13	152.13
393.33	119.37
393.52	86.60
393.71	159.16
393.91	88.94
394.10	135.75
394.29	58.51
394.49	128.73
394.68	112.35
394.88	100.64
395.07	124.05
395.26	86.60
395.46	145.11
395.65	93.62
395.84	110.01
396.04	102.98
396.23	79.58
396.42	121.71
396.62	149.79
396.81	142.77
397.00	105.32
397.19	102.98
397.39	84.26
397.58	196.60
397.77	229.37
397.97	86.60
398.16	152.13
398.35	156.82
398.55	105.32
398.74	187.24
398.93	114.69
399.12	81.92
399.32	72.56
399.51	112.35
399.70	147.45
399.90	133.41
400.09	84.26
400.28	149.79
400.47	119.37
400.67	81.92
400.86	105.32
401.05	121.71
401.24	126.39
401.44	140.43
401.63	180.22
401.82	86.60
402.01	124.05
402.21	84.26
402.40	119.37
402.59	114.69
402.78	117.03
402.97	131.07
403.17	126.39
403.36	77.24
403.55	121.71
403.74	184.90
403.93	311.29
404.13	339.38
404.32	376.83
404.51	301.93
404.70	304.27
404.89	191.92
405.09	215.33
405.28	131.07
405.47	112.35
405.66	142.77
405.85	152.13
406.05	135.75
406.24	131.07
406.43	159.16
406.62	131.07
406.81	238.73
407.00	208.31
407.20	98.30
407.39	189.58
407.58	182.56
407.77	173.20
407.96	156.82
408.15	140.43
408.34	140.43
408.54	159.16
408.73	126.39
408.92	166.18
409.11	126.39
409.30	173.20
409.49	95.96
409.68	128.73
409.87	124.05
410.07	98.30
410.26	95.96
410.45	102.98
410.64	124.05
410.83	81.92
411.02	114.69
411.21	149.79
411.40	205.97
411.59	147.45
411.78	105.32
411.98	119.37
412.17	140.43
412.36	191.92
412.55	154.48
412.74	95.96
412.93	189.58
413.12	166.18
413.31	166.18
413.50	182.56
413.69	117.03
413.88	187.24
414.07	124.05
414.26	93.62
414.45	166.18
414.64	128.73
414.83	147.45
415.02	156.82
415.22	161.50
415.41	159.16
415.60	147.45
415.79	159.16
415.98	208.31
416.17	107.66
416.36	149.79
416.55	77.24
416.74	170.86
416.93	79.58
417.12	98.30
417.31	105.32
417.50	95.96
417.69	117.03
417.88	114.69
418.07	140.43
418.26	110.01
418.45	152.13
418.64	133.41
418.83	212.99
419.02	105.32
419.21	159.16
419.39	138.09
419.58	147.45
419.77	154.48
419.96	205.97
420.15	142.77
420.34	156.82
420.53	135.75
420.72	184.90
420.91	189.58
421.10	126.39
421.29	86.60
421.48	161.50
421.67	170.86
421.86	65.54
422.05	159.16
422.24	161.50
422.43	173.20
422.61	177.88
422.80	173.20
422.99	126.39
423.18	166.18
423.37	161.50
423.56	205.97
423.75	163.84
423.94	138.09
424.13	128.73
424.32	114.69
424.50	194.26
424.69	114.69
424.88	243.42
425.07	128.73
425.26	138.09
425.45	95.96
425.64	163.84
425.83	117.03
426.01	212.99
426.20	114.69
426.39	128.73
426.58	152.13
426.77	154.48
426.96	191.92
427.15	124.05
427.33	159.16
427.52	135.75
427.71	147.45
427.90	112.35
428.09	149.79
428.28	147.45
428.46	177.88
428.65	119.37
428.84	243.42
429.03	135.75
429.22	128.73
429.40	124.05
429.59	131.07
429.78	140.43
429.97	110.01
430.16	98.30
430.34	205.97
430.53	126.39
430.72	156.82
430.91	112.35
431.10	168.52
431.28	149.79
431.47	177.88
431.66	147.45
431.85	128.73
432.03	145.11
432.22	173.20
432.41	182.56
432.60	124.05
432.79	95.96
432.97	196.60
433.16	161.50
433.35	149.79
433.54	161.50
433.72	161.50
433.91	215.33
434.10	110.01
434.28	175.54
434.47	175.54
434.66	175.54
434.85	236.39
435.03	348.74
435.22	926.85
435.41	1500.28
435.59	1441.77
435.78	976.00
435.97	503.22
436.16	327.68
436.34	234.05
436.53	236.39
436.72	147.45
436.90	145.11
437.09	135.75
437.28	227.03
437.46	166.18
437.65	255.12
437.84	117.03
438.02	208.31
438.21	177.88
438.40	180.22
438.58	161.50
438.77	205.97
438.96	208.31
439.14	121.71
439.33	203.63
439.52	177.88
439.70	149.79
439.89	121.71
440.08	163.84
440.26	159.16
440.45	180.22
440.63	173.20
440.82	140.43
441.01	182.56
441.19	205.97
441.38	145.11
441.57	170.86
441.75	163.84
441.94	234.05
442.12	189.58
442.31	187.24
442.50	126.39
442.68	149.79
442.87	217.67
443.05	105.32
443.24	166.18
443.43	147.45
443.61	131.07
443.80	161.50
443.98	194.26
444.17	224.69
444.35	189.58
444.54	154.48
444.73	205.97
444.91	266.82
445.10	107.66
445.28	168.52
445.47	156.82
445.65	201.29
445.84	175.54
446.02	210.65
446.21	105.32
446.39	177.88
446.58	159.16
446.77	191.92
446.95	131.07
447.14	124.05
447.32	250.44
447.51	140.43
447.69	168.52
447.88	208.31
448.06	259.80
448.25	224.69
448.43	119.37
448.62	201.29
448.80	177.88
448.99	175.54
449.17	194.26
449.36	229.37
449.54	173.20
449.73	65.54
449.91	152.13
450.10	210.65
450.28	255.12
450.46	212.99
450.65	194.26
450.83	201.29
451.02	161.50
451.20	227.03
451.39	121.71
451.57	117.03
451.76	93.62
451.94	135.75
452.13	182.56
452.31	250.44
452.49	147.45
452.68	149.79
452.86	212.99
453.05	194.26
453.23	131.07
453.42	184.90
453.60	184.90
453.78	152.13
453.97	124.05
454.15	149.79
454.34	177.88
454.52	117.03
454.70	177.88
454.89	159.16
455.07	168.52
455.26	201.29
455.44	203.63
455.62	201.29
455.81	161.50
455.99	163.84
456.17	140.43
456.36	163.84
456.54	191.92
456.73	84.26
456.91	149.79
457.09	138.09
457.28	203.63
457.46	227.03
457.64	212.99
457.83	138.09
458.01	163.84
458.19	168.52
458.38	145.11
458.56	142.77
458.74	180.22
458.93	145.11
459.11	234.05
459.29	203.63
459.48	117.03
459.66	241.08
459.84	229.37
460.03	241.08
460.21	159.16
460.39	131.07
460.57	208.31
460.76	173.20
460.94	163.84
461.12	210.65
461.31	255.12
461.49	184.90
461.67	212.99
461.85	222.35
462.04	156.82
462.22	606.20
462.40	187.24
462.59	161.50
462.77	189.58
462.95	163.84
463.13	215.33
463.32	170.86
463.50	145.11
463.68	201.29
463.86	189.58
464.05	154.48
464.23	191.92
464.41	173.20
464.59	198.95
464.78	173.20
464.96	112.35
465.14	231.71
465.32	166.18
465.50	252.78
465.69	227.03
465.87	191.92
466.05	224.69
466.23	222.35
466.41	189.58
466.60	161.50
466.78	222.35
466.96	182.56
467.14	182.56
467.32	184.90
467.51	217.67
467.69	147.45
467.87	208.31
468.05	208.31
468.23	255.12
468.41	243.42
468.60	250.44
468.78	194.26
468.96	205.97
469.14	173.20
469.32	198.95
469.50	220.01
469.69	149.79
469.87	131.07
470.05	184.90
470.23	105.32
470.41	276.18
470.59	175.54
470.77	126.39
470.95	236.39
471.14	163.84
471.32	182.56
471.50	208.31
471.68	177.88
471.86	175.54
472.04	166.18
472.22	168.52
472.40	110.01
472.58	168.52
472.77	177.88
472.95	152.13
473.13	236.39
473.31	215.33
473.49	168.52
473.67	135.75
473.85	152.13
474.03	180.22
474.21	161.50
474.39	159.16
474.57	224.69
474.75	229.37
474.93	175.54
475.12	156.82
475.30	159.16
475.48	145.11
475.66	252.78
475.84	147.45
476.02	156.82
476.20	241.08
476.38	203.63
476.56	238.73
476.74	152.13
476.92	163.84
477.10	145.11
477.28	173.20
477.46	156.82
477.64	210.65
477.82	196.60
478.00	252.78
478.18	135.75
478.36	201.29
478.54	184.90
478.72	147.45
478.90	231.71
479.08	175.54
479.26	191.92
479.44	166.18
479.62	161.50
479.80	163.84
479.98	243.42
480.16	210.65
480.34	257.46
480.52	201.29
480.70	191.92
480.88	196.60
481.06	205.97
481.24	271.50
481.41	142.77
481.59	205.97
481.77	168.52
481.95	227.03
482.13	278.52
482.31	215.33
482.49	215.33
482.67	212.99
482.85	283.20
483.03	194.26
483.21	276.18
483.39	236.39
483.57	276.18
483.74	294.91
483.92	252.78
484.10	276.18
484.28	297.25
484.46	287.89
484.64	278.52
484.82	191.92
485.00	248.10
485.18	259.80
485.35	285.55
485.53	344.06
485.71	322.99
485.89	217.67
486.07	301.93
486.25	351.08
486.43	264.48
486.61	344.06
486.78	320.65
486.96	283.20
487.14	241.08
487.32	273.84
487.50	283.20
487.68	386.19
487.85	369.80
488.03	383.85
488.21	259.80
488.39	332.36
488.57	353.42
488.75	273.84
488.92	585.13
489.10	294.91
489.28	348.74
489.46	250.44
489.64	299.59
489.81	269.16
489.99	339.38
490.17	360.44
490.35	416.62
490.53	297.25
490.70	294.91
490.88	421.30
491.06	311.29
491.24	290.23
491.41	360.44
491.59	365.12
491.77	205.97
491.95	250.44
492.13	355.76
492.30	250.44
492.48	337.04
492.66	259.80
492.84	278.52
493.01	262.14
493.19	325.33
493.37	351.08
493.54	365.12
493.72	231.71
493.90	287.89
494.08	252.78
494.25	318.31
494.43	301.93
494.61	313.63
494.79	285.55
494.96	243.42
495.14	257.46
495.32	301.93
495.49	325.33
495.67	292.57
495.85	229.37
496.02	332.36
496.20	266.82
496.38	266.82
496.55	262.14
496.73	255.12
496.91	266.82
497.09	351.08
497.26	234.05
497.44	241.08
497.62	259.80
497.79	212.99
497.97	262.14
498.14	315.97
498.32	250.44
498.50	283.20
498.67	259.80
498.85	297.25
499.03	231.71
499.20	238.73
499.38	287.89
499.56	250.44
499.73	313.63
499.91	327.68
500.08	196.60
500.26	255.12
500.44	285.55
500.61	344.06
500.79	266.82
500.97	234.05
501.14	238.73
501.32	273.84
501.49	252.78
501.67	287.89
501.84	280.86
502.02	257.46
502.20	243.42
502.37	229.37
502.55	238.73
502.72	217.67
502.90	278.52
503.07	168.52
503.25	248.10
503.43	147.45
503.60	290.23
503.78	280.86
503.95	205.97
504.13	313.63
504.30	229.37
504.48	325.33
504.65	297.25
504.83	236.39
505.01	224.69
505.18	166.18
505.36	269.16
505.53	208.31
505.71	119.37
505.88	224.69
506.06	229.37
506.23	231.71
506.41	191.92
506.58	252.78
506.76	234.05
506.93	224.69
507.11	238.73
507.28	184.90
507.46	234.05
507.63	229.37
507.81	208.31
507.98	255.12
508.16	266.82
508.33	250.44
508.50	196.60
508.68	313.63
508.85	245.76
509.03	212.99
509.20	325.33
509.38	245.76
509.55	182.56
509.73	217.67
509.90	229.37
510.08	252.78
510.25	191.92
510.42	250.44
510.60	203.63
510.77	245.76
510.95	255.12
511.12	231.71
511.30	283.20
511.47	205.97
511.64	248.10
511.82	217.67
511.99	224.69
512.17	203.63
512.34	278.52
512.51	170.86
512.69	252.78
512.86	318.31
513.04	215.33
513.21	311.29
513.38	273.84
513.56	180.22
513.73	224.69
513.90	210.65
514.08	229.37
514.25	229.37
514.43	229.37
514.60	234.05
514.77	234.05
514.95	245.76
515.12	238.73
515.29	259.80
515.47	215.33
515.64	177.88
515.81	238.73
515.99	241.08
516.16	184.90
516.33	283.20
516.51	257.46
516.68	229.37
516.85	168.52
517.03	184.90
517.20	318.31
517.37	255.12
517.54	245.76
517.72	189.58
517.89	184.90
518.06	243.42
518.24	248.10
518.41	245.76
518.58	257.46
518.75	198.95
518.93	217.67
519.10	248.10
519.27	273.84
519.45	217.67
519.62	205.97
519.79	252.78
519.96	229.37
520.14	227.03
520.31	276.18
520.48	205.97
520.65	236.39
520.83	304.27
521.00	238.73
521.17	280.86
521.34	189.58
521.52	198.95
521.69	250.44
521.86	198.95
522.03	255.12
522.20	315.97
522.38	212.99
522.55	215.33
522.72	189.58
522.89	304.27
523.07	395.55
523.24	264.48
523.41	212.99
523.58	266.82
523.75	180.22
523.92	212.99
524.10	224.69
524.27	243.42
524.44	222.35
524.61	215.33
524.78	294.91
524.96	320.65
525.13	280.86
525.30	283.20
525.47	241.08
525.64	217.67
525.81	220.01
525.98	280.86
526.16	248.10
526.33	215.33
526.50	217.67
526.67	217.67
526.84	205.97
527.01	156.82
527.18	203.63
527.36	208.31
527.53	231.71
527.70	191.92
527.87	231.71
528.04	287.89
528.21	243.42
528.38	318.31
528.55	273.84
528.72	262.14
528.89	299.59
529.07	248.10
529.24	257.46
529.41	276.18
529.58	220.01
529.75	212.99
529.92	299.59
530.09	224.69
530.26	177.88
530.43	292.57
530.60	315.97
530.77	313.63
530.94	255.12
531.11	369.80
531.28	311.29
531.46	255.12
531.63	259.80
531.80	262.14
531.97	236.39
532.14	177.88
532.31	252.78
532.48	215.33
532.65	264.48
532.82	255.12
532.99	231.71
533.16	273.84
533.33	344.06
533.50	285.55
533.67	257.46
533.84	346.40
534.01	379.17
534.18	271.50
534.35	271.50
534.52	252.78
534.69	379.17
534.86	276.18
535.03	325.33
535.20	280.86
535.37	339.38
535.54	297.25
535.71	276.18
535.88	339.38
536.05	292.57
536.22	395.55
536.38	320.65
536.55	393.21
536.72	341.72
536.89	264.48
537.06	330.02
537.23	355.76
537.40	402.57
537.57	355.76
537.74	477.47
537.91	388.53
538.08	404.91
538.25	379.17
538.42	395.55
538.59	444.70
538.75	433.00
538.92	454.06
539.09	411.93
539.26	482.15
539.43	594.50
539.60	510.24
539.77	641.31
539.94	634.29
540.11	664.71
540.28	781.74
540.44	746.63
540.61	763.01
540.78	891.74
540.95	931.53
541.12	1224.10
541.29	1287.29
541.46	1390.28
541.62	1348.15
541.79	1252.19
541.96	1252.19
542.13	1259.21
542.30	1088.35
542.47	1153.88
542.63	1142.18
542.80	1114.10
542.97	1109.41
543.14	1046.22
543.31	1083.67
543.48	1083.67
543.64	1100.05
543.81	1116.44
543.98	1203.04
544.15	1029.84
544.32	1114.10
544.48	1057.92
544.65	1081.33
544.82	1076.65
544.99	1036.86
545.16	1039.20
545.32	1083.67
545.49	1856.04
545.66	2588.63
545.83	3068.44
546.00	2612.04
546.16	1860.73
546.33	1474.54
546.50	1123.46
546.67	1013.45
546.83	858.98
547.00	784.08
547.17	840.25
547.34	732.59
547.50	744.29
547.67	690.46
547.84	690.46
548.00	678.76
548.17	699.82
548.34	695.14
548.51	667.05
548.67	753.65
548.84	674.07
549.01	566.41
549.18	613.22
549.34	638.97
549.51	627.26
549.68	559.39
549.84	566.41
550.01	484.49
550.18	596.84
550.34	617.90
550.51	465.77
550.68	559.39
550.84	475.13
551.01	435.34
551.18	435.34
551.34	442.36
551.51	437.68
551.68	428.32
551.84	397.89
552.01	428.32
552.18	402.57
552.34	449.38
552.51	372.15
552.68	404.91
552.84	414.27
553.01	425.98
553.18	442.36
553.34	381.51
553.51	372.15
553.67	337.04
553.84	395.55
554.01	339.38
554.17	327.68
554.34	280.86
554.51	266.82
554.67	325.33
554.84	339.38
555.00	299.59
555.17	344.06
555.33	297.25
555.50	402.57
555.67	271.50
555.83	196.60
556.00	280.86
556.16	414.27
556.33	308.95
556.50	294.91
556.66	236.39
556.83	339.38
556.99	306.61
557.16	236.39
557.32	360.44
557.49	243.42
557.65	264.48
557.82	262.14
557.98	252.78
558.15	241.08
558.32	154.48
558.48	208.31
558.65	210.65
558.81	301.93
558.98	287.89
559.14	306.61
559.31	330.02
559.47	191.92
559.64	229.37
559.80	276.18
559.97	208.31
560.13	301.93
560.30	271.50
560.46	280.86
560.63	191.92
560.79	217.67
560.96	238.73
561.12	217.67
561.29	227.03
561.45	306.61
561.61	229.37
561.78	325.33
561.94	308.95
562.11	215.33
562.27	248.10
562.44	215.33
562.60	248.10
562.77	250.44
562.93	435.34
563.10	334.70
563.26	280.86
563.42	306.61
563.59	311.29
563.75	248.10
563.92	248.10
564.08	332.36
564.24	205.97
564.41	215.33
564.57	264.48
564.74	194.26
564.90	320.65
565.07	257.46
565.23	308.95
565.39	220.01
565.56	243.42
565.72	208.31
565.88	234.05
566.05	306.61
566.21	269.16
566.38	285.55
566.54	266.82
566.70	208.31
566.87	152.13
567.03	311.29
567.19	238.73
567.36	224.69
567.52	269.16
567.68	262.14
567.85	236.39
568.01	245.76
568.17	217.67
568.34	229.37
568.50	276.18
568.66	236.39
568.83	337.04
568.99	262.14
569.15	248.10
569.32	222.35
569.48	262.14
569.64	250.44
569.81	294.91
569.97	243.42
570.13	189.58
570.30	208.31
570.46	222.35
570.62	262.14
570.78	271.50
570.95	259.80
571.11	224.69
571.27	320.65
571.43	173.20
571.60	308.95
571.76	222.35
571.92	238.73
572.09	224.69
572.25	250.44
572.41	170.86
572.57	173.20
572.74	280.86
572.90	210.65
573.06	271.50
573.22	306.61
573.38	227.03
573.55	285.55
573.71	205.97
573.87	203.63
574.03	252.78
574.20	212.99
574.36	248.10
574.52	255.12
574.68	262.14
574.84	238.73
575.01	215.33
575.17	210.65
575.33	276.18
575.49	255.12
575.65	248.10
575.82	337.04
575.98	292.57
576.14	266.82
576.30	414.27
576.46	603.86
576.62	657.69
576.79	713.86
576.95	631.94
577.11	404.91
577.27	372.15
577.43	407.25
577.59	330.02
577.75	266.82
577.92	257.46
578.08	341.72
578.24	210.65
578.40	339.38
578.56	503.22
578.72	585.13
578.88	634.29
579.04	533.64
579.21	463.43
579.37	425.98
579.53	388.53
579.69	414.27
579.85	365.12
580.01	468.11
580.17	477.47
580.33	367.46
580.49	433.00
580.65	409.59
580.82	283.20
580.98	269.16
581.14	383.85
581.30	395.55
581.46	374.49
581.62	407.25
581.78	337.04
581.94	416.62
582.10	315.97
582.26	456.40
582.42	409.59
582.58	468.11
582.74	334.70
582.90	447.04
583.06	451.72
583.22	421.30
583.38	388.53
583.54	447.04
583.70	463.43
583.86	440.02
584.02	402.57
584.18	407.25
584.34	454.06
584.50	433.00
584.66	351.08
584.82	330.02
584.98	402.57
585.14	407.25
585.30	449.38
585.46	353.42
585.62	411.93
585.78	397.89
585.94	379.17
586.10	365.12
586.26	365.12
586.42	449.38
586.58	538.32
586.74	477.47
586.90	606.20
587.06	627.26
587.22	608.54
587.38	596.84
587.54	479.81
587.70	543.00
587.86	489.17
588.02	372.15
588.18	397.89
588.34	360.44
588.49	285.55
588.65	231.71
588.81	320.65
588.97	360.44
589.13	292.57
589.29	313.63
589.45	400.23
589.61	259.80
589.77	397.89
589.93	315.97
590.08	374.49
590.24	339.38
590.40	369.80
590.56	348.74
590.72	304.27
590.88	404.91
591.04	334.70
591.20	346.40
591.35	372.15
591.51	318.31
591.67	369.80
591.83	287.89
591.99	320.65
592.15	383.85
592.31	416.62
592.46	414.27
592.62	470.45
592.78	430.66
592.94	402.57
593.10	414.27
593.26	465.77
593.41	440.02
593.57	425.98
593.73	383.85
593.89	379.17
594.05	355.76
594.20	320.65
594.36	351.08
594.52	224.69
594.68	212.99
594.84	285.55
594.99	388.53
595.15	266.82
595.31	294.91
595.47	327.68
595.62	276.18
595.78	292.57
595.94	353.42
596.10	301.93
596.25	285.55
596.41	374.49
596.57	241.08
596.73	266.82
596.88	271.50
597.04	266.82
597.20	264.48
597.36	341.72
597.51	252.78
597.67	285.55
597.83	311.29
597.99	334.70
598.14	369.80
598.30	381.51
598.46	372.15
598.61	421.30
598.77	367.46
598.93	390.87
599.09	313.63
599.24	304.27
599.40	421.30
599.56	358.10
599.71	355.76
599.87	397.89
600.03	325.33
600.18	320.65
600.34	301.93
600.50	177.88
600.65	201.29
600.81	393.21
600.97	301.93
601.12	332.36
601.28	229.37
601.44	318.31
601.59	245.76
601.75	301.93
601.91	280.86
602.06	273.84
602.22	325.33
602.37	245.76
602.53	292.57
602.69	212.99
602.84	205.97
603.00	229.37
603.16	292.57
603.31	348.74
603.47	292.57
603.62	231.71
603.78	332.36
603.94	311.29
604.09	311.29
604.25	325.33
604.40	255.12
604.56	266.82
604.71	285.55
604.87	292.57
605.03	299.59
605.18	273.84
605.34	411.93
605.49	250.44
605.65	313.63
605.80	325.33
605.96	299.59
606.12	262.14
606.27	313.63
606.43	294.91
606.58	318.31
606.74	283.20
606.89	423.64
607.05	322.99
607.20	367.46
607.36	369.80
607.51	306.61
607.67	428.32
607.82	304.27
607.98	442.36
608.13	388.53
608.29	362.78
608.44	477.47
608.60	400.23
608.75	463.43
608.91	456.40
609.06	557.05
609.22	645.99
609.37	681.10
609.53	606.20
609.68	641.31
609.84	709.18
609.99	830.89
610.15	929.19
610.30	1177.29
610.46	1275.59
610.61	1813.92
610.76	2106.48
610.92	2361.60
611.07	2656.51
