SpectraSuite Data File
++++++++++++++++++++++++++++++++++++
Date: Fri Oct 04 11:41:46 GMT-05:00 2013
User: price-jones
Dark Spectrum Present: No
Reference Spectrum Present: No
Number of Sampled Component Spectra: 1
Spectrometers: USB2+H05261
Integration Time (usec): 100000 (USB2+H05261)
Spectra Averaged: 1 (USB2+H05261)
Boxcar Smoothing: 0 (USB2+H05261)
Correct for Electrical Dark: No (USB2+H05261)
Strobe/Lamp Enabled: No (USB2+H05261)
Correct for Detector Non-linearity: No (USB2+H05261)
Correct for Stray Light: No (USB2+H05261)
Number of Pixels in Processed Spectrum: 2048
>>>>>Begin Processed Spectral Data<<<<<
365.73	105.32
365.92	105.32
366.12	105.32
366.32	0.00
366.52	0.00
366.72	0.00
366.91	0.00
367.11	0.00
367.31	0.00
367.51	0.00
367.70	0.00
367.90	0.00
368.10	0.00
368.30	0.00
368.49	0.00
368.69	37.45
368.89	0.00
369.09	0.00
369.28	0.00
369.48	0.00
369.68	0.00
369.87	39.79
370.07	0.00
370.27	0.00
370.47	0.00
370.66	2.34
370.86	63.19
371.06	91.28
371.25	133.41
371.45	35.11
371.65	105.32
371.84	119.37
372.04	44.47
372.24	107.66
372.44	44.47
372.63	88.94
372.83	168.52
373.03	88.94
373.22	187.24
373.42	79.58
373.62	56.17
373.81	138.09
374.01	168.52
374.21	131.07
374.40	84.26
374.60	77.24
374.79	152.13
374.99	138.09
375.19	149.79
375.38	156.82
375.58	159.16
375.78	175.54
375.97	161.50
376.17	177.88
376.37	140.43
376.56	18.72
376.76	173.20
376.95	67.88
377.15	117.03
377.35	88.94
377.54	135.75
377.74	110.01
377.93	98.30
378.13	107.66
378.33	107.66
378.52	138.09
378.72	154.48
378.91	74.90
379.11	79.58
379.31	163.84
379.50	133.41
379.70	147.45
379.89	161.50
380.09	184.90
380.28	112.35
380.48	74.90
380.68	81.92
380.87	105.32
381.07	100.64
381.26	149.79
381.46	152.13
381.65	175.54
381.85	231.71
382.04	117.03
382.24	77.24
382.43	126.39
382.63	114.69
382.83	133.41
383.02	124.05
383.22	93.62
383.41	114.69
383.61	98.30
383.80	114.69
384.00	114.69
384.19	58.51
384.39	145.11
384.58	86.60
384.78	124.05
384.97	93.62
385.17	100.64
385.36	138.09
385.56	203.63
385.75	119.37
385.95	49.15
386.14	168.52
386.34	72.56
386.53	114.69
386.72	135.75
386.92	126.39
387.11	198.95
387.31	128.73
387.50	117.03
387.70	163.84
387.89	168.52
388.09	121.71
388.28	60.85
388.48	121.71
388.67	117.03
388.86	81.92
389.06	84.26
389.25	121.71
389.45	126.39
389.64	121.71
389.84	159.16
390.03	203.63
390.22	140.43
390.42	173.20
390.61	105.32
390.81	121.71
391.00	163.84
391.19	95.96
391.39	154.48
391.58	112.35
391.78	35.11
391.97	81.92
392.16	86.60
392.36	203.63
392.55	177.88
392.75	154.48
392.94	128.73
393.13	156.82
393.33	140.43
393.52	131.07
393.71	187.24
393.91	77.24
394.10	124.05
394.29	168.52
394.49	100.64
394.68	170.86
394.88	189.58
395.07	208.31
395.26	149.79
395.46	142.77
395.65	147.45
395.84	163.84
396.04	215.33
396.23	114.69
396.42	170.86
396.62	175.54
396.81	112.35
397.00	147.45
397.19	156.82
397.39	126.39
397.58	173.20
397.77	182.56
397.97	124.05
398.16	229.37
398.35	147.45
398.55	138.09
398.74	107.66
398.93	187.24
399.12	187.24
399.32	119.37
399.51	140.43
399.70	124.05
399.90	177.88
400.09	135.75
400.28	238.73
400.47	238.73
400.67	203.63
400.86	107.66
401.05	100.64
401.24	208.31
401.44	201.29
401.63	124.05
401.82	208.31
402.01	210.65
402.21	201.29
402.40	217.67
402.59	180.22
402.78	224.69
402.97	217.67
403.17	231.71
403.36	273.84
403.55	334.70
403.74	699.82
403.93	2331.17
404.13	5970.71
404.32	9727.27
404.51	9668.75
404.70	5935.60
404.89	2146.27
405.09	648.33
405.28	383.85
405.47	248.10
405.66	341.72
405.85	271.50
406.05	212.99
406.24	173.20
406.43	273.84
406.62	231.71
406.81	337.04
407.00	390.87
407.20	655.35
407.39	1149.20
407.58	1380.92
407.77	1043.88
407.96	645.99
408.15	332.36
408.34	250.44
408.54	250.44
408.73	194.26
408.92	210.65
409.11	194.26
409.30	182.56
409.49	229.37
409.68	229.37
409.87	224.69
410.07	276.18
410.26	201.29
410.45	259.80
410.64	220.01
410.83	257.46
411.02	194.26
411.21	229.37
411.40	262.14
411.59	243.42
411.78	313.63
411.98	259.80
412.17	184.90
412.36	212.99
412.55	250.44
412.74	255.12
412.93	304.27
413.12	227.03
413.31	259.80
413.50	184.90
413.69	299.59
413.88	262.14
414.07	285.55
414.26	304.27
414.45	285.55
414.64	280.86
414.83	271.50
415.02	294.91
415.22	325.33
415.41	330.02
415.60	222.35
415.79	301.93
415.98	280.86
416.17	280.86
416.36	264.48
416.55	224.69
416.74	276.18
416.93	353.42
417.12	257.46
417.31	280.86
417.50	250.44
417.69	334.70
417.88	266.82
418.07	313.63
418.26	241.08
418.45	271.50
418.64	365.12
418.83	271.50
419.02	287.89
419.21	339.38
419.39	294.91
419.58	245.76
419.77	271.50
419.96	318.31
420.15	346.40
420.34	264.48
420.53	287.89
420.72	397.89
420.91	292.57
421.10	339.38
421.29	306.61
421.48	393.21
421.67	290.23
421.86	393.21
422.05	332.36
422.24	400.23
422.43	315.97
422.61	299.59
422.80	381.51
422.99	360.44
423.18	290.23
423.37	397.89
423.56	379.17
423.75	320.65
423.94	339.38
424.13	280.86
424.32	318.31
424.50	320.65
424.69	351.08
424.88	416.62
425.07	325.33
425.26	330.02
425.45	374.49
425.64	351.08
425.83	374.49
426.01	425.98
426.20	388.53
426.39	299.59
426.58	311.29
426.77	360.44
426.96	362.78
427.15	489.17
427.33	358.10
427.52	440.02
427.71	379.17
427.90	416.62
428.09	388.53
428.28	376.83
428.46	409.59
428.65	425.98
428.84	393.21
429.03	468.11
429.22	379.17
429.40	395.55
429.59	435.34
429.78	484.49
429.97	393.21
430.16	435.34
430.34	451.72
430.53	421.30
430.72	425.98
430.91	528.96
431.10	489.17
431.28	538.32
431.47	514.92
431.66	517.26
431.85	521.94
432.03	507.90
432.22	477.47
432.41	519.60
432.60	599.18
432.79	554.71
432.97	550.03
433.16	568.75
433.35	685.78
433.54	816.85
433.72	863.66
433.91	814.51
434.10	910.47
434.28	1034.52
434.47	1277.93
434.66	1416.02
434.85	1659.44
435.03	3801.03
435.22	14312.38
435.41	36615.34
435.59	48954.64
435.78	35571.46
435.97	16198.85
436.16	6127.52
436.34	2029.24
436.53	1160.91
436.72	1027.50
436.90	814.51
437.09	765.36
437.28	723.23
437.46	648.33
437.65	568.75
437.84	648.33
438.02	629.60
438.21	643.65
438.40	540.66
438.58	543.00
438.77	615.56
438.96	580.45
439.14	545.34
439.33	550.03
439.52	575.77
439.70	543.00
439.89	531.30
440.08	596.84
440.26	528.96
440.45	627.26
440.63	578.11
440.82	533.64
441.01	486.83
441.19	622.58
441.38	550.03
441.57	671.73
441.75	592.16
441.94	610.88
442.12	500.87
442.31	557.05
442.50	631.94
442.68	599.18
442.87	547.69
443.05	589.82
443.24	566.41
443.43	638.97
443.61	599.18
443.80	622.58
443.98	596.84
444.17	564.07
444.35	671.73
444.54	554.71
444.73	610.88
444.91	617.90
445.10	482.15
445.28	489.17
445.47	531.30
445.65	594.50
445.84	519.60
446.02	627.26
446.21	585.13
446.39	526.62
446.58	517.26
446.77	603.86
446.95	636.63
447.14	564.07
447.32	521.94
447.51	543.00
447.69	535.98
447.88	566.41
448.06	578.11
448.25	535.98
448.43	496.19
448.62	533.64
448.80	592.16
448.99	524.28
449.17	543.00
449.36	594.50
449.54	543.00
449.73	554.71
449.91	550.03
450.10	463.43
450.28	699.82
450.46	617.90
450.65	566.41
450.83	631.94
451.02	589.82
451.20	491.51
451.39	496.19
451.57	545.34
451.76	554.71
451.94	568.75
452.13	648.33
452.31	596.84
452.49	636.63
452.68	617.90
452.86	636.63
453.05	627.26
453.23	624.92
453.42	695.14
453.60	599.18
453.78	554.71
453.97	531.30
454.15	538.32
454.34	575.77
454.52	603.86
454.70	615.56
454.89	648.33
455.07	554.71
455.26	589.82
455.44	580.45
455.62	538.32
455.81	519.60
455.99	610.88
456.17	631.94
456.36	545.34
456.54	547.69
456.73	533.64
456.91	596.84
457.09	566.41
457.28	601.52
457.46	580.45
457.64	547.69
457.83	507.90
458.01	535.98
458.19	573.43
458.38	533.64
458.56	500.87
458.74	603.86
458.93	547.69
459.11	587.47
459.29	540.66
459.48	608.54
459.66	587.47
459.84	578.11
460.03	615.56
460.21	550.03
460.39	507.90
460.57	585.13
460.76	500.87
460.94	554.71
461.12	645.99
461.31	486.83
461.49	568.75
461.67	533.64
461.85	540.66
462.04	524.28
462.22	641.31
462.40	554.71
462.59	526.62
462.77	531.30
462.95	538.32
463.13	475.13
463.32	547.69
463.50	561.73
463.68	564.07
463.86	491.51
464.05	482.15
464.23	547.69
464.41	685.78
464.59	582.79
464.78	559.39
464.96	573.43
465.14	564.07
465.32	463.43
465.50	550.03
465.69	482.15
465.87	514.92
466.05	498.53
466.23	447.04
466.41	568.75
466.60	540.66
466.78	636.63
466.96	578.11
467.14	589.82
467.32	557.05
467.51	552.37
467.69	486.83
467.87	585.13
468.05	540.66
468.23	552.37
468.41	503.22
468.60	540.66
468.78	582.79
468.96	543.00
469.14	533.64
469.32	496.19
469.50	456.40
469.69	514.92
469.87	535.98
470.05	505.56
470.23	463.43
470.41	435.34
470.59	433.00
470.77	566.41
470.95	512.58
471.14	528.96
471.32	510.24
471.50	645.99
471.68	552.37
471.86	519.60
472.04	507.90
472.22	507.90
472.40	519.60
472.58	468.11
472.77	489.17
472.95	517.26
473.13	716.20
473.31	610.88
473.49	580.45
473.67	601.52
473.85	528.96
474.03	526.62
474.21	564.07
474.39	613.22
474.57	617.90
474.75	543.00
474.93	533.64
475.12	543.00
475.30	557.05
475.48	533.64
475.66	519.60
475.84	507.90
476.02	524.28
476.20	557.05
476.38	552.37
476.56	650.67
476.74	550.03
476.92	552.37
477.10	550.03
477.28	599.18
477.46	573.43
477.64	552.37
477.82	615.56
478.00	557.05
478.18	526.62
478.36	575.77
478.54	624.92
478.72	592.16
478.90	624.92
479.08	645.99
479.26	617.90
479.44	627.26
479.62	676.41
479.80	655.35
479.98	760.67
480.16	781.74
480.34	786.42
480.52	784.08
480.70	828.55
480.88	802.80
481.06	844.93
481.24	896.43
481.41	1018.13
481.59	1100.05
481.77	1048.56
481.95	1203.04
482.13	1238.14
482.31	1348.15
482.49	1249.85
482.67	1474.54
482.85	1715.61
483.03	1839.66
483.21	2024.56
483.39	2073.71
483.57	2150.95
483.74	2258.62
483.92	2406.07
484.10	2448.20
484.28	2544.16
484.46	2747.79
484.64	3005.25
484.82	3012.27
485.00	3213.56
485.18	3466.33
485.35	3775.28
485.53	3794.01
485.71	3927.42
485.89	4074.87
486.07	4219.99
486.25	4231.69
486.43	4264.46
486.61	4358.08
486.78	4367.44
486.96	4266.80
487.14	4365.10
487.32	4318.29
487.50	4444.68
487.68	4156.79
487.85	4229.35
488.03	4091.26
488.21	4135.73
488.39	3861.88
488.57	3922.74
488.75	3669.96
488.92	3861.88
489.10	3574.00
489.28	3492.08
489.46	3485.06
489.64	3463.99
489.81	3487.40
489.99	3262.71
490.17	3311.86
490.35	3332.92
490.53	3087.17
490.70	3194.83
490.88	3171.43
491.06	3372.71
491.24	3536.55
491.41	3826.78
491.59	3616.13
491.77	3164.40
491.95	3108.23
492.13	3056.74
492.30	2981.84
492.48	2775.88
492.66	2862.48
492.84	2803.96
493.01	2736.09
493.19	2848.43
493.37	2759.49
493.54	2689.28
493.72	2729.06
493.90	2576.93
494.08	2579.27
494.25	2476.29
494.43	2583.95
494.61	2506.71
494.79	2382.67
494.96	2289.04
495.14	2448.20
495.32	2345.22
495.49	2186.06
495.67	2167.34
495.85	2214.15
496.02	2230.53
496.20	2197.76
496.38	2211.81
496.55	1952.01
496.73	2045.63
496.91	1963.71
497.09	1949.67
497.26	1818.60
497.44	1895.83
497.62	1879.45
497.79	1842.00
497.97	1795.19
498.14	1685.19
498.32	1776.47
498.50	1652.42
498.67	1659.44
498.85	1579.86
499.03	1521.35
499.20	1502.62
499.38	1533.05
499.56	1430.07
499.73	1519.01
499.91	1474.54
500.08	1313.04
500.26	1233.46
500.44	1217.08
500.61	1165.59
500.79	1198.35
500.97	1203.04
501.14	1163.25
501.32	1210.06
501.49	1041.54
501.67	1008.77
501.84	1076.65
502.02	994.73
502.20	959.62
502.37	866.00
502.55	973.66
502.72	882.38
502.90	870.68
503.07	809.83
503.25	800.46
503.43	858.98
503.60	732.59
503.78	800.46
503.95	678.76
504.13	835.57
504.30	798.12
504.48	744.29
504.65	737.27
504.83	727.91
505.01	709.18
505.18	674.07
505.36	657.69
505.53	645.99
505.71	667.05
505.88	606.20
506.06	671.73
506.23	622.58
506.41	622.58
506.58	657.69
506.76	580.45
506.93	613.22
507.11	538.32
507.28	507.90
507.46	535.98
507.63	552.37
507.81	608.54
507.98	526.62
508.16	561.73
508.33	557.05
508.50	631.94
508.68	648.33
508.85	552.37
509.03	631.94
509.20	543.00
509.38	608.54
509.55	531.30
509.73	594.50
509.90	613.22
510.08	573.43
510.25	519.60
510.42	486.83
510.60	503.22
510.77	472.79
510.95	540.66
511.12	496.19
511.30	531.30
511.47	514.92
511.64	535.98
511.82	552.37
511.99	472.79
512.17	573.43
512.34	531.30
512.51	543.00
512.69	472.79
512.86	463.43
513.04	449.38
513.21	503.22
513.38	514.92
513.56	517.26
513.73	454.06
513.90	468.11
514.08	491.51
514.25	463.43
514.43	449.38
514.60	430.66
514.77	386.19
514.95	463.43
515.12	423.64
515.29	425.98
515.47	456.40
515.64	486.83
515.81	486.83
515.99	468.11
516.16	505.56
516.33	437.68
516.51	404.91
516.68	421.30
516.85	418.96
517.03	498.53
517.20	407.25
517.37	430.66
517.54	456.40
517.72	397.89
517.89	393.21
518.06	351.08
518.24	440.02
518.41	521.94
518.58	442.36
518.75	418.96
518.93	444.70
519.10	491.51
519.27	425.98
519.45	381.51
519.62	381.51
519.79	367.46
519.96	402.57
520.14	472.79
520.31	437.68
520.48	451.72
520.65	463.43
520.83	418.96
521.00	475.13
521.17	388.53
521.34	402.57
521.52	444.70
521.69	400.23
521.86	379.17
522.03	423.64
522.20	468.11
522.38	465.77
522.55	409.59
522.72	374.49
522.89	421.30
523.07	535.98
523.24	423.64
523.41	442.36
523.58	458.74
523.75	500.87
523.92	414.27
524.10	414.27
524.27	489.17
524.44	454.06
524.61	477.47
524.78	465.77
524.96	477.47
525.13	461.09
525.30	475.13
525.47	510.24
525.64	517.26
525.81	484.49
525.98	519.60
526.16	423.64
526.33	493.85
526.50	435.34
526.67	454.06
526.84	437.68
527.01	538.32
527.18	564.07
527.36	554.71
527.53	538.32
527.70	587.47
527.87	580.45
528.04	552.37
528.21	444.70
528.38	535.98
528.55	580.45
528.72	498.53
528.89	545.34
529.07	528.96
529.24	578.11
529.41	613.22
529.58	566.41
529.75	613.22
529.92	739.61
530.09	615.56
530.26	638.97
530.43	603.86
530.60	702.16
530.77	692.80
530.94	706.84
531.11	580.45
531.28	660.03
531.46	734.93
531.63	814.51
531.80	718.54
531.97	870.68
532.14	1034.52
532.31	1186.65
532.48	1352.83
532.65	1598.59
532.82	1834.98
532.99	2040.95
533.16	2436.50
533.33	2651.83
533.50	2495.01
533.67	2078.40
533.84	1839.66
534.01	1603.27
534.18	1516.67
534.35	1448.79
534.52	1502.62
534.69	1533.05
534.86	1507.30
535.03	1586.88
535.20	1612.63
535.37	1825.62
535.54	1881.79
535.71	1912.22
535.88	2108.82
536.05	2190.74
536.22	2427.14
536.38	2576.93
536.55	2775.88
536.72	3068.44
536.89	3461.65
537.06	3967.21
537.23	4379.14
537.40	4634.26
537.57	5179.61
537.74	5373.87
537.91	5699.20
538.08	5837.30
538.25	5970.71
538.42	5963.68
538.59	6076.03
538.75	6516.05
538.92	6740.74
539.09	7108.21
539.26	8152.09
539.43	8975.95
539.60	10209.42
539.77	11620.76
539.94	12933.80
540.11	14523.02
540.28	15798.62
540.44	17280.18
540.61	18750.03
540.78	21940.18
540.95	26235.06
541.12	31604.25
541.29	35971.69
541.46	38244.35
541.62	37848.80
541.79	36367.24
541.96	33565.62
542.13	31192.32
542.30	29102.22
542.47	27175.96
542.63	26031.44
542.80	24900.96
542.97	24793.29
543.14	24189.44
543.31	24367.32
543.48	24643.50
543.64	25060.12
543.81	25308.21
543.98	24992.24
544.15	25355.02
544.32	25926.11
544.48	25443.96
544.65	24975.86
544.82	25312.89
544.99	24989.90
545.16	25348.00
545.32	26902.12
545.49	39075.24
545.66	60254.75
545.83	65535.00
546.00	65535.00
546.16	60687.75
546.33	44486.56
546.50	33008.58
546.67	26295.92
546.83	22963.00
547.00	21762.30
547.17	21034.39
547.34	20238.61
547.50	19309.42
547.67	18728.97
547.84	17998.72
548.00	17289.54
548.17	16629.51
548.34	15845.43
548.51	15229.87
548.67	14473.87
548.84	13853.63
549.01	13099.98
549.18	12397.82
549.34	12126.32
549.51	11798.64
549.68	11173.72
549.84	10590.92
550.01	10384.96
550.18	9596.20
550.34	9378.53
550.51	8814.46
550.68	8489.12
550.84	7889.95
551.01	7695.68
551.18	7316.51
551.34	6754.79
551.51	6640.10
551.68	6464.56
551.84	6296.04
552.01	5785.80
552.18	5689.84
552.34	5291.95
552.51	5125.77
552.68	4903.42
552.84	4711.50
553.01	4486.81
553.18	4313.61
553.34	4210.62
553.51	4098.28
553.67	4002.32
553.84	3861.88
554.01	3637.19
554.17	3424.20
554.34	3141.00
554.51	3068.44
554.67	2792.26
554.84	2647.15
555.00	2459.90
555.17	2401.39
555.33	2258.62
555.50	2106.48
555.67	2183.72
555.83	1928.60
556.00	1930.94
556.16	1942.64
556.33	1809.23
556.50	1741.36
556.66	1647.74
556.83	1537.73
556.99	1621.99
557.16	1453.47
557.32	1465.18
557.49	1359.85
557.65	1373.89
557.82	1296.66
557.98	1291.98
558.15	1219.42
558.32	1380.92
558.48	1184.31
558.65	1109.41
558.81	1071.97
558.98	1111.75
559.14	1132.82
559.31	1093.03
559.47	1109.41
559.64	1172.61
559.80	1048.56
559.97	1001.75
560.13	1013.45
560.30	1046.22
560.46	1062.60
560.63	1001.75
560.79	985.37
560.96	1083.67
561.12	968.98
561.29	933.87
561.45	1013.45
561.61	931.53
561.78	1041.54
561.94	992.39
562.11	1008.77
562.27	922.17
562.44	964.30
562.60	908.13
562.77	950.26
562.93	983.02
563.10	954.94
563.26	922.17
563.42	964.30
563.59	887.06
563.75	903.45
563.92	880.04
564.08	840.25
564.24	826.21
564.41	875.36
564.57	816.85
564.74	805.14
564.90	786.42
565.07	788.76
565.23	858.98
565.39	763.01
565.56	734.93
565.72	821.53
565.88	784.08
566.05	732.59
566.21	685.78
566.38	795.78
566.54	725.57
566.70	767.70
566.87	798.12
567.03	809.83
567.19	800.46
567.36	737.27
567.52	798.12
567.68	814.51
567.85	774.72
568.01	716.20
568.17	791.10
568.34	891.74
568.50	805.14
568.66	774.72
568.83	807.48
568.99	713.86
569.15	718.54
569.32	674.07
569.48	648.33
569.64	615.56
569.81	650.67
569.97	655.35
570.13	606.20
570.30	594.50
570.46	528.96
570.62	566.41
570.78	484.49
570.95	503.22
571.11	552.37
571.27	524.28
571.43	566.41
571.60	608.54
571.76	610.88
571.92	582.79
572.09	582.79
572.25	582.79
572.41	641.31
572.57	592.16
572.74	594.50
572.90	627.26
573.06	599.18
573.22	524.28
573.38	638.97
573.55	587.47
573.71	601.52
573.87	667.05
574.03	582.79
574.20	648.33
574.36	746.63
574.52	763.01
574.68	716.20
574.84	851.96
575.01	777.06
575.17	807.48
575.33	933.87
575.49	971.32
575.65	1029.84
575.82	1015.79
575.98	1125.80
576.14	1310.70
576.30	2506.71
576.46	7478.01
576.62	15234.55
576.79	21149.08
576.95	14485.58
577.11	8940.85
577.27	6010.50
577.43	3953.16
577.59	2572.25
577.75	2031.58
577.92	1696.89
578.08	1689.87
578.24	1874.77
578.40	2733.75
578.56	7063.74
578.72	13654.69
578.88	18490.23
579.04	13706.18
579.21	8557.00
579.37	6040.92
579.53	4636.60
579.69	4285.52
579.85	5284.93
580.01	6471.58
580.17	6597.97
580.33	5486.22
580.49	4697.46
580.65	4250.41
580.82	3765.92
580.98	3625.49
581.14	3644.21
581.30	3953.16
581.46	4152.11
581.62	4451.70
581.78	4807.46
581.94	5191.31
582.10	5486.22
582.26	5731.97
582.42	5933.26
582.58	6190.72
582.74	6394.34
582.90	6511.37
583.06	6363.92
583.22	6361.58
583.38	6619.04
583.54	6352.21
583.70	6251.57
583.86	6300.72
584.02	6204.76
584.18	6005.81
584.34	5858.36
584.50	5778.78
584.66	5760.06
584.82	5624.31
584.98	5692.18
585.14	5563.45
585.30	5434.72
585.46	5430.04
585.62	5156.20
585.78	5357.49
585.94	5397.28
586.10	5399.62
586.26	5664.10
586.42	6354.55
586.58	7414.82
586.74	9018.08
586.90	11115.20
587.06	12784.01
587.22	12713.79
587.38	11499.05
587.54	9867.70
587.70	8301.88
587.86	6916.28
588.02	6003.47
588.18	5214.71
588.34	4540.64
588.49	4152.11
588.65	4058.49
588.81	3789.33
588.97	3805.71
589.13	3613.79
589.29	3595.06
589.45	3569.32
589.61	3501.44
589.77	3562.30
589.93	3478.04
590.08	3599.74
590.24	3829.12
590.40	3866.56
590.56	4014.02
590.72	3976.57
590.88	4053.81
591.04	4337.01
591.20	4322.97
591.35	4620.22
591.51	4901.08
591.67	4931.51
591.83	5514.30
591.99	5746.02
592.15	6345.19
592.31	7007.56
592.46	7344.60
592.62	8212.94
592.78	8645.94
592.94	9224.05
593.10	8898.72
593.26	8751.26
593.41	7950.80
593.57	7087.14
593.73	6230.51
593.89	5577.50
594.05	4830.87
594.20	4409.57
594.36	4138.07
594.52	3782.31
594.68	3555.27
594.84	3358.67
594.99	3309.52
595.15	3206.53
595.31	3236.96
595.47	3185.47
595.62	3084.83
595.78	3194.83
595.94	3103.55
596.10	3225.26
596.25	3260.37
596.41	3133.98
596.57	3157.38
596.73	3068.44
596.88	3185.47
597.04	3119.93
597.20	3155.04
597.36	3206.53
597.51	3300.16
597.67	3363.35
597.83	3541.23
597.99	3833.80
598.14	3974.23
598.30	4121.68
598.46	4545.32
598.61	4873.00
598.77	4891.72
598.93	5186.63
599.09	5387.91
599.24	5533.03
599.40	5500.26
599.56	5256.84
599.71	4915.12
599.87	4706.82
600.03	4535.96
600.18	4299.56
600.34	3892.31
600.50	3674.64
600.65	3452.29
600.81	3206.53
600.97	3108.23
601.12	2888.22
601.28	2771.19
601.44	2693.96
601.59	2406.07
601.75	2408.41
601.91	2258.62
602.06	2303.09
602.22	2188.40
602.37	2036.27
602.53	2047.97
602.69	2071.37
602.84	1954.35
603.00	2029.24
603.16	2050.31
603.31	2165.00
603.47	2038.61
603.62	2099.46
603.78	2190.74
603.94	2258.62
604.09	2312.45
604.25	2279.68
604.40	2363.94
604.56	2385.01
