SpectraSuite Data File
++++++++++++++++++++++++++++++++++++
Date: Fri Oct 04 11:42:19 GMT-05:00 2013
User: price-jones
Dark Spectrum Present: No
Reference Spectrum Present: No
Number of Sampled Component Spectra: 1
Spectrometers: USB2+H05261
Integration Time (usec): 100000 (USB2+H05261)
Spectra Averaged: 1 (USB2+H05261)
Boxcar Smoothing: 0 (USB2+H05261)
Correct for Electrical Dark: No (USB2+H05261)
Strobe/Lamp Enabled: No (USB2+H05261)
Correct for Detector Non-linearity: No (USB2+H05261)
Correct for Stray Light: No (USB2+H05261)
Number of Pixels in Processed Spectrum: 2048
>>>>>Begin Processed Spectral Data<<<<<
365.73	0.00
365.92	0.00
366.12	0.00
366.32	0.00
366.52	0.00
366.72	0.00
366.91	0.00
367.11	0.00
367.31	0.00
367.51	0.00
367.70	0.00
367.90	0.00
368.10	0.00
368.30	0.00
368.49	0.00
368.69	0.00
368.89	0.00
369.09	0.00
369.28	0.00
369.48	0.00
369.68	0.00
369.87	0.00
370.07	0.00
370.27	23.41
370.47	23.41
370.66	9.36
370.86	23.41
371.06	72.56
371.25	46.81
371.45	56.17
371.65	187.24
371.84	152.13
372.04	32.77
372.24	93.62
372.44	112.35
372.63	128.73
372.83	86.60
373.03	93.62
373.22	39.79
373.42	194.26
373.62	105.32
373.81	198.95
374.01	191.92
374.21	184.90
374.40	161.50
374.60	166.18
374.79	110.01
374.99	145.11
375.19	124.05
375.38	145.11
375.58	114.69
375.78	81.92
375.97	117.03
376.17	126.39
376.37	173.20
376.56	95.96
376.76	56.17
376.95	84.26
377.15	105.32
377.35	117.03
377.54	117.03
377.74	138.09
377.93	161.50
378.13	175.54
378.33	145.11
378.52	105.32
378.72	88.94
378.91	191.92
379.11	145.11
379.31	112.35
379.50	44.47
379.70	168.52
379.89	149.79
380.09	147.45
380.28	67.88
380.48	70.22
380.68	135.75
380.87	145.11
381.07	205.97
381.26	156.82
381.46	159.16
381.65	107.66
381.85	86.60
382.04	145.11
382.24	84.26
382.43	107.66
382.63	154.48
382.83	21.06
383.02	149.79
383.22	65.54
383.41	135.75
383.61	93.62
383.80	175.54
384.00	142.77
384.19	126.39
384.39	105.32
384.58	91.28
384.78	81.92
384.97	35.11
385.17	161.50
385.36	126.39
385.56	208.31
385.75	147.45
385.95	135.75
386.14	86.60
386.34	161.50
386.53	102.98
386.72	79.58
386.92	32.77
387.11	77.24
387.31	166.18
387.50	72.56
387.70	98.30
387.89	142.77
388.09	117.03
388.28	100.64
388.48	100.64
388.67	161.50
388.86	105.32
389.06	105.32
389.25	133.41
389.45	63.19
389.64	72.56
389.84	60.85
390.03	131.07
390.22	91.28
390.42	81.92
390.61	67.88
390.81	124.05
391.00	168.52
391.19	142.77
391.39	149.79
391.58	81.92
391.78	105.32
391.97	88.94
392.16	128.73
392.36	102.98
392.55	194.26
392.75	189.58
392.94	117.03
393.13	121.71
393.33	39.79
393.52	74.90
393.71	196.60
393.91	105.32
394.10	112.35
394.29	51.49
394.49	42.13
394.68	135.75
394.88	110.01
395.07	119.37
395.26	154.48
395.46	154.48
395.65	138.09
395.84	121.71
396.04	114.69
396.23	135.75
396.42	121.71
396.62	70.22
396.81	196.60
397.00	102.98
397.19	149.79
397.39	79.58
397.58	126.39
397.77	88.94
397.97	131.07
398.16	107.66
398.35	161.50
398.55	154.48
398.74	168.52
398.93	180.22
399.12	117.03
399.32	135.75
399.51	93.62
399.70	88.94
399.90	110.01
400.09	100.64
400.28	126.39
400.47	128.73
400.67	65.54
400.86	117.03
401.05	140.43
401.24	173.20
401.44	248.10
401.63	147.45
401.82	166.18
402.01	98.30
402.21	161.50
402.40	114.69
402.59	72.56
402.78	168.52
402.97	114.69
403.17	220.01
403.36	234.05
403.55	308.95
403.74	472.79
403.93	1577.52
404.13	3548.25
404.32	4100.62
404.51	3438.25
404.70	2026.90
404.89	863.66
405.09	372.15
405.28	198.95
405.47	170.86
405.66	191.92
405.85	147.45
406.05	149.79
406.24	173.20
406.43	100.64
406.62	175.54
406.81	222.35
407.00	320.65
407.20	458.74
407.39	592.16
407.58	610.88
407.77	449.38
407.96	346.40
408.15	203.63
408.34	227.03
408.54	194.26
408.73	124.05
408.92	154.48
409.11	159.16
409.30	161.50
409.49	142.77
409.68	154.48
409.87	194.26
410.07	135.75
410.26	131.07
410.45	205.97
410.64	163.84
410.83	147.45
411.02	105.32
411.21	205.97
411.40	180.22
411.59	156.82
411.78	205.97
411.98	156.82
412.17	156.82
412.36	203.63
412.55	107.66
412.74	201.29
412.93	212.99
413.12	229.37
413.31	248.10
413.50	196.60
413.69	182.56
413.88	234.05
414.07	166.18
414.26	241.08
414.45	236.39
414.64	227.03
414.83	248.10
415.02	140.43
415.22	201.29
415.41	315.97
415.60	152.13
415.79	159.16
415.98	243.42
416.17	170.86
416.36	198.95
416.55	273.84
416.74	119.37
416.93	145.11
417.12	264.48
417.31	224.69
417.50	149.79
417.69	250.44
417.88	184.90
418.07	149.79
418.26	184.90
418.45	231.71
418.64	245.76
418.83	231.71
419.02	287.89
419.21	283.20
419.39	173.20
419.58	184.90
419.77	149.79
419.96	297.25
420.15	257.46
420.34	168.52
420.53	222.35
420.72	201.29
420.91	325.33
421.10	205.97
421.29	145.11
421.48	189.58
421.67	234.05
421.86	224.69
422.05	205.97
422.24	194.26
422.43	320.65
422.61	203.63
422.80	264.48
422.99	236.39
423.18	173.20
423.37	201.29
423.56	203.63
423.75	262.14
423.94	203.63
424.13	156.82
424.32	234.05
424.50	306.61
424.69	184.90
424.88	243.42
425.07	210.65
425.26	252.78
425.45	285.55
425.64	184.90
425.83	229.37
426.01	337.04
426.20	252.78
426.39	222.35
426.58	243.42
426.77	280.86
426.96	280.86
427.15	259.80
427.33	301.93
427.52	313.63
427.71	252.78
427.90	243.42
428.09	273.84
428.28	262.14
428.46	301.93
428.65	278.52
428.84	271.50
429.03	334.70
429.22	241.08
429.40	241.08
429.59	205.97
429.78	250.44
429.97	238.73
430.16	313.63
430.34	280.86
430.53	266.82
430.72	266.82
430.91	266.82
431.10	248.10
431.28	299.59
431.47	299.59
431.66	252.78
431.85	287.89
432.03	299.59
432.22	273.84
432.41	234.05
432.60	376.83
432.79	327.68
432.97	308.95
433.16	407.25
433.35	400.23
433.54	416.62
433.72	449.38
433.91	393.21
434.10	477.47
434.28	582.79
434.47	688.12
434.66	678.76
434.85	931.53
435.03	2658.85
435.22	9195.96
435.41	18689.18
435.59	17355.07
435.78	11257.98
435.97	5551.75
436.16	2284.36
436.34	814.51
436.53	566.41
436.72	564.07
436.90	383.85
437.09	374.49
437.28	386.19
437.46	358.10
437.65	330.02
437.84	386.19
438.02	402.57
438.21	355.76
438.40	353.42
438.58	304.27
438.77	355.76
438.96	341.72
439.14	266.82
439.33	344.06
439.52	353.42
439.70	285.55
439.89	269.16
440.08	315.97
440.26	353.42
440.45	341.72
440.63	376.83
440.82	311.29
441.01	409.59
441.19	273.84
441.38	400.23
441.57	276.18
441.75	402.57
441.94	287.89
442.12	358.10
442.31	294.91
442.50	290.23
442.68	318.31
442.87	365.12
443.05	262.14
443.24	393.21
443.43	451.72
443.61	381.51
443.80	365.12
443.98	299.59
444.17	304.27
444.35	358.10
444.54	376.83
444.73	297.25
444.91	266.82
445.10	404.91
445.28	315.97
445.47	334.70
445.65	358.10
445.84	311.29
446.02	369.80
446.21	367.46
446.39	304.27
446.58	306.61
446.77	334.70
446.95	297.25
447.14	374.49
447.32	315.97
447.51	416.62
447.69	367.46
447.88	374.49
448.06	376.83
448.25	297.25
448.43	306.61
448.62	278.52
448.80	353.42
448.99	393.21
449.17	285.55
449.36	327.68
449.54	362.78
449.73	351.08
449.91	379.17
450.10	334.70
450.28	414.27
450.46	397.89
450.65	395.55
450.83	344.06
451.02	259.80
451.20	334.70
451.39	330.02
451.57	311.29
451.76	390.87
451.94	292.57
452.13	365.12
452.31	294.91
452.49	379.17
452.68	250.44
452.86	358.10
453.05	397.89
453.23	276.18
453.42	297.25
453.60	322.99
453.78	344.06
453.97	322.99
454.15	313.63
454.34	273.84
454.52	283.20
454.70	306.61
454.89	346.40
455.07	304.27
455.26	278.52
455.44	325.33
455.62	306.61
455.81	283.20
455.99	367.46
456.17	348.74
456.36	334.70
456.54	241.08
456.73	344.06
456.91	411.93
457.09	358.10
457.28	390.87
457.46	348.74
457.64	355.76
457.83	292.57
458.01	318.31
458.19	360.44
458.38	379.17
458.56	355.76
458.74	313.63
458.93	276.18
459.11	255.12
459.29	315.97
459.48	337.04
459.66	404.91
459.84	330.02
460.03	414.27
460.21	355.76
460.39	388.53
460.57	320.65
460.76	334.70
460.94	341.72
461.12	407.25
461.31	325.33
461.49	353.42
461.67	250.44
461.85	264.48
462.04	332.36
462.22	447.04
462.40	313.63
462.59	390.87
462.77	325.33
462.95	297.25
463.13	334.70
463.32	341.72
463.50	320.65
463.68	367.46
463.86	337.04
464.05	358.10
464.23	327.68
464.41	280.86
464.59	273.84
464.78	404.91
464.96	299.59
465.14	339.38
465.32	308.95
465.50	308.95
465.69	358.10
465.87	285.55
466.05	290.23
466.23	308.95
466.41	306.61
466.60	337.04
466.78	327.68
466.96	362.78
467.14	306.61
467.32	423.64
467.51	411.93
467.69	325.33
467.87	362.78
468.05	236.39
468.23	308.95
468.41	320.65
468.60	315.97
468.78	353.42
468.96	404.91
469.14	381.51
469.32	297.25
469.50	308.95
469.69	339.38
469.87	348.74
470.05	231.71
470.23	348.74
470.41	315.97
470.59	259.80
470.77	292.57
470.95	313.63
471.14	339.38
471.32	245.76
471.50	358.10
471.68	355.76
471.86	273.84
472.04	236.39
472.22	271.50
472.40	285.55
472.58	341.72
472.77	351.08
472.95	358.10
473.13	341.72
473.31	379.17
473.49	360.44
473.67	269.16
473.85	351.08
474.03	390.87
474.21	402.57
474.39	393.21
474.57	299.59
474.75	355.76
474.93	330.02
475.12	344.06
475.30	334.70
475.48	386.19
475.66	276.18
475.84	248.10
476.02	304.27
476.20	271.50
476.38	313.63
476.56	414.27
476.74	383.85
476.92	330.02
477.10	351.08
477.28	383.85
477.46	395.55
477.64	376.83
477.82	348.74
478.00	386.19
478.18	327.68
478.36	418.96
478.54	365.12
478.72	351.08
478.90	337.04
479.08	397.89
479.26	362.78
479.44	367.46
479.62	322.99
479.80	416.62
479.98	437.68
480.16	423.64
480.34	442.36
480.52	493.85
480.70	489.17
480.88	498.53
481.06	512.58
481.24	458.74
481.41	592.16
481.59	606.20
481.77	507.90
481.95	622.58
482.13	723.23
482.31	709.18
482.49	739.61
482.67	833.23
482.85	746.63
483.03	819.19
483.21	936.21
483.39	910.47
483.57	863.66
483.74	1191.33
483.92	1132.82
484.10	1139.84
484.28	1252.19
484.46	1299.00
484.64	1364.53
484.82	1404.32
485.00	1486.24
485.18	1596.25
485.35	1736.68
485.53	1661.78
485.71	1785.83
485.89	1760.08
486.07	1827.96
486.25	2022.22
486.43	1944.99
486.61	1825.62
486.78	1963.71
486.96	1872.43
487.14	1942.64
487.32	1858.39
487.50	1895.83
487.68	1900.52
487.85	1795.19
488.03	1792.85
488.21	1863.07
488.39	1797.53
488.57	1788.17
488.75	1750.72
488.92	1921.58
489.10	1540.07
489.28	1640.72
489.46	1542.41
489.64	1502.62
489.81	1519.01
489.99	1462.83
490.17	1516.67
490.35	1579.86
490.53	1558.80
490.70	1427.73
490.88	1399.64
491.06	1472.20
491.24	1692.21
491.41	1659.44
491.59	1514.33
491.77	1394.96
491.95	1322.40
492.13	1343.47
492.30	1303.68
492.48	1427.73
492.66	1313.04
492.84	1320.06
493.01	1287.29
493.19	1214.74
493.37	1301.34
493.54	1231.12
493.72	1263.89
493.90	1217.08
494.08	1153.88
494.25	1153.88
494.43	1104.73
494.61	1188.99
494.79	1071.97
494.96	1050.90
495.14	1111.75
495.32	1086.01
495.49	1048.56
495.67	1104.73
495.85	1015.79
496.02	1013.45
496.20	997.07
496.38	1011.11
496.55	1008.77
496.73	997.07
496.91	1090.69
497.09	938.55
497.26	943.24
497.44	922.17
497.62	919.83
497.79	894.08
497.97	819.19
498.14	870.68
498.32	833.23
498.50	781.74
498.67	805.14
498.85	830.89
499.03	858.98
499.20	765.36
499.38	725.57
499.56	716.20
499.73	805.14
499.91	791.10
500.08	716.20
500.26	585.13
500.44	631.94
500.61	641.31
500.79	594.50
500.97	620.24
501.14	669.39
501.32	641.31
501.49	531.30
501.67	552.37
501.84	573.43
502.02	568.75
502.20	582.79
502.37	449.38
502.55	489.17
502.72	414.27
502.90	566.41
503.07	468.11
503.25	514.92
503.43	486.83
503.60	397.89
503.78	538.32
503.95	402.57
504.13	430.66
504.30	447.04
504.48	500.87
504.65	461.09
504.83	402.57
505.01	376.83
505.18	447.04
505.36	353.42
505.53	423.64
505.71	390.87
505.88	344.06
506.06	360.44
506.23	433.00
506.41	369.80
506.58	404.91
506.76	507.90
506.93	397.89
507.11	409.59
507.28	395.55
507.46	330.02
507.63	346.40
507.81	365.12
507.98	332.36
508.16	358.10
508.33	341.72
508.50	402.57
508.68	337.04
508.85	330.02
509.03	416.62
509.20	409.59
509.38	430.66
509.55	404.91
509.73	355.76
509.90	339.38
510.08	346.40
510.25	425.98
510.42	337.04
510.60	362.78
510.77	313.63
510.95	337.04
511.12	311.29
511.30	362.78
511.47	383.85
511.64	386.19
511.82	315.97
511.99	367.46
512.17	393.21
512.34	287.89
512.51	320.65
512.69	353.42
512.86	369.80
513.04	297.25
513.21	353.42
513.38	318.31
513.56	318.31
513.73	344.06
513.90	416.62
514.08	332.36
514.25	294.91
514.43	330.02
514.60	271.50
514.77	297.25
514.95	337.04
515.12	276.18
515.29	327.68
515.47	339.38
515.64	334.70
515.81	337.04
515.99	400.23
516.16	339.38
516.33	294.91
516.51	304.27
516.68	402.57
516.85	299.59
517.03	346.40
517.20	358.10
517.37	320.65
517.54	264.48
517.72	369.80
517.89	325.33
518.06	250.44
518.24	355.76
518.41	400.23
518.58	362.78
518.75	311.29
518.93	341.72
519.10	299.59
519.27	227.03
519.45	315.97
519.62	255.12
519.79	386.19
519.96	203.63
520.14	311.29
520.31	353.42
520.48	313.63
520.65	355.76
520.83	379.17
521.00	346.40
521.17	369.80
521.34	369.80
521.52	376.83
521.69	271.50
521.86	348.74
522.03	367.46
522.20	383.85
522.38	313.63
522.55	271.50
522.72	334.70
522.89	351.08
523.07	341.72
523.24	297.25
523.41	334.70
523.58	248.10
523.75	299.59
523.92	360.44
524.10	428.32
524.27	369.80
524.44	358.10
524.61	299.59
524.78	381.51
524.96	381.51
525.13	421.30
525.30	388.53
525.47	369.80
525.64	334.70
525.81	360.44
525.98	322.99
526.16	346.40
526.33	360.44
526.50	376.83
526.67	372.15
526.84	322.99
527.01	365.12
527.18	372.15
527.36	360.44
527.53	374.49
527.70	402.57
527.87	353.42
528.04	435.34
528.21	351.08
528.38	454.06
528.55	353.42
528.72	381.51
528.89	367.46
529.07	395.55
529.24	395.55
529.41	437.68
529.58	376.83
529.75	402.57
529.92	414.27
530.09	479.81
530.26	475.13
530.43	440.02
530.60	433.00
530.77	470.45
530.94	477.47
531.11	514.92
531.28	468.11
531.46	505.56
531.63	505.56
531.80	496.19
531.97	547.69
532.14	545.34
532.31	540.66
532.48	791.10
532.65	812.17
532.82	919.83
532.99	1095.37
533.16	1151.54
533.33	1200.69
533.50	1130.48
533.67	877.70
533.84	826.21
534.01	802.80
534.18	816.85
534.35	730.25
534.52	830.89
534.69	809.83
534.86	887.06
535.03	772.38
535.20	851.96
535.37	894.08
535.54	954.94
535.71	1083.67
535.88	1008.77
536.05	1048.56
536.22	1156.22
536.38	1275.59
536.55	1425.39
536.72	1462.83
536.89	1610.29
537.06	1781.15
537.23	1987.11
537.40	2073.71
537.57	2298.41
537.74	2251.60
537.91	2476.29
538.08	2525.44
538.25	2546.50
538.42	2546.50
538.59	2619.06
538.75	2736.09
538.92	2871.84
539.09	3225.26
539.26	3492.08
539.43	3950.82
539.60	4456.38
539.77	4915.12
539.94	5303.65
540.11	6015.18
540.28	6576.91
540.44	7225.23
540.61	8011.65
540.78	9172.56
540.95	10977.11
541.12	12807.41
541.29	14228.12
541.46	14878.79
541.62	14487.92
541.79	14317.06
541.96	13163.17
542.13	12145.04
542.30	11442.88
542.47	10693.91
542.63	10375.59
542.80	9996.43
542.97	9944.94
543.14	9790.46
543.31	9813.87
543.48	9713.22
543.64	10097.07
543.81	10115.80
543.98	10017.49
544.15	10104.09
544.32	10237.50
544.48	10218.78
544.65	9841.95
544.82	10218.78
544.99	10047.92
545.16	10111.11
545.32	10888.17
545.49	20622.46
545.66	35948.29
545.83	41024.91
546.00	33177.09
546.16	23016.83
546.33	16908.03
546.50	12924.44
546.67	10200.05
546.83	9055.53
547.00	8762.97
547.17	8262.09
547.34	7824.41
547.50	7559.93
547.67	7353.96
547.84	7063.74
548.00	6892.88
548.17	6644.78
548.34	6317.11
548.51	5849.00
548.67	5750.70
548.84	5591.54
549.01	5217.05
549.18	5125.77
549.34	4667.03
549.51	4788.74
549.68	4493.83
549.84	4414.25
550.01	4046.79
550.18	4030.40
550.34	3885.29
550.51	3721.45
550.68	3578.68
550.84	3295.47
551.01	3171.43
551.18	2911.63
551.34	2860.13
551.51	2806.30
551.68	2651.83
551.84	2532.46
552.01	2455.22
552.18	2300.75
552.34	2143.93
552.51	2052.65
552.68	2064.35
552.84	2064.35
553.01	1942.64
553.18	1783.49
553.34	1944.99
553.51	1834.98
553.67	1839.66
553.84	1673.48
554.01	1605.61
554.17	1373.89
554.34	1451.13
554.51	1275.59
554.67	1254.53
554.84	1266.23
555.00	1081.33
555.17	1050.90
555.33	1102.39
555.50	1018.13
555.67	929.19
555.83	882.38
556.00	819.19
556.16	1043.88
556.33	910.47
556.50	809.83
556.66	807.48
556.83	760.67
556.99	650.67
557.16	685.78
557.32	755.99
557.49	713.86
557.65	688.12
557.82	744.29
557.98	671.73
558.15	692.80
558.32	645.99
558.48	676.41
558.65	655.35
558.81	674.07
558.98	634.29
559.14	615.56
559.31	610.88
559.47	610.88
559.64	550.03
559.80	578.11
559.97	559.39
560.13	610.88
560.30	528.96
560.46	498.53
560.63	587.47
560.79	512.58
560.96	543.00
561.12	552.37
561.29	503.22
561.45	571.09
561.61	496.19
561.78	634.29
561.94	566.41
562.11	482.15
562.27	648.33
562.44	521.94
562.60	564.07
562.77	489.17
562.93	601.52
563.10	465.77
563.26	498.53
563.42	599.18
563.59	610.88
563.75	400.23
563.92	540.66
564.08	519.60
564.24	468.11
564.41	543.00
564.57	442.36
564.74	517.26
564.90	493.85
565.07	433.00
565.23	503.22
565.39	505.56
565.56	489.17
565.72	365.12
565.88	355.76
566.05	411.93
566.21	423.64
566.38	510.24
566.54	423.64
566.70	416.62
566.87	400.23
567.03	435.34
567.19	444.70
567.36	479.81
567.52	528.96
567.68	442.36
567.85	482.15
568.01	489.17
568.17	454.06
568.34	500.87
568.50	575.77
568.66	510.24
568.83	519.60
568.99	475.13
569.15	411.93
569.32	416.62
569.48	409.59
569.64	418.96
569.81	344.06
569.97	383.85
570.13	360.44
570.30	463.43
570.46	388.53
570.62	311.29
570.78	393.21
570.95	322.99
571.11	379.17
571.27	388.53
571.43	358.10
571.60	318.31
571.76	367.46
571.92	346.40
572.09	325.33
572.25	360.44
572.41	416.62
572.57	433.00
572.74	416.62
572.90	390.87
573.06	348.74
573.22	456.40
573.38	451.72
573.55	322.99
573.71	472.79
573.87	367.46
574.03	383.85
574.20	409.59
574.36	437.68
574.52	337.04
574.68	479.81
574.84	463.43
575.01	517.26
575.17	475.13
575.33	425.98
575.49	594.50
575.65	524.28
575.82	580.45
575.98	685.78
576.14	734.93
576.30	1373.89
576.46	4505.53
576.62	6841.39
576.79	6715.00
576.95	4901.08
577.11	3335.26
577.27	2275.00
577.43	1603.27
577.59	1095.37
577.75	933.87
577.92	786.42
578.08	877.70
578.24	940.90
578.40	1533.05
578.56	4299.56
578.72	6345.19
578.88	6509.03
579.04	4704.48
579.21	3258.03
579.37	2495.01
579.53	1949.67
579.69	2083.08
579.85	2480.97
580.01	2705.66
580.17	2473.95
580.33	2228.19
580.49	1944.99
580.65	1732.00
580.82	1558.80
580.98	1465.18
581.14	1605.61
581.30	1755.40
581.46	1846.68
581.62	2078.40
581.78	2083.08
581.94	2167.34
582.10	2244.57
582.26	2469.27
582.42	2548.84
582.58	2492.67
582.74	2551.18
582.90	2658.85
583.06	2565.23
583.22	2579.27
583.38	2616.72
583.54	2693.96
583.70	2597.99
583.86	2642.46
584.02	2619.06
584.18	2434.16
584.34	2483.31
584.50	2396.71
584.66	2377.98
584.82	2338.20
584.98	2436.50
585.14	2289.04
585.30	2377.98
585.46	2134.57
585.62	2246.91
585.78	2246.91
585.94	2160.31
586.10	2289.04
586.26	2450.54
586.42	2612.04
586.58	3290.79
586.74	4086.58
586.90	4540.64
587.06	4894.06
587.22	4718.52
587.38	4243.39
587.54	3653.58
587.70	3222.92
587.86	2684.59
588.02	2286.70
588.18	2066.69
588.34	1860.73
588.49	1790.51
588.65	1596.25
588.81	1643.06
588.97	1626.67
589.13	1579.86
589.29	1554.12
589.45	1497.94
589.61	1549.43
589.77	1523.69
589.93	1521.35
590.08	1467.52
590.24	1544.75
590.40	1575.18
590.56	1668.80
590.72	1753.06
590.88	1799.87
591.04	1846.68
591.20	1895.83
591.35	1980.09
591.51	2050.31
591.67	2099.46
591.83	2265.64
591.99	2443.52
592.15	2700.98
592.31	2832.05
592.46	3054.40
592.62	3365.69
592.78	3471.01
592.94	3604.42
593.10	3557.61
593.26	3281.43
593.41	3040.36
593.57	2733.75
593.73	2455.22
593.89	2246.91
594.05	1982.43
594.20	1914.56
594.36	1788.17
594.52	1593.90
594.68	1507.30
594.84	1472.20
594.99	1483.90
595.15	1413.68
595.31	1380.92
595.47	1369.21
595.62	1376.24
595.78	1306.02
595.94	1296.66
596.10	1425.39
596.25	1380.92
596.41	1378.58
596.57	1268.57
596.73	1380.92
596.88	1425.39
597.04	1366.87
597.20	1399.64
597.36	1448.79
597.51	1577.52
597.67	1479.22
597.83	1586.88
597.99	1593.90
598.14	1638.38
598.30	1811.57
598.46	1891.15
598.61	1996.48
598.77	1940.30
598.93	2165.00
599.09	2225.85
599.24	2129.89
599.40	2104.14
599.56	2193.08
599.71	2045.63
599.87	1912.22
600.03	1898.17
600.18	1781.15
600.34	1596.25
600.50	1483.90
600.65	1420.71
600.81	1334.11
600.97	1238.14
601.12	1217.08
601.28	1249.85
601.44	1116.44
601.59	1018.13
601.75	1032.18
601.91	954.94
602.06	1004.09
602.22	1095.37
602.37	1001.75
602.53	840.25
602.69	985.37
602.84	947.92
603.00	896.43
603.16	968.98
603.31	917.49
603.47	976.00
603.62	957.28
603.78	945.58
603.94	919.83
604.09	947.92
604.25	1086.01
604.40	1104.73
604.56	1071.97
604.71	987.71
604.87	1074.31
605.03	1107.07
605.18	1149.20
605.34	1233.46
605.49	1188.99
605.65	1160.91
605.80	1280.27
605.96	1294.32
606.12	1291.98
606.27	1390.28
606.43	1366.87
606.58	1453.47
