SpectraSuite Data File
++++++++++++++++++++++++++++++++++++
Date: Fri Oct 04 11:42:17 GMT-05:00 2013
User: price-jones
Dark Spectrum Present: No
Reference Spectrum Present: No
Number of Sampled Component Spectra: 1
Spectrometers: USB2+H05261
Integration Time (usec): 100000 (USB2+H05261)
Spectra Averaged: 1 (USB2+H05261)
Boxcar Smoothing: 0 (USB2+H05261)
Correct for Electrical Dark: No (USB2+H05261)
Strobe/Lamp Enabled: No (USB2+H05261)
Correct for Detector Non-linearity: No (USB2+H05261)
Correct for Stray Light: No (USB2+H05261)
Number of Pixels in Processed Spectrum: 2048
>>>>>Begin Processed Spectral Data<<<<<
365.73	53.83
365.92	53.83
366.12	53.83
366.32	0.00
366.52	0.00
366.72	0.00
366.91	0.00
367.11	0.00
367.31	0.00
367.51	0.00
367.70	0.00
367.90	0.00
368.10	0.00
368.30	0.00
368.49	0.00
368.69	0.00
368.89	16.38
369.09	0.00
369.28	0.00
369.48	0.00
369.68	0.00
369.87	21.06
370.07	9.36
370.27	39.79
370.47	187.24
370.66	475.13
370.86	613.22
371.06	739.61
371.25	683.44
371.45	660.03
371.65	650.67
371.84	629.60
372.04	638.97
372.24	730.25
372.44	758.33
372.63	669.39
372.83	690.46
373.03	493.85
373.22	608.54
373.42	559.39
373.62	723.23
373.81	753.65
374.01	655.35
374.21	718.54
374.40	638.97
374.60	683.44
374.79	664.71
374.99	791.10
375.19	901.11
375.38	882.38
375.58	753.65
375.78	798.12
375.97	835.57
376.17	894.08
376.37	805.14
376.56	830.89
376.76	966.64
376.95	908.13
377.15	1097.71
377.35	1055.58
377.54	1046.22
377.74	999.41
377.93	1064.94
378.13	1011.11
378.33	1004.09
378.52	954.94
378.72	847.27
378.91	931.53
379.11	929.19
379.31	847.27
379.50	772.38
379.70	987.71
379.89	959.62
380.09	985.37
380.28	1020.47
380.48	1004.09
380.68	968.98
380.87	931.53
381.07	910.47
381.26	1027.50
381.46	814.51
381.65	851.96
381.85	751.31
382.04	732.59
382.24	725.57
382.43	737.27
382.63	681.10
382.83	746.63
383.02	713.86
383.22	746.63
383.41	669.39
383.61	744.29
383.80	849.61
384.00	866.00
384.19	919.83
384.39	957.28
384.58	950.26
384.78	999.41
384.97	1015.79
385.17	954.94
385.36	882.38
385.56	866.00
385.75	929.19
385.95	947.92
386.14	1128.14
386.34	1060.26
386.53	1001.75
386.72	990.05
386.92	1090.69
387.11	1118.78
387.31	1043.88
387.50	992.39
387.70	976.00
387.89	973.66
388.09	1097.71
388.28	1013.45
388.48	987.71
388.67	1170.27
388.86	1249.85
389.06	1261.55
389.25	1231.12
389.45	1268.57
389.64	1263.89
389.84	1350.49
390.03	1221.76
390.22	1299.00
390.42	1383.26
390.61	1348.15
390.81	1472.20
391.00	1509.65
391.19	1439.43
391.39	1460.49
391.58	1366.87
391.78	1310.70
391.97	1277.93
392.16	1226.44
392.36	1179.63
392.55	931.53
392.75	816.85
392.94	678.76
393.13	645.99
393.33	753.65
393.52	837.91
393.71	1128.14
393.91	1149.20
394.10	1186.65
394.29	1280.27
394.49	1394.96
394.68	1596.25
394.88	1530.71
395.07	1528.37
395.26	1521.35
395.46	1535.39
395.65	1437.09
395.84	1247.51
396.04	1151.54
396.23	954.94
396.42	912.81
396.62	812.17
396.81	931.53
397.00	1149.20
397.19	1308.36
397.39	1488.58
397.58	1727.32
397.77	1769.44
397.97	1802.21
398.16	1823.28
398.35	1865.41
398.55	1994.14
398.74	2050.31
398.93	2064.35
399.12	2120.53
399.32	2062.01
399.51	2022.22
399.70	2111.16
399.90	2097.12
400.09	2160.31
400.28	2090.10
400.47	2132.23
400.67	2253.94
400.86	2150.95
401.05	2286.70
401.24	2183.72
401.44	2279.68
401.63	2307.77
401.82	2389.69
402.01	2167.34
402.21	2223.51
402.40	2349.90
402.59	2361.60
402.78	2221.17
402.97	2246.91
403.17	2251.60
403.36	2216.49
403.55	2401.39
403.74	2464.58
403.93	2399.05
404.13	2293.72
404.32	2202.44
404.51	2403.73
404.70	2427.14
404.89	2392.03
405.09	2370.96
405.28	2312.45
405.47	2204.78
405.66	2186.06
405.85	2216.49
406.05	2155.63
406.24	2202.44
406.43	2272.66
406.62	2326.49
406.81	2490.33
407.00	2275.00
407.20	2253.94
407.39	2197.76
407.58	2312.45
407.77	2464.58
407.96	2562.89
408.15	2480.97
408.34	2483.31
408.54	2567.57
408.73	2827.37
408.92	2588.63
409.11	2495.01
409.30	2509.05
409.49	2408.41
409.68	2225.85
409.87	2190.74
410.07	2204.78
410.26	2385.01
410.45	2401.39
410.64	2588.63
410.83	2635.44
411.02	2600.34
411.21	2782.90
411.40	2679.91
411.59	2820.35
411.78	2766.51
411.98	2731.41
412.17	2731.41
412.36	2633.10
412.55	2773.53
412.74	2616.72
412.93	2682.25
413.12	2696.30
413.31	2839.07
413.50	2836.73
413.69	2775.88
413.88	2829.71
414.07	2658.85
414.26	2881.20
414.45	2878.86
414.64	2885.88
414.83	2881.20
415.02	2722.04
415.22	2935.03
415.41	2913.97
415.60	2991.20
415.79	3049.72
415.98	3138.66
416.17	3063.76
416.36	3045.04
416.55	2874.18
416.74	2998.23
416.93	2822.69
417.12	2771.19
417.31	2820.35
417.50	2878.86
417.69	3014.61
417.88	3012.27
418.07	2906.95
418.26	2958.44
418.45	2920.99
418.64	3049.72
418.83	3056.74
419.02	3063.76
419.21	3169.09
419.39	2895.24
419.58	2794.60
419.77	2813.32
419.96	2991.20
420.15	3173.77
420.34	3232.28
420.53	3272.07
420.72	3316.54
420.91	3295.47
421.10	3286.11
421.29	3150.36
421.48	3194.83
421.67	3262.71
421.86	3281.43
422.05	3030.99
422.24	2719.70
422.43	2738.43
422.61	2942.05
422.80	3026.31
422.99	3131.64
423.18	3098.87
423.37	2930.35
423.56	2981.84
423.75	3070.78
423.94	3141.00
424.13	2888.22
424.32	3023.97
424.50	2946.73
424.69	3023.97
424.88	2977.16
425.07	3049.72
425.26	2874.18
425.45	2843.75
425.64	2890.56
425.83	2925.67
426.01	3012.27
426.20	3023.97
426.39	3145.68
426.58	2848.43
426.77	2710.34
426.96	2619.06
427.15	2731.41
427.33	2862.48
427.52	3063.76
427.71	3000.57
427.90	2928.01
428.09	2794.60
428.28	2796.94
428.46	2848.43
428.65	2799.28
428.84	2724.38
429.03	2979.50
429.22	2799.28
429.40	2672.89
429.59	2324.15
429.78	2186.06
429.97	2033.93
430.16	2143.93
430.34	2165.00
430.53	2204.78
430.72	2265.64
430.91	2438.84
431.10	2764.17
431.28	3169.09
431.47	3403.14
431.66	3534.21
431.85	3133.98
432.03	2972.48
432.22	3077.80
432.41	2916.31
432.60	3150.36
432.79	3384.41
432.97	3344.63
433.16	3342.28
433.35	3136.32
433.54	2862.48
433.72	2649.49
433.91	2736.09
434.10	3019.29
434.28	3262.71
434.47	3272.07
434.66	3286.11
434.85	3236.96
435.03	3307.18
435.22	3585.70
435.41	3754.22
435.59	3953.16
435.78	3861.88
435.97	3754.22
436.16	3672.30
436.34	3632.51
436.53	3566.98
436.72	3393.78
436.90	3323.56
437.09	3372.71
437.28	3384.41
437.46	3522.51
437.65	3384.41
437.84	3241.64
438.02	2960.78
438.21	2787.58
438.40	2953.76
438.58	3349.31
438.77	3335.26
438.96	3524.85
439.14	3454.63
439.33	3726.13
439.52	3698.05
439.70	3639.53
439.89	3482.72
440.08	3440.59
440.26	3372.71
440.45	3473.36
440.63	3777.62
440.82	3960.19
441.01	3969.55
441.19	3808.05
441.38	3873.59
441.57	4030.40
441.75	4184.88
441.94	4070.19
442.12	4002.32
442.31	3992.95
442.50	4007.00
442.68	4018.70
442.87	4039.76
443.05	4032.74
443.24	3934.44
443.43	4093.60
443.61	4212.96
443.80	4283.18
443.98	3887.63
444.17	4018.70
444.35	4224.67
444.54	4222.33
444.73	4222.33
444.91	4109.98
445.10	3962.53
445.28	3625.49
445.47	3684.00
445.65	3735.50
445.84	3770.60
446.02	3901.67
446.21	4051.47
446.39	4023.38
446.58	4093.60
446.77	4245.73
446.95	4095.94
447.14	4219.99
447.32	4304.25
447.51	4168.49
447.69	4182.54
447.88	4004.66
448.06	4070.19
448.25	4145.09
448.43	4105.30
448.62	4028.06
448.80	4039.76
448.99	4065.51
449.17	4376.80
449.36	4112.32
449.54	4229.35
449.73	4313.61
449.91	4273.82
450.10	4545.32
450.28	4622.56
450.46	4437.66
450.65	4566.39
450.83	4585.11
451.02	4404.89
451.20	4444.68
451.39	4465.74
451.57	4243.39
451.76	4425.95
451.94	4315.95
452.13	4257.43
452.31	4168.49
452.49	4107.64
452.68	3880.61
452.86	3927.42
453.05	4109.98
453.23	4191.90
453.42	4227.01
453.60	4187.22
453.78	4339.35
453.97	4177.86
454.15	4290.20
454.34	4152.11
454.52	4049.13
454.70	4009.34
454.89	4234.03
455.07	4189.56
455.26	4250.41
455.44	4414.25
455.62	4491.49
455.81	4500.85
455.99	4379.14
456.17	4423.61
456.36	4542.98
456.54	4533.62
456.73	4496.17
456.91	4603.83
457.09	4599.15
457.28	4912.78
457.46	4559.36
457.64	4430.63
457.83	4379.14
458.01	4379.14
458.19	4510.21
458.38	4329.99
458.56	4503.19
458.74	4573.41
458.93	4416.59
459.11	4423.61
459.29	4313.61
459.48	4397.87
459.66	4533.62
459.84	4514.89
460.03	4557.02
460.21	4542.98
460.39	4489.15
460.57	4676.39
460.76	4566.39
460.94	4765.33
461.12	4868.31
461.31	4805.12
461.49	4699.80
461.67	4664.69
461.85	4634.26
462.04	4681.07
462.22	4798.10
462.40	4896.40
462.59	4737.24
462.77	4739.58
462.95	4713.84
463.13	4758.31
463.32	4685.75
463.50	4578.09
463.68	4601.49
463.86	4533.62
464.05	4444.68
464.23	4552.34
464.41	4404.89
464.59	4367.44
464.78	4482.13
464.96	4615.54
465.14	4517.23
465.32	4505.53
465.50	4856.61
465.69	4800.44
465.87	4636.60
466.05	4491.49
466.23	4292.54
466.41	4339.35
466.60	4416.59
466.78	4414.25
466.96	4454.04
467.14	4416.59
467.32	4568.73
467.51	4580.43
467.69	4381.48
467.87	4386.16
468.05	4421.27
468.23	4704.48
468.41	4447.02
468.60	4683.41
468.78	4599.15
468.96	4559.36
469.14	4615.54
469.32	4613.20
469.50	4507.87
469.69	4634.26
469.87	4311.27
470.05	4390.84
470.23	4390.84
470.41	4430.63
470.59	4360.42
470.77	4505.53
470.95	4505.53
471.14	4732.56
471.32	4479.79
471.50	4849.59
471.68	5020.45
471.86	5018.11
472.04	4880.02
472.22	4947.89
472.40	4786.40
472.58	4573.41
472.77	4585.11
472.95	4704.48
473.13	4947.89
473.31	4720.86
473.49	4807.46
473.67	4784.06
473.85	4835.55
474.03	4938.53
474.21	5095.35
474.39	5181.95
474.57	5097.69
474.75	5036.83
474.93	4901.08
475.12	4945.55
475.30	4971.30
475.48	4931.51
475.66	4957.25
475.84	4868.31
476.02	4786.40
476.20	4650.64
476.38	4849.59
476.56	5046.20
476.74	5144.50
476.92	5053.22
477.10	5153.86
477.28	5352.81
477.46	5259.18
477.64	5341.10
477.82	5558.77
478.00	5490.90
478.18	5364.51
478.36	5408.98
478.54	5441.75
478.72	5383.23
478.90	5441.75
479.08	5577.50
479.26	5802.19
479.44	5750.70
479.62	5708.57
479.80	5687.50
479.98	5813.89
480.16	5846.66
480.34	5774.10
480.52	5802.19
480.70	6059.65
480.88	5746.02
481.06	5959.00
481.24	5987.09
481.41	5989.43
481.59	6029.22
481.77	6155.61
481.95	6031.56
482.13	6083.05
482.31	6190.72
482.49	6120.50
482.67	6225.82
482.85	6047.94
483.03	6179.01
483.21	6157.95
483.39	6370.94
483.57	6228.17
483.74	6183.70
483.92	6284.34
484.10	6413.07
484.28	6256.25
484.46	6579.25
484.64	6445.84
484.82	6284.34
485.00	6251.57
485.18	6174.33
485.35	6050.28
485.53	5619.63
485.71	5247.48
485.89	5158.54
486.07	5165.56
486.25	5591.54
486.43	5940.28
486.61	6104.12
486.78	6052.63
486.96	6080.71
487.14	6375.62
487.32	6574.56
487.50	6661.16
487.68	6946.71
487.85	6958.41
488.03	6839.05
488.21	6862.45
488.39	6832.02
488.57	6743.08
488.75	6586.27
488.92	7122.25
489.10	7082.46
489.28	7363.33
489.46	7545.89
489.64	7595.04
489.81	7651.21
489.99	7641.85
490.17	7585.68
490.35	7691.00
490.53	7595.04
490.70	7604.40
490.88	7368.01
491.06	7662.91
491.24	7721.43
491.41	7473.33
491.59	7077.78
491.77	7005.22
491.95	7037.99
492.13	7316.51
492.30	7796.32
492.48	7932.08
492.66	7887.61
492.84	8006.97
493.01	7969.52
493.19	7801.01
493.37	7817.39
493.54	7602.06
493.72	7925.05
493.90	7908.67
494.08	8315.92
494.25	8278.47
494.43	8320.60
494.61	8571.04
494.79	8280.82
494.96	8610.83
495.14	8367.42
495.32	8102.93
495.49	7859.52
495.67	8290.18
495.85	8430.61
496.02	8547.64
496.20	8800.41
496.38	8432.95
496.55	8423.59
496.73	8650.62
496.91	8723.18
497.09	8875.31
497.26	8889.35
497.44	8767.65
497.62	8805.10
497.79	8374.44
497.97	7817.39
498.14	8149.75
498.32	8369.76
498.50	8608.49
498.67	8755.94
498.85	8650.62
499.03	8842.54
499.20	8622.53
499.38	8772.33
499.56	8723.18
499.73	8685.73
499.91	8463.38
500.08	8446.99
500.26	8196.56
500.44	8306.56
500.61	8468.06
500.79	8334.65
500.97	8276.13
501.14	8290.18
501.32	8222.30
501.49	8170.81
501.67	8098.25
501.84	8238.69
502.02	8425.93
502.20	8521.89
502.37	8704.45
502.55	8704.45
502.72	8753.60
502.90	8908.08
503.07	8505.51
503.25	8446.99
503.43	8042.08
503.60	7882.92
503.78	7789.30
503.95	7868.88
504.13	8259.75
504.30	8674.03
504.48	8720.84
504.65	8585.08
504.83	8798.07
505.01	8905.74
505.18	8882.33
505.36	9219.37
505.53	8826.16
505.71	9095.32
505.88	9158.52
506.06	9022.77
506.23	9195.96
506.41	8737.22
506.58	8800.41
506.76	8910.42
506.93	8809.78
507.11	8912.76
507.28	8709.13
507.46	8709.13
507.63	8514.87
507.81	8486.78
507.98	8573.38
508.16	8732.54
508.33	9036.81
508.50	9013.40
508.68	8997.02
508.85	9380.87
509.03	9322.35
509.20	9378.53
509.38	9015.74
509.55	8688.07
509.73	8922.12
509.90	9097.66
510.08	9149.15
510.25	8971.27
510.42	9219.37
510.60	9156.18
510.77	9095.32
510.95	9394.91
511.12	9474.49
511.30	9418.32
511.47	9523.64
511.64	9540.02
511.82	9572.79
511.99	9121.07
512.17	8830.84
512.34	9095.32
512.51	8980.64
512.69	8915.10
512.86	9053.19
513.04	9392.57
513.21	9228.73
513.38	9366.82
513.56	8994.68
513.73	8947.87
513.90	8826.16
514.08	8706.79
514.25	9018.08
514.43	9060.21
514.60	9027.45
514.77	9221.71
514.95	9322.35
515.12	9013.40
515.29	9135.11
515.47	9284.91
515.64	9525.98
515.81	9413.63
515.99	9240.44
516.16	8720.84
516.33	8226.98
516.51	7779.94
516.68	7569.29
516.85	7447.58
517.03	7243.96
517.20	8067.83
517.37	8905.74
517.54	9193.62
517.72	9128.09
517.89	8442.31
518.06	7674.62
518.24	7838.45
518.41	8430.61
518.58	8589.77
518.75	8685.73
518.93	8966.59
519.10	8915.10
519.27	8842.54
519.45	9053.19
519.62	8945.53
519.79	9261.50
519.96	9317.67
520.14	9273.20
520.31	8971.27
520.48	8762.97
520.65	8912.76
520.83	9277.88
521.00	9415.98
521.17	9142.13
521.34	9048.51
521.52	9013.40
521.69	9455.76
521.86	9530.66
522.03	9462.79
522.20	9083.62
522.38	8751.26
522.55	8943.19
522.72	8854.25
522.89	9053.19
523.07	9263.84
523.24	9170.22
523.41	9472.15
523.58	9680.46
523.75	9678.12
523.92	9586.83
524.10	9659.39
524.27	9500.23
524.44	9467.47
524.61	9584.49
524.78	9303.63
524.96	9467.47
525.13	9357.46
525.30	9511.94
525.47	9802.16
525.64	9469.81
525.81	9448.74
525.98	9158.52
526.16	8517.21
526.33	8311.24
526.50	8184.85
526.67	8203.58
526.84	8264.43
527.01	8624.87
527.18	8833.18
527.36	8959.57
527.53	9240.44
527.70	9516.62
527.87	9378.53
528.04	9144.47
528.21	9261.50
528.38	9673.43
528.55	9968.34
528.72	9682.80
528.89	9907.49
529.07	9895.78
529.24	9708.54
529.41	9387.89
529.58	9221.71
529.75	8966.59
529.92	9404.27
530.09	9657.05
530.26	9720.24
530.43	9715.56
530.60	9750.67
530.77	9961.32
530.94	9891.10
531.11	9657.05
531.28	9673.43
531.46	9469.81
531.63	9781.10
531.80	9521.30
531.97	9413.63
532.14	9331.72
532.31	8833.18
532.48	8821.48
532.65	8667.00
532.82	8922.12
532.99	9329.38
533.16	9432.36
533.33	9551.73
533.50	9682.80
533.67	9408.95
533.84	9200.65
534.01	9380.87
534.18	9413.63
534.35	9291.93
534.52	9315.33
534.69	9444.06
534.86	9469.81
535.03	9551.73
535.20	9741.31
535.37	9998.77
535.54	9937.91
535.71	9827.91
535.88	9703.86
536.05	9376.19
536.22	9366.82
536.38	9380.87
536.55	9167.88
536.72	9135.11
536.89	8879.99
537.06	9167.88
537.23	9275.54
537.40	9446.40
537.57	9493.21
537.74	9472.15
537.91	9551.73
538.08	9474.49
538.25	9373.85
538.42	9617.26
538.59	9710.88
538.75	9221.71
538.92	9184.26
539.09	9048.51
539.26	8980.64
539.43	9174.90
539.60	9273.20
539.77	9085.96
539.94	9200.65
540.11	9057.87
540.28	8753.60
540.44	8645.94
540.61	8777.01
540.78	9092.98
540.95	9156.18
541.12	9289.59
541.29	9298.95
541.46	9425.34
541.62	9760.03
541.79	9411.29
541.96	9352.78
542.13	9231.07
542.30	9310.65
542.47	9310.65
542.63	9294.27
542.80	9418.32
542.97	9399.59
543.14	9125.75
543.31	9322.35
543.48	9378.53
543.64	9720.24
543.81	9823.23
543.98	9741.31
544.15	9568.11
544.32	9378.53
544.48	9343.42
544.65	9502.58
544.82	9638.33
544.99	9460.45
545.16	9563.43
545.32	9275.54
545.49	9722.59
545.66	10406.02
545.83	10235.16
546.00	10073.67
546.16	9568.11
546.33	9479.17
546.50	9263.84
546.67	9460.45
546.83	9364.48
547.00	9284.91
547.17	9252.14
547.34	8863.61
547.50	8903.40
547.67	9039.15
547.84	8910.42
548.00	9195.96
548.17	9397.25
548.34	9238.09
548.51	9394.91
548.67	9165.54
548.84	9240.44
549.01	9472.15
549.18	9259.16
549.34	9167.88
549.51	9186.60
549.68	9081.28
549.84	9191.28
550.01	9107.02
550.18	9228.73
550.34	9064.89
550.51	9055.53
550.68	9266.18
550.84	9060.21
551.01	8987.66
551.18	8903.40
551.34	8997.02
551.51	9085.96
551.68	9212.35
551.84	9256.82
552.01	9364.48
552.18	9191.28
552.34	9109.36
552.51	8910.42
552.68	8699.77
552.84	8905.74
553.01	8922.12
553.18	8992.34
553.34	9055.53
553.51	8982.98
553.67	9179.58
553.84	9233.41
554.01	9116.39
554.17	9212.35
554.34	9090.64
554.51	9095.32
554.67	8999.36
554.84	8985.32
555.00	9008.72
555.17	9078.94
555.33	8945.53
555.50	9102.34
555.67	9006.38
555.83	8894.04
556.00	8954.89
556.16	9015.74
556.33	8606.15
556.50	8566.36
556.66	8538.27
556.83	8589.77
556.99	8542.96
557.16	8547.64
557.32	8753.60
557.49	8720.84
557.65	8596.79
557.82	8716.16
557.98	8718.50
558.15	8381.46
558.32	8545.30
558.48	8266.77
558.65	8149.75
558.81	8358.05
558.98	8234.00
559.14	8407.20
559.31	8517.21
559.47	8437.63
559.64	8276.13
559.80	8320.60
559.97	8229.32
560.13	8400.18
560.30	8636.58
560.46	8828.50
560.63	8765.31
560.79	8908.08
560.96	8652.96
561.12	8636.58
561.29	8341.67
561.45	8023.36
561.61	8454.02
561.78	8287.84
561.94	8416.57
562.11	8329.97
562.27	8491.46
562.44	8526.57
562.60	8493.80
562.77	8805.10
562.93	8503.17
563.10	8636.58
563.26	8339.33
563.42	8334.65
563.59	8116.98
563.75	8234.00
563.92	8386.14
564.08	8346.35
564.24	8259.75
564.41	8444.65
564.57	8360.39
564.74	8348.69
564.90	8374.44
565.07	8311.24
565.23	8189.53
565.39	8056.12
565.56	7801.01
565.72	7997.61
565.88	7878.24
566.05	7824.41
566.21	8131.02
566.38	8053.78
566.54	8088.89
566.70	8091.23
566.87	8152.09
567.03	8236.35
567.19	8252.73
567.36	8180.17
567.52	8102.93
567.68	7955.48
567.85	7911.01
568.01	7686.32
568.17	7611.42
568.34	7606.74
568.50	7562.27
568.66	7620.78
568.83	7831.43
568.99	7620.78
569.15	7599.72
569.32	7686.32
569.48	7552.91
569.64	7566.95
569.81	7496.74
569.97	7576.31
570.13	7815.05
570.30	7763.56
570.46	7513.12
570.62	7290.77
570.78	7356.30
570.95	7281.41
571.11	7566.95
571.27	7297.79
571.43	7555.25
571.60	7676.96
571.76	7524.82
571.92	7723.77
572.09	7599.72
572.25	7627.81
572.41	7662.91
572.57	7531.84
572.74	7646.53
572.90	7653.55
573.06	7679.30
573.22	7679.30
573.38	7545.89
573.55	7555.25
573.71	7487.37
573.87	7662.91
574.03	7735.47
574.20	7473.33
574.36	7564.61
574.52	7463.97
574.68	7564.61
574.84	7499.08
575.01	7222.89
575.17	7297.79
575.33	7279.07
575.49	7447.58
575.65	7260.34
575.82	7215.87
575.98	7178.42
576.14	7398.43
576.30	7482.69
576.46	7569.29
576.62	7779.94
576.79	7576.31
576.95	7492.05
577.11	7445.24
577.27	7304.81
577.43	7595.04
577.59	7541.21
577.75	7286.09
577.92	7084.80
578.08	6942.03
578.24	7122.25
578.40	7368.01
578.56	7197.15
578.72	7405.46
578.88	7534.18
579.04	7496.74
579.21	7302.47
579.37	7293.11
579.53	7522.48
579.69	7288.43
579.85	7386.73
580.01	7576.31
580.17	7339.92
580.33	7496.74
580.49	7545.89
580.65	7541.21
580.82	7332.90
580.98	7442.90
581.14	7330.56
581.30	7330.56
581.46	7304.81
581.62	7494.40
581.78	7412.48
581.94	7536.52
582.10	7520.14
582.26	7445.24
582.42	7653.55
582.58	7634.83
582.74	7667.60
582.90	7510.78
583.06	7431.20
583.22	7426.52
583.38	7508.44
583.54	7695.68
583.70	7403.11
583.86	7414.82
584.02	7363.33
584.18	7496.74
584.34	7260.34
584.50	7501.42
584.66	7426.52
584.82	7342.26
584.98	7431.20
585.14	7110.55
585.30	7115.23
585.46	7026.29
585.62	7063.74
585.78	7033.31
585.94	7042.67
586.10	7115.23
586.26	7056.72
586.42	7117.57
586.58	6902.24
586.74	7232.26
586.90	7040.33
587.06	7056.72
587.22	7052.03
587.38	6867.13
587.54	6698.61
587.70	6553.50
587.86	6373.28
588.02	6258.59
588.18	6090.07
588.34	5923.90
588.49	5486.22
588.65	5397.28
588.81	5097.69
588.97	5067.26
589.13	5214.71
589.29	5282.59
589.45	5109.39
589.61	5149.18
589.77	5486.22
589.93	5617.29
590.08	5870.06
590.24	6069.01
590.40	5989.43
590.56	5942.62
590.72	6141.57
590.88	6019.86
591.04	5912.19
591.20	5893.47
591.35	5827.93
591.51	5966.03
591.67	5722.61
591.83	5769.42
591.99	5738.99
592.15	5778.78
592.31	5956.66
592.46	6061.99
592.62	6197.74
592.78	6235.19
592.94	6160.29
593.10	6204.76
593.26	6333.49
593.41	6410.73
593.57	6413.07
593.73	6155.61
593.89	5909.85
594.05	5586.86
594.20	5509.62
594.36	5383.23
594.52	5521.32
594.68	5523.66
594.84	5804.53
594.99	5884.11
595.15	6239.87
595.31	6160.29
595.47	5963.68
595.62	6066.67
595.78	6230.51
595.94	6244.55
596.10	6087.73
596.25	6244.55
596.41	5928.58
596.57	5813.89
596.73	6120.50
596.88	6223.48
597.04	6143.91
597.20	6092.41
