SpectraSuite Data File
++++++++++++++++++++++++++++++++++++
Date: Fri Oct 04 11:41:42 GMT-05:00 2013
User: price-jones
Dark Spectrum Present: No
Reference Spectrum Present: No
Number of Sampled Component Spectra: 1
Spectrometers: USB2+H05261
Integration Time (usec): 100000 (USB2+H05261)
Spectra Averaged: 1 (USB2+H05261)
Boxcar Smoothing: 0 (USB2+H05261)
Correct for Electrical Dark: No (USB2+H05261)
Strobe/Lamp Enabled: No (USB2+H05261)
Correct for Detector Non-linearity: No (USB2+H05261)
Correct for Stray Light: No (USB2+H05261)
Number of Pixels in Processed Spectrum: 2048
>>>>>Begin Processed Spectral Data<<<<<
365.73	37.45
365.92	37.45
366.12	37.45
366.32	0.00
366.52	0.00
366.72	4.68
366.91	0.00
367.11	0.00
367.31	0.00
367.51	0.00
367.70	0.00
367.90	0.00
368.10	0.00
368.30	0.00
368.49	0.00
368.69	0.00
368.89	9.36
369.09	0.00
369.28	0.00
369.48	0.00
369.68	0.00
369.87	0.00
370.07	0.00
370.27	0.00
370.47	2.34
370.66	0.00
370.86	102.98
371.06	98.30
371.25	79.58
371.45	110.01
371.65	70.22
371.84	107.66
372.04	117.03
372.24	67.88
372.44	170.86
372.63	102.98
372.83	145.11
373.03	107.66
373.22	126.39
373.42	117.03
373.62	145.11
373.81	161.50
374.01	147.45
374.21	196.60
374.40	112.35
374.60	212.99
374.79	84.26
374.99	138.09
375.19	128.73
375.38	173.20
375.58	156.82
375.78	128.73
375.97	124.05
376.17	156.82
376.37	95.96
376.56	163.84
376.76	72.56
376.95	112.35
377.15	161.50
377.35	168.52
377.54	135.75
377.74	110.01
377.93	42.13
378.13	173.20
378.33	79.58
378.52	117.03
378.72	236.39
378.91	149.79
379.11	105.32
379.31	98.30
379.50	114.69
379.70	175.54
379.89	145.11
380.09	110.01
380.28	88.94
380.48	119.37
380.68	121.71
380.87	95.96
381.07	102.98
381.26	124.05
381.46	119.37
381.65	170.86
381.85	56.17
382.04	49.15
382.24	28.09
382.43	180.22
382.63	95.96
382.83	215.33
383.02	229.37
383.22	266.82
383.41	74.90
383.61	133.41
383.80	161.50
384.00	168.52
384.19	74.90
384.39	156.82
384.58	105.32
384.78	88.94
384.97	117.03
385.17	161.50
385.36	49.15
385.56	145.11
385.75	138.09
385.95	84.26
386.14	131.07
386.34	88.94
386.53	114.69
386.72	98.30
386.92	217.67
387.11	161.50
387.31	170.86
387.50	121.71
387.70	105.32
387.89	147.45
388.09	53.83
388.28	145.11
388.48	91.28
388.67	149.79
388.86	140.43
389.06	121.71
389.25	138.09
389.45	142.77
389.64	138.09
389.84	145.11
390.03	135.75
390.22	126.39
390.42	98.30
390.61	79.58
390.81	110.01
391.00	135.75
391.19	131.07
391.39	105.32
391.58	105.32
391.78	131.07
391.97	177.88
392.16	110.01
392.36	77.24
392.55	91.28
392.75	152.13
392.94	93.62
393.13	177.88
393.33	243.42
393.52	91.28
393.71	156.82
393.91	117.03
394.10	72.56
394.29	149.79
394.49	156.82
394.68	166.18
394.88	140.43
395.07	149.79
395.26	135.75
395.46	149.79
395.65	173.20
395.84	110.01
396.04	184.90
396.23	250.44
396.42	201.29
396.62	105.32
396.81	95.96
397.00	168.52
397.19	196.60
397.39	133.41
397.58	180.22
397.77	215.33
397.97	133.41
398.16	205.97
398.35	112.35
398.55	142.77
398.74	173.20
398.93	149.79
399.12	86.60
399.32	152.13
399.51	147.45
399.70	182.56
399.90	114.69
400.09	156.82
400.28	227.03
400.47	168.52
400.67	98.30
400.86	177.88
401.05	177.88
401.24	203.63
401.44	215.33
401.63	220.01
401.82	224.69
402.01	166.18
402.21	205.97
402.40	229.37
402.59	180.22
402.78	229.37
402.97	205.97
403.17	187.24
403.36	189.58
403.55	299.59
403.74	613.22
403.93	1982.43
404.13	4662.35
404.32	6246.89
404.51	5610.26
404.70	3349.31
404.89	1252.19
405.09	524.28
405.28	283.20
405.47	166.18
405.66	245.76
405.85	184.90
406.05	182.56
406.24	145.11
406.43	245.76
406.62	250.44
406.81	362.78
407.00	351.08
407.20	617.90
407.39	896.43
407.58	917.49
407.77	657.69
407.96	437.68
408.15	248.10
408.34	159.16
408.54	257.46
408.73	184.90
408.92	229.37
409.11	203.63
409.30	229.37
409.49	182.56
409.68	124.05
409.87	180.22
410.07	182.56
410.26	124.05
410.45	201.29
410.64	210.65
410.83	184.90
411.02	189.58
411.21	250.44
411.40	184.90
411.59	198.95
411.78	161.50
411.98	177.88
412.17	252.78
412.36	203.63
412.55	220.01
412.74	255.12
412.93	290.23
413.12	238.73
413.31	182.56
413.50	266.82
413.69	257.46
413.88	266.82
414.07	201.29
414.26	238.73
414.45	182.56
414.64	180.22
414.83	212.99
415.02	217.67
415.22	201.29
415.41	194.26
415.60	142.77
415.79	203.63
415.98	245.76
416.17	271.50
416.36	245.76
416.55	245.76
416.74	287.89
416.93	250.44
417.12	229.37
417.31	245.76
417.50	243.42
417.69	276.18
417.88	201.29
418.07	191.92
418.26	189.58
418.45	166.18
418.64	217.67
418.83	189.58
419.02	278.52
419.21	252.78
419.39	229.37
419.58	229.37
419.77	292.57
419.96	283.20
420.15	301.93
420.34	229.37
420.53	262.14
420.72	273.84
420.91	278.52
421.10	259.80
421.29	322.99
421.48	255.12
421.67	280.86
421.86	205.97
422.05	255.12
422.24	276.18
422.43	276.18
422.61	276.18
422.80	252.78
422.99	257.46
423.18	201.29
423.37	266.82
423.56	290.23
423.75	322.99
423.94	259.80
424.13	266.82
424.32	203.63
424.50	273.84
424.69	320.65
424.88	301.93
425.07	283.20
425.26	332.36
425.45	315.97
425.64	287.89
425.83	320.65
426.01	330.02
426.20	322.99
426.39	330.02
426.58	386.19
426.77	201.29
426.96	346.40
427.15	227.03
427.33	332.36
427.52	344.06
427.71	362.78
427.90	318.31
428.09	325.33
428.28	369.80
428.46	388.53
428.65	330.02
428.84	325.33
429.03	379.17
429.22	248.10
429.40	315.97
429.59	266.82
429.78	369.80
429.97	292.57
430.16	341.72
430.34	292.57
430.53	383.85
430.72	348.74
430.91	386.19
431.10	381.51
431.28	292.57
431.47	372.15
431.66	344.06
431.85	351.08
432.03	388.53
432.22	428.32
432.41	407.25
432.60	418.96
432.79	451.72
432.97	442.36
433.16	496.19
433.35	451.72
433.54	566.41
433.72	627.26
433.91	606.20
434.10	674.07
434.28	809.83
434.47	809.83
434.66	884.72
434.85	1313.04
435.03	3169.09
435.22	12058.44
435.41	27534.06
435.59	29200.52
435.78	18640.03
435.97	9221.71
436.16	3571.66
436.34	1315.38
436.53	767.70
436.72	732.59
436.90	627.26
437.09	582.79
437.28	596.84
437.46	477.47
437.65	507.90
437.84	489.17
438.02	442.36
438.21	468.11
438.40	407.25
438.58	449.38
438.77	456.40
438.96	486.83
439.14	425.98
439.33	449.38
439.52	449.38
439.70	341.72
439.89	416.62
440.08	381.51
440.26	353.42
440.45	409.59
440.63	414.27
440.82	433.00
441.01	388.53
441.19	489.17
441.38	395.55
441.57	407.25
441.75	461.09
441.94	479.81
442.12	379.17
442.31	526.62
442.50	482.15
442.68	484.49
442.87	409.59
443.05	449.38
443.24	454.06
443.43	423.64
443.61	451.72
443.80	491.51
443.98	360.44
444.17	418.96
444.35	362.78
444.54	498.53
444.73	428.32
444.91	430.66
445.10	435.34
445.28	482.15
445.47	433.00
445.65	449.38
445.84	461.09
446.02	482.15
446.21	437.68
446.39	449.38
446.58	390.87
446.77	486.83
446.95	458.74
447.14	477.47
447.32	463.43
447.51	379.17
447.69	437.68
447.88	454.06
448.06	475.13
448.25	540.66
448.43	421.30
448.62	461.09
448.80	470.45
448.99	430.66
449.17	390.87
449.36	435.34
449.54	418.96
449.73	428.32
449.91	451.72
450.10	395.55
450.28	540.66
450.46	493.85
450.65	433.00
450.83	477.47
451.02	416.62
451.20	456.40
451.39	447.04
451.57	416.62
451.76	386.19
451.94	425.98
452.13	528.96
452.31	386.19
452.49	355.76
452.68	362.78
452.86	390.87
453.05	514.92
453.23	482.15
453.42	299.59
453.60	414.27
453.78	451.72
453.97	397.89
454.15	451.72
454.34	411.93
454.52	407.25
454.70	376.83
454.89	505.56
455.07	404.91
455.26	397.89
455.44	421.30
455.62	437.68
455.81	407.25
455.99	564.07
456.17	351.08
456.36	358.10
456.54	381.51
456.73	390.87
456.91	454.06
457.09	479.81
457.28	475.13
457.46	447.04
457.64	435.34
457.83	482.15
458.01	400.23
458.19	367.46
458.38	442.36
458.56	358.10
458.74	360.44
458.93	386.19
459.11	393.21
459.29	451.72
459.48	418.96
459.66	510.24
459.84	458.74
460.03	449.38
460.21	449.38
460.39	383.85
460.57	421.30
460.76	383.85
460.94	463.43
461.12	456.40
461.31	477.47
461.49	402.57
461.67	395.55
461.85	322.99
462.04	395.55
462.22	498.53
462.40	402.57
462.59	477.47
462.77	447.04
462.95	416.62
463.13	346.40
463.32	374.49
463.50	444.70
463.68	425.98
463.86	365.12
464.05	449.38
464.23	524.28
464.41	435.34
464.59	437.68
464.78	442.36
464.96	423.64
465.14	386.19
465.32	414.27
465.50	374.49
465.69	348.74
465.87	332.36
466.05	365.12
466.23	400.23
466.41	393.21
466.60	468.11
466.78	442.36
466.96	390.87
467.14	470.45
467.32	507.90
467.51	428.32
467.69	498.53
467.87	395.55
468.05	395.55
468.23	435.34
468.41	369.80
468.60	355.76
468.78	393.21
468.96	486.83
469.14	461.09
469.32	379.17
469.50	418.96
469.69	400.23
469.87	397.89
470.05	411.93
470.23	374.49
470.41	266.82
470.59	362.78
470.77	390.87
470.95	353.42
471.14	470.45
471.32	346.40
471.50	428.32
471.68	327.68
471.86	381.51
472.04	367.46
472.22	461.09
472.40	308.95
472.58	337.04
472.77	407.25
472.95	402.57
473.13	348.74
473.31	341.72
473.49	372.15
473.67	390.87
473.85	409.59
474.03	355.76
474.21	416.62
474.39	489.17
474.57	374.49
474.75	486.83
474.93	376.83
475.12	348.74
475.30	395.55
475.48	362.78
475.66	456.40
475.84	400.23
476.02	409.59
476.20	444.70
476.38	390.87
476.56	503.22
476.74	423.64
476.92	379.17
477.10	358.10
477.28	430.66
477.46	411.93
477.64	461.09
477.82	442.36
478.00	484.49
478.18	421.30
478.36	421.30
478.54	414.27
478.72	479.81
478.90	458.74
479.08	435.34
479.26	461.09
479.44	430.66
479.62	526.62
479.80	489.17
479.98	561.73
480.16	578.11
480.34	610.88
480.52	559.39
480.70	650.67
480.88	620.24
481.06	650.67
481.24	645.99
481.41	692.80
481.59	788.76
481.77	833.23
481.95	727.91
482.13	889.40
482.31	889.40
482.49	940.90
482.67	1062.60
482.85	1100.05
483.03	1203.04
483.21	1280.27
483.39	1308.36
483.57	1460.49
483.74	1570.50
483.92	1593.90
484.10	1692.21
484.28	1689.87
484.46	1968.39
484.64	1933.28
484.82	1937.96
485.00	2169.68
485.18	2237.55
485.35	2431.82
485.53	2422.45
485.71	2567.57
485.89	2801.62
486.07	2752.47
486.25	2752.47
486.43	2855.45
486.61	2818.00
486.78	2782.90
486.96	2843.75
487.14	2848.43
487.32	2813.32
487.50	2792.26
487.68	2693.96
487.85	2766.51
488.03	2768.85
488.21	2750.13
488.39	2462.24
488.57	2551.18
488.75	2478.63
488.92	2700.98
489.10	2413.09
489.28	2300.75
489.46	2317.13
489.64	2335.85
489.81	2195.42
489.99	2143.93
490.17	2090.10
490.35	2179.04
490.53	2054.99
490.70	2047.97
490.88	2127.55
491.06	2310.11
491.24	2321.81
491.41	2420.11
491.59	2328.83
491.77	2146.27
491.95	2150.95
492.13	2059.67
492.30	1989.46
492.48	2045.63
492.66	1959.03
492.84	1923.92
493.01	1940.30
493.19	1781.15
493.37	1874.77
493.54	1827.96
493.72	1713.27
493.90	1720.29
494.08	1715.61
494.25	1678.16
494.43	1612.63
494.61	1661.78
494.79	1584.54
494.96	1565.82
495.14	1727.32
495.32	1528.37
495.49	1589.22
495.67	1514.33
495.85	1413.68
496.02	1441.77
496.20	1488.58
496.38	1296.66
496.55	1317.72
496.73	1409.00
496.91	1430.07
497.09	1284.95
497.26	1345.81
497.44	1252.19
497.62	1242.82
497.79	1301.34
497.97	1200.69
498.14	1093.03
498.32	1181.97
498.50	1139.84
498.67	1139.84
498.85	1050.90
499.03	997.07
499.20	1039.20
499.38	1050.90
499.56	1008.77
499.73	978.34
499.91	976.00
500.08	971.32
500.26	919.83
500.44	889.40
500.61	976.00
500.79	816.85
500.97	861.32
501.14	868.34
501.32	760.67
501.49	793.44
501.67	727.91
501.84	725.57
502.02	678.76
502.20	805.14
502.37	622.58
502.55	676.41
502.72	615.56
502.90	660.03
503.07	596.84
503.25	627.26
503.43	585.13
503.60	601.52
503.78	545.34
503.95	589.82
504.13	610.88
504.30	538.32
504.48	442.36
504.65	610.88
504.83	503.22
505.01	559.39
505.18	655.35
505.36	472.79
505.53	458.74
505.71	470.45
505.88	531.30
506.06	435.34
506.23	449.38
506.41	477.47
506.58	444.70
506.76	423.64
506.93	430.66
507.11	407.25
507.28	393.21
507.46	400.23
507.63	362.78
507.81	461.09
507.98	421.30
508.16	512.58
508.33	486.83
508.50	449.38
508.68	468.11
508.85	454.06
509.03	451.72
509.20	468.11
509.38	486.83
509.55	489.17
509.73	491.51
509.90	390.87
510.08	362.78
510.25	458.74
510.42	430.66
510.60	435.34
510.77	369.80
510.95	418.96
511.12	393.21
511.30	479.81
511.47	421.30
511.64	409.59
511.82	334.70
511.99	395.55
512.17	404.91
512.34	353.42
512.51	355.76
512.69	425.98
512.86	442.36
513.04	351.08
513.21	376.83
513.38	435.34
513.56	365.12
513.73	383.85
513.90	372.15
514.08	388.53
514.25	367.46
514.43	341.72
514.60	264.48
514.77	355.76
514.95	318.31
515.12	346.40
515.29	404.91
515.47	409.59
515.64	322.99
515.81	348.74
515.99	423.64
516.16	360.44
516.33	447.04
516.51	358.10
516.68	337.04
516.85	266.82
517.03	393.21
517.20	433.00
517.37	395.55
517.54	418.96
517.72	421.30
517.89	341.72
518.06	332.36
518.24	358.10
518.41	386.19
518.58	360.44
518.75	353.42
518.93	285.55
519.10	341.72
519.27	306.61
519.45	332.36
519.62	379.17
519.79	313.63
519.96	362.78
520.14	407.25
520.31	390.87
520.48	280.86
520.65	339.38
520.83	395.55
521.00	358.10
521.17	372.15
521.34	372.15
521.52	360.44
521.69	376.83
521.86	418.96
522.03	313.63
522.20	428.32
522.38	313.63
522.55	341.72
522.72	362.78
522.89	351.08
523.07	416.62
523.24	386.19
523.41	301.93
523.58	327.68
523.75	411.93
523.92	301.93
524.10	327.68
524.27	360.44
524.44	433.00
524.61	430.66
524.78	311.29
524.96	330.02
525.13	367.46
525.30	344.06
525.47	433.00
525.64	355.76
525.81	442.36
525.98	428.32
526.16	362.78
526.33	372.15
526.50	346.40
526.67	435.34
526.84	365.12
527.01	386.19
527.18	442.36
527.36	451.72
527.53	454.06
527.70	444.70
527.87	444.70
528.04	463.43
528.21	449.38
528.38	421.30
528.55	440.02
528.72	444.70
528.89	470.45
529.07	465.77
529.24	477.47
529.41	505.56
529.58	475.13
529.75	435.34
529.92	538.32
530.09	505.56
530.26	423.64
530.43	458.74
530.60	468.11
530.77	479.81
530.94	442.36
531.11	585.13
531.28	575.77
531.46	552.37
531.63	491.51
531.80	580.45
531.97	648.33
532.14	713.86
532.31	866.00
532.48	1025.15
532.65	1121.12
532.82	1270.91
532.99	1483.90
533.16	1654.76
533.33	1685.19
533.50	1645.40
533.67	1336.45
533.84	1203.04
534.01	929.19
534.18	980.68
534.35	1013.45
534.52	976.00
534.69	1064.94
534.86	1142.18
535.03	1064.94
535.20	1186.65
535.37	1210.06
535.54	1291.98
535.71	1277.93
535.88	1430.07
536.05	1488.58
536.22	1631.35
536.38	1682.85
536.55	1909.88
536.72	2183.72
536.89	2260.96
537.06	2576.93
537.23	2925.67
537.40	3122.27
537.57	3232.28
537.74	3449.95
537.91	3613.79
538.08	3749.54
538.25	3786.99
538.42	3796.35
538.59	3887.63
538.75	3911.04
538.92	4229.35
539.09	4624.90
539.26	5008.75
539.43	5767.08
539.60	6464.56
539.77	7258.00
539.94	8077.19
540.11	9181.92
540.28	9966.00
540.44	10944.34
540.61	11927.37
540.78	13429.99
540.95	16456.31
541.12	19957.75
541.29	22497.23
541.46	23527.06
541.62	23122.15
541.79	22162.53
541.96	20388.41
542.13	19119.84
542.30	17659.34
542.47	16751.21
542.63	16025.65
542.80	15239.23
542.97	15047.30
543.14	14934.96
543.31	14986.45
543.48	15136.24
543.64	15232.21
543.81	15484.98
543.98	15461.58
544.15	15566.90
544.32	15770.53
544.48	15730.74
544.65	15353.91
544.82	15136.24
544.99	15283.70
545.16	15573.92
545.32	16603.76
545.49	27410.01
545.66	49909.58
545.83	57059.92
546.00	51337.31
546.16	35875.73
546.33	27309.37
546.50	20540.54
546.67	15960.11
546.83	14092.37
547.00	13392.55
547.17	13092.96
547.34	12369.73
547.50	11995.25
547.67	11545.86
547.84	10829.66
548.00	10471.56
548.17	10272.61
548.34	9881.74
548.51	9390.23
548.67	9083.62
548.84	8557.00
549.01	8079.53
549.18	7723.77
549.34	7290.77
549.51	7190.13
549.68	6745.42
549.84	6614.35
550.01	6396.68
550.18	6270.30
550.34	5790.49
550.51	5427.70
550.68	5345.78
550.84	4966.62
551.01	4737.24
551.18	4461.06
551.34	4376.80
551.51	4201.26
551.68	3850.18
551.84	3850.18
552.01	3637.19
552.18	3541.23
552.34	3323.56
552.51	3239.30
552.68	3103.55
552.84	3007.59
553.01	2960.78
553.18	2738.43
553.34	2642.46
553.51	2628.42
553.67	2586.29
553.84	2459.90
554.01	2368.62
554.17	2143.93
554.34	2080.74
554.51	1912.22
554.67	1998.82
554.84	1799.87
555.00	1563.48
555.17	1547.09
555.33	1434.75
555.50	1521.35
555.67	1301.34
555.83	1313.04
556.00	1277.93
556.16	1383.26
556.33	1203.04
556.50	1123.46
556.66	1055.58
556.83	999.41
556.99	1043.88
557.16	1008.77
557.32	971.32
557.49	947.92
557.65	933.87
557.82	990.05
557.98	976.00
558.15	835.57
558.32	917.49
558.48	880.04
558.65	835.57
558.81	835.57
558.98	802.80
559.14	861.32
559.31	755.99
559.47	807.48
559.64	744.29
559.80	774.72
559.97	727.91
560.13	753.65
560.30	704.50
560.46	702.16
560.63	641.31
560.79	676.41
560.96	765.36
561.12	732.59
561.29	770.04
561.45	699.82
561.61	716.20
561.78	793.44
561.94	741.95
562.11	791.10
562.27	613.22
562.44	697.48
562.60	662.37
562.77	636.63
562.93	695.14
563.10	622.58
563.26	732.59
563.42	575.77
563.59	566.41
563.75	610.88
563.92	653.01
564.08	573.43
564.24	655.35
564.41	638.97
564.57	601.52
564.74	578.11
564.90	631.94
565.07	568.75
565.23	624.92
565.39	552.37
565.56	599.18
565.72	608.54
565.88	552.37
566.05	512.58
566.21	535.98
566.38	580.45
566.54	517.26
566.70	603.86
566.87	519.60
567.03	568.75
567.19	540.66
567.36	641.31
567.52	585.13
567.68	543.00
567.85	477.47
568.01	566.41
568.17	564.07
568.34	615.56
568.50	655.35
568.66	643.65
568.83	685.78
568.99	514.92
569.15	568.75
569.32	543.00
569.48	552.37
569.64	533.64
569.81	510.24
569.97	390.87
570.13	540.66
570.30	470.45
570.46	430.66
570.62	465.77
570.78	484.49
570.95	428.32
571.11	493.85
571.27	498.53
571.43	395.55
571.60	482.15
571.76	472.79
571.92	437.68
572.09	386.19
572.25	404.91
572.41	425.98
572.57	491.51
572.74	425.98
572.90	507.90
573.06	418.96
573.22	514.92
573.38	519.60
573.55	512.58
573.71	538.32
573.87	564.07
574.03	505.56
574.20	461.09
574.36	486.83
574.52	451.72
574.68	512.58
574.84	624.92
575.01	571.09
575.17	592.16
575.33	606.20
575.49	660.03
575.65	720.88
575.82	781.74
575.98	777.06
576.14	854.30
576.30	1799.87
576.46	5844.32
576.62	10520.71
576.79	10927.96
576.95	8011.65
577.11	5149.18
577.27	3712.09
577.43	2370.96
577.59	1586.88
577.75	1301.34
577.92	1210.06
578.08	1111.75
578.24	1149.20
578.40	1923.92
578.56	5359.83
578.72	9432.36
578.88	10204.74
579.04	7681.64
579.21	5074.28
579.37	3775.28
579.53	3084.83
579.69	2836.73
579.85	3389.10
580.01	4058.49
580.17	3775.28
580.33	3307.18
580.49	2918.65
580.65	2452.88
580.82	2235.21
580.98	2293.72
581.14	2392.03
581.30	2499.69
581.46	2644.81
581.62	2871.84
581.78	2958.44
581.94	3372.71
582.10	3410.16
582.26	3557.61
582.42	3618.47
582.58	3812.73
582.74	3925.08
582.90	3953.16
583.06	3936.78
583.22	3920.40
583.38	3992.95
583.54	3955.51
583.70	3957.85
583.86	3927.42
584.02	3826.78
584.18	3712.09
584.34	3674.64
584.50	3646.55
584.66	3595.06
584.82	3456.97
584.98	3323.56
585.14	3440.59
585.30	3480.38
585.46	3204.19
585.62	3155.04
585.78	3229.94
585.94	3288.45
586.10	3323.56
586.26	3599.74
586.42	4100.62
586.58	4674.05
586.74	5652.39
586.90	6932.67
587.06	7749.51
587.22	7428.86
587.38	6689.25
587.54	5902.83
587.70	4990.02
587.86	4224.67
588.02	3543.57
588.18	3246.32
588.34	2743.11
588.49	2544.16
588.65	2466.92
588.81	2326.49
588.97	2298.41
589.13	2244.57
589.29	2127.55
589.45	2132.23
589.61	2174.36
589.77	2160.31
589.93	2239.89
590.08	2113.50
590.24	2326.49
590.40	2403.73
590.56	2443.52
590.72	2600.34
590.88	2619.06
591.04	2738.43
591.20	2757.15
591.35	2855.45
591.51	3033.33
591.67	3222.92
591.83	3389.10
591.99	3559.95
592.15	3777.62
592.31	4308.93
592.46	4542.98
592.62	5111.73
592.78	5268.55
592.94	5617.29
593.10	5430.04
593.26	5287.27
593.41	4816.82
593.57	4287.86
593.73	3866.56
593.89	3353.99
594.05	3056.74
594.20	2654.17
594.36	2518.42
594.52	2293.72
594.68	2183.72
594.84	2101.80
594.99	2139.25
595.15	2083.08
595.31	1970.73
595.47	2003.50
595.62	2015.20
595.78	1898.17
595.94	1959.03
596.10	2071.37
596.25	1982.43
596.41	1994.14
596.57	2036.27
596.73	1966.05
596.88	1909.88
597.04	1886.47
597.20	1891.15
597.36	2052.65
597.51	2083.08
597.67	2160.31
597.83	2214.15
597.99	2464.58
598.14	2520.76
598.30	2708.00
598.46	2745.45
598.61	2960.78
598.77	3033.33
598.93	3084.83
599.09	3087.17
599.24	3276.75
599.40	3265.05
599.56	3117.59
599.71	2986.52
599.87	2963.12
600.03	2857.79
600.18	2649.49
600.34	2389.69
600.50	2328.83
600.65	2125.21
600.81	1944.99
600.97	1823.28
601.12	1708.59
601.28	1781.15
601.44	1544.75
601.59	1547.09
601.75	1607.95
601.91	1497.94
602.06	1313.04
602.22	1409.00
602.37	1329.42
602.53	1352.83
602.69	1324.74
602.84	1362.19
603.00	1416.02
603.16	1352.83
603.31	1390.28
603.47	1345.81
603.62	1350.49
603.78	1418.36
603.94	1446.45
604.09	1504.96
604.25	1549.43
604.40	1542.41
604.56	1462.83
604.71	1483.90
604.87	1528.37
605.03	1509.65
605.18	1533.05
605.34	1638.38
605.49	1631.35
605.65	1710.93
