SpectraSuite Data File
++++++++++++++++++++++++++++++++++++
Date: Fri Oct 04 11:42:23 GMT-05:00 2013
User: price-jones
Dark Spectrum Present: No
Reference Spectrum Present: No
Number of Sampled Component Spectra: 1
Spectrometers: USB2+H05261
Integration Time (usec): 100000 (USB2+H05261)
Spectra Averaged: 1 (USB2+H05261)
Boxcar Smoothing: 0 (USB2+H05261)
Correct for Electrical Dark: No (USB2+H05261)
Strobe/Lamp Enabled: No (USB2+H05261)
Correct for Detector Non-linearity: No (USB2+H05261)
Correct for Stray Light: No (USB2+H05261)
Number of Pixels in Processed Spectrum: 2048
>>>>>Begin Processed Spectral Data<<<<<
365.73	65.54
365.92	65.54
366.12	65.54
366.32	0.00
366.52	0.00
366.72	0.00
366.91	0.00
367.11	0.00
367.31	0.00
367.51	0.00
367.70	0.00
367.90	0.00
368.10	0.00
368.30	0.00
368.49	0.00
368.69	0.00
368.89	0.00
369.09	0.00
369.28	0.00
369.48	0.00
369.68	0.00
369.87	0.00
370.07	2.34
370.27	25.75
370.47	72.56
370.66	194.26
370.86	156.82
371.06	245.76
371.25	276.18
371.45	243.42
371.65	278.52
371.84	194.26
372.04	245.76
372.24	245.76
372.44	332.36
372.63	315.97
372.83	250.44
373.03	315.97
373.22	264.48
373.42	280.86
373.62	376.83
373.81	383.85
374.01	294.91
374.21	269.16
374.40	266.82
374.60	351.08
374.79	322.99
374.99	339.38
375.19	358.10
375.38	353.42
375.58	414.27
375.78	344.06
375.97	264.48
376.17	411.93
376.37	365.12
376.56	346.40
376.76	287.89
376.95	381.51
377.15	407.25
377.35	461.09
377.54	493.85
377.74	428.32
377.93	430.66
378.13	416.62
378.33	355.76
378.52	337.04
378.72	376.83
378.91	334.70
379.11	318.31
379.31	332.36
379.50	334.70
379.70	383.85
379.89	414.27
380.09	393.21
380.28	418.96
380.48	454.06
380.68	416.62
380.87	416.62
381.07	362.78
381.26	376.83
381.46	273.84
381.65	395.55
381.85	414.27
382.04	301.93
382.24	285.55
382.43	234.05
382.63	243.42
382.83	299.59
383.02	346.40
383.22	278.52
383.41	306.61
383.61	294.91
383.80	294.91
384.00	332.36
384.19	404.91
384.39	376.83
384.58	444.70
384.78	355.76
384.97	440.02
385.17	409.59
385.36	320.65
385.56	393.21
385.75	416.62
385.95	358.10
386.14	369.80
386.34	414.27
386.53	418.96
386.72	440.02
386.92	367.46
387.11	397.89
387.31	479.81
387.50	428.32
387.70	383.85
387.89	374.49
388.09	407.25
388.28	440.02
388.48	353.42
388.67	367.46
388.86	470.45
389.06	500.87
389.25	500.87
389.45	461.09
389.64	489.17
389.84	535.98
390.03	465.77
390.22	517.26
390.42	554.71
390.61	545.34
390.81	580.45
391.00	498.53
391.19	575.77
391.39	566.41
391.58	540.66
391.78	456.40
391.97	393.21
392.16	468.11
392.36	507.90
392.55	393.21
392.75	383.85
392.94	315.97
393.13	269.16
393.33	262.14
393.52	414.27
393.71	383.85
393.91	517.26
394.10	451.72
394.29	484.49
394.49	500.87
394.68	615.56
394.88	599.18
395.07	573.43
395.26	538.32
395.46	498.53
395.65	489.17
395.84	503.22
396.04	561.73
396.23	386.19
396.42	301.93
396.62	353.42
396.81	451.72
397.00	447.04
397.19	528.96
397.39	514.92
397.58	723.23
397.77	685.78
397.97	624.92
398.16	681.10
398.35	690.46
398.55	608.54
398.74	617.90
398.93	816.85
399.12	753.65
399.32	732.59
399.51	725.57
399.70	763.01
399.90	774.72
400.09	812.17
400.28	716.20
400.47	692.80
400.67	784.08
400.86	765.36
401.05	835.57
401.24	908.13
401.44	788.76
401.63	744.29
401.82	866.00
402.01	861.32
402.21	826.21
402.40	763.01
402.59	793.44
402.78	791.10
402.97	760.67
403.17	763.01
403.36	828.55
403.55	929.19
403.74	849.61
403.93	884.72
404.13	847.27
404.32	793.44
404.51	833.23
404.70	849.61
404.89	873.02
405.09	891.74
405.28	795.78
405.47	746.63
405.66	863.66
405.85	877.70
406.05	833.23
406.24	821.53
406.43	793.44
406.62	798.12
406.81	847.27
407.00	875.36
407.20	767.70
407.39	849.61
407.58	854.30
407.77	823.87
407.96	919.83
408.15	983.02
408.34	847.27
408.54	968.98
408.73	959.62
408.92	882.38
409.11	903.45
409.30	940.90
409.49	910.47
409.68	760.67
409.87	777.06
410.07	823.87
410.26	821.53
410.45	901.11
410.64	833.23
410.83	901.11
411.02	889.40
411.21	971.32
411.40	1015.79
411.59	940.90
411.78	851.96
411.98	936.21
412.17	917.49
412.36	945.58
412.55	1104.73
412.74	973.66
412.93	976.00
413.12	954.94
413.31	973.66
413.50	945.58
413.69	1034.52
413.88	1090.69
414.07	964.30
414.26	1046.22
414.45	943.24
414.64	1001.75
414.83	950.26
415.02	978.34
415.22	1034.52
415.41	1008.77
415.60	964.30
415.79	1043.88
415.98	1132.82
416.17	1137.50
416.36	1067.28
416.55	933.87
416.74	1086.01
416.93	943.24
417.12	1029.84
417.31	954.94
417.50	940.90
417.69	1102.39
417.88	1004.09
418.07	1032.18
418.26	952.60
418.45	1062.60
418.64	1100.05
418.83	1174.95
419.02	1139.84
419.21	1118.78
419.39	1078.99
419.58	1008.77
419.77	1020.47
419.96	1128.14
420.15	1029.84
420.34	1100.05
420.53	1097.71
420.72	1193.67
420.91	1191.33
421.10	1118.78
421.29	1109.41
421.48	1102.39
421.67	1221.76
421.86	1174.95
422.05	1036.86
422.24	1055.58
422.43	950.26
422.61	990.05
422.80	1144.52
422.99	1139.84
423.18	1088.35
423.37	1020.47
423.56	980.68
423.75	1158.57
423.94	978.34
424.13	1032.18
424.32	954.94
424.50	1025.15
424.69	1083.67
424.88	1149.20
425.07	1034.52
425.26	1050.90
425.45	1095.37
425.64	919.83
425.83	1046.22
426.01	1053.24
426.20	1062.60
426.39	1060.26
426.58	992.39
426.77	1013.45
426.96	931.53
427.15	880.04
427.33	1015.79
427.52	1100.05
427.71	1090.69
427.90	997.07
428.09	1022.81
428.28	999.41
428.46	924.51
428.65	1020.47
428.84	1036.86
429.03	1046.22
429.22	896.43
429.40	903.45
429.59	821.53
429.78	917.49
429.97	760.67
430.16	713.86
430.34	772.38
430.53	779.40
430.72	734.93
430.91	877.70
431.10	943.24
431.28	1062.60
431.47	1228.78
431.66	1249.85
431.85	1149.20
432.03	1029.84
432.22	1081.33
432.41	1048.56
432.60	1172.61
432.79	1128.14
432.97	1167.93
433.16	1181.97
433.35	1036.86
433.54	1109.41
433.72	917.49
433.91	952.60
434.10	1046.22
434.28	1114.10
434.47	1198.35
434.66	1252.19
434.85	1158.57
435.03	1210.06
435.22	1413.68
435.41	1617.31
435.59	1582.20
435.78	1472.20
435.97	1296.66
436.16	1369.21
436.34	1345.81
436.53	1343.47
436.72	1231.12
436.90	1214.74
437.09	1184.31
437.28	1137.50
437.46	1041.54
437.65	1116.44
437.84	1114.10
438.02	1025.15
438.21	1036.86
438.40	1111.75
438.58	1142.18
438.77	1132.82
438.96	1188.99
439.14	1114.10
439.33	1233.46
439.52	1252.19
439.70	1240.48
439.89	1240.48
440.08	1200.69
440.26	1214.74
440.45	1313.04
440.63	1289.64
440.82	1350.49
441.01	1355.17
441.19	1404.32
441.38	1409.00
441.57	1409.00
441.75	1441.77
441.94	1430.07
442.12	1331.76
442.31	1373.89
442.50	1425.39
442.68	1369.21
442.87	1434.75
443.05	1277.93
443.24	1341.13
443.43	1504.96
443.61	1334.11
443.80	1420.71
443.98	1308.36
444.17	1446.45
444.35	1455.81
444.54	1453.47
444.73	1441.77
444.91	1451.13
445.10	1343.47
445.28	1231.12
445.47	1308.36
445.65	1357.51
445.84	1322.40
446.02	1378.58
446.21	1341.13
446.39	1357.51
446.58	1352.83
446.77	1362.19
446.95	1535.39
447.14	1519.01
447.32	1495.60
447.51	1444.11
447.69	1500.28
447.88	1432.41
448.06	1427.73
448.25	1359.85
448.43	1409.00
448.62	1387.94
448.80	1474.54
448.99	1453.47
449.17	1387.94
449.36	1418.36
449.54	1509.65
449.73	1519.01
449.91	1444.11
450.10	1584.54
450.28	1603.27
450.46	1572.84
450.65	1465.18
450.83	1598.59
451.02	1516.67
451.20	1427.73
451.39	1404.32
451.57	1535.39
451.76	1432.41
451.94	1465.18
452.13	1490.92
452.31	1380.92
452.49	1320.06
452.68	1350.49
452.86	1366.87
453.05	1383.26
453.23	1483.90
453.42	1378.58
453.60	1390.28
453.78	1511.99
453.97	1472.20
454.15	1444.11
454.34	1430.07
454.52	1495.60
454.70	1469.86
454.89	1444.11
455.07	1383.26
455.26	1483.90
455.44	1533.05
455.62	1481.56
455.81	1540.07
455.99	1563.48
456.17	1526.03
456.36	1493.26
456.54	1558.80
456.73	1528.37
456.91	1614.97
457.09	1540.07
457.28	1664.12
457.46	1636.03
457.64	1708.59
457.83	1406.66
458.01	1434.75
458.19	1483.90
458.38	1507.30
458.56	1437.09
458.74	1575.18
458.93	1460.49
459.11	1542.41
459.29	1502.62
459.48	1530.71
459.66	1561.14
459.84	1549.43
460.03	1708.59
460.21	1598.59
460.39	1561.14
460.57	1579.86
460.76	1605.61
460.94	1617.31
461.12	1598.59
461.31	1666.46
461.49	1689.87
461.67	1561.14
461.85	1743.70
462.04	1591.56
462.22	1769.44
462.40	1617.31
462.59	1694.55
462.77	1582.20
462.95	1654.76
463.13	1504.96
463.32	1610.29
463.50	1561.14
463.68	1673.48
463.86	1636.03
464.05	1423.05
464.23	1556.46
464.41	1645.40
464.59	1509.65
464.78	1554.12
464.96	1516.67
465.14	1558.80
465.32	1533.05
465.50	1605.61
465.69	1614.97
465.87	1528.37
466.05	1540.07
466.23	1528.37
466.41	1528.37
466.60	1575.18
466.78	1500.28
466.96	1584.54
467.14	1598.59
467.32	1605.61
467.51	1563.48
467.69	1533.05
467.87	1593.90
468.05	1638.38
468.23	1600.93
468.41	1575.18
468.60	1563.48
468.78	1558.80
468.96	1605.61
469.14	1519.01
469.32	1657.10
469.50	1540.07
469.69	1493.26
469.87	1509.65
470.05	1420.71
470.23	1441.77
470.41	1526.03
470.59	1490.92
470.77	1542.41
470.95	1540.07
471.14	1666.46
471.32	1638.38
471.50	1678.16
471.68	1640.72
471.86	1713.27
472.04	1863.07
472.22	1743.70
472.40	1544.75
472.58	1650.08
472.77	1462.83
472.95	1647.74
473.13	1727.32
473.31	1659.44
473.49	1619.65
473.67	1689.87
473.85	1647.74
474.03	1722.63
474.21	1614.97
474.39	1596.25
474.57	1652.42
474.75	1720.29
474.93	1746.04
475.12	1645.40
475.30	1689.87
475.48	1657.10
475.66	1671.14
475.84	1706.25
476.02	1607.95
476.20	1678.16
476.38	1584.54
476.56	1767.10
476.74	1753.06
476.92	1746.04
477.10	1715.61
477.28	1678.16
477.46	1809.23
477.64	1724.97
477.82	1706.25
478.00	1851.36
478.18	1916.90
478.36	1891.15
478.54	1865.41
478.72	1764.76
478.90	1989.46
479.08	1877.11
479.26	2026.90
479.44	1858.39
479.62	1900.52
479.80	1977.75
479.98	1912.22
480.16	1863.07
480.34	1898.17
480.52	2015.20
480.70	1994.14
480.88	1893.49
481.06	1916.90
481.24	1973.07
481.41	2059.67
481.59	2083.08
481.77	2038.61
481.95	2127.55
482.13	2113.50
482.31	2139.25
482.49	2064.35
482.67	2052.65
482.85	2167.34
483.03	2071.37
483.21	2136.91
483.39	2157.97
483.57	2108.82
483.74	2026.90
483.92	2223.51
484.10	2162.66
484.28	2120.53
484.46	2167.34
484.64	2153.29
484.82	2172.02
485.00	2064.35
485.18	2122.87
485.35	2038.61
485.53	1919.24
485.71	1879.45
485.89	1795.19
486.07	1781.15
486.25	2008.18
486.43	2101.80
486.61	2001.16
486.78	2090.10
486.96	2073.71
487.14	2120.53
487.32	2260.96
487.50	2223.51
487.68	2289.04
487.85	2345.22
488.03	2335.85
488.21	2375.64
488.39	2385.01
488.57	2307.77
488.75	2300.75
488.92	2583.95
489.10	2509.05
489.28	2530.12
489.46	2558.21
489.64	2593.31
489.81	2677.57
489.99	2502.03
490.17	2466.92
490.35	2576.93
490.53	2579.27
490.70	2602.68
490.88	2581.61
491.06	2588.63
491.24	2637.78
491.41	2583.95
491.59	2335.85
491.77	2310.11
491.95	2296.07
492.13	2434.16
492.30	2562.89
492.48	2448.20
492.66	2616.72
492.84	2616.72
493.01	2586.29
493.19	2691.62
493.37	2525.44
493.54	2525.44
493.72	2567.57
493.90	2705.66
494.08	2715.02
494.25	2862.48
494.43	2743.11
494.61	2813.32
494.79	2715.02
494.96	2843.75
495.14	2787.58
495.32	2640.12
495.49	2771.19
495.67	2715.02
495.85	2780.56
496.02	2890.56
496.20	2878.86
496.38	2846.09
496.55	2888.22
496.73	2857.79
496.91	2883.54
497.09	2932.69
497.26	2881.20
497.44	2906.95
497.62	2850.77
497.79	2724.38
497.97	2719.70
498.14	2647.15
498.32	2832.05
498.50	2895.24
498.67	2785.24
498.85	2892.90
499.03	2855.45
499.20	2860.13
499.38	2956.10
499.56	2860.13
499.73	2853.11
499.91	3052.06
500.08	2803.96
500.26	2729.06
500.44	2698.64
500.61	2818.00
500.79	2822.69
500.97	2794.60
501.14	2871.84
501.32	2710.34
501.49	2712.68
501.67	2715.02
501.84	2771.19
502.02	2745.45
502.20	2963.12
502.37	2822.69
502.55	2876.52
502.72	2836.73
502.90	2860.13
503.07	2897.58
503.25	2726.72
503.43	2715.02
503.60	2597.99
503.78	2679.91
503.95	2621.40
504.13	2759.49
504.30	2942.05
504.48	2932.69
504.65	2939.71
504.83	2839.07
505.01	2916.31
505.18	3084.83
505.36	3075.46
505.53	3052.06
505.71	3038.02
505.88	3035.67
506.06	2949.08
506.23	2883.54
506.41	2913.97
506.58	3038.02
506.76	3054.40
506.93	2897.58
507.11	2935.03
507.28	2904.60
507.46	2780.56
507.63	2754.81
507.81	2771.19
507.98	2827.37
508.16	3000.57
508.33	3052.06
508.50	3157.38
508.68	2925.67
508.85	3063.76
509.03	3075.46
509.20	2958.44
509.38	3084.83
509.55	2876.52
509.73	2939.71
509.90	3005.25
510.08	2953.76
510.25	3054.40
510.42	3040.36
510.60	3059.08
510.77	2944.39
510.95	3096.53
511.12	3068.44
511.30	3152.70
511.47	3105.89
511.64	3155.04
511.82	3094.19
511.99	3129.30
512.17	2981.84
512.34	2864.82
512.51	2942.05
512.69	2981.84
512.86	2967.80
513.04	3061.42
513.21	3021.63
513.38	3077.80
513.56	2988.86
513.73	2965.46
513.90	2867.16
514.08	2960.78
514.25	2953.76
514.43	3061.42
514.60	3061.42
514.77	3014.61
514.95	3049.72
515.12	3096.53
515.29	3091.85
515.47	3030.99
515.64	3098.87
515.81	3150.36
515.99	3082.49
516.16	2883.54
516.33	2609.70
516.51	2654.17
516.68	2560.55
516.85	2525.44
517.03	2487.99
517.20	2689.28
517.37	2963.12
517.54	2963.12
517.72	3035.67
517.89	2803.96
518.06	2520.76
518.24	2679.91
518.41	2773.53
518.58	3005.25
518.75	2839.07
518.93	2995.89
519.10	2864.82
519.27	2890.56
519.45	3000.57
519.62	3162.06
519.79	3145.68
519.96	3110.57
520.14	3164.40
520.31	3054.40
520.48	2939.71
520.65	2951.42
520.83	3063.76
521.00	3133.98
521.17	3255.69
521.34	3103.55
521.52	3112.91
521.69	3185.47
521.86	3077.80
522.03	3241.64
522.20	3103.55
522.38	2853.11
522.55	2892.90
522.72	3045.04
522.89	3014.61
523.07	3098.87
523.24	3117.59
523.41	3084.83
523.58	3148.02
523.75	3197.17
523.92	3206.53
524.10	3328.24
524.27	3218.24
524.44	3225.26
524.61	3288.45
524.78	3136.32
524.96	3281.43
525.13	3206.53
525.30	3332.92
525.47	3227.60
525.64	3295.47
525.81	3080.14
525.98	3012.27
526.16	2860.13
526.33	2782.90
526.50	2722.04
526.67	2768.85
526.84	2726.72
527.01	2803.96
527.18	2995.89
527.36	3101.21
527.53	3180.79
527.70	3297.81
527.87	3082.49
528.04	3098.87
528.21	3178.45
528.38	3283.77
528.55	3368.03
528.72	3471.01
528.89	3412.50
529.07	3248.66
529.24	3169.09
529.41	3096.53
529.58	3045.04
529.75	3084.83
529.92	3220.58
530.09	3136.32
530.26	3236.96
530.43	3293.13
530.60	3295.47
530.77	3353.99
530.94	3325.90
531.11	3246.32
531.28	3288.45
531.46	3267.39
531.63	3262.71
531.80	3267.39
531.97	3201.85
532.14	3148.02
532.31	3108.23
532.48	3009.93
532.65	2967.80
532.82	2960.78
532.99	3068.44
533.16	3208.87
533.33	3190.15
533.50	3283.77
533.67	2995.89
533.84	3023.97
534.01	3101.21
534.18	3227.60
534.35	3243.98
534.52	3192.49
534.69	3290.79
534.86	3321.22
535.03	3293.13
535.20	3426.54
535.37	3396.12
535.54	3452.29
535.71	3342.28
535.88	3410.16
536.05	3346.97
536.22	3211.22
536.38	3258.03
536.55	3187.81
536.72	3045.04
536.89	3021.63
537.06	3070.78
537.23	3225.26
537.40	3265.05
537.57	3267.39
537.74	3410.16
537.91	3267.39
538.08	3265.05
538.25	3227.60
538.42	3183.13
538.59	3129.30
538.75	3178.45
538.92	3166.74
539.09	3052.06
539.26	3080.14
539.43	3176.11
539.60	3122.27
539.77	3246.32
539.94	3314.20
540.11	3258.03
540.28	3246.32
540.44	3185.47
540.61	3117.59
540.78	3164.40
540.95	3316.54
541.12	3459.31
541.29	3503.78
541.46	3473.36
541.62	3489.74
541.79	3482.72
541.96	3414.84
542.13	3445.27
542.30	3492.08
542.47	3346.97
542.63	3452.29
542.80	3414.84
542.97	3454.63
543.14	3541.23
543.31	3393.78
543.48	3482.72
543.64	3552.93
543.81	3623.15
543.98	3389.10
544.15	3389.10
544.32	3393.78
544.48	3365.69
544.65	3370.37
544.82	3536.55
544.99	3445.27
545.16	3501.44
545.32	3461.65
545.49	3875.93
545.66	4126.36
545.83	4208.28
546.00	4107.64
546.16	3744.86
546.33	3480.38
546.50	3389.10
546.67	3368.03
546.83	3300.16
547.00	3351.65
547.17	3267.39
547.34	3213.56
547.50	3138.66
547.67	3251.00
547.84	3218.24
548.00	3262.71
548.17	3206.53
548.34	3138.66
548.51	3166.74
548.67	3328.24
548.84	3094.19
549.01	3220.58
549.18	3157.38
549.34	3309.52
549.51	3208.87
549.68	3279.09
549.84	3164.40
550.01	3105.89
550.18	3190.15
550.34	3145.68
550.51	3016.95
550.68	3150.36
550.84	3164.40
551.01	3061.42
551.18	3087.17
551.34	3141.00
551.51	3119.93
551.68	3164.40
551.84	3110.57
552.01	3183.13
552.18	3141.00
552.34	2953.76
552.51	3084.83
552.68	2995.89
552.84	2993.55
553.01	3194.83
553.18	3040.36
553.34	3136.32
553.51	3007.59
553.67	3124.62
553.84	3239.30
554.01	3091.85
554.17	3122.27
554.34	3126.96
554.51	3115.25
554.67	3178.45
554.84	3091.85
555.00	3138.66
555.17	3150.36
555.33	2967.80
555.50	3023.97
555.67	2995.89
555.83	3023.97
556.00	2956.10
556.16	3101.21
556.33	3131.64
556.50	2979.50
556.66	2949.08
556.83	2939.71
556.99	2911.63
557.16	2993.55
557.32	2871.84
557.49	2888.22
557.65	2937.37
557.82	2963.12
557.98	2899.92
558.15	2972.48
558.32	2815.66
558.48	2836.73
558.65	2733.75
558.81	2843.75
558.98	2832.05
559.14	2789.92
559.31	2836.73
559.47	2897.58
559.64	2796.94
559.80	2820.35
559.97	2843.75
560.13	2902.26
560.30	3007.59
560.46	2925.67
560.63	2874.18
560.79	3023.97
560.96	2939.71
561.12	2747.79
561.29	2946.73
561.45	2799.28
561.61	2867.16
561.78	2923.33
561.94	2726.72
562.11	2780.56
562.27	2832.05
562.44	2928.01
562.60	2970.14
562.77	2953.76
562.93	2963.12
563.10	2995.89
563.26	2881.20
563.42	2949.08
563.59	2871.84
563.75	2810.98
563.92	2998.23
564.08	2731.41
564.24	2874.18
564.41	2960.78
564.57	2789.92
564.74	2860.13
564.90	2843.75
565.07	2818.00
565.23	2834.39
565.39	2661.19
565.56	2743.11
565.72	2682.25
565.88	2736.09
566.05	2745.45
566.21	2778.22
566.38	2738.43
566.54	2757.15
566.70	2708.00
566.87	2808.64
567.03	2747.79
567.19	2808.64
567.36	2867.16
567.52	2820.35
567.68	2818.00
567.85	2752.47
568.01	2555.86
568.17	2586.29
568.34	2499.69
568.50	2658.85
568.66	2553.52
568.83	2752.47
568.99	2534.80
569.15	2534.80
569.32	2614.38
569.48	2635.44
569.64	2560.55
569.81	2473.95
569.97	2670.55
570.13	2581.61
570.30	2602.68
570.46	2635.44
570.62	2623.74
570.78	2410.75
570.95	2387.35
571.11	2555.86
571.27	2619.06
571.43	2539.48
571.60	2567.57
571.76	2551.18
571.92	2495.01
572.09	2668.21
572.25	2740.77
572.41	2644.81
572.57	2590.97
572.74	2693.96
572.90	2640.12
573.06	2693.96
573.22	2555.86
573.38	2677.57
573.55	2661.19
573.71	2658.85
573.87	2541.82
574.03	2633.10
574.20	2572.25
574.36	2567.57
574.52	2495.01
574.68	2537.14
574.84	2438.84
575.01	2464.58
575.17	2602.68
575.33	2420.11
575.49	2569.91
575.65	2504.37
575.82	2445.86
575.98	2520.76
576.14	2410.75
576.30	2527.78
576.46	2626.08
576.62	2558.21
576.79	2764.17
576.95	2689.28
577.11	2490.33
577.27	2635.44
577.43	2600.34
577.59	2431.82
577.75	2413.09
577.92	2345.22
578.08	2490.33
578.24	2415.43
578.40	2441.18
578.56	2698.64
578.72	2560.55
578.88	2642.46
579.04	2649.49
579.21	2677.57
579.37	2534.80
579.53	2579.27
579.69	2527.78
579.85	2597.99
580.01	2537.14
580.17	2572.25
580.33	2464.58
580.49	2504.37
580.65	2574.59
580.82	2612.04
580.98	2471.61
581.14	2595.65
581.30	2677.57
581.46	2525.44
581.62	2560.55
581.78	2509.05
581.94	2551.18
582.10	2605.02
582.26	2537.14
582.42	2602.68
582.58	2523.10
582.74	2516.08
582.90	2637.78
583.06	2612.04
583.22	2504.37
583.38	2541.82
583.54	2565.23
583.70	2595.65
583.86	2504.37
584.02	2668.21
584.18	2600.34
584.34	2487.99
584.50	2516.08
584.66	2576.93
584.82	2579.27
584.98	2534.80
585.14	2478.63
585.30	2619.06
585.46	2452.88
585.62	2431.82
585.78	2523.10
585.94	2429.48
586.10	2574.59
586.26	2466.92
586.42	2511.39
586.58	2537.14
586.74	2527.78
586.90	2466.92
587.06	2483.31
587.22	2420.11
587.38	2377.98
587.54	2429.48
587.70	2385.01
587.86	2326.49
588.02	2193.08
588.18	2216.49
588.34	2085.42
588.49	1921.58
588.65	1825.62
588.81	1813.92
588.97	1842.00
589.13	1844.34
589.29	1792.85
589.45	1783.49
589.61	1809.23
589.77	1816.26
589.93	1900.52
590.08	1987.11
590.24	2057.33
590.40	2019.88
590.56	2083.08
590.72	2087.76
590.88	2157.97
591.04	2036.27
591.20	1987.11
591.35	1954.35
591.51	2026.90
591.67	1984.77
591.83	1980.09
591.99	2033.93
592.15	2005.84
592.31	2008.18
592.46	2181.38
592.62	2169.68
592.78	2099.46
592.94	2179.04
593.10	2132.23
593.26	2190.74
593.41	2263.30
593.57	2165.00
593.73	2120.53
593.89	2024.56
594.05	2038.61
594.20	2012.86
594.36	1991.80
594.52	1867.75
594.68	1968.39
594.84	2043.29
594.99	2029.24
595.15	2050.31
595.31	2101.80
595.47	2183.72
595.62	1987.11
595.78	2134.57
595.94	2279.68
596.10	2188.40
596.25	2174.36
596.41	2162.66
596.57	2052.65
596.73	2003.50
596.88	2169.68
597.04	2073.71
597.20	2059.67
597.36	2167.34
597.51	2174.36
597.67	2113.50
597.83	2165.00
597.99	2141.59
598.14	2097.12
598.30	2047.97
598.46	2153.29
598.61	2267.98
598.77	2118.18
598.93	2296.07
599.09	2165.00
