SpectraSuite Data File
++++++++++++++++++++++++++++++++++++
Date: Fri Oct 04 11:42:01 GMT-05:00 2013
User: price-jones
Dark Spectrum Present: No
Reference Spectrum Present: No
Number of Sampled Component Spectra: 1
Spectrometers: USB2+H05261
Integration Time (usec): 100000 (USB2+H05261)
Spectra Averaged: 1 (USB2+H05261)
Boxcar Smoothing: 0 (USB2+H05261)
Correct for Electrical Dark: No (USB2+H05261)
Strobe/Lamp Enabled: No (USB2+H05261)
Correct for Detector Non-linearity: No (USB2+H05261)
Correct for Stray Light: No (USB2+H05261)
Number of Pixels in Processed Spectrum: 2048
>>>>>Begin Processed Spectral Data<<<<<
365.73	51.49
365.92	51.49
366.12	51.49
366.32	11.70
366.52	0.00
366.72	0.00
366.91	0.00
367.11	0.00
367.31	0.00
367.51	0.00
367.70	0.00
367.90	0.00
368.10	0.00
368.30	0.00
368.49	0.00
368.69	0.00
368.89	0.00
369.09	0.00
369.28	0.00
369.48	0.00
369.68	16.38
369.87	0.00
370.07	7.02
370.27	46.81
370.47	14.04
370.66	0.00
370.86	28.09
371.06	67.88
371.25	145.11
371.45	23.41
371.65	102.98
371.84	79.58
372.04	98.30
372.24	119.37
372.44	149.79
372.63	161.50
372.83	152.13
373.03	98.30
373.22	102.98
373.42	142.77
373.62	56.17
373.81	42.13
374.01	119.37
374.21	152.13
374.40	128.73
374.60	117.03
374.79	114.69
374.99	77.24
375.19	191.92
375.38	58.51
375.58	135.75
375.78	133.41
375.97	159.16
376.17	210.65
376.37	102.98
376.56	140.43
376.76	93.62
376.95	166.18
377.15	21.06
377.35	100.64
377.54	154.48
377.74	175.54
377.93	135.75
378.13	152.13
378.33	161.50
378.52	189.58
378.72	203.63
378.91	177.88
379.11	161.50
379.31	173.20
379.50	135.75
379.70	175.54
379.89	121.71
380.09	119.37
380.28	142.77
380.48	98.30
380.68	102.98
380.87	110.01
381.07	81.92
381.26	121.71
381.46	145.11
381.65	133.41
381.85	126.39
382.04	88.94
382.24	93.62
382.43	159.16
382.63	81.92
382.83	154.48
383.02	107.66
383.22	156.82
383.41	196.60
383.61	156.82
383.80	124.05
384.00	147.45
384.19	84.26
384.39	152.13
384.58	126.39
384.78	105.32
384.97	105.32
385.17	126.39
385.36	117.03
385.56	220.01
385.75	93.62
385.95	77.24
386.14	112.35
386.34	163.84
386.53	145.11
386.72	95.96
386.92	114.69
387.11	100.64
387.31	77.24
387.50	124.05
387.70	88.94
387.89	86.60
388.09	70.22
388.28	147.45
388.48	119.37
388.67	198.95
388.86	166.18
389.06	72.56
389.25	114.69
389.45	79.58
389.64	74.90
389.84	131.07
390.03	105.32
390.22	170.86
390.42	131.07
390.61	149.79
390.81	133.41
391.00	124.05
391.19	135.75
391.39	166.18
391.58	205.97
391.78	156.82
391.97	107.66
392.16	124.05
392.36	133.41
392.55	154.48
392.75	138.09
392.94	84.26
393.13	112.35
393.33	74.90
393.52	133.41
393.71	133.41
393.91	88.94
394.10	124.05
394.29	194.26
394.49	112.35
394.68	79.58
394.88	163.84
395.07	196.60
395.26	93.62
395.46	154.48
395.65	168.52
395.84	177.88
396.04	224.69
396.23	210.65
396.42	191.92
396.62	142.77
396.81	170.86
397.00	124.05
397.19	145.11
397.39	114.69
397.58	166.18
397.77	156.82
397.97	163.84
398.16	74.90
398.35	212.99
398.55	114.69
398.74	110.01
398.93	182.56
399.12	152.13
399.32	152.13
399.51	149.79
399.70	152.13
399.90	154.48
400.09	161.50
400.28	212.99
400.47	231.71
400.67	180.22
400.86	184.90
401.05	201.29
401.24	149.79
401.44	212.99
401.63	201.29
401.82	189.58
402.01	161.50
402.21	194.26
402.40	222.35
402.59	135.75
402.78	182.56
402.97	184.90
403.17	257.46
403.36	210.65
403.55	301.93
403.74	674.07
403.93	2153.29
404.13	5240.46
404.32	7475.67
404.51	7045.01
404.70	4124.02
404.89	1535.39
405.09	496.19
405.28	332.36
405.47	191.92
405.66	201.29
405.85	212.99
406.05	152.13
406.24	152.13
406.43	142.77
406.62	147.45
406.81	287.89
407.00	346.40
407.20	613.22
407.39	1029.84
407.58	1055.58
407.77	763.01
407.96	444.70
408.15	264.48
408.34	215.33
408.54	205.97
408.73	248.10
408.92	212.99
409.11	161.50
409.30	194.26
409.49	217.67
409.68	231.71
409.87	191.92
410.07	112.35
410.26	245.76
410.45	102.98
410.64	229.37
410.83	217.67
411.02	152.13
411.21	180.22
411.40	203.63
411.59	220.01
411.78	241.08
411.98	222.35
412.17	222.35
412.36	294.91
412.55	140.43
412.74	273.84
412.93	229.37
413.12	229.37
413.31	262.14
413.50	227.03
413.69	177.88
413.88	266.82
414.07	203.63
414.26	208.31
414.45	297.25
414.64	271.50
414.83	217.67
415.02	227.03
415.22	210.65
415.41	220.01
415.60	252.78
415.79	229.37
415.98	287.89
416.17	280.86
416.36	187.24
416.55	278.52
416.74	266.82
416.93	332.36
417.12	252.78
417.31	154.48
417.50	266.82
417.69	360.44
417.88	248.10
418.07	299.59
418.26	271.50
418.45	248.10
418.64	308.95
418.83	220.01
419.02	273.84
419.21	257.46
419.39	299.59
419.58	168.52
419.77	245.76
419.96	287.89
420.15	262.14
420.34	322.99
420.53	322.99
420.72	257.46
420.91	311.29
421.10	341.72
421.29	257.46
421.48	264.48
421.67	259.80
421.86	278.52
422.05	308.95
422.24	248.10
422.43	299.59
422.61	264.48
422.80	271.50
422.99	313.63
423.18	341.72
423.37	269.16
423.56	306.61
423.75	353.42
423.94	276.18
424.13	355.76
424.32	241.08
424.50	362.78
424.69	306.61
424.88	337.04
425.07	250.44
425.26	381.51
425.45	292.57
425.64	376.83
425.83	369.80
426.01	355.76
426.20	325.33
426.39	320.65
426.58	322.99
426.77	365.12
426.96	330.02
427.15	362.78
427.33	327.68
427.52	421.30
427.71	327.68
427.90	395.55
428.09	280.86
428.28	351.08
428.46	341.72
428.65	355.76
428.84	376.83
429.03	353.42
429.22	390.87
429.40	322.99
429.59	383.85
429.78	358.10
429.97	278.52
430.16	358.10
430.34	367.46
430.53	355.76
430.72	395.55
430.91	468.11
431.10	404.91
431.28	365.12
431.47	383.85
431.66	390.87
431.85	416.62
432.03	381.51
432.22	498.53
432.41	477.47
432.60	421.30
432.79	524.28
432.97	447.04
433.16	524.28
433.35	627.26
433.54	627.26
433.72	648.33
433.91	674.07
434.10	758.33
434.28	863.66
434.47	1057.92
434.66	1071.97
434.85	1362.19
435.03	3396.12
435.22	12844.86
435.41	30508.88
435.59	35026.12
435.78	23515.36
435.97	11543.52
436.16	4409.57
436.34	1502.62
436.53	976.00
436.72	690.46
436.90	660.03
437.09	636.63
437.28	512.58
437.46	493.85
437.65	517.26
437.84	552.37
438.02	500.87
438.21	421.30
438.40	491.51
438.58	444.70
438.77	447.04
438.96	503.22
439.14	552.37
439.33	498.53
439.52	489.17
439.70	489.17
439.89	442.36
440.08	442.36
440.26	517.26
440.45	521.94
440.63	477.47
440.82	421.30
441.01	479.81
441.19	444.70
441.38	428.32
441.57	489.17
441.75	521.94
441.94	561.73
442.12	421.30
442.31	477.47
442.50	461.09
442.68	470.45
442.87	486.83
443.05	433.00
443.24	524.28
443.43	571.09
443.61	554.71
443.80	505.56
443.98	479.81
444.17	533.64
444.35	479.81
444.54	489.17
444.73	451.72
444.91	493.85
445.10	503.22
445.28	533.64
445.47	425.98
445.65	425.98
445.84	374.49
446.02	451.72
446.21	440.02
446.39	409.59
446.58	482.15
446.77	535.98
446.95	498.53
447.14	547.69
447.32	519.60
447.51	493.85
447.69	409.59
447.88	468.11
448.06	489.17
448.25	503.22
448.43	451.72
448.62	491.51
448.80	442.36
448.99	543.00
449.17	428.32
449.36	437.68
449.54	411.93
449.73	437.68
449.91	524.28
450.10	500.87
450.28	514.92
450.46	505.56
450.65	477.47
450.83	489.17
451.02	526.62
451.20	458.74
451.39	372.15
451.57	475.13
451.76	423.64
451.94	423.64
452.13	557.05
452.31	475.13
452.49	489.17
452.68	411.93
452.86	425.98
453.05	472.79
453.23	552.37
453.42	444.70
453.60	468.11
453.78	444.70
453.97	451.72
454.15	468.11
454.34	423.64
454.52	440.02
454.70	484.49
454.89	458.74
455.07	456.40
455.26	411.93
455.44	463.43
455.62	425.98
455.81	491.51
455.99	433.00
456.17	365.12
456.36	543.00
456.54	477.47
456.73	500.87
456.91	454.06
457.09	491.51
457.28	458.74
457.46	444.70
457.64	489.17
457.83	379.17
458.01	505.56
458.19	433.00
458.38	451.72
458.56	505.56
458.74	475.13
458.93	493.85
459.11	451.72
459.29	421.30
459.48	461.09
459.66	470.45
459.84	465.77
460.03	557.05
460.21	444.70
460.39	468.11
460.57	437.68
460.76	442.36
460.94	486.83
461.12	468.11
461.31	491.51
461.49	425.98
461.67	379.17
461.85	512.58
462.04	449.38
462.22	896.43
462.40	484.49
462.59	390.87
462.77	472.79
462.95	390.87
463.13	468.11
463.32	456.40
463.50	428.32
463.68	456.40
463.86	573.43
464.05	355.76
464.23	512.58
464.41	397.89
464.59	458.74
464.78	463.43
464.96	489.17
465.14	449.38
465.32	433.00
465.50	454.06
465.69	475.13
465.87	374.49
466.05	470.45
466.23	451.72
466.41	458.74
466.60	435.34
466.78	517.26
466.96	564.07
467.14	484.49
467.32	477.47
467.51	482.15
467.69	540.66
467.87	425.98
468.05	454.06
468.23	451.72
468.41	379.17
468.60	362.78
468.78	360.44
468.96	472.79
469.14	383.85
469.32	376.83
469.50	400.23
469.69	433.00
469.87	400.23
470.05	430.66
470.23	397.89
470.41	390.87
470.59	449.38
470.77	472.79
470.95	355.76
471.14	444.70
471.32	479.81
471.50	477.47
471.68	470.45
471.86	437.68
472.04	463.43
472.22	393.21
472.40	376.83
472.58	383.85
472.77	332.36
472.95	416.62
473.13	475.13
473.31	505.56
473.49	407.25
473.67	430.66
473.85	444.70
474.03	360.44
474.21	440.02
474.39	461.09
474.57	465.77
474.75	383.85
474.93	376.83
475.12	421.30
475.30	463.43
475.48	489.17
475.66	470.45
475.84	433.00
476.02	390.87
476.20	374.49
476.38	428.32
476.56	489.17
476.74	440.02
476.92	390.87
477.10	386.19
477.28	362.78
477.46	477.47
477.64	458.74
477.82	510.24
478.00	489.17
478.18	470.45
478.36	552.37
478.54	507.90
478.72	493.85
478.90	507.90
479.08	538.32
479.26	596.84
479.44	610.88
479.62	580.45
479.80	648.33
479.98	559.39
480.16	702.16
480.34	683.44
480.52	617.90
480.70	772.38
480.88	685.78
481.06	772.38
481.24	800.46
481.41	774.72
481.59	896.43
481.77	889.40
481.95	849.61
482.13	1015.79
482.31	1100.05
482.49	1174.95
482.67	1184.31
482.85	1303.68
483.03	1399.64
483.21	1549.43
483.39	1614.97
483.57	1617.31
483.74	1668.80
483.92	1888.81
484.10	1961.37
484.28	2108.82
484.46	2148.61
484.64	2193.08
484.82	2396.71
485.00	2487.99
485.18	2710.34
485.35	2803.96
485.53	3016.95
485.71	3035.67
485.89	3218.24
486.07	3220.58
486.25	3208.87
486.43	3288.45
486.61	3201.85
486.78	3222.92
486.96	3398.46
487.14	3339.94
487.32	3314.20
487.50	3255.69
487.68	3176.11
487.85	3199.51
488.03	3152.70
488.21	2993.55
488.39	3019.29
488.57	2951.42
488.75	2897.58
488.92	3117.59
489.10	2862.48
489.28	2846.09
489.46	2590.97
489.64	2553.52
489.81	2609.70
489.99	2506.71
490.17	2497.35
490.35	2576.93
490.53	2466.92
490.70	2450.54
490.88	2565.23
491.06	2654.17
491.24	2782.90
491.41	2825.03
491.59	2572.25
491.77	2537.14
491.95	2457.56
492.13	2324.15
492.30	2218.83
492.48	2221.17
492.66	2195.42
492.84	2162.66
493.01	2211.81
493.19	2167.34
493.37	2244.57
493.54	2005.84
493.72	2040.95
493.90	1949.67
494.08	2015.20
494.25	1968.39
494.43	1933.28
494.61	1863.07
494.79	1893.49
494.96	1865.41
495.14	1818.60
495.32	1811.57
495.49	1717.95
495.67	1734.34
495.85	1713.27
496.02	1710.93
496.20	1650.08
496.38	1596.25
496.55	1654.76
496.73	1678.16
496.91	1540.07
497.09	1528.37
497.26	1486.24
497.44	1467.52
497.62	1460.49
497.79	1291.98
497.97	1439.43
498.14	1427.73
498.32	1350.49
498.50	1336.45
498.67	1240.48
498.85	1156.22
499.03	1224.10
499.20	1247.51
499.38	1111.75
499.56	1205.38
499.73	1156.22
499.91	1181.97
500.08	1128.14
500.26	1064.94
500.44	1013.45
500.61	997.07
500.79	978.34
500.97	985.37
501.14	968.98
501.32	950.26
501.49	917.49
501.67	896.43
501.84	802.80
502.02	781.74
502.20	788.76
502.37	772.38
502.55	730.25
502.72	716.20
502.90	779.40
503.07	657.69
503.25	667.05
503.43	648.33
503.60	643.65
503.78	683.44
503.95	603.86
504.13	594.50
504.30	657.69
504.48	645.99
504.65	596.84
504.83	585.13
505.01	582.79
505.18	627.26
505.36	496.19
505.53	521.94
505.71	561.73
505.88	545.34
506.06	484.49
506.23	545.34
506.41	472.79
506.58	503.22
506.76	486.83
506.93	543.00
507.11	533.64
507.28	468.11
507.46	416.62
507.63	491.51
507.81	512.58
507.98	528.96
508.16	491.51
508.33	538.32
508.50	540.66
508.68	547.69
508.85	594.50
509.03	442.36
509.20	554.71
509.38	468.11
509.55	510.24
509.73	430.66
509.90	479.81
510.08	442.36
510.25	430.66
510.42	404.91
510.60	472.79
510.77	489.17
510.95	376.83
511.12	451.72
511.30	437.68
511.47	526.62
511.64	538.32
511.82	484.49
511.99	512.58
512.17	348.74
512.34	442.36
512.51	454.06
512.69	493.85
512.86	503.22
513.04	484.49
513.21	428.32
513.38	449.38
513.56	428.32
513.73	444.70
513.90	369.80
514.08	325.33
514.25	430.66
514.43	390.87
514.60	362.78
514.77	386.19
514.95	425.98
515.12	383.85
515.29	388.53
515.47	367.46
515.64	442.36
515.81	409.59
515.99	376.83
516.16	393.21
516.33	416.62
516.51	330.02
516.68	411.93
516.85	400.23
517.03	369.80
517.20	388.53
517.37	458.74
517.54	358.10
517.72	414.27
517.89	334.70
518.06	315.97
518.24	395.55
518.41	383.85
518.58	290.23
518.75	332.36
518.93	379.17
519.10	395.55
519.27	458.74
519.45	353.42
519.62	334.70
519.79	374.49
519.96	402.57
520.14	376.83
520.31	397.89
520.48	290.23
520.65	397.89
520.83	367.46
521.00	418.96
521.17	400.23
521.34	297.25
521.52	381.51
521.69	400.23
521.86	400.23
522.03	346.40
522.20	351.08
522.38	390.87
522.55	353.42
522.72	388.53
522.89	374.49
523.07	463.43
523.24	374.49
523.41	334.70
523.58	367.46
523.75	344.06
523.92	304.27
524.10	402.57
524.27	379.17
524.44	325.33
524.61	390.87
524.78	367.46
524.96	369.80
525.13	500.87
525.30	479.81
525.47	421.30
525.64	402.57
525.81	465.77
525.98	416.62
526.16	411.93
526.33	376.83
526.50	339.38
526.67	458.74
526.84	411.93
527.01	447.04
527.18	486.83
527.36	475.13
527.53	489.17
527.70	486.83
527.87	491.51
528.04	444.70
528.21	402.57
528.38	468.11
528.55	540.66
528.72	489.17
528.89	472.79
529.07	550.03
529.24	514.92
529.41	533.64
529.58	540.66
529.75	451.72
529.92	430.66
530.09	496.19
530.26	566.41
530.43	585.13
530.60	587.47
530.77	608.54
530.94	519.60
531.11	582.79
531.28	554.71
531.46	603.86
531.63	688.12
531.80	631.94
531.97	657.69
532.14	802.80
532.31	912.81
532.48	1111.75
532.65	1303.68
532.82	1453.47
532.99	1666.46
533.16	1893.49
533.33	1942.64
533.50	1877.11
533.67	1614.97
533.84	1490.92
534.01	1214.74
534.18	1114.10
534.35	1198.35
534.52	1137.50
534.69	1214.74
534.86	1310.70
535.03	1306.02
535.20	1399.64
535.37	1331.76
535.54	1430.07
535.71	1575.18
535.88	1652.42
536.05	1736.68
536.22	1802.21
536.38	2024.56
536.55	2249.25
536.72	2644.81
536.89	2726.72
537.06	3007.59
537.23	3468.67
537.40	3779.97
537.57	3892.31
537.74	4250.41
537.91	4400.21
538.08	4440.00
538.25	4479.79
538.42	4482.13
538.59	4805.12
538.75	4725.54
538.92	5090.67
539.09	5598.56
539.26	6204.76
539.43	6939.69
539.60	7955.48
539.77	8711.47
539.94	10040.90
540.11	10979.45
540.28	12081.85
540.44	13067.21
540.61	14115.77
540.78	16350.98
540.95	19955.41
541.12	23871.12
541.29	27154.90
541.46	28641.14
541.62	28257.29
541.79	27154.90
541.96	25270.76
542.13	23381.95
542.30	21876.99
542.47	20404.79
542.63	19372.61
542.80	18824.93
542.97	18480.87
543.14	18228.09
543.31	18494.91
543.48	18792.16
543.64	18958.34
543.81	18387.25
543.98	19119.84
544.15	18885.78
544.32	19346.87
544.48	19101.11
544.65	19112.81
544.82	19026.21
544.99	18906.85
545.16	19208.78
545.32	20311.17
545.49	31878.10
545.66	55128.98
545.83	63178.08
546.00	59372.37
546.16	45614.70
546.33	33530.51
546.50	25235.66
546.67	19335.17
546.83	17334.01
547.00	16587.38
547.17	15728.40
547.34	14869.42
547.50	14361.53
547.67	13755.33
547.84	13317.65
548.00	13048.49
548.17	12676.34
548.34	12042.06
548.51	11440.54
548.67	11105.84
548.84	10342.83
549.01	9893.44
549.18	9507.26
549.34	9039.15
549.51	8779.35
549.68	8358.05
549.84	7925.05
550.01	7705.04
550.18	7756.54
550.34	7054.37
550.51	6834.36
550.68	6541.80
550.84	6015.18
551.01	5783.46
551.18	5441.75
551.34	5184.29
551.51	5050.88
551.68	4973.64
551.84	4737.24
552.01	4447.02
552.18	4196.58
552.34	3971.89
552.51	3908.69
552.68	3822.09
552.84	3611.45
553.01	3566.98
553.18	3368.03
553.34	3225.26
553.51	3239.30
553.67	3164.40
553.84	2946.73
554.01	2846.09
554.17	2651.83
554.34	2487.99
554.51	2338.20
554.67	2291.38
554.84	2078.40
555.00	2010.52
555.17	1860.73
555.33	1837.32
555.50	1746.04
555.67	1554.12
555.83	1519.01
556.00	1451.13
556.16	1565.82
556.33	1465.18
556.50	1299.00
556.66	1245.16
556.83	1266.23
556.99	1238.14
557.16	1238.14
557.32	1109.41
557.49	1111.75
557.65	1104.73
557.82	1118.78
557.98	1111.75
558.15	1067.28
558.32	1025.15
558.48	1036.86
558.65	954.94
558.81	873.02
558.98	933.87
559.14	908.13
559.31	809.83
559.47	1041.54
559.64	863.66
559.80	847.27
559.97	849.61
560.13	805.14
560.30	784.08
560.46	898.77
560.63	791.10
560.79	861.32
560.96	908.13
561.12	866.00
561.29	847.27
561.45	758.33
561.61	830.89
561.78	889.40
561.94	847.27
562.11	758.33
562.27	807.48
562.44	819.19
562.60	802.80
562.77	723.23
562.93	730.25
563.10	795.78
563.26	784.08
563.42	755.99
563.59	812.17
563.75	695.14
563.92	711.52
564.08	648.33
564.24	788.76
564.41	723.23
564.57	746.63
564.74	615.56
564.90	636.63
565.07	634.29
565.23	685.78
565.39	634.29
565.56	683.44
565.72	547.69
565.88	610.88
566.05	592.16
566.21	657.69
566.38	622.58
566.54	631.94
566.70	587.47
566.87	587.47
567.03	622.58
567.19	641.31
567.36	599.18
567.52	720.88
567.68	613.22
567.85	624.92
568.01	631.94
568.17	657.69
568.34	620.24
568.50	802.80
568.66	653.01
568.83	671.73
568.99	690.46
569.15	601.52
569.32	582.79
569.48	631.94
569.64	622.58
569.81	547.69
569.97	535.98
570.13	554.71
570.30	519.60
570.46	500.87
570.62	435.34
570.78	491.51
570.95	491.51
571.11	496.19
571.27	521.94
571.43	489.17
571.60	472.79
571.76	507.90
571.92	538.32
572.09	435.34
572.25	510.24
572.41	571.09
572.57	472.79
572.74	482.15
572.90	608.54
573.06	507.90
573.22	503.22
573.38	629.60
573.55	489.17
573.71	547.69
573.87	573.43
574.03	533.64
574.20	592.16
574.36	547.69
574.52	608.54
574.68	615.56
574.84	608.54
575.01	716.20
575.17	730.25
575.33	753.65
575.49	844.93
575.65	786.42
575.82	891.74
575.98	1004.09
576.14	1055.58
576.30	2143.93
576.46	6516.05
576.62	12086.53
576.79	14267.91
576.95	10097.07
577.11	6612.01
577.27	4610.86
577.43	3152.70
577.59	2052.65
577.75	1521.35
577.92	1423.05
578.08	1366.87
578.24	1369.21
578.40	2265.64
578.56	6059.65
578.72	11126.91
578.88	12699.75
579.04	9558.75
579.21	6356.90
579.37	4760.65
579.53	3644.21
579.69	3536.55
579.85	4318.29
580.01	4877.68
580.17	4842.57
580.33	4072.53
580.49	3702.73
580.65	3129.30
580.82	2932.69
580.98	2691.62
581.14	2836.73
581.30	2974.82
581.46	3129.30
581.62	3454.63
581.78	3569.32
581.94	3904.01
582.10	4198.92
582.26	4294.88
582.42	4538.30
582.58	4723.20
582.74	4795.76
582.90	4919.81
583.06	4905.76
583.22	4889.38
583.38	4917.47
583.54	4695.11
583.70	4800.44
583.86	4947.89
584.02	4697.46
584.18	4638.94
584.34	4505.53
584.50	4517.23
584.66	4582.77
584.82	4243.39
584.98	4248.07
585.14	4117.00
585.30	4007.00
585.46	4124.02
585.62	4037.42
585.78	4032.74
585.94	3985.93
586.10	4212.96
586.26	4318.29
586.42	4844.91
586.58	5771.76
586.74	7040.33
586.90	8580.40
587.06	9561.09
587.22	9298.95
587.38	8596.79
587.54	7351.62
587.70	6143.91
587.86	5102.37
588.02	4477.44
588.18	3819.75
588.34	3447.61
588.49	3246.32
588.65	2995.89
588.81	2906.95
588.97	2822.69
589.13	2895.24
589.29	2698.64
589.45	2712.68
589.61	2782.90
589.77	2761.83
589.93	2661.19
590.08	2771.19
590.24	2925.67
590.40	2995.89
590.56	2979.50
590.72	3007.59
590.88	3110.57
591.04	3222.92
591.20	3351.65
591.35	3602.08
591.51	3595.06
591.67	3843.16
591.83	4182.54
591.99	4407.23
592.15	4917.47
592.31	5338.76
592.46	5598.56
592.62	6073.69
592.78	6525.41
592.94	6841.39
593.10	6637.76
593.26	6422.43
593.41	5898.15
593.57	5366.85
593.73	4734.90
593.89	4250.41
594.05	3740.18
594.20	3332.92
594.36	3080.14
594.52	2951.42
594.68	2715.02
594.84	2593.31
594.99	2429.48
595.15	2490.33
595.31	2527.78
595.47	2420.11
595.62	2424.80
595.78	2349.90
595.94	2321.81
596.10	2457.56
596.25	2413.09
596.41	2399.05
596.57	2441.18
596.73	2417.77
596.88	2385.01
597.04	2448.20
597.20	2356.92
597.36	2436.50
597.51	2490.33
597.67	2600.34
597.83	2722.04
597.99	2855.45
598.14	3052.06
598.30	3159.72
598.46	3468.67
598.61	3796.35
598.77	3826.78
598.93	3899.33
599.09	3978.91
599.24	3939.12
599.40	4016.36
599.56	4002.32
599.71	3789.33
599.87	3592.72
600.03	3300.16
600.18	3229.94
600.34	2988.86
600.50	2822.69
600.65	2548.84
600.81	2455.22
600.97	2305.43
601.12	2270.32
601.28	2157.97
601.44	2017.54
601.59	2008.18
601.75	1961.37
601.91	1849.02
602.06	1673.48
602.22	1682.85
602.37	1647.74
602.53	1514.33
602.69	1666.46
602.84	1565.82
603.00	1593.90
603.16	1577.52
603.31	1739.02
603.47	1713.27
603.62	1692.21
603.78	1816.26
603.94	1762.42
604.09	1834.98
604.25	1872.43
604.40	1916.90
604.56	1907.54
604.71	1870.09
604.87	1952.01
605.03	1954.35
605.18	1956.69
