SpectraSuite Data File
++++++++++++++++++++++++++++++++++++
Date: Fri Oct 04 11:42:02 GMT-05:00 2013
User: price-jones
Dark Spectrum Present: No
Reference Spectrum Present: No
Number of Sampled Component Spectra: 1
Spectrometers: USB2+H05261
Integration Time (usec): 100000 (USB2+H05261)
Spectra Averaged: 1 (USB2+H05261)
Boxcar Smoothing: 0 (USB2+H05261)
Correct for Electrical Dark: No (USB2+H05261)
Strobe/Lamp Enabled: No (USB2+H05261)
Correct for Detector Non-linearity: No (USB2+H05261)
Correct for Stray Light: No (USB2+H05261)
Number of Pixels in Processed Spectrum: 2048
>>>>>Begin Processed Spectral Data<<<<<
365.73	49.15
365.92	49.15
366.12	49.15
366.32	0.00
366.52	0.00
366.72	0.00
366.91	0.00
367.11	0.00
367.31	0.00
367.51	0.00
367.70	0.00
367.90	0.00
368.10	0.00
368.30	0.00
368.49	0.00
368.69	0.00
368.89	0.00
369.09	0.00
369.28	0.00
369.48	0.00
369.68	28.09
369.87	0.00
370.07	25.75
370.27	67.88
370.47	25.75
370.66	0.00
370.86	4.68
371.06	88.94
371.25	93.62
371.45	37.45
371.65	102.98
371.84	65.54
372.04	32.77
372.24	65.54
372.44	23.41
372.63	119.37
372.83	170.86
373.03	175.54
373.22	95.96
373.42	126.39
373.62	74.90
373.81	126.39
374.01	191.92
374.21	142.77
374.40	126.39
374.60	135.75
374.79	147.45
374.99	229.37
375.19	114.69
375.38	126.39
375.58	138.09
375.78	128.73
375.97	133.41
376.17	224.69
376.37	133.41
376.56	117.03
376.76	98.30
376.95	58.51
377.15	121.71
377.35	156.82
377.54	86.60
377.74	142.77
377.93	138.09
378.13	159.16
378.33	128.73
378.52	74.90
378.72	220.01
378.91	198.95
379.11	114.69
379.31	147.45
379.50	112.35
379.70	147.45
379.89	88.94
380.09	156.82
380.28	147.45
380.48	95.96
380.68	79.58
380.87	140.43
381.07	128.73
381.26	187.24
381.46	128.73
381.65	138.09
381.85	79.58
382.04	121.71
382.24	114.69
382.43	163.84
382.63	191.92
382.83	70.22
383.02	114.69
383.22	145.11
383.41	88.94
383.61	77.24
383.80	133.41
384.00	182.56
384.19	138.09
384.39	107.66
384.58	201.29
384.78	145.11
384.97	95.96
385.17	105.32
385.36	102.98
385.56	117.03
385.75	163.84
385.95	161.50
386.14	126.39
386.34	93.62
386.53	81.92
386.72	124.05
386.92	126.39
387.11	142.77
387.31	86.60
387.50	119.37
387.70	154.48
387.89	95.96
388.09	126.39
388.28	98.30
388.48	124.05
388.67	135.75
388.86	126.39
389.06	180.22
389.25	180.22
389.45	131.07
389.64	133.41
389.84	100.64
390.03	166.18
390.22	166.18
390.42	161.50
390.61	110.01
390.81	138.09
391.00	149.79
391.19	131.07
391.39	86.60
391.58	110.01
391.78	93.62
391.97	86.60
392.16	70.22
392.36	110.01
392.55	173.20
392.75	177.88
392.94	74.90
393.13	177.88
393.33	93.62
393.52	93.62
393.71	163.84
393.91	117.03
394.10	49.15
394.29	84.26
394.49	117.03
394.68	133.41
394.88	154.48
395.07	70.22
395.26	114.69
395.46	131.07
395.65	191.92
395.84	187.24
396.04	220.01
396.23	191.92
396.42	105.32
396.62	105.32
396.81	138.09
397.00	138.09
397.19	142.77
397.39	196.60
397.58	198.95
397.77	142.77
397.97	149.79
398.16	154.48
398.35	154.48
398.55	180.22
398.74	149.79
398.93	128.73
399.12	133.41
399.32	152.13
399.51	95.96
399.70	149.79
399.90	91.28
400.09	217.67
400.28	212.99
400.47	140.43
400.67	91.28
400.86	149.79
401.05	177.88
401.24	147.45
401.44	145.11
401.63	126.39
401.82	236.39
402.01	117.03
402.21	105.32
402.40	182.56
402.59	133.41
402.78	154.48
402.97	156.82
403.17	257.46
403.36	203.63
403.55	330.02
403.74	599.18
403.93	2064.35
404.13	4636.60
404.32	6525.41
404.51	5893.47
404.70	3449.95
404.89	1275.59
405.09	402.57
405.28	198.95
405.47	243.42
405.66	203.63
405.85	177.88
406.05	156.82
406.24	175.54
406.43	212.99
406.62	217.67
406.81	255.12
407.00	257.46
407.20	615.56
407.39	952.60
407.58	924.51
407.77	662.37
407.96	409.59
408.15	203.63
408.34	163.84
408.54	208.31
408.73	215.33
408.92	255.12
409.11	166.18
409.30	243.42
409.49	177.88
409.68	112.35
409.87	170.86
410.07	163.84
410.26	196.60
410.45	154.48
410.64	210.65
410.83	234.05
411.02	198.95
411.21	168.52
411.40	196.60
411.59	177.88
411.78	201.29
411.98	152.13
412.17	184.90
412.36	210.65
412.55	234.05
412.74	234.05
412.93	299.59
413.12	184.90
413.31	229.37
413.50	175.54
413.69	227.03
413.88	252.78
414.07	198.95
414.26	154.48
414.45	191.92
414.64	210.65
414.83	315.97
415.02	205.97
415.22	177.88
415.41	245.76
415.60	205.97
415.79	208.31
415.98	334.70
416.17	234.05
416.36	166.18
416.55	248.10
416.74	294.91
416.93	241.08
417.12	252.78
417.31	189.58
417.50	248.10
417.69	299.59
417.88	271.50
418.07	224.69
418.26	250.44
418.45	220.01
418.64	292.57
418.83	222.35
419.02	203.63
419.21	290.23
419.39	250.44
419.58	243.42
419.77	271.50
419.96	250.44
420.15	285.55
420.34	215.33
420.53	187.24
420.72	311.29
420.91	212.99
421.10	273.84
421.29	220.01
421.48	299.59
421.67	215.33
421.86	252.78
422.05	299.59
422.24	304.27
422.43	257.46
422.61	250.44
422.80	271.50
422.99	182.56
423.18	290.23
423.37	285.55
423.56	285.55
423.75	313.63
423.94	191.92
424.13	292.57
424.32	245.76
424.50	299.59
424.69	322.99
424.88	276.18
425.07	330.02
425.26	252.78
425.45	285.55
425.64	346.40
425.83	238.73
426.01	337.04
426.20	341.72
426.39	301.93
426.58	264.48
426.77	299.59
426.96	358.10
427.15	414.27
427.33	255.12
427.52	271.50
427.71	320.65
427.90	355.76
428.09	367.46
428.28	344.06
428.46	320.65
428.65	374.49
428.84	320.65
429.03	327.68
429.22	367.46
429.40	308.95
429.59	334.70
429.78	386.19
429.97	344.06
430.16	351.08
430.34	318.31
430.53	290.23
430.72	341.72
430.91	444.70
431.10	337.04
431.28	285.55
431.47	465.77
431.66	360.44
431.85	395.55
432.03	306.61
432.22	416.62
432.41	327.68
432.60	414.27
432.79	367.46
432.97	409.59
433.16	461.09
433.35	573.43
433.54	557.05
433.72	613.22
433.91	578.11
434.10	599.18
434.28	798.12
434.47	877.70
434.66	966.64
434.85	1177.29
435.03	3141.00
435.22	11674.59
435.41	27477.89
435.59	29376.06
435.78	18696.20
435.97	9181.92
436.16	3466.33
436.34	1310.70
436.53	856.64
436.72	695.14
436.90	580.45
437.09	552.37
437.28	535.98
437.46	528.96
437.65	475.13
437.84	486.83
438.02	489.17
438.21	416.62
438.40	390.87
438.58	372.15
438.77	451.72
438.96	470.45
439.14	390.87
439.33	512.58
439.52	498.53
439.70	414.27
439.89	430.66
440.08	458.74
440.26	449.38
440.45	440.02
440.63	503.22
440.82	423.64
441.01	456.40
441.19	461.09
441.38	341.72
441.57	528.96
441.75	433.00
441.94	489.17
442.12	442.36
442.31	449.38
442.50	414.27
442.68	451.72
442.87	440.02
443.05	423.64
443.24	463.43
443.43	491.51
443.61	472.79
443.80	456.40
443.98	463.43
444.17	421.30
444.35	421.30
444.54	367.46
444.73	430.66
444.91	456.40
445.10	416.62
445.28	367.46
445.47	379.17
445.65	526.62
445.84	484.49
446.02	362.78
446.21	423.64
446.39	493.85
446.58	491.51
446.77	430.66
446.95	388.53
447.14	421.30
447.32	409.59
447.51	444.70
447.69	402.57
447.88	458.74
448.06	435.34
448.25	379.17
448.43	390.87
448.62	341.72
448.80	381.51
448.99	482.15
449.17	463.43
449.36	390.87
449.54	468.11
449.73	395.55
449.91	484.49
450.10	397.89
450.28	505.56
450.46	421.30
450.65	491.51
450.83	449.38
451.02	442.36
451.20	416.62
451.39	444.70
451.57	423.64
451.76	407.25
451.94	451.72
452.13	437.68
452.31	339.38
452.49	437.68
452.68	404.91
452.86	383.85
453.05	430.66
453.23	503.22
453.42	468.11
453.60	428.32
453.78	463.43
453.97	442.36
454.15	461.09
454.34	428.32
454.52	383.85
454.70	440.02
454.89	348.74
455.07	442.36
455.26	386.19
455.44	447.04
455.62	433.00
455.81	458.74
455.99	435.34
456.17	379.17
456.36	425.98
456.54	444.70
456.73	351.08
456.91	475.13
457.09	425.98
457.28	451.72
457.46	449.38
457.64	437.68
457.83	444.70
458.01	365.12
458.19	390.87
458.38	369.80
458.56	372.15
458.74	496.19
458.93	461.09
459.11	400.23
459.29	374.49
459.48	456.40
459.66	414.27
459.84	367.46
460.03	468.11
460.21	418.96
460.39	381.51
460.57	416.62
460.76	418.96
460.94	442.36
461.12	397.89
461.31	512.58
461.49	482.15
461.67	433.00
461.85	386.19
462.04	353.42
462.22	887.06
462.40	402.57
462.59	423.64
462.77	416.62
462.95	475.13
463.13	404.91
463.32	430.66
463.50	449.38
463.68	447.04
463.86	440.02
464.05	388.53
464.23	498.53
464.41	393.21
464.59	458.74
464.78	437.68
464.96	507.90
465.14	351.08
465.32	351.08
465.50	433.00
465.69	341.72
465.87	353.42
466.05	454.06
466.23	421.30
466.41	383.85
466.60	320.65
466.78	435.34
466.96	454.06
467.14	407.25
467.32	451.72
467.51	416.62
467.69	390.87
467.87	411.93
468.05	421.30
468.23	440.02
468.41	344.06
468.60	411.93
468.78	362.78
468.96	379.17
469.14	292.57
469.32	423.64
469.50	304.27
469.69	414.27
469.87	425.98
470.05	327.68
470.23	400.23
470.41	299.59
470.59	397.89
470.77	379.17
470.95	465.77
471.14	404.91
471.32	388.53
471.50	447.04
471.68	400.23
471.86	447.04
472.04	362.78
472.22	365.12
472.40	318.31
472.58	418.96
472.77	344.06
472.95	404.91
473.13	461.09
473.31	437.68
473.49	463.43
473.67	486.83
473.85	404.91
474.03	386.19
474.21	372.15
474.39	519.60
474.57	465.77
474.75	318.31
474.93	358.10
475.12	379.17
475.30	423.64
475.48	311.29
475.66	353.42
475.84	390.87
476.02	404.91
476.20	390.87
476.38	360.44
476.56	388.53
476.74	411.93
476.92	360.44
477.10	330.02
477.28	414.27
477.46	510.24
477.64	482.15
477.82	409.59
478.00	397.89
478.18	475.13
478.36	369.80
478.54	479.81
478.72	475.13
478.90	414.27
479.08	421.30
479.26	491.51
479.44	486.83
479.62	475.13
479.80	615.56
479.98	528.96
480.16	587.47
480.34	575.77
480.52	610.88
480.70	655.35
480.88	592.16
481.06	575.77
481.24	582.79
481.41	617.90
481.59	760.67
481.77	826.21
481.95	835.57
482.13	870.68
482.31	926.85
482.49	1004.09
482.67	1125.80
482.85	1160.91
483.03	1158.57
483.21	1275.59
483.39	1362.19
483.57	1444.11
483.74	1558.80
483.92	1666.46
484.10	1664.12
484.28	1727.32
484.46	1954.35
484.64	1952.01
484.82	2127.55
485.00	2113.50
485.18	2127.55
485.35	2473.95
485.53	2583.95
485.71	2576.93
485.89	2637.78
486.07	2745.45
486.25	2867.16
486.43	2909.29
486.61	2850.77
486.78	2899.92
486.96	2841.41
487.14	2855.45
487.32	2937.37
487.50	2691.62
487.68	2806.30
487.85	2637.78
488.03	2670.55
488.21	2743.11
488.39	2609.70
488.57	2544.16
488.75	2485.65
488.92	2635.44
489.10	2480.97
489.28	2396.71
489.46	2328.83
489.64	2115.84
489.81	2218.83
489.99	2148.61
490.17	2064.35
490.35	2181.38
490.53	2246.91
490.70	2115.84
490.88	2174.36
491.06	2214.15
491.24	2473.95
491.41	2406.07
491.59	2263.30
491.77	2106.48
491.95	2064.35
492.13	2012.86
492.30	1970.73
492.48	2057.33
492.66	1930.94
492.84	1923.92
493.01	1802.21
493.19	1858.39
493.37	1797.53
493.54	1781.15
493.72	1753.06
493.90	1746.04
494.08	1743.70
494.25	1746.04
494.43	1739.02
494.61	1593.90
494.79	1629.01
494.96	1708.59
495.14	1521.35
495.32	1598.59
495.49	1474.54
495.67	1544.75
495.85	1495.60
496.02	1472.20
496.20	1509.65
496.38	1448.79
496.55	1432.41
496.73	1453.47
496.91	1320.06
497.09	1397.30
497.26	1369.21
497.44	1291.98
497.62	1240.48
497.79	1263.89
497.97	1261.55
498.14	1188.99
498.32	1130.48
498.50	1111.75
498.67	1121.12
498.85	1151.54
499.03	1048.56
499.20	1116.44
499.38	1074.31
499.56	1001.75
499.73	1029.84
499.91	931.53
500.08	1006.43
500.26	978.34
500.44	891.74
500.61	856.64
500.79	877.70
500.97	910.47
501.14	765.36
501.32	772.38
501.49	697.48
501.67	737.27
501.84	772.38
502.02	723.23
502.20	739.61
502.37	765.36
502.55	692.80
502.72	664.71
502.90	681.10
503.07	629.60
503.25	660.03
503.43	599.18
503.60	559.39
503.78	573.43
503.95	578.11
504.13	578.11
504.30	578.11
504.48	613.22
504.65	528.96
504.83	573.43
505.01	582.79
505.18	564.07
505.36	477.47
505.53	461.09
505.71	554.71
505.88	528.96
506.06	496.19
506.23	524.28
506.41	468.11
506.58	442.36
506.76	458.74
506.93	418.96
507.11	449.38
507.28	414.27
507.46	437.68
507.63	428.32
507.81	458.74
507.98	444.70
508.16	369.80
508.33	463.43
508.50	526.62
508.68	484.49
508.85	479.81
509.03	468.11
509.20	472.79
509.38	416.62
509.55	519.60
509.73	353.42
509.90	489.17
510.08	421.30
510.25	440.02
510.42	381.51
510.60	388.53
510.77	433.00
510.95	409.59
511.12	428.32
511.30	418.96
511.47	456.40
511.64	493.85
511.82	409.59
511.99	395.55
512.17	442.36
512.34	428.32
512.51	421.30
512.69	353.42
512.86	517.26
513.04	358.10
513.21	442.36
513.38	383.85
513.56	493.85
513.73	423.64
513.90	472.79
514.08	365.12
514.25	334.70
514.43	437.68
514.60	381.51
514.77	341.72
514.95	341.72
515.12	334.70
515.29	390.87
515.47	404.91
515.64	344.06
515.81	381.51
515.99	386.19
516.16	414.27
516.33	367.46
516.51	430.66
516.68	355.76
516.85	365.12
517.03	367.46
517.20	395.55
517.37	341.72
517.54	428.32
517.72	358.10
517.89	348.74
518.06	315.97
518.24	386.19
518.41	358.10
518.58	414.27
518.75	362.78
518.93	395.55
519.10	355.76
519.27	348.74
519.45	308.95
519.62	362.78
519.79	332.36
519.96	358.10
520.14	322.99
520.31	365.12
520.48	383.85
520.65	358.10
520.83	369.80
521.00	348.74
521.17	362.78
521.34	351.08
521.52	367.46
521.69	339.38
521.86	332.36
522.03	381.51
522.20	414.27
522.38	325.33
522.55	339.38
522.72	294.91
522.89	395.55
523.07	470.45
523.24	390.87
523.41	351.08
523.58	376.83
523.75	428.32
523.92	388.53
524.10	379.17
524.27	418.96
524.44	360.44
524.61	358.10
524.78	273.84
524.96	390.87
525.13	390.87
525.30	421.30
525.47	381.51
525.64	400.23
525.81	367.46
525.98	334.70
526.16	353.42
526.33	407.25
526.50	379.17
526.67	369.80
526.84	402.57
527.01	428.32
527.18	521.94
527.36	517.26
527.53	491.51
527.70	496.19
527.87	482.15
528.04	383.85
528.21	400.23
528.38	395.55
528.55	493.85
528.72	507.90
528.89	454.06
529.07	435.34
529.24	451.72
529.41	479.81
529.58	489.17
529.75	468.11
529.92	503.22
530.09	512.58
530.26	521.94
530.43	503.22
530.60	493.85
530.77	491.51
530.94	629.60
531.11	498.53
531.28	564.07
531.46	629.60
531.63	533.64
531.80	592.16
531.97	702.16
532.14	765.36
532.31	910.47
532.48	1064.94
532.65	1153.88
532.82	1210.06
532.99	1509.65
533.16	1589.22
533.33	1666.46
533.50	1600.93
533.67	1380.92
533.84	1249.85
534.01	1170.27
534.18	1060.26
534.35	877.70
534.52	1022.81
534.69	1111.75
534.86	966.64
535.03	1086.01
535.20	1203.04
535.37	1296.66
535.54	1369.21
535.71	1287.29
535.88	1439.43
536.05	1500.28
536.22	1619.65
536.38	1755.40
536.55	1968.39
536.72	2073.71
536.89	2340.54
537.06	2738.43
537.23	2904.60
537.40	3194.83
537.57	3356.33
537.74	3674.64
537.91	3709.75
538.08	3758.90
538.25	3836.14
538.42	3840.82
538.59	3985.93
538.75	4081.89
538.92	4362.76
539.09	4774.69
539.26	5181.95
539.43	5790.49
539.60	6513.71
539.77	7431.20
539.94	8538.27
540.11	9310.65
540.28	10134.52
540.44	11110.52
540.61	12044.40
540.78	13921.51
540.95	16821.43
541.12	20149.67
541.29	22534.68
541.46	23948.36
541.62	23702.61
541.79	22593.19
541.96	20786.30
542.13	19672.20
542.30	18478.53
542.47	17057.82
542.63	15929.69
542.80	15688.61
542.97	15484.98
543.14	15321.15
543.31	15508.39
543.48	15929.69
543.64	15761.17
543.81	15978.84
543.98	16152.04
544.15	16116.93
544.32	16023.31
544.48	16105.23
544.65	15875.85
544.82	15777.55
544.99	15889.90
545.16	16020.97
545.32	17099.95
545.49	27913.23
545.66	51121.98
545.83	58805.96
546.00	53389.96
546.16	37586.66
546.33	27721.30
546.50	20512.46
546.67	16212.89
546.83	14581.54
547.00	13933.21
547.17	13018.06
547.34	12535.91
547.50	11686.29
547.67	11705.02
547.84	11164.36
548.00	10471.56
548.17	10335.81
548.34	9818.55
548.51	9568.11
548.67	9109.36
548.84	8533.59
549.01	8528.91
549.18	7782.28
549.34	7557.59
549.51	7470.99
549.68	7159.70
549.84	6846.07
550.01	6434.13
550.18	6260.93
550.34	5849.00
550.51	5673.46
550.68	5394.93
550.84	5111.73
551.01	4816.82
551.18	4599.15
551.34	4437.66
551.51	4196.58
551.68	4079.55
551.84	3803.37
552.01	3768.26
552.18	3487.40
552.34	3536.55
552.51	3311.86
552.68	3145.68
552.84	3061.42
553.01	3007.59
553.18	2874.18
553.34	2724.38
553.51	2686.94
553.67	2679.91
553.84	2616.72
554.01	2410.75
554.17	2263.30
554.34	2134.57
554.51	1928.60
554.67	1839.66
554.84	1708.59
555.00	1729.66
555.17	1497.94
555.33	1537.73
555.50	1324.74
555.67	1355.17
555.83	1324.74
556.00	1357.51
556.16	1315.38
556.33	1254.53
556.50	1191.33
556.66	1071.97
556.83	1109.41
556.99	1046.22
557.16	1036.86
557.32	1032.18
557.49	954.94
557.65	980.68
557.82	901.11
557.98	931.53
558.15	880.04
558.32	823.87
558.48	994.73
558.65	821.53
558.81	835.57
558.98	833.23
559.14	774.72
559.31	784.08
559.47	772.38
559.64	809.83
559.80	744.29
559.97	706.84
560.13	746.63
560.30	671.73
560.46	723.23
560.63	723.23
560.79	695.14
560.96	746.63
561.12	683.44
561.29	779.40
561.45	678.76
561.61	732.59
561.78	842.59
561.94	648.33
562.11	678.76
562.27	704.50
562.44	753.65
562.60	709.18
562.77	620.24
562.93	791.10
563.10	770.04
563.26	671.73
563.42	634.29
563.59	669.39
563.75	638.97
563.92	653.01
564.08	627.26
564.24	709.18
564.41	664.71
564.57	617.90
564.74	664.71
564.90	641.31
565.07	648.33
565.23	533.64
565.39	552.37
565.56	636.63
565.72	594.50
565.88	564.07
566.05	578.11
566.21	543.00
566.38	545.34
566.54	622.58
566.70	521.94
566.87	489.17
567.03	566.41
567.19	596.84
567.36	638.97
567.52	533.64
567.68	601.52
567.85	519.60
568.01	622.58
568.17	514.92
568.34	564.07
568.50	603.86
568.66	636.63
568.83	589.82
568.99	566.41
569.15	636.63
569.32	582.79
569.48	519.60
569.64	540.66
569.81	475.13
569.97	505.56
570.13	479.81
570.30	496.19
570.46	425.98
570.62	456.40
570.78	461.09
570.95	383.85
571.11	479.81
571.27	428.32
571.43	475.13
571.60	521.94
571.76	416.62
571.92	425.98
572.09	400.23
572.25	514.92
572.41	442.36
572.57	461.09
572.74	470.45
572.90	465.77
573.06	500.87
573.22	458.74
573.38	491.51
573.55	433.00
573.71	573.43
573.87	468.11
574.03	416.62
574.20	564.07
574.36	519.60
574.52	550.03
574.68	667.05
574.84	634.29
575.01	638.97
575.17	685.78
575.33	636.63
575.49	765.36
575.65	779.40
575.82	784.08
575.98	866.00
576.14	933.87
576.30	1827.96
576.46	5813.89
576.62	10810.93
576.79	11370.32
576.95	8049.10
577.11	5282.59
577.27	3824.44
577.43	2612.04
577.59	1668.80
577.75	1303.68
577.92	1118.78
578.08	1235.80
578.24	1280.27
578.40	1968.39
578.56	5533.03
578.72	9434.70
578.88	10808.59
579.04	7999.95
579.21	5303.65
579.37	3941.46
579.53	3164.40
579.69	3112.91
579.85	3665.28
580.01	4135.73
580.17	3978.91
580.33	3506.12
580.49	3023.97
580.65	2637.78
580.82	2429.48
580.98	2361.60
581.14	2434.16
581.30	2534.80
581.46	2766.51
581.62	2916.31
581.78	3105.89
581.94	3417.18
582.10	3515.48
582.26	3772.94
582.42	3845.50
582.58	3843.16
582.74	3927.42
582.90	4014.02
583.06	3992.95
583.22	3990.61
583.38	4044.45
583.54	4070.19
583.70	3981.25
583.86	3988.27
584.02	3824.44
584.18	3861.88
584.34	3721.45
584.50	3658.26
584.66	3679.32
584.82	3679.32
584.98	3674.64
585.14	3597.40
585.30	3393.78
585.46	3496.76
585.62	3478.04
585.78	3440.59
585.94	3396.12
586.10	3522.51
586.26	3686.34
586.42	4032.74
586.58	4924.49
586.74	5963.68
586.90	7136.29
587.06	7852.50
587.22	7630.15
587.38	6970.12
587.54	6052.63
587.70	5100.03
587.86	4395.53
588.02	3688.68
588.18	3379.73
588.34	3028.65
588.49	2768.85
588.65	2595.65
588.81	2392.03
588.97	2368.62
589.13	2312.45
589.29	2232.87
589.45	2385.01
589.61	2193.08
589.77	2298.41
589.93	2359.26
590.08	2394.37
590.24	2448.20
590.40	2495.01
590.56	2429.48
590.72	2747.79
590.88	2541.82
591.04	2780.56
591.20	2913.97
591.35	3005.25
591.51	3260.37
591.67	3232.28
591.83	3403.14
591.99	3705.07
592.15	4091.26
592.31	4491.49
592.46	4896.40
592.62	5146.84
592.78	5521.32
592.94	5593.88
593.10	5675.80
593.26	5289.61
593.41	4865.97
593.57	4374.46
593.73	3803.37
593.89	3658.26
594.05	2956.10
594.20	2743.11
594.36	2530.12
594.52	2340.54
594.68	2267.98
594.84	2162.66
594.99	2204.78
595.15	2160.31
595.31	2024.56
595.47	2022.22
595.62	2059.67
595.78	1966.05
595.94	2040.95
596.10	2179.04
596.25	2001.16
596.41	2008.18
596.57	2001.16
596.73	2024.56
596.88	2026.90
597.04	2069.03
597.20	2040.95
597.36	2038.61
597.51	2195.42
597.67	2267.98
597.83	2272.66
597.99	2352.24
598.14	2647.15
598.30	2754.81
598.46	2923.33
598.61	3108.23
598.77	3192.49
598.93	3192.49
599.09	3384.41
599.24	3513.14
599.40	3461.65
599.56	3288.45
599.71	3185.47
599.87	2995.89
600.03	2906.95
600.18	2619.06
600.34	2462.24
600.50	2300.75
600.65	2064.35
600.81	2036.27
600.97	1912.22
601.12	1884.13
601.28	1713.27
601.44	1727.32
601.59	1612.63
601.75	1605.61
601.91	1556.46
602.06	1502.62
602.22	1394.96
602.37	1329.42
602.53	1406.66
602.69	1336.45
602.84	1474.54
603.00	1420.71
603.16	1446.45
603.31	1469.86
603.47	1380.92
603.62	1474.54
603.78	1540.07
603.94	1488.58
604.09	1561.14
604.25	1614.97
604.40	1579.86
604.56	1624.33
604.71	1586.88
604.87	1603.27
605.03	1664.12
605.18	1685.19
605.34	1631.35
605.49	1842.00
