SpectraSuite Data File
++++++++++++++++++++++++++++++++++++
Date: Fri Oct 04 11:42:22 GMT-05:00 2013
User: price-jones
Dark Spectrum Present: No
Reference Spectrum Present: No
Number of Sampled Component Spectra: 1
Spectrometers: USB2+H05261
Integration Time (usec): 100000 (USB2+H05261)
Spectra Averaged: 1 (USB2+H05261)
Boxcar Smoothing: 0 (USB2+H05261)
Correct for Electrical Dark: No (USB2+H05261)
Strobe/Lamp Enabled: No (USB2+H05261)
Correct for Detector Non-linearity: No (USB2+H05261)
Correct for Stray Light: No (USB2+H05261)
Number of Pixels in Processed Spectrum: 2048
>>>>>Begin Processed Spectral Data<<<<<
365.73	46.81
365.92	46.81
366.12	46.81
366.32	0.00
366.52	0.00
366.72	0.00
366.91	0.00
367.11	0.00
367.31	0.00
367.51	0.00
367.70	0.00
367.90	0.00
368.10	0.00
368.30	0.00
368.49	0.00
368.69	0.00
368.89	0.00
369.09	0.00
369.28	0.00
369.48	0.00
369.68	0.00
369.87	0.00
370.07	44.47
370.27	37.45
370.47	58.51
370.66	229.37
370.86	273.84
371.06	234.05
371.25	330.02
371.45	306.61
371.65	231.71
371.84	264.48
372.04	245.76
372.24	292.57
372.44	229.37
372.63	304.27
372.83	257.46
373.03	273.84
373.22	285.55
373.42	205.97
373.62	332.36
373.81	292.57
374.01	337.04
374.21	294.91
374.40	322.99
374.60	386.19
374.79	397.89
374.99	297.25
375.19	315.97
375.38	386.19
375.58	442.36
375.78	393.21
375.97	327.68
376.17	409.59
376.37	390.87
376.56	383.85
376.76	390.87
376.95	341.72
377.15	414.27
377.35	433.00
377.54	418.96
377.74	332.36
377.93	355.76
378.13	416.62
378.33	428.32
378.52	379.17
378.72	447.04
378.91	418.96
379.11	367.46
379.31	383.85
379.50	315.97
379.70	355.76
379.89	416.62
380.09	482.15
380.28	379.17
380.48	407.25
380.68	374.49
380.87	393.21
381.07	414.27
381.26	367.46
381.46	390.87
381.65	337.04
381.85	337.04
382.04	294.91
382.24	330.02
382.43	327.68
382.63	318.31
382.83	257.46
383.02	367.46
383.22	311.29
383.41	334.70
383.61	306.61
383.80	348.74
384.00	362.78
384.19	381.51
384.39	390.87
384.58	440.02
384.78	500.87
384.97	440.02
385.17	383.85
385.36	299.59
385.56	358.10
385.75	358.10
385.95	327.68
386.14	505.56
386.34	365.12
386.53	280.86
386.72	379.17
386.92	433.00
387.11	397.89
387.31	433.00
387.50	292.57
387.70	330.02
387.89	465.77
388.09	365.12
388.28	306.61
388.48	407.25
388.67	465.77
388.86	449.38
389.06	557.05
389.25	517.26
389.45	479.81
389.64	547.69
389.84	496.19
390.03	458.74
390.22	484.49
390.42	472.79
390.61	451.72
390.81	528.96
391.00	690.46
391.19	507.90
391.39	531.30
391.58	547.69
391.78	421.30
391.97	526.62
392.16	463.43
392.36	407.25
392.55	475.13
392.75	264.48
392.94	292.57
393.13	250.44
393.33	411.93
393.52	330.02
393.71	402.57
393.91	496.19
394.10	444.70
394.29	437.68
394.49	521.94
394.68	603.86
394.88	477.47
395.07	587.47
395.26	636.63
395.46	484.49
395.65	496.19
395.84	524.28
396.04	465.77
396.23	383.85
396.42	332.36
396.62	301.93
396.81	351.08
397.00	463.43
397.19	533.64
397.39	552.37
397.58	613.22
397.77	655.35
397.97	608.54
398.16	685.78
398.35	716.20
398.55	645.99
398.74	699.82
398.93	763.01
399.12	770.04
399.32	770.04
399.51	746.63
399.70	704.50
399.90	770.04
400.09	781.74
400.28	786.42
400.47	744.29
400.67	800.46
400.86	880.04
401.05	786.42
401.24	809.83
401.44	814.51
401.63	901.11
401.82	861.32
402.01	788.76
402.21	856.64
402.40	910.47
402.59	779.40
402.78	814.51
402.97	798.12
403.17	755.99
403.36	877.70
403.55	847.27
403.74	873.02
403.93	896.43
404.13	849.61
404.32	830.89
404.51	851.96
404.70	929.19
404.89	805.14
405.09	826.21
405.28	833.23
405.47	833.23
405.66	866.00
405.85	807.48
406.05	847.27
406.24	868.34
406.43	814.51
406.62	814.51
406.81	882.38
407.00	816.85
407.20	856.64
407.39	795.78
407.58	964.30
407.77	889.40
407.96	936.21
408.15	847.27
408.34	880.04
408.54	940.90
408.73	961.96
408.92	968.98
409.11	922.17
409.30	938.55
409.49	889.40
409.68	802.80
409.87	695.14
410.07	786.42
410.26	826.21
410.45	866.00
410.64	924.51
410.83	950.26
411.02	999.41
411.21	1069.62
411.40	1048.56
411.59	896.43
411.78	877.70
411.98	976.00
412.17	945.58
412.36	950.26
412.55	943.24
412.74	936.21
412.93	1015.79
413.12	905.79
413.31	983.02
413.50	1008.77
413.69	1076.65
413.88	1048.56
414.07	961.96
414.26	990.05
414.45	947.92
414.64	992.39
414.83	980.68
415.02	1006.43
415.22	966.64
415.41	1057.92
415.60	1069.62
415.79	1111.75
415.98	1238.14
416.17	1139.84
416.36	1050.90
416.55	1039.20
416.74	1013.45
416.93	1053.24
417.12	1022.81
417.31	947.92
417.50	1032.18
417.69	1158.57
417.88	1097.71
418.07	1022.81
418.26	1025.15
418.45	1060.26
418.64	1041.54
418.83	1111.75
419.02	1048.56
419.21	1111.75
419.39	1062.60
419.58	950.26
419.77	968.98
419.96	1053.24
420.15	1188.99
420.34	1118.78
420.53	1198.35
420.72	1160.91
420.91	1160.91
421.10	1114.10
421.29	1095.37
421.48	1090.69
421.67	1048.56
421.86	1142.18
422.05	1114.10
422.24	1001.75
422.43	966.64
422.61	987.71
422.80	1207.72
422.99	1118.78
423.18	1032.18
423.37	1062.60
423.56	1039.20
423.75	1095.37
423.94	1104.73
424.13	1020.47
424.32	999.41
424.50	1027.50
424.69	1123.46
424.88	1121.12
425.07	1062.60
425.26	1046.22
425.45	1104.73
425.64	1078.99
425.83	994.73
426.01	1104.73
426.20	1118.78
426.39	1032.18
426.58	987.71
426.77	959.62
426.96	987.71
427.15	985.37
427.33	1006.43
427.52	1029.84
427.71	1055.58
427.90	1027.50
428.09	1013.45
428.28	954.94
428.46	1004.09
428.65	1043.88
428.84	1043.88
429.03	1053.24
429.22	971.32
429.40	887.06
429.59	915.15
429.78	826.21
429.97	875.36
430.16	751.31
430.34	786.42
430.53	720.88
430.72	826.21
430.91	931.53
431.10	908.13
431.28	1123.46
431.47	1291.98
431.66	1186.65
431.85	1240.48
432.03	1076.65
432.22	1041.54
432.41	1032.18
432.60	1135.16
432.79	1142.18
432.97	1146.86
433.16	1284.95
433.35	1165.59
433.54	1022.81
433.72	1039.20
433.91	1048.56
434.10	1078.99
434.28	1057.92
434.47	1266.23
434.66	1207.72
434.85	1219.42
435.03	1249.85
435.22	1502.62
435.41	1624.33
435.59	1715.61
435.78	1614.97
435.97	1376.24
436.16	1409.00
436.34	1320.06
436.53	1240.48
436.72	1338.79
436.90	1158.57
437.09	1123.46
437.28	1114.10
437.46	1240.48
437.65	1137.50
437.84	1118.78
438.02	1071.97
438.21	959.62
438.40	1029.84
438.58	1121.12
438.77	1217.08
438.96	1242.82
439.14	1224.10
439.33	1359.85
439.52	1371.55
439.70	1245.16
439.89	1308.36
440.08	1158.57
440.26	1179.63
440.45	1282.61
440.63	1186.65
440.82	1458.15
441.01	1345.81
441.19	1355.17
441.38	1350.49
441.57	1497.94
441.75	1362.19
441.94	1458.15
442.12	1310.70
442.31	1420.71
442.50	1416.02
442.68	1366.87
442.87	1376.24
443.05	1476.88
443.24	1488.58
443.43	1434.75
443.61	1561.14
443.80	1460.49
443.98	1277.93
444.17	1455.81
444.35	1345.81
444.54	1481.56
444.73	1465.18
444.91	1378.58
445.10	1385.60
445.28	1383.26
445.47	1329.42
445.65	1214.74
445.84	1303.68
446.02	1411.34
446.21	1474.54
446.39	1420.71
446.58	1430.07
446.77	1299.00
446.95	1446.45
447.14	1423.05
447.32	1540.07
447.51	1423.05
447.69	1378.58
447.88	1418.36
448.06	1350.49
448.25	1544.75
448.43	1462.83
448.62	1380.92
448.80	1411.34
448.99	1399.64
449.17	1500.28
449.36	1416.02
449.54	1612.63
449.73	1591.56
449.91	1563.48
450.10	1610.29
450.28	1657.10
450.46	1650.08
450.65	1645.40
450.83	1671.14
451.02	1528.37
451.20	1624.33
451.39	1572.84
451.57	1472.20
451.76	1439.43
451.94	1535.39
452.13	1511.99
452.31	1467.52
452.49	1502.62
452.68	1303.68
452.86	1338.79
453.05	1521.35
453.23	1420.71
453.42	1526.03
453.60	1544.75
453.78	1533.05
453.97	1521.35
454.15	1465.18
454.34	1502.62
454.52	1493.26
454.70	1474.54
454.89	1467.52
455.07	1430.07
455.26	1490.92
455.44	1488.58
455.62	1565.82
455.81	1568.16
455.99	1603.27
456.17	1551.78
456.36	1500.28
456.54	1537.73
456.73	1636.03
456.91	1582.20
457.09	1612.63
457.28	1619.65
457.46	1605.61
457.64	1549.43
457.83	1612.63
458.01	1514.33
458.19	1490.92
458.38	1467.52
458.56	1547.09
458.74	1535.39
458.93	1507.30
459.11	1551.78
459.29	1500.28
459.48	1631.35
459.66	1584.54
459.84	1659.44
460.03	1640.72
460.21	1610.29
460.39	1582.20
460.57	1563.48
460.76	1647.74
460.94	1673.48
461.12	1561.14
461.31	1682.85
461.49	1638.38
461.67	1535.39
461.85	1703.91
462.04	1598.59
462.22	1767.10
462.40	1764.76
462.59	1682.85
462.77	1600.93
462.95	1680.50
463.13	1565.82
463.32	1633.69
463.50	1554.12
463.68	1561.14
463.86	1617.31
464.05	1643.06
464.23	1554.12
464.41	1591.56
464.59	1535.39
464.78	1593.90
464.96	1563.48
465.14	1645.40
465.32	1647.74
465.50	1647.74
465.69	1680.50
465.87	1652.42
466.05	1675.82
466.23	1617.31
466.41	1528.37
466.60	1514.33
466.78	1547.09
466.96	1586.88
467.14	1600.93
467.32	1591.56
467.51	1600.93
467.69	1582.20
467.87	1647.74
468.05	1671.14
468.23	1617.31
468.41	1619.65
468.60	1617.31
468.78	1572.84
468.96	1558.80
469.14	1657.10
469.32	1596.25
469.50	1514.33
469.69	1533.05
469.87	1507.30
470.05	1612.63
470.23	1584.54
470.41	1619.65
470.59	1603.27
470.77	1526.03
470.95	1577.52
471.14	1504.96
471.32	1514.33
471.50	1685.19
471.68	1703.91
471.86	1659.44
472.04	1659.44
472.22	1760.08
472.40	1624.33
472.58	1689.87
472.77	1614.97
472.95	1657.10
473.13	1659.44
473.31	1675.82
473.49	1516.67
473.67	1720.29
473.85	1621.99
474.03	1724.97
474.21	1715.61
474.39	1804.55
474.57	1722.63
474.75	1715.61
474.93	1746.04
475.12	1701.57
475.30	1671.14
475.48	1717.95
475.66	1598.59
475.84	1694.55
476.02	1713.27
476.20	1643.06
476.38	1811.57
476.56	1874.77
476.74	1750.72
476.92	1732.00
477.10	1743.70
477.28	1851.36
477.46	2010.52
477.64	1853.70
477.82	1839.66
478.00	1923.92
478.18	1900.52
478.36	1884.13
478.54	1844.34
478.72	1893.49
478.90	1940.30
479.08	1973.07
479.26	2033.93
479.44	1975.41
479.62	1923.92
479.80	1954.35
479.98	2001.16
480.16	2003.50
480.34	1926.26
480.52	1973.07
480.70	1984.77
480.88	2092.44
481.06	2045.63
481.24	2071.37
481.41	2106.48
481.59	2216.49
481.77	2087.76
481.95	2038.61
482.13	2120.53
482.31	2169.68
482.49	2083.08
482.67	2113.50
482.85	2090.10
483.03	2150.95
483.21	2179.04
483.39	2122.87
483.57	2050.31
483.74	2303.09
483.92	2232.87
484.10	2200.10
484.28	2221.17
484.46	2211.81
484.64	2237.55
484.82	2228.19
485.00	2209.47
485.18	2202.44
485.35	2228.19
485.53	1996.48
485.71	1888.81
485.89	1783.49
486.07	1837.32
486.25	2069.03
486.43	2101.80
486.61	2150.95
486.78	2232.87
486.96	2176.70
487.14	2239.89
487.32	2289.04
487.50	2307.77
487.68	2509.05
487.85	2359.26
488.03	2441.18
488.21	2443.52
488.39	2354.58
488.57	2377.98
488.75	2328.83
488.92	2686.94
489.10	2480.97
489.28	2579.27
489.46	2588.63
489.64	2649.49
489.81	2574.59
489.99	2693.96
490.17	2574.59
490.35	2724.38
490.53	2651.83
490.70	2567.57
490.88	2572.25
491.06	2677.57
491.24	2647.15
491.41	2623.74
491.59	2457.56
491.77	2356.92
491.95	2464.58
492.13	2602.68
492.30	2567.57
492.48	2696.30
492.66	2740.77
492.84	2693.96
493.01	2710.34
493.19	2656.51
493.37	2899.92
493.54	2675.23
493.72	2640.12
493.90	2754.81
494.08	2780.56
494.25	2832.05
494.43	2888.22
494.61	2906.95
494.79	2848.43
494.96	2850.77
495.14	2899.92
495.32	2778.22
495.49	2633.10
495.67	2722.04
495.85	2939.71
496.02	2902.26
496.20	2904.60
496.38	2930.35
496.55	2818.00
496.73	3155.04
496.91	3005.25
497.09	3042.70
497.26	3009.93
497.44	3000.57
497.62	2878.86
497.79	2984.18
497.97	2761.83
498.14	2736.09
498.32	2839.07
498.50	2986.52
498.67	2876.52
498.85	3026.31
499.03	3000.57
499.20	3101.21
499.38	3026.31
499.56	3105.89
499.73	2979.50
499.91	2829.71
500.08	2832.05
500.26	2820.35
500.44	2740.77
500.61	2949.08
500.79	2869.50
500.97	2878.86
501.14	2848.43
501.32	2846.09
501.49	2808.64
501.67	2820.35
501.84	2935.03
502.02	2876.52
502.20	2895.24
502.37	2867.16
502.55	3005.25
502.72	2991.20
502.90	3045.04
503.07	2974.82
503.25	2920.99
503.43	2700.98
503.60	2808.64
503.78	2579.27
503.95	2686.94
504.13	2820.35
504.30	2913.97
504.48	2937.37
504.65	3056.74
504.83	3012.27
505.01	3136.32
505.18	3082.49
505.36	3138.66
505.53	3145.68
505.71	3208.87
505.88	3159.72
506.06	3122.27
506.23	2981.84
506.41	3124.62
506.58	2979.50
506.76	3091.85
506.93	3028.65
507.11	3119.93
507.28	3012.27
507.46	2864.82
507.63	2920.99
507.81	2850.77
507.98	2895.24
508.16	3075.46
508.33	3035.67
508.50	3173.77
508.68	3243.98
508.85	3131.64
509.03	3197.17
509.20	3178.45
509.38	3213.56
509.55	3152.70
509.73	3028.65
509.90	3169.09
510.08	3166.74
510.25	3030.99
510.42	3101.21
510.60	3148.02
510.77	3112.91
510.95	3272.07
511.12	3267.39
511.30	3363.35
511.47	3279.09
511.64	3330.58
511.82	3274.41
511.99	3307.18
512.17	3129.30
512.34	3061.42
512.51	3136.32
512.69	3108.23
512.86	3236.96
513.04	3363.35
513.21	3166.74
513.38	3194.83
513.56	3129.30
513.73	3126.96
513.90	3150.36
514.08	2998.23
514.25	3155.04
514.43	3239.30
514.60	3157.38
514.77	3117.59
514.95	3262.71
515.12	3185.47
515.29	3234.62
515.47	3246.32
515.64	3393.78
515.81	3300.16
515.99	3180.79
516.16	3030.99
516.33	2722.04
516.51	2682.25
516.68	2502.03
516.85	2612.04
517.03	2630.76
517.20	2860.13
517.37	3075.46
517.54	3274.41
517.72	3105.89
517.89	2846.09
518.06	2740.77
518.24	2663.53
518.41	2820.35
518.58	3035.67
518.75	3115.25
518.93	3068.44
519.10	3019.29
519.27	3171.43
519.45	3089.51
519.62	3283.77
519.79	3206.53
519.96	3201.85
520.14	3302.50
520.31	3094.19
520.48	3148.02
520.65	3199.51
520.83	3265.05
521.00	3358.67
521.17	3262.71
521.34	3215.90
521.52	3353.99
521.69	3316.54
521.86	3218.24
522.03	3309.52
522.20	3269.73
522.38	3091.85
522.55	3133.98
522.72	3061.42
522.89	3098.87
523.07	3269.73
523.24	3286.11
523.41	3258.03
523.58	3421.86
523.75	3473.36
523.92	3531.87
524.10	3316.54
524.27	3398.46
524.44	3396.12
524.61	3393.78
524.78	3389.10
524.96	3321.22
525.13	3375.05
525.30	3229.94
525.47	3356.33
525.64	3442.93
525.81	3377.39
525.98	3162.06
526.16	3082.49
526.33	2970.14
526.50	2986.52
526.67	2822.69
526.84	2953.76
527.01	2974.82
527.18	3133.98
527.36	3311.86
527.53	3393.78
527.70	3454.63
527.87	3314.20
528.04	3309.52
528.21	3398.46
528.38	3412.50
528.55	3527.19
528.72	3552.93
528.89	3655.92
529.07	3592.72
529.24	3389.10
529.41	3412.50
529.58	3143.34
529.75	3262.71
529.92	3363.35
530.09	3384.41
530.26	3562.30
530.43	3419.52
530.60	3510.80
530.77	3447.61
530.94	3403.14
531.11	3585.70
531.28	3471.01
531.46	3456.97
531.63	3414.84
531.80	3522.51
531.97	3414.84
532.14	3351.65
532.31	3265.05
532.48	3126.96
532.65	3119.93
532.82	3094.19
532.99	3361.01
533.16	3410.16
533.33	3461.65
533.50	3517.83
533.67	3391.44
533.84	3339.94
534.01	3276.75
534.18	3260.37
534.35	3421.86
534.52	3339.94
534.69	3358.67
534.86	3506.12
535.03	3492.08
535.20	3499.10
535.37	3433.57
535.54	3651.24
535.71	3492.08
535.88	3522.51
536.05	3393.78
536.22	3510.80
536.38	3452.29
536.55	3295.47
536.72	3318.88
536.89	3192.49
537.06	3361.01
537.23	3346.97
537.40	3475.70
537.57	3492.08
537.74	3559.95
537.91	3335.26
538.08	3337.60
538.25	3389.10
538.42	3492.08
538.59	3506.12
538.75	3461.65
538.92	3339.94
539.09	3405.48
539.26	3407.82
539.43	3410.16
539.60	3363.35
539.77	3349.31
539.94	3398.46
540.11	3400.80
540.28	3337.60
540.44	3197.17
540.61	3328.24
540.78	3403.14
540.95	3480.38
541.12	3517.83
541.29	3449.95
541.46	3632.51
541.62	3770.60
541.79	3726.13
541.96	3574.00
542.13	3716.77
542.30	3651.24
542.47	3726.13
542.63	3667.62
542.80	3662.94
542.97	3527.19
543.14	3527.19
543.31	3534.21
543.48	3517.83
543.64	3850.18
543.81	3794.01
543.98	3953.16
544.15	3684.00
544.32	3595.06
544.48	3442.93
544.65	3625.49
544.82	3721.45
544.99	3585.70
545.16	3634.85
545.32	3534.21
545.49	3927.42
545.66	4477.44
545.83	4454.04
546.00	4257.43
546.16	3941.46
546.33	3805.71
546.50	3531.87
546.67	3627.83
546.83	3506.12
547.00	3463.99
547.17	3309.52
547.34	3473.36
547.50	3405.48
547.67	3454.63
547.84	3372.71
548.00	3375.05
548.17	3407.82
548.34	3454.63
548.51	3435.91
548.67	3396.12
548.84	3531.87
549.01	3344.63
549.18	3449.95
549.34	3475.70
549.51	3459.31
549.68	3351.65
549.84	3321.22
550.01	3279.09
550.18	3421.86
550.34	3379.73
550.51	3431.23
550.68	3517.83
550.84	3288.45
551.01	3283.77
551.18	3274.41
551.34	3262.71
551.51	3433.57
551.68	3510.80
551.84	3382.07
552.01	3283.77
552.18	3243.98
552.34	3375.05
552.51	3241.64
552.68	3180.79
552.84	3279.09
553.01	3316.54
553.18	3260.37
553.34	3410.16
553.51	3258.03
553.67	3391.44
553.84	3468.67
554.01	3452.29
554.17	3337.60
554.34	3229.94
554.51	3396.12
554.67	3417.18
554.84	3356.33
555.00	3328.24
555.17	3328.24
555.33	3229.94
555.50	3286.11
555.67	3243.98
555.83	3155.04
556.00	3187.81
556.16	3375.05
556.33	3215.90
556.50	3080.14
556.66	3110.57
556.83	3269.73
556.99	3089.51
557.16	3141.00
557.32	3178.45
557.49	3098.87
557.65	3255.69
557.82	3122.27
557.98	3180.79
558.15	3007.59
558.32	3047.38
558.48	2984.18
558.65	3054.40
558.81	3112.91
558.98	3030.99
559.14	2993.55
559.31	3026.31
559.47	3138.66
559.64	2981.84
559.80	3105.89
559.97	3115.25
560.13	2981.84
560.30	3197.17
560.46	3178.45
560.63	3084.83
560.79	3241.64
560.96	3232.28
561.12	3066.10
561.29	3023.97
561.45	2899.92
561.61	2883.54
561.78	3178.45
561.94	2937.37
562.11	2979.50
562.27	2951.42
562.44	2916.31
562.60	3002.91
562.77	3112.91
562.93	3124.62
563.10	3150.36
563.26	3133.98
563.42	3110.57
563.59	3124.62
563.75	2946.73
563.92	3026.31
564.08	3061.42
564.24	3136.32
564.41	3105.89
564.57	2979.50
564.74	2986.52
564.90	3045.04
565.07	2953.76
565.23	3035.67
565.39	2897.58
565.56	2871.84
565.72	2773.53
565.88	2920.99
566.05	2867.16
566.21	3030.99
566.38	2843.75
566.54	2860.13
566.70	3002.91
566.87	2928.01
567.03	2949.08
567.19	2944.39
567.36	2967.80
567.52	2979.50
567.68	2972.48
567.85	2895.24
568.01	2766.51
568.17	2787.58
568.34	2752.47
568.50	2855.45
568.66	2602.68
568.83	2754.81
568.99	2747.79
569.15	2923.33
569.32	2813.32
569.48	2712.68
569.64	2806.30
569.81	2785.24
569.97	2724.38
570.13	2705.66
570.30	2782.90
570.46	2724.38
570.62	2635.44
570.78	2677.57
570.95	2649.49
571.11	2773.53
571.27	2771.19
571.43	2789.92
571.60	2696.30
571.76	2731.41
571.92	2794.60
572.09	2857.79
572.25	2731.41
572.41	2731.41
572.57	2778.22
572.74	2939.71
572.90	2785.24
573.06	2796.94
573.22	2815.66
573.38	2761.83
573.55	2754.81
573.71	2789.92
573.87	2771.19
574.03	2764.17
574.20	2698.64
574.36	2656.51
574.52	2609.70
574.68	2766.51
574.84	2778.22
575.01	2628.42
575.17	2715.02
575.33	2626.08
575.49	2738.43
575.65	2752.47
575.82	2642.46
575.98	2597.99
576.14	2656.51
576.30	2717.36
576.46	2925.67
576.62	2970.14
576.79	2909.29
576.95	2754.81
577.11	2796.94
577.27	2764.17
577.43	2715.02
577.59	2729.06
577.75	2628.42
577.92	2548.84
578.08	2539.48
578.24	2583.95
578.40	2682.25
578.56	2895.24
578.72	2963.12
578.88	2745.45
579.04	2757.15
579.21	2818.00
579.37	2722.04
579.53	2668.21
579.69	2670.55
579.85	2761.83
580.01	2806.30
580.17	2724.38
580.33	2754.81
580.49	2705.66
580.65	2668.21
580.82	2771.19
580.98	2796.94
581.14	2738.43
581.30	2626.08
581.46	2698.64
581.62	2733.75
581.78	2609.70
581.94	2904.60
582.10	2782.90
582.26	2794.60
582.42	2825.03
582.58	2818.00
582.74	2890.56
582.90	2839.07
583.06	2773.53
583.22	2724.38
583.38	2862.48
583.54	2904.60
583.70	2780.56
583.86	2773.53
584.02	2731.41
584.18	2913.97
584.34	2778.22
584.50	2757.15
584.66	2731.41
584.82	2668.21
584.98	2626.08
585.14	2647.15
585.30	2621.40
585.46	2703.32
585.62	2527.78
585.78	2590.97
585.94	2581.61
586.10	2677.57
586.26	2595.65
586.42	2677.57
586.58	2668.21
586.74	2684.59
586.90	2698.64
587.06	2661.19
587.22	2691.62
587.38	2628.42
587.54	2637.78
587.70	2534.80
587.86	2448.20
588.02	2373.30
588.18	2370.96
588.34	2181.38
588.49	2083.08
588.65	2043.29
588.81	1905.20
588.97	1975.41
589.13	1881.79
589.29	1987.11
589.45	1886.47
589.61	1952.01
589.77	2125.21
589.93	2118.18
590.08	2172.02
590.24	2221.17
590.40	2232.87
590.56	2284.36
590.72	2214.15
590.88	2221.17
591.04	2225.85
591.20	2249.25
591.35	2275.00
591.51	2237.55
591.67	2265.64
591.83	2094.78
591.99	2090.10
592.15	2183.72
592.31	2129.89
592.46	2352.24
592.62	2319.47
592.78	2382.67
592.94	2335.85
593.10	2279.68
593.26	2373.30
593.41	2436.50
593.57	2387.35
593.73	2181.38
593.89	2120.53
594.05	2019.88
594.20	2022.22
594.36	2012.86
594.52	2094.78
594.68	2062.01
594.84	2150.95
594.99	2136.91
595.15	2237.55
595.31	2232.87
595.47	2317.13
595.62	2174.36
595.78	2326.49
595.94	2420.11
596.10	2296.07
596.25	2291.38
596.41	2216.49
596.57	2190.74
596.73	2101.80
596.88	2167.34
597.04	2326.49
597.20	2300.75
597.36	2214.15
597.51	2284.36
597.67	2251.60
597.83	2314.79
597.99	2410.75
598.14	2284.36
598.30	2235.21
598.46	2270.32
598.61	2389.69
598.77	2321.81
598.93	2286.70
599.09	2235.21
