SpectraSuite Data File
++++++++++++++++++++++++++++++++++++
Date: Fri Oct 04 11:42:06 GMT-05:00 2013
User: price-jones
Dark Spectrum Present: No
Reference Spectrum Present: No
Number of Sampled Component Spectra: 1
Spectrometers: USB2+H05261
Integration Time (usec): 100000 (USB2+H05261)
Spectra Averaged: 1 (USB2+H05261)
Boxcar Smoothing: 0 (USB2+H05261)
Correct for Electrical Dark: No (USB2+H05261)
Strobe/Lamp Enabled: No (USB2+H05261)
Correct for Detector Non-linearity: No (USB2+H05261)
Correct for Stray Light: No (USB2+H05261)
Number of Pixels in Processed Spectrum: 2048
>>>>>Begin Processed Spectral Data<<<<<
365.73	18.72
365.92	18.72
366.12	18.72
366.32	0.00
366.52	0.00
366.72	0.00
366.91	0.00
367.11	0.00
367.31	0.00
367.51	0.00
367.70	0.00
367.90	0.00
368.10	0.00
368.30	0.00
368.49	0.00
368.69	0.00
368.89	0.00
369.09	0.00
369.28	0.00
369.48	0.00
369.68	0.00
369.87	0.00
370.07	0.00
370.27	16.38
370.47	0.00
370.66	42.13
370.86	0.00
371.06	53.83
371.25	81.92
371.45	67.88
371.65	105.32
371.84	112.35
372.04	100.64
372.24	133.41
372.44	126.39
372.63	110.01
372.83	100.64
373.03	117.03
373.22	84.26
373.42	102.98
373.62	86.60
373.81	170.86
374.01	154.48
374.21	175.54
374.40	154.48
374.60	156.82
374.79	39.79
374.99	147.45
375.19	112.35
375.38	173.20
375.58	39.79
375.78	117.03
375.97	166.18
376.17	152.13
376.37	86.60
376.56	72.56
376.76	112.35
376.95	95.96
377.15	138.09
377.35	173.20
377.54	133.41
377.74	88.94
377.93	25.75
378.13	28.09
378.33	166.18
378.52	70.22
378.72	117.03
378.91	131.07
379.11	79.58
379.31	126.39
379.50	84.26
379.70	168.52
379.89	93.62
380.09	107.66
380.28	98.30
380.48	79.58
380.68	65.54
380.87	98.30
381.07	152.13
381.26	159.16
381.46	46.81
381.65	88.94
381.85	77.24
382.04	86.60
382.24	110.01
382.43	126.39
382.63	63.19
382.83	102.98
383.02	166.18
383.22	60.85
383.41	124.05
383.61	177.88
383.80	135.75
384.00	131.07
384.19	100.64
384.39	135.75
384.58	72.56
384.78	142.77
384.97	53.83
385.17	138.09
385.36	117.03
385.56	77.24
385.75	107.66
385.95	128.73
386.14	100.64
386.34	60.85
386.53	121.71
386.72	142.77
386.92	177.88
387.11	147.45
387.31	91.28
387.50	79.58
387.70	110.01
387.89	138.09
388.09	46.81
388.28	44.47
388.48	58.51
388.67	168.52
388.86	98.30
389.06	93.62
389.25	84.26
389.45	93.62
389.64	138.09
389.84	177.88
390.03	154.48
390.22	114.69
390.42	100.64
390.61	114.69
390.81	124.05
391.00	0.00
391.19	138.09
391.39	124.05
391.58	114.69
391.78	124.05
391.97	95.96
392.16	91.28
392.36	121.71
392.55	121.71
392.75	156.82
392.94	128.73
393.13	117.03
393.33	77.24
393.52	72.56
393.71	51.49
393.91	93.62
394.10	110.01
394.29	70.22
394.49	170.86
394.68	60.85
394.88	145.11
395.07	102.98
395.26	79.58
395.46	58.51
395.65	156.82
395.84	63.19
396.04	201.29
396.23	128.73
396.42	135.75
396.62	159.16
396.81	135.75
397.00	117.03
397.19	98.30
397.39	98.30
397.58	166.18
397.77	124.05
397.97	86.60
398.16	39.79
398.35	133.41
398.55	112.35
398.74	173.20
398.93	156.82
399.12	110.01
399.32	124.05
399.51	135.75
399.70	79.58
399.90	138.09
400.09	140.43
400.28	98.30
400.47	81.92
400.67	159.16
400.86	98.30
401.05	138.09
401.24	201.29
401.44	100.64
401.63	100.64
401.82	133.41
402.01	84.26
402.21	93.62
402.40	100.64
402.59	142.77
402.78	51.49
402.97	107.66
403.17	84.26
403.36	145.11
403.55	119.37
403.74	107.66
403.93	168.52
404.13	182.56
404.32	236.39
404.51	248.10
404.70	180.22
404.89	173.20
405.09	119.37
405.28	117.03
405.47	107.66
405.66	107.66
405.85	170.86
406.05	152.13
406.24	161.50
406.43	110.01
406.62	149.79
406.81	198.95
407.00	149.79
407.20	147.45
407.39	147.45
407.58	163.84
407.77	147.45
407.96	131.07
408.15	98.30
408.34	133.41
408.54	149.79
408.73	95.96
408.92	145.11
409.11	121.71
409.30	114.69
409.49	128.73
409.68	93.62
409.87	154.48
410.07	140.43
410.26	145.11
410.45	166.18
410.64	105.32
410.83	84.26
411.02	117.03
411.21	140.43
411.40	140.43
411.59	121.71
411.78	152.13
411.98	168.52
412.17	124.05
412.36	117.03
412.55	117.03
412.74	170.86
412.93	191.92
413.12	147.45
413.31	175.54
413.50	133.41
413.69	124.05
413.88	161.50
414.07	121.71
414.26	98.30
414.45	177.88
414.64	128.73
414.83	128.73
415.02	173.20
415.22	74.90
415.41	112.35
415.60	98.30
415.79	163.84
415.98	147.45
416.17	208.31
416.36	182.56
416.55	70.22
416.74	163.84
416.93	159.16
417.12	79.58
417.31	51.49
417.50	114.69
417.69	198.95
417.88	145.11
418.07	149.79
418.26	112.35
418.45	63.19
418.64	184.90
418.83	154.48
419.02	180.22
419.21	121.71
419.39	140.43
419.58	126.39
419.77	149.79
419.96	191.92
420.15	163.84
420.34	175.54
420.53	180.22
420.72	145.11
420.91	91.28
421.10	131.07
421.29	114.69
421.48	117.03
421.67	142.77
421.86	170.86
422.05	184.90
422.24	147.45
422.43	205.97
422.61	177.88
422.80	159.16
422.99	173.20
423.18	173.20
423.37	126.39
423.56	154.48
423.75	173.20
423.94	110.01
424.13	156.82
424.32	131.07
424.50	95.96
424.69	140.43
424.88	156.82
425.07	205.97
425.26	70.22
425.45	182.56
425.64	72.56
425.83	201.29
426.01	203.63
426.20	152.13
426.39	95.96
426.58	140.43
426.77	135.75
426.96	124.05
427.15	128.73
427.33	107.66
427.52	140.43
427.71	105.32
427.90	187.24
428.09	161.50
428.28	173.20
428.46	95.96
428.65	156.82
428.84	145.11
429.03	128.73
429.22	58.51
429.40	124.05
429.59	135.75
429.78	133.41
429.97	142.77
430.16	161.50
430.34	156.82
430.53	88.94
430.72	84.26
430.91	236.39
431.10	67.88
431.28	110.01
431.47	163.84
431.66	215.33
431.85	98.30
432.03	135.75
432.22	217.67
432.41	138.09
432.60	161.50
432.79	140.43
432.97	161.50
433.16	168.52
433.35	140.43
433.54	168.52
433.72	163.84
433.91	210.65
434.10	152.13
434.28	173.20
434.47	156.82
434.66	198.95
434.85	84.26
435.03	285.55
435.22	655.35
435.41	973.66
435.59	961.96
435.78	730.25
435.97	449.38
436.16	269.16
436.34	170.86
436.53	170.86
436.72	196.60
436.90	147.45
437.09	217.67
437.28	159.16
437.46	187.24
437.65	168.52
437.84	117.03
438.02	166.18
438.21	168.52
438.40	124.05
438.58	133.41
438.77	175.54
438.96	133.41
439.14	84.26
439.33	81.92
439.52	184.90
439.70	161.50
439.89	173.20
440.08	161.50
440.26	180.22
440.45	145.11
440.63	131.07
440.82	152.13
441.01	187.24
441.19	248.10
441.38	191.92
441.57	191.92
441.75	203.63
441.94	152.13
442.12	102.98
442.31	124.05
442.50	145.11
442.68	177.88
442.87	163.84
443.05	145.11
443.24	112.35
443.43	168.52
443.61	126.39
443.80	180.22
443.98	142.77
444.17	145.11
444.35	243.42
444.54	142.77
444.73	145.11
444.91	159.16
445.10	161.50
445.28	163.84
445.47	163.84
445.65	100.64
445.84	191.92
446.02	147.45
446.21	102.98
446.39	170.86
446.58	198.95
446.77	189.58
446.95	156.82
447.14	210.65
447.32	147.45
447.51	110.01
447.69	135.75
447.88	210.65
448.06	257.46
448.25	210.65
448.43	191.92
448.62	131.07
448.80	177.88
448.99	152.13
449.17	166.18
449.36	121.71
449.54	140.43
449.73	142.77
449.91	180.22
450.10	128.73
450.28	351.08
450.46	210.65
450.65	184.90
450.83	173.20
451.02	210.65
451.20	208.31
451.39	201.29
451.57	147.45
451.76	138.09
451.94	191.92
452.13	215.33
452.31	238.73
452.49	175.54
452.68	67.88
452.86	149.79
453.05	163.84
453.23	60.85
453.42	177.88
453.60	182.56
453.78	180.22
453.97	177.88
454.15	18.72
454.34	224.69
454.52	220.01
454.70	208.31
454.89	255.12
455.07	191.92
455.26	154.48
455.44	154.48
455.62	161.50
455.81	210.65
455.99	170.86
456.17	128.73
456.36	128.73
456.54	217.67
456.73	170.86
456.91	166.18
457.09	180.22
457.28	224.69
457.46	79.58
457.64	203.63
457.83	189.58
458.01	142.77
458.19	222.35
458.38	142.77
458.56	227.03
458.74	194.26
458.93	201.29
459.11	133.41
459.29	152.13
459.48	98.30
459.66	149.79
459.84	189.58
460.03	346.40
460.21	161.50
460.39	159.16
460.57	175.54
460.76	182.56
460.94	126.39
461.12	177.88
461.31	248.10
461.49	182.56
461.67	191.92
461.85	121.71
462.04	220.01
462.22	695.14
462.40	234.05
462.59	245.76
462.77	152.13
462.95	212.99
463.13	124.05
463.32	241.08
463.50	187.24
463.68	161.50
463.86	166.18
464.05	168.52
464.23	191.92
464.41	194.26
464.59	128.73
464.78	196.60
464.96	105.32
465.14	187.24
465.32	196.60
465.50	224.69
465.69	175.54
465.87	231.71
466.05	163.84
466.23	147.45
466.41	156.82
466.60	210.65
466.78	121.71
466.96	124.05
467.14	154.48
467.32	44.47
467.51	187.24
467.69	182.56
467.87	187.24
468.05	201.29
468.23	304.27
468.41	191.92
468.60	189.58
468.78	182.56
468.96	182.56
469.14	196.60
469.32	189.58
469.50	187.24
469.69	227.03
469.87	154.48
470.05	161.50
470.23	135.75
470.41	161.50
470.59	114.69
470.77	173.20
470.95	203.63
471.14	159.16
471.32	262.14
471.50	191.92
471.68	187.24
471.86	210.65
472.04	189.58
472.22	133.41
472.40	147.45
472.58	189.58
472.77	231.71
472.95	177.88
473.13	220.01
473.31	236.39
473.49	201.29
473.67	152.13
473.85	170.86
474.03	140.43
474.21	182.56
474.39	238.73
474.57	161.50
474.75	210.65
474.93	170.86
475.12	210.65
475.30	154.48
475.48	133.41
475.66	170.86
475.84	187.24
476.02	163.84
476.20	220.01
476.38	184.90
476.56	234.05
476.74	273.84
476.92	102.98
477.10	231.71
477.28	182.56
477.46	147.45
477.64	196.60
477.82	170.86
478.00	194.26
478.18	180.22
478.36	168.52
478.54	187.24
478.72	156.82
478.90	205.97
479.08	191.92
479.26	154.48
479.44	147.45
479.62	184.90
479.80	210.65
479.98	124.05
480.16	234.05
480.34	149.79
480.52	142.77
480.70	212.99
480.88	299.59
481.06	191.92
481.24	210.65
481.41	159.16
481.59	187.24
481.77	184.90
481.95	212.99
482.13	285.55
482.31	215.33
482.49	222.35
482.67	189.58
482.85	252.78
483.03	170.86
483.21	196.60
483.39	196.60
483.57	264.48
483.74	304.27
483.92	208.31
484.10	217.67
484.28	248.10
484.46	248.10
484.64	273.84
484.82	245.76
485.00	262.14
485.18	271.50
485.35	248.10
485.53	313.63
485.71	266.82
485.89	229.37
486.07	262.14
486.25	259.80
486.43	262.14
486.61	290.23
486.78	355.76
486.96	257.46
487.14	243.42
487.32	341.72
487.50	259.80
487.68	376.83
487.85	330.02
488.03	262.14
488.21	327.68
488.39	255.12
488.57	280.86
488.75	257.46
488.92	547.69
489.10	285.55
489.28	369.80
489.46	308.95
489.64	330.02
489.81	325.33
489.99	276.18
490.17	362.78
490.35	339.38
490.53	271.50
490.70	322.99
490.88	395.55
491.06	196.60
491.24	308.95
491.41	376.83
491.59	227.03
491.77	203.63
491.95	238.73
492.13	271.50
492.30	290.23
492.48	278.52
492.66	245.76
492.84	287.89
493.01	278.52
493.19	224.69
493.37	212.99
493.54	220.01
493.72	241.08
493.90	315.97
494.08	248.10
494.25	334.70
494.43	276.18
494.61	276.18
494.79	210.65
494.96	224.69
495.14	245.76
495.32	203.63
495.49	285.55
495.67	339.38
495.85	290.23
496.02	234.05
496.20	262.14
496.38	257.46
496.55	332.36
496.73	264.48
496.91	304.27
497.09	315.97
497.26	264.48
497.44	327.68
497.62	287.89
497.79	259.80
497.97	318.31
498.14	220.01
498.32	334.70
498.50	201.29
498.67	159.16
498.85	234.05
499.03	227.03
499.20	245.76
499.38	238.73
499.56	308.95
499.73	369.80
499.91	290.23
500.08	217.67
500.26	241.08
500.44	177.88
500.61	217.67
500.79	308.95
500.97	243.42
501.14	322.99
501.32	210.65
501.49	238.73
501.67	236.39
501.84	308.95
502.02	227.03
502.20	264.48
502.37	269.16
502.55	191.92
502.72	250.44
502.90	210.65
503.07	292.57
503.25	273.84
503.43	285.55
503.60	236.39
503.78	264.48
503.95	245.76
504.13	222.35
504.30	292.57
504.48	313.63
504.65	325.33
504.83	266.82
505.01	259.80
505.18	285.55
505.36	283.20
505.53	175.54
505.71	208.31
505.88	271.50
506.06	241.08
506.23	248.10
506.41	222.35
506.58	234.05
506.76	290.23
506.93	236.39
507.11	262.14
507.28	203.63
507.46	224.69
507.63	266.82
507.81	259.80
507.98	229.37
508.16	238.73
508.33	191.92
508.50	220.01
508.68	215.33
508.85	191.92
509.03	163.84
509.20	259.80
509.38	220.01
509.55	248.10
509.73	227.03
509.90	189.58
510.08	257.46
510.25	180.22
510.42	187.24
510.60	252.78
510.77	273.84
510.95	224.69
511.12	262.14
511.30	315.97
511.47	269.16
511.64	283.20
511.82	301.93
511.99	283.20
512.17	217.67
512.34	222.35
512.51	231.71
512.69	273.84
512.86	325.33
513.04	227.03
513.21	243.42
513.38	304.27
513.56	248.10
513.73	269.16
513.90	269.16
514.08	222.35
514.25	266.82
514.43	322.99
514.60	236.39
514.77	145.11
514.95	248.10
515.12	173.20
515.29	205.97
515.47	264.48
515.64	212.99
515.81	147.45
515.99	313.63
516.16	212.99
516.33	287.89
516.51	212.99
516.68	203.63
516.85	152.13
517.03	210.65
517.20	245.76
517.37	215.33
517.54	222.35
517.72	220.01
517.89	215.33
518.06	121.71
518.24	315.97
518.41	330.02
518.58	241.08
518.75	290.23
518.93	252.78
519.10	241.08
519.27	236.39
519.45	262.14
519.62	245.76
519.79	273.84
519.96	250.44
520.14	198.95
520.31	227.03
520.48	259.80
520.65	271.50
520.83	315.97
521.00	229.37
521.17	269.16
521.34	173.20
521.52	262.14
521.69	234.05
521.86	231.71
522.03	201.29
522.20	234.05
522.38	210.65
522.55	168.52
522.72	163.84
522.89	304.27
523.07	304.27
523.24	259.80
523.41	234.05
523.58	266.82
523.75	250.44
523.92	227.03
524.10	311.29
524.27	241.08
524.44	229.37
524.61	248.10
524.78	203.63
524.96	259.80
525.13	191.92
525.30	311.29
525.47	271.50
525.64	292.57
525.81	257.46
525.98	273.84
526.16	138.09
526.33	210.65
526.50	210.65
526.67	222.35
526.84	217.67
527.01	177.88
527.18	222.35
527.36	222.35
527.53	175.54
527.70	285.55
527.87	330.02
528.04	299.59
528.21	346.40
528.38	194.26
528.55	269.16
528.72	318.31
528.89	344.06
529.07	252.78
529.24	278.52
529.41	339.38
529.58	236.39
529.75	234.05
529.92	283.20
530.09	201.29
530.26	243.42
530.43	217.67
530.60	203.63
530.77	280.86
530.94	231.71
531.11	339.38
531.28	325.33
531.46	257.46
531.63	220.01
531.80	243.42
531.97	250.44
532.14	259.80
532.31	238.73
532.48	248.10
532.65	318.31
532.82	245.76
532.99	308.95
533.16	276.18
533.33	355.76
533.50	351.08
533.67	234.05
533.84	327.68
534.01	341.72
534.18	313.63
534.35	187.24
534.52	283.20
534.69	318.31
534.86	358.10
535.03	248.10
535.20	259.80
535.37	255.12
535.54	245.76
535.71	299.59
535.88	320.65
536.05	304.27
536.22	311.29
536.38	322.99
536.55	306.61
536.72	355.76
536.89	294.91
537.06	318.31
537.23	252.78
537.40	320.65
537.57	339.38
537.74	341.72
537.91	365.12
538.08	360.44
538.25	327.68
538.42	407.25
538.59	482.15
538.75	442.36
538.92	402.57
539.09	407.25
539.26	498.53
539.43	463.43
539.60	479.81
539.77	503.22
539.94	601.52
540.11	575.77
540.28	608.54
540.44	739.61
540.61	720.88
540.78	748.97
540.95	866.00
541.12	952.60
541.29	1041.54
541.46	1146.86
541.62	1142.18
541.79	1221.76
541.96	1170.27
542.13	1167.93
542.30	1170.27
542.47	1011.11
542.63	1060.26
542.80	1137.50
542.97	994.73
543.14	1025.15
543.31	1093.03
543.48	1088.35
543.64	1139.84
543.81	1053.24
543.98	1062.60
544.15	936.21
544.32	1025.15
544.48	905.79
544.65	1043.88
544.82	976.00
544.99	957.28
545.16	945.58
545.32	910.47
545.49	1514.33
545.66	2298.41
545.83	2672.89
546.00	2483.31
546.16	1692.21
546.33	1275.59
546.50	1057.92
546.67	856.64
546.83	774.72
547.00	802.80
547.17	713.86
547.34	692.80
547.50	669.39
547.67	636.63
547.84	671.73
548.00	674.07
548.17	580.45
548.34	645.99
548.51	648.33
548.67	667.05
548.84	674.07
549.01	566.41
549.18	603.86
549.34	613.22
549.51	603.86
549.68	564.07
549.84	531.30
550.01	503.22
550.18	571.09
550.34	500.87
550.51	482.15
550.68	512.58
550.84	486.83
551.01	397.89
551.18	486.83
551.34	468.11
551.51	411.93
551.68	425.98
551.84	454.06
552.01	421.30
552.18	402.57
552.34	355.76
552.51	388.53
552.68	379.17
552.84	306.61
553.01	409.59
553.18	397.89
553.34	341.72
553.51	334.70
553.67	372.15
553.84	430.66
554.01	355.76
554.17	320.65
554.34	351.08
554.51	278.52
554.67	332.36
554.84	292.57
555.00	308.95
555.17	318.31
555.33	276.18
555.50	234.05
555.67	332.36
555.83	334.70
556.00	322.99
556.16	395.55
556.33	280.86
556.50	299.59
556.66	322.99
556.83	238.73
556.99	234.05
557.16	205.97
557.32	241.08
557.49	273.84
557.65	308.95
557.82	269.16
557.98	287.89
558.15	224.69
558.32	304.27
558.48	259.80
558.65	301.93
558.81	252.78
558.98	313.63
559.14	269.16
559.31	250.44
559.47	280.86
559.64	238.73
559.80	339.38
559.97	191.92
560.13	217.67
560.30	222.35
560.46	245.76
560.63	252.78
560.79	191.92
560.96	224.69
561.12	245.76
561.29	229.37
561.45	241.08
561.61	276.18
561.78	259.80
561.94	217.67
562.11	252.78
562.27	210.65
562.44	196.60
562.60	245.76
562.77	252.78
562.93	348.74
563.10	257.46
563.26	297.25
563.42	294.91
563.59	198.95
563.75	264.48
563.92	294.91
564.08	266.82
564.24	236.39
564.41	269.16
564.57	173.20
564.74	234.05
564.90	222.35
565.07	196.60
565.23	271.50
565.39	238.73
565.56	259.80
565.72	257.46
565.88	280.86
566.05	215.33
566.21	257.46
566.38	262.14
566.54	220.01
566.70	287.89
566.87	173.20
567.03	269.16
567.19	212.99
567.36	250.44
567.52	278.52
567.68	201.29
567.85	297.25
568.01	262.14
568.17	234.05
568.34	238.73
568.50	224.69
568.66	145.11
568.83	341.72
568.99	224.69
569.15	229.37
569.32	297.25
569.48	257.46
569.64	210.65
569.81	189.58
569.97	252.78
570.13	234.05
570.30	294.91
570.46	269.16
570.62	201.29
570.78	229.37
570.95	227.03
571.11	262.14
571.27	266.82
571.43	163.84
571.60	184.90
571.76	250.44
571.92	278.52
572.09	266.82
572.25	231.71
572.41	166.18
572.57	262.14
572.74	243.42
572.90	243.42
573.06	315.97
573.22	191.92
573.38	184.90
573.55	248.10
573.71	285.55
573.87	269.16
574.03	262.14
574.20	224.69
574.36	227.03
574.52	182.56
574.68	203.63
574.84	252.78
575.01	168.52
575.17	196.60
575.33	227.03
575.49	224.69
575.65	220.01
575.82	241.08
575.98	304.27
576.14	280.86
576.30	365.12
576.46	461.09
576.62	641.31
576.79	681.10
576.95	554.71
577.11	409.59
577.27	353.42
577.43	318.31
577.59	346.40
577.75	294.91
577.92	220.01
578.08	250.44
578.24	236.39
578.40	320.65
578.56	524.28
578.72	573.43
578.88	643.65
579.04	510.24
579.21	566.41
579.37	451.72
579.53	367.46
579.69	322.99
579.85	325.33
580.01	379.17
580.17	456.40
580.33	304.27
580.49	376.83
580.65	428.32
580.82	327.68
580.98	308.95
581.14	308.95
581.30	320.65
581.46	301.93
581.62	348.74
581.78	255.12
581.94	332.36
582.10	355.76
582.26	346.40
582.42	362.78
582.58	430.66
582.74	470.45
582.90	442.36
583.06	402.57
583.22	470.45
583.38	421.30
583.54	468.11
583.70	463.43
583.86	477.47
584.02	402.57
584.18	416.62
584.34	388.53
584.50	461.09
584.66	353.42
584.82	344.06
584.98	334.70
585.14	374.49
585.30	435.34
585.46	339.38
585.62	374.49
585.78	318.31
585.94	360.44
586.10	386.19
586.26	388.53
586.42	362.78
586.58	507.90
586.74	470.45
586.90	503.22
587.06	575.77
587.22	580.45
587.38	461.09
587.54	433.00
587.70	470.45
587.86	425.98
588.02	409.59
588.18	372.15
588.34	337.04
588.49	320.65
588.65	355.76
588.81	299.59
588.97	301.93
589.13	276.18
589.29	229.37
589.45	379.17
589.61	304.27
589.77	337.04
589.93	278.52
590.08	369.80
590.24	283.20
590.40	372.15
590.56	388.53
590.72	341.72
590.88	243.42
591.04	280.86
591.20	313.63
591.35	358.10
591.51	346.40
591.67	278.52
591.83	320.65
591.99	379.17
592.15	388.53
592.31	351.08
592.46	433.00
592.62	449.38
592.78	425.98
592.94	390.87
593.10	470.45
593.26	482.15
593.41	430.66
593.57	381.51
593.73	369.80
593.89	327.68
594.05	358.10
594.20	313.63
594.36	297.25
594.52	205.97
594.68	322.99
594.84	229.37
594.99	325.33
595.15	280.86
595.31	341.72
595.47	311.29
595.62	262.14
595.78	276.18
595.94	332.36
596.10	292.57
596.25	278.52
596.41	266.82
596.57	266.82
596.73	259.80
596.88	308.95
597.04	313.63
597.20	248.10
597.36	227.03
597.51	325.33
597.67	271.50
597.83	339.38
597.99	341.72
598.14	313.63
598.30	355.76
598.46	358.10
598.61	353.42
598.77	325.33
598.93	308.95
599.09	400.23
599.24	322.99
599.40	397.89
599.56	332.36
599.71	365.12
599.87	278.52
600.03	311.29
600.18	301.93
600.34	341.72
600.50	229.37
600.65	250.44
600.81	259.80
600.97	264.48
601.12	252.78
601.28	292.57
601.44	306.61
601.59	271.50
601.75	285.55
601.91	220.01
602.06	320.65
602.22	241.08
602.37	243.42
602.53	252.78
602.69	243.42
602.84	297.25
603.00	229.37
603.16	299.59
603.31	313.63
603.47	243.42
603.62	234.05
603.78	262.14
603.94	297.25
604.09	271.50
604.25	255.12
604.40	306.61
604.56	220.01
604.71	236.39
604.87	220.01
605.03	292.57
605.18	365.12
605.34	198.95
605.49	278.52
605.65	271.50
605.80	285.55
605.96	234.05
606.12	287.89
606.27	276.18
606.43	292.57
606.58	210.65
606.74	301.93
606.89	220.01
607.05	337.04
607.20	341.72
607.36	255.12
607.51	280.86
607.67	320.65
607.82	365.12
607.98	348.74
608.13	400.23
608.29	379.17
608.44	409.59
608.60	374.49
608.75	444.70
608.91	489.17
609.06	582.79
609.22	454.06
609.37	528.96
609.53	524.28
609.68	636.63
609.84	624.92
609.99	791.10
610.15	840.25
610.30	990.05
610.46	1191.33
610.61	1511.99
610.76	1898.17
610.92	2275.00
611.07	2480.97
611.23	2520.76
611.38	2317.13
