SpectraSuite Data File
++++++++++++++++++++++++++++++++++++
Date: Fri Oct 04 11:41:45 GMT-05:00 2013
User: price-jones
Dark Spectrum Present: No
Reference Spectrum Present: No
Number of Sampled Component Spectra: 1
Spectrometers: USB2+H05261
Integration Time (usec): 100000 (USB2+H05261)
Spectra Averaged: 1 (USB2+H05261)
Boxcar Smoothing: 0 (USB2+H05261)
Correct for Electrical Dark: No (USB2+H05261)
Strobe/Lamp Enabled: No (USB2+H05261)
Correct for Detector Non-linearity: No (USB2+H05261)
Correct for Stray Light: No (USB2+H05261)
Number of Pixels in Processed Spectrum: 2048
>>>>>Begin Processed Spectral Data<<<<<
365.73	21.06
365.92	21.06
366.12	21.06
366.32	0.00
366.52	0.00
366.72	0.00
366.91	0.00
367.11	0.00
367.31	0.00
367.51	0.00
367.70	0.00
367.90	0.00
368.10	0.00
368.30	0.00
368.49	0.00
368.69	0.00
368.89	0.00
369.09	0.00
369.28	0.00
369.48	0.00
369.68	0.00
369.87	39.79
370.07	18.72
370.27	42.13
370.47	81.92
370.66	46.81
370.86	107.66
371.06	39.79
371.25	56.17
371.45	77.24
371.65	131.07
371.84	88.94
372.04	177.88
372.24	81.92
372.44	154.48
372.63	100.64
372.83	156.82
373.03	81.92
373.22	79.58
373.42	72.56
373.62	25.75
373.81	21.06
374.01	154.48
374.21	138.09
374.40	88.94
374.60	98.30
374.79	175.54
374.99	140.43
375.19	102.98
375.38	142.77
375.58	126.39
375.78	145.11
375.97	119.37
376.17	163.84
376.37	124.05
376.56	117.03
376.76	128.73
376.95	112.35
377.15	147.45
377.35	105.32
377.54	117.03
377.74	102.98
377.93	53.83
378.13	114.69
378.33	119.37
378.52	117.03
378.72	163.84
378.91	142.77
379.11	149.79
379.31	114.69
379.50	105.32
379.70	51.49
379.89	102.98
380.09	117.03
380.28	107.66
380.48	128.73
380.68	84.26
380.87	65.54
381.07	79.58
381.26	166.18
381.46	159.16
381.65	110.01
381.85	25.75
382.04	93.62
382.24	135.75
382.43	128.73
382.63	46.81
382.83	98.30
383.02	91.28
383.22	100.64
383.41	102.98
383.61	105.32
383.80	91.28
384.00	44.47
384.19	53.83
384.39	77.24
384.58	100.64
384.78	128.73
384.97	152.13
385.17	93.62
385.36	74.90
385.56	175.54
385.75	51.49
385.95	74.90
386.14	110.01
386.34	105.32
386.53	107.66
386.72	56.17
386.92	168.52
387.11	156.82
387.31	102.98
387.50	91.28
387.70	110.01
387.89	98.30
388.09	60.85
388.28	58.51
388.48	86.60
388.67	163.84
388.86	91.28
389.06	49.15
389.25	51.49
389.45	74.90
389.64	88.94
389.84	168.52
390.03	77.24
390.22	180.22
390.42	70.22
390.61	100.64
390.81	74.90
391.00	88.94
391.19	100.64
391.39	124.05
391.58	135.75
391.78	107.66
391.97	163.84
392.16	79.58
392.36	187.24
392.55	98.30
392.75	70.22
392.94	79.58
393.13	138.09
393.33	98.30
393.52	117.03
393.71	95.96
393.91	126.39
394.10	65.54
394.29	184.90
394.49	149.79
394.68	114.69
394.88	154.48
395.07	152.13
395.26	126.39
395.46	131.07
395.65	107.66
395.84	102.98
396.04	100.64
396.23	142.77
396.42	138.09
396.62	177.88
396.81	102.98
397.00	152.13
397.19	119.37
397.39	166.18
397.58	124.05
397.77	91.28
397.97	128.73
398.16	79.58
398.35	159.16
398.55	84.26
398.74	95.96
398.93	135.75
399.12	142.77
399.32	93.62
399.51	131.07
399.70	149.79
399.90	161.50
400.09	170.86
400.28	135.75
400.47	95.96
400.67	119.37
400.86	93.62
401.05	201.29
401.24	114.69
401.44	63.19
401.63	79.58
401.82	222.35
402.01	86.60
402.21	166.18
402.40	124.05
402.59	124.05
402.78	140.43
402.97	163.84
403.17	161.50
403.36	173.20
403.55	224.69
403.74	322.99
403.93	748.97
404.13	1469.86
404.32	1551.78
404.51	1280.27
404.70	622.58
404.89	311.29
405.09	236.39
405.28	79.58
405.47	140.43
405.66	241.08
405.85	147.45
406.05	53.83
406.24	124.05
406.43	105.32
406.62	84.26
406.81	224.69
407.00	201.29
407.20	299.59
407.39	285.55
407.58	325.33
407.77	257.46
407.96	243.42
408.15	149.79
408.34	135.75
408.54	74.90
408.73	131.07
408.92	88.94
409.11	173.20
409.30	229.37
409.49	98.30
409.68	159.16
409.87	119.37
410.07	131.07
410.26	81.92
410.45	60.85
410.64	117.03
410.83	173.20
411.02	177.88
411.21	70.22
411.40	177.88
411.59	154.48
411.78	140.43
411.98	114.69
412.17	147.45
412.36	105.32
412.55	102.98
412.74	175.54
412.93	168.52
413.12	161.50
413.31	154.48
413.50	196.60
413.69	177.88
413.88	168.52
414.07	147.45
414.26	140.43
414.45	145.11
414.64	215.33
414.83	126.39
415.02	156.82
415.22	196.60
415.41	224.69
415.60	112.35
415.79	189.58
415.98	245.76
416.17	102.98
416.36	152.13
416.55	180.22
416.74	196.60
416.93	224.69
417.12	210.65
417.31	182.56
417.50	112.35
417.69	156.82
417.88	184.90
418.07	189.58
418.26	194.26
418.45	140.43
418.64	196.60
418.83	140.43
419.02	180.22
419.21	95.96
419.39	121.71
419.58	145.11
419.77	105.32
419.96	205.97
420.15	250.44
420.34	170.86
420.53	74.90
420.72	252.78
420.91	217.67
421.10	163.84
421.29	124.05
421.48	180.22
421.67	182.56
421.86	126.39
422.05	117.03
422.24	198.95
422.43	154.48
422.61	175.54
422.80	156.82
422.99	173.20
423.18	170.86
423.37	205.97
423.56	163.84
423.75	201.29
423.94	163.84
424.13	180.22
424.32	163.84
424.50	135.75
424.69	205.97
424.88	215.33
425.07	184.90
425.26	203.63
425.45	180.22
425.64	154.48
425.83	198.95
426.01	236.39
426.20	166.18
426.39	182.56
426.58	175.54
426.77	88.94
426.96	287.89
427.15	212.99
427.33	138.09
427.52	93.62
427.71	262.14
427.90	177.88
428.09	128.73
428.28	196.60
428.46	196.60
428.65	161.50
428.84	182.56
429.03	198.95
429.22	175.54
429.40	107.66
429.59	142.77
429.78	201.29
429.97	170.86
430.16	168.52
430.34	149.79
430.53	142.77
430.72	191.92
430.91	220.01
431.10	152.13
431.28	177.88
431.47	241.08
431.66	194.26
431.85	234.05
432.03	187.24
432.22	208.31
432.41	154.48
432.60	210.65
432.79	269.16
432.97	234.05
433.16	205.97
433.35	201.29
433.54	271.50
433.72	255.12
433.91	285.55
434.10	266.82
434.28	280.86
434.47	299.59
434.66	369.80
434.85	372.15
435.03	1401.98
435.22	4322.97
435.41	6534.78
435.59	5865.38
435.78	3693.37
435.97	1898.17
436.16	837.91
436.34	395.55
436.53	250.44
436.72	285.55
436.90	285.55
437.09	255.12
437.28	212.99
437.46	184.90
437.65	266.82
437.84	243.42
438.02	271.50
438.21	238.73
438.40	163.84
438.58	220.01
438.77	255.12
438.96	198.95
439.14	212.99
439.33	238.73
439.52	212.99
439.70	229.37
439.89	173.20
440.08	248.10
440.26	161.50
440.45	187.24
440.63	252.78
440.82	187.24
441.01	182.56
441.19	196.60
441.38	184.90
441.57	271.50
441.75	241.08
441.94	264.48
442.12	210.65
442.31	280.86
442.50	238.73
442.68	250.44
442.87	205.97
443.05	215.33
443.24	154.48
443.43	238.73
443.61	194.26
443.80	224.69
443.98	142.77
444.17	194.26
444.35	168.52
444.54	163.84
444.73	189.58
444.91	217.67
445.10	177.88
445.28	234.05
445.47	168.52
445.65	140.43
445.84	234.05
446.02	217.67
446.21	145.11
446.39	224.69
446.58	238.73
446.77	147.45
446.95	245.76
447.14	248.10
447.32	306.61
447.51	154.48
447.69	187.24
447.88	198.95
448.06	285.55
448.25	220.01
448.43	166.18
448.62	194.26
448.80	196.60
448.99	285.55
449.17	201.29
449.36	255.12
449.54	205.97
449.73	203.63
449.91	257.46
450.10	210.65
450.28	271.50
450.46	290.23
450.65	262.14
450.83	229.37
451.02	241.08
451.20	203.63
451.39	234.05
451.57	231.71
451.76	161.50
451.94	217.67
452.13	205.97
452.31	196.60
452.49	163.84
452.68	154.48
452.86	236.39
453.05	208.31
453.23	135.75
453.42	191.92
453.60	243.42
453.78	184.90
453.97	222.35
454.15	208.31
454.34	168.52
454.52	243.42
454.70	210.65
454.89	149.79
455.07	241.08
455.26	227.03
455.44	191.92
455.62	173.20
455.81	241.08
455.99	231.71
456.17	182.56
456.36	220.01
456.54	220.01
456.73	271.50
456.91	154.48
457.09	236.39
457.28	217.67
457.46	187.24
457.64	245.76
457.83	196.60
458.01	147.45
458.19	229.37
458.38	255.12
458.56	189.58
458.74	194.26
458.93	208.31
459.11	238.73
459.29	194.26
459.48	292.57
459.66	147.45
459.84	252.78
460.03	248.10
460.21	257.46
460.39	290.23
460.57	271.50
460.76	154.48
460.94	212.99
461.12	283.20
461.31	182.56
461.49	182.56
461.67	234.05
461.85	255.12
462.04	191.92
462.22	315.97
462.40	201.29
462.59	318.31
462.77	248.10
462.95	198.95
463.13	189.58
463.32	287.89
463.50	170.86
463.68	290.23
463.86	210.65
464.05	161.50
464.23	245.76
464.41	231.71
464.59	241.08
464.78	266.82
464.96	135.75
465.14	250.44
465.32	152.13
465.50	245.76
465.69	198.95
465.87	156.82
466.05	182.56
466.23	234.05
466.41	205.97
466.60	215.33
466.78	191.92
466.96	339.38
467.14	250.44
467.32	255.12
467.51	198.95
467.69	194.26
467.87	257.46
468.05	201.29
468.23	299.59
468.41	250.44
468.60	177.88
468.78	222.35
468.96	248.10
469.14	138.09
469.32	140.43
469.50	212.99
469.69	292.57
469.87	175.54
470.05	243.42
470.23	222.35
470.41	191.92
470.59	180.22
470.77	208.31
470.95	220.01
471.14	224.69
471.32	198.95
471.50	280.86
471.68	290.23
471.86	252.78
472.04	212.99
472.22	201.29
472.40	220.01
472.58	238.73
472.77	231.71
472.95	234.05
473.13	217.67
473.31	210.65
473.49	208.31
473.67	161.50
473.85	168.52
474.03	208.31
474.21	262.14
474.39	212.99
474.57	196.60
474.75	212.99
474.93	201.29
475.12	208.31
475.30	234.05
475.48	257.46
475.66	229.37
475.84	154.48
476.02	220.01
476.20	243.42
476.38	241.08
476.56	304.27
476.74	224.69
476.92	255.12
477.10	189.58
477.28	201.29
477.46	152.13
477.64	257.46
477.82	255.12
478.00	191.92
478.18	255.12
478.36	250.44
478.54	241.08
478.72	208.31
478.90	177.88
479.08	236.39
479.26	257.46
479.44	280.86
479.62	205.97
479.80	236.39
479.98	196.60
480.16	241.08
480.34	264.48
480.52	175.54
480.70	306.61
480.88	215.33
481.06	304.27
481.24	276.18
481.41	248.10
481.59	306.61
481.77	287.89
481.95	351.08
482.13	376.83
482.31	388.53
482.49	372.15
482.67	362.78
482.85	379.17
483.03	514.92
483.21	390.87
483.39	454.06
483.57	458.74
483.74	554.71
483.92	512.58
484.10	486.83
484.28	461.09
484.46	664.71
484.64	568.75
484.82	496.19
485.00	547.69
485.18	631.94
485.35	596.84
485.53	692.80
485.71	788.76
485.89	664.71
486.07	671.73
486.25	791.10
486.43	753.65
486.61	786.42
486.78	699.82
486.96	730.25
487.14	730.25
487.32	746.63
487.50	767.70
487.68	788.76
487.85	692.80
488.03	767.70
488.21	802.80
488.39	683.44
488.57	681.10
488.75	699.82
488.92	903.45
489.10	713.86
489.28	734.93
489.46	711.52
489.64	540.66
489.81	599.18
489.99	547.69
490.17	561.73
490.35	631.94
490.53	645.99
490.70	575.77
490.88	540.66
491.06	603.86
491.24	746.63
491.41	690.46
491.59	690.46
491.77	585.13
491.95	617.90
492.13	566.41
492.30	606.20
492.48	561.73
492.66	528.96
492.84	550.03
493.01	526.62
493.19	505.56
493.37	638.97
493.54	496.19
493.72	575.77
493.90	535.98
494.08	589.82
494.25	580.45
494.43	517.26
494.61	526.62
494.79	402.57
494.96	470.45
495.14	454.06
495.32	500.87
495.49	564.07
495.67	514.92
495.85	428.32
496.02	435.34
496.20	479.81
496.38	484.49
496.55	524.28
496.73	442.36
496.91	435.34
497.09	425.98
497.26	442.36
497.44	440.02
497.62	447.04
497.79	318.31
497.97	440.02
498.14	444.70
498.32	409.59
498.50	393.21
498.67	337.04
498.85	355.76
499.03	409.59
499.20	341.72
499.38	379.17
499.56	369.80
499.73	341.72
499.91	362.78
500.08	337.04
500.26	332.36
500.44	266.82
500.61	358.10
500.79	346.40
500.97	360.44
501.14	351.08
501.32	418.96
501.49	369.80
501.67	374.49
501.84	290.23
502.02	285.55
502.20	425.98
502.37	322.99
502.55	245.76
502.72	297.25
502.90	407.25
503.07	372.15
503.25	353.42
503.43	273.84
503.60	229.37
503.78	234.05
503.95	280.86
504.13	271.50
504.30	313.63
504.48	280.86
504.65	238.73
504.83	222.35
505.01	308.95
505.18	262.14
505.36	264.48
505.53	269.16
505.71	250.44
505.88	330.02
506.06	287.89
506.23	264.48
506.41	283.20
506.58	262.14
506.76	285.55
506.93	283.20
507.11	266.82
507.28	231.71
507.46	212.99
507.63	308.95
507.81	304.27
507.98	255.12
508.16	227.03
508.33	252.78
508.50	311.29
508.68	269.16
508.85	334.70
509.03	315.97
509.20	297.25
509.38	276.18
509.55	205.97
509.73	210.65
509.90	306.61
510.08	241.08
510.25	208.31
510.42	189.58
510.60	283.20
510.77	238.73
510.95	292.57
511.12	276.18
511.30	287.89
511.47	294.91
511.64	390.87
511.82	290.23
511.99	292.57
512.17	217.67
512.34	257.46
512.51	212.99
512.69	229.37
512.86	222.35
513.04	203.63
513.21	273.84
513.38	278.52
513.56	299.59
513.73	273.84
513.90	269.16
514.08	210.65
514.25	234.05
514.43	290.23
514.60	285.55
514.77	276.18
514.95	271.50
515.12	266.82
515.29	252.78
515.47	259.80
515.64	313.63
515.81	341.72
515.99	259.80
516.16	327.68
516.33	306.61
516.51	250.44
516.68	196.60
516.85	269.16
517.03	269.16
517.20	285.55
517.37	313.63
517.54	224.69
517.72	273.84
517.89	187.24
518.06	250.44
518.24	290.23
518.41	308.95
518.58	229.37
518.75	210.65
518.93	227.03
519.10	215.33
519.27	215.33
519.45	248.10
519.62	308.95
519.79	283.20
519.96	227.03
520.14	234.05
520.31	224.69
520.48	266.82
520.65	255.12
520.83	250.44
521.00	234.05
521.17	299.59
521.34	276.18
521.52	238.73
521.69	210.65
521.86	257.46
522.03	292.57
522.20	280.86
522.38	262.14
522.55	238.73
522.72	205.97
522.89	264.48
523.07	262.14
523.24	269.16
523.41	315.97
523.58	271.50
523.75	280.86
523.92	257.46
524.10	280.86
524.27	264.48
524.44	313.63
524.61	334.70
524.78	273.84
524.96	262.14
525.13	283.20
525.30	315.97
525.47	304.27
525.64	292.57
525.81	220.01
525.98	294.91
526.16	259.80
526.33	245.76
526.50	208.31
526.67	215.33
526.84	238.73
527.01	257.46
527.18	311.29
527.36	264.48
527.53	220.01
527.70	278.52
527.87	327.68
528.04	348.74
528.21	269.16
528.38	304.27
528.55	276.18
528.72	353.42
528.89	287.89
529.07	266.82
529.24	301.93
529.41	348.74
529.58	332.36
529.75	262.14
529.92	287.89
530.09	308.95
530.26	315.97
530.43	308.95
530.60	318.31
530.77	290.23
530.94	388.53
531.11	304.27
531.28	280.86
531.46	278.52
531.63	304.27
531.80	241.08
531.97	351.08
532.14	290.23
532.31	308.95
532.48	348.74
532.65	386.19
532.82	414.27
532.99	425.98
533.16	624.92
533.33	521.94
533.50	571.09
533.67	407.25
533.84	430.66
534.01	428.32
534.18	325.33
534.35	362.78
534.52	372.15
534.69	435.34
534.86	358.10
535.03	418.96
535.20	425.98
535.37	486.83
535.54	447.04
535.71	397.89
535.88	423.64
536.05	477.47
536.22	517.26
536.38	608.54
536.55	571.09
536.72	676.41
536.89	699.82
537.06	725.57
537.23	744.29
537.40	779.40
537.57	828.55
537.74	940.90
537.91	924.51
538.08	966.64
538.25	952.60
538.42	940.90
538.59	1015.79
538.75	1018.13
538.92	1130.48
539.09	1181.97
539.26	1196.01
539.43	1404.32
539.60	1516.67
539.77	1636.03
539.94	1874.77
540.11	2054.99
540.28	2183.72
540.44	2392.03
540.61	2583.95
540.78	2920.99
540.95	3393.78
541.12	4058.49
541.29	4304.25
541.46	4596.81
541.62	4524.26
541.79	4290.20
541.96	3896.99
542.13	3716.77
542.30	3400.80
542.47	3452.29
542.63	3239.30
542.80	3148.02
542.97	3199.51
543.14	3126.96
543.31	3197.17
543.48	3173.77
543.64	3286.11
543.81	3222.92
543.98	3414.84
544.15	3290.79
544.32	3445.27
544.48	3232.28
544.65	3061.42
544.82	3239.30
544.99	3211.22
545.16	3215.90
545.32	3616.13
545.49	7201.83
545.66	10721.99
545.83	11234.57
546.00	9392.57
546.16	6670.53
546.33	5060.24
546.50	3836.14
546.67	3115.25
546.83	2867.16
547.00	2700.98
547.17	2520.76
547.34	2478.63
547.50	2408.41
547.67	2401.39
547.84	2317.13
548.00	2031.58
548.17	2045.63
548.34	2010.52
548.51	2132.23
548.67	1942.64
548.84	1799.87
549.01	1689.87
549.18	1743.70
549.34	1675.82
549.51	1600.93
549.68	1432.41
549.84	1495.60
550.01	1448.79
550.18	1366.87
550.34	1355.17
550.51	1301.34
550.68	1270.91
550.84	1207.72
551.01	1046.22
551.18	1104.73
551.34	1013.45
551.51	1008.77
551.68	957.28
551.84	1015.79
552.01	842.59
552.18	800.46
552.34	830.89
552.51	884.72
552.68	835.57
552.84	802.80
553.01	800.46
553.18	741.95
553.34	704.50
553.51	727.91
553.67	772.38
553.84	751.31
554.01	589.82
554.17	606.20
554.34	645.99
554.51	571.09
554.67	599.18
554.84	559.39
555.00	533.64
555.17	491.51
555.33	461.09
555.50	486.83
555.67	496.19
555.83	390.87
556.00	374.49
556.16	578.11
556.33	358.10
556.50	477.47
556.66	475.13
556.83	456.40
556.99	381.51
557.16	416.62
557.32	381.51
557.49	348.74
557.65	360.44
557.82	304.27
557.98	388.53
558.15	353.42
558.32	285.55
558.48	311.29
558.65	374.49
558.81	318.31
558.98	376.83
559.14	374.49
559.31	341.72
559.47	346.40
559.64	304.27
559.80	395.55
559.97	386.19
560.13	379.17
560.30	262.14
560.46	318.31
560.63	372.15
560.79	379.17
560.96	358.10
561.12	341.72
561.29	367.46
561.45	355.76
561.61	383.85
561.78	421.30
561.94	344.06
562.11	280.86
562.27	306.61
562.44	341.72
562.60	271.50
562.77	250.44
562.93	313.63
563.10	325.33
563.26	367.46
563.42	353.42
563.59	318.31
563.75	315.97
563.92	381.51
564.08	257.46
564.24	252.78
564.41	327.68
564.57	269.16
564.74	257.46
564.90	217.67
565.07	346.40
565.23	322.99
565.39	388.53
565.56	271.50
565.72	255.12
565.88	271.50
566.05	243.42
566.21	360.44
566.38	243.42
566.54	280.86
566.70	362.78
566.87	308.95
567.03	245.76
567.19	320.65
567.36	358.10
567.52	280.86
567.68	262.14
567.85	304.27
568.01	297.25
568.17	208.31
568.34	308.95
568.50	294.91
568.66	248.10
568.83	262.14
568.99	236.39
569.15	290.23
569.32	292.57
569.48	236.39
569.64	308.95
569.81	222.35
569.97	285.55
570.13	304.27
570.30	290.23
570.46	280.86
570.62	210.65
570.78	273.84
570.95	255.12
571.11	348.74
571.27	294.91
571.43	292.57
571.60	294.91
571.76	175.54
571.92	217.67
572.09	241.08
572.25	241.08
572.41	322.99
572.57	243.42
572.74	346.40
572.90	294.91
573.06	205.97
573.22	308.95
573.38	215.33
573.55	294.91
573.71	313.63
573.87	264.48
574.03	156.82
574.20	177.88
574.36	301.93
574.52	301.93
574.68	287.89
574.84	290.23
575.01	353.42
575.17	341.72
575.33	339.38
575.49	332.36
575.65	358.10
575.82	355.76
575.98	447.04
576.14	428.32
576.30	795.78
576.46	1624.33
576.62	1963.71
576.79	2092.44
576.95	1514.33
577.11	1107.07
577.27	716.20
577.43	573.43
577.59	571.09
577.75	451.72
577.92	337.04
578.08	374.49
578.24	353.42
578.40	746.63
578.56	1603.27
578.72	1947.33
578.88	1989.46
579.04	1460.49
579.21	1036.86
579.37	786.42
579.53	788.76
579.69	828.55
579.85	875.36
580.01	994.73
580.17	926.85
580.33	767.70
580.49	718.54
580.65	683.44
580.82	594.50
580.98	613.22
581.14	634.29
581.30	737.27
581.46	758.33
581.62	779.40
581.78	763.01
581.94	868.34
582.10	816.85
582.26	844.93
582.42	983.02
582.58	929.19
582.74	919.83
582.90	858.98
583.06	929.19
583.22	873.02
583.38	882.38
583.54	971.32
583.70	940.90
583.86	896.43
584.02	833.23
584.18	912.81
584.34	891.74
584.50	875.36
584.66	901.11
584.82	828.55
584.98	896.43
585.14	828.55
585.30	912.81
585.46	828.55
585.62	716.20
585.78	809.83
585.94	798.12
586.10	842.59
586.26	828.55
586.42	947.92
586.58	1074.31
586.74	1280.27
586.90	1430.07
587.06	1542.41
587.22	1519.01
587.38	1383.26
587.54	1247.51
587.70	1167.93
587.86	1093.03
588.02	905.79
588.18	842.59
588.34	706.84
588.49	660.03
588.65	653.01
588.81	594.50
588.97	557.05
589.13	543.00
589.29	636.63
589.45	587.47
589.61	587.47
589.77	580.45
589.93	547.69
590.08	606.20
590.24	631.94
590.40	622.58
590.56	629.60
590.72	695.14
590.88	678.76
591.04	718.54
591.20	727.91
591.35	788.76
591.51	753.65
591.67	800.46
591.83	819.19
591.99	802.80
592.15	936.21
592.31	950.26
592.46	1008.77
592.62	1100.05
592.78	1198.35
592.94	1165.59
593.10	1109.41
593.26	1078.99
593.41	1100.05
593.57	940.90
593.73	830.89
593.89	753.65
594.05	645.99
594.20	608.54
594.36	695.14
594.52	550.03
594.68	564.07
594.84	599.18
594.99	631.94
595.15	528.96
595.31	547.69
595.47	601.52
595.62	465.77
595.78	535.98
595.94	603.86
596.10	648.33
596.25	617.90
596.41	547.69
596.57	571.09
596.73	524.28
596.88	498.53
597.04	519.60
597.20	528.96
597.36	587.47
597.51	470.45
597.67	519.60
597.83	645.99
597.99	664.71
598.14	594.50
598.30	660.03
598.46	737.27
598.61	688.12
598.77	718.54
598.93	802.80
599.09	753.65
599.24	809.83
599.40	784.08
599.56	727.91
599.71	760.67
599.87	734.93
600.03	744.29
600.18	697.48
600.34	615.56
600.50	655.35
600.65	503.22
600.81	589.82
600.97	456.40
601.12	514.92
601.28	568.75
601.44	482.15
601.59	400.23
601.75	526.62
601.91	383.85
602.06	475.13
602.22	486.83
602.37	447.04
602.53	374.49
602.69	433.00
602.84	421.30
603.00	383.85
603.16	374.49
603.31	407.25
603.47	538.32
603.62	341.72
603.78	482.15
603.94	477.47
604.09	437.68
604.25	437.68
604.40	489.17
604.56	463.43
604.71	386.19
604.87	440.02
605.03	465.77
605.18	423.64
605.34	428.32
605.49	470.45
605.65	505.56
605.80	472.79
605.96	582.79
606.12	587.47
606.27	613.22
606.43	535.98
606.58	660.03
606.74	636.63
606.89	554.71
607.05	617.90
607.20	641.31
607.36	688.12
607.51	737.27
607.67	725.57
607.82	716.20
607.98	791.10
608.13	793.44
608.29	954.94
608.44	961.96
608.60	957.28
608.75	1203.04
608.91	1200.69
609.06	1364.53
609.22	1486.24
609.37	1596.25
609.53	1757.74
609.68	1989.46
609.84	2307.77
609.99	2506.71
