SpectraSuite Data File
++++++++++++++++++++++++++++++++++++
Date: Fri Oct 04 11:41:52 GMT-05:00 2013
User: price-jones
Dark Spectrum Present: No
Reference Spectrum Present: No
Number of Sampled Component Spectra: 1
Spectrometers: USB2+H05261
Integration Time (usec): 100000 (USB2+H05261)
Spectra Averaged: 1 (USB2+H05261)
Boxcar Smoothing: 0 (USB2+H05261)
Correct for Electrical Dark: No (USB2+H05261)
Strobe/Lamp Enabled: No (USB2+H05261)
Correct for Detector Non-linearity: No (USB2+H05261)
Correct for Stray Light: No (USB2+H05261)
Number of Pixels in Processed Spectrum: 2048
>>>>>Begin Processed Spectral Data<<<<<
365.73	84.26
365.92	84.26
366.12	84.26
366.32	0.00
366.52	0.00
366.72	0.00
366.91	0.00
367.11	0.00
367.31	0.00
367.51	0.00
367.70	0.00
367.90	0.00
368.10	0.00
368.30	0.00
368.49	0.00
368.69	0.00
368.89	0.00
369.09	0.00
369.28	0.00
369.48	0.00
369.68	0.00
369.87	9.36
370.07	7.02
370.27	42.13
370.47	9.36
370.66	23.41
370.86	95.96
371.06	51.49
371.25	107.66
371.45	79.58
371.65	166.18
371.84	35.11
372.04	49.15
372.24	147.45
372.44	117.03
372.63	39.79
372.83	60.85
373.03	53.83
373.22	145.11
373.42	194.26
373.62	77.24
373.81	187.24
374.01	175.54
374.21	126.39
374.40	163.84
374.60	154.48
374.79	152.13
374.99	98.30
375.19	180.22
375.38	119.37
375.58	180.22
375.78	161.50
375.97	191.92
376.17	131.07
376.37	114.69
376.56	117.03
376.76	67.88
376.95	117.03
377.15	133.41
377.35	110.01
377.54	126.39
377.74	100.64
377.93	142.77
378.13	102.98
378.33	119.37
378.52	133.41
378.72	65.54
378.91	107.66
379.11	53.83
379.31	77.24
379.50	140.43
379.70	177.88
379.89	77.24
380.09	117.03
380.28	67.88
380.48	63.19
380.68	60.85
380.87	112.35
381.07	145.11
381.26	142.77
381.46	105.32
381.65	91.28
381.85	131.07
382.04	102.98
382.24	79.58
382.43	100.64
382.63	72.56
382.83	107.66
383.02	126.39
383.22	128.73
383.41	35.11
383.61	95.96
383.80	182.56
384.00	126.39
384.19	16.38
384.39	58.51
384.58	70.22
384.78	107.66
384.97	142.77
385.17	93.62
385.36	44.47
385.56	201.29
385.75	166.18
385.95	107.66
386.14	140.43
386.34	60.85
386.53	51.49
386.72	102.98
386.92	149.79
387.11	79.58
387.31	131.07
387.50	74.90
387.70	74.90
387.89	121.71
388.09	70.22
388.28	56.17
388.48	98.30
388.67	114.69
388.86	102.98
389.06	86.60
389.25	72.56
389.45	145.11
389.64	142.77
389.84	114.69
390.03	91.28
390.22	93.62
390.42	79.58
390.61	175.54
390.81	30.43
391.00	121.71
391.19	210.65
391.39	131.07
391.58	135.75
391.78	117.03
391.97	166.18
392.16	124.05
392.36	203.63
392.55	91.28
392.75	170.86
392.94	147.45
393.13	86.60
393.33	110.01
393.52	98.30
393.71	124.05
393.91	60.85
394.10	65.54
394.29	140.43
394.49	142.77
394.68	161.50
394.88	170.86
395.07	105.32
395.26	124.05
395.46	126.39
395.65	154.48
395.84	16.38
396.04	168.52
396.23	119.37
396.42	86.60
396.62	154.48
396.81	177.88
397.00	74.90
397.19	105.32
397.39	53.83
397.58	133.41
397.77	100.64
397.97	105.32
398.16	156.82
398.35	79.58
398.55	91.28
398.74	100.64
398.93	156.82
399.12	77.24
399.32	107.66
399.51	166.18
399.70	95.96
399.90	147.45
400.09	163.84
400.28	152.13
400.47	93.62
400.67	81.92
400.86	86.60
401.05	98.30
401.24	198.95
401.44	121.71
401.63	184.90
401.82	170.86
402.01	79.58
402.21	65.54
402.40	117.03
402.59	133.41
402.78	93.62
402.97	168.52
403.17	147.45
403.36	166.18
403.55	163.84
403.74	383.85
403.93	814.51
404.13	1523.69
404.32	1640.72
404.51	1397.30
404.70	791.10
404.89	346.40
405.09	215.33
405.28	126.39
405.47	142.77
405.66	215.33
405.85	180.22
406.05	152.13
406.24	79.58
406.43	156.82
406.62	100.64
406.81	152.13
407.00	217.67
407.20	269.16
407.39	294.91
407.58	269.16
407.77	262.14
407.96	222.35
408.15	236.39
408.34	98.30
408.54	147.45
408.73	145.11
408.92	140.43
409.11	152.13
409.30	201.29
409.49	107.66
409.68	194.26
409.87	191.92
410.07	152.13
410.26	194.26
410.45	156.82
410.64	161.50
410.83	182.56
411.02	163.84
411.21	119.37
411.40	156.82
411.59	145.11
411.78	138.09
411.98	145.11
412.17	182.56
412.36	154.48
412.55	161.50
412.74	131.07
412.93	163.84
413.12	156.82
413.31	173.20
413.50	142.77
413.69	105.32
413.88	159.16
414.07	173.20
414.26	98.30
414.45	110.01
414.64	271.50
414.83	203.63
415.02	128.73
415.22	220.01
415.41	166.18
415.60	135.75
415.79	173.20
415.98	142.77
416.17	138.09
416.36	77.24
416.55	196.60
416.74	175.54
416.93	229.37
417.12	163.84
417.31	154.48
417.50	168.52
417.69	131.07
417.88	187.24
418.07	152.13
418.26	170.86
418.45	173.20
418.64	117.03
418.83	173.20
419.02	126.39
419.21	135.75
419.39	140.43
419.58	128.73
419.77	145.11
419.96	191.92
420.15	231.71
420.34	124.05
420.53	220.01
420.72	128.73
420.91	177.88
421.10	93.62
421.29	245.76
421.48	142.77
421.67	191.92
421.86	124.05
422.05	194.26
422.24	194.26
422.43	163.84
422.61	112.35
422.80	241.08
422.99	163.84
423.18	180.22
423.37	266.82
423.56	161.50
423.75	133.41
423.94	147.45
424.13	135.75
424.32	194.26
424.50	184.90
424.69	196.60
424.88	224.69
425.07	180.22
425.26	154.48
425.45	243.42
425.64	98.30
425.83	173.20
426.01	224.69
426.20	128.73
426.39	166.18
426.58	173.20
426.77	147.45
426.96	196.60
427.15	220.01
427.33	194.26
427.52	201.29
427.71	170.86
427.90	138.09
428.09	191.92
428.28	189.58
428.46	119.37
428.65	145.11
428.84	227.03
429.03	215.33
429.22	177.88
429.40	177.88
429.59	222.35
429.78	154.48
429.97	128.73
430.16	194.26
430.34	259.80
430.53	135.75
430.72	217.67
430.91	163.84
431.10	189.58
431.28	224.69
431.47	290.23
431.66	149.79
431.85	184.90
432.03	126.39
432.22	229.37
432.41	154.48
432.60	227.03
432.79	168.52
432.97	243.42
433.16	229.37
433.35	201.29
433.54	220.01
433.72	227.03
433.91	231.71
434.10	215.33
434.28	362.78
434.47	402.57
434.66	369.80
434.85	433.00
435.03	1448.79
435.22	4657.67
435.41	6857.77
435.59	6008.16
435.78	3985.93
435.97	1959.03
436.16	842.59
436.34	442.36
436.53	292.57
436.72	327.68
436.90	227.03
437.09	175.54
437.28	220.01
437.46	212.99
437.65	266.82
437.84	255.12
438.02	215.33
438.21	236.39
438.40	163.84
438.58	208.31
438.77	124.05
438.96	191.92
439.14	196.60
439.33	252.78
439.52	245.76
439.70	170.86
439.89	259.80
440.08	182.56
440.26	271.50
440.45	287.89
440.63	222.35
440.82	224.69
441.01	252.78
441.19	322.99
441.38	198.95
441.57	271.50
441.75	269.16
441.94	203.63
442.12	194.26
442.31	215.33
442.50	262.14
442.68	180.22
442.87	201.29
443.05	152.13
443.24	177.88
443.43	255.12
443.61	210.65
443.80	208.31
443.98	205.97
444.17	184.90
444.35	248.10
444.54	250.44
444.73	227.03
444.91	231.71
445.10	208.31
445.28	229.37
445.47	227.03
445.65	236.39
445.84	241.08
446.02	229.37
446.21	255.12
446.39	212.99
446.58	234.05
446.77	140.43
446.95	264.48
447.14	322.99
447.32	224.69
447.51	196.60
447.69	203.63
447.88	243.42
448.06	318.31
448.25	205.97
448.43	217.67
448.62	149.79
448.80	224.69
448.99	308.95
449.17	276.18
449.36	170.86
449.54	227.03
449.73	131.07
449.91	231.71
450.10	236.39
450.28	276.18
450.46	241.08
450.65	304.27
450.83	222.35
451.02	259.80
451.20	222.35
451.39	210.65
451.57	266.82
451.76	250.44
451.94	264.48
452.13	238.73
452.31	156.82
452.49	156.82
452.68	210.65
452.86	236.39
453.05	271.50
453.23	322.99
453.42	222.35
453.60	208.31
453.78	222.35
453.97	220.01
454.15	287.89
454.34	187.24
454.52	212.99
454.70	252.78
454.89	252.78
455.07	217.67
455.26	264.48
455.44	262.14
455.62	194.26
455.81	229.37
455.99	184.90
456.17	224.69
456.36	294.91
456.54	238.73
456.73	105.32
456.91	245.76
457.09	198.95
457.28	285.55
457.46	189.58
457.64	210.65
457.83	241.08
458.01	208.31
458.19	196.60
458.38	194.26
458.56	245.76
458.74	222.35
458.93	198.95
459.11	252.78
459.29	220.01
459.48	250.44
459.66	271.50
459.84	248.10
460.03	325.33
460.21	271.50
460.39	196.60
460.57	243.42
460.76	220.01
460.94	170.86
461.12	210.65
461.31	248.10
461.49	236.39
461.67	217.67
461.85	205.97
462.04	255.12
462.22	636.63
462.40	189.58
462.59	147.45
462.77	208.31
462.95	201.29
463.13	110.01
463.32	259.80
463.50	217.67
463.68	187.24
463.86	191.92
464.05	236.39
464.23	257.46
464.41	147.45
464.59	194.26
464.78	205.97
464.96	156.82
465.14	198.95
465.32	189.58
465.50	278.52
465.69	243.42
465.87	208.31
466.05	168.52
466.23	201.29
466.41	271.50
466.60	217.67
466.78	243.42
466.96	205.97
467.14	276.18
467.32	262.14
467.51	182.56
467.69	255.12
467.87	278.52
468.05	227.03
468.23	222.35
468.41	198.95
468.60	205.97
468.78	257.46
468.96	252.78
469.14	231.71
469.32	131.07
469.50	184.90
469.69	229.37
469.87	231.71
470.05	238.73
470.23	234.05
470.41	257.46
470.59	212.99
470.77	196.60
470.95	170.86
471.14	222.35
471.32	198.95
471.50	276.18
471.68	198.95
471.86	210.65
472.04	236.39
472.22	238.73
472.40	227.03
472.58	248.10
472.77	250.44
472.95	238.73
473.13	320.65
473.31	330.02
473.49	177.88
473.67	205.97
473.85	212.99
474.03	135.75
474.21	245.76
474.39	234.05
474.57	224.69
474.75	149.79
474.93	250.44
475.12	220.01
475.30	196.60
475.48	187.24
475.66	210.65
475.84	241.08
476.02	283.20
476.20	271.50
476.38	262.14
476.56	245.76
476.74	269.16
476.92	229.37
477.10	198.95
477.28	311.29
477.46	201.29
477.64	241.08
477.82	259.80
478.00	182.56
478.18	241.08
478.36	234.05
478.54	215.33
478.72	220.01
478.90	189.58
479.08	280.86
479.26	259.80
479.44	271.50
479.62	292.57
479.80	255.12
479.98	257.46
480.16	276.18
480.34	313.63
480.52	215.33
480.70	262.14
480.88	320.65
481.06	283.20
481.24	283.20
481.41	297.25
481.59	222.35
481.77	292.57
481.95	365.12
482.13	376.83
482.31	304.27
482.49	390.87
482.67	344.06
482.85	479.81
483.03	402.57
483.21	428.32
483.39	440.02
483.57	500.87
483.74	543.00
483.92	496.19
484.10	559.39
484.28	547.69
484.46	594.50
484.64	624.92
484.82	627.26
485.00	557.05
485.18	636.63
485.35	706.84
485.53	681.10
485.71	835.57
485.89	744.29
486.07	697.48
486.25	821.53
486.43	851.96
486.61	777.06
486.78	784.08
486.96	697.48
487.14	793.44
487.32	788.76
487.50	758.33
487.68	784.08
487.85	706.84
488.03	844.93
488.21	655.35
488.39	786.42
488.57	767.70
488.75	774.72
488.92	985.37
489.10	657.69
489.28	697.48
489.46	643.65
489.64	683.44
489.81	671.73
489.99	685.78
490.17	638.97
490.35	695.14
490.53	624.92
490.70	615.56
490.88	617.90
491.06	695.14
491.24	716.20
491.41	650.67
491.59	638.97
491.77	592.16
491.95	566.41
492.13	585.13
492.30	561.73
492.48	557.05
492.66	557.05
492.84	622.58
493.01	575.77
493.19	552.37
493.37	627.26
493.54	573.43
493.72	566.41
493.90	545.34
494.08	402.57
494.25	475.13
494.43	587.47
494.61	594.50
494.79	550.03
494.96	472.79
495.14	442.36
495.32	437.68
495.49	521.94
495.67	505.56
495.85	500.87
496.02	479.81
496.20	500.87
496.38	484.49
496.55	442.36
496.73	444.70
496.91	435.34
497.09	472.79
497.26	484.49
497.44	407.25
497.62	365.12
497.79	416.62
497.97	454.06
498.14	428.32
498.32	409.59
498.50	442.36
498.67	390.87
498.85	353.42
499.03	360.44
499.20	411.93
499.38	409.59
499.56	425.98
499.73	435.34
499.91	414.27
500.08	430.66
500.26	435.34
500.44	308.95
500.61	442.36
500.79	341.72
500.97	355.76
501.14	372.15
501.32	409.59
501.49	372.15
501.67	290.23
501.84	266.82
502.02	304.27
502.20	294.91
502.37	322.99
502.55	318.31
502.72	304.27
502.90	322.99
503.07	234.05
503.25	344.06
503.43	257.46
503.60	177.88
503.78	285.55
503.95	325.33
504.13	266.82
504.30	257.46
504.48	287.89
504.65	283.20
504.83	280.86
505.01	283.20
505.18	276.18
505.36	250.44
505.53	341.72
505.71	276.18
505.88	304.27
506.06	234.05
506.23	294.91
506.41	229.37
506.58	320.65
506.76	264.48
506.93	250.44
507.11	222.35
507.28	313.63
507.46	280.86
507.63	238.73
507.81	222.35
507.98	266.82
508.16	238.73
508.33	322.99
508.50	320.65
508.68	250.44
508.85	308.95
509.03	234.05
509.20	283.20
509.38	262.14
509.55	231.71
509.73	276.18
509.90	304.27
510.08	245.76
510.25	264.48
510.42	271.50
510.60	231.71
510.77	294.91
510.95	355.76
511.12	234.05
511.30	308.95
511.47	299.59
511.64	273.84
511.82	285.55
511.99	299.59
512.17	297.25
512.34	201.29
512.51	248.10
512.69	248.10
512.86	243.42
513.04	234.05
513.21	276.18
513.38	320.65
513.56	248.10
513.73	189.58
513.90	273.84
514.08	264.48
514.25	262.14
514.43	245.76
514.60	184.90
514.77	257.46
514.95	280.86
515.12	194.26
515.29	262.14
515.47	259.80
515.64	245.76
515.81	217.67
515.99	306.61
516.16	266.82
516.33	301.93
516.51	238.73
516.68	287.89
516.85	212.99
517.03	222.35
517.20	259.80
517.37	294.91
517.54	241.08
517.72	243.42
517.89	283.20
518.06	224.69
518.24	337.04
518.41	271.50
518.58	198.95
518.75	210.65
518.93	315.97
519.10	184.90
519.27	224.69
519.45	182.56
519.62	290.23
519.79	278.52
519.96	194.26
520.14	273.84
520.31	318.31
520.48	222.35
520.65	255.12
520.83	243.42
521.00	304.27
521.17	224.69
521.34	287.89
521.52	215.33
521.69	222.35
521.86	229.37
522.03	273.84
522.20	257.46
522.38	238.73
522.55	252.78
522.72	212.99
522.89	327.68
523.07	320.65
523.24	285.55
523.41	198.95
523.58	236.39
523.75	222.35
523.92	243.42
524.10	224.69
524.27	278.52
524.44	248.10
524.61	367.46
524.78	271.50
524.96	259.80
525.13	250.44
525.30	212.99
525.47	397.89
525.64	283.20
525.81	236.39
525.98	299.59
526.16	252.78
526.33	220.01
526.50	220.01
526.67	238.73
526.84	299.59
527.01	318.31
527.18	332.36
527.36	280.86
527.53	304.27
527.70	332.36
527.87	250.44
528.04	348.74
528.21	257.46
528.38	273.84
528.55	290.23
528.72	294.91
528.89	283.20
529.07	311.29
529.24	280.86
529.41	304.27
529.58	315.97
529.75	227.03
529.92	220.01
530.09	220.01
530.26	287.89
530.43	301.93
530.60	266.82
530.77	299.59
530.94	287.89
531.11	353.42
531.28	325.33
531.46	250.44
531.63	306.61
531.80	341.72
531.97	341.72
532.14	414.27
532.31	383.85
532.48	402.57
532.65	435.34
532.82	517.26
532.99	449.38
533.16	535.98
533.33	585.13
533.50	425.98
533.67	484.49
533.84	472.79
534.01	430.66
534.18	372.15
534.35	447.04
534.52	379.17
534.69	362.78
534.86	358.10
535.03	421.30
535.20	428.32
535.37	437.68
535.54	484.49
535.71	475.13
535.88	517.26
536.05	489.17
536.22	491.51
536.38	540.66
536.55	620.24
536.72	688.12
536.89	662.37
537.06	751.31
537.23	788.76
537.40	828.55
537.57	851.96
537.74	882.38
537.91	915.15
538.08	1048.56
538.25	936.21
538.42	976.00
538.59	971.32
538.75	1102.39
538.92	1153.88
539.09	1226.44
539.26	1200.69
539.43	1453.47
539.60	1563.48
539.77	1659.44
539.94	1989.46
540.11	2139.25
540.28	2296.07
540.44	2539.48
540.61	2686.94
540.78	3059.08
540.95	3660.60
541.12	4341.69
541.29	4641.28
541.46	4709.16
541.62	4620.22
541.79	4329.99
541.96	4191.90
542.13	4049.13
542.30	3765.92
542.47	3499.10
542.63	3529.53
542.80	3538.89
542.97	3213.56
543.14	3239.30
543.31	3311.86
543.48	3384.41
543.64	3412.50
543.81	3377.39
543.98	3426.54
544.15	3494.42
544.32	3445.27
544.48	3524.85
544.65	3471.01
544.82	3211.22
544.99	3463.99
545.16	3293.13
545.32	3763.58
545.49	7468.65
545.66	10714.97
545.83	11798.64
546.00	9827.91
546.16	7061.40
546.33	5088.32
546.50	3859.54
546.67	3393.78
546.83	2937.37
547.00	2881.20
547.17	2686.94
547.34	2602.68
547.50	2471.61
547.67	2455.22
547.84	2342.88
548.00	2286.70
548.17	2188.40
548.34	2263.30
548.51	2057.33
548.67	1952.01
548.84	1944.99
549.01	1837.32
549.18	1865.41
549.34	1717.95
549.51	1619.65
549.68	1664.12
549.84	1519.01
550.01	1369.21
550.18	1455.81
550.34	1350.49
550.51	1273.25
550.68	1320.06
550.84	1177.29
551.01	1181.97
551.18	1221.76
551.34	1081.33
551.51	1078.99
551.68	1015.79
551.84	908.13
552.01	917.49
552.18	877.70
552.34	959.62
552.51	908.13
552.68	812.17
552.84	765.36
553.01	788.76
553.18	814.51
553.34	798.12
553.51	688.12
553.67	664.71
553.84	755.99
554.01	772.38
554.17	713.86
554.34	676.41
554.51	573.43
554.67	603.86
554.84	470.45
555.00	552.37
555.17	578.11
555.33	484.49
555.50	545.34
555.67	482.15
555.83	451.72
556.00	482.15
556.16	624.92
556.33	395.55
556.50	475.13
556.66	440.02
556.83	397.89
556.99	393.21
557.16	423.64
557.32	409.59
557.49	421.30
557.65	346.40
557.82	304.27
557.98	449.38
558.15	351.08
558.32	313.63
558.48	355.76
558.65	276.18
558.81	325.33
558.98	276.18
559.14	327.68
559.31	351.08
559.47	379.17
559.64	372.15
559.80	315.97
559.97	372.15
560.13	332.36
560.30	269.16
560.46	327.68
560.63	388.53
560.79	330.02
560.96	376.83
561.12	299.59
561.29	322.99
561.45	355.76
561.61	365.12
561.78	404.91
561.94	315.97
562.11	341.72
562.27	409.59
562.44	330.02
562.60	379.17
562.77	360.44
562.93	404.91
563.10	269.16
563.26	353.42
563.42	355.76
563.59	341.72
563.75	306.61
563.92	308.95
564.08	332.36
564.24	299.59
564.41	297.25
564.57	320.65
564.74	313.63
564.90	358.10
565.07	311.29
565.23	320.65
565.39	337.04
565.56	315.97
565.72	301.93
565.88	264.48
566.05	301.93
566.21	212.99
566.38	332.36
566.54	227.03
566.70	292.57
566.87	290.23
567.03	287.89
567.19	299.59
567.36	320.65
567.52	311.29
567.68	266.82
567.85	304.27
568.01	290.23
568.17	299.59
568.34	383.85
568.50	285.55
568.66	334.70
568.83	311.29
568.99	201.29
569.15	264.48
569.32	341.72
569.48	262.14
569.64	152.13
569.81	255.12
569.97	287.89
570.13	297.25
570.30	280.86
570.46	227.03
570.62	231.71
570.78	264.48
570.95	327.68
571.11	334.70
571.27	304.27
571.43	264.48
571.60	315.97
571.76	301.93
571.92	236.39
572.09	299.59
572.25	297.25
572.41	271.50
572.57	222.35
572.74	278.52
572.90	266.82
573.06	304.27
573.22	212.99
573.38	259.80
573.55	351.08
573.71	285.55
573.87	311.29
574.03	311.29
574.20	252.78
574.36	381.51
574.52	259.80
574.68	250.44
574.84	311.29
575.01	304.27
575.17	325.33
575.33	285.55
575.49	348.74
575.65	294.91
575.82	355.76
575.98	393.21
576.14	409.59
576.30	912.81
576.46	1797.53
576.62	2251.60
576.79	2176.70
576.95	1624.33
577.11	1121.12
577.27	826.21
577.43	608.54
577.59	442.36
577.75	388.53
577.92	447.04
578.08	367.46
578.24	435.34
578.40	898.77
578.56	1633.69
578.72	1949.67
578.88	1991.80
579.04	1411.34
579.21	1114.10
579.37	863.66
579.53	758.33
579.69	851.96
579.85	931.53
580.01	1053.24
580.17	978.34
580.33	770.04
580.49	779.40
580.65	662.37
580.82	643.65
580.98	615.56
581.14	634.29
581.30	692.80
581.46	746.63
581.62	788.76
581.78	777.06
581.94	847.27
582.10	856.64
582.26	880.04
582.42	910.47
582.58	947.92
582.74	922.17
582.90	938.55
583.06	1004.09
583.22	912.81
583.38	922.17
583.54	875.36
583.70	926.85
583.86	1034.52
584.02	919.83
584.18	870.68
584.34	807.48
584.50	917.49
584.66	798.12
584.82	812.17
584.98	814.51
585.14	931.53
585.30	922.17
585.46	851.96
585.62	774.72
585.78	723.23
585.94	833.23
586.10	854.30
586.26	940.90
586.42	1046.22
586.58	1184.31
586.74	1338.79
586.90	1540.07
587.06	1703.91
587.22	1586.88
587.38	1493.26
587.54	1177.29
587.70	1118.78
587.86	1095.37
588.02	901.11
588.18	751.31
588.34	702.16
588.49	676.41
588.65	622.58
588.81	718.54
588.97	667.05
589.13	578.11
589.29	667.05
589.45	620.24
589.61	638.97
589.77	653.01
589.93	648.33
590.08	690.46
590.24	660.03
590.40	627.26
590.56	781.74
590.72	629.60
590.88	587.47
591.04	709.18
591.20	730.25
591.35	779.40
591.51	805.14
591.67	816.85
591.83	725.57
591.99	950.26
592.15	976.00
592.31	992.39
592.46	1001.75
592.62	1205.38
592.78	1184.31
592.94	1179.63
593.10	1114.10
593.26	1100.05
593.41	1149.20
593.57	917.49
593.73	861.32
593.89	837.91
594.05	730.25
594.20	627.26
594.36	634.29
594.52	526.62
594.68	559.39
594.84	519.60
594.99	657.69
595.15	557.05
595.31	493.85
595.47	582.79
595.62	587.47
595.78	521.94
595.94	531.30
596.10	545.34
596.25	489.17
596.41	517.26
596.57	603.86
596.73	559.39
596.88	566.41
597.04	498.53
597.20	482.15
597.36	610.88
597.51	561.73
597.67	554.71
597.83	613.22
597.99	660.03
598.14	746.63
598.30	720.88
598.46	800.46
598.61	723.23
598.77	720.88
598.93	856.64
599.09	814.51
599.24	819.19
599.40	798.12
599.56	688.12
599.71	744.29
599.87	648.33
600.03	697.48
600.18	538.32
600.34	678.76
600.50	507.90
600.65	543.00
600.81	566.41
600.97	517.26
601.12	484.49
601.28	498.53
601.44	512.58
601.59	486.83
601.75	458.74
601.91	458.74
602.06	475.13
602.22	486.83
602.37	477.47
602.53	423.64
602.69	425.98
602.84	465.77
603.00	458.74
603.16	423.64
603.31	491.51
603.47	437.68
603.62	404.91
603.78	402.57
603.94	507.90
604.09	463.43
604.25	442.36
604.40	435.34
604.56	468.11
604.71	468.11
604.87	454.06
605.03	458.74
605.18	543.00
605.34	547.69
605.49	524.28
605.65	440.02
605.80	528.96
605.96	528.96
606.12	554.71
606.27	578.11
606.43	580.45
606.58	674.07
606.74	582.79
606.89	643.65
607.05	676.41
607.20	685.78
607.36	730.25
607.51	695.14
607.67	730.25
607.82	784.08
607.98	875.36
608.13	863.66
608.29	950.26
608.44	1032.18
608.60	1083.67
608.75	1179.63
608.91	1357.51
609.06	1444.11
609.22	1462.83
609.37	1598.59
609.53	1856.04
609.68	2040.95
609.84	2265.64
609.99	2588.63
