SpectraSuite Data File
++++++++++++++++++++++++++++++++++++
Date: Fri Oct 04 11:42:26 GMT-05:00 2013
User: price-jones
Dark Spectrum Present: No
Reference Spectrum Present: No
Number of Sampled Component Spectra: 1
Spectrometers: USB2+H05261
Integration Time (usec): 100000 (USB2+H05261)
Spectra Averaged: 1 (USB2+H05261)
Boxcar Smoothing: 0 (USB2+H05261)
Correct for Electrical Dark: No (USB2+H05261)
Strobe/Lamp Enabled: No (USB2+H05261)
Correct for Detector Non-linearity: No (USB2+H05261)
Correct for Stray Light: No (USB2+H05261)
Number of Pixels in Processed Spectrum: 2048
>>>>>Begin Processed Spectral Data<<<<<
365.73	39.79
365.92	39.79
366.12	39.79
366.32	0.00
366.52	0.00
366.72	0.00
366.91	0.00
367.11	0.00
367.31	0.00
367.51	0.00
367.70	0.00
367.90	0.00
368.10	0.00
368.30	0.00
368.49	0.00
368.69	0.00
368.89	0.00
369.09	0.00
369.28	0.00
369.48	0.00
369.68	21.06
369.87	28.09
370.07	0.00
370.27	4.68
370.47	0.00
370.66	0.00
370.86	51.49
371.06	63.19
371.25	88.94
371.45	63.19
371.65	91.28
371.84	105.32
372.04	65.54
372.24	152.13
372.44	131.07
372.63	98.30
372.83	107.66
373.03	110.01
373.22	128.73
373.42	74.90
373.62	56.17
373.81	93.62
374.01	126.39
374.21	112.35
374.40	110.01
374.60	149.79
374.79	81.92
374.99	65.54
375.19	88.94
375.38	147.45
375.58	184.90
375.78	159.16
375.97	145.11
376.17	201.29
376.37	121.71
376.56	117.03
376.76	124.05
376.95	112.35
377.15	112.35
377.35	70.22
377.54	93.62
377.74	42.13
377.93	117.03
378.13	110.01
378.33	147.45
378.52	119.37
378.72	84.26
378.91	105.32
379.11	100.64
379.31	93.62
379.50	72.56
379.70	65.54
379.89	107.66
380.09	100.64
380.28	0.00
380.48	84.26
380.68	131.07
380.87	70.22
381.07	105.32
381.26	79.58
381.46	142.77
381.65	110.01
381.85	95.96
382.04	53.83
382.24	131.07
382.43	135.75
382.63	72.56
382.83	95.96
383.02	102.98
383.22	67.88
383.41	117.03
383.61	86.60
383.80	105.32
384.00	74.90
384.19	121.71
384.39	60.85
384.58	84.26
384.78	135.75
384.97	98.30
385.17	79.58
385.36	110.01
385.56	149.79
385.75	147.45
385.95	86.60
386.14	135.75
386.34	51.49
386.53	74.90
386.72	147.45
386.92	142.77
387.11	170.86
387.31	138.09
387.50	95.96
387.70	63.19
387.89	86.60
388.09	39.79
388.28	70.22
388.48	98.30
388.67	121.71
388.86	37.45
389.06	60.85
389.25	56.17
389.45	114.69
389.64	81.92
389.84	95.96
390.03	163.84
390.22	138.09
390.42	121.71
390.61	98.30
390.81	58.51
391.00	74.90
391.19	112.35
391.39	88.94
391.58	138.09
391.78	124.05
391.97	124.05
392.16	32.77
392.36	128.73
392.55	77.24
392.75	42.13
392.94	126.39
393.13	175.54
393.33	60.85
393.52	119.37
393.71	163.84
393.91	91.28
394.10	67.88
394.29	124.05
394.49	131.07
394.68	107.66
394.88	100.64
395.07	112.35
395.26	117.03
395.46	86.60
395.65	63.19
395.84	105.32
396.04	215.33
396.23	102.98
396.42	98.30
396.62	86.60
396.81	88.94
397.00	124.05
397.19	121.71
397.39	53.83
397.58	131.07
397.77	163.84
397.97	140.43
398.16	142.77
398.35	170.86
398.55	53.83
398.74	39.79
398.93	119.37
399.12	121.71
399.32	114.69
399.51	102.98
399.70	119.37
399.90	117.03
400.09	98.30
400.28	152.13
400.47	124.05
400.67	126.39
400.86	110.01
401.05	93.62
401.24	224.69
401.44	154.48
401.63	133.41
401.82	152.13
402.01	117.03
402.21	147.45
402.40	189.58
402.59	49.15
402.78	128.73
402.97	124.05
403.17	105.32
403.36	119.37
403.55	126.39
403.74	241.08
403.93	456.40
404.13	866.00
404.32	1004.09
404.51	849.61
404.70	552.37
404.89	306.61
405.09	194.26
405.28	149.79
405.47	121.71
405.66	126.39
405.85	208.31
406.05	133.41
406.24	100.64
406.43	168.52
406.62	86.60
406.81	133.41
407.00	175.54
407.20	196.60
407.39	203.63
407.58	290.23
407.77	259.80
407.96	156.82
408.15	163.84
408.34	112.35
408.54	187.24
408.73	161.50
408.92	147.45
409.11	46.81
409.30	107.66
409.49	117.03
409.68	140.43
409.87	121.71
410.07	140.43
410.26	93.62
410.45	112.35
410.64	147.45
410.83	243.42
411.02	140.43
411.21	112.35
411.40	173.20
411.59	25.75
411.78	135.75
411.98	145.11
412.17	81.92
412.36	128.73
412.55	159.16
412.74	152.13
412.93	170.86
413.12	152.13
413.31	152.13
413.50	124.05
413.69	121.71
413.88	145.11
414.07	163.84
414.26	140.43
414.45	100.64
414.64	191.92
414.83	114.69
415.02	163.84
415.22	131.07
415.41	140.43
415.60	161.50
415.79	124.05
415.98	159.16
416.17	208.31
416.36	124.05
416.55	138.09
416.74	168.52
416.93	156.82
417.12	145.11
417.31	147.45
417.50	124.05
417.69	117.03
417.88	110.01
418.07	67.88
418.26	112.35
418.45	91.28
418.64	173.20
418.83	194.26
419.02	100.64
419.21	114.69
419.39	124.05
419.58	140.43
419.77	128.73
419.96	198.95
420.15	189.58
420.34	196.60
420.53	196.60
420.72	156.82
420.91	112.35
421.10	86.60
421.29	161.50
421.48	191.92
421.67	173.20
421.86	152.13
422.05	138.09
422.24	159.16
422.43	156.82
422.61	140.43
422.80	163.84
422.99	133.41
423.18	229.37
423.37	266.82
423.56	166.18
423.75	177.88
423.94	149.79
424.13	145.11
424.32	128.73
424.50	177.88
424.69	149.79
424.88	145.11
425.07	227.03
425.26	224.69
425.45	163.84
425.64	182.56
425.83	170.86
426.01	131.07
426.20	175.54
426.39	173.20
426.58	156.82
426.77	140.43
426.96	173.20
427.15	210.65
427.33	147.45
427.52	161.50
427.71	112.35
427.90	203.63
428.09	231.71
428.28	217.67
428.46	180.22
428.65	135.75
428.84	187.24
429.03	180.22
429.22	88.94
429.40	145.11
429.59	124.05
429.78	227.03
429.97	166.18
430.16	119.37
430.34	217.67
430.53	163.84
430.72	145.11
430.91	205.97
431.10	102.98
431.28	117.03
431.47	175.54
431.66	229.37
431.85	248.10
432.03	224.69
432.22	220.01
432.41	175.54
432.60	248.10
432.79	217.67
432.97	184.90
433.16	224.69
433.35	154.48
433.54	173.20
433.72	231.71
433.91	278.52
434.10	290.23
434.28	304.27
434.47	252.78
434.66	315.97
434.85	306.61
435.03	734.93
435.22	2366.28
435.41	4112.32
435.59	3941.46
435.78	2555.86
435.97	1299.00
436.16	624.92
436.34	285.55
436.53	273.84
436.72	229.37
436.90	231.71
437.09	161.50
437.28	168.52
437.46	154.48
437.65	184.90
437.84	229.37
438.02	196.60
438.21	259.80
438.40	205.97
438.58	210.65
438.77	250.44
438.96	203.63
439.14	203.63
439.33	201.29
439.52	184.90
439.70	208.31
439.89	166.18
440.08	175.54
440.26	198.95
440.45	177.88
440.63	126.39
440.82	154.48
441.01	212.99
441.19	222.35
441.38	243.42
441.57	234.05
441.75	229.37
441.94	234.05
442.12	220.01
442.31	138.09
442.50	175.54
442.68	245.76
442.87	93.62
443.05	175.54
443.24	191.92
443.43	191.92
443.61	198.95
443.80	198.95
443.98	222.35
444.17	184.90
444.35	187.24
444.54	208.31
444.73	236.39
444.91	187.24
445.10	198.95
445.28	163.84
445.47	177.88
445.65	170.86
445.84	152.13
446.02	280.86
446.21	255.12
446.39	231.71
446.58	161.50
446.77	163.84
446.95	166.18
447.14	234.05
447.32	154.48
447.51	208.31
447.69	222.35
447.88	294.91
448.06	243.42
448.25	208.31
448.43	189.58
448.62	177.88
448.80	222.35
448.99	236.39
449.17	252.78
449.36	203.63
449.54	283.20
449.73	203.63
449.91	212.99
450.10	262.14
450.28	245.76
450.46	285.55
450.65	170.86
450.83	163.84
451.02	196.60
451.20	227.03
451.39	173.20
451.57	142.77
451.76	135.75
451.94	159.16
452.13	262.14
452.31	189.58
452.49	210.65
452.68	168.52
452.86	203.63
453.05	257.46
453.23	203.63
453.42	166.18
453.60	229.37
453.78	196.60
453.97	133.41
454.15	234.05
454.34	184.90
454.52	220.01
454.70	292.57
454.89	241.08
455.07	224.69
455.26	203.63
455.44	152.13
455.62	131.07
455.81	231.71
455.99	156.82
456.17	201.29
456.36	196.60
456.54	124.05
456.73	248.10
456.91	217.67
457.09	257.46
457.28	224.69
457.46	212.99
457.64	245.76
457.83	175.54
458.01	145.11
458.19	248.10
458.38	208.31
458.56	229.37
458.74	182.56
458.93	180.22
459.11	166.18
459.29	208.31
459.48	126.39
459.66	170.86
459.84	217.67
460.03	266.82
460.21	248.10
460.39	194.26
460.57	271.50
460.76	208.31
460.94	187.24
461.12	276.18
461.31	170.86
461.49	243.42
461.67	191.92
461.85	220.01
462.04	173.20
462.22	318.31
462.40	217.67
462.59	217.67
462.77	257.46
462.95	241.08
463.13	201.29
463.32	266.82
463.50	184.90
463.68	252.78
463.86	208.31
464.05	191.92
464.23	210.65
464.41	227.03
464.59	220.01
464.78	147.45
464.96	231.71
465.14	241.08
465.32	163.84
465.50	238.73
465.69	203.63
465.87	236.39
466.05	222.35
466.23	159.16
466.41	168.52
466.60	159.16
466.78	227.03
466.96	201.29
467.14	187.24
467.32	238.73
467.51	243.42
467.69	194.26
467.87	175.54
468.05	105.32
468.23	250.44
468.41	201.29
468.60	177.88
468.78	269.16
468.96	271.50
469.14	250.44
469.32	117.03
469.50	201.29
469.69	264.48
469.87	229.37
470.05	205.97
470.23	224.69
470.41	191.92
470.59	177.88
470.77	189.58
470.95	220.01
471.14	189.58
471.32	224.69
471.50	241.08
471.68	182.56
471.86	187.24
472.04	187.24
472.22	236.39
472.40	159.16
472.58	215.33
472.77	191.92
472.95	194.26
473.13	210.65
473.31	236.39
473.49	227.03
473.67	217.67
473.85	194.26
474.03	222.35
474.21	294.91
474.39	175.54
474.57	287.89
474.75	198.95
474.93	161.50
475.12	154.48
475.30	128.73
475.48	117.03
475.66	266.82
475.84	266.82
476.02	145.11
476.20	154.48
476.38	170.86
476.56	243.42
476.74	187.24
476.92	147.45
477.10	248.10
477.28	215.33
477.46	124.05
477.64	276.18
477.82	220.01
478.00	236.39
478.18	177.88
478.36	217.67
478.54	170.86
478.72	189.58
478.90	227.03
479.08	250.44
479.26	266.82
479.44	245.76
479.62	220.01
479.80	252.78
479.98	245.76
480.16	257.46
480.34	227.03
480.52	222.35
480.70	306.61
480.88	236.39
481.06	224.69
481.24	264.48
481.41	332.36
481.59	245.76
481.77	259.80
481.95	306.61
482.13	304.27
482.31	327.68
482.49	306.61
482.67	238.73
482.85	358.10
483.03	332.36
483.21	437.68
483.39	407.25
483.57	409.59
483.74	486.83
483.92	433.00
484.10	404.91
484.28	423.64
484.46	622.58
484.64	519.60
484.82	566.41
485.00	554.71
485.18	585.13
485.35	650.67
485.53	594.50
485.71	622.58
485.89	587.47
486.07	650.67
486.25	662.37
486.43	594.50
486.61	622.58
486.78	638.97
486.96	601.52
487.14	681.10
487.32	727.91
487.50	753.65
487.68	704.50
487.85	657.69
488.03	723.23
488.21	678.76
488.39	699.82
488.57	617.90
488.75	678.76
488.92	863.66
489.10	671.73
489.28	774.72
489.46	629.60
489.64	587.47
489.81	638.97
489.99	655.35
490.17	538.32
490.35	725.57
490.53	606.20
490.70	543.00
490.88	594.50
491.06	716.20
491.24	730.25
491.41	702.16
491.59	692.80
491.77	512.58
491.95	608.54
492.13	603.86
492.30	573.43
492.48	533.64
492.66	638.97
492.84	575.77
493.01	617.90
493.19	468.11
493.37	615.56
493.54	575.77
493.72	521.94
493.90	475.13
494.08	454.06
494.25	545.34
494.43	526.62
494.61	496.19
494.79	538.32
494.96	456.40
495.14	514.92
495.32	521.94
495.49	503.22
495.67	554.71
495.85	437.68
496.02	482.15
496.20	524.28
496.38	524.28
496.55	510.24
496.73	449.38
496.91	390.87
497.09	491.51
497.26	444.70
497.44	512.58
497.62	477.47
497.79	435.34
497.97	468.11
498.14	433.00
498.32	454.06
498.50	418.96
498.67	479.81
498.85	425.98
499.03	365.12
499.20	430.66
499.38	414.27
499.56	365.12
499.73	400.23
499.91	404.91
500.08	339.38
500.26	318.31
500.44	313.63
500.61	351.08
500.79	325.33
500.97	299.59
501.14	379.17
501.32	313.63
501.49	301.93
501.67	315.97
501.84	292.57
502.02	292.57
502.20	320.65
502.37	241.08
502.55	264.48
502.72	346.40
502.90	236.39
503.07	262.14
503.25	297.25
503.43	273.84
503.60	245.76
503.78	337.04
503.95	294.91
504.13	224.69
504.30	259.80
504.48	273.84
504.65	290.23
504.83	255.12
505.01	264.48
505.18	311.29
505.36	224.69
505.53	210.65
505.71	273.84
505.88	278.52
506.06	318.31
506.23	262.14
506.41	276.18
506.58	250.44
506.76	271.50
506.93	243.42
507.11	243.42
507.28	278.52
507.46	220.01
507.63	243.42
507.81	234.05
507.98	198.95
508.16	297.25
508.33	212.99
508.50	280.86
508.68	262.14
508.85	196.60
509.03	273.84
509.20	231.71
509.38	222.35
509.55	245.76
509.73	285.55
509.90	280.86
510.08	229.37
510.25	320.65
510.42	264.48
510.60	285.55
510.77	262.14
510.95	278.52
511.12	224.69
511.30	269.16
511.47	248.10
511.64	290.23
511.82	273.84
511.99	241.08
512.17	259.80
512.34	222.35
512.51	278.52
512.69	205.97
512.86	327.68
513.04	250.44
513.21	255.12
513.38	196.60
513.56	180.22
513.73	283.20
513.90	285.55
514.08	264.48
514.25	297.25
514.43	351.08
514.60	238.73
514.77	229.37
514.95	222.35
515.12	292.57
515.29	234.05
515.47	283.20
515.64	227.03
515.81	217.67
515.99	360.44
516.16	208.31
516.33	205.97
516.51	215.33
516.68	248.10
516.85	245.76
517.03	203.63
517.20	238.73
517.37	201.29
517.54	283.20
517.72	250.44
517.89	217.67
518.06	215.33
518.24	252.78
518.41	259.80
518.58	271.50
518.75	224.69
518.93	264.48
519.10	252.78
519.27	222.35
519.45	264.48
519.62	248.10
519.79	304.27
519.96	278.52
520.14	248.10
520.31	283.20
520.48	259.80
520.65	210.65
520.83	299.59
521.00	252.78
521.17	208.31
521.34	224.69
521.52	161.50
521.69	243.42
521.86	301.93
522.03	234.05
522.20	301.93
522.38	231.71
522.55	285.55
522.72	283.20
522.89	301.93
523.07	248.10
523.24	269.16
523.41	259.80
523.58	194.26
523.75	306.61
523.92	243.42
524.10	276.18
524.27	255.12
524.44	217.67
524.61	351.08
524.78	262.14
524.96	273.84
525.13	187.24
525.30	262.14
525.47	262.14
525.64	248.10
525.81	299.59
525.98	297.25
526.16	276.18
526.33	227.03
526.50	299.59
526.67	201.29
526.84	271.50
527.01	217.67
527.18	304.27
527.36	315.97
527.53	276.18
527.70	215.33
527.87	276.18
528.04	330.02
528.21	238.73
528.38	287.89
528.55	290.23
528.72	264.48
528.89	243.42
529.07	271.50
529.24	262.14
529.41	325.33
529.58	264.48
529.75	262.14
529.92	222.35
530.09	337.04
530.26	243.42
530.43	325.33
530.60	252.78
530.77	264.48
530.94	285.55
531.11	320.65
531.28	248.10
531.46	203.63
531.63	304.27
531.80	271.50
531.97	301.93
532.14	308.95
532.31	348.74
532.48	505.56
532.65	404.91
532.82	344.06
532.99	353.42
533.16	414.27
533.33	411.93
533.50	390.87
533.67	400.23
533.84	367.46
534.01	318.31
534.18	376.83
534.35	273.84
534.52	346.40
534.69	355.76
534.86	322.99
535.03	351.08
535.20	472.79
535.37	409.59
535.54	308.95
535.71	372.15
535.88	486.83
536.05	437.68
536.22	489.17
536.38	367.46
536.55	491.51
536.72	472.79
536.89	458.74
537.06	498.53
537.23	521.94
537.40	543.00
537.57	606.20
537.74	763.01
537.91	753.65
538.08	788.76
538.25	802.80
538.42	854.30
538.59	795.78
538.75	894.08
538.92	844.93
539.09	924.51
539.26	983.02
539.43	1022.81
539.60	1111.75
539.77	1289.64
539.94	1373.89
540.11	1472.20
540.28	1397.30
540.44	1486.24
540.61	1605.61
540.78	1811.57
540.95	1991.80
541.12	2392.03
541.29	2670.55
541.46	3059.08
541.62	3330.58
541.79	3719.11
541.96	3840.82
542.13	4114.66
542.30	4093.60
542.47	4152.11
542.63	3985.93
542.80	3857.20
542.97	3971.89
543.14	4053.81
543.31	4241.05
543.48	4140.41
543.64	4236.37
543.81	4028.06
543.98	3927.42
544.15	3843.16
544.32	3700.39
544.48	3618.47
544.65	3463.99
544.82	3435.91
544.99	3239.30
545.16	3243.98
545.32	3131.64
545.49	5144.50
545.66	8458.70
545.83	9771.74
546.00	7943.78
546.16	5500.26
546.33	3906.35
546.50	2775.88
546.67	2146.27
546.83	1870.09
547.00	1736.68
547.17	1451.13
547.34	1516.67
547.50	1514.33
547.67	1432.41
547.84	1446.45
548.00	1441.77
548.17	1425.39
548.34	1404.32
548.51	1526.03
548.67	1495.60
548.84	1528.37
549.01	1544.75
549.18	1448.79
549.34	1418.36
549.51	1444.11
549.68	1338.79
549.84	1275.59
550.01	1158.57
550.18	1196.01
550.34	1128.14
550.51	1107.07
550.68	1144.52
550.84	1076.65
551.01	1078.99
551.18	1029.84
551.34	1004.09
551.51	1060.26
551.68	1071.97
551.84	968.98
552.01	947.92
552.18	978.34
552.34	940.90
552.51	877.70
552.68	866.00
552.84	847.27
553.01	798.12
553.18	777.06
553.34	655.35
553.51	685.78
553.67	650.67
553.84	695.14
554.01	645.99
554.17	575.77
554.34	496.19
554.51	500.87
554.67	578.11
554.84	454.06
555.00	379.17
555.17	386.19
555.33	388.53
555.50	369.80
555.67	351.08
555.83	320.65
556.00	369.80
556.16	594.50
556.33	369.80
556.50	365.12
556.66	337.04
556.83	292.57
556.99	325.33
557.16	360.44
557.32	299.59
557.49	325.33
557.65	299.59
557.82	278.52
557.98	332.36
558.15	313.63
558.32	299.59
558.48	374.49
558.65	355.76
558.81	334.70
558.98	386.19
559.14	332.36
559.31	360.44
559.47	299.59
559.64	304.27
559.80	311.29
559.97	299.59
560.13	234.05
560.30	243.42
560.46	346.40
560.63	365.12
560.79	308.95
560.96	304.27
561.12	339.38
561.29	304.27
561.45	250.44
561.61	327.68
561.78	365.12
561.94	315.97
562.11	311.29
562.27	315.97
562.44	259.80
562.60	308.95
562.77	257.46
562.93	318.31
563.10	308.95
563.26	287.89
563.42	304.27
563.59	308.95
563.75	360.44
563.92	245.76
564.08	285.55
564.24	325.33
564.41	334.70
564.57	339.38
564.74	215.33
564.90	297.25
565.07	334.70
565.23	250.44
565.39	266.82
565.56	313.63
565.72	236.39
565.88	236.39
566.05	292.57
566.21	198.95
566.38	276.18
566.54	259.80
566.70	220.01
566.87	294.91
567.03	238.73
567.19	280.86
567.36	220.01
567.52	262.14
567.68	248.10
567.85	269.16
568.01	189.58
568.17	269.16
568.34	280.86
568.50	402.57
568.66	308.95
568.83	353.42
568.99	285.55
569.15	262.14
569.32	301.93
569.48	248.10
569.64	283.20
569.81	311.29
569.97	271.50
570.13	348.74
570.30	245.76
570.46	245.76
570.62	259.80
570.78	222.35
570.95	255.12
571.11	308.95
571.27	334.70
571.43	255.12
571.60	198.95
571.76	243.42
571.92	271.50
572.09	255.12
572.25	339.38
572.41	287.89
572.57	215.33
572.74	278.52
572.90	248.10
573.06	306.61
573.22	360.44
573.38	276.18
573.55	388.53
573.71	311.29
573.87	294.91
574.03	320.65
574.20	313.63
574.36	337.04
574.52	224.69
574.68	339.38
574.84	348.74
575.01	325.33
575.17	353.42
575.33	304.27
575.49	362.78
575.65	243.42
575.82	360.44
575.98	365.12
576.14	456.40
576.30	660.03
576.46	1324.74
576.62	1769.44
576.79	1818.60
576.95	1301.34
577.11	1008.77
577.27	763.01
577.43	592.16
577.59	528.96
577.75	365.12
577.92	376.83
578.08	395.55
578.24	404.91
578.40	645.99
578.56	1261.55
578.72	1755.40
578.88	1682.85
579.04	1366.87
579.21	999.41
579.37	821.53
579.53	805.14
579.69	861.32
579.85	884.72
580.01	908.13
580.17	938.55
580.33	781.74
580.49	669.39
580.65	751.31
580.82	699.82
580.98	631.94
581.14	608.54
581.30	711.52
581.46	664.71
581.62	699.82
581.78	751.31
581.94	809.83
582.10	779.40
582.26	798.12
582.42	922.17
582.58	849.61
582.74	823.87
582.90	868.34
583.06	1013.45
583.22	1015.79
583.38	1088.35
583.54	947.92
583.70	1018.13
583.86	947.92
584.02	905.79
584.18	994.73
584.34	880.04
584.50	896.43
584.66	830.89
584.82	823.87
584.98	760.67
585.14	791.10
585.30	837.91
585.46	760.67
585.62	720.88
585.78	800.46
585.94	844.93
586.10	840.25
586.26	891.74
586.42	931.53
586.58	1060.26
586.74	1252.19
586.90	1378.58
587.06	1521.35
587.22	1589.22
587.38	1378.58
587.54	1240.48
587.70	1207.72
587.86	1020.47
588.02	940.90
588.18	910.47
588.34	814.51
588.49	779.40
588.65	725.57
588.81	744.29
588.97	657.69
589.13	718.54
589.29	723.23
589.45	734.93
589.61	592.16
589.77	660.03
589.93	688.12
590.08	695.14
590.24	622.58
590.40	655.35
590.56	681.10
590.72	617.90
590.88	599.18
591.04	720.88
591.20	704.50
591.35	631.94
591.51	695.14
591.67	716.20
591.83	688.12
591.99	739.61
592.15	779.40
592.31	812.17
592.46	877.70
592.62	919.83
592.78	973.66
592.94	966.64
593.10	999.41
593.26	924.51
593.41	833.23
593.57	800.46
593.73	713.86
593.89	669.39
594.05	669.39
594.20	428.32
594.36	486.83
594.52	463.43
594.68	393.21
594.84	365.12
594.99	543.00
595.15	444.70
595.31	458.74
595.47	512.58
595.62	493.85
595.78	482.15
595.94	369.80
596.10	465.77
596.25	400.23
596.41	428.32
596.57	411.93
596.73	407.25
596.88	454.06
597.04	383.85
597.20	430.66
597.36	379.17
597.51	423.64
597.67	435.34
597.83	475.13
597.99	547.69
598.14	500.87
598.30	526.62
598.46	531.30
598.61	641.31
598.77	671.73
598.93	725.57
599.09	631.94
599.24	645.99
599.40	713.86
599.56	727.91
599.71	575.77
599.87	648.33
600.03	671.73
600.18	498.53
600.34	505.56
600.50	507.90
600.65	447.04
600.81	440.02
600.97	390.87
601.12	388.53
601.28	437.68
601.44	376.83
601.59	362.78
601.75	365.12
601.91	379.17
602.06	369.80
602.22	437.68
602.37	322.99
602.53	241.08
602.69	416.62
602.84	269.16
603.00	355.76
603.16	358.10
603.31	479.81
603.47	334.70
603.62	339.38
603.78	367.46
603.94	390.87
604.09	400.23
604.25	400.23
604.40	381.51
604.56	411.93
604.71	353.42
604.87	276.18
605.03	383.85
605.18	332.36
605.34	428.32
605.49	449.38
605.65	393.21
605.80	449.38
605.96	433.00
606.12	425.98
606.27	444.70
606.43	540.66
606.58	507.90
606.74	493.85
606.89	517.26
607.05	564.07
607.20	566.41
607.36	594.50
607.51	582.79
607.67	692.80
607.82	767.70
607.98	685.78
608.13	706.84
608.29	685.78
608.44	786.42
608.60	861.32
608.75	912.81
608.91	1048.56
609.06	1034.52
609.22	1151.54
609.37	1261.55
609.53	1336.45
609.68	1481.56
609.84	1671.14
609.99	1942.64
610.15	2422.45
610.30	2829.71
